Data from AgNPs_FTO_APTES_UA_2uM_CRN_1uM_R6G_10uM_NaF_0.1M_Addition_RamanShift__31__11-55-15-040.txt Node

Date: Wed Feb 02 11:55:15 GMT 2022
User: TCL
Spectrometer: QEP01345
Trigger mode: 4
Integration Time (sec): 7.000000E0
Scans to average: 10
Electric dark correction enabled: true
Nonlinearity correction enabled: false
Boxcar width: 0
XAxis mode: Raman Shifts
Number of Pixels in Spectrum: 1044
>>>>>Begin Spectral Data<<<<<
46.04893	2.1375
50.45542	1.1375
54.85868	-1.5625
59.25871	0.2375
63.6555	48.8375
68.04907	50.7375
72.43941	55.7375
76.82654	57.6375
81.21044	61.1375
85.59113	65.9375
89.96862	65.6375
94.34289	70.1375
98.71396	72.5375
103.08183	78.7375
107.4465	78.8375
111.80798	76.0375
116.16626	75.4375
120.52136	82.2375
124.87327	82.9375
129.222	82.7375
133.56755	90.1375
137.90993	92.2375
142.24913	101.4375
146.58517	111.1375
150.91804	119.5375
155.24774	144.5375
159.57429	174.9375
163.89768	216.4375
168.21792	284.7375
172.53501	376.2375
176.84895	511.8375
181.15975	708.5375
185.46741	983.4375
189.77193	1345.4375
194.07331	1793.5375
198.37157	2306.3375
202.6667	2839.6375
206.9587	3369.3375
211.24758	3904.1375
215.53334	4463.4375
219.81599	5126.0375
224.09553	5862.0375
228.37195	6695.5375
232.64527	7584.5375
236.91549	8396.5375
241.18261	9126.3375
245.44663	9667.5375
249.70755	10038.0375
253.96539	10356.3375
258.22014	10652.1375
262.4718	10923.6375
266.72039	11179.3375
270.96589	11285.6375
275.20832	11301.9375
279.44768	11165.0375
283.68397	11039.2375
287.91719	10946.6375
292.14735	11024.6375
296.37445	11364.4375
300.59849	11929.2375
304.81948	12639.6375
309.03742	13203.8375
313.25231	13233.7375
317.46415	12452.1375
321.67296	11183.2375
325.87872	10088.4375
330.08145	9549.3375
334.28114	9475.1375
338.47781	9638.7375
342.67145	10013.8375
346.86207	10603.7375
351.04966	11479.3375
355.23424	12502.4375
359.4158	13235.3375
363.59435	13519.1375
367.76989	13480.5375
371.94243	13321.9375
376.11196	13095.8375
380.27849	12860.1375
384.44203	12610.3375
388.60257	12329.0375
392.76012	12179.5375
396.91468	12309.7375
401.06626	12744.3375
405.21485	13060.6375
409.36047	12790.0375
413.50311	11885.6375
417.64277	11019.8375
421.77947	10521.8375
425.9132	10290.1375
430.04396	10211.8375
434.17176	10210.0375
438.2966	10361.5375
442.41849	10646.5375
446.53742	11082.8375
450.6534	11407.7375
454.76644	11615.2375
458.87653	11619.3375
462.98368	11483.8375
467.08789	11220.5375
471.18916	10908.6375
475.2875	10529.9375
479.38291	10240.7375
483.4754	10012.9375
487.56496	9855.1375
491.6516	9764.5375
495.73531	9742.8375
499.81612	9798.7375
503.89401	9971.5375
507.96899	10147.9375
512.04106	10325.5375
516.11023	10555.4375
520.1765	10705.1375
524.23987	10671.4375
528.30034	10377.3375
532.35792	10027.8375
536.41261	9628.4375
540.46441	9272.9375
544.51333	9069.7375
548.55936	9157.6375
552.60252	9457.5375
556.64279	9817.9375
560.6802	10027.1375
564.71473	10354.4375
568.7464	11017.8375
572.7752	11500.9375
576.80114	11088.6375
580.82422	10546.8375
584.84444	10336.3375
588.86181	10162.4375
592.87633	10096.4375
596.888	10184.7375
600.89682	10719.0375
604.9028	12451.5375
608.90594	17163.1375
612.90624	23438.6375
616.90371	22681.9375
620.89834	14427.8375
624.89015	10361.4375
628.87913	9548.8375
632.86528	9657.6375
636.84862	9910.2375
640.82913	9711.8375
644.80683	9101.0375
648.78172	8684.8375
652.75379	8747.8375
656.72306	9418.9375
660.68952	10169.0375
664.65319	10032.3375
668.61405	9256.0375
672.57211	8811.3375
676.52738	8739.9375
680.47986	8687.8375
684.42955	8580.6375
688.37646	8521.3375
692.32058	8546.7375
696.26192	8681.9375
700.20048	8885.5375
704.13626	9124.2375
708.06928	9131.4375
711.99952	8998.2375
715.927	8901.9375
719.85171	8886.6375
723.77365	8825.4375
727.69284	8645.1375
731.60928	8532.4375
735.52295	8510.3375
739.43388	8538.8375
743.34206	8608.6375
747.24749	8699.6375
751.15017	8816.4375
755.05012	9095.6375
758.94733	9737.6375
762.8418	11216.1375
766.73354	13919.4375
770.62254	16747.5375
774.50882	18220.4375
778.39237	17442.8375
782.27321	14623.2375
786.15132	11659.1375
790.02671	9947.1375
793.89938	9161.7375
797.76935	8820.6375
801.6366	8678.1375
805.50115	8573.4375
809.36299	8503.1375
813.22213	8424.3375
817.07857	8393.7375
820.93231	8362.2375
824.78336	8395.6375
828.63172	8497.0375
832.47738	8533.8375
836.32036	8529.0375
840.16066	8407.6375
843.99827	8329.6375
847.8332	8267.6375
851.66546	8263.4375
855.49504	8269.0375
859.32195	8231.7375
863.1462	8118.7375
866.96777	8064.7375
870.78668	8048.4375
874.60293	8062.3375
878.41652	8126.8375
882.22745	8188.9375
886.03573	8256.9375
889.84136	8233.2375
893.64433	8154.8375
897.44466	8144.9375
901.24235	8159.4375
905.0374	8138.2375
908.8298	8096.6375
912.61957	8070.9375
916.40671	8139.5375
920.19121	8246.3375
923.97308	8389.0375
927.75233	8549.8375
931.52895	8677.4375
935.30295	8533.5375
939.07433	8151.3375
942.84309	7794.7375
946.60924	7581.0375
950.37278	7474.2375
954.13371	7401.6375
957.89203	7358.2375
961.64774	7344.4375
965.40086	7304.6375
969.15137	7268.4375
972.89929	7246.2375
976.64461	7234.8375
980.38733	7227.7375
984.12747	7229.3375
987.86502	7252.5375
991.59999	7305.3375
995.33237	7391.6375
999.06217	7610.3375
1002.78939	7861.2375
1006.51404	8123.0375
1010.23611	8400.7375
1013.95561	8527.8375
1017.67255	8452.1375
1021.38692	8247.7375
1025.09872	8056.1375
1028.80796	7888.6375
1032.51465	7911.9375
1036.21877	8072.8375
1039.92035	8304.0375
1043.61937	8424.6375
1047.31584	8388.8375
1051.00976	8324.1375
1054.70114	8252.4375
1058.38998	8192.6375
1062.07627	8184.6375
1065.76003	8281.0375
1069.44126	8380.7375
1073.11995	8596.6375
1076.79611	8773.6375
1080.46974	8950.2375
1084.14085	9271.0375
1087.80943	9691.5375
1091.47549	9820.0375
1095.13903	9565.8375
1098.80005	9030.4375
1102.45857	8576.0375
1106.11456	8355.7375
1109.76805	8373.3375
1113.41903	8596.6375
1117.06751	9019.4375
1120.71348	9556.1375
1124.35696	10235.5375
1127.99793	10870.7375
1131.63641	10836.7375
1135.2724	10103.0375
1138.90589	9366.5375
1142.5369	8975.7375
1146.16542	8693.7375
1149.79145	8561.5375
1153.415	8575.4375
1157.03607	8716.4375
1160.65467	8974.9375
1164.27079	9480.2375
1167.88443	10185.4375
1171.49561	11409.3375
1175.10432	13462.4375
1178.71056	16167.4375
1182.31434	18005.6375
1185.91565	18318.7375
1189.51451	17722.0375
1193.11091	16381.9375
1196.70485	14706.1375
1200.29634	13387.8375
1203.88538	12392.0375
1207.47197	11248.1375
1211.05612	10378.8375
1214.63782	9865.7375
1218.21708	9724.5375
1221.79391	9749.3375
1225.36829	9952.1375
1228.94024	10135.6375
1232.50976	10283.0375
1236.07685	10344.2375
1239.6415	10273.9375
1243.20374	10188.5375
1246.76355	10160.2375
1250.32093	10251.3375
1253.8759	10483.7375
1257.42845	10881.4375
1260.97859	11351.3375
1264.52631	11918.9375
1268.07163	12509.3375
1271.61453	13015.7375
1275.15503	13413.2375
1278.69312	13520.5375
1282.22882	13556.1375
1285.76211	13902.2375
1289.29301	14517.6375
1292.82151	15091.6375
1296.34761	15675.5375
1299.87133	16478.6375
1303.39266	18031.4375
1306.9116	20523.2375
1310.42815	23610.6375
1313.94233	25717.0375
1317.45412	25583.1375
1320.96354	23770.1375
1324.47058	21494.8375
1327.97525	19477.8375
1331.47754	18131.8375
1334.97747	17390.6375
1338.47502	17120.9375
1341.97022	17225.0375
1345.46305	17740.1375
1348.95352	18970.3375
1352.44163	20892.2375
1355.92738	23553.9375
1359.41078	27636.2375
1362.89183	31801.2375
1366.37053	31423.4375
1369.84688	26425.7375
1373.32088	21091.4375
1376.79254	17554.1375
1380.26186	15746.4375
1383.72883	14769.2375
1387.19347	13972.3375
1390.65578	13157.4375
1394.11575	12554.7375
1397.57339	12224.7375
1401.0287	12256.5375
1404.48168	12440.0375
1407.93234	12574.9375
1411.38068	12629.2375
1414.82669	12490.9375
1418.27039	12180.0375
1421.71177	11868.8375
1425.15083	11596.0375
1428.58758	11376.2375
1432.02203	11368.4375
1435.45416	11492.6375
1438.88399	11570.3375
1442.31151	11553.0375
1445.73673	11593.0375
1449.15965	11669.4375
1452.58027	11643.3375
1455.9986	11571.1375
1459.41463	11536.0375
1462.82837	11672.0375
1466.23982	11930.1375
1469.64898	12215.5375
1473.05586	12435.4375
1476.46045	12589.2375
1479.86276	12780.2375
1483.26279	13158.0375
1486.66054	13566.1375
1490.05602	14145.4375
1493.44922	14980.4375
1496.84016	16329.8375
1500.22882	18449.4375
1503.61521	21325.8375
1506.99934	24531.6375
1510.38121	27701.7375
1513.76081	29575.6375
1517.13816	28418.7375
1520.51324	24613.0375
1523.88607	20453.7375
1527.25665	17515.2375
1530.62498	15804.9375
1533.99105	14808.8375
1537.35488	14128.8375
1540.71647	13680.6375
1544.07581	13439.3375
1547.4329	13255.2375
1550.78776	13058.2375
1554.14038	12996.3375
1557.49077	13132.4375
1560.83892	13432.0375
1564.18484	14010.8375
1567.52853	14632.6375
1570.86999	15200.2375
1574.20922	15618.1375
1577.54624	15592.7375
1580.88103	14643.4375
1584.2136	13298.2375
1587.54395	12604.0375
1590.87208	12730.9375
1594.19801	13587.3375
1597.52172	14711.9375
1600.84321	15182.8375
1604.16251	14508.1375
1607.47959	13284.2375
1610.79447	12030.7375
1614.10715	10802.9375
1617.41763	9881.4375
1620.7259	9306.4375
1624.03199	9040.6375
1627.33587	9071.0375
1630.63757	9367.8375
1633.93707	9970.1375
1637.23439	10898.5375
1640.52951	12362.1375
1643.82246	14319.7375
1647.11321	16628.5375
1650.40179	18535.5375
1653.68819	18396.2375
1656.97241	15729.3375
1660.25446	12506.0375
1663.53433	10086.6375
1666.81203	8642.7375
1670.08756	7843.7375
1673.36092	7361.5375
1676.63211	7079.1375
1679.90115	6887.8375
1683.16801	6735.9375
1686.43272	6616.9375
1689.69527	6553.7375
1692.95567	6477.6375
1696.2139	6446.6375
1699.46999	6448.4375
1702.72392	6432.6375
1705.97571	6363.7375
1709.22535	6365.9375
1712.47284	6365.3375
1715.71819	6383.2375
1718.96139	6410.2375
1722.20246	6401.6375
1725.44139	6361.3375
1728.67818	6299.7375
1731.91284	6192.7375
1735.14537	6115.4375
1738.37576	6061.6375
1741.60403	6008.6375
1744.83017	5968.3375
1748.05418	5949.9375
1751.27607	5917.2375
1754.49584	5900.1375
1757.71349	5892.0375
1760.92903	5873.1375
1764.14244	5876.9375
1767.35375	5837.8375
1770.56294	5811.3375
1773.77002	5775.3375
1776.97499	5741.6375
1780.17785	5714.0375
1783.37861	5693.5375
1786.57727	5686.9375
1789.77382	5648.1375
1792.96828	5651.0375
1796.16064	5633.6375
1799.3509	5643.1375
1802.53907	5612.7375
1805.72514	5590.3375
1808.90913	5580.1375
1812.09102	5550.5375
1815.27083	5534.4375
1818.44856	5521.9375
1821.6242	5493.2375
1824.79776	5485.9375
1827.96924	5463.3375
1831.13864	5488.0375
1834.30597	5483.5375
1837.47122	5449.8375
1840.6344	5451.5375
1843.7955	5455.0375
1846.95454	5457.1375
1850.11151	5456.4375
1853.26642	5441.2375
1856.41926	5450.8375
1859.57004	5450.5375
1862.71876	5444.6375
1865.86542	5453.8375
1869.01003	5459.4375
1872.15258	5466.6375
1875.29308	5489.9375
1878.43152	5488.9375
1881.56792	5507.8375
1884.70227	5505.6375
1887.83457	5522.9375
1890.96482	5543.2375
1894.09304	5541.7375
1897.21921	5566.1375
1900.34335	5569.9375
1903.46544	5565.8375
1906.58551	5577.2375
1909.70353	5583.4375
1912.81953	5584.5375
1915.93349	5583.5375
1919.04543	5591.5375
1922.15534	5574.1375
1925.26322	5545.4375
1928.36908	5543.8375
1931.47292	5462.7375
1934.57473	5437.6375
1937.67453	5374.8375
1940.77232	5331.6375
1943.86808	5276.7375
1946.96184	5234.8375
1950.05358	5199.1375
1953.14331	5156.0375
1956.23103	5139.3375
1959.31675	5101.0375
1962.40046	5091.9375
1965.48217	5066.6375
1968.56188	5045.5375
1971.63959	5023.2375
1974.7153	5016.0375
1977.78901	4985.2375
1980.86073	4968.7375
1983.93046	4960.8375
1986.99819	4915.4375
1990.06394	4905.8375
1993.1277	4888.7375
1996.18947	4873.2375
1999.24925	4851.6375
2002.30706	4821.6375
2005.36288	4799.5375
2008.41672	4797.6375
2011.46859	4777.8375
2014.51848	4757.8375
2017.56639	4743.3375
2020.61233	4723.8375
2023.6563	4697.4375
2026.6983	4711.1375
2029.73833	4673.8375
2032.7764	4670.7375
2035.8125	4654.7375
2038.84664	4642.1375
2041.87881	4632.6375
2044.90903	4635.3375
2047.93729	4619.2375
2050.96359	4633.8375
2053.98794	4593.6375
2057.01034	4588.8375
2060.03078	4574.6375
2063.04927	4565.0375
2066.06582	4550.2375
2069.08042	4556.8375
2072.09307	4552.8375
2075.10378	4544.2375
2078.11255	4549.8375
2081.11938	4538.6375
2084.12426	4536.9375
2087.12722	4545.9375
2090.12824	4527.9375
2093.12732	4528.5375
2096.12447	4529.3375
2099.11969	4523.3375
2102.11299	4544.3375
2105.10435	4542.9375
2108.09379	4523.2375
2111.08131	4538.0375
2114.0669	4523.0375
2117.05057	4531.7375
2120.03233	4523.2375
2123.01216	4528.0375
2125.99008	4537.2375
2128.96609	4516.7375
2131.94018	4543.9375
2134.91236	4532.1375
2137.88263	4530.8375
2140.851	4531.1375
2143.81746	4536.0375
2146.78201	4501.3375
2149.74466	4520.9375
2152.7054	4512.1375
2155.66425	4512.8375
2158.6212	4501.1375
2161.57625	4489.8375
2164.52941	4474.7375
2167.48067	4478.1375
2170.43004	4454.5375
2173.37752	4481.1375
2176.32311	4471.0375
2179.26681	4485.1375
2182.20863	4456.1375
2185.14856	4475.7375
2188.08661	4463.8375
2191.02278	4446.6375
2193.95707	4444.1375
2196.88948	4452.5375
2199.82001	4431.7375
2202.74867	4432.1375
2205.67545	4432.1375
2208.60037	4418.6375
2211.52341	4416.5375
2214.44458	4400.0375
2217.36388	4384.5375
2220.28132	4382.7375
2223.1969	4369.9375
2226.11061	4344.7375
2229.02246	4348.0375
2231.93245	4327.8375
2234.84058	4316.7375
2237.74686	4302.1375
2240.65128	4295.9375
2243.55385	4305.6375
2246.45456	4296.2375
2249.35343	4289.5375
2252.25044	4262.9375
2255.14561	4281.2375
2258.03893	4292.7375
2260.93041	4299.4375
2263.82004	4275.7375
2266.70783	4282.1375
2269.59378	4260.9375
2272.4779	4236.3375
2275.36017	4225.1375
2278.24061	4224.6375
2281.11922	4221.4375
2283.996	4208.2375
2286.87094	4190.8375
2289.74405	4176.3375
2292.61534	4153.6375
2295.4848	4137.5375
2298.35243	4123.0375
2301.21824	4122.2375
2304.08223	4139.6375
2306.94439	4121.8375
2309.80474	4122.6375
2312.66327	4123.0375
2315.51999	4119.6375
2318.37489	4102.5375
2321.22797	4090.5375
2324.07925	4091.1375
2326.92871	4103.2375
2329.77637	4088.7375
2332.62222	4105.3375
2335.46626	4088.1375
2338.3085	4075.3375
2341.14893	4071.8375
2343.98756	4072.8375
2346.8244	4074.8375
2349.65943	4088.3375
2352.49267	4092.6375
2355.32411	4097.2375
2358.15376	4106.9375
2360.98161	4120.6375
2363.80768	4126.1375
2366.63195	4141.8375
2369.45444	4153.5375
2372.27514	4163.9375
2375.09405	4122.6375
2377.91118	4117.2375
2380.72652	4097.8375
2383.54009	4074.5375
2386.35187	4053.9375
2389.16188	4012.4375
2391.97011	4015.7375
2394.77657	3978.4375
2397.58125	3983.6375
2400.38416	3960.3375
2403.18529	3934.4375
2405.98466	3945.9375
2408.78226	3934.7375
2411.57809	3925.1375
2414.37216	3907.4375
2417.16446	3914.7375
2419.955	3913.5375
2422.74378	3915.2375
2425.5308	3899.7375
2428.31606	3913.1375
2431.09956	3905.3375
2433.88131	3901.8375
2436.6613	3894.0375
2439.43954	3905.5375
2442.21603	3897.1375
2444.99077	3902.4375
2447.76377	3911.3375
2450.53501	3910.7375
2453.30451	3925.0375
2456.07226	3922.2375
2458.83827	3928.5375
2461.60254	3916.1375
2464.36507	3929.4375
2467.12586	3915.9375
2469.88492	3910.9375
2472.64224	3918.7375
2475.39782	3921.3375
2478.15167	3931.1375
2480.90379	3935.3375
2483.65417	3930.6375
2486.40283	3962.2375
2489.14976	3972.7375
2491.89497	3979.8375
2494.63845	3984.6375
2497.3802	3967.3375
2500.12024	3959.8375
2502.85855	3949.5375
2505.59514	3945.4375
2508.33002	3913.3375
2511.06318	3895.9375
2513.79462	3892.7375
2516.52435	3864.5375
2519.25237	3848.5375
2521.97867	3826.3375
2524.70327	3819.0375
2527.42616	3799.1375
2530.14734	3790.4375
2532.86681	3791.7375
2535.58458	3786.6375
2538.30065	3792.4375
2541.01501	3801.8375
2543.72768	3788.1375
2546.43864	3785.9375
2549.14791	3781.2375
2551.85548	3785.8375
2554.56136	3778.8375
2557.26554	3785.1375
2559.96803	3788.3375
2562.66883	3765.4375
2565.36794	3752.0375
2568.06536	3783.2375
2570.7611	3758.9375
2573.45514	3750.7375
2576.14751	3743.0375
2578.83819	3730.0375
2581.52719	3735.6375
2584.21451	3721.0375
2586.90015	3732.6375
2589.58411	3716.4375
2592.2664	3717.5375
2594.94701	3714.5375
2597.62594	3721.0375
2600.30321	3710.6375
2602.9788	3706.0375
2605.65273	3700.7375
2608.32498	3709.3375
2610.99557	3705.5375
2613.66449	3698.5375
2616.33175	3703.8375
2618.99734	3700.8375
2621.66128	3704.2375
2624.32355	3692.4375
2626.98416	3688.4375
2629.64311	3678.6375
2632.30041	3659.6375
2634.95605	3659.8375
2637.61004	3663.3375
2640.26238	3638.5375
2642.91306	3651.2375
2645.56209	3643.4375
2648.20948	3649.5375
2650.85521	3638.5375
2653.4993	3643.0375
2656.14175	3629.6375
2658.78255	3646.3375
2661.42171	3649.6375
2664.05923	3650.5375
2666.6951	3660.0375
2669.32934	3669.3375
2671.96194	3672.0375
2674.59291	3676.8375
2677.22224	3684.6375
2679.84993	3684.1375
2682.476	3688.2375
2685.10043	3693.5375
2687.72324	3676.9375
2690.34441	3679.6375
2692.96396	3683.0375
2695.58188	3692.8375
2698.19818	3679.9375
2700.81285	3704.0375
2703.4259	3700.7375
2706.03733	3718.1375
2708.64714	3722.7375
2711.25533	3729.4375
2713.86191	3717.3375
2716.46687	3729.5375
2719.07021	3744.1375
2721.67194	3732.1375
2724.27206	3736.5375
2726.87057	3741.6375
2729.46747	3739.0375
2732.06276	3738.1375
2734.65644	3718.4375
2737.24852	3727.5375
2739.83899	3705.8375
2742.42786	3705.2375
2745.01513	3698.5375
2747.60079	3698.2375
2750.18486	3682.9375
2752.76733	3675.9375
2755.3482	3676.8375
2757.92747	3684.2375
2760.50515	3679.9375
2763.08123	3678.8375
2765.65573	3678.9375
2768.22863	3677.1375
2770.79994	3666.7375
2773.36967	3690.1375
2775.9378	3690.1375
2778.50435	3689.5375
2781.06932	3698.3375
2783.6327	3710.8375
2786.1945	3714.0375
2788.75471	3709.7375
2791.31335	3723.0375
2793.87041	3710.9375
2796.42589	3728.4375
2798.97979	3732.9375
2801.53212	3741.8375
2804.08288	3771.4375
2806.63206	3768.5375
2809.17967	3796.9375
2811.72571	3805.6375
2814.27018	3823.5375
2816.81308	3848.8375
2819.35442	3858.2375
2821.89419	3876.8375
2824.43239	3893.5375
2826.96904	3898.4375
2829.50412	3914.2375
2832.03763	3919.7375
2834.56959	3924.7375
2837.1	3932.8375
2839.62884	3988.9375
2842.15613	4061.0375
2844.68186	4145.6375
2847.20604	4245.9375
2849.72867	4323.9375
2852.24974	4364.4375
2854.76927	4374.8375
2857.28724	4347.8375
2859.80367	4342.0375
2862.31855	4307.5375
2864.83189	4293.3375
2867.34368	4261.6375
2869.85393	4266.1375
2872.36264	4253.3375
2874.8698	4244.2375
2877.37543	4252.2375
2879.87952	4251.8375
2882.38207	4231.5375
2884.88308	4228.0375
2887.38256	4223.1375
2889.88051	4223.9375
2892.37692	4212.6375
2894.8718	4213.4375
2897.36515	4224.0375
2899.85698	4217.1375
2902.34727	4230.5375
2904.83604	4215.7375
2907.32328	4247.3375
2909.809	4223.5375
2912.29319	4215.6375
2914.77587	4200.1375
2917.25702	4184.3375
2919.73665	4178.4375
2922.21476	4166.9375
2924.69136	4159.9375
2927.16644	4155.3375
2929.64	4139.8375
2932.11205	4120.8375
2934.58258	4063.6375
2937.05161	4052.6375
2939.51912	4004.4375
2941.98513	3967.5375
2944.44962	3890.9375
2946.91261	3822.9375
2949.37409	3787.0375
2951.83407	3729.2375
2954.29254	3703.7375
2956.74951	3675.1375
2959.20498	3655.7375
2961.65895	3624.4375
2964.11142	3606.1375
2966.56239	3594.4375
2969.01186	3577.9375
2971.45984	3552.8375
2973.90632	3515.6375
2976.35131	3486.1375
2978.7948	3483.8375
2981.23681	3443.9375
2983.67732	3438.3375
2986.11635	3415.5375
2988.55388	3399.2375
2990.98993	3388.0375
2993.4245	3378.6375
2995.85758	3355.1375
2998.28917	3340.9375
3000.71928	3332.6375
3003.14791	3321.9375
3005.57506	3321.1375
3008.00073	3298.5375
3010.42493	3307.6375
3012.84764	3305.4375
3015.26888	3284.7375
3017.68865	3279.4375
3020.10694	3272.6375
3022.52376	3270.4375
3024.9391	3264.1375
3027.35298	3238.7375
3029.76539	3243.0375
3032.17632	3231.2375
3034.5858	3222.8375
3036.9938	3231.7375
3039.40034	3223.3375
3041.80542	3216.5375
3044.20903	3203.2375
3046.61118	3204.1375
3049.01187	3195.1375
3051.4111	3202.1375
3053.80888	3185.3375
3056.20519	3183.5375
3058.60005	3189.3375
3060.99345	3181.9375
3063.3854	3189.4375
3065.7759	3180.1375
3068.16494	3163.7375
3070.55254	3161.0375
3072.93868	3158.6375
3075.32338	3150.5375
3077.70662	3125.4375
3080.08842	3111.9375
3082.46878	3116.5375
3084.84769	3103.0375
3087.22515	3088.6375
3089.60118	3091.8375
3091.97576	3073.8375
3094.3489	3062.5375
3096.72061	3066.3375
3099.09087	3084.2375
