Data from AgNPs_FTO_APTES_UA_2uM_CRN_200uM_R6G_10uM_NaF_0.1M_Addition_RamanShift__29__16-52-45-387.txt Node

Date: Wed Feb 02 16:52:45 GMT 2022
User: TCL
Spectrometer: QEP01345
Trigger mode: 4
Integration Time (sec): 7.000000E0
Scans to average: 10
Electric dark correction enabled: true
Nonlinearity correction enabled: false
Boxcar width: 0
XAxis mode: Raman Shifts
Number of Pixels in Spectrum: 1044
>>>>>Begin Spectral Data<<<<<
46.04893	1.0125
50.45542	-0.5875
54.85868	-0.6875
59.25871	-0.2875
63.6555	44.3125
68.04907	50.4125
72.43941	54.3125
76.82654	57.7125
81.21044	63.7125
85.59113	64.7125
89.96862	67.4125
94.34289	68.8125
98.71396	66.6125
103.08183	76.2125
107.4465	75.3125
111.80798	73.4125
116.16626	74.6125
120.52136	77.4125
124.87327	81.6125
129.222	78.0125
133.56755	85.0125
137.90993	84.9125
142.24913	93.2125
146.58517	102.7125
150.91804	119.0125
155.24774	133.4125
159.57429	164.7125
163.89768	201.6125
168.21792	260.7125
172.53501	350.1125
176.84895	476.0125
181.15975	662.8125
185.46741	920.7125
189.77193	1257.7125
194.07331	1681.8125
198.37157	2173.5125
202.6667	2673.5125
206.9587	3163.9125
211.24758	3668.3125
215.53334	4170.7125
219.81599	4726.6125
224.09553	5335.1125
228.37195	6046.4125
232.64527	6805.8125
236.91549	7540.2125
241.18261	8269.6125
245.44663	8917.4125
249.70755	9459.7125
253.96539	9904.8125
258.22014	10311.5125
262.4718	10626.4125
266.72039	10932.5125
270.96589	11110.8125
275.20832	11197.6125
279.44768	11217.3125
283.68397	11213.1125
287.91719	11230.6125
292.14735	11346.4125
296.37445	11497.6125
300.59849	11680.9125
304.81948	11874.9125
309.03742	11985.1125
313.25231	11859.1125
317.46415	11333.6125
321.67296	10578.0125
325.87872	9969.7125
330.08145	9698.2125
334.28114	9648.8125
338.47781	9757.4125
342.67145	9988.2125
346.86207	10323.6125
351.04966	10792.6125
355.23424	11305.7125
359.4158	11689.8125
363.59435	11799.5125
367.76989	11811.5125
371.94243	11761.0125
376.11196	11689.8125
380.27849	11623.4125
384.44203	11533.5125
388.60257	11433.8125
392.76012	11456.4125
396.91468	11614.6125
401.06626	11906.5125
405.21485	12188.5125
409.36047	12103.9125
413.50311	11651.5125
417.64277	11226.1125
421.77947	10967.7125
425.9132	10905.2125
430.04396	10920.8125
434.17176	10987.9125
438.2966	11077.4125
442.41849	11245.8125
446.53742	11505.9125
450.6534	11803.4125
454.76644	11973.7125
458.87653	12060.6125
462.98368	12042.6125
467.08789	11921.3125
471.18916	11812.3125
475.2875	11624.7125
479.38291	11470.5125
483.4754	11294.0125
487.56496	11137.4125
491.6516	11009.4125
495.73531	10924.2125
499.81612	10943.8125
503.89401	11068.3125
507.96899	11120.2125
512.04106	11156.8125
516.11023	11196.7125
520.1765	11176.5125
524.23987	11115.2125
528.30034	10950.5125
532.35792	10744.7125
536.41261	10551.2125
540.46441	10388.3125
544.51333	10378.9125
548.55936	10514.8125
552.60252	10808.3125
556.64279	11130.9125
560.6802	11289.4125
564.71473	11482.5125
568.7464	11878.9125
572.7752	12166.6125
576.80114	12026.1125
580.82422	11743.1125
584.84444	11636.7125
588.86181	11537.4125
592.87633	11483.6125
596.888	11548.4125
600.89682	11835.4125
604.9028	12826.9125
608.90594	15329.3125
612.90624	18587.8125
616.90371	17871.6125
620.89834	13334.8125
624.89015	11127.7125
628.87913	10715.9125
632.86528	10783.5125
636.84862	10907.8125
640.82913	10759.5125
644.80683	10344.3125
648.78172	10105.5125
652.75379	10124.5125
656.72306	10466.5125
660.68952	10872.1125
664.65319	10851.8125
668.61405	10471.8125
672.57211	10245.8125
676.52738	10299.1125
680.47986	10294.9125
684.42955	10257.3125
688.37646	10174.7125
692.32058	10228.4125
696.26192	10349.0125
700.20048	10503.1125
704.13626	10622.5125
708.06928	10656.3125
711.99952	10558.1125
715.927	10430.9125
719.85171	10440.5125
723.77365	10364.4125
727.69284	10237.5125
731.60928	10094.4125
735.52295	10057.5125
739.43388	10038.7125
743.34206	10090.9125
747.24749	10161.9125
751.15017	10254.0125
755.05012	10503.2125
758.94733	10984.5125
762.8418	12021.6125
766.73354	13724.0125
770.62254	15401.3125
774.50882	15994.3125
778.39237	15208.7125
782.27321	13412.9125
786.15132	11747.9125
790.02671	10747.0125
793.89938	10289.7125
797.76935	10076.4125
801.6366	9967.7125
805.50115	9928.5125
809.36299	9912.7125
813.22213	9866.7125
817.07857	9837.8125
820.93231	9842.0125
824.78336	9862.4125
828.63172	9922.3125
832.47738	9947.0125
836.32036	9893.8125
840.16066	9856.2125
843.99827	9788.6125
847.8332	9741.8125
851.66546	9695.8125
855.49504	9704.3125
859.32195	9677.1125
863.1462	9621.4125
866.96777	9567.2125
870.78668	9555.3125
874.60293	9563.5125
878.41652	9577.9125
882.22745	9606.2125
886.03573	9643.2125
889.84136	9648.0125
893.64433	9597.1125
897.44466	9558.2125
901.24235	9560.2125
905.0374	9525.5125
908.8298	9501.6125
912.61957	9524.4125
916.40671	9641.7125
920.19121	9759.8125
923.97308	9833.6125
927.75233	9846.1125
931.52895	9846.0125
935.30295	9705.9125
939.07433	9451.7125
942.84309	9218.4125
946.60924	9074.2125
950.37278	8985.7125
954.13371	8952.3125
957.89203	8942.3125
961.64774	8909.5125
965.40086	8899.2125
969.15137	8844.4125
972.89929	8837.1125
976.64461	8806.7125
980.38733	8806.5125
984.12747	8818.7125
987.86502	8821.7125
991.59999	8876.3125
995.33237	8947.3125
999.06217	9107.3125
1002.78939	9339.7125
1006.51404	9550.1125
1010.23611	9719.3125
1013.95561	9841.0125
1017.67255	9769.1125
1021.38692	9636.7125
1025.09872	9536.5125
1028.80796	9425.3125
1032.51465	9446.4125
1036.21877	9542.5125
1039.92035	9661.4125
1043.61937	9745.5125
1047.31584	9756.7125
1051.00976	9759.1125
1054.70114	9769.8125
1058.38998	9855.0125
1062.07627	9974.3125
1065.76003	10109.1125
1069.44126	10200.5125
1073.11995	10286.5125
1076.79611	10352.8125
1080.46974	10409.3125
1084.14085	10545.2125
1087.80943	10759.2125
1091.47549	10861.9125
1095.13903	10783.1125
1098.80005	10500.4125
1102.45857	10169.8125
1106.11456	9931.6125
1109.76805	9878.2125
1113.41903	9971.5125
1117.06751	10204.9125
1120.71348	10523.6125
1124.35696	10897.1125
1127.99793	11211.8125
1131.63641	11214.8125
1135.2724	10825.4125
1138.90589	10448.2125
1142.5369	10265.0125
1146.16542	10183.0125
1149.79145	10129.2125
1153.415	10176.2125
1157.03607	10340.2125
1160.65467	10549.5125
1164.27079	10896.1125
1167.88443	11425.3125
1171.49561	12230.8125
1175.10432	13559.1125
1178.71056	15208.5125
1182.31434	16331.1125
1185.91565	16554.7125
1189.51451	16280.5125
1193.11091	15670.8125
1196.70485	14893.7125
1200.29634	14186.4125
1203.88538	13526.6125
1207.47197	12788.9125
1211.05612	12169.9125
1214.63782	11828.3125
1218.21708	11648.2125
1221.79391	11684.4125
1225.36829	11732.6125
1228.94024	11784.3125
1232.50976	11791.3125
1236.07685	11855.4125
1239.6415	11849.7125
1243.20374	11836.7125
1246.76355	11871.8125
1250.32093	12029.7125
1253.8759	12241.3125
1257.42845	12600.0125
1260.97859	12950.8125
1264.52631	13253.6125
1268.07163	13560.3125
1271.61453	13866.6125
1275.15503	14126.7125
1278.69312	14247.0125
1282.22882	14385.2125
1285.76211	14683.2125
1289.29301	15084.6125
1292.82151	15606.3125
1296.34761	16159.5125
1299.87133	16844.8125
1303.39266	17951.0125
1306.9116	19540.5125
1310.42815	21340.0125
1313.94233	22529.0125
1317.45412	22571.0125
1320.96354	21750.9125
1324.47058	20799.2125
1327.97525	19926.6125
1331.47754	19368.4125
1334.97747	19093.9125
1338.47502	19101.4125
1341.97022	19313.1125
1345.46305	19499.4125
1348.95352	19796.4125
1352.44163	20315.9125
1355.92738	21343.3125
1359.41078	23259.7125
1362.89183	25282.6125
1366.37053	24767.1125
1369.84688	21939.4125
1373.32088	18944.6125
1376.79254	17023.8125
1380.26186	16062.9125
1383.72883	15599.5125
1387.19347	15345.2125
1390.65578	15035.8125
1394.11575	14793.5125
1397.57339	14742.5125
1401.0287	14876.7125
1404.48168	15091.3125
1407.93234	15207.6125
1411.38068	15163.3125
1414.82669	14910.0125
1418.27039	14393.1125
1421.71177	13859.9125
1425.15083	13385.3125
1428.58758	13059.3125
1432.02203	12996.5125
1435.45416	13052.7125
1438.88399	13159.6125
1442.31151	13234.4125
1445.73673	13340.8125
1449.15965	13460.0125
1452.58027	13574.8125
1455.9986	13598.4125
1459.41463	13680.6125
1462.82837	13882.8125
1466.23982	14160.4125
1469.64898	14383.7125
1473.05586	14569.4125
1476.46045	14685.0125
1479.86276	14757.1125
1483.26279	14928.2125
1486.66054	15157.1125
1490.05602	15523.1125
1493.44922	15995.5125
1496.84016	16716.6125
1500.22882	17868.1125
1503.61521	19402.5125
1506.99934	21129.1125
1510.38121	22793.4125
1513.76081	23727.6125
1517.13816	23127.7125
1520.51324	21164.4125
1523.88607	19065.6125
1527.25665	17577.6125
1530.62498	16713.4125
1533.99105	16237.0125
1537.35488	15849.2125
1540.71647	15579.0125
1544.07581	15330.0125
1547.4329	15128.9125
1550.78776	14878.8125
1554.14038	14785.9125
1557.49077	14810.5125
1560.83892	15031.9125
1564.18484	15386.7125
1567.52853	15740.0125
1570.86999	15940.8125
1574.20922	16086.8125
1577.54624	15959.1125
1580.88103	15439.8125
1584.2136	14747.5125
1587.54395	14551.1125
1590.87208	14816.7125
1594.19801	15516.4125
1597.52172	16385.9125
1600.84321	16711.4125
1604.16251	16100.7125
1607.47959	15045.7125
1610.79447	13912.2125
1614.10715	12848.9125
1617.41763	12045.3125
1620.7259	11475.5125
1624.03199	11151.4125
1627.33587	11135.1125
1630.63757	11324.8125
1633.93707	11775.4125
1637.23439	12524.4125
1640.52951	13611.2125
1643.82246	15028.8125
1647.11321	16535.8125
1650.40179	17562.0125
1653.68819	17219.9125
1656.97241	15388.6125
1660.25446	13136.5125
1663.53433	11445.2125
1666.81203	10322.8125
1670.08756	9653.5125
1673.36092	9224.3125
1676.63211	8950.7125
1679.90115	8791.2125
1683.16801	8643.3125
1686.43272	8504.8125
1689.69527	8438.7125
1692.95567	8365.8125
1696.2139	8338.5125
1699.46999	8322.1125
1702.72392	8295.9125
1705.97571	8248.3125
1709.22535	8196.0125
1712.47284	8183.2125
1715.71819	8182.2125
1718.96139	8167.5125
1722.20246	8169.1125
1725.44139	8145.6125
1728.67818	8091.2125
1731.91284	8020.2125
1735.14537	7973.6125
1738.37576	7922.7125
1741.60403	7880.3125
1744.83017	7868.7125
1748.05418	7855.2125
1751.27607	7835.7125
1754.49584	7815.1125
1757.71349	7823.9125
1760.92903	7812.3125
1764.14244	7798.3125
1767.35375	7774.8125
1770.56294	7765.4125
1773.77002	7730.9125
1776.97499	7676.5125
1780.17785	7649.6125
1783.37861	7636.6125
1786.57727	7601.7125
1789.77382	7606.2125
1792.96828	7565.5125
1796.16064	7563.6125
1799.3509	7545.2125
1802.53907	7500.2125
1805.72514	7486.0125
1808.90913	7484.6125
1812.09102	7457.3125
1815.27083	7438.8125
1818.44856	7434.9125
1821.6242	7394.2125
1824.79776	7382.3125
1827.96924	7398.5125
1831.13864	7373.2125
1834.30597	7389.4125
1837.47122	7360.0125
1840.6344	7361.6125
1843.7955	7372.3125
1846.95454	7371.8125
1850.11151	7362.5125
1853.26642	7350.1125
1856.41926	7343.6125
1859.57004	7374.7125
1862.71876	7327.8125
1865.86542	7348.2125
1869.01003	7356.8125
1872.15258	7333.1125
1875.29308	7333.1125
1878.43152	7325.7125
1881.56792	7334.5125
1884.70227	7331.1125
1887.83457	7339.0125
1890.96482	7345.6125
1894.09304	7349.2125
1897.21921	7341.4125
1900.34335	7345.2125
1903.46544	7349.2125
1906.58551	7324.8125
1909.70353	7336.3125
1912.81953	7345.3125
1915.93349	7345.6125
1919.04543	7333.2125
1922.15534	7325.5125
1925.26322	7294.2125
1928.36908	7263.1125
1931.47292	7259.0125
1934.57473	7194.5125
1937.67453	7165.7125
1940.77232	7139.8125
1943.86808	7113.0125
1946.96184	7082.0125
1950.05358	7049.3125
1953.14331	7007.1125
1956.23103	6975.6125
1959.31675	6947.2125
1962.40046	6931.3125
1965.48217	6937.7125
1968.56188	6886.0125
1971.63959	6856.7125
1974.7153	6861.9125
1977.78901	6823.2125
1980.86073	6791.3125
1983.93046	6769.9125
1986.99819	6752.8125
1990.06394	6731.1125
1993.1277	6722.1125
1996.18947	6671.2125
1999.24925	6649.4125
2002.30706	6647.7125
2005.36288	6618.7125
2008.41672	6607.5125
2011.46859	6559.9125
2014.51848	6539.8125
2017.56639	6546.5125
2020.61233	6505.5125
2023.6563	6511.2125
2026.6983	6482.7125
2029.73833	6468.7125
2032.7764	6450.0125
2035.8125	6430.3125
2038.84664	6411.3125
2041.87881	6421.6125
2044.90903	6414.2125
2047.93729	6392.1125
2050.96359	6385.5125
2053.98794	6353.3125
2057.01034	6364.4125
2060.03078	6345.2125
2063.04927	6329.0125
2066.06582	6338.9125
2069.08042	6322.3125
2072.09307	6317.9125
2075.10378	6307.8125
2078.11255	6299.6125
2081.11938	6303.0125
2084.12426	6298.1125
2087.12722	6292.2125
2090.12824	6273.4125
2093.12732	6278.1125
2096.12447	6288.3125
2099.11969	6287.4125
2102.11299	6287.4125
2105.10435	6297.6125
2108.09379	6293.3125
2111.08131	6300.8125
2114.0669	6288.4125
2117.05057	6285.9125
2120.03233	6287.6125
2123.01216	6291.6125
2125.99008	6324.1125
2128.96609	6316.3125
2131.94018	6309.7125
2134.91236	6314.9125
2137.88263	6314.0125
2140.851	6313.4125
2143.81746	6328.2125
2146.78201	6315.7125
2149.74466	6301.4125
2152.7054	6292.2125
2155.66425	6292.6125
2158.6212	6285.5125
2161.57625	6302.4125
2164.52941	6290.3125
2167.48067	6280.3125
2170.43004	6271.0125
2173.37752	6283.4125
2176.32311	6251.2125
2179.26681	6266.7125
2182.20863	6263.2125
2185.14856	6255.1125
2188.08661	6267.7125
2191.02278	6266.1125
2193.95707	6255.5125
2196.88948	6246.1125
2199.82001	6223.9125
2202.74867	6221.6125
2205.67545	6214.9125
2208.60037	6206.7125
2211.52341	6194.9125
2214.44458	6183.4125
2217.36388	6167.1125
2220.28132	6162.0125
2223.1969	6142.7125
2226.11061	6129.6125
2229.02246	6123.3125
2231.93245	6096.3125
2234.84058	6088.9125
2237.74686	6078.4125
2240.65128	6064.0125
2243.55385	6060.1125
2246.45456	6065.2125
2249.35343	6048.2125
2252.25044	6045.1125
2255.14561	6029.7125
2258.03893	6022.3125
2260.93041	6025.2125
2263.82004	6004.6125
2266.70783	6000.7125
2269.59378	5961.1125
2272.4779	5969.8125
2275.36017	5936.5125
2278.24061	5922.4125
2281.11922	5908.9125
2283.996	5901.7125
2286.87094	5906.5125
2289.74405	5854.6125
2292.61534	5838.8125
2295.4848	5850.9125
2298.35243	5842.8125
2301.21824	5850.7125
2304.08223	5832.1125
2306.94439	5836.4125
2309.80474	5813.8125
2312.66327	5813.2125
2315.51999	5829.3125
2318.37489	5815.8125
2321.22797	5802.3125
2324.07925	5799.8125
2326.92871	5777.7125
2329.77637	5770.7125
2332.62222	5781.0125
2335.46626	5767.9125
2338.3085	5769.1125
2341.14893	5753.3125
2343.98756	5737.7125
2346.8244	5741.2125
2349.65943	5744.0125
2352.49267	5751.9125
2355.32411	5745.3125
2358.15376	5761.1125
2360.98161	5756.7125
2363.80768	5760.4125
2366.63195	5756.7125
2369.45444	5763.8125
2372.27514	5759.0125
2375.09405	5755.7125
2377.91118	5734.1125
2380.72652	5712.6125
2383.54009	5713.4125
2386.35187	5684.6125
2389.16188	5651.3125
2391.97011	5641.4125
2394.77657	5623.0125
2397.58125	5606.8125
2400.38416	5592.3125
2403.18529	5584.2125
2405.98466	5569.6125
2408.78226	5540.6125
2411.57809	5548.7125
2414.37216	5546.8125
2417.16446	5544.7125
2419.955	5542.6125
2422.74378	5533.3125
2425.5308	5528.3125
2428.31606	5520.6125
2431.09956	5509.3125
2433.88131	5508.6125
2436.6613	5508.7125
2439.43954	5509.5125
2442.21603	5497.3125
2444.99077	5513.3125
2447.76377	5506.6125
2450.53501	5503.7125
2453.30451	5492.6125
2456.07226	5482.8125
2458.83827	5476.1125
2461.60254	5489.3125
2464.36507	5491.2125
2467.12586	5489.3125
2469.88492	5478.0125
2472.64224	5474.4125
2475.39782	5478.8125
2478.15167	5488.8125
2480.90379	5459.0125
2483.65417	5483.9125
2486.40283	5474.8125
2489.14976	5492.3125
2491.89497	5489.9125
2494.63845	5497.7125
2497.3802	5494.5125
2500.12024	5490.6125
2502.85855	5462.0125
2505.59514	5479.7125
2508.33002	5443.1125
2511.06318	5453.7125
2513.79462	5421.4125
2516.52435	5427.0125
2519.25237	5409.9125
2521.97867	5374.4125
2524.70327	5389.4125
2527.42616	5384.3125
2530.14734	5358.0125
2532.86681	5337.9125
2535.58458	5351.3125
2538.30065	5338.6125
2541.01501	5336.6125
2543.72768	5345.0125
2546.43864	5301.3125
2549.14791	5305.6125
2551.85548	5312.0125
2554.56136	5326.2125
2557.26554	5301.1125
2559.96803	5299.0125
2562.66883	5294.1125
2565.36794	5264.5125
2568.06536	5269.9125
2570.7611	5268.6125
2573.45514	5253.1125
2576.14751	5249.9125
2578.83819	5228.2125
2581.52719	5227.5125
2584.21451	5226.4125
2586.90015	5211.5125
2589.58411	5226.4125
2592.2664	5214.4125
2594.94701	5195.8125
2597.62594	5204.4125
2600.30321	5194.9125
2602.9788	5189.2125
2605.65273	5175.8125
2608.32498	5170.0125
2610.99557	5188.6125
2613.66449	5174.9125
2616.33175	5162.6125
2618.99734	5172.6125
2621.66128	5165.2125
2624.32355	5143.5125
2626.98416	5148.6125
2629.64311	5157.8125
2632.30041	5139.8125
2634.95605	5133.7125
2637.61004	5140.1125
2640.26238	5117.2125
2642.91306	5124.3125
2645.56209	5102.9125
2648.20948	5118.6125
2650.85521	5101.1125
2653.4993	5094.6125
2656.14175	5104.3125
2658.78255	5109.8125
2661.42171	5095.0125
2664.05923	5105.8125
2666.6951	5123.3125
2669.32934	5112.3125
2671.96194	5123.1125
2674.59291	5119.8125
2677.22224	5121.8125
2679.84993	5120.4125
2682.476	5131.6125
2685.10043	5126.4125
2687.72324	5117.9125
2690.34441	5119.6125
2692.96396	5113.0125
2695.58188	5115.7125
2698.19818	5113.3125
2700.81285	5130.6125
2703.4259	5122.9125
2706.03733	5165.0125
2708.64714	5154.7125
2711.25533	5158.2125
2713.86191	5140.6125
2716.46687	5144.1125
2719.07021	5158.9125
2721.67194	5156.7125
2724.27206	5140.5125
2726.87057	5161.7125
2729.46747	5158.4125
2732.06276	5144.9125
2734.65644	5145.6125
2737.24852	5135.7125
2739.83899	5124.9125
2742.42786	5110.0125
2745.01513	5093.9125
2747.60079	5103.7125
2750.18486	5079.3125
2752.76733	5070.0125
2755.3482	5083.5125
2757.92747	5093.4125
2760.50515	5073.3125
2763.08123	5079.7125
2765.65573	5069.4125
2768.22863	5053.9125
2770.79994	5042.8125
2773.36967	5061.0125
2775.9378	5038.1125
2778.50435	5050.1125
2781.06932	5031.2125
2783.6327	5037.7125
2786.1945	5041.7125
2788.75471	5026.6125
2791.31335	5018.0125
2793.87041	5019.0125
2796.42589	5011.9125
2798.97979	5013.4125
2801.53212	5002.2125
2804.08288	5022.6125
2806.63206	5005.0125
2809.17967	5006.5125
2811.72571	5001.1125
2814.27018	5001.4125
2816.81308	5010.9125
2819.35442	4978.0125
2821.89419	5000.2125
2824.43239	5001.7125
2826.96904	4975.6125
2829.50412	5017.5125
2832.03763	5013.9125
2834.56959	5020.1125
2837.1	5036.3125
2839.62884	5069.1125
2842.15613	5081.5125
2844.68186	5185.7125
2847.20604	5249.3125
2849.72867	5324.3125
2852.24974	5356.2125
2854.76927	5350.1125
2857.28724	5339.7125
2859.80367	5313.7125
2862.31855	5292.8125
2864.83189	5265.1125
2867.34368	5254.5125
2869.85393	5240.3125
2872.36264	5238.8125
2874.8698	5228.9125
2877.37543	5221.8125
2879.87952	5226.3125
2882.38207	5235.3125
2884.88308	5222.5125
2887.38256	5223.1125
2889.88051	5221.1125
2892.37692	5225.9125
2894.8718	5222.4125
2897.36515	5230.3125
2899.85698	5233.3125
2902.34727	5250.7125
2904.83604	5225.2125
2907.32328	5252.9125
2909.809	5244.1125
2912.29319	5235.3125
2914.77587	5226.6125
2917.25702	5222.7125
2919.73665	5187.9125
2922.21476	5196.7125
2924.69136	5219.7125
2927.16644	5209.0125
2929.64	5212.4125
2932.11205	5178.1125
2934.58258	5174.4125
2937.05161	5162.3125
2939.51912	5152.3125
2941.98513	5083.8125
2944.44962	5046.0125
2946.91261	4990.0125
2949.37409	4954.1125
2951.83407	4938.7125
2954.29254	4917.4125
2956.74951	4891.7125
2959.20498	4888.1125
2961.65895	4853.9125
2964.11142	4840.1125
2966.56239	4842.8125
2969.01186	4827.2125
2971.45984	4798.9125
2973.90632	4780.8125
2976.35131	4753.1125
2978.7948	4741.1125
2981.23681	4727.9125
2983.67732	4706.7125
2986.11635	4689.5125
2988.55388	4676.9125
2990.98993	4671.5125
2993.4245	4654.7125
2995.85758	4645.1125
2998.28917	4640.4125
3000.71928	4634.7125
3003.14791	4609.6125
3005.57506	4626.3125
3008.00073	4602.3125
3010.42493	4581.2125
3012.84764	4586.4125
3015.26888	4556.4125
3017.68865	4570.3125
3020.10694	4563.2125
3022.52376	4553.7125
3024.9391	4537.7125
3027.35298	4533.6125
3029.76539	4525.1125
3032.17632	4512.7125
3034.5858	4512.0125
3036.9938	4513.6125
3039.40034	4509.2125
3041.80542	4503.5125
3044.20903	4478.0125
3046.61118	4479.2125
3049.01187	4476.7125
3051.4111	4470.8125
3053.80888	4460.2125
3056.20519	4450.5125
3058.60005	4436.1125
3060.99345	4444.5125
3063.3854	4437.6125
3065.7759	4418.6125
3068.16494	4425.2125
3070.55254	4398.3125
3072.93868	4394.2125
3075.32338	4381.3125
3077.70662	4372.9125
3080.08842	4361.1125
3082.46878	4353.6125
3084.84769	4333.6125
3087.22515	4338.5125
3089.60118	4338.8125
