Data from AgNPs_FTO_APTES_UA_2uM_CRN_100uM_R6G_10uM_NaF_0.1M_Addition_RamanShift__1__15-39-15-301.txt Node

Date: Wed Feb 02 15:39:15 GMT 2022
User: TCL
Spectrometer: QEP01345
Trigger mode: 4
Integration Time (sec): 7.000000E0
Scans to average: 10
Electric dark correction enabled: true
Nonlinearity correction enabled: false
Boxcar width: 0
XAxis mode: Raman Shifts
Number of Pixels in Spectrum: 1044
>>>>>Begin Spectral Data<<<<<
46.04893	-0.475
50.45542	0.325
54.85868	-1.075
59.25871	0.125
63.6555	69.925
68.04907	74.825
72.43941	76.725
76.82654	82.125
81.21044	87.125
85.59113	88.925
89.96862	92.525
94.34289	93.625
98.71396	100.725
103.08183	107.025
107.4465	104.425
111.80798	107.325
116.16626	109.625
120.52136	115.325
124.87327	116.425
129.222	124.625
133.56755	131.225
137.90993	139.225
142.24913	153.525
146.58517	173.925
150.91804	201.125
155.24774	238.825
159.57429	288.825
163.89768	371.625
168.21792	495.825
172.53501	670.325
176.84895	929.725
181.15975	1304.325
185.46741	1824.725
189.77193	2521.125
194.07331	3388.825
198.37157	4366.925
202.6667	5393.425
206.9587	6437.525
211.24758	7443.425
215.53334	8452.125
219.81599	9556.625
224.09553	10756.425
228.37195	12070.425
232.64527	13497.025
236.91549	14956.925
241.18261	16423.125
245.44663	17733.825
249.70755	18926.625
253.96539	19952.525
258.22014	20723.225
262.4718	21409.225
266.72039	21893.725
270.96589	22144.625
275.20832	22187.825
279.44768	22137.025
283.68397	22038.325
287.91719	21961.325
292.14735	21974.825
296.37445	22122.625
300.59849	22386.925
304.81948	22628.525
309.03742	22698.825
313.25231	22498.625
317.46415	21920.725
321.67296	21033.825
325.87872	20271.125
330.08145	19831.925
334.28114	19711.625
338.47781	19801.625
342.67145	20002.325
346.86207	20321.425
351.04966	20686.325
355.23424	21025.625
359.4158	21307.325
363.59435	21487.725
367.76989	21513.825
371.94243	21520.925
376.11196	21498.325
380.27849	21411.725
384.44203	21405.625
388.60257	21584.925
392.76012	21815.525
396.91468	22197.925
401.06626	22698.625
405.21485	22990.925
409.36047	22868.425
413.50311	22421.825
417.64277	21972.925
421.77947	21816.025
425.9132	21790.625
430.04396	21835.725
434.17176	21934.925
438.2966	21986.425
442.41849	22210.625
446.53742	22701.925
450.6534	23253.925
454.76644	23634.825
458.87653	23823.525
462.98368	23816.025
467.08789	23734.125
471.18916	23624.625
475.2875	23479.325
479.38291	23543.125
483.4754	23422.025
487.56496	23164.225
491.6516	22700.725
495.73531	22216.625
499.81612	21893.925
503.89401	21877.925
507.96899	21928.825
512.04106	21926.825
516.11023	21850.125
520.1765	21623.025
524.23987	21339.525
528.30034	21039.525
532.35792	20744.425
536.41261	20480.925
540.46441	20287.725
544.51333	20367.525
548.55936	20716.825
552.60252	21296.725
556.64279	21879.525
560.6802	22326.725
564.71473	22660.325
568.7464	23335.425
572.7752	24252.825
576.80114	25213.525
580.82422	25908.925
584.84444	26524.525
588.86181	26947.425
592.87633	26996.925
596.888	26475.825
600.89682	25661.325
604.9028	25776.225
608.90594	27645.425
612.90624	29893.625
616.90371	28087.725
620.89834	23077.525
624.89015	20761.725
628.87913	20485.625
632.86528	20776.525
636.84862	20942.325
640.82913	20692.425
644.80683	20138.425
648.78172	19644.325
652.75379	19532.525
656.72306	19730.625
660.68952	20079.325
664.65319	20006.325
668.61405	19649.125
672.57211	19510.825
676.52738	19526.825
680.47986	19567.925
684.42955	19439.825
688.37646	19290.625
692.32058	19378.525
696.26192	19533.925
700.20048	19825.925
704.13626	20066.525
708.06928	20190.625
711.99952	20201.725
715.927	20114.725
719.85171	20016.125
723.77365	19867.525
727.69284	19573.125
731.60928	19319.025
735.52295	19181.325
739.43388	19090.225
743.34206	19094.925
747.24749	19231.125
751.15017	19459.625
755.05012	19938.225
758.94733	20686.925
762.8418	22004.625
766.73354	24114.825
770.62254	26055.825
774.50882	26243.325
778.39237	24777.125
782.27321	22702.225
786.15132	20948.625
790.02671	19837.725
793.89938	19246.225
797.76935	18995.425
801.6366	18873.525
805.50115	18779.825
809.36299	18721.125
813.22213	18637.525
817.07857	18620.325
820.93231	18604.125
824.78336	18516.925
828.63172	18404.025
832.47738	18298.325
836.32036	18279.825
840.16066	18240.325
843.99827	18202.025
847.8332	18170.825
851.66546	18139.325
855.49504	18137.225
859.32195	18140.725
863.1462	18071.125
866.96777	18044.725
870.78668	17992.425
874.60293	17959.025
878.41652	17980.625
882.22745	18012.525
886.03573	18083.825
889.84136	18078.725
893.64433	18020.925
897.44466	18018.925
901.24235	17964.125
905.0374	17925.925
908.8298	17886.225
912.61957	18011.625
916.40671	18222.825
920.19121	18559.325
923.97308	18781.025
927.75233	18703.025
931.52895	18502.125
935.30295	18165.425
939.07433	17686.225
942.84309	17338.725
946.60924	17084.925
950.37278	17015.225
954.13371	16952.125
957.89203	16988.225
961.64774	16990.825
965.40086	17002.425
969.15137	16971.125
972.89929	16821.625
976.64461	16720.225
980.38733	16646.025
984.12747	16688.025
987.86502	16728.025
991.59999	16810.025
995.33237	16911.525
999.06217	17081.525
1002.78939	17367.725
1006.51404	17585.325
1010.23611	17814.825
1013.95561	18043.125
1017.67255	18096.225
1021.38692	17976.625
1025.09872	17771.225
1028.80796	17600.725
1032.51465	17580.825
1036.21877	17658.425
1039.92035	17860.125
1043.61937	17937.825
1047.31584	18038.525
1051.00976	18099.125
1054.70114	18195.325
1058.38998	18393.725
1062.07627	18664.725
1065.76003	18967.825
1069.44126	19318.225
1073.11995	19668.525
1076.79611	19914.625
1080.46974	19952.325
1084.14085	20019.925
1087.80943	20196.725
1091.47549	20465.225
1095.13903	20629.425
1098.80005	20376.125
1102.45857	19671.125
1106.11456	19092.925
1109.76805	18744.625
1113.41903	18661.925
1117.06751	18836.825
1120.71348	19105.825
1124.35696	19502.525
1127.99793	19928.125
1131.63641	20120.325
1135.2724	19916.425
1138.90589	19729.825
1142.5369	19761.825
1146.16542	19930.425
1149.79145	20161.525
1153.415	20461.125
1157.03607	20807.925
1160.65467	21472.525
1164.27079	22440.525
1167.88443	23713.325
1171.49561	25238.125
1175.10432	27066.125
1178.71056	29412.225
1182.31434	31363.425
1185.91565	32223.425
1189.51451	32201.625
1193.11091	31542.125
1196.70485	30378.425
1200.29634	29065.825
1203.88538	28113.825
1207.47197	27533.525
1211.05612	27145.025
1214.63782	26622.125
1218.21708	25724.725
1221.79391	24680.625
1225.36829	23918.125
1228.94024	23486.725
1232.50976	23220.025
1236.07685	23102.425
1239.6415	22981.125
1243.20374	23008.925
1246.76355	23233.025
1250.32093	23541.525
1253.8759	24072.925
1257.42845	24805.025
1260.97859	25514.725
1264.52631	26272.225
1268.07163	26969.825
1271.61453	27762.625
1275.15503	28550.925
1278.69312	29480.425
1282.22882	30459.125
1285.76211	31721.425
1289.29301	33238.925
1292.82151	34987.625
1296.34761	36988.925
1299.87133	39218.825
1303.39266	41330.425
1306.9116	43163.425
1310.42815	44556.325
1313.94233	45156.925
1317.45412	44813.725
1320.96354	44184.425
1324.47058	43759.625
1327.97525	43606.925
1331.47754	43487.425
1334.97747	43241.625
1338.47502	43057.925
1341.97022	42793.025
1345.46305	42480.925
1348.95352	42184.925
1352.44163	41954.525
1355.92738	42175.625
1359.41078	43381.125
1362.89183	44714.325
1366.37053	44010.825
1369.84688	40596.025
1373.32088	36330.925
1376.79254	33353.725
1380.26186	32160.125
1383.72883	32029.525
1387.19347	32058.225
1390.65578	31913.725
1394.11575	31671.825
1397.57339	31726.625
1401.0287	31868.125
1404.48168	31869.525
1407.93234	31354.125
1411.38068	30369.325
1414.82669	29067.925
1418.27039	27670.525
1421.71177	26381.625
1425.15083	25476.625
1428.58758	24962.825
1432.02203	25158.525
1435.45416	25779.625
1438.88399	26507.025
1442.31151	27086.225
1445.73673	27604.725
1449.15965	28169.525
1452.58027	28591.725
1455.9986	28850.825
1459.41463	29085.725
1462.82837	29483.525
1466.23982	29885.825
1469.64898	30289.825
1473.05586	30465.325
1476.46045	30408.525
1479.86276	30222.025
1483.26279	30100.125
1486.66054	30179.125
1490.05602	30626.725
1493.44922	31378.425
1496.84016	32507.025
1500.22882	34119.925
1503.61521	36279.325
1506.99934	38497.925
1510.38121	40141.125
1513.76081	40494.725
1517.13816	39248.225
1520.51324	37366.525
1523.88607	35818.225
1527.25665	35005.925
1530.62498	34548.025
1533.99105	34034.825
1537.35488	33246.325
1540.71647	32172.625
1544.07581	30914.025
1547.4329	29810.425
1550.78776	28935.225
1554.14038	28387.825
1557.49077	28195.825
1560.83892	28184.025
1564.18484	28396.525
1567.52853	28736.225
1570.86999	29214.525
1574.20922	29945.725
1577.54624	30551.325
1580.88103	30636.325
1584.2136	30601.525
1587.54395	30873.625
1590.87208	31707.325
1594.19801	32952.625
1597.52172	34107.825
1600.84321	34082.025
1604.16251	32419.825
1607.47959	30050.125
1610.79447	27684.025
1614.10715	25447.625
1617.41763	23593.025
1620.7259	22264.225
1624.03199	21521.825
1627.33587	21478.625
1630.63757	22014.225
1633.93707	23432.825
1637.23439	25803.025
1640.52951	29287.825
1643.82246	33545.925
1647.11321	37385.725
1650.40179	39042.325
1653.68819	37224.825
1656.97241	32637.625
1660.25446	27541.425
1663.53433	23390.725
1666.81203	20560.725
1670.08756	18790.425
1673.36092	17647.225
1676.63211	16879.425
1679.90115	16409.625
1683.16801	16022.125
1686.43272	15783.525
1689.69527	15577.925
1692.95567	15409.725
1696.2139	15283.425
1699.46999	15289.025
1702.72392	15177.525
1705.97571	15062.225
1709.22535	15000.225
1712.47284	14943.825
1715.71819	14871.425
1718.96139	14821.825
1722.20246	14746.925
1725.44139	14676.025
1728.67818	14595.825
1731.91284	14489.125
1735.14537	14404.525
1738.37576	14336.925
1741.60403	14257.625
1744.83017	14192.925
1748.05418	14175.025
1751.27607	14139.025
1754.49584	14140.925
1757.71349	14121.525
1760.92903	14094.025
1764.14244	14094.325
1767.35375	14032.525
1770.56294	13989.325
1773.77002	13950.825
1776.97499	13903.025
1780.17785	13827.525
1783.37861	13792.325
1786.57727	13748.425
1789.77382	13731.125
1792.96828	13725.425
1796.16064	13638.425
1799.3509	13614.125
1802.53907	13588.225
1805.72514	13504.425
1808.90913	13494.925
1812.09102	13451.725
1815.27083	13420.925
1818.44856	13416.425
1821.6242	13379.425
1824.79776	13380.325
1827.96924	13350.125
1831.13864	13323.625
1834.30597	13344.125
1837.47122	13312.725
1840.6344	13297.025
1843.7955	13331.225
1846.95454	13299.725
1850.11151	13300.325
1853.26642	13257.825
1856.41926	13229.525
1859.57004	13214.125
1862.71876	13186.225
1865.86542	13202.825
1869.01003	13160.525
1872.15258	13122.125
1875.29308	13111.525
1878.43152	13082.625
1881.56792	13090.925
1884.70227	13046.425
1887.83457	13004.425
1890.96482	13029.625
1894.09304	12976.225
1897.21921	12956.825
1900.34335	12935.625
1903.46544	12907.425
1906.58551	12877.625
1909.70353	12843.025
1912.81953	12853.825
1915.93349	12804.425
1919.04543	12779.425
1922.15534	12757.625
1925.26322	12710.925
1928.36908	12677.525
1931.47292	12650.825
1934.57473	12592.125
1937.67453	12566.425
1940.77232	12537.825
1943.86808	12541.425
1946.96184	12470.825
1950.05358	12404.525
1953.14331	12401.025
1956.23103	12363.025
1959.31675	12324.725
1962.40046	12282.625
1965.48217	12243.025
1968.56188	12194.525
1971.63959	12173.425
1974.7153	12133.225
1977.78901	12077.025
1980.86073	12015.625
1983.93046	11985.425
1986.99819	11965.425
1990.06394	11900.225
1993.1277	11916.525
1996.18947	11844.125
1999.24925	11780.125
2002.30706	11751.125
2005.36288	11696.925
2008.41672	11712.325
2011.46859	11673.925
2014.51848	11586.025
2017.56639	11558.625
2020.61233	11513.625
2023.6563	11520.525
2026.6983	11467.325
2029.73833	11449.925
2032.7764	11411.825
2035.8125	11387.325
2038.84664	11359.825
2041.87881	11360.025
2044.90903	11344.025
2047.93729	11307.325
2050.96359	11284.025
2053.98794	11269.025
2057.01034	11241.725
2060.03078	11245.425
2063.04927	11233.825
2066.06582	11229.525
2069.08042	11196.125
2072.09307	11196.925
2075.10378	11191.025
2078.11255	11158.925
2081.11938	11129.225
2084.12426	11147.925
2087.12722	11141.525
2090.12824	11140.125
2093.12732	11148.225
2096.12447	11138.325
2099.11969	11137.625
2102.11299	11173.925
2105.10435	11125.425
2108.09379	11137.025
2111.08131	11120.325
2114.0669	11138.925
2117.05057	11151.225
2120.03233	11158.425
2123.01216	11170.025
2125.99008	11181.525
2128.96609	11165.025
2131.94018	11183.425
2134.91236	11153.925
2137.88263	11153.025
2140.851	11132.725
2143.81746	11193.025
2146.78201	11156.825
2149.74466	11180.325
2152.7054	11145.225
2155.66425	11154.625
2158.6212	11122.825
2161.57625	11127.225
2164.52941	11127.725
2167.48067	11121.925
2170.43004	11093.025
2173.37752	11079.825
2176.32311	11057.225
2179.26681	11087.325
2182.20863	11067.925
2185.14856	11106.425
2188.08661	11082.825
2191.02278	11079.025
2193.95707	11041.025
2196.88948	11046.625
2199.82001	11029.825
2202.74867	10990.825
2205.67545	10994.025
2208.60037	10955.825
2211.52341	10922.825
2214.44458	10942.125
2217.36388	10920.225
2220.28132	10896.625
2223.1969	10883.325
2226.11061	10873.525
2229.02246	10815.825
2231.93245	10810.225
2234.84058	10771.425
2237.74686	10745.225
2240.65128	10750.025
2243.55385	10754.325
2246.45456	10724.125
2249.35343	10713.225
2252.25044	10695.325
2255.14561	10643.425
2258.03893	10656.825
2260.93041	10628.325
2263.82004	10614.625
2266.70783	10572.625
2269.59378	10548.225
2272.4779	10480.025
2275.36017	10436.725
2278.24061	10455.525
2281.11922	10440.425
2283.996	10433.225
2286.87094	10402.325
2289.74405	10362.525
2292.61534	10337.925
2295.4848	10328.925
2298.35243	10347.825
2301.21824	10318.825
2304.08223	10307.025
2306.94439	10301.725
2309.80474	10278.325
2312.66327	10273.725
2315.51999	10272.225
2318.37489	10274.025
2321.22797	10271.625
2324.07925	10246.225
2326.92871	10252.425
2329.77637	10207.025
2332.62222	10197.325
2335.46626	10181.625
2338.3085	10174.525
2341.14893	10183.425
2343.98756	10175.225
2346.8244	10174.825
2349.65943	10171.925
2352.49267	10173.725
2355.32411	10164.125
2358.15376	10166.225
2360.98161	10159.425
2363.80768	10149.525
2366.63195	10141.125
2369.45444	10147.225
2372.27514	10141.425
2375.09405	10114.625
2377.91118	10104.825
2380.72652	10074.125
2383.54009	10059.725
2386.35187	10022.925
2389.16188	9982.925
2391.97011	9986.625
2394.77657	9950.125
2397.58125	9927.025
2400.38416	9891.025
2403.18529	9888.325
2405.98466	9859.025
2408.78226	9862.325
2411.57809	9837.425
2414.37216	9839.625
2417.16446	9846.125
2419.955	9826.225
2422.74378	9823.425
2425.5308	9809.925
2428.31606	9813.625
2431.09956	9783.225
2433.88131	9783.525
2436.6613	9783.825
2439.43954	9777.925
2442.21603	9778.925
2444.99077	9739.525
2447.76377	9734.025
2450.53501	9757.625
2453.30451	9748.725
2456.07226	9746.625
2458.83827	9755.825
2461.60254	9722.325
2464.36507	9746.125
2467.12586	9720.025
2469.88492	9717.625
2472.64224	9716.525
2475.39782	9738.025
2478.15167	9721.625
2480.90379	9697.525
2483.65417	9693.225
2486.40283	9696.925
2489.14976	9705.625
2491.89497	9689.925
2494.63845	9727.025
2497.3802	9707.225
2500.12024	9691.425
2502.85855	9682.625
2505.59514	9664.325
2508.33002	9649.725
2511.06318	9647.825
2513.79462	9627.525
2516.52435	9609.725
2519.25237	9632.125
2521.97867	9602.725
2524.70327	9596.025
2527.42616	9571.125
2530.14734	9550.425
2532.86681	9553.125
2535.58458	9535.925
2538.30065	9511.925
2541.01501	9509.025
2543.72768	9515.425
2546.43864	9489.325
2549.14791	9465.225
2551.85548	9472.225
2554.56136	9470.025
2557.26554	9448.625
2559.96803	9434.525
2562.66883	9433.025
2565.36794	9419.925
2568.06536	9405.325
2570.7611	9428.425
2573.45514	9395.525
2576.14751	9382.625
2578.83819	9349.825
2581.52719	9352.725
2584.21451	9345.425
2586.90015	9350.425
2589.58411	9341.125
2592.2664	9325.425
2594.94701	9291.625
2597.62594	9291.525
2600.30321	9269.025
2602.9788	9275.525
2605.65273	9236.825
2608.32498	9260.725
2610.99557	9251.225
2613.66449	9250.625
2616.33175	9248.725
2618.99734	9238.125
2621.66128	9234.525
2624.32355	9237.125
2626.98416	9203.025
2629.64311	9206.625
2632.30041	9204.025
2634.95605	9195.825
2637.61004	9187.425
2640.26238	9172.725
2642.91306	9159.825
2645.56209	9178.425
2648.20948	9159.825
2650.85521	9183.525
2653.4993	9177.525
2656.14175	9155.525
2658.78255	9182.525
2661.42171	9186.525
2664.05923	9186.025
2666.6951	9190.325
2669.32934	9196.625
2671.96194	9174.525
2674.59291	9163.825
2677.22224	9172.125
2679.84993	9185.825
2682.476	9161.625
2685.10043	9143.525
2687.72324	9144.025
2690.34441	9154.625
2692.96396	9157.725
2695.58188	9147.525
2698.19818	9120.025
2700.81285	9174.225
2703.4259	9157.225
2706.03733	9190.725
2708.64714	9150.925
2711.25533	9172.825
2713.86191	9150.925
2716.46687	9175.225
2719.07021	9158.025
2721.67194	9201.725
2724.27206	9168.525
2726.87057	9187.925
2729.46747	9190.525
2732.06276	9202.125
2734.65644	9166.025
2737.24852	9161.125
2739.83899	9142.125
2742.42786	9149.925
2745.01513	9114.525
2747.60079	9123.625
2750.18486	9132.125
2752.76733	9098.625
2755.3482	9114.325
2757.92747	9110.725
2760.50515	9111.325
2763.08123	9118.325
2765.65573	9092.025
2768.22863	9084.225
2770.79994	9073.525
2773.36967	9083.925
2775.9378	9082.425
2778.50435	9057.825
2781.06932	9040.525
2783.6327	9036.025
2786.1945	9030.925
2788.75471	9024.025
2791.31335	9014.725
2793.87041	9010.325
2796.42589	8996.825
2798.97979	8992.325
2801.53212	8971.225
2804.08288	8972.125
2806.63206	8938.725
2809.17967	8904.425
2811.72571	8901.425
2814.27018	8914.725
2816.81308	8906.225
2819.35442	8892.625
2821.89419	8866.125
2824.43239	8848.225
2826.96904	8842.025
2829.50412	8857.025
2832.03763	8831.125
2834.56959	8838.725
2837.1	8836.325
2839.62884	8855.925
2842.15613	8853.525
2844.68186	8889.825
2847.20604	8914.225
2849.72867	8936.325
2852.24974	8939.925
2854.76927	8927.725
2857.28724	8893.625
2859.80367	8913.225
2862.31855	8888.325
2864.83189	8878.925
2867.34368	8865.925
2869.85393	8875.925
2872.36264	8847.225
2874.8698	8857.125
2877.37543	8853.525
2879.87952	8837.925
2882.38207	8863.125
2884.88308	8839.225
2887.38256	8847.325
2889.88051	8820.625
2892.37692	8815.025
2894.8718	8840.425
2897.36515	8829.625
2899.85698	8841.625
2902.34727	8845.725
2904.83604	8853.625
2907.32328	8867.225
2909.809	8874.025
2912.29319	8848.125
2914.77587	8865.925
2917.25702	8831.025
2919.73665	8842.825
2922.21476	8833.325
2924.69136	8851.025
2927.16644	8858.825
2929.64	8865.825
2932.11205	8847.425
2934.58258	8813.525
2937.05161	8826.925
2939.51912	8799.725
2941.98513	8800.425
2944.44962	8766.025
2946.91261	8701.525
2949.37409	8691.225
2951.83407	8690.825
2954.29254	8695.725
2956.74951	8640.525
2959.20498	8634.925
2961.65895	8615.925
2964.11142	8601.425
2966.56239	8578.325
2969.01186	8573.125
2971.45984	8579.825
2973.90632	8542.225
2976.35131	8497.725
2978.7948	8483.125
2981.23681	8446.125
2983.67732	8435.825
2986.11635	8402.625
2988.55388	8401.625
2990.98993	8380.625
2993.4245	8355.325
2995.85758	8353.525
2998.28917	8327.525
3000.71928	8311.425
3003.14791	8290.925
3005.57506	8279.125
3008.00073	8228.225
3010.42493	8233.625
3012.84764	8207.225
3015.26888	8207.425
3017.68865	8185.925
3020.10694	8201.725
3022.52376	8193.925
3024.9391	8137.525
3027.35298	8119.225
3029.76539	8130.025
3032.17632	8126.025
3034.5858	8104.125
3036.9938	8096.325
3039.40034	8093.025
3041.80542	8074.525
3044.20903	8072.425
3046.61118	8050.725
3049.01187	8031.125
3051.4111	8012.525
3053.80888	7989.825
3056.20519	7969.825
3058.60005	7958.825
3060.99345	7946.625
3063.3854	7941.425
3065.7759	7919.825
3068.16494	7895.525
3070.55254	7834.525
3072.93868	7866.625
3075.32338	7831.425
3077.70662	7806.425
3080.08842	7774.825
3082.46878	7774.325
3084.84769	7756.425
3087.22515	7738.925
3089.60118	7765.725
3091.97576	7755.725
3094.3489	7744.125
3096.72061	7735.825
3099.09087	7721.625
3101.4597	7704.125
3103.82709	7715.525
3106.19305	7697.225
3108.55757	7692.025
3110.92066	7661.425
3113.28232	7657.425
3115.64255	7625.925
3118.00134	7593.025
3120.35871	7602.125
3122.71466	7558.825
3125.06917	7576.725
3127.42226	7563.025
3129.77393	7577.125
3132.12417	7561.925
3134.47299	7535.825
3136.82039	7559.625
3139.16636	7537.825
3141.51092	7534.825
3143.85406	7550.525
3146.19579	7533.225
3148.53609	7572.625
3150.87499	7586.725
3153.21246	7563.925
3155.54853	7567.925
3157.88318	7569.425
3160.21642	7568.525
3162.54826	7536.925
