Data from AgNPs_FTO_APTES_UA_2uM_CRN_10uM_R6G_10uM_NaF_0.1M_Addition_RamanShift__13__13-33-15-154.txt Node

Date: Wed Feb 02 13:33:15 GMT 2022
User: TCL
Spectrometer: QEP01345
Trigger mode: 4
Integration Time (sec): 7.000000E0
Scans to average: 10
Electric dark correction enabled: true
Nonlinearity correction enabled: false
Boxcar width: 0
XAxis mode: Raman Shifts
Number of Pixels in Spectrum: 1044
>>>>>Begin Spectral Data<<<<<
46.04893	0.4125
50.45542	1.1125
54.85868	-0.8875
59.25871	-0.3875
63.6555	91.0125
68.04907	98.5125
72.43941	100.4125
76.82654	109.1125
81.21044	110.3125
85.59113	118.3125
89.96862	117.9125
94.34289	122.5125
98.71396	123.3125
103.08183	136.4125
107.4465	136.5125
111.80798	138.2125
116.16626	141.7125
120.52136	149.4125
124.87327	153.6125
129.222	159.6125
133.56755	174.8125
137.90993	185.4125
142.24913	215.9125
146.58517	239.0125
150.91804	277.2125
155.24774	342.4125
159.57429	429.2125
163.89768	548.0125
168.21792	724.2125
172.53501	989.3125
176.84895	1388.6125
181.15975	1959.6125
185.46741	2744.1125
189.77193	3804.8125
194.07331	5102.4125
198.37157	6596.2125
202.6667	8149.2125
206.9587	9703.0125
211.24758	11261.8125
215.53334	12744.8125
219.81599	14364.4125
224.09553	16058.6125
228.37195	17944.4125
232.64527	20065.9125
236.91549	22284.5125
241.18261	24539.4125
245.44663	26741.7125
249.70755	28716.7125
253.96539	30411.8125
258.22014	31895.4125
262.4718	32968.9125
266.72039	33810.2125
270.96589	34206.1125
275.20832	34271.4125
279.44768	34123.0125
283.68397	33824.4125
287.91719	33590.7125
292.14735	33421.6125
296.37445	33340.6125
300.59849	33345.5125
304.81948	33440.3125
309.03742	33399.6125
313.25231	33168.8125
317.46415	32646.7125
321.67296	31848.7125
325.87872	31199.6125
330.08145	30848.1125
334.28114	30782.0125
338.47781	30952.7125
342.67145	31219.2125
346.86207	31538.8125
351.04966	31961.7125
355.23424	32337.3125
359.4158	32697.8125
363.59435	32961.0125
367.76989	33194.1125
371.94243	33399.7125
376.11196	33441.3125
380.27849	33515.8125
384.44203	33569.6125
388.60257	33784.5125
392.76012	34245.4125
396.91468	34725.0125
401.06626	35244.0125
405.21485	35675.0125
409.36047	35532.5125
413.50311	35171.2125
417.64277	34913.4125
421.77947	34917.4125
425.9132	35072.2125
430.04396	35309.6125
434.17176	35483.5125
438.2966	35595.2125
442.41849	35928.7125
446.53742	36504.7125
450.6534	37155.8125
454.76644	37626.3125
458.87653	37809.6125
462.98368	37940.4125
467.08789	37825.3125
471.18916	37626.0125
475.2875	37374.3125
479.38291	37213.6125
483.4754	37093.9125
487.56496	36957.6125
491.6516	36543.2125
495.73531	36010.7125
499.81612	35655.0125
503.89401	35708.1125
507.96899	35876.1125
512.04106	35910.5125
516.11023	35820.9125
520.1765	35524.5125
524.23987	35139.6125
528.30034	34720.3125
532.35792	34381.4125
536.41261	34102.4125
540.46441	33825.9125
544.51333	33978.3125
548.55936	34320.0125
552.60252	34914.2125
556.64279	35595.1125
560.6802	36121.8125
564.71473	36577.9125
568.7464	37306.3125
572.7752	38536.2125
576.80114	39963.3125
580.82422	41282.3125
584.84444	42249.9125
588.86181	43112.6125
592.87633	43819.1125
596.888	43434.9125
600.89682	42182.6125
604.9028	41641.9125
608.90594	42976.0125
612.90624	44476.5125
616.90371	41921.7125
620.89834	37085.9125
624.89015	34965.5125
628.87913	34923.7125
632.86528	35371.9125
636.84862	35424.9125
640.82913	34856.3125
644.80683	34085.9125
648.78172	33516.2125
652.75379	33351.0125
656.72306	33607.0125
660.68952	34003.5125
664.65319	33911.1125
668.61405	33582.0125
672.57211	33551.1125
676.52738	33599.0125
680.47986	33565.5125
684.42955	33463.7125
688.37646	33319.8125
692.32058	33405.6125
696.26192	33675.3125
700.20048	34025.4125
704.13626	34376.2125
708.06928	34579.7125
711.99952	34560.5125
715.927	34432.5125
719.85171	34299.2125
723.77365	34019.4125
727.69284	33595.6125
731.60928	33185.2125
735.52295	32936.4125
739.43388	32860.5125
743.34206	32941.1125
747.24749	33110.2125
751.15017	33448.8125
755.05012	34042.4125
758.94733	34870.3125
762.8418	36263.9125
766.73354	38238.4125
770.62254	40015.2125
774.50882	40234.4125
778.39237	38648.7125
782.27321	36595.0125
786.15132	34914.5125
790.02671	33831.0125
793.89938	33168.7125
797.76935	32816.7125
801.6366	32617.8125
805.50115	32548.2125
809.36299	32360.7125
813.22213	32210.3125
817.07857	32230.2125
820.93231	32181.5125
824.78336	32092.5125
828.63172	31964.7125
832.47738	31860.0125
836.32036	31756.0125
840.16066	31693.6125
843.99827	31693.7125
847.8332	31703.5125
851.66546	31699.8125
855.49504	31746.9125
859.32195	31771.4125
863.1462	31743.1125
866.96777	31692.6125
870.78668	31665.5125
874.60293	31657.0125
878.41652	31645.5125
882.22745	31688.3125
886.03573	31765.3125
889.84136	31785.0125
893.64433	31730.9125
897.44466	31665.7125
901.24235	31646.7125
905.0374	31625.9125
908.8298	31617.8125
912.61957	31758.0125
916.40671	32091.7125
920.19121	32489.4125
923.97308	32783.7125
927.75233	32662.8125
931.52895	32288.3125
935.30295	31742.6125
939.07433	31217.0125
942.84309	30767.3125
946.60924	30555.5125
950.37278	30397.8125
954.13371	30392.4125
957.89203	30347.0125
961.64774	30361.6125
965.40086	30370.2125
969.15137	30309.5125
972.89929	30121.3125
976.64461	29961.1125
980.38733	29880.3125
984.12747	29812.8125
987.86502	29941.6125
991.59999	30110.7125
995.33237	30233.8125
999.06217	30464.3125
1002.78939	30885.6125
1006.51404	31301.7125
1010.23611	31702.4125
1013.95561	32032.3125
1017.67255	32046.0125
1021.38692	31868.7125
1025.09872	31539.2125
1028.80796	31185.0125
1032.51465	31026.5125
1036.21877	31068.4125
1039.92035	31183.1125
1043.61937	31386.0125
1047.31584	31469.3125
1051.00976	31572.6125
1054.70114	31790.8125
1058.38998	32057.3125
1062.07627	32429.9125
1065.76003	32957.2125
1069.44126	33442.3125
1073.11995	33898.6125
1076.79611	34333.4125
1080.46974	34424.1125
1084.14085	34475.8125
1087.80943	34734.8125
1091.47549	35047.6125
1095.13903	35299.7125
1098.80005	34995.0125
1102.45857	34226.8125
1106.11456	33443.7125
1109.76805	32962.4125
1113.41903	32797.2125
1117.06751	32815.0125
1120.71348	33052.5125
1124.35696	33340.5125
1127.99793	33714.8125
1131.63641	33952.7125
1135.2724	33952.7125
1138.90589	33891.9125
1142.5369	34000.5125
1146.16542	34254.0125
1149.79145	34584.2125
1153.415	35022.4125
1157.03607	35501.8125
1160.65467	36295.7125
1164.27079	37515.4125
1167.88443	39058.7125
1171.49561	40748.2125
1175.10432	42798.1125
1178.71056	45262.8125
1182.31434	47586.8125
1185.91565	49095.9125
1189.51451	49601.0125
1193.11091	49322.5125
1196.70485	48176.3125
1200.29634	46515.9125
1203.88538	45140.1125
1207.47197	44538.2125
1211.05612	44260.7125
1214.63782	43810.4125
1218.21708	42699.9125
1221.79391	41294.3125
1225.36829	40126.3125
1228.94024	39425.7125
1232.50976	39070.1125
1236.07685	38870.4125
1239.6415	38725.9125
1243.20374	38729.5125
1246.76355	39023.2125
1250.32093	39499.6125
1253.8759	40186.8125
1257.42845	41177.8125
1260.97859	42286.1125
1264.52631	43424.1125
1268.07163	44467.8125
1271.61453	45550.0125
1275.15503	46636.3125
1278.69312	47907.7125
1282.22882	49186.3125
1285.76211	50745.7125
1289.29301	52365.1125
1292.82151	54314.7125
1296.34761	56689.6125
1299.87133	59203.1125
1303.39266	61560.4125
1306.9116	63408.4125
1310.42815	64601.5125
1313.94233	65130.9125
1317.45412	64985.0125
1320.96354	64702.8125
1324.47058	64810.7125
1327.97525	65171.1125
1331.47754	65542.8125
1334.97747	65641.2125
1338.47502	65678.9125
1341.97022	65705.5125
1345.46305	65561.4125
1348.95352	65029.4125
1352.44163	64135.2125
1355.92738	63377.8125
1359.41078	63435.2125
1362.89183	63707.1125
1366.37053	62701.7125
1369.84688	59417.0125
1373.32088	55005.8125
1376.79254	51581.3125
1380.26186	50141.5125
1383.72883	50020.8125
1387.19347	50102.0125
1390.65578	49817.1125
1394.11575	49545.0125
1397.57339	49585.0125
1401.0287	49873.7125
1404.48168	50012.6125
1407.93234	49536.2125
1411.38068	48407.2125
1414.82669	46793.7125
1418.27039	44979.4125
1421.71177	43269.0125
1425.15083	42012.3125
1428.58758	41483.6125
1432.02203	41707.1125
1435.45416	42529.5125
1438.88399	43547.0125
1442.31151	44405.5125
1445.73673	45018.1125
1449.15965	45608.3125
1452.58027	46120.0125
1455.9986	46568.9125
1459.41463	46986.0125
1462.82837	47567.3125
1466.23982	48199.0125
1469.64898	48706.7125
1473.05586	48949.0125
1476.46045	48895.4125
1479.86276	48737.3125
1483.26279	48503.5125
1486.66054	48434.1125
1490.05602	48667.2125
1493.44922	49539.8125
1496.84016	50551.4125
1500.22882	51911.2125
1503.61521	53474.3125
1506.99934	54986.7125
1510.38121	55982.2125
1513.76081	56142.1125
1517.13816	55548.6125
1520.51324	54768.1125
1523.88607	54217.6125
1527.25665	54102.9125
1530.62498	53843.4125
1533.99105	53236.0125
1537.35488	52142.4125
1540.71647	50661.8125
1544.07581	49015.5125
1547.4329	47490.6125
1550.78776	46330.0125
1554.14038	45654.6125
1557.49077	45317.3125
1560.83892	45223.5125
1564.18484	45250.7125
1567.52853	45349.8125
1570.86999	45690.7125
1574.20922	46447.2125
1577.54624	47266.9125
1580.88103	47716.0125
1584.2136	48161.6125
1587.54395	49032.4125
1590.87208	50437.9125
1594.19801	52234.8125
1597.52172	53735.9125
1600.84321	53486.2125
1604.16251	51258.0125
1607.47959	48069.9125
1610.79447	44875.3125
1614.10715	41840.5125
1617.41763	39225.5125
1620.7259	37353.8125
1624.03199	36284.9125
1627.33587	36151.9125
1630.63757	36975.2125
1633.93707	39068.3125
1637.23439	42542.9125
1640.52951	47617.4125
1643.82246	53483.2125
1647.11321	58159.6125
1650.40179	59316.0125
1653.68819	56132.7125
1656.97241	49950.2125
1660.25446	43357.8125
1663.53433	38068.6125
1666.81203	34439.3125
1670.08756	32118.4125
1673.36092	30606.3125
1676.63211	29603.4125
1679.90115	28954.4125
1683.16801	28467.3125
1686.43272	28112.3125
1689.69527	27814.4125
1692.95567	27638.8125
1696.2139	27482.1125
1699.46999	27354.7125
1702.72392	27237.0125
1705.97571	27161.4125
1709.22535	27026.0125
1712.47284	26955.1125
1715.71819	26882.9125
1718.96139	26763.8125
1722.20246	26714.8125
1725.44139	26566.7125
1728.67818	26438.9125
1731.91284	26285.3125
1735.14537	26087.7125
1738.37576	26042.0125
1741.60403	25925.0125
1744.83017	25817.9125
1748.05418	25759.2125
1751.27607	25777.2125
1754.49584	25668.4125
1757.71349	25655.9125
1760.92903	25621.0125
1764.14244	25535.5125
1767.35375	25553.6125
1770.56294	25487.1125
1773.77002	25421.0125
1776.97499	25339.1125
1780.17785	25256.4125
1783.37861	25216.2125
1786.57727	25161.6125
1789.77382	25066.9125
1792.96828	25053.2125
1796.16064	25010.8125
1799.3509	24972.1125
1802.53907	24897.1125
1805.72514	24801.7125
1808.90913	24740.7125
1812.09102	24667.7125
1815.27083	24653.6125
1818.44856	24643.5125
1821.6242	24598.6125
1824.79776	24559.8125
1827.96924	24518.7125
1831.13864	24497.7125
1834.30597	24500.9125
1837.47122	24531.5125
1840.6344	24490.3125
1843.7955	24533.5125
1846.95454	24484.0125
1850.11151	24501.7125
1853.26642	24530.1125
1856.41926	24482.6125
1859.57004	24480.7125
1862.71876	24402.5125
1865.86542	24389.7125
1869.01003	24323.2125
1872.15258	24250.5125
1875.29308	24222.4125
1878.43152	24162.7125
1881.56792	24112.8125
1884.70227	24045.0125
1887.83457	24046.6125
1890.96482	23985.6125
1894.09304	23943.9125
1897.21921	23906.8125
1900.34335	23867.4125
1903.46544	23795.9125
1906.58551	23734.4125
1909.70353	23663.4125
1912.81953	23653.2125
1915.93349	23584.4125
1919.04543	23550.0125
1922.15534	23540.4125
1925.26322	23425.5125
1928.36908	23357.4125
1931.47292	23324.4125
1934.57473	23249.5125
1937.67453	23179.9125
1940.77232	23090.8125
1943.86808	23028.1125
1946.96184	22995.7125
1950.05358	22920.1125
1953.14331	22836.6125
1956.23103	22741.5125
1959.31675	22669.8125
1962.40046	22637.0125
1965.48217	22567.3125
1968.56188	22503.0125
1971.63959	22403.6125
1974.7153	22340.9125
1977.78901	22296.9125
1980.86073	22174.9125
1983.93046	22070.3125
1986.99819	22025.2125
1990.06394	21952.0125
1993.1277	21905.2125
1996.18947	21846.5125
1999.24925	21752.5125
2002.30706	21622.1125
2005.36288	21593.9125
2008.41672	21517.0125
2011.46859	21471.5125
2014.51848	21386.7125
2017.56639	21360.3125
2020.61233	21298.0125
2023.6563	21254.8125
2026.6983	21169.2125
2029.73833	21124.3125
2032.7764	21043.0125
2035.8125	20995.3125
2038.84664	20930.0125
2041.87881	20900.3125
2044.90903	20840.1125
2047.93729	20801.9125
2050.96359	20818.3125
2053.98794	20773.5125
2057.01034	20749.0125
2060.03078	20707.6125
2063.04927	20683.9125
2066.06582	20654.5125
2069.08042	20640.6125
2072.09307	20618.6125
2075.10378	20593.5125
2078.11255	20590.3125
2081.11938	20579.9125
2084.12426	20558.6125
2087.12722	20567.6125
2090.12824	20547.9125
2093.12732	20558.0125
2096.12447	20539.8125
2099.11969	20585.3125
2102.11299	20536.3125
2105.10435	20499.2125
2108.09379	20488.6125
2111.08131	20538.6125
2114.0669	20514.2125
2117.05057	20548.1125
2120.03233	20573.6125
2123.01216	20605.6125
2125.99008	20572.0125
2128.96609	20584.2125
2131.94018	20570.1125
2134.91236	20610.3125
2137.88263	20607.8125
2140.851	20569.1125
2143.81746	20591.7125
2146.78201	20574.5125
2149.74466	20559.7125
2152.7054	20568.6125
2155.66425	20516.4125
2158.6212	20505.6125
2161.57625	20486.9125
2164.52941	20490.9125
2167.48067	20453.5125
2170.43004	20438.6125
2173.37752	20395.5125
2176.32311	20418.0125
2179.26681	20427.1125
2182.20863	20412.9125
2185.14856	20401.8125
2188.08661	20353.8125
2191.02278	20428.7125
2193.95707	20358.3125
2196.88948	20326.9125
2199.82001	20315.3125
2202.74867	20309.2125
2205.67545	20300.8125
2208.60037	20230.9125
2211.52341	20189.2125
2214.44458	20167.6125
2217.36388	20120.1125
2220.28132	20082.7125
2223.1969	20042.4125
2226.11061	20025.3125
2229.02246	19976.9125
2231.93245	19917.4125
2234.84058	19923.8125
2237.74686	19864.2125
2240.65128	19842.7125
2243.55385	19790.3125
2246.45456	19757.5125
2249.35343	19749.3125
2252.25044	19701.9125
2255.14561	19619.5125
2258.03893	19591.7125
2260.93041	19556.1125
2263.82004	19485.6125
2266.70783	19400.8125
2269.59378	19347.6125
2272.4779	19283.9125
2275.36017	19260.7125
2278.24061	19231.9125
2281.11922	19162.3125
2283.996	19138.9125
2286.87094	19122.3125
2289.74405	19069.2125
2292.61534	19056.8125
2295.4848	19010.3125
2298.35243	18969.3125
2301.21824	18973.6125
2304.08223	18944.7125
2306.94439	18967.6125
2309.80474	18909.8125
2312.66327	18914.0125
2315.51999	18845.3125
2318.37489	18841.9125
2321.22797	18780.4125
2324.07925	18762.8125
2326.92871	18695.6125
2329.77637	18709.8125
2332.62222	18674.6125
2335.46626	18675.5125
2338.3085	18604.1125
2341.14893	18607.5125
2343.98756	18576.3125
2346.8244	18585.8125
2349.65943	18578.0125
2352.49267	18532.7125
2355.32411	18543.8125
2358.15376	18513.3125
2360.98161	18532.3125
2363.80768	18497.9125
2366.63195	18463.4125
2369.45444	18454.7125
2372.27514	18407.6125
2375.09405	18428.2125
2377.91118	18377.6125
2380.72652	18366.9125
2383.54009	18285.4125
2386.35187	18277.1125
2389.16188	18223.0125
2391.97011	18170.2125
2394.77657	18094.5125
2397.58125	18091.5125
2400.38416	18075.7125
2403.18529	18057.4125
2405.98466	18008.0125
2408.78226	18006.3125
2411.57809	18001.6125
2414.37216	17955.1125
2417.16446	17934.7125
2419.955	17901.9125
2422.74378	17935.8125
2425.5308	17861.8125
2428.31606	17848.1125
2431.09956	17858.2125
2433.88131	17847.4125
2436.6613	17800.0125
2439.43954	17786.6125
2442.21603	17772.5125
2444.99077	17724.5125
2447.76377	17715.5125
2450.53501	17687.2125
2453.30451	17691.6125
2456.07226	17673.7125
2458.83827	17634.3125
2461.60254	17646.6125
2464.36507	17671.4125
2467.12586	17627.2125
2469.88492	17580.0125
2472.64224	17583.0125
2475.39782	17552.6125
2478.15167	17549.7125
2480.90379	17533.1125
2483.65417	17546.6125
2486.40283	17539.9125
2489.14976	17530.4125
2491.89497	17544.6125
2494.63845	17535.4125
2497.3802	17498.3125
2500.12024	17495.5125
2502.85855	17458.6125
2505.59514	17478.1125
2508.33002	17477.6125
2511.06318	17440.7125
2513.79462	17403.9125
2516.52435	17388.1125
2519.25237	17366.1125
2521.97867	17356.8125
2524.70327	17353.4125
2527.42616	17299.9125
2530.14734	17297.6125
2532.86681	17275.8125
2535.58458	17238.8125
2538.30065	17223.4125
2541.01501	17182.2125
2543.72768	17149.7125
2546.43864	17142.5125
2549.14791	17111.9125
2551.85548	17080.1125
2554.56136	17074.4125
2557.26554	17051.7125
2559.96803	16996.7125
2562.66883	17005.4125
2565.36794	16979.9125
2568.06536	16952.5125
2570.7611	16902.0125
2573.45514	16861.6125
2576.14751	16836.2125
2578.83819	16854.3125
2581.52719	16840.5125
2584.21451	16772.6125
2586.90015	16736.2125
2589.58411	16712.7125
2592.2664	16732.0125
2594.94701	16717.4125
2597.62594	16685.3125
2600.30321	16643.2125
2602.9788	16630.6125
2605.65273	16616.4125
2608.32498	16582.8125
2610.99557	16592.5125
2613.66449	16563.8125
2616.33175	16585.4125
2618.99734	16566.5125
2621.66128	16532.2125
2624.32355	16485.1125
2626.98416	16504.2125
2629.64311	16484.8125
2632.30041	16446.5125
2634.95605	16460.1125
2637.61004	16459.5125
2640.26238	16396.4125
2642.91306	16398.4125
2645.56209	16384.0125
2648.20948	16379.0125
2650.85521	16363.8125
2653.4993	16375.0125
2656.14175	16372.5125
2658.78255	16373.5125
2661.42171	16351.8125
2664.05923	16409.7125
2666.6951	16358.9125
2669.32934	16376.6125
2671.96194	16389.0125
2674.59291	16393.6125
2677.22224	16355.7125
2679.84993	16361.3125
2682.476	16327.7125
2685.10043	16338.2125
2687.72324	16360.4125
2690.34441	16352.8125
2692.96396	16331.6125
2695.58188	16344.3125
2698.19818	16313.3125
2700.81285	16313.3125
2703.4259	16336.2125
2706.03733	16370.7125
2708.64714	16367.0125
2711.25533	16327.6125
2713.86191	16286.8125
2716.46687	16329.2125
2719.07021	16297.4125
2721.67194	16317.9125
2724.27206	16305.4125
2726.87057	16295.4125
2729.46747	16315.3125
2732.06276	16315.1125
2734.65644	16289.2125
2737.24852	16283.1125
2739.83899	16222.5125
2742.42786	16251.5125
2745.01513	16213.9125
2747.60079	16221.8125
2750.18486	16237.1125
2752.76733	16226.2125
2755.3482	16231.6125
2757.92747	16201.8125
2760.50515	16173.6125
2763.08123	16162.7125
2765.65573	16120.6125
2768.22863	16094.6125
2770.79994	16062.1125
2773.36967	16075.1125
2775.9378	16084.4125
2778.50435	16072.3125
2781.06932	16049.6125
2783.6327	15998.7125
2786.1945	15998.4125
2788.75471	16010.6125
2791.31335	15919.5125
2793.87041	15868.2125
2796.42589	15854.2125
2798.97979	15822.4125
2801.53212	15811.7125
2804.08288	15811.6125
2806.63206	15781.1125
2809.17967	15713.6125
2811.72571	15679.2125
2814.27018	15688.9125
2816.81308	15598.7125
2819.35442	15586.2125
2821.89419	15599.6125
2824.43239	15566.1125
2826.96904	15563.2125
2829.50412	15542.3125
2832.03763	15493.7125
2834.56959	15509.7125
2837.1	15454.5125
2839.62884	15492.1125
2842.15613	15460.4125
2844.68186	15472.3125
2847.20604	15445.5125
2849.72867	15492.9125
2852.24974	15484.3125
2854.76927	15456.7125
2857.28724	15435.9125
2859.80367	15436.1125
2862.31855	15394.0125
2864.83189	15326.1125
2867.34368	15300.8125
2869.85393	15314.0125
2872.36264	15281.5125
2874.8698	15267.2125
2877.37543	15262.3125
2879.87952	15238.0125
2882.38207	15247.2125
2884.88308	15228.4125
2887.38256	15246.6125
2889.88051	15264.6125
2892.37692	15265.0125
2894.8718	15252.3125
2897.36515	15237.0125
2899.85698	15220.5125
2902.34727	15219.2125
2904.83604	15252.2125
2907.32328	15253.9125
2909.809	15206.6125
2912.29319	15190.4125
2914.77587	15166.7125
2917.25702	15161.0125
2919.73665	15143.0125
2922.21476	15155.9125
2924.69136	15160.4125
2927.16644	15196.2125
2929.64	15190.0125
2932.11205	15153.8125
2934.58258	15107.7125
2937.05161	15135.1125
2939.51912	15118.3125
2941.98513	15102.7125
2944.44962	15037.3125
2946.91261	15006.7125
2949.37409	15008.7125
2951.83407	14963.6125
2954.29254	14968.8125
2956.74951	14931.9125
2959.20498	14897.1125
2961.65895	14872.9125
2964.11142	14862.8125
2966.56239	14840.2125
2969.01186	14868.6125
2971.45984	14801.4125
2973.90632	14755.8125
2976.35131	14714.7125
2978.7948	14701.6125
2981.23681	14649.8125
2983.67732	14630.5125
2986.11635	14576.3125
2988.55388	14529.2125
2990.98993	14536.1125
2993.4245	14474.1125
2995.85758	14429.5125
2998.28917	14372.8125
3000.71928	14375.0125
3003.14791	14308.7125
3005.57506	14338.0125
3008.00073	14270.6125
3010.42493	14243.9125
3012.84764	14161.3125
3015.26888	14152.6125
3017.68865	14126.3125
3020.10694	14126.1125
3022.52376	14097.2125
