Data from AgNPs_FTO_APTES_UA_2uM_CRN_0uM_R6G_10uM_NaF_0.1M_Addition_RamanShift__41__10-52-14-967.txt Node

Date: Wed Feb 02 10:52:14 GMT 2022
User: TCL
Spectrometer: QEP01345
Trigger mode: 4
Integration Time (sec): 7.000000E0
Scans to average: 10
Electric dark correction enabled: true
Nonlinearity correction enabled: false
Boxcar width: 0
XAxis mode: Raman Shifts
Number of Pixels in Spectrum: 1044
>>>>>Begin Spectral Data<<<<<
46.04893	-0.8875
50.45542	1.6125
54.85868	-0.8875
59.25871	-0.1875
63.6555	61.1125
68.04907	66.8125
72.43941	65.7125
76.82654	72.0125
81.21044	79.6125
85.59113	80.2125
89.96862	84.0125
94.34289	86.9125
98.71396	90.5125
103.08183	93.0125
107.4465	93.1125
111.80798	96.0125
116.16626	99.9125
120.52136	100.3125
124.87327	107.3125
129.222	115.3125
133.56755	127.8125
137.90993	136.3125
142.24913	154.1125
146.58517	176.6125
150.91804	210.8125
155.24774	255.3125
159.57429	319.9125
163.89768	419.8125
168.21792	556.5125
172.53501	768.1125
176.84895	1059.0125
181.15975	1496.3125
185.46741	2098.6125
189.77193	2886.0125
194.07331	3875.6125
198.37157	4995.4125
202.6667	6177.2125
206.9587	7345.7125
211.24758	8471.4125
215.53334	9646.1125
219.81599	10853.0125
224.09553	12211.8125
228.37195	13724.0125
232.64527	15321.0125
236.91549	16964.7125
241.18261	18666.1125
245.44663	20287.0125
249.70755	21715.1125
253.96539	22952.8125
258.22014	24016.9125
262.4718	24814.3125
266.72039	25272.8125
270.96589	25511.5125
275.20832	25441.0125
279.44768	25252.0125
283.68397	24975.4125
287.91719	24675.1125
292.14735	24509.9125
296.37445	24428.3125
300.59849	24458.8125
304.81948	24532.9125
309.03742	24573.2125
313.25231	24513.7125
317.46415	24121.8125
321.67296	23602.6125
325.87872	23092.0125
330.08145	22766.3125
334.28114	22597.1125
338.47781	22680.0125
342.67145	22829.8125
346.86207	23116.0125
351.04966	23396.7125
355.23424	23720.0125
359.4158	24066.9125
363.59435	24301.2125
367.76989	24419.5125
371.94243	24389.8125
376.11196	24303.6125
380.27849	24123.6125
384.44203	24102.4125
388.60257	24272.6125
392.76012	24587.1125
396.91468	25046.8125
401.06626	25514.5125
405.21485	25795.1125
409.36047	25612.0125
413.50311	25359.9125
417.64277	25192.7125
421.77947	25363.4125
425.9132	25630.6125
430.04396	25763.0125
434.17176	25835.3125
438.2966	25825.0125
442.41849	26118.0125
446.53742	26606.8125
450.6534	27250.6125
454.76644	27617.3125
458.87653	27727.5125
462.98368	27724.9125
467.08789	27519.4125
471.18916	27251.0125
475.2875	26994.7125
479.38291	26974.3125
483.4754	27011.9125
487.56496	26915.6125
491.6516	26530.2125
495.73531	25942.3125
499.81612	25542.1125
503.89401	25458.4125
507.96899	25469.5125
512.04106	25467.6125
516.11023	25229.5125
520.1765	24804.6125
524.23987	24424.9125
528.30034	24047.7125
532.35792	23759.1125
536.41261	23453.3125
540.46441	23211.1125
544.51333	23260.6125
548.55936	23503.6125
552.60252	24077.9125
556.64279	24763.9125
560.6802	25346.1125
564.71473	25888.7125
568.7464	26683.2125
572.7752	28134.6125
576.80114	29798.3125
580.82422	31344.5125
584.84444	32915.9125
588.86181	34982.7125
592.87633	37163.8125
596.888	37114.8125
600.89682	34329.4125
604.9028	31961.1125
608.90594	32103.4125
612.90624	32827.7125
616.90371	30516.2125
620.89834	26365.5125
624.89015	24560.2125
628.87913	24593.0125
632.86528	24944.7125
636.84862	24809.3125
640.82913	24062.9125
644.80683	23205.9125
648.78172	22762.6125
652.75379	22699.8125
656.72306	22867.5125
660.68952	23096.7125
664.65319	22911.5125
668.61405	22490.5125
672.57211	22449.5125
676.52738	22525.1125
680.47986	22521.0125
684.42955	22344.5125
688.37646	22200.2125
692.32058	22367.1125
696.26192	22708.1125
700.20048	23166.9125
704.13626	23487.2125
708.06928	23762.9125
711.99952	23872.9125
715.927	23816.1125
719.85171	23696.4125
723.77365	23323.6125
727.69284	22757.4125
731.60928	22299.0125
735.52295	22137.7125
739.43388	22105.3125
743.34206	22165.7125
747.24749	22362.0125
751.15017	22757.7125
755.05012	23380.6125
758.94733	24181.3125
762.8418	25443.8125
766.73354	27269.1125
770.62254	28593.2125
774.50882	28442.7125
778.39237	26826.2125
782.27321	25059.4125
786.15132	23747.5125
790.02671	22880.4125
793.89938	22398.8125
797.76935	22098.2125
801.6366	21911.2125
805.50115	21905.3125
809.36299	21804.5125
813.22213	21750.2125
817.07857	21735.5125
820.93231	21641.6125
824.78336	21490.8125
828.63172	21290.8125
832.47738	21193.0125
836.32036	21136.6125
840.16066	21114.0125
843.99827	21104.4125
847.8332	21079.1125
851.66546	21102.8125
855.49504	21190.8125
859.32195	21229.2125
863.1462	21138.1125
866.96777	21104.1125
870.78668	21047.9125
874.60293	21096.3125
878.41652	21099.6125
882.22745	21193.3125
886.03573	21259.8125
889.84136	21330.5125
893.64433	21313.1125
897.44466	21342.9125
901.24235	21386.9125
905.0374	21401.9125
908.8298	21406.4125
912.61957	21555.8125
916.40671	21909.4125
920.19121	22391.6125
923.97308	22850.5125
927.75233	22872.0125
931.52895	22485.0125
935.30295	21720.1125
939.07433	21020.7125
942.84309	20517.6125
946.60924	20241.8125
950.37278	20060.4125
954.13371	20003.7125
957.89203	19994.6125
961.64774	20004.7125
965.40086	19975.0125
969.15137	19872.8125
972.89929	19679.3125
976.64461	19468.7125
980.38733	19348.4125
984.12747	19286.5125
987.86502	19342.3125
991.59999	19443.4125
995.33237	19491.2125
999.06217	19704.5125
1002.78939	20094.6125
1006.51404	20533.8125
1010.23611	21016.5125
1013.95561	21371.3125
1017.67255	21434.1125
1021.38692	21178.1125
1025.09872	20717.5125
1028.80796	20386.5125
1032.51465	20188.0125
1036.21877	20236.6125
1039.92035	20387.6125
1043.61937	20511.0125
1047.31584	20682.9125
1051.00976	20797.6125
1054.70114	20943.6125
1058.38998	21145.8125
1062.07627	21373.9125
1065.76003	21736.9125
1069.44126	22174.3125
1073.11995	22741.2125
1076.79611	23213.0125
1080.46974	23315.8125
1084.14085	23393.0125
1087.80943	23678.3125
1091.47549	24008.6125
1095.13903	24268.6125
1098.80005	23886.6125
1102.45857	22921.8125
1106.11456	22165.9125
1109.76805	21679.6125
1113.41903	21541.9125
1117.06751	21576.2125
1120.71348	21845.2125
1124.35696	22075.5125
1127.99793	22409.9125
1131.63641	22672.2125
1135.2724	22752.3125
1138.90589	22825.3125
1142.5369	23006.9125
1146.16542	23362.6125
1149.79145	23820.0125
1153.415	24308.0125
1157.03607	24870.6125
1160.65467	25812.3125
1164.27079	27304.2125
1167.88443	28899.4125
1171.49561	30530.8125
1175.10432	32473.9125
1178.71056	34837.8125
1182.31434	37045.8125
1185.91565	38025.8125
1189.51451	37812.3125
1193.11091	36993.5125
1196.70485	35752.1125
1200.29634	34271.1125
1203.88538	33380.7125
1207.47197	33283.5125
1211.05612	33409.4125
1214.63782	33038.5125
1218.21708	31884.5125
1221.79391	30384.9125
1225.36829	29230.3125
1228.94024	28583.6125
1232.50976	28127.2125
1236.07685	27735.9125
1239.6415	27379.9125
1243.20374	27254.0125
1246.76355	27371.0125
1250.32093	27673.8125
1253.8759	28419.5125
1257.42845	29347.9125
1260.97859	30475.2125
1264.52631	31666.4125
1268.07163	32819.1125
1271.61453	33992.8125
1275.15503	35280.7125
1278.69312	36924.3125
1282.22882	38844.2125
1285.76211	41107.5125
1289.29301	43451.0125
1292.82151	45994.8125
1296.34761	48809.4125
1299.87133	51912.6125
1303.39266	54651.5125
1306.9116	56412.6125
1310.42815	57275.8125
1313.94233	57234.2125
1317.45412	56545.7125
1320.96354	55865.0125
1324.47058	55767.4125
1327.97525	55841.5125
1331.47754	55689.3125
1334.97747	54848.8125
1338.47502	53645.2125
1341.97022	52409.2125
1345.46305	51174.6125
1348.95352	50191.1125
1352.44163	49514.9125
1355.92738	49854.3125
1359.41078	51442.8125
1362.89183	53334.8125
1366.37053	53647.1125
1369.84688	50733.7125
1373.32088	45444.4125
1376.79254	41291.7125
1380.26186	39795.7125
1383.72883	39937.5125
1387.19347	40154.3125
1390.65578	39839.6125
1394.11575	39646.9125
1397.57339	40102.7125
1401.0287	40883.4125
1404.48168	41331.4125
1407.93234	40764.1125
1411.38068	39100.3125
1414.82669	37020.4125
1418.27039	34886.0125
1421.71177	33032.1125
1425.15083	31680.7125
1428.58758	31128.5125
1432.02203	31480.5125
1435.45416	32592.5125
1438.88399	33801.0125
1442.31151	34645.0125
1445.73673	35212.7125
1449.15965	35707.2125
1452.58027	36001.1125
1455.9986	36177.1125
1459.41463	36420.5125
1462.82837	36902.1125
1466.23982	37467.1125
1469.64898	37863.2125
1473.05586	38002.7125
1476.46045	37934.0125
1479.86276	37696.8125
1483.26279	37550.6125
1486.66054	37619.8125
1490.05602	38135.0125
1493.44922	38998.8125
1496.84016	39935.2125
1500.22882	40815.2125
1503.61521	41609.7125
1506.99934	42130.2125
1510.38121	42600.3125
1513.76081	42770.5125
1517.13816	42755.6125
1520.51324	42735.7125
1523.88607	42961.2125
1527.25665	43337.6125
1530.62498	43471.3125
1533.99105	42819.0125
1537.35488	41440.7125
1540.71647	39644.3125
1544.07581	37658.9125
1547.4329	35815.0125
1550.78776	34473.1125
1554.14038	33656.5125
1557.49077	33319.1125
1560.83892	33186.9125
1564.18484	33172.7125
1567.52853	33233.6125
1570.86999	33690.3125
1574.20922	34702.8125
1577.54624	35785.0125
1580.88103	36612.0125
1584.2136	37660.6125
1587.54395	39416.3125
1590.87208	41715.5125
1594.19801	44061.6125
1597.52172	45522.9125
1600.84321	44744.0125
1604.16251	41326.3125
1607.47959	36881.0125
1610.79447	32870.8125
1614.10715	29701.5125
1617.41763	27300.6125
1620.7259	25793.0125
1624.03199	25111.4125
1627.33587	25329.0125
1630.63757	26505.5125
1633.93707	28949.1125
1637.23439	33013.7125
1640.52951	39139.4125
1643.82246	46643.2125
1647.11321	52739.0125
1650.40179	53874.2125
1653.68819	49142.6125
1656.97241	41152.5125
1660.25446	33459.6125
1663.53433	27762.0125
1666.81203	24164.9125
1670.08756	21977.0125
1673.36092	20631.0125
1676.63211	19782.5125
1679.90115	19199.7125
1683.16801	18785.4125
1686.43272	18432.9125
1689.69527	18188.9125
1692.95567	17999.7125
1696.2139	17929.7125
1699.46999	17781.8125
1702.72392	17638.4125
1705.97571	17597.6125
1709.22535	17478.6125
1712.47284	17439.7125
1715.71819	17413.7125
1718.96139	17313.7125
1722.20246	17236.9125
1725.44139	17126.9125
1728.67818	16989.2125
1731.91284	16844.4125
1735.14537	16739.6125
1738.37576	16625.0125
1741.60403	16578.6125
1744.83017	16486.9125
1748.05418	16409.4125
1751.27607	16342.5125
1754.49584	16302.9125
1757.71349	16267.4125
1760.92903	16252.4125
1764.14244	16243.4125
1767.35375	16215.8125
1770.56294	16131.2125
1773.77002	16110.2125
1776.97499	16087.0125
1780.17785	16004.6125
1783.37861	15997.5125
1786.57727	15955.3125
1789.77382	15879.9125
1792.96828	15859.9125
1796.16064	15828.6125
1799.3509	15789.8125
1802.53907	15770.8125
1805.72514	15708.3125
1808.90913	15686.0125
1812.09102	15639.4125
1815.27083	15588.6125
1818.44856	15566.9125
1821.6242	15551.1125
1824.79776	15550.1125
1827.96924	15509.7125
1831.13864	15506.9125
1834.30597	15516.2125
1837.47122	15533.4125
1840.6344	15512.5125
1843.7955	15556.9125
1846.95454	15554.3125
1850.11151	15502.0125
1853.26642	15519.2125
1856.41926	15493.2125
1859.57004	15502.0125
1862.71876	15463.2125
1865.86542	15428.3125
1869.01003	15405.8125
1872.15258	15359.4125
1875.29308	15360.0125
1878.43152	15317.8125
1881.56792	15241.3125
1884.70227	15258.9125
1887.83457	15177.1125
1890.96482	15127.6125
1894.09304	15131.2125
1897.21921	15116.6125
1900.34335	15091.3125
1903.46544	15058.7125
1906.58551	15012.7125
1909.70353	15000.5125
1912.81953	14974.7125
1915.93349	14900.7125
1919.04543	14847.1125
1922.15534	14819.9125
1925.26322	14777.7125
1928.36908	14711.4125
1931.47292	14673.0125
1934.57473	14592.6125
1937.67453	14561.6125
1940.77232	14493.3125
1943.86808	14503.0125
1946.96184	14444.3125
1950.05358	14394.3125
1953.14331	14338.6125
1956.23103	14299.4125
1959.31675	14231.2125
1962.40046	14213.9125
1965.48217	14133.5125
1968.56188	14072.1125
1971.63959	14035.3125
1974.7153	13987.4125
1977.78901	13907.4125
1980.86073	13866.0125
1983.93046	13823.5125
1986.99819	13750.1125
1990.06394	13727.6125
1993.1277	13715.0125
1996.18947	13631.2125
1999.24925	13592.4125
2002.30706	13560.1125
2005.36288	13501.7125
2008.41672	13431.1125
2011.46859	13376.4125
2014.51848	13341.0125
2017.56639	13278.0125
2020.61233	13241.2125
2023.6563	13212.4125
2026.6983	13200.7125
2029.73833	13155.7125
2032.7764	13126.6125
2035.8125	13106.7125
2038.84664	13062.3125
2041.87881	13059.7125
2044.90903	12998.1125
2047.93729	13014.0125
2050.96359	12998.3125
2053.98794	12972.0125
2057.01034	12980.8125
2060.03078	12943.4125
2063.04927	12943.9125
2066.06582	12945.9125
2069.08042	12919.6125
2072.09307	12971.5125
2075.10378	12937.0125
2078.11255	12927.8125
2081.11938	12952.2125
2084.12426	12936.0125
2087.12722	12930.0125
2090.12824	12908.4125
2093.12732	12936.3125
2096.12447	12938.9125
2099.11969	12917.3125
2102.11299	12930.0125
2105.10435	12911.4125
2108.09379	12903.6125
2111.08131	12892.9125
2114.0669	12888.6125
2117.05057	12873.8125
2120.03233	12857.7125
2123.01216	12842.9125
2125.99008	12815.0125
2128.96609	12811.3125
2131.94018	12827.5125
2134.91236	12808.9125
2137.88263	12779.0125
2140.851	12799.9125
2143.81746	12757.9125
2146.78201	12739.1125
2149.74466	12726.4125
2152.7054	12689.2125
2155.66425	12701.1125
2158.6212	12688.2125
2161.57625	12728.4125
2164.52941	12678.0125
2167.48067	12659.9125
2170.43004	12666.6125
2173.37752	12628.4125
2176.32311	12632.9125
2179.26681	12628.2125
2182.20863	12617.0125
2185.14856	12642.0125
2188.08661	12607.8125
2191.02278	12619.5125
2193.95707	12568.2125
2196.88948	12545.1125
2199.82001	12521.0125
2202.74867	12519.5125
2205.67545	12513.3125
2208.60037	12464.4125
2211.52341	12461.5125
2214.44458	12427.6125
2217.36388	12401.4125
2220.28132	12384.3125
2223.1969	12319.3125
2226.11061	12335.1125
2229.02246	12321.8125
2231.93245	12324.5125
2234.84058	12315.8125
2237.74686	12314.9125
2240.65128	12298.6125
2243.55385	12265.8125
2246.45456	12234.7125
2249.35343	12159.3125
2252.25044	12110.1125
2255.14561	12097.2125
2258.03893	12079.0125
2260.93041	12053.1125
2263.82004	11995.2125
2266.70783	11965.8125
2269.59378	11928.9125
2272.4779	11902.1125
2275.36017	11870.3125
2278.24061	11827.5125
2281.11922	11788.1125
2283.996	11785.0125
2286.87094	11779.0125
2289.74405	11713.8125
2292.61534	11714.0125
2295.4848	11698.6125
2298.35243	11655.6125
2301.21824	11640.3125
2304.08223	11605.1125
2306.94439	11608.5125
2309.80474	11626.1125
2312.66327	11602.1125
2315.51999	11583.1125
2318.37489	11548.1125
2321.22797	11532.0125
2324.07925	11506.1125
2326.92871	11516.2125
2329.77637	11516.6125
2332.62222	11468.2125
2335.46626	11470.5125
2338.3085	11425.4125
2341.14893	11441.5125
2343.98756	11435.0125
2346.8244	11453.4125
2349.65943	11406.3125
2352.49267	11409.6125
2355.32411	11397.6125
2358.15376	11411.7125
2360.98161	11421.7125
2363.80768	11402.8125
2366.63195	11405.9125
2369.45444	11396.0125
2372.27514	11358.2125
2375.09405	11295.4125
2377.91118	11306.3125
2380.72652	11280.0125
2383.54009	11256.2125
2386.35187	11221.6125
2389.16188	11191.9125
2391.97011	11111.5125
2394.77657	11114.9125
2397.58125	11142.6125
2400.38416	11112.3125
2403.18529	11079.3125
2405.98466	11056.8125
2408.78226	11053.0125
2411.57809	11013.2125
2414.37216	11008.4125
2417.16446	11029.1125
2419.955	10969.0125
2422.74378	10989.9125
2425.5308	10976.1125
2428.31606	10977.5125
2431.09956	10975.6125
2433.88131	10923.4125
2436.6613	10941.8125
2439.43954	10929.7125
2442.21603	10932.6125
2444.99077	10926.5125
2447.76377	10896.5125
2450.53501	10926.7125
2453.30451	10894.9125
2456.07226	10880.1125
2458.83827	10913.0125
2461.60254	10902.3125
2464.36507	10900.3125
2467.12586	10846.2125
2469.88492	10865.6125
2472.64224	10829.7125
2475.39782	10851.1125
2478.15167	10835.5125
2480.90379	10811.6125
2483.65417	10841.2125
2486.40283	10827.1125
2489.14976	10828.8125
2491.89497	10809.1125
2494.63845	10815.4125
2497.3802	10803.1125
2500.12024	10790.7125
2502.85855	10802.5125
2505.59514	10780.7125
2508.33002	10767.8125
2511.06318	10731.3125
2513.79462	10733.1125
2516.52435	10710.2125
2519.25237	10717.4125
2521.97867	10681.1125
2524.70327	10681.8125
2527.42616	10678.0125
2530.14734	10661.4125
2532.86681	10653.7125
2535.58458	10623.3125
2538.30065	10624.5125
2541.01501	10591.6125
2543.72768	10550.2125
2546.43864	10553.0125
2549.14791	10545.1125
2551.85548	10546.2125
2554.56136	10498.3125
2557.26554	10497.3125
2559.96803	10505.4125
2562.66883	10463.4125
2565.36794	10489.3125
2568.06536	10500.2125
2570.7611	10465.8125
2573.45514	10464.6125
2576.14751	10442.0125
2578.83819	10430.1125
2581.52719	10437.9125
2584.21451	10429.1125
2586.90015	10405.7125
2589.58411	10362.2125
2592.2664	10353.8125
2594.94701	10335.1125
2597.62594	10334.2125
2600.30321	10320.0125
2602.9788	10316.2125
2605.65273	10315.4125
2608.32498	10341.2125
2610.99557	10307.3125
2613.66449	10312.2125
2616.33175	10301.1125
2618.99734	10312.1125
2621.66128	10315.5125
2624.32355	10322.8125
2626.98416	10285.6125
2629.64311	10253.9125
2632.30041	10273.5125
2634.95605	10242.2125
2637.61004	10233.3125
2640.26238	10243.8125
2642.91306	10240.0125
2645.56209	10199.1125
2648.20948	10214.4125
2650.85521	10217.4125
2653.4993	10223.6125
2656.14175	10246.3125
2658.78255	10248.9125
2661.42171	10237.0125
2664.05923	10237.7125
2666.6951	10214.6125
2669.32934	10256.1125
2671.96194	10250.8125
2674.59291	10272.4125
2677.22224	10245.4125
2679.84993	10253.0125
2682.476	10242.4125
2685.10043	10233.2125
2687.72324	10238.3125
2690.34441	10219.2125
2692.96396	10200.7125
2695.58188	10239.6125
2698.19818	10202.4125
2700.81285	10216.7125
2703.4259	10201.2125
2706.03733	10227.5125
2708.64714	10215.9125
2711.25533	10228.6125
2713.86191	10218.4125
2716.46687	10235.1125
2719.07021	10227.2125
2721.67194	10224.5125
2724.27206	10207.0125
2726.87057	10207.5125
2729.46747	10227.5125
2732.06276	10218.8125
2734.65644	10224.4125
2737.24852	10219.7125
2739.83899	10218.5125
2742.42786	10235.4125
2745.01513	10199.6125
2747.60079	10189.5125
2750.18486	10195.7125
2752.76733	10195.8125
2755.3482	10213.2125
2757.92747	10204.6125
2760.50515	10173.6125
2763.08123	10161.9125
2765.65573	10170.8125
2768.22863	10151.2125
2770.79994	10131.1125
2773.36967	10152.3125
2775.9378	10140.4125
2778.50435	10148.2125
2781.06932	10139.7125
2783.6327	10123.4125
2786.1945	10107.9125
2788.75471	10113.5125
2791.31335	10075.8125
2793.87041	10065.8125
2796.42589	10049.6125
2798.97979	10049.2125
2801.53212	10025.4125
2804.08288	10010.2125
2806.63206	10021.4125
2809.17967	10008.9125
2811.72571	9954.8125
2814.27018	9980.0125
2816.81308	9947.3125
2819.35442	9933.2125
2821.89419	9918.0125
2824.43239	9916.6125
2826.96904	9892.2125
2829.50412	9895.5125
2832.03763	9883.2125
2834.56959	9866.3125
2837.1	9847.2125
2839.62884	9883.2125
2842.15613	9893.2125
2844.68186	9897.9125
2847.20604	9921.7125
2849.72867	9952.0125
2852.24974	9935.7125
2854.76927	9927.6125
2857.28724	9907.7125
2859.80367	9900.9125
2862.31855	9863.5125
2864.83189	9856.3125
2867.34368	9827.8125
2869.85393	9844.3125
2872.36264	9831.3125
2874.8698	9829.6125
2877.37543	9828.4125
2879.87952	9815.7125
2882.38207	9867.6125
2884.88308	9819.9125
2887.38256	9854.7125
2889.88051	9867.6125
2892.37692	9851.8125
2894.8718	9849.5125
2897.36515	9864.7125
2899.85698	9877.1125
2902.34727	9892.6125
2904.83604	9906.3125
2907.32328	9899.6125
2909.809	9896.3125
2912.29319	9877.6125
2914.77587	9874.9125
2917.25702	9869.3125
2919.73665	9878.3125
2922.21476	9864.3125
2924.69136	9877.1125
2927.16644	9849.6125
2929.64	9846.8125
2932.11205	9828.4125
2934.58258	9823.0125
2937.05161	9853.3125
2939.51912	9828.6125
2941.98513	9811.5125
2944.44962	9755.7125
2946.91261	9680.0125
2949.37409	9694.6125
2951.83407	9691.2125
2954.29254	9665.6125
2956.74951	9624.3125
2959.20498	9589.9125
2961.65895	9581.5125
2964.11142	9561.8125
2966.56239	9520.9125
2969.01186	9545.1125
2971.45984	9474.1125
2973.90632	9435.2125
2976.35131	9418.5125
2978.7948	9394.6125
2981.23681	9364.3125
2983.67732	9330.3125
2986.11635	9290.7125
2988.55388	9263.2125
2990.98993	9204.3125
2993.4245	9206.0125
2995.85758	9172.0125
2998.28917	9161.2125
3000.71928	9155.0125
3003.14791	9144.1125
3005.57506	9120.4125
3008.00073	9071.4125
3010.42493	9071.5125
3012.84764	9051.3125
3015.26888	9022.5125
3017.68865	9007.8125
3020.10694	8969.4125
3022.52376	8936.6125
3024.9391	8950.2125
3027.35298	8936.1125
3029.76539	8913.2125
3032.17632	8905.8125
3034.5858	8878.7125
