Data from AgNPs_FTO_APTES_UA_2uM_CRN_100uM_R6G_10uM_NaF_0.1M_Addition_RamanShift__29__16-11-55-339.txt Node

Date: Wed Feb 02 16:11:55 GMT 2022
User: TCL
Spectrometer: QEP01345
Trigger mode: 4
Integration Time (sec): 7.000000E0
Scans to average: 10
Electric dark correction enabled: true
Nonlinearity correction enabled: false
Boxcar width: 0
XAxis mode: Raman Shifts
Number of Pixels in Spectrum: 1044
>>>>>Begin Spectral Data<<<<<
46.04893	0.9875
50.45542	-0.2125
54.85868	-0.3125
59.25871	-0.1125
63.6555	51.3875
68.04907	59.1875
72.43941	60.8875
76.82654	68.0875
81.21044	70.4875
85.59113	72.7875
89.96862	74.0875
94.34289	77.8875
98.71396	80.1875
103.08183	87.0875
107.4465	87.2875
111.80798	86.4875
116.16626	85.5875
120.52136	88.6875
124.87327	89.0875
129.222	91.6875
133.56755	95.3875
137.90993	99.7875
142.24913	107.3875
146.58517	118.0875
150.91804	129.1875
155.24774	148.0875
159.57429	179.2875
163.89768	220.5875
168.21792	282.4875
172.53501	380.4875
176.84895	518.5875
181.15975	717.7875
185.46741	997.6875
189.77193	1362.2875
194.07331	1823.5875
198.37157	2348.4875
202.6667	2900.1875
206.9587	3433.2875
211.24758	3971.6875
215.53334	4522.5875
219.81599	5133.9875
224.09553	5794.1875
228.37195	6524.7875
232.64527	7325.7875
236.91549	8153.7875
241.18261	8957.0875
245.44663	9663.0875
249.70755	10282.0875
253.96539	10794.3875
258.22014	11261.7875
262.4718	11676.0875
266.72039	11980.4875
270.96589	12196.1875
275.20832	12298.1875
279.44768	12337.7875
283.68397	12389.6875
287.91719	12407.7875
292.14735	12522.9875
296.37445	12644.9875
300.59849	12816.7875
304.81948	12936.9875
309.03742	12982.5875
313.25231	12763.7875
317.46415	12241.3875
321.67296	11516.6875
325.87872	10931.4875
330.08145	10621.9875
334.28114	10594.0875
338.47781	10744.8875
342.67145	10933.0875
346.86207	11290.9875
351.04966	11740.7875
355.23424	12215.8875
359.4158	12590.1875
363.59435	12695.6875
367.76989	12724.8875
371.94243	12675.6875
376.11196	12624.3875
380.27849	12549.8875
384.44203	12504.1875
388.60257	12423.1875
392.76012	12449.8875
396.91468	12632.5875
401.06626	13003.0875
405.21485	13244.6875
409.36047	13141.5875
413.50311	12737.9875
417.64277	12316.1875
421.77947	12089.0875
425.9132	12049.7875
430.04396	12088.6875
434.17176	12182.1875
438.2966	12257.1875
442.41849	12449.4875
446.53742	12714.6875
450.6534	13030.3875
454.76644	13257.9875
458.87653	13329.3875
462.98368	13337.1875
467.08789	13252.2875
471.18916	13110.9875
475.2875	12939.0875
479.38291	12791.5875
483.4754	12635.6875
487.56496	12468.7875
491.6516	12319.3875
495.73531	12175.9875
499.81612	12215.4875
503.89401	12284.9875
507.96899	12322.5875
512.04106	12357.0875
516.11023	12325.7875
520.1765	12324.5875
524.23987	12211.8875
528.30034	12037.9875
532.35792	11859.1875
536.41261	11669.3875
540.46441	11538.0875
544.51333	11523.0875
548.55936	11687.2875
552.60252	12015.4875
556.64279	12359.6875
560.6802	12543.3875
564.71473	12722.2875
568.7464	13098.0875
572.7752	13438.0875
576.80114	13312.5875
580.82422	13157.9875
584.84444	13062.2875
588.86181	12991.0875
592.87633	12942.6875
596.888	12997.0875
600.89682	13302.9875
604.9028	14268.1875
608.90594	16703.9875
612.90624	19716.7875
616.90371	18920.0875
620.89834	14451.0875
624.89015	12342.3875
628.87913	11936.9875
632.86528	12054.9875
636.84862	12137.4875
640.82913	11937.0875
644.80683	11526.8875
648.78172	11255.8875
652.75379	11234.2875
656.72306	11538.9875
660.68952	11949.6875
664.65319	11948.9875
668.61405	11626.8875
672.57211	11427.0875
676.52738	11405.9875
680.47986	11403.1875
684.42955	11344.6875
688.37646	11306.3875
692.32058	11392.3875
696.26192	11501.6875
700.20048	11669.3875
704.13626	11798.5875
708.06928	11821.8875
711.99952	11742.1875
715.927	11646.0875
719.85171	11585.0875
723.77365	11546.1875
727.69284	11389.4875
731.60928	11269.6875
735.52295	11204.7875
739.43388	11158.8875
743.34206	11232.5875
747.24749	11300.8875
751.15017	11463.9875
755.05012	11705.0875
758.94733	12226.3875
762.8418	13265.7875
766.73354	14995.1875
770.62254	16688.5875
774.50882	17205.2875
778.39237	16306.1875
782.27321	14483.6875
786.15132	12818.8875
790.02671	11835.1875
793.89938	11389.2875
797.76935	11187.6875
801.6366	11075.3875
805.50115	11044.3875
809.36299	11004.4875
813.22213	10968.7875
817.07857	10941.8875
820.93231	10942.1875
824.78336	10989.3875
828.63172	10997.3875
832.47738	11023.1875
836.32036	11010.6875
840.16066	10929.8875
843.99827	10897.6875
847.8332	10832.4875
851.66546	10785.2875
855.49504	10804.8875
859.32195	10765.4875
863.1462	10693.5875
866.96777	10665.3875
870.78668	10628.3875
874.60293	10672.2875
878.41652	10657.4875
882.22745	10699.5875
886.03573	10721.3875
889.84136	10718.7875
893.64433	10683.5875
897.44466	10641.5875
901.24235	10662.5875
905.0374	10633.7875
908.8298	10617.7875
912.61957	10659.5875
916.40671	10781.0875
920.19121	10899.4875
923.97308	10984.2875
927.75233	10983.1875
931.52895	10937.5875
935.30295	10802.9875
939.07433	10513.6875
942.84309	10282.6875
946.60924	10155.4875
950.37278	10085.1875
954.13371	10034.9875
957.89203	10012.4875
961.64774	10014.7875
965.40086	9965.5875
969.15137	9948.2875
972.89929	9901.1875
976.64461	9860.0875
980.38733	9860.0875
984.12747	9863.5875
987.86502	9916.4875
991.59999	9953.5875
995.33237	10063.3875
999.06217	10221.8875
1002.78939	10472.0875
1006.51404	10698.6875
1010.23611	10910.9875
1013.95561	11019.9875
1017.67255	10974.6875
1021.38692	10842.0875
1025.09872	10693.7875
1028.80796	10603.9875
1032.51465	10614.8875
1036.21877	10738.8875
1039.92035	10854.4875
1043.61937	10942.4875
1047.31584	10929.3875
1051.00976	10925.5875
1054.70114	10971.5875
1058.38998	11036.3875
1062.07627	11197.6875
1065.76003	11324.7875
1069.44126	11481.0875
1073.11995	11572.9875
1076.79611	11617.5875
1080.46974	11670.7875
1084.14085	11788.4875
1087.80943	11985.2875
1091.47549	12119.3875
1095.13903	12028.5875
1098.80005	11745.8875
1102.45857	11371.7875
1106.11456	11123.2875
1109.76805	11034.2875
1113.41903	11127.7875
1117.06751	11360.7875
1120.71348	11646.6875
1124.35696	11973.3875
1127.99793	12319.9875
1131.63641	12317.1875
1135.2724	11965.3875
1138.90589	11631.9875
1142.5369	11443.3875
1146.16542	11346.5875
1149.79145	11343.1875
1153.415	11414.3875
1157.03607	11586.1875
1160.65467	11786.7875
1164.27079	12209.2875
1167.88443	12765.3875
1171.49561	13611.1875
1175.10432	14952.2875
1178.71056	16644.7875
1182.31434	17899.2875
1185.91565	18199.5875
1189.51451	17938.3875
1193.11091	17346.8875
1196.70485	16555.3875
1200.29634	15788.3875
1203.88538	15080.4875
1207.47197	14340.1875
1211.05612	13700.5875
1214.63782	13293.5875
1218.21708	13148.8875
1221.79391	13125.4875
1225.36829	13149.4875
1228.94024	13188.8875
1232.50976	13248.3875
1236.07685	13273.6875
1239.6415	13277.8875
1243.20374	13249.2875
1246.76355	13315.8875
1250.32093	13458.8875
1253.8759	13726.1875
1257.42845	14112.1875
1260.97859	14484.3875
1264.52631	14782.5875
1268.07163	15086.1875
1271.61453	15431.2875
1275.15503	15699.8875
1278.69312	15915.2875
1282.22882	16089.1875
1285.76211	16408.4875
1289.29301	16932.0875
1292.82151	17474.2875
1296.34761	18106.0875
1299.87133	18909.1875
1303.39266	20063.3875
1306.9116	21662.9875
1310.42815	23407.9875
1313.94233	24654.6875
1317.45412	24728.1875
1320.96354	24098.4875
1324.47058	23238.6875
1327.97525	22461.2875
1331.47754	21924.5875
1334.97747	21700.3875
1338.47502	21671.6875
1341.97022	21892.9875
1345.46305	21953.4875
1348.95352	22107.1875
1352.44163	22377.1875
1355.92738	23231.5875
1359.41078	25064.1875
1362.89183	26898.7875
1366.37053	26441.1875
1369.84688	23660.9875
1373.32088	20739.7875
1376.79254	18791.6875
1380.26186	17882.5875
1383.72883	17419.8875
1387.19347	17156.7875
1390.65578	16935.2875
1394.11575	16760.7875
1397.57339	16718.5875
1401.0287	16945.4875
1404.48168	17231.1875
1407.93234	17397.6875
1411.38068	17347.9875
1414.82669	16971.6875
1418.27039	16370.3875
1421.71177	15712.6875
1425.15083	15110.3875
1428.58758	14780.5875
1432.02203	14637.1875
1435.45416	14713.6875
1438.88399	14830.5875
1442.31151	14901.4875
1445.73673	15075.8875
1449.15965	15270.7875
1452.58027	15394.9875
1455.9986	15465.3875
1459.41463	15612.0875
1462.82837	15852.6875
1466.23982	16127.1875
1469.64898	16378.2875
1473.05586	16539.2875
1476.46045	16606.6875
1479.86276	16737.8875
1483.26279	16869.4875
1486.66054	17075.7875
1490.05602	17415.5875
1493.44922	17875.6875
1496.84016	18616.5875
1500.22882	19746.0875
1503.61521	21244.6875
1506.99934	22907.6875
1510.38121	24480.1875
1513.76081	25329.3875
1517.13816	24761.1875
1520.51324	22867.5875
1523.88607	20876.6875
1527.25665	19484.7875
1530.62498	18635.4875
1533.99105	18145.7875
1537.35488	17743.4875
1540.71647	17489.8875
1544.07581	17262.7875
1547.4329	16953.6875
1550.78776	16734.1875
1554.14038	16534.8875
1557.49077	16558.7875
1560.83892	16775.6875
1564.18484	17164.3875
1567.52853	17441.7875
1570.86999	17636.7875
1574.20922	17758.5875
1577.54624	17633.4875
1580.88103	17192.9875
1584.2136	16584.2875
1587.54395	16421.5875
1590.87208	16806.3875
1594.19801	17603.5875
1597.52172	18532.1875
1600.84321	18852.6875
1604.16251	18167.9875
1607.47959	16963.1875
1610.79447	15713.0875
1614.10715	14526.8875
1617.41763	13608.0875
1620.7259	12978.5875
1624.03199	12629.2875
1627.33587	12551.9875
1630.63757	12759.5875
1633.93707	13326.6875
1637.23439	14174.3875
1640.52951	15400.3875
1643.82246	16938.1875
1647.11321	18525.4875
1650.40179	19554.6875
1653.68819	19109.3875
1656.97241	17149.1875
1660.25446	14755.9875
1663.53433	12906.2875
1666.81203	11709.7875
1670.08756	10922.7875
1673.36092	10489.8875
1676.63211	10158.7875
1679.90115	9958.7875
1683.16801	9791.8875
1686.43272	9672.9875
1689.69527	9563.7875
1692.95567	9486.4875
1696.2139	9468.1875
1699.46999	9439.3875
1702.72392	9401.1875
1705.97571	9357.8875
1709.22535	9321.7875
1712.47284	9288.4875
1715.71819	9282.5875
1718.96139	9259.3875
1722.20246	9238.4875
1725.44139	9221.7875
1728.67818	9178.3875
1731.91284	9107.4875
1735.14537	9059.9875
1738.37576	9010.5875
1741.60403	8976.5875
1744.83017	8949.2875
1748.05418	8948.3875
1751.27607	8914.9875
1754.49584	8897.8875
1757.71349	8914.4875
1760.92903	8889.3875
1764.14244	8884.2875
1767.35375	8846.5875
1770.56294	8816.2875
1773.77002	8788.6875
1776.97499	8759.8875
1780.17785	8713.6875
1783.37861	8697.1875
1786.57727	8688.4875
1789.77382	8649.3875
1792.96828	8639.8875
1796.16064	8627.5875
1799.3509	8615.5875
1802.53907	8612.8875
1805.72514	8571.1875
1808.90913	8531.6875
1812.09102	8538.4875
1815.27083	8492.2875
1818.44856	8511.1875
1821.6242	8469.2875
1824.79776	8485.9875
1827.96924	8458.9875
1831.13864	8432.0875
1834.30597	8447.9875
1837.47122	8432.4875
1840.6344	8423.6875
1843.7955	8443.6875
1846.95454	8404.5875
1850.11151	8430.6875
1853.26642	8432.0875
1856.41926	8433.5875
1859.57004	8420.9875
1862.71876	8413.4875
1865.86542	8413.1875
1869.01003	8414.9875
1872.15258	8419.6875
1875.29308	8416.9875
1878.43152	8408.9875
1881.56792	8419.2875
1884.70227	8412.3875
1887.83457	8413.6875
1890.96482	8392.5875
1894.09304	8405.3875
1897.21921	8423.1875
1900.34335	8403.7875
1903.46544	8398.4875
1906.58551	8414.9875
1909.70353	8417.5875
1912.81953	8412.5875
1915.93349	8413.5875
1919.04543	8403.7875
1922.15534	8397.7875
1925.26322	8354.1875
1928.36908	8333.7875
1931.47292	8293.9875
1934.57473	8252.5875
1937.67453	8236.1875
1940.77232	8185.9875
1943.86808	8158.6875
1946.96184	8116.9875
1950.05358	8094.1875
1953.14331	8055.1875
1956.23103	8008.4875
1959.31675	7999.1875
1962.40046	7943.2875
1965.48217	7902.1875
1968.56188	7900.4875
1971.63959	7887.9875
1974.7153	7867.7875
1977.78901	7828.2875
1980.86073	7792.3875
1983.93046	7762.9875
1986.99819	7740.6875
1990.06394	7727.4875
1993.1277	7701.0875
1996.18947	7666.3875
1999.24925	7628.6875
2002.30706	7630.0875
2005.36288	7584.9875
2008.41672	7582.5875
2011.46859	7579.8875
2014.51848	7513.8875
2017.56639	7501.4875
2020.61233	7471.0875
2023.6563	7466.9875
2026.6983	7455.1875
2029.73833	7423.9875
2032.7764	7411.8875
2035.8125	7393.1875
2038.84664	7374.0875
2041.87881	7361.9875
2044.90903	7357.1875
2047.93729	7325.5875
2050.96359	7339.7875
2053.98794	7293.2875
2057.01034	7304.0875
2060.03078	7303.4875
2063.04927	7305.4875
2066.06582	7262.0875
2069.08042	7282.1875
2072.09307	7259.8875
2075.10378	7270.5875
2078.11255	7245.3875
2081.11938	7245.6875
2084.12426	7229.5875
2087.12722	7235.1875
2090.12824	7251.0875
2093.12732	7250.4875
2096.12447	7245.2875
2099.11969	7240.2875
2102.11299	7235.8875
2105.10435	7234.3875
2108.09379	7240.3875
2111.08131	7225.0875
2114.0669	7248.3875
2117.05057	7228.9875
2120.03233	7240.8875
2123.01216	7259.5875
2125.99008	7241.8875
2128.96609	7241.1875
2131.94018	7256.9875
2134.91236	7266.1875
2137.88263	7249.6875
2140.851	7252.0875
2143.81746	7247.4875
2146.78201	7265.7875
2149.74466	7279.0875
2152.7054	7259.4875
2155.66425	7255.9875
2158.6212	7247.4875
2161.57625	7237.4875
2164.52941	7237.3875
2167.48067	7236.2875
2170.43004	7229.4875
2173.37752	7213.1875
2176.32311	7213.1875
2179.26681	7213.8875
2182.20863	7215.8875
2185.14856	7230.3875
2188.08661	7204.0875
2191.02278	7214.4875
2193.95707	7196.6875
2196.88948	7190.4875
2199.82001	7182.8875
2202.74867	7161.3875
2205.67545	7149.6875
2208.60037	7150.2875
2211.52341	7142.4875
2214.44458	7117.7875
2217.36388	7120.5875
2220.28132	7098.9875
2223.1969	7071.1875
2226.11061	7062.1875
2229.02246	7035.4875
2231.93245	7048.2875
2234.84058	7029.2875
2237.74686	6995.5875
2240.65128	7010.1875
2243.55385	6976.1875
2246.45456	6979.7875
2249.35343	6969.1875
2252.25044	6958.0875
2255.14561	6967.8875
2258.03893	6962.6875
2260.93041	6964.3875
2263.82004	6928.9875
2266.70783	6902.4875
2269.59378	6877.3875
2272.4779	6893.6875
2275.36017	6847.1875
2278.24061	6849.4875
2281.11922	6813.1875
2283.996	6797.3875
2286.87094	6803.6875
2289.74405	6768.4875
2292.61534	6756.9875
2295.4848	6757.1875
2298.35243	6755.8875
2301.21824	6745.1875
2304.08223	6743.5875
2306.94439	6729.5875
2309.80474	6731.9875
2312.66327	6715.5875
2315.51999	6722.0875
2318.37489	6707.8875
2321.22797	6710.9875
2324.07925	6694.9875
2326.92871	6690.3875
2329.77637	6683.5875
2332.62222	6679.6875
2335.46626	6659.7875
2338.3085	6651.9875
2341.14893	6630.1875
2343.98756	6649.6875
2346.8244	6643.7875
2349.65943	6654.0875
2352.49267	6641.7875
2355.32411	6628.1875
2358.15376	6645.7875
2360.98161	6638.9875
2363.80768	6639.8875
2366.63195	6630.9875
2369.45444	6639.7875
2372.27514	6619.8875
2375.09405	6642.9875
2377.91118	6613.1875
2380.72652	6596.2875
2383.54009	6580.5875
2386.35187	6574.0875
2389.16188	6535.4875
2391.97011	6516.9875
2394.77657	6491.7875
2397.58125	6484.5875
2400.38416	6458.8875
2403.18529	6461.0875
2405.98466	6437.7875
2408.78226	6426.7875
2411.57809	6408.9875
2414.37216	6422.6875
2417.16446	6426.6875
2419.955	6403.9875
2422.74378	6414.5875
2425.5308	6373.1875
2428.31606	6362.8875
2431.09956	6371.3875
2433.88131	6348.1875
2436.6613	6358.2875
2439.43954	6365.0875
2442.21603	6363.1875
2444.99077	6349.3875
2447.76377	6344.4875
2450.53501	6334.5875
2453.30451	6338.3875
2456.07226	6351.2875
2458.83827	6338.7875
2461.60254	6350.2875
2464.36507	6326.2875
2467.12586	6326.7875
2469.88492	6322.0875
2472.64224	6320.7875
2475.39782	6332.5875
2478.15167	6327.7875
2480.90379	6328.0875
2483.65417	6327.4875
2486.40283	6329.4875
2489.14976	6343.9875
2491.89497	6330.7875
2494.63845	6345.2875
2497.3802	6338.4875
2500.12024	6306.6875
2502.85855	6320.8875
2505.59514	6317.5875
2508.33002	6295.1875
2511.06318	6287.0875
2513.79462	6272.4875
2516.52435	6261.0875
2519.25237	6229.1875
2521.97867	6233.7875
2524.70327	6212.7875
2527.42616	6219.0875
2530.14734	6191.4875
2532.86681	6202.5875
2535.58458	6200.4875
2538.30065	6177.7875
2541.01501	6180.5875
2543.72768	6162.0875
2546.43864	6152.8875
2549.14791	6136.7875
2551.85548	6129.8875
2554.56136	6135.8875
2557.26554	6121.8875
2559.96803	6099.3875
2562.66883	6101.4875
2565.36794	6108.2875
2568.06536	6093.0875
2570.7611	6073.2875
2573.45514	6080.1875
2576.14751	6073.0875
2578.83819	6058.6875
2581.52719	6039.3875
2584.21451	6060.2875
2586.90015	6036.5875
2589.58411	6041.8875
2592.2664	6046.0875
2594.94701	6019.4875
2597.62594	6018.8875
2600.30321	6006.2875
2602.9788	6000.5875
2605.65273	5992.0875
2608.32498	6001.4875
2610.99557	5978.2875
2613.66449	5989.4875
2616.33175	5994.9875
2618.99734	5982.2875
2621.66128	5984.2875
2624.32355	5971.5875
2626.98416	5957.2875
2629.64311	5971.5875
2632.30041	5967.5875
2634.95605	5954.1875
2637.61004	5960.1875
2640.26238	5925.2875
2642.91306	5917.3875
2645.56209	5922.1875
2648.20948	5921.4875
2650.85521	5902.4875
2653.4993	5918.3875
2656.14175	5923.8875
2658.78255	5929.8875
2661.42171	5915.1875
2664.05923	5929.8875
2666.6951	5938.8875
2669.32934	5937.3875
2671.96194	5932.5875
2674.59291	5943.5875
2677.22224	5929.5875
2679.84993	5922.7875
2682.476	5943.5875
2685.10043	5920.2875
2687.72324	5920.7875
2690.34441	5932.7875
2692.96396	5927.1875
2695.58188	5910.8875
2698.19818	5905.9875
2700.81285	5930.6875
2703.4259	5939.8875
2706.03733	5993.3875
2708.64714	5971.5875
2711.25533	5941.4875
2713.86191	5944.9875
2716.46687	5939.2875
2719.07021	5947.8875
2721.67194	5958.1875
2724.27206	5969.5875
2726.87057	5961.3875
2729.46747	5959.2875
2732.06276	5950.8875
2734.65644	5941.7875
2737.24852	5953.7875
2739.83899	5938.1875
2742.42786	5918.3875
2745.01513	5911.6875
2747.60079	5900.9875
2750.18486	5883.8875
2752.76733	5894.8875
2755.3482	5888.6875
2757.92747	5872.6875
2760.50515	5873.0875
2763.08123	5880.4875
2765.65573	5881.4875
2768.22863	5854.4875
2770.79994	5853.9875
2773.36967	5852.2875
2775.9378	5852.6875
2778.50435	5840.1875
2781.06932	5830.6875
2783.6327	5842.9875
2786.1945	5826.9875
2788.75471	5827.1875
2791.31335	5817.5875
2793.87041	5809.6875
2796.42589	5811.3875
2798.97979	5824.0875
2801.53212	5794.0875
2804.08288	5804.5875
2806.63206	5782.5875
2809.17967	5803.6875
2811.72571	5764.2875
2814.27018	5772.2875
2816.81308	5777.1875
2819.35442	5777.0875
2821.89419	5770.5875
2824.43239	5779.0875
2826.96904	5782.8875
2829.50412	5780.4875
2832.03763	5763.9875
2834.56959	5773.2875
2837.1	5791.8875
2839.62884	5818.1875
2842.15613	5853.0875
2844.68186	5930.4875
2847.20604	5989.5875
2849.72867	6055.1875
2852.24974	6072.6875
2854.76927	6069.5875
2857.28724	6072.7875
2859.80367	6028.1875
2862.31855	5995.6875
2864.83189	5987.6875
2867.34368	5974.0875
2869.85393	5972.2875
2872.36264	5955.5875
2874.8698	5952.6875
2877.37543	5952.7875
2879.87952	5958.5875
2882.38207	5949.3875
2884.88308	5944.7875
2887.38256	5942.3875
2889.88051	5938.1875
2892.37692	5940.6875
2894.8718	5952.3875
2897.36515	5944.9875
2899.85698	5951.3875
2902.34727	5982.8875
2904.83604	5966.7875
2907.32328	5986.5875
2909.809	5972.9875
2912.29319	5962.2875
2914.77587	5972.7875
2917.25702	5939.8875
2919.73665	5930.2875
2922.21476	5933.7875
2924.69136	5930.0875
2927.16644	5942.9875
2929.64	5926.0875
2932.11205	5905.7875
2934.58258	5888.6875
2937.05161	5870.8875
2939.51912	5873.8875
2941.98513	5847.6875
2944.44962	5784.5875
2946.91261	5719.1875
2949.37409	5707.9875
2951.83407	5681.1875
2954.29254	5670.2875
2956.74951	5622.5875
2959.20498	5627.4875
2961.65895	5601.6875
2964.11142	5580.2875
2966.56239	5545.3875
2969.01186	5550.6875
2971.45984	5513.2875
2973.90632	5514.8875
2976.35131	5481.3875
2978.7948	5470.9875
2981.23681	5469.0875
2983.67732	5439.6875
2986.11635	5421.3875
2988.55388	5413.5875
2990.98993	5392.5875
2993.4245	5377.9875
2995.85758	5359.7875
2998.28917	5360.6875
3000.71928	5343.1875
3003.14791	5343.4875
3005.57506	5328.1875
3008.00073	5311.6875
3010.42493	5299.9875
3012.84764	5299.7875
3015.26888	5291.8875
3017.68865	5272.3875
3020.10694	5284.4875
3022.52376	5275.8875
3024.9391	5255.6875
3027.35298	5248.6875
3029.76539	5256.2875
3032.17632	5220.4875
3034.5858	5234.6875
3036.9938	5221.7875
3039.40034	5221.6875
3041.80542	5200.9875
3044.20903	5201.3875
3046.61118	5200.1875
3049.01187	5175.7875
3051.4111	5174.8875
3053.80888	5162.2875
3056.20519	5148.7875
3058.60005	5144.2875
3060.99345	5135.2875
3063.3854	5136.0875
3065.7759	5115.9875
3068.16494	5099.7875
3070.55254	5069.1875
3072.93868	5075.7875
3075.32338	5056.4875
3077.70662	5049.6875
3080.08842	5029.2875
3082.46878	5013.8875
