Data from AgNPs_FTO_APTES_UA_2uM_CRN_5uM_R6G_10uM_NaF_0.1M_Addition_RamanShift__13__12-53-35-107.txt Node

Date: Wed Feb 02 12:53:35 GMT 2022
User: TCL
Spectrometer: QEP01345
Trigger mode: 4
Integration Time (sec): 7.000000E0
Scans to average: 10
Electric dark correction enabled: true
Nonlinearity correction enabled: false
Boxcar width: 0
XAxis mode: Raman Shifts
Number of Pixels in Spectrum: 1044
>>>>>Begin Spectral Data<<<<<
46.04893	1.325
50.45542	0.025
54.85868	-2.275
59.25871	-0.575
63.6555	88.725
68.04907	96.425
72.43941	104.025
76.82654	107.225
81.21044	105.925
85.59113	111.225
89.96862	113.725
94.34289	119.525
98.71396	122.025
103.08183	127.625
107.4465	131.325
111.80798	136.325
116.16626	140.225
120.52136	149.825
124.87327	155.125
129.222	165.025
133.56755	182.025
137.90993	197.325
142.24913	221.425
146.58517	251.725
150.91804	301.025
155.24774	373.025
159.57429	465.525
163.89768	600.525
168.21792	810.225
172.53501	1112.325
176.84895	1563.925
181.15975	2202.025
185.46741	3102.725
189.77193	4297.025
194.07331	5745.625
198.37157	7420.725
202.6667	9165.125
206.9587	10918.625
211.24758	12616.525
215.53334	14297.925
219.81599	16086.025
224.09553	18024.025
228.37195	20200.125
232.64527	22549.825
236.91549	25103.825
241.18261	27613.725
245.44663	30030.825
249.70755	32274.225
253.96539	34211.225
258.22014	35863.725
262.4718	37149.825
266.72039	38052.725
270.96589	38482.225
275.20832	38537.325
279.44768	38373.525
283.68397	38051.725
287.91719	37784.725
292.14735	37616.925
296.37445	37521.125
300.59849	37456.925
304.81948	37472.025
309.03742	37430.625
313.25231	37130.225
317.46415	36551.025
321.67296	35862.525
325.87872	35154.625
330.08145	34839.725
334.28114	34769.725
338.47781	34952.925
342.67145	35252.025
346.86207	35640.625
351.04966	36131.425
355.23424	36606.025
359.4158	36971.525
363.59435	37368.425
367.76989	37646.725
371.94243	37884.525
376.11196	37905.725
380.27849	37946.025
384.44203	38048.325
388.60257	38321.925
392.76012	38775.725
396.91468	39371.525
401.06626	40016.425
405.21485	40437.925
409.36047	40280.025
413.50311	39851.725
417.64277	39597.825
421.77947	39662.725
425.9132	39913.725
430.04396	40202.425
434.17176	40370.025
438.2966	40476.725
442.41849	40860.225
446.53742	41434.725
450.6534	42216.725
454.76644	42729.225
458.87653	43026.925
462.98368	43037.125
467.08789	42933.725
471.18916	42655.725
475.2875	42309.825
479.38291	42229.625
483.4754	42075.425
487.56496	41861.325
491.6516	41450.825
495.73531	40945.025
499.81612	40540.625
503.89401	40633.825
507.96899	40863.925
512.04106	40913.525
516.11023	40748.525
520.1765	40385.825
524.23987	39898.525
528.30034	39501.925
532.35792	39100.325
536.41261	38773.625
540.46441	38523.325
544.51333	38606.325
548.55936	39075.525
552.60252	39767.425
556.64279	40507.725
560.6802	41090.025
564.71473	41593.925
568.7464	42391.425
572.7752	43738.025
576.80114	45358.325
580.82422	46932.625
584.84444	48044.525
588.86181	49157.025
592.87633	50111.525
596.888	49824.225
600.89682	48152.625
604.9028	47413.825
608.90594	48980.325
612.90624	50497.025
616.90371	47660.725
620.89834	42224.725
624.89015	39976.025
628.87913	39896.825
632.86528	40347.125
636.84862	40356.125
640.82913	39700.825
644.80683	38847.925
648.78172	38200.625
652.75379	38076.525
656.72306	38323.125
660.68952	38826.325
664.65319	38660.625
668.61405	38303.325
672.57211	38183.125
676.52738	38326.825
680.47986	38210.825
684.42955	38045.225
688.37646	37972.725
692.32058	38088.425
696.26192	38495.125
700.20048	38858.925
704.13626	39216.925
708.06928	39415.625
711.99952	39350.825
715.927	39211.925
719.85171	39032.925
723.77365	38750.425
727.69284	38224.325
731.60928	37826.525
735.52295	37540.025
739.43388	37504.525
743.34206	37559.625
747.24749	37781.725
751.15017	38146.225
755.05012	38819.225
758.94733	39814.925
762.8418	41357.425
766.73354	43642.725
770.62254	45560.925
774.50882	45571.825
778.39237	43823.025
782.27321	41602.925
786.15132	39816.825
790.02671	38599.025
793.89938	37907.625
797.76935	37497.325
801.6366	37347.125
805.50115	37199.825
809.36299	37092.225
813.22213	36866.625
817.07857	36780.725
820.93231	36799.925
824.78336	36666.425
828.63172	36410.325
832.47738	36368.825
836.32036	36331.725
840.16066	36263.525
843.99827	36255.225
847.8332	36233.225
851.66546	36300.725
855.49504	36310.325
859.32195	36324.425
863.1462	36269.625
866.96777	36182.825
870.78668	36218.925
874.60293	36240.725
878.41652	36257.725
882.22745	36351.525
886.03573	36440.825
889.84136	36468.225
893.64433	36391.725
897.44466	36320.125
901.24235	36272.225
905.0374	36197.725
908.8298	36267.525
912.61957	36399.525
916.40671	36731.025
920.19121	37232.725
923.97308	37527.625
927.75233	37409.125
931.52895	36966.125
935.30295	36449.025
939.07433	35790.525
942.84309	35307.325
946.60924	35038.525
950.37278	34897.225
954.13371	34817.725
957.89203	34832.125
961.64774	34847.425
965.40086	34825.125
969.15137	34757.325
972.89929	34563.725
976.64461	34405.025
980.38733	34319.925
984.12747	34304.125
987.86502	34366.825
991.59999	34509.125
995.33237	34641.825
999.06217	34959.825
1002.78939	35409.825
1006.51404	35967.925
1010.23611	36555.525
1013.95561	36868.525
1017.67255	36921.425
1021.38692	36658.425
1025.09872	36178.525
1028.80796	35731.225
1032.51465	35524.225
1036.21877	35621.825
1039.92035	35753.325
1043.61937	35984.225
1047.31584	36087.425
1051.00976	36238.425
1054.70114	36434.925
1058.38998	36744.525
1062.07627	37146.125
1065.76003	37682.125
1069.44126	38227.025
1073.11995	38737.125
1076.79611	39269.425
1080.46974	39433.725
1084.14085	39571.525
1087.80943	39789.125
1091.47549	40207.025
1095.13903	40426.725
1098.80005	40126.825
1102.45857	39363.625
1106.11456	38486.225
1109.76805	37877.325
1113.41903	37641.225
1117.06751	37604.425
1120.71348	37813.625
1124.35696	38180.925
1127.99793	38572.125
1131.63641	38839.425
1135.2724	38882.125
1138.90589	38844.225
1142.5369	38945.325
1146.16542	39237.525
1149.79145	39593.525
1153.415	39971.525
1157.03607	40644.125
1160.65467	41454.625
1164.27079	42891.125
1167.88443	44775.925
1171.49561	46796.325
1175.10432	49135.725
1178.71056	51904.025
1182.31434	54573.325
1185.91565	56222.725
1189.51451	56876.625
1193.11091	56484.625
1196.70485	55202.225
1200.29634	53355.425
1203.88538	51832.525
1207.47197	51144.625
1211.05612	50814.025
1214.63782	50256.525
1218.21708	49006.925
1221.79391	47386.225
1225.36829	46067.825
1228.94024	45288.125
1232.50976	44833.525
1236.07685	44609.525
1239.6415	44484.625
1243.20374	44515.625
1246.76355	44727.725
1250.32093	45185.925
1253.8759	45888.725
1257.42845	47057.125
1260.97859	48351.625
1264.52631	49670.325
1268.07163	50909.925
1271.61453	52165.225
1275.15503	53388.725
1278.69312	54822.925
1282.22882	56386.725
1285.76211	58237.325
1289.29301	60207.525
1292.82151	62463.225
1296.34761	65040.825
1299.87133	67829.725
1303.39266	70520.525
1306.9116	72701.425
1310.42815	74184.325
1313.94233	74726.625
1317.45412	74603.025
1320.96354	74426.225
1324.47058	74579.325
1327.97525	74934.525
1331.47754	75320.925
1334.97747	75478.025
1338.47502	75548.425
1341.97022	75617.525
1345.46305	75457.825
1348.95352	74863.525
1352.44163	73731.225
1355.92738	72826.325
1359.41078	72712.025
1362.89183	72947.625
1366.37053	71619.925
1369.84688	67871.525
1373.32088	62818.225
1376.79254	58988.025
1380.26186	57470.125
1383.72883	57449.825
1387.19347	57515.425
1390.65578	57007.025
1394.11575	56631.825
1397.57339	56731.025
1401.0287	57082.025
1404.48168	57456.325
1407.93234	56924.125
1411.38068	55617.925
1414.82669	53814.725
1418.27039	51817.925
1421.71177	49913.025
1425.15083	48556.125
1428.58758	47961.425
1432.02203	48179.325
1435.45416	49266.225
1438.88399	50414.325
1442.31151	51370.025
1445.73673	52091.825
1449.15965	52735.725
1452.58027	53198.025
1455.9986	53463.125
1459.41463	53929.325
1462.82837	54723.525
1466.23982	55455.525
1469.64898	55983.325
1473.05586	56182.025
1476.46045	56260.125
1479.86276	55975.325
1483.26279	55560.025
1486.66054	55408.025
1490.05602	55813.025
1493.44922	56688.125
1496.84016	57655.825
1500.22882	59077.125
1503.61521	60637.625
1506.99934	62062.625
1510.38121	63058.725
1513.76081	63289.725
1517.13816	62815.125
1520.51324	62141.325
1523.88607	61777.925
1527.25665	61709.925
1530.62498	61567.525
1533.99105	60857.625
1537.35488	59737.025
1540.71647	58122.325
1544.07581	56236.825
1547.4329	54484.325
1550.78776	53218.825
1554.14038	52368.925
1557.49077	51982.925
1560.83892	51792.825
1564.18484	51855.025
1567.52853	51912.325
1570.86999	52207.325
1574.20922	53135.125
1577.54624	54108.125
1580.88103	54704.525
1584.2136	55139.325
1587.54395	56302.925
1590.87208	58164.225
1594.19801	60272.125
1597.52172	62099.425
1600.84321	61847.925
1604.16251	59218.625
1607.47959	55379.625
1610.79447	51599.525
1614.10715	48082.225
1617.41763	45041.025
1620.7259	42836.225
1624.03199	41592.225
1627.33587	41530.325
1630.63757	42522.625
1633.93707	44938.425
1637.23439	49015.125
1640.52951	54883.525
1643.82246	61792.225
1647.11321	67058.725
1650.40179	68055.425
1653.68819	63933.025
1656.97241	56645.825
1660.25446	49107.025
1663.53433	43161.625
1666.81203	39232.125
1670.08756	36636.125
1673.36092	35004.625
1676.63211	33977.725
1679.90115	33199.525
1683.16801	32658.925
1686.43272	32242.925
1689.69527	31928.325
1692.95567	31652.325
1696.2139	31494.325
1699.46999	31379.925
1702.72392	31239.225
1705.97571	31102.425
1709.22535	30957.425
1712.47284	30891.225
1715.71819	30872.825
1718.96139	30754.425
1722.20246	30652.125
1725.44139	30510.925
1728.67818	30335.525
1731.91284	30168.425
1735.14537	30001.625
1738.37576	29892.225
1741.60403	29767.125
1744.83017	29648.025
1748.05418	29616.825
1751.27607	29529.825
1754.49584	29468.925
1757.71349	29440.325
1760.92903	29398.925
1764.14244	29401.125
1767.35375	29349.625
1770.56294	29240.325
1773.77002	29151.025
1776.97499	29088.525
1780.17785	29015.825
1783.37861	29013.525
1786.57727	28940.325
1789.77382	28844.225
1792.96828	28787.925
1796.16064	28691.825
1799.3509	28579.625
1802.53907	28558.225
1805.72514	28462.625
1808.90913	28399.725
1812.09102	28422.725
1815.27083	28339.525
1818.44856	28269.025
1821.6242	28277.025
1824.79776	28269.425
1827.96924	28286.625
1831.13864	28274.925
1834.30597	28231.425
1837.47122	28243.825
1840.6344	28155.925
1843.7955	28174.325
1846.95454	28169.225
1850.11151	28199.525
1853.26642	28163.625
1856.41926	28157.825
1859.57004	28151.325
1862.71876	28104.225
1865.86542	28035.225
1869.01003	27980.325
1872.15258	27952.525
1875.29308	27901.525
1878.43152	27836.225
1881.56792	27763.225
1884.70227	27692.325
1887.83457	27686.825
1890.96482	27666.125
1894.09304	27574.425
1897.21921	27544.825
1900.34335	27478.625
1903.46544	27414.925
1906.58551	27376.925
1909.70353	27298.725
1912.81953	27236.225
1915.93349	27170.625
1919.04543	27086.525
1922.15534	27009.825
1925.26322	26969.525
1928.36908	26891.625
1931.47292	26829.425
1934.57473	26756.825
1937.67453	26623.025
1940.77232	26517.725
1943.86808	26477.025
1946.96184	26395.825
1950.05358	26316.425
1953.14331	26272.825
1956.23103	26152.625
1959.31675	26110.025
1962.40046	25988.925
1965.48217	25929.125
1968.56188	25798.425
1971.63959	25734.525
1974.7153	25649.225
1977.78901	25580.025
1980.86073	25450.825
1983.93046	25395.125
1986.99819	25295.425
1990.06394	25182.425
1993.1277	25114.525
1996.18947	25038.325
1999.24925	25026.225
2002.30706	24878.625
2005.36288	24844.325
2008.41672	24758.325
2011.46859	24674.625
2014.51848	24590.925
2017.56639	24542.825
2020.61233	24485.025
2023.6563	24365.125
2026.6983	24360.225
2029.73833	24276.625
2032.7764	24215.425
2035.8125	24151.025
2038.84664	24088.025
2041.87881	24056.325
2044.90903	23944.625
2047.93729	23908.325
2050.96359	23864.725
2053.98794	23811.425
2057.01034	23812.925
2060.03078	23796.325
2063.04927	23765.725
2066.06582	23754.925
2069.08042	23699.025
2072.09307	23697.025
2075.10378	23666.625
2078.11255	23697.325
2081.11938	23728.125
2084.12426	23637.625
2087.12722	23645.725
2090.12824	23649.525
2093.12732	23599.525
2096.12447	23637.825
2099.11969	23605.425
2102.11299	23628.125
2105.10435	23614.225
2108.09379	23626.225
2111.08131	23601.925
2114.0669	23609.225
2117.05057	23615.125
2120.03233	23631.425
2123.01216	23630.325
2125.99008	23627.325
2128.96609	23620.825
2131.94018	23610.025
2134.91236	23582.425
2137.88263	23574.425
2140.851	23575.925
2143.81746	23583.225
2146.78201	23623.625
2149.74466	23587.625
2152.7054	23557.225
2155.66425	23551.625
2158.6212	23581.125
2161.57625	23581.825
2164.52941	23581.925
2167.48067	23491.325
2170.43004	23491.625
2173.37752	23511.225
2176.32311	23470.525
2179.26681	23455.725
2182.20863	23457.425
2185.14856	23471.825
2188.08661	23461.925
2191.02278	23477.625
2193.95707	23412.225
2196.88948	23344.225
2199.82001	23340.625
2202.74867	23327.925
2205.67545	23284.125
2208.60037	23235.525
2211.52341	23252.225
2214.44458	23174.925
2217.36388	23163.825
2220.28132	23087.125
2223.1969	23025.025
2226.11061	23013.925
2229.02246	22940.625
2231.93245	22964.125
2234.84058	22931.525
2237.74686	22906.025
2240.65128	22845.825
2243.55385	22770.725
2246.45456	22732.425
2249.35343	22718.225
2252.25044	22631.525
2255.14561	22557.725
2258.03893	22537.025
2260.93041	22446.025
2263.82004	22397.425
2266.70783	22315.225
2269.59378	22233.325
2272.4779	22181.925
2275.36017	22141.025
2278.24061	22107.525
2281.11922	22006.225
2283.996	21988.625
2286.87094	21981.225
2289.74405	21890.325
2292.61534	21862.825
2295.4848	21816.525
2298.35243	21842.025
2301.21824	21784.925
2304.08223	21777.925
2306.94439	21763.225
2309.80474	21735.325
2312.66327	21705.725
2315.51999	21649.725
2318.37489	21665.625
2321.22797	21624.325
2324.07925	21605.825
2326.92871	21560.325
2329.77637	21532.225
2332.62222	21535.825
2335.46626	21452.625
2338.3085	21434.425
2341.14893	21395.225
2343.98756	21362.225
2346.8244	21334.325
2349.65943	21382.125
2352.49267	21307.625
2355.32411	21361.925
2358.15376	21374.425
2360.98161	21348.425
2363.80768	21360.925
2366.63195	21303.825
2369.45444	21259.525
2372.27514	21229.825
2375.09405	21193.425
2377.91118	21146.225
2380.72652	21115.525
2383.54009	20997.225
2386.35187	21021.825
2389.16188	20981.025
2391.97011	20928.125
2394.77657	20899.125
2397.58125	20869.525
2400.38416	20801.525
2403.18529	20746.925
2405.98466	20726.325
2408.78226	20690.225
2411.57809	20691.725
2414.37216	20677.325
2417.16446	20678.525
2419.955	20656.825
2422.74378	20597.725
2425.5308	20594.525
2428.31606	20597.425
2431.09956	20564.825
2433.88131	20546.725
2436.6613	20529.925
2439.43954	20498.325
2442.21603	20464.725
2444.99077	20461.425
2447.76377	20441.125
2450.53501	20405.525
2453.30451	20403.925
2456.07226	20326.425
2458.83827	20354.425
2461.60254	20295.225
2464.36507	20297.725
2467.12586	20260.725
2469.88492	20267.225
2472.64224	20251.725
2475.39782	20266.525
2478.15167	20281.125
2480.90379	20209.725
2483.65417	20196.725
2486.40283	20159.725
2489.14976	20155.225
2491.89497	20169.025
2494.63845	20171.025
2497.3802	20143.925
2500.12024	20110.525
2502.85855	20106.225
2505.59514	20131.025
2508.33002	20103.025
2511.06318	20068.825
2513.79462	20079.625
2516.52435	20032.925
2519.25237	20032.125
2521.97867	19992.725
2524.70327	19956.425
2527.42616	19951.425
2530.14734	19916.925
2532.86681	19868.825
2535.58458	19881.125
2538.30065	19859.125
2541.01501	19825.825
2543.72768	19790.525
2546.43864	19776.025
2549.14791	19730.625
2551.85548	19691.125
2554.56136	19649.225
2557.26554	19668.225
2559.96803	19636.625
2562.66883	19574.025
2565.36794	19540.925
2568.06536	19570.425
2570.7611	19504.525
2573.45514	19467.725
2576.14751	19459.025
2578.83819	19387.425
2581.52719	19344.225
2584.21451	19347.625
2586.90015	19320.125
2589.58411	19321.125
2592.2664	19278.925
2594.94701	19246.325
2597.62594	19214.425
2600.30321	19180.025
2602.9788	19158.025
2605.65273	19109.625
2608.32498	19078.525
2610.99557	19107.625
2613.66449	19080.525
2616.33175	19037.625
2618.99734	19055.125
2621.66128	19049.325
2624.32355	19019.325
2626.98416	19043.525
2629.64311	18967.925
2632.30041	18952.425
2634.95605	18919.625
2637.61004	18924.825
2640.26238	18868.025
2642.91306	18895.725
2645.56209	18879.425
2648.20948	18834.325
2650.85521	18883.425
2653.4993	18855.725
2656.14175	18836.525
2658.78255	18847.125
2661.42171	18844.325
2664.05923	18842.725
2666.6951	18835.525
2669.32934	18806.525
2671.96194	18813.725
2674.59291	18824.325
2677.22224	18831.225
2679.84993	18816.825
2682.476	18794.925
2685.10043	18809.125
2687.72324	18765.525
2690.34441	18808.725
2692.96396	18811.225
2695.58188	18823.325
2698.19818	18811.325
2700.81285	18833.125
2703.4259	18755.625
2706.03733	18818.825
2708.64714	18785.525
2711.25533	18783.425
2713.86191	18806.725
2716.46687	18826.425
2719.07021	18788.425
2721.67194	18788.825
2724.27206	18782.525
2726.87057	18797.925
2729.46747	18745.525
2732.06276	18807.725
2734.65644	18793.625
2737.24852	18778.825
2739.83899	18780.325
2742.42786	18805.525
2745.01513	18718.025
2747.60079	18679.825
2750.18486	18689.325
2752.76733	18695.825
2755.3482	18632.125
2757.92747	18621.525
2760.50515	18605.625
2763.08123	18598.725
2765.65573	18529.925
2768.22863	18546.825
2770.79994	18491.025
2773.36967	18496.425
2775.9378	18540.025
2778.50435	18501.125
2781.06932	18473.425
2783.6327	18423.825
2786.1945	18390.025
2788.75471	18354.525
2791.31335	18308.125
2793.87041	18292.625
2796.42589	18263.925
2798.97979	18297.725
2801.53212	18248.225
2804.08288	18218.625
2806.63206	18184.125
2809.17967	18108.825
2811.72571	18057.425
2814.27018	18040.225
2816.81308	18000.725
2819.35442	17973.325
2821.89419	17926.125
2824.43239	17915.725
2826.96904	17880.425
2829.50412	17862.325
2832.03763	17801.625
2834.56959	17836.625
2837.1	17805.725
2839.62884	17788.825
2842.15613	17745.425
2844.68186	17796.525
2847.20604	17801.925
2849.72867	17806.425
2852.24974	17776.725
2854.76927	17754.425
2857.28724	17760.525
2859.80367	17718.025
2862.31855	17678.025
2864.83189	17639.925
2867.34368	17614.625
2869.85393	17613.625
2872.36264	17550.525
2874.8698	17543.625
2877.37543	17553.125
2879.87952	17541.725
2882.38207	17534.325
2884.88308	17486.125
2887.38256	17488.925
2889.88051	17470.225
2892.37692	17502.325
2894.8718	17523.325
2897.36515	17548.825
2899.85698	17519.525
2902.34727	17487.825
2904.83604	17520.525
2907.32328	17512.325
2909.809	17479.425
2912.29319	17502.925
2914.77587	17470.225
2917.25702	17474.825
2919.73665	17437.925
2922.21476	17485.025
2924.69136	17468.725
2927.16644	17459.325
2929.64	17445.025
2932.11205	17393.425
2934.58258	17365.125
2937.05161	17329.725
2939.51912	17372.225
2941.98513	17334.225
2944.44962	17275.925
2946.91261	17251.225
2949.37409	17276.025
2951.83407	17228.225
2954.29254	17223.925
2956.74951	17169.625
2959.20498	17165.425
2961.65895	17132.825
2964.11142	17123.525
2966.56239	17082.025
2969.01186	17066.525
2971.45984	17022.525
2973.90632	17011.625
2976.35131	16946.825
2978.7948	16911.825
2981.23681	16871.425
2983.67732	16863.425
2986.11635	16785.825
2988.55388	16717.925
2990.98993	16703.525
2993.4245	16626.825
2995.85758	16593.725
2998.28917	16545.525
3000.71928	16515.925
3003.14791	16487.125
3005.57506	16515.625
3008.00073	16419.925
3010.42493	16364.425
3012.84764	16324.525
3015.26888	16332.125
3017.68865	16294.425
3020.10694	16255.725
3022.52376	16200.025
3024.9391	16209.325
3027.35298	16174.325
3029.76539	16162.025
3032.17632	16126.825
3034.5858	16110.125
3036.9938	16059.925
3039.40034	16020.025
3041.80542	16036.425
3044.20903	15999.725
3046.61118	15983.925
3049.01187	15898.525
3051.4111	15907.025
3053.80888	15867.625
3056.20519	15811.325
3058.60005	15768.125
3060.99345	15723.925
3063.3854	15705.425
3065.7759	15599.725
3068.16494	15605.025
3070.55254	15519.425
3072.93868	15528.225
3075.32338	15457.325
3077.70662	15445.025
3080.08842	15393.925
3082.46878	15361.325
3084.84769	15298.525
3087.22515	15321.825
3089.60118	15280.825
3091.97576	15276.425
3094.3489	15252.225
3096.72061	15255.925
3099.09087	15203.625
3101.4597	15167.125
3103.82709	15142.925
3106.19305	15131.125
3108.55757	15126.025
3110.92066	15032.825
3113.28232	15033.325
3115.64255	14980.125
3118.00134	14953.625
3120.35871	14932.225
3122.71466	14909.525
3125.06917	14868.625
3127.42226	14832.225
