Data from AgNPs_FTO_APTES_UA_2uM_CRN_1uM_R6G_10uM_NaF_0.1M_Addition_RamanShift__20__11-42-25-025.txt Node

Date: Wed Feb 02 11:42:25 GMT 2022
User: TCL
Spectrometer: QEP01345
Trigger mode: 4
Integration Time (sec): 7.000000E0
Scans to average: 10
Electric dark correction enabled: true
Nonlinearity correction enabled: false
Boxcar width: 0
XAxis mode: Raman Shifts
Number of Pixels in Spectrum: 1044
>>>>>Begin Spectral Data<<<<<
46.04893	0.8125
50.45542	0.4125
54.85868	-0.9875
59.25871	-0.4875
63.6555	90.7125
68.04907	97.2125
72.43941	101.9125
76.82654	104.5125
81.21044	108.1125
85.59113	116.1125
89.96862	118.4125
94.34289	123.6125
98.71396	128.0125
103.08183	132.4125
107.4465	136.2125
111.80798	137.5125
116.16626	145.0125
120.52136	153.1125
124.87327	154.2125
129.222	166.4125
133.56755	179.7125
137.90993	193.4125
142.24913	219.3125
146.58517	243.4125
150.91804	287.6125
155.24774	346.8125
159.57429	436.1125
163.89768	560.0125
168.21792	746.1125
172.53501	1023.3125
176.84895	1431.5125
181.15975	2006.8125
185.46741	2800.3125
189.77193	3864.4125
194.07331	5159.6125
198.37157	6621.7125
202.6667	8151.4125
206.9587	9701.7125
211.24758	11213.6125
215.53334	12747.1125
219.81599	14418.3125
224.09553	16324.7125
228.37195	18379.1125
232.64527	20571.5125
236.91549	22922.5125
241.18261	25157.4125
245.44663	27149.8125
249.70755	28916.9125
253.96539	30404.3125
258.22014	31747.2125
262.4718	32879.4125
266.72039	33726.4125
270.96589	34228.7125
275.20832	34255.9125
279.44768	34126.6125
283.68397	33901.5125
287.91719	33804.2125
292.14735	33834.8125
296.37445	34003.5125
300.59849	34272.1125
304.81948	34530.0125
309.03742	34584.8125
313.25231	34149.1125
317.46415	33021.9125
321.67296	31484.6125
325.87872	30171.0125
330.08145	29501.2125
334.28114	29323.3125
338.47781	29515.9125
342.67145	29910.8125
346.86207	30527.5125
351.04966	31376.6125
355.23424	32281.6125
359.4158	33038.9125
363.59435	33499.6125
367.76989	33742.9125
371.94243	33875.2125
376.11196	33909.4125
380.27849	33946.0125
384.44203	34081.4125
388.60257	34225.1125
392.76012	34527.2125
396.91468	35055.8125
401.06626	35713.0125
405.21485	36136.1125
409.36047	35844.5125
413.50311	34930.4125
417.64277	34266.0125
421.77947	33941.5125
425.9132	34015.0125
430.04396	34242.2125
434.17176	34436.0125
438.2966	34650.1125
442.41849	35246.4125
446.53742	36283.7125
450.6534	37446.8125
454.76644	38318.1125
458.87653	38629.2125
462.98368	38499.8125
467.08789	38071.1125
471.18916	37562.3125
475.2875	37122.2125
479.38291	36976.0125
483.4754	36908.8125
487.56496	36487.7125
491.6516	35856.6125
495.73531	35125.1125
499.81612	34665.9125
503.89401	34637.7125
507.96899	34691.0125
512.04106	34555.5125
516.11023	34304.2125
520.1765	33909.7125
524.23987	33572.0125
528.30034	33080.7125
532.35792	32593.9125
536.41261	32022.6125
540.46441	31431.9125
544.51333	31351.0125
548.55936	31882.4125
552.60252	32927.1125
556.64279	34008.6125
560.6802	34730.5125
564.71473	35224.4125
568.7464	36162.3125
572.7752	37406.5125
576.80114	37981.8125
580.82422	38357.6125
584.84444	38714.1125
588.86181	39097.6125
592.87633	39561.2125
596.888	39926.1125
600.89682	39962.6125
604.9028	41566.8125
608.90594	46672.5125
612.90624	52300.1125
616.90371	48893.3125
620.89834	38454.7125
624.89015	33669.1125
628.87913	33084.6125
632.86528	33234.4125
636.84862	33177.5125
640.82913	32509.8125
644.80683	31249.7125
648.78172	30254.3125
652.75379	29996.6125
656.72306	30475.7125
660.68952	31315.5125
664.65319	31172.3125
668.61405	30354.3125
672.57211	29972.1125
676.52738	29944.3125
680.47986	29869.1125
684.42955	29706.2125
688.37646	29537.6125
692.32058	29666.9125
696.26192	30061.9125
700.20048	30583.5125
704.13626	30923.7125
708.06928	31004.5125
711.99952	30722.2125
715.927	30520.0125
719.85171	30545.6125
723.77365	30413.5125
727.69284	29973.3125
731.60928	29532.1125
735.52295	29462.3125
739.43388	29517.1125
743.34206	29630.8125
747.24749	29817.7125
751.15017	30238.7125
755.05012	30944.1125
758.94733	32256.0125
762.8418	34634.4125
766.73354	38634.1125
770.62254	42599.9125
774.50882	43621.8125
778.39237	40974.1125
782.27321	36754.6125
786.15132	33247.2125
790.02671	31145.1125
793.89938	30154.0125
797.76935	29723.5125
801.6366	29591.4125
805.50115	29415.0125
809.36299	29183.4125
813.22213	28921.0125
817.07857	28778.6125
820.93231	28739.1125
824.78336	28593.6125
828.63172	28449.1125
832.47738	28392.2125
836.32036	28462.6125
840.16066	28562.8125
843.99827	28637.6125
847.8332	28549.8125
851.66546	28290.3125
855.49504	28251.6125
859.32195	28176.6125
863.1462	28030.7125
866.96777	27835.9125
870.78668	27714.0125
874.60293	27723.3125
878.41652	27750.7125
882.22745	27869.9125
886.03573	28039.7125
889.84136	28111.9125
893.64433	27992.2125
897.44466	27906.5125
901.24235	27758.8125
905.0374	27616.0125
908.8298	27504.5125
912.61957	27497.9125
916.40671	27872.2125
920.19121	28393.3125
923.97308	28947.7125
927.75233	29170.3125
931.52895	29078.9125
935.30295	28571.9125
939.07433	27719.1125
942.84309	26995.5125
946.60924	26620.1125
950.37278	26470.6125
954.13371	26393.6125
957.89203	26242.0125
961.64774	26174.7125
965.40086	26113.0125
969.15137	26010.7125
972.89929	25835.3125
976.64461	25699.6125
980.38733	25650.9125
984.12747	25757.8125
987.86502	25959.2125
991.59999	26414.7125
995.33237	27094.0125
999.06217	28164.0125
1002.78939	29483.3125
1006.51404	30327.0125
1010.23611	30795.3125
1013.95561	31089.9125
1017.67255	31067.8125
1021.38692	30647.3125
1025.09872	30146.3125
1028.80796	30343.0125
1032.51465	31309.5125
1036.21877	32262.7125
1039.92035	32365.1125
1043.61937	31860.5125
1047.31584	30952.5125
1051.00976	29945.7125
1054.70114	29427.6125
1058.38998	29374.5125
1062.07627	29500.9125
1065.76003	29708.5125
1069.44126	30080.3125
1073.11995	30562.5125
1076.79611	31062.7125
1080.46974	31291.1125
1084.14085	31578.7125
1087.80943	32133.6125
1091.47549	32577.2125
1095.13903	32490.8125
1098.80005	31830.1125
1102.45857	30856.7125
1106.11456	29994.1125
1109.76805	29666.4125
1113.41903	29748.3125
1117.06751	30057.3125
1120.71348	30596.7125
1124.35696	31171.9125
1127.99793	31818.9125
1131.63641	32205.3125
1135.2724	31855.5125
1138.90589	31453.2125
1142.5369	31182.0125
1146.16542	31138.6125
1149.79145	31307.5125
1153.415	31639.0125
1157.03607	32234.0125
1160.65467	33293.3125
1164.27079	34989.8125
1167.88443	37430.8125
1171.49561	40714.7125
1175.10432	45228.7125
1178.71056	50846.3125
1182.31434	56063.9125
1185.91565	58934.0125
1189.51451	58965.1125
1193.11091	56765.9125
1196.70485	53333.7125
1200.29634	49742.7125
1203.88538	47084.0125
1207.47197	45041.0125
1211.05612	43498.1125
1214.63782	42466.7125
1218.21708	41802.3125
1221.79391	41499.8125
1225.36829	41421.8125
1228.94024	41057.7125
1232.50976	40446.2125
1236.07685	39798.5125
1239.6415	39273.3125
1243.20374	38792.9125
1246.76355	38710.3125
1250.32093	39228.5125
1253.8759	40261.2125
1257.42845	41831.5125
1260.97859	43569.4125
1264.52631	45202.3125
1268.07163	46923.9125
1271.61453	48821.1125
1275.15503	50888.8125
1278.69312	52791.1125
1282.22882	54417.5125
1285.76211	55935.8125
1289.29301	57861.1125
1292.82151	60186.0125
1296.34761	63165.9125
1299.87133	67027.0125
1303.39266	71861.2125
1306.9116	77339.6125
1310.42815	83062.0125
1313.94233	87080.0125
1317.45412	87904.6125
1320.96354	86391.0125
1324.47058	84254.7125
1327.97525	82023.9125
1331.47754	80108.1125
1334.97747	78648.4125
1338.47502	77744.0125
1341.97022	76628.3125
1345.46305	75107.8125
1348.95352	73171.5125
1352.44163	71948.4125
1355.92738	73057.6125
1359.41078	76823.1125
1362.89183	81476.3125
1366.37053	81198.8125
1369.84688	74283.7125
1373.32088	65274.4125
1376.79254	58745.6125
1380.26186	55854.4125
1383.72883	55092.4125
1387.19347	54788.1125
1390.65578	54373.2125
1394.11575	54515.2125
1397.57339	55505.7125
1401.0287	57130.1125
1404.48168	58491.9125
1407.93234	58819.0125
1411.38068	57971.8125
1414.82669	55933.4125
1418.27039	53017.9125
1421.71177	50005.0125
1425.15083	47684.2125
1428.58758	46317.6125
1432.02203	46148.2125
1435.45416	46952.7125
1438.88399	48090.6125
1442.31151	49325.4125
1445.73673	50416.6125
1449.15965	51441.8125
1452.58027	52288.6125
1455.9986	52714.8125
1459.41463	53301.9125
1462.82837	54106.4125
1466.23982	55185.1125
1469.64898	56096.7125
1473.05586	56509.5125
1476.46045	56261.2125
1479.86276	55677.3125
1483.26279	55183.0125
1486.66054	55048.8125
1490.05602	55351.0125
1493.44922	56074.5125
1496.84016	56966.6125
1500.22882	58394.3125
1503.61521	60745.6125
1506.99934	63752.6125
1510.38121	66777.8125
1513.76081	68112.4125
1517.13816	66618.9125
1520.51324	62985.5125
1523.88607	59353.5125
1527.25665	56993.7125
1530.62498	55674.5125
1533.99105	54893.1125
1537.35488	54281.3125
1540.71647	53411.3125
1544.07581	52331.3125
1547.4329	51021.6125
1550.78776	49883.5125
1554.14038	49223.7125
1557.49077	49067.5125
1560.83892	49233.3125
1564.18484	49458.4125
1567.52853	49607.0125
1570.86999	49926.8125
1574.20922	50632.0125
1577.54624	51347.0125
1580.88103	51478.9125
1584.2136	51687.4125
1587.54395	53122.8125
1590.87208	56109.3125
1594.19801	59975.5125
1597.52172	63846.6125
1600.84321	64761.8125
1604.16251	61307.4125
1607.47959	55411.8125
1610.79447	49499.0125
1614.10715	44196.7125
1617.41763	39989.1125
1620.7259	37282.4125
1624.03199	35848.2125
1627.33587	35881.4125
1630.63757	37349.0125
1633.93707	40477.7125
1637.23439	45244.6125
1640.52951	51814.0125
1643.82246	59117.1125
1647.11321	64623.7125
1650.40179	65848.2125
1653.68819	61501.5125
1656.97241	52956.2125
1660.25446	43899.1125
1663.53433	36959.7125
1666.81203	32415.0125
1670.08756	29602.3125
1673.36092	27845.1125
1676.63211	26761.7125
1679.90115	25957.1125
1683.16801	25425.4125
1686.43272	25028.0125
1689.69527	24735.0125
1692.95567	24490.0125
1696.2139	24376.2125
1699.46999	24255.3125
1702.72392	24132.6125
1705.97571	24041.8125
1709.22535	23972.3125
1712.47284	23893.5125
1715.71819	23817.0125
1718.96139	23759.1125
1722.20246	23678.9125
1725.44139	23531.8125
1728.67818	23340.4125
1731.91284	23200.1125
1735.14537	23038.5125
1738.37576	22907.4125
1741.60403	22805.9125
1744.83017	22696.7125
1748.05418	22641.6125
1751.27607	22606.4125
1754.49584	22532.3125
1757.71349	22514.7125
1760.92903	22506.3125
1764.14244	22467.4125
1767.35375	22435.8125
1770.56294	22381.5125
1773.77002	22353.8125
1776.97499	22322.2125
1780.17785	22238.5125
1783.37861	22197.5125
1786.57727	22123.0125
1789.77382	22089.4125
1792.96828	22086.9125
1796.16064	22034.7125
1799.3509	21969.5125
1802.53907	21933.4125
1805.72514	21900.7125
1808.90913	21829.2125
1812.09102	21817.5125
1815.27083	21801.0125
1818.44856	21730.3125
1821.6242	21729.9125
1824.79776	21680.0125
1827.96924	21692.7125
1831.13864	21654.6125
1834.30597	21717.1125
1837.47122	21753.7125
1840.6344	21741.1125
1843.7955	21812.3125
1846.95454	21833.1125
1850.11151	21827.8125
1853.26642	21843.0125
1856.41926	21891.3125
1859.57004	21880.6125
1862.71876	21881.5125
1865.86542	21882.1125
1869.01003	21860.2125
1872.15258	21913.9125
1875.29308	21948.1125
1878.43152	21964.6125
1881.56792	21969.9125
1884.70227	21986.6125
1887.83457	22044.5125
1890.96482	22035.6125
1894.09304	22039.9125
1897.21921	22074.5125
1900.34335	22087.4125
1903.46544	22078.2125
1906.58551	22099.7125
1909.70353	22064.5125
1912.81953	22016.5125
1915.93349	21990.0125
1919.04543	21931.4125
1922.15534	21871.6125
1925.26322	21699.1125
1928.36908	21568.3125
1931.47292	21491.8125
1934.57473	21286.0125
1937.67453	21212.8125
1940.77232	21107.1125
1943.86808	20964.8125
1946.96184	20855.2125
1950.05358	20777.4125
1953.14331	20678.0125
1956.23103	20573.5125
1959.31675	20511.0125
1962.40046	20426.8125
1965.48217	20364.8125
1968.56188	20294.1125
1971.63959	20207.5125
1974.7153	20113.3125
1977.78901	20058.6125
1980.86073	20018.9125
1983.93046	19979.7125
1986.99819	19859.2125
1990.06394	19836.3125
1993.1277	19728.6125
1996.18947	19610.0125
1999.24925	19577.3125
2002.30706	19488.9125
2005.36288	19463.5125
2008.41672	19414.0125
2011.46859	19390.2125
2014.51848	19317.2125
2017.56639	19247.3125
2020.61233	19177.1125
2023.6563	19149.0125
2026.6983	19126.2125
2029.73833	19100.0125
2032.7764	19029.8125
2035.8125	19037.2125
2038.84664	19010.9125
2041.87881	19005.1125
2044.90903	18990.1125
2047.93729	18984.0125
2050.96359	18940.1125
2053.98794	18905.2125
2057.01034	18885.1125
2060.03078	18837.3125
2063.04927	18796.2125
2066.06582	18769.4125
2069.08042	18778.7125
2072.09307	18768.4125
2075.10378	18738.8125
2078.11255	18723.3125
2081.11938	18724.1125
2084.12426	18705.0125
2087.12722	18677.4125
2090.12824	18660.8125
2093.12732	18660.6125
2096.12447	18719.1125
2099.11969	18696.9125
2102.11299	18694.9125
2105.10435	18703.4125
2108.09379	18694.5125
2111.08131	18689.4125
2114.0669	18698.2125
2117.05057	18723.0125
2120.03233	18740.1125
2123.01216	18724.8125
2125.99008	18719.1125
2128.96609	18714.5125
2131.94018	18762.2125
2134.91236	18744.8125
2137.88263	18797.3125
2140.851	18782.6125
2143.81746	18780.5125
2146.78201	18771.4125
2149.74466	18746.6125
2152.7054	18769.3125
2155.66425	18773.1125
2158.6212	18752.3125
2161.57625	18741.2125
2164.52941	18725.5125
2167.48067	18743.5125
2170.43004	18703.8125
2173.37752	18743.5125
2176.32311	18739.5125
2179.26681	18748.8125
2182.20863	18732.1125
2185.14856	18762.2125
2188.08661	18740.0125
2191.02278	18745.0125
2193.95707	18724.9125
2196.88948	18717.8125
2199.82001	18735.8125
2202.74867	18740.0125
2205.67545	18783.2125
2208.60037	18723.8125
2211.52341	18706.1125
2214.44458	18706.7125
2217.36388	18680.7125
2220.28132	18641.3125
2223.1969	18617.9125
2226.11061	18591.5125
2229.02246	18529.3125
2231.93245	18513.8125
2234.84058	18482.4125
2237.74686	18470.4125
2240.65128	18442.1125
2243.55385	18406.3125
2246.45456	18347.6125
2249.35343	18326.3125
2252.25044	18292.1125
2255.14561	18283.1125
2258.03893	18288.0125
2260.93041	18242.9125
2263.82004	18183.5125
2266.70783	18160.3125
2269.59378	18105.7125
2272.4779	18058.1125
2275.36017	17993.3125
2278.24061	17978.1125
2281.11922	17954.7125
2283.996	17927.9125
2286.87094	17943.9125
2289.74405	17857.1125
2292.61534	17780.4125
2295.4848	17811.5125
2298.35243	17843.6125
2301.21824	17860.3125
2304.08223	17837.9125
2306.94439	17849.4125
2309.80474	17890.6125
2312.66327	17891.1125
2315.51999	17895.5125
2318.37489	17911.8125
2321.22797	17897.8125
2324.07925	17875.6125
2326.92871	17879.4125
2329.77637	17860.2125
2332.62222	17855.4125
2335.46626	17883.1125
2338.3085	17876.0125
2341.14893	17892.0125
2343.98756	17886.7125
2346.8244	17923.8125
2349.65943	17916.6125
2352.49267	17887.0125
2355.32411	17905.8125
2358.15376	17906.1125
2360.98161	17908.6125
2363.80768	17853.4125
2366.63195	17859.8125
2369.45444	17833.3125
2372.27514	17798.9125
2375.09405	17807.5125
2377.91118	17729.0125
2380.72652	17673.0125
2383.54009	17595.8125
2386.35187	17589.5125
2389.16188	17535.4125
2391.97011	17499.9125
2394.77657	17497.3125
2397.58125	17483.9125
2400.38416	17450.6125
2403.18529	17417.7125
2405.98466	17361.4125
2408.78226	17350.8125
2411.57809	17264.4125
2414.37216	17232.3125
2417.16446	17247.8125
2419.955	17230.2125
2422.74378	17255.9125
2425.5308	17237.7125
2428.31606	17217.8125
2431.09956	17217.5125
2433.88131	17161.7125
2436.6613	17181.9125
2439.43954	17193.4125
2442.21603	17173.7125
2444.99077	17175.1125
2447.76377	17175.6125
2450.53501	17154.7125
2453.30451	17184.4125
2456.07226	17197.9125
2458.83827	17187.9125
2461.60254	17211.0125
2464.36507	17193.5125
2467.12586	17210.2125
2469.88492	17202.4125
2472.64224	17207.3125
2475.39782	17258.0125
2478.15167	17235.8125
2480.90379	17232.1125
2483.65417	17241.7125
2486.40283	17293.7125
2489.14976	17322.1125
2491.89497	17345.7125
2494.63845	17346.3125
2497.3802	17325.4125
2500.12024	17323.8125
2502.85855	17348.3125
2505.59514	17313.1125
2508.33002	17299.8125
2511.06318	17253.2125
2513.79462	17237.5125
2516.52435	17231.3125
2519.25237	17206.0125
2521.97867	17166.5125
2524.70327	17175.9125
2527.42616	17139.8125
2530.14734	17139.3125
2532.86681	17151.3125
2535.58458	17168.7125
2538.30065	17078.8125
2541.01501	17088.4125
2543.72768	17078.6125
2546.43864	17058.1125
2549.14791	17079.1125
2551.85548	17082.1125
2554.56136	17071.9125
2557.26554	17017.3125
2559.96803	17025.2125
2562.66883	17030.4125
2565.36794	16989.3125
2568.06536	17017.8125
2570.7611	16969.9125
2573.45514	16981.5125
2576.14751	17002.8125
2578.83819	17004.9125
2581.52719	17003.6125
2584.21451	17025.2125
2586.90015	17008.7125
2589.58411	16993.7125
2592.2664	17009.0125
2594.94701	16963.0125
2597.62594	16979.0125
2600.30321	16955.7125
2602.9788	16955.2125
2605.65273	16969.1125
2608.32498	16989.1125
2610.99557	16975.2125
2613.66449	17002.6125
2616.33175	16988.7125
2618.99734	17025.9125
2621.66128	17002.9125
2624.32355	17040.2125
2626.98416	17049.5125
2629.64311	17062.6125
2632.30041	17038.2125
2634.95605	17034.5125
2637.61004	17003.9125
2640.26238	17019.4125
2642.91306	16945.5125
2645.56209	16979.7125
2648.20948	16955.9125
2650.85521	16949.1125
2653.4993	16912.2125
2656.14175	16928.5125
2658.78255	16951.2125
2661.42171	16933.3125
2664.05923	16973.1125
2666.6951	16961.6125
2669.32934	16983.0125
2671.96194	16986.9125
2674.59291	17023.0125
2677.22224	17003.7125
2679.84993	16974.7125
2682.476	16968.3125
2685.10043	16971.7125
2687.72324	16926.7125
2690.34441	16926.7125
2692.96396	16914.6125
2695.58188	16889.6125
2698.19818	16885.1125
2700.81285	16915.4125
2703.4259	16885.9125
2706.03733	16929.8125
2708.64714	16883.7125
2711.25533	16930.3125
2713.86191	16914.8125
2716.46687	16961.6125
2719.07021	16942.7125
2721.67194	16961.5125
2724.27206	16920.8125
2726.87057	16976.2125
2729.46747	16963.7125
2732.06276	16991.0125
2734.65644	16981.8125
2737.24852	17019.3125
2739.83899	16976.8125
2742.42786	16992.5125
2745.01513	16951.1125
2747.60079	16953.4125
2750.18486	16957.6125
2752.76733	16959.2125
2755.3482	16930.3125
2757.92747	16936.0125
2760.50515	16927.3125
2763.08123	16933.4125
2765.65573	16936.3125
2768.22863	16923.6125
2770.79994	16888.3125
2773.36967	16922.3125
2775.9378	16903.5125
2778.50435	16902.6125
2781.06932	16887.2125
2783.6327	16933.1125
2786.1945	16920.3125
2788.75471	16930.6125
2791.31335	16881.9125
2793.87041	16851.0125
2796.42589	16806.7125
2798.97979	16820.8125
2801.53212	16779.3125
2804.08288	16763.4125
2806.63206	16757.8125
2809.17967	16719.9125
2811.72571	16658.1125
2814.27018	16669.1125
2816.81308	16662.2125
2819.35442	16692.1125
2821.89419	16691.2125
2824.43239	16695.5125
2826.96904	16655.7125
2829.50412	16647.2125
2832.03763	16601.0125
2834.56959	16594.5125
2837.1	16579.4125
2839.62884	16573.4125
2842.15613	16619.2125
2844.68186	16695.3125
2847.20604	16691.2125
2849.72867	16726.6125
2852.24974	16684.3125
2854.76927	16704.1125
2857.28724	16691.8125
2859.80367	16690.0125
2862.31855	16661.3125
2864.83189	16669.8125
2867.34368	16647.3125
2869.85393	16649.7125
2872.36264	16627.6125
2874.8698	16683.4125
2877.37543	16676.8125
2879.87952	16679.9125
2882.38207	16713.1125
2884.88308	16734.0125
2887.38256	16747.1125
2889.88051	16728.6125
2892.37692	16762.4125
2894.8718	16745.4125
2897.36515	16774.7125
2899.85698	16796.8125
2902.34727	16854.5125
2904.83604	16818.9125
2907.32328	16910.6125
2909.809	16857.2125
2912.29319	16847.6125
2914.77587	16856.8125
2917.25702	16876.8125
2919.73665	16837.7125
2922.21476	16835.5125
2924.69136	16818.2125
2927.16644	16848.9125
2929.64	16784.1125
2932.11205	16782.5125
2934.58258	16695.1125
2937.05161	16722.1125
2939.51912	16724.9125
2941.98513	16656.0125
2944.44962	16594.2125
2946.91261	16497.1125
2949.37409	16527.6125
2951.83407	16497.0125
2954.29254	16474.6125
2956.74951	16448.2125
2959.20498	16389.2125
2961.65895	16365.2125
2964.11142	16362.7125
2966.56239	16298.1125
2969.01186	16308.5125
2971.45984	16203.9125
2973.90632	16189.0125
2976.35131	16120.9125
2978.7948	16081.2125
2981.23681	16035.6125
2983.67732	15983.2125
2986.11635	15903.1125
2988.55388	15872.5125
2990.98993	15860.3125
2993.4245	15806.7125
2995.85758	15750.6125
2998.28917	15768.4125
3000.71928	15726.1125
3003.14791	15713.2125
3005.57506	15700.3125
3008.00073	15613.3125
3010.42493	15603.5125
3012.84764	15584.6125
3015.26888	15581.5125
3017.68865	15547.2125
3020.10694	15526.1125
3022.52376	15461.5125
