Data from AgNPs_FTO_APTES_UA_2uM_CRN_20uM_R6G_10uM_NaF_0.1M_Addition_RamanShift__0__13-57-45-182.txt Node

Date: Wed Feb 02 13:57:45 GMT 2022
User: TCL
Spectrometer: QEP01345
Trigger mode: 4
Integration Time (sec): 7.000000E0
Scans to average: 10
Electric dark correction enabled: true
Nonlinearity correction enabled: false
Boxcar width: 0
XAxis mode: Raman Shifts
Number of Pixels in Spectrum: 1044
>>>>>Begin Spectral Data<<<<<
46.04893	-0.45
50.45542	0.25
54.85868	-1.85
59.25871	0.05
63.6555	105.95
68.04907	110.85
72.43941	116.45
76.82654	122.95
81.21044	124.95
85.59113	132.85
89.96862	133.55
94.34289	138.05
98.71396	143.75
103.08183	148.95
107.4465	152.25
111.80798	157.15
116.16626	160.25
120.52136	166.35
124.87327	170.75
129.222	179.35
133.56755	193.95
137.90993	205.55
142.24913	227.45
146.58517	251.25
150.91804	293.55
155.24774	346.75
159.57429	430.45
163.89768	550.05
168.21792	732.25
172.53501	996.25
176.84895	1378.05
181.15975	1944.05
185.46741	2728.55
189.77193	3754.55
194.07331	5032.05
198.37157	6491.65
202.6667	8039.25
206.9587	9555.15
211.24758	11044.85
215.53334	12590.65
219.81599	14210.85
224.09553	16048.05
228.37195	17982.85
232.64527	20189.25
236.91549	22456.65
241.18261	24645.75
245.44663	26659.05
249.70755	28473.65
253.96539	29943.45
258.22014	31292.45
262.4718	32493.05
266.72039	33261.35
270.96589	33650.75
275.20832	33708.75
279.44768	33438.25
283.68397	33097.55
287.91719	32787.45
292.14735	32618.05
296.37445	32670.85
300.59849	32885.15
304.81948	33237.45
309.03742	33435.35
313.25231	33338.95
317.46415	32732.45
321.67296	31811.75
325.87872	31021.15
330.08145	30642.95
334.28114	30629.55
338.47781	30856.75
342.67145	31211.75
346.86207	31804.15
351.04966	32479.95
355.23424	33230.65
359.4158	33921.45
363.59435	34350.15
367.76989	34641.35
371.94243	34856.45
376.11196	34934.65
380.27849	35050.65
384.44203	35207.45
388.60257	35366.15
392.76012	35657.05
396.91468	36089.15
401.06626	36662.05
405.21485	37082.75
409.36047	36915.15
413.50311	36378.45
417.64277	35963.15
421.77947	35823.45
425.9132	35798.55
430.04396	35921.45
434.17176	36150.65
438.2966	36445.45
442.41849	37158.75
446.53742	38336.55
450.6534	39570.45
454.76644	40404.15
458.87653	40597.25
462.98368	40255.35
467.08789	39572.65
471.18916	38945.65
475.2875	38230.35
479.38291	37833.15
483.4754	37527.35
487.56496	37170.85
491.6516	36753.25
495.73531	36309.85
499.81612	36126.45
503.89401	36201.55
507.96899	36278.15
512.04106	36122.55
516.11023	35879.25
520.1765	35738.35
524.23987	35646.95
528.30034	35542.75
532.35792	35285.45
536.41261	34790.95
540.46441	34383.15
544.51333	34200.95
548.55936	34566.05
552.60252	35195.65
556.64279	36098.25
560.6802	36737.35
564.71473	37077.05
568.7464	37668.15
572.7752	38564.75
576.80114	39067.95
580.82422	39685.35
584.84444	40624.45
588.86181	42113.65
592.87633	43551.35
596.888	43906.25
600.89682	42943.25
604.9028	43261.25
608.90594	47085.85
612.90624	51440.65
616.90371	48721.05
620.89834	40660.75
624.89015	36935.25
628.87913	36396.65
632.86528	36371.45
636.84862	36118.45
640.82913	35416.15
644.80683	34474.75
648.78172	33876.15
652.75379	33901.85
656.72306	34481.05
660.68952	35188.55
664.65319	35038.95
668.61405	34375.65
672.57211	34200.85
676.52738	34331.85
680.47986	34262.85
684.42955	33959.85
688.37646	33850.45
692.32058	34141.85
696.26192	34710.05
700.20048	35210.95
704.13626	35444.75
708.06928	35305.45
711.99952	35040.15
715.927	35066.85
719.85171	35332.05
723.77365	35208.45
727.69284	34701.25
731.60928	34197.65
735.52295	34089.05
739.43388	34060.15
743.34206	34232.95
747.24749	34410.75
751.15017	34711.15
755.05012	35295.15
758.94733	36190.05
762.8418	37992.45
766.73354	40655.25
770.62254	43287.35
774.50882	44020.75
778.39237	42417.95
782.27321	39590.55
786.15132	37104.15
790.02671	35575.05
793.89938	34856.95
797.76935	34596.65
801.6366	34493.75
805.50115	34334.05
809.36299	34155.55
813.22213	33870.35
817.07857	33758.55
820.93231	33701.75
824.78336	33629.45
828.63172	33638.75
832.47738	33754.15
836.32036	33901.05
840.16066	34069.25
843.99827	34207.15
847.8332	34124.35
851.66546	33850.45
855.49504	33752.65
859.32195	33745.35
863.1462	33636.25
866.96777	33547.15
870.78668	33461.05
874.60293	33406.85
878.41652	33441.15
882.22745	33583.65
886.03573	33713.15
889.84136	33693.35
893.64433	33488.55
897.44466	33389.95
901.24235	33233.75
905.0374	33132.65
908.8298	33156.85
912.61957	33242.95
916.40671	33525.45
920.19121	33970.35
923.97308	34423.75
927.75233	34744.35
931.52895	34702.45
935.30295	34325.65
939.07433	33721.15
942.84309	33162.65
946.60924	33015.85
950.37278	32951.25
954.13371	32834.45
957.89203	32653.85
961.64774	32586.55
965.40086	32561.45
969.15137	32532.15
972.89929	32504.35
976.64461	32513.95
980.38733	32615.15
984.12747	32840.25
987.86502	33194.85
991.59999	33685.05
995.33237	34276.05
999.06217	35330.95
1002.78939	36495.35
1006.51404	37197.55
1010.23611	37469.45
1013.95561	37711.25
1017.67255	37665.25
1021.38692	37277.05
1025.09872	37001.65
1028.80796	37450.05
1032.51465	38813.75
1036.21877	40114.85
1039.92035	40503.45
1043.61937	39880.05
1047.31584	38768.35
1051.00976	37386.75
1054.70114	36635.25
1058.38998	36385.45
1062.07627	36318.15
1065.76003	36381.55
1069.44126	36616.85
1073.11995	37054.05
1076.79611	37586.75
1080.46974	37981.55
1084.14085	38382.65
1087.80943	38783.55
1091.47549	39027.25
1095.13903	38832.75
1098.80005	38315.75
1102.45857	37558.35
1106.11456	37058.65
1109.76805	36870.05
1113.41903	36937.05
1117.06751	37163.55
1120.71348	37515.45
1124.35696	37940.35
1127.99793	38444.35
1131.63641	38569.75
1135.2724	38259.55
1138.90589	37978.25
1142.5369	37834.65
1146.16542	37921.35
1149.79145	38074.85
1153.415	38412.95
1157.03607	38863.25
1160.65467	39805.15
1164.27079	41417.55
1167.88443	43374.35
1171.49561	45694.45
1175.10432	48883.05
1178.71056	52987.95
1182.31434	56692.15
1185.91565	58465.95
1189.51451	58079.65
1193.11091	56242.85
1196.70485	53976.95
1200.29634	51966.95
1203.88538	50471.75
1207.47197	49375.25
1211.05612	48363.85
1214.63782	47444.45
1218.21708	46677.75
1221.79391	46154.05
1225.36829	45834.65
1228.94024	45234.35
1232.50976	44443.25
1236.07685	43645.35
1239.6415	43214.25
1243.20374	43304.35
1246.76355	43762.25
1250.32093	44629.15
1253.8759	45614.25
1257.42845	46841.55
1260.97859	48166.85
1264.52631	49480.25
1268.07163	50961.85
1271.61453	52559.35
1275.15503	54073.05
1278.69312	55688.15
1282.22882	56966.25
1285.76211	58533.25
1289.29301	60238.25
1292.82151	62454.25
1296.34761	65441.15
1299.87133	69353.65
1303.39266	73940.95
1306.9116	78514.95
1310.42815	82353.75
1313.94233	84042.15
1317.45412	82982.95
1320.96354	80235.45
1324.47058	77457.85
1327.97525	75091.65
1331.47754	73430.85
1334.97747	72416.55
1338.47502	71421.85
1341.97022	70176.05
1345.46305	68951.05
1348.95352	68530.25
1352.44163	69471.95
1355.92738	72416.95
1359.41078	77047.85
1362.89183	81043.45
1366.37053	80104.75
1369.84688	73546.65
1373.32088	65044.15
1376.79254	59356.55
1380.26186	57187.05
1383.72883	56952.75
1387.19347	56708.65
1390.65578	55844.85
1394.11575	55327.25
1397.57339	55637.15
1401.0287	56416.95
1404.48168	57126.35
1407.93234	57130.65
1411.38068	56400.25
1414.82669	55025.35
1418.27039	53349.95
1421.71177	51522.95
1425.15083	49848.55
1428.58758	49122.85
1432.02203	49599.35
1435.45416	50724.15
1438.88399	52038.05
1442.31151	53037.35
1445.73673	53578.65
1449.15965	53955.75
1452.58027	53899.75
1455.9986	53560.65
1459.41463	53407.35
1462.82837	53914.25
1466.23982	54890.75
1469.64898	55922.75
1473.05586	56708.25
1476.46045	57269.05
1479.86276	57363.15
1483.26279	57155.45
1486.66054	57025.45
1490.05602	57397.25
1493.44922	58046.15
1496.84016	58616.65
1500.22882	59604.15
1503.61521	61177.35
1506.99934	63282.15
1510.38121	65302.05
1513.76081	66095.55
1517.13816	64942.95
1520.51324	62254.95
1523.88607	59783.35
1527.25665	58282.85
1530.62498	57714.15
1533.99105	57222.25
1537.35488	56536.35
1540.71647	55466.85
1544.07581	54263.65
1547.4329	53126.65
1550.78776	52132.55
1554.14038	51489.05
1557.49077	51132.95
1560.83892	50957.45
1564.18484	51003.75
1567.52853	51219.25
1570.86999	51657.55
1574.20922	52421.85
1577.54624	53069.15
1580.88103	53260.05
1584.2136	53716.95
1587.54395	55333.95
1590.87208	58380.75
1594.19801	62154.25
1597.52172	65567.95
1600.84321	66381.05
1604.16251	63295.65
1607.47959	58185.65
1610.79447	52816.45
1614.10715	48224.85
1617.41763	44831.45
1620.7259	42845.55
1624.03199	42039.45
1627.33587	42328.65
1630.63757	43667.35
1633.93707	46183.55
1637.23439	50059.35
1640.52951	55716.45
1643.82246	62646.15
1647.11321	68160.85
1650.40179	69407.25
1653.68819	64661.05
1656.97241	56330.15
1660.25446	48306.35
1663.53433	42606.25
1666.81203	39085.15
1670.08756	36923.05
1673.36092	35622.15
1676.63211	34820.35
1679.90115	34196.55
1683.16801	33738.25
1686.43272	33416.45
1689.69527	33130.85
1692.95567	32946.05
1696.2139	32865.35
1699.46999	32791.15
1702.72392	32714.85
1705.97571	32656.15
1709.22535	32627.25
1712.47284	32552.55
1715.71819	32527.85
1718.96139	32534.45
1722.20246	32439.15
1725.44139	32297.85
1728.67818	32161.45
1731.91284	31962.55
1735.14537	31853.65
1738.37576	31732.95
1741.60403	31650.45
1744.83017	31558.75
1748.05418	31541.45
1751.27607	31497.65
1754.49584	31428.05
1757.71349	31408.95
1760.92903	31398.05
1764.14244	31370.95
1767.35375	31355.95
1770.56294	31357.05
1773.77002	31282.35
1776.97499	31262.55
1780.17785	31148.15
1783.37861	31149.25
1786.57727	31168.05
1789.77382	31088.25
1792.96828	31040.25
1796.16064	31058.75
1799.3509	31029.65
1802.53907	30947.05
1805.72514	30877.05
1808.90913	30768.45
1812.09102	30723.35
1815.27083	30750.45
1818.44856	30731.35
1821.6242	30669.45
1824.79776	30675.75
1827.96924	30582.85
1831.13864	30557.15
1834.30597	30568.95
1837.47122	30551.35
1840.6344	30529.75
1843.7955	30535.95
1846.95454	30574.35
1850.11151	30559.95
1853.26642	30568.75
1856.41926	30577.25
1859.57004	30540.55
1862.71876	30560.85
1865.86542	30521.75
1869.01003	30528.95
1872.15258	30497.95
1875.29308	30462.65
1878.43152	30465.65
1881.56792	30416.25
1884.70227	30460.85
1887.83457	30423.85
1890.96482	30404.15
1894.09304	30384.15
1897.21921	30404.75
1900.34335	30391.05
1903.46544	30315.65
1906.58551	30337.05
1909.70353	30300.95
1912.81953	30255.45
1915.93349	30251.05
1919.04543	30138.55
1922.15534	30147.95
1925.26322	30082.85
1928.36908	30035.25
1931.47292	29991.45
1934.57473	29876.85
1937.67453	29829.65
1940.77232	29791.25
1943.86808	29704.15
1946.96184	29656.25
1950.05358	29587.05
1953.14331	29525.85
1956.23103	29435.75
1959.31675	29322.25
1962.40046	29324.65
1965.48217	29314.25
1968.56188	29216.95
1971.63959	29119.65
1974.7153	29043.95
1977.78901	29005.55
1980.86073	28861.05
1983.93046	28814.75
1986.99819	28737.65
1990.06394	28678.25
1993.1277	28604.35
1996.18947	28519.85
1999.24925	28448.35
2002.30706	28336.95
2005.36288	28321.65
2008.41672	28205.35
2011.46859	28138.95
2014.51848	28076.65
2017.56639	28065.95
2020.61233	28051.65
2023.6563	27993.55
2026.6983	27954.85
2029.73833	27916.55
2032.7764	27878.85
2035.8125	27810.45
2038.84664	27777.45
2041.87881	27780.15
2044.90903	27744.85
2047.93729	27682.55
2050.96359	27714.05
2053.98794	27665.05
2057.01034	27642.05
2060.03078	27675.65
2063.04927	27585.55
2066.06582	27610.75
2069.08042	27593.35
2072.09307	27606.45
2075.10378	27509.95
2078.11255	27538.65
2081.11938	27504.55
2084.12426	27520.65
2087.12722	27550.95
2090.12824	27523.35
2093.12732	27522.55
2096.12447	27543.35
2099.11969	27589.55
2102.11299	27612.65
2105.10435	27562.85
2108.09379	27599.05
2111.08131	27658.25
2114.0669	27679.35
2117.05057	27733.65
2120.03233	27756.45
2123.01216	27787.05
2125.99008	27775.35
2128.96609	27830.65
2131.94018	27856.05
2134.91236	27925.65
2137.88263	27985.75
2140.851	27996.25
2143.81746	28040.05
2146.78201	28032.35
2149.74466	28069.35
2152.7054	28017.95
2155.66425	28005.95
2158.6212	28027.65
2161.57625	28009.95
2164.52941	28060.05
2167.48067	28037.55
2170.43004	28012.45
2173.37752	27960.75
2176.32311	28018.85
2179.26681	28058.45
2182.20863	28036.05
2185.14856	28115.65
2188.08661	28146.85
2191.02278	28133.95
2193.95707	28131.75
2196.88948	28102.45
2199.82001	28160.45
2202.74867	28176.65
2205.67545	28183.75
2208.60037	28135.65
2211.52341	28136.95
2214.44458	28145.95
2217.36388	28115.85
2220.28132	28049.25
2223.1969	27976.05
2226.11061	28016.25
2229.02246	27910.75
2231.93245	27931.85
2234.84058	27886.25
2237.74686	27846.45
2240.65128	27773.65
2243.55385	27752.15
2246.45456	27744.75
2249.35343	27724.05
2252.25044	27714.05
2255.14561	27692.75
2258.03893	27638.85
2260.93041	27640.75
2263.82004	27560.75
2266.70783	27486.85
2269.59378	27418.25
2272.4779	27331.55
2275.36017	27320.55
2278.24061	27311.25
2281.11922	27244.45
2283.996	27245.95
2286.87094	27249.75
2289.74405	27181.15
2292.61534	27194.85
2295.4848	27147.85
2298.35243	27205.95
2301.21824	27241.95
2304.08223	27234.65
2306.94439	27284.85
2309.80474	27317.45
2312.66327	27293.45
2315.51999	27309.85
2318.37489	27279.65
2321.22797	27258.65
2324.07925	27237.15
2326.92871	27218.95
2329.77637	27252.65
2332.62222	27228.05
2335.46626	27202.55
2338.3085	27179.25
2341.14893	27195.05
2343.98756	27216.45
2346.8244	27213.75
2349.65943	27218.05
2352.49267	27211.55
2355.32411	27192.35
2358.15376	27171.05
2360.98161	27143.75
2363.80768	27122.85
2366.63195	27077.55
2369.45444	26991.85
2372.27514	26983.05
2375.09405	26967.55
2377.91118	26955.05
2380.72652	26916.75
2383.54009	26892.45
2386.35187	26875.55
2389.16188	26789.85
2391.97011	26815.35
2394.77657	26735.55
2397.58125	26706.15
2400.38416	26681.45
2403.18529	26677.15
2405.98466	26650.65
2408.78226	26597.05
2411.57809	26590.85
2414.37216	26538.95
2417.16446	26546.85
2419.955	26525.95
2422.74378	26548.45
2425.5308	26499.75
2428.31606	26516.45
2431.09956	26467.65
2433.88131	26435.35
2436.6613	26445.45
2439.43954	26496.65
2442.21603	26434.65
2444.99077	26430.95
2447.76377	26382.25
2450.53501	26333.25
2453.30451	26406.05
2456.07226	26370.45
2458.83827	26391.25
2461.60254	26405.85
2464.36507	26435.45
2467.12586	26387.25
2469.88492	26403.15
2472.64224	26440.35
2475.39782	26465.05
2478.15167	26485.45
2480.90379	26481.75
2483.65417	26495.75
2486.40283	26522.15
2489.14976	26522.15
2491.89497	26538.55
2494.63845	26565.75
2497.3802	26592.85
2500.12024	26537.45
2502.85855	26560.05
2505.59514	26585.55
2508.33002	26545.45
2511.06318	26512.75
2513.79462	26464.55
2516.52435	26460.25
2519.25237	26448.35
2521.97867	26448.75
2524.70327	26470.35
2527.42616	26473.25
2530.14734	26422.35
2532.86681	26389.25
2535.58458	26391.25
2538.30065	26338.95
2541.01501	26349.05
2543.72768	26335.25
2546.43864	26339.15
2549.14791	26268.15
2551.85548	26289.25
2554.56136	26278.65
2557.26554	26305.35
2559.96803	26270.15
2562.66883	26234.95
2565.36794	26250.35
2568.06536	26243.45
2570.7611	26252.75
2573.45514	26172.95
2576.14751	26207.55
2578.83819	26203.95
2581.52719	26238.25
2584.21451	26165.25
2586.90015	26161.95
2589.58411	26122.15
2592.2664	26137.75
2594.94701	26122.65
2597.62594	26114.65
2600.30321	26070.15
2602.9788	26069.75
2605.65273	26008.05
2608.32498	26032.85
2610.99557	26023.05
2613.66449	26060.75
2616.33175	26034.15
2618.99734	26043.25
2621.66128	26024.45
2624.32355	26010.15
2626.98416	26011.85
2629.64311	26011.35
2632.30041	26045.15
2634.95605	26001.85
2637.61004	25964.85
2640.26238	25928.55
2642.91306	25880.05
2645.56209	25881.05
2648.20948	25804.05
2650.85521	25846.05
2653.4993	25858.85
2656.14175	25884.55
2658.78255	25876.05
2661.42171	25880.55
2664.05923	25952.15
2666.6951	25937.95
2669.32934	26003.35
2671.96194	25994.65
2674.59291	25963.85
2677.22224	25992.45
2679.84993	25994.55
2682.476	25958.25
2685.10043	25968.15
2687.72324	25980.15
2690.34441	25993.35
2692.96396	25951.05
2695.58188	25941.95
2698.19818	25955.85
2700.81285	25968.35
2703.4259	25980.25
2706.03733	26041.75
2708.64714	26011.15
2711.25533	26056.05
2713.86191	26021.45
2716.46687	26035.35
2719.07021	26067.75
2721.67194	26095.05
2724.27206	26063.95
2726.87057	26073.45
2729.46747	26061.65
2732.06276	26100.65
2734.65644	26113.35
2737.24852	26084.85
2739.83899	26016.25
2742.42786	26061.45
2745.01513	26021.75
2747.60079	26099.05
2750.18486	26047.65
2752.76733	26133.75
2755.3482	26087.15
2757.92747	26125.15
2760.50515	26100.35
2763.08123	26115.35
2765.65573	26039.05
2768.22863	26051.95
2770.79994	25993.25
2773.36967	26005.25
2775.9378	26031.55
2778.50435	26026.35
2781.06932	25990.05
2783.6327	26007.15
2786.1945	26005.65
2788.75471	25984.25
2791.31335	25894.65
2793.87041	25846.65
2796.42589	25811.05
2798.97979	25805.55
2801.53212	25778.45
2804.08288	25781.05
2806.63206	25721.75
2809.17967	25696.55
2811.72571	25625.75
2814.27018	25648.55
2816.81308	25594.85
2819.35442	25511.35
2821.89419	25482.95
2824.43239	25528.45
2826.96904	25508.55
2829.50412	25533.95
2832.03763	25499.65
2834.56959	25461.85
2837.1	25499.05
2839.62884	25469.45
2842.15613	25476.65
2844.68186	25527.45
2847.20604	25544.05
2849.72867	25593.95
2852.24974	25557.75
2854.76927	25524.25
2857.28724	25529.15
2859.80367	25518.75
2862.31855	25465.25
2864.83189	25456.45
2867.34368	25376.85
2869.85393	25376.05
2872.36264	25339.75
2874.8698	25412.95
2877.37543	25403.85
2879.87952	25402.55
2882.38207	25400.55
2884.88308	25436.25
2887.38256	25464.85
2889.88051	25502.75
2892.37692	25536.45
2894.8718	25513.45
2897.36515	25546.35
2899.85698	25566.35
2902.34727	25570.75
2904.83604	25582.35
2907.32328	25592.15
2909.809	25569.15
2912.29319	25584.15
2914.77587	25543.95
2917.25702	25508.65
2919.73665	25494.35
2922.21476	25550.25
2924.69136	25535.85
2927.16644	25607.85
2929.64	25577.15
2932.11205	25567.75
2934.58258	25500.15
2937.05161	25517.35
2939.51912	25508.25
2941.98513	25509.45
2944.44962	25473.15
2946.91261	25382.25
2949.37409	25414.35
2951.83407	25397.15
2954.29254	25435.05
2956.74951	25393.15
2959.20498	25397.15
2961.65895	25337.35
2964.11142	25341.65
2966.56239	25318.15
2969.01186	25350.15
2971.45984	25296.45
2973.90632	25298.25
2976.35131	25165.75
2978.7948	25138.85
2981.23681	25103.75
2983.67732	25040.15
2986.11635	25022.85
2988.55388	24949.95
2990.98993	24927.75
2993.4245	24885.85
2995.85758	24861.25
2998.28917	24803.25
3000.71928	24774.35
3003.14791	24776.55
3005.57506	24756.55
3008.00073	24686.65
3010.42493	24736.35
3012.84764	24657.65
3015.26888	24670.85
3017.68865	24590.75
3020.10694	24544.55
3022.52376	24515.55
3024.9391	24478.45
3027.35298	24470.35
3029.76539	24446.05
3032.17632	24390.15
3034.5858	24345.25
3036.9938	24374.45
3039.40034	24361.95
3041.80542	24326.95
3044.20903	24330.55
3046.61118	24331.55
3049.01187	24301.55
3051.4111	24231.65
3053.80888	24199.05
3056.20519	24147.55
3058.60005	24086.25
3060.99345	24098.45
3063.3854	24051.45
3065.7759	23945.45
3068.16494	23943.45
3070.55254	23831.95
3072.93868	23803.95
3075.32338	23799.75
3077.70662	23781.25
3080.08842	23769.05
3082.46878	23722.05
3084.84769	23706.55
3087.22515	23720.85
3089.60118	23729.55
3091.97576	23656.55
3094.3489	23675.65
3096.72061	23623.75
3099.09087	23660.25
3101.4597	23638.85
3103.82709	23625.85
3106.19305	23602.45
3108.55757	23610.85
3110.92066	23567.15
3113.28232	23481.85
3115.64255	23428.45
3118.00134	23403.95
3120.35871	23390.35
3122.71466	23349.15
3125.06917	23293.15
3127.42226	23276.35
3129.77393	23299.85
3132.12417	23253.15
3134.47299	23260.85
3136.82039	23256.35
3139.16636	23289.55
3141.51092	23268.55
3143.85406	23276.85
3146.19579	23253.45
3148.53609	23244.05
3150.87499	23255.95
3153.21246	23232.35
3155.54853	23285.25
3157.88318	23245.75
3160.21642	23246.95
3162.54826	23248.55
3164.87868	23229.85
3167.2077	23208.15
3169.5353	23182.55
3171.86151	23197.55
3174.18631	23207.65
3176.5097	23169.15
3178.83169	23142.95
3181.15228	23174.15
3183.47147	23108.65
3185.78926	23137.85
3188.10565	23127.45
3190.42065	23140.35
3192.73424	23130.25
3195.04645	23075.05
3197.35725	23107.05
3199.66667	23066.65
3201.97469	23084.95
3204.28132	23030.75
3206.58656	23086.35
3208.8904	23146.65
3211.19287	23171.55
3213.49394	23161.55
3215.79363	23123.05
3218.09193	23140.45
3220.38884	23108.55
3222.68438	23137.15
3224.97853	23088.25
3227.2713	23112.65
3229.56269	23015.55
3231.8527	23000.75
3234.14133	23002.05
3236.42858	22945.55
3238.71446	22928.45
