Data from AgNPs_FTO_APTES_UA_2uM_CRN_10uM_R6G_10uM_NaF_0.1M_Addition_RamanShift__14__13-34-25-155.txt Node

Date: Wed Feb 02 13:34:25 GMT 2022
User: TCL
Spectrometer: QEP01345
Trigger mode: 4
Integration Time (sec): 7.000000E0
Scans to average: 10
Electric dark correction enabled: true
Nonlinearity correction enabled: false
Boxcar width: 0
XAxis mode: Raman Shifts
Number of Pixels in Spectrum: 1044
>>>>>Begin Spectral Data<<<<<
46.04893	0.9
50.45542	0.8
54.85868	-1.7
59.25871	-1.1
63.6555	94.5
68.04907	98.4
72.43941	97.6
76.82654	109.8
81.21044	112.1
85.59113	113.8
89.96862	121.3
94.34289	122.3
98.71396	128.8
103.08183	137.5
107.4465	137.9
111.80798	138.7
116.16626	145.1
120.52136	150.2
124.87327	159.6
129.222	165.5
133.56755	180.5
137.90993	193.9
142.24913	217.5
146.58517	244.6
150.91804	286.8
155.24774	344.5
159.57429	431.7
163.89768	558.5
168.21792	744.3
172.53501	1022.7
176.84895	1421.6
181.15975	2010.8
185.46741	2823.7
189.77193	3899.9
194.07331	5244.7
198.37157	6751.6
202.6667	8347.2
206.9587	9973.5
211.24758	11567
215.53334	13104.5
219.81599	14724
224.09553	16479.8
228.37195	18461.9
232.64527	20633.7
236.91549	22907.1
241.18261	25251.2
245.44663	27454.3
249.70755	29497.8
253.96539	31230.8
258.22014	32750
262.4718	33930.5
266.72039	34784.2
270.96589	35224.9
275.20832	35298.1
279.44768	35189.8
283.68397	34866.6
287.91719	34697.1
292.14735	34454.9
296.37445	34382.8
300.59849	34378.9
304.81948	34468.2
309.03742	34373.7
313.25231	34090.2
317.46415	33492.6
321.67296	32677.6
325.87872	31978.5
330.08145	31645.2
334.28114	31632.1
338.47781	31796.4
342.67145	32076.3
346.86207	32436.3
351.04966	32879.8
355.23424	33322
359.4158	33695.8
363.59435	34023.9
367.76989	34270.4
371.94243	34495.3
376.11196	34536.5
380.27849	34689.8
384.44203	34753.2
388.60257	35029
392.76012	35399.9
396.91468	35893.1
401.06626	36446.2
405.21485	36840.3
409.36047	36678.3
413.50311	36248.6
417.64277	35977.8
421.77947	35997.5
425.9132	36063
430.04396	36213.7
434.17176	36367.8
438.2966	36591.6
442.41849	36864.7
446.53742	37479.8
450.6534	38160.7
454.76644	38609.4
458.87653	38941.9
462.98368	39013.1
467.08789	38938.6
471.18916	38761.4
475.2875	38500.8
479.38291	38419.1
483.4754	38306
487.56496	38117.9
491.6516	37656.1
495.73531	37172.4
499.81612	36769.6
503.89401	36824.3
507.96899	37022.1
512.04106	37086.2
516.11023	36996.1
520.1765	36696.1
524.23987	36317.4
528.30034	35975.8
532.35792	35596.9
536.41261	35278.2
540.46441	35057.8
544.51333	35128.1
548.55936	35596.8
552.60252	36224.4
556.64279	36875
560.6802	37399.5
564.71473	37846.8
568.7464	38540.2
572.7752	39656.7
576.80114	40919.6
580.82422	42061.5
584.84444	42813.5
588.86181	43445.2
592.87633	43835.4
596.888	43474.4
600.89682	42556
604.9028	42481.9
608.90594	44262.2
612.90624	46190.5
616.90371	43666.2
620.89834	38493.4
624.89015	36172.7
628.87913	36048.8
632.86528	36393.8
636.84862	36549.6
640.82913	36041.5
644.80683	35275.6
648.78172	34670.1
652.75379	34552.1
656.72306	34814.4
660.68952	35195.5
664.65319	35156
668.61405	34819
672.57211	34765.2
676.52738	34831.4
680.47986	34812.1
684.42955	34641.6
688.37646	34565.5
692.32058	34649.1
696.26192	34935.6
700.20048	35283
704.13626	35594.1
708.06928	35755
711.99952	35688.7
715.927	35613.1
719.85171	35524.4
723.77365	35281.6
727.69284	34878.1
731.60928	34483.3
735.52295	34296.9
739.43388	34160.2
743.34206	34176.2
747.24749	34393
751.15017	34700.9
755.05012	35233.2
758.94733	36121.7
762.8418	37514.8
766.73354	39606.5
770.62254	41521.8
774.50882	41742.3
778.39237	40212.6
782.27321	38094.8
786.15132	36336.4
790.02671	35156.3
793.89938	34488
797.76935	34110
801.6366	33997.4
805.50115	33886.9
809.36299	33723.4
813.22213	33553.8
817.07857	33476.5
820.93231	33463.6
824.78336	33409.2
828.63172	33345.7
832.47738	33229.8
836.32036	33126.2
840.16066	33030.4
843.99827	33051.4
847.8332	33023.4
851.66546	33034.2
855.49504	33053.6
859.32195	33103.6
863.1462	33063.2
866.96777	33003.1
870.78668	32969.5
874.60293	32981.3
878.41652	32972.1
882.22745	33045
886.03573	33110.8
889.84136	33134.1
893.64433	33086
897.44466	33035.1
901.24235	32976.8
905.0374	32937.3
908.8298	32901.4
912.61957	33070.3
916.40671	33330.9
920.19121	33701.7
923.97308	33926.3
927.75233	33906
931.52895	33498
935.30295	33022
939.07433	32539.8
942.84309	32113.6
946.60924	31882
950.37278	31733.2
954.13371	31724.6
957.89203	31729.4
961.64774	31691.4
965.40086	31677.2
969.15137	31598.1
972.89929	31474.1
976.64461	31343.5
980.38733	31262.8
984.12747	31208.9
987.86502	31306.6
991.59999	31522.1
995.33237	31636
999.06217	31916.3
1002.78939	32336.9
1006.51404	32627.2
1010.23611	33070.2
1013.95561	33348.3
1017.67255	33430.8
1021.38692	33247.6
1025.09872	32908.4
1028.80796	32605
1032.51465	32512.4
1036.21877	32610.8
1039.92035	32740.5
1043.61937	32827.4
1047.31584	32958.8
1051.00976	33029.2
1054.70114	33224.1
1058.38998	33442.1
1062.07627	33832.5
1065.76003	34288
1069.44126	34772.9
1073.11995	35250.5
1076.79611	35628.3
1080.46974	35779.5
1084.14085	35838.3
1087.80943	36093.7
1091.47549	36449.7
1095.13903	36625
1098.80005	36364.6
1102.45857	35641.9
1106.11456	34901.1
1109.76805	34417.3
1113.41903	34289.4
1117.06751	34277.7
1120.71348	34520.2
1124.35696	34827.4
1127.99793	35177.8
1131.63641	35459.3
1135.2724	35424
1138.90589	35324
1142.5369	35386
1146.16542	35584.5
1149.79145	35884.7
1153.415	36261.6
1157.03607	36764
1160.65467	37469.1
1164.27079	38736.3
1167.88443	40267.5
1171.49561	41997.5
1175.10432	44140.7
1178.71056	46718.6
1182.31434	49154.6
1185.91565	50737.2
1189.51451	51226.5
1193.11091	50885.5
1196.70485	49677.4
1200.29634	47966.2
1203.88538	46544.3
1207.47197	45849.8
1211.05612	45442.2
1214.63782	44910.2
1218.21708	43800.1
1221.79391	42431.3
1225.36829	41354.3
1228.94024	40695.2
1232.50976	40303
1236.07685	40131.2
1239.6415	40038.3
1243.20374	40080.2
1246.76355	40329
1250.32093	40819.5
1253.8759	41535.7
1257.42845	42452.1
1260.97859	43527.8
1264.52631	44671.7
1268.07163	45714.9
1271.61453	46728.3
1275.15503	47820.9
1278.69312	49004.5
1282.22882	50164.8
1285.76211	51616.6
1289.29301	53167.5
1292.82151	55092.3
1296.34761	57343.2
1299.87133	59870.9
1303.39266	62212.4
1306.9116	64166
1310.42815	65585
1313.94233	66210
1317.45412	66116.3
1320.96354	65840.6
1324.47058	66068.6
1327.97525	66262.8
1331.47754	66559.4
1334.97747	66683.7
1338.47502	66835.7
1341.97022	66917
1345.46305	66755.4
1348.95352	66315.4
1352.44163	65398.4
1355.92738	64722.2
1359.41078	64838.4
1362.89183	65177.1
1366.37053	64087
1369.84688	60551.5
1373.32088	56065.4
1376.79254	52670.2
1380.26186	51241.5
1383.72883	51147.2
1387.19347	51105.2
1390.65578	50801.8
1394.11575	50496.8
1397.57339	50491
1401.0287	50758.9
1404.48168	50913.1
1407.93234	50518.3
1411.38068	49458.6
1414.82669	47870.1
1418.27039	46220
1421.71177	44479.7
1425.15083	43233.6
1428.58758	42645.3
1432.02203	42857
1435.45416	43627.2
1438.88399	44610
1442.31151	45435.2
1445.73673	46042.9
1449.15965	46667.6
1452.58027	47263.8
1455.9986	47593.8
1459.41463	47977.9
1462.82837	48551.5
1466.23982	49150.6
1469.64898	49641.3
1473.05586	49857.9
1476.46045	49815.2
1479.86276	49570.5
1483.26279	49379
1486.66054	49337.4
1490.05602	49621.9
1493.44922	50451.5
1496.84016	51546.2
1500.22882	52993.7
1503.61521	54718.6
1506.99934	56428.6
1510.38121	57640.4
1513.76081	57818.2
1517.13816	57022.6
1520.51324	55913.6
1523.88607	55049.7
1527.25665	54713.9
1530.62498	54427.4
1533.99105	53875.7
1537.35488	52862
1540.71647	51516.2
1544.07581	49922.3
1547.4329	48557.7
1550.78776	47436.6
1554.14038	46804
1557.49077	46494.2
1560.83892	46427.7
1564.18484	46466.7
1567.52853	46596
1570.86999	46979.1
1574.20922	47797.6
1577.54624	48544.8
1580.88103	48973.5
1584.2136	49253.2
1587.54395	50000.9
1590.87208	51293.2
1594.19801	52994.5
1597.52172	54527.4
1600.84321	54420.1
1604.16251	52285.1
1607.47959	49297.9
1610.79447	46175
1614.10715	43146.6
1617.41763	40517.7
1620.7259	38583.5
1624.03199	37532
1627.33587	37396
1630.63757	38158.6
1633.93707	40115.3
1637.23439	43381.7
1640.52951	48209.8
1643.82246	53732.6
1647.11321	58163.4
1650.40179	59448.1
1653.68819	56544
1656.97241	50687.8
1660.25446	44374
1663.53433	39176.1
1666.81203	35619.2
1670.08756	33326.7
1673.36092	31837.7
1676.63211	30841.6
1679.90115	30184
1683.16801	29714.4
1686.43272	29344.1
1689.69527	29027.1
1692.95567	28806.9
1696.2139	28731
1699.46999	28595.2
1702.72392	28516.7
1705.97571	28410.9
1709.22535	28255
1712.47284	28207
1715.71819	28160.1
1718.96139	28078.9
1722.20246	27930.8
1725.44139	27800.6
1728.67818	27679.4
1731.91284	27552.1
1735.14537	27363
1738.37576	27271.9
1741.60403	27159.9
1744.83017	27068.2
1748.05418	27042.1
1751.27607	27005
1754.49584	26939.6
1757.71349	26914
1760.92903	26844
1764.14244	26833.6
1767.35375	26796.4
1770.56294	26737.9
1773.77002	26682.1
1776.97499	26588.9
1780.17785	26548.5
1783.37861	26466.4
1786.57727	26386.4
1789.77382	26320.8
1792.96828	26298.1
1796.16064	26247.9
1799.3509	26235.6
1802.53907	26168.2
1805.72514	26055
1808.90913	25977.6
1812.09102	25954.3
1815.27083	25902.9
1818.44856	25919.7
1821.6242	25835.6
1824.79776	25841.8
1827.96924	25780.5
1831.13864	25781.5
1834.30597	25758.4
1837.47122	25770
1840.6344	25783.5
1843.7955	25783.2
1846.95454	25802.1
1850.11151	25763.7
1853.26642	25734.6
1856.41926	25713.7
1859.57004	25687.9
1862.71876	25676
1865.86542	25631.2
1869.01003	25566.4
1872.15258	25504.9
1875.29308	25475.6
1878.43152	25411
1881.56792	25351.5
1884.70227	25303.3
1887.83457	25258.6
1890.96482	25242.3
1894.09304	25183.5
1897.21921	25179.3
1900.34335	25101.9
1903.46544	25031
1906.58551	25005.2
1909.70353	24930.5
1912.81953	24865.9
1915.93349	24837.2
1919.04543	24768.1
1922.15534	24746.3
1925.26322	24689
1928.36908	24648.4
1931.47292	24549.1
1934.57473	24465.7
1937.67453	24404.9
1940.77232	24333.5
1943.86808	24314.1
1946.96184	24207.8
1950.05358	24166.2
1953.14331	24060.8
1956.23103	23992.3
1959.31675	23938.5
1962.40046	23837.1
1965.48217	23778.3
1968.56188	23697.8
1971.63959	23601
1974.7153	23586.9
1977.78901	23485.4
1980.86073	23384.7
1983.93046	23272.9
1986.99819	23236.5
1990.06394	23169.9
1993.1277	23086.1
1996.18947	23006.5
1999.24925	22942.8
2002.30706	22815.9
2005.36288	22768.8
2008.41672	22686.5
2011.46859	22642
2014.51848	22570.9
2017.56639	22515.5
2020.61233	22489.3
2023.6563	22394.6
2026.6983	22348.6
2029.73833	22266.5
2032.7764	22214.6
2035.8125	22137.8
2038.84664	22118.7
2041.87881	22041.3
2044.90903	22001.4
2047.93729	21950
2050.96359	21942.6
2053.98794	21932.7
2057.01034	21914.2
2060.03078	21851.3
2063.04927	21832.4
2066.06582	21814.7
2069.08042	21792.6
2072.09307	21762.3
2075.10378	21759
2078.11255	21724.2
2081.11938	21693.6
2084.12426	21703.3
2087.12722	21702.5
2090.12824	21691.5
2093.12732	21722.8
2096.12447	21684.4
2099.11969	21695.7
2102.11299	21692.8
2105.10435	21691.8
2108.09379	21673
2111.08131	21694.3
2114.0669	21704.7
2117.05057	21690.8
2120.03233	21740.3
2123.01216	21746.1
2125.99008	21738.7
2128.96609	21734.8
2131.94018	21730.4
2134.91236	21745.7
2137.88263	21760.1
2140.851	21742.7
2143.81746	21784.5
2146.78201	21754.5
2149.74466	21773.9
2152.7054	21726.8
2155.66425	21719.5
2158.6212	21693.6
2161.57625	21694.9
2164.52941	21672.3
2167.48067	21669.9
2170.43004	21623.8
2173.37752	21586.5
2176.32311	21560.8
2179.26681	21605.9
2182.20863	21583.1
2185.14856	21588.1
2188.08661	21566.4
2191.02278	21600.7
2193.95707	21526.1
2196.88948	21479.5
2199.82001	21506.6
2202.74867	21477.8
2205.67545	21447.8
2208.60037	21414.2
2211.52341	21384.4
2214.44458	21338.3
2217.36388	21291.3
2220.28132	21231.8
2223.1969	21209.9
2226.11061	21208.5
2229.02246	21115.4
2231.93245	21098.9
2234.84058	21094.4
2237.74686	21023.8
2240.65128	21018.7
2243.55385	20943.4
2246.45456	20905.8
2249.35343	20914.4
2252.25044	20839.8
2255.14561	20815
2258.03893	20776.2
2260.93041	20720.1
2263.82004	20624.6
2266.70783	20598.7
2269.59378	20504.1
2272.4779	20477.2
2275.36017	20423.8
2278.24061	20363.9
2281.11922	20338.5
2283.996	20300.8
2286.87094	20278.9
2289.74405	20220
2292.61534	20190.7
2295.4848	20143.8
2298.35243	20125.2
2301.21824	20126.7
2304.08223	20095.5
2306.94439	20088.3
2309.80474	20064
2312.66327	20004.4
2315.51999	19997.4
2318.37489	20020
2321.22797	19925.6
2324.07925	19928.9
2326.92871	19839.2
2329.77637	19883
2332.62222	19838.9
2335.46626	19787.4
2338.3085	19717.5
2341.14893	19744.3
2343.98756	19739.6
2346.8244	19713.9
2349.65943	19719.1
2352.49267	19697.7
2355.32411	19666
2358.15376	19665.6
2360.98161	19654
2363.80768	19618.7
2366.63195	19614.7
2369.45444	19576
2372.27514	19571
2375.09405	19536
2377.91118	19526.8
2380.72652	19474.5
2383.54009	19416.2
2386.35187	19407.8
2389.16188	19339.3
2391.97011	19283.7
2394.77657	19226.9
2397.58125	19183.2
2400.38416	19189.7
2403.18529	19154.4
2405.98466	19150.1
2408.78226	19086.4
2411.57809	19076.2
2414.37216	19028
2417.16446	19036.6
2419.955	19049.5
2422.74378	19027.8
2425.5308	18997.1
2428.31606	18999.2
2431.09956	18978.3
2433.88131	18925.7
2436.6613	18907.1
2439.43954	18890.8
2442.21603	18852.6
2444.99077	18829.2
2447.76377	18815.6
2450.53501	18770.4
2453.30451	18745.8
2456.07226	18728.4
2458.83827	18759.5
2461.60254	18732.3
2464.36507	18732.2
2467.12586	18710
2469.88492	18658.3
2472.64224	18664.2
2475.39782	18640.9
2478.15167	18639.6
2480.90379	18631
2483.65417	18618.7
2486.40283	18613.8
2489.14976	18623.5
2491.89497	18589.2
2494.63845	18612.1
2497.3802	18571.5
2500.12024	18584.9
2502.85855	18540.7
2505.59514	18565.4
2508.33002	18578.3
2511.06318	18549.2
2513.79462	18502.4
2516.52435	18445.7
2519.25237	18421.3
2521.97867	18440.8
2524.70327	18427.5
2527.42616	18369
2530.14734	18365.8
2532.86681	18317.6
2535.58458	18304.3
2538.30065	18241.5
2541.01501	18258.6
2543.72768	18245.9
2546.43864	18185.3
2549.14791	18141.1
2551.85548	18161.4
2554.56136	18131.9
2557.26554	18094.4
2559.96803	18084.4
2562.66883	18020.4
2565.36794	18027.5
2568.06536	17982.8
2570.7611	17945.6
2573.45514	17907.3
2576.14751	17915.2
2578.83819	17865.6
2581.52719	17851.4
2584.21451	17807.1
2586.90015	17764.8
2589.58411	17767.3
2592.2664	17718
2594.94701	17712.1
2597.62594	17692
2600.30321	17641.1
2602.9788	17659.9
2605.65273	17622.4
2608.32498	17569.9
2610.99557	17596
2613.66449	17566.4
2616.33175	17587.4
2618.99734	17559.1
2621.66128	17528.5
2624.32355	17498
2626.98416	17463.9
2629.64311	17451.8
2632.30041	17483.8
2634.95605	17444.1
2637.61004	17416.7
2640.26238	17430.7
2642.91306	17387
2645.56209	17339.6
2648.20948	17333.8
2650.85521	17351.9
2653.4993	17348.5
2656.14175	17348.5
2658.78255	17369.5
2661.42171	17350.8
2664.05923	17371.8
2666.6951	17340.5
2669.32934	17359.1
2671.96194	17360.9
2674.59291	17335.6
2677.22224	17345.3
2679.84993	17349.8
2682.476	17310.6
2685.10043	17319.4
2687.72324	17321.7
2690.34441	17315.1
2692.96396	17278.9
2695.58188	17323.2
2698.19818	17325.9
2700.81285	17290.4
2703.4259	17270.8
2706.03733	17338.9
2708.64714	17316.1
2711.25533	17298.8
2713.86191	17270.6
2716.46687	17269.9
2719.07021	17274.3
2721.67194	17289.6
2724.27206	17255.7
2726.87057	17253.1
2729.46747	17245.8
2732.06276	17298.9
2734.65644	17211.4
2737.24852	17210.5
2739.83899	17184
2742.42786	17179.7
2745.01513	17142.2
2747.60079	17166.7
2750.18486	17152.6
2752.76733	17183.1
2755.3482	17151.7
2757.92747	17147.3
2760.50515	17127.2
2763.08123	17084.3
2765.65573	17059.2
2768.22863	17072.1
2770.79994	17011.9
2773.36967	17002.8
2775.9378	16988.7
2778.50435	16975.7
2781.06932	16992.8
2783.6327	16971.4
2786.1945	16936.3
2788.75471	16890.3
2791.31335	16848.6
2793.87041	16833.9
2796.42589	16743.8
2798.97979	16752.7
2801.53212	16748.6
2804.08288	16722.6
2806.63206	16664.9
2809.17967	16611.7
2811.72571	16583.4
2814.27018	16569.9
2816.81308	16537.4
2819.35442	16511.2
2821.89419	16480.6
2824.43239	16473.2
2826.96904	16446.8
2829.50412	16422.5
2832.03763	16416.3
2834.56959	16388.6
2837.1	16370.7
2839.62884	16397
2842.15613	16359.2
2844.68186	16374.8
2847.20604	16377
2849.72867	16385.8
2852.24974	16363.7
2854.76927	16344.2
2857.28724	16321.1
2859.80367	16302.8
2862.31855	16274.6
2864.83189	16226.2
2867.34368	16178.8
2869.85393	16168.9
2872.36264	16155
2874.8698	16154.8
2877.37543	16150
2879.87952	16134.1
2882.38207	16114.2
2884.88308	16074.2
2887.38256	16137.4
2889.88051	16128.5
2892.37692	16122.2
2894.8718	16117.9
2897.36515	16127.6
2899.85698	16116.4
2902.34727	16086.5
2904.83604	16104.6
2907.32328	16119.8
2909.809	16094.7
2912.29319	16086.7
2914.77587	16066.2
2917.25702	16045.5
2919.73665	16024.9
2922.21476	16048.1
2924.69136	16041.2
2927.16644	16029.7
2929.64	16042.8
2932.11205	16037.4
2934.58258	15957.7
2937.05161	15996.7
2939.51912	16014.9
2941.98513	15967.4
2944.44962	15908.5
2946.91261	15853.6
2949.37409	15866
2951.83407	15868.4
2954.29254	15815.4
2956.74951	15802.2
2959.20498	15802.1
2961.65895	15753.9
2964.11142	15754.2
2966.56239	15718.4
2969.01186	15687.8
2971.45984	15661.5
2973.90632	15648.6
2976.35131	15599.3
2978.7948	15547.7
2981.23681	15502.2
2983.67732	15501.3
2986.11635	15444.5
2988.55388	15404.9
2990.98993	15386.8
2993.4245	15316.2
2995.85758	15306
2998.28917	15262.7
3000.71928	15243.8
3003.14791	15192.1
3005.57506	15156.4
3008.00073	15136.1
3010.42493	15122.8
3012.84764	15038.2
3015.26888	15070.8
3017.68865	15028.2
3020.10694	14992.7
3022.52376	14961.8
3024.9391	14938.4
3027.35298	14864.1
3029.76539	14884
3032.17632	14826.2
3034.5858	14775.6
3036.9938	14764.1
3039.40034	14787.8
3041.80542	14769.2
3044.20903	14735
3046.61118	14732
3049.01187	14682.5
3051.4111	14637.1
3053.80888	14627.9
3056.20519	14587.7
3058.60005	14558.1
3060.99345	14496.7
3063.3854	14490.2
3065.7759	14430.1
3068.16494	14390.8
3070.55254	14309.9
3072.93868	14314
3075.32338	14283.9
3077.70662	14228.8
3080.08842	14200.6
3082.46878	14176.5
3084.84769	14155.2
3087.22515	14176.1
3089.60118	14153.3
3091.97576	14128.3
3094.3489	14082.7
3096.72061	14089.9
3099.09087	14087.7
3101.4597	14040.1
3103.82709	14044.8
3106.19305	14039.7
3108.55757	14028.8
3110.92066	13953.6
3113.28232	13914.9
3115.64255	13868.8
3118.00134	13842.9
3120.35871	13819.4
3122.71466	13803.2
3125.06917	13761
3127.42226	13718.9
3129.77393	13706.7
3132.12417	13714.1
3134.47299	13671.1
3136.82039	13672.9
3139.16636	13668.5
3141.51092	13679.7
3143.85406	13639.5
3146.19579	13657
3148.53609	13681.9
3150.87499	13611.1
3153.21246	13639.6
3155.54853	13648.5
3157.88318	13638.3
3160.21642	13633.8
3162.54826	13582.8
3164.87868	13586.6
3167.2077	13572.5
3169.5353	13528
3171.86151	13550.5
3174.18631	13517.1
3176.5097	13528.1
3178.83169	13537.5
3181.15228	13519.7
3183.47147	13458.8
3185.78926	13467.1
3188.10565	13407.2
3190.42065	13422.5
3192.73424	13380.6
3195.04645	13391.6
3197.35725	13382.6
3199.66667	13371.9
3201.97469	13385.4
3204.28132	13347.7
3206.58656	13362
3208.8904	13360.2
3211.19287	13378.5
3213.49394	13394.1
3215.79363	13357.1
3218.09193	13359.9
3220.38884	13306.4
3222.68438	13338.7
3224.97853	13280.2
3227.2713	13282.4
3229.56269	13238
3231.8527	13229.8
3234.14133	13170.7
3236.42858	13143.9
3238.71446	13135.3
3240.99896	13124
3243.28209	13096.4
3245.56384	13080.3
3247.84423	13089.6
3250.12324	13073.7
3252.40088	13070.4
3254.67715	13034
3256.95205	12991.8
3259.22558	13019.1
3261.49775	12976.7
3263.76855	12942.1
3266.03799	12882
3268.30606	12885.1
3270.57277	12854.5
3272.83812	12821.7
3275.10211	12806.1
3277.36474	12804.1
3279.62601	12797.1
3281.88593	12768.5
3284.14448	12775.6
3286.40168	12736.4
3288.65753	12737.7
3290.91202	12691.9
3293.16516	12653.8
3295.41695	12623.1
3297.66738	12570.8
3299.91647	12542
3302.16421	12445.6
3304.4106	12362.9
3306.65564	12294.7
3308.89933	12230.7
3311.14169	12146.4
3313.38269	12059.4
3315.62236	11993.1
3317.86068	11869.7
3320.09766	11744.3
3322.3333	11633
3324.5676	11621.4
3326.80056	11419.5
3329.03219	11398.6
3331.26248	2.4
3333.49143	-0.7
3335.71905	-0.4
