Data from AgNPs_FTO_APTES_UA_2uM_CRN_0uM_R6G_10uM_NaF_0.1M_Addition_RamanShift__8__10-13-44-922.txt Node

Date: Wed Feb 02 10:13:44 GMT 2022
User: TCL
Spectrometer: QEP01345
Trigger mode: 4
Integration Time (sec): 7.000000E0
Scans to average: 10
Electric dark correction enabled: true
Nonlinearity correction enabled: false
Boxcar width: 0
XAxis mode: Raman Shifts
Number of Pixels in Spectrum: 1044
>>>>>Begin Spectral Data<<<<<
46.04893	0.625
50.45542	0.425
54.85868	-1.475
59.25871	0.025
63.6555	26.025
68.04907	29.925
72.43941	33.625
76.82654	40.125
81.21044	40.225
85.59113	43.625
89.96862	43.225
94.34289	46.125
98.71396	47.125
103.08183	48.525
107.4465	52.225
111.80798	50.025
116.16626	50.625
120.52136	55.625
124.87327	106.225
129.222	61.425
133.56755	53.725
137.90993	51.825
142.24913	55.325
146.58517	59.625
150.91804	64.825
155.24774	73.125
159.57429	85.825
163.89768	103.225
168.21792	123.325
172.53501	160.525
176.84895	211.025
181.15975	296.525
185.46741	402.825
189.77193	561.225
194.07331	760.225
198.37157	999.625
202.6667	1255.725
206.9587	1524.325
211.24758	1781.825
215.53334	2063.625
219.81599	2360.025
224.09553	2663.125
228.37195	3024.025
232.64527	3431.325
236.91549	3836.425
241.18261	4280.425
245.44663	4708.225
249.70755	5096.225
253.96539	5417.125
258.22014	5675.625
262.4718	5822.325
266.72039	5854.325
270.96589	5794.925
275.20832	5632.325
279.44768	5399.625
283.68397	5124.625
287.91719	4869.625
292.14735	4618.625
296.37445	4404.325
300.59849	4223.425
304.81948	4075.225
309.03742	3966.225
313.25231	3871.325
317.46415	3779.925
321.67296	3700.625
325.87872	3622.325
330.08145	3578.025
334.28114	3568.125
338.47781	3568.925
342.67145	3573.225
346.86207	3578.125
351.04966	3595.425
355.23424	3618.025
359.4158	3607.825
363.59435	3586.025
367.76989	3561.525
371.94243	3521.725
376.11196	3481.925
380.27849	3438.725
384.44203	3386.425
388.60257	3350.125
392.76012	3306.425
396.91468	3299.625
401.06626	3294.525
405.21485	3278.025
409.36047	3280.925
413.50311	3210.225
417.64277	3181.125
421.77947	3160.625
425.9132	3168.225
430.04396	3176.725
434.17176	3193.525
438.2966	3205.125
442.41849	3231.425
446.53742	3251.725
450.6534	3283.125
454.76644	3300.325
458.87653	3295.925
462.98368	3300.925
467.08789	3276.925
471.18916	3250.225
475.2875	3243.825
479.38291	3204.825
483.4754	3176.825
487.56496	3162.625
491.6516	3147.425
495.73531	3134.325
499.81612	3108.225
503.89401	3098.825
507.96899	3099.225
512.04106	3104.625
516.11023	3105.625
520.1765	3123.125
524.23987	3152.225
528.30034	3161.725
532.35792	3189.125
536.41261	3220.025
540.46441	3244.525
544.51333	3264.525
548.55936	3308.525
552.60252	3350.925
556.64279	3404.125
560.6802	3442.225
564.71473	3491.025
568.7464	3535.825
572.7752	3577.525
576.80114	3560.925
580.82422	3513.725
584.84444	3459.625
588.86181	3419.325
592.87633	3398.025
596.888	3420.925
600.89682	3454.625
604.9028	3608.525
608.90594	3944.225
612.90624	4429.425
616.90371	4619.925
620.89834	4411.225
624.89015	4262.325
628.87913	4071.225
632.86528	3840.925
636.84862	3569.125
640.82913	3338.825
644.80683	3178.425
648.78172	3079.825
652.75379	3050.925
656.72306	3065.925
660.68952	3112.925
664.65319	3136.625
668.61405	3148.725
672.57211	3183.025
676.52738	3263.125
680.47986	3358.525
684.42955	3414.225
688.37646	3437.325
692.32058	3452.125
696.26192	3421.425
700.20048	3394.225
704.13626	3379.525
708.06928	3363.325
711.99952	3332.925
715.927	3302.025
719.85171	3271.325
723.77365	3241.425
727.69284	3211.125
731.60928	3187.725
735.52295	3153.525
739.43388	3146.025
743.34206	3134.625
747.24749	3128.125
751.15017	3131.225
755.05012	3154.125
758.94733	3183.825
762.8418	3242.525
766.73354	3362.325
770.62254	3515.925
774.50882	3608.425
778.39237	3567.425
782.27321	3432.425
786.15132	3286.325
790.02671	3228.125
793.89938	3199.825
797.76935	3201.225
801.6366	3203.825
805.50115	3198.325
809.36299	3226.825
813.22213	3213.325
817.07857	3235.125
820.93231	3235.025
824.78336	3216.025
828.63172	3232.825
832.47738	3232.525
836.32036	3235.325
840.16066	3248.425
843.99827	3255.825
847.8332	3269.125
851.66546	3257.125
855.49504	3288.425
859.32195	3303.625
863.1462	3335.525
866.96777	3378.825
870.78668	3426.325
874.60293	3462.425
878.41652	3515.525
882.22745	3559.125
886.03573	3650.025
889.84136	3750.425
893.64433	3852.025
897.44466	3966.825
901.24235	4102.725
905.0374	4268.325
908.8298	4456.925
912.61957	4649.225
916.40671	4822.425
920.19121	4967.025
923.97308	5074.025
927.75233	5098.125
931.52895	5092.525
935.30295	4969.025
939.07433	4785.825
942.84309	4629.125
946.60924	4443.925
950.37278	4304.425
954.13371	4185.225
957.89203	4088.225
961.64774	3999.125
965.40086	3926.625
969.15137	3823.625
972.89929	3796.025
976.64461	3718.225
980.38733	3686.425
984.12747	3635.425
987.86502	3608.125
991.59999	3593.125
995.33237	3575.525
999.06217	3579.425
1002.78939	3581.325
1006.51404	3595.525
1010.23611	3607.525
1013.95561	3623.225
1017.67255	3631.825
1021.38692	3617.625
1025.09872	3622.825
1028.80796	3642.025
1032.51465	3673.625
1036.21877	3714.325
1039.92035	3786.625
1043.61937	3862.425
1047.31584	3928.225
1051.00976	3966.425
1054.70114	3997.725
1058.38998	3982.825
1062.07627	3927.225
1065.76003	3844.325
1069.44126	3730.325
1073.11995	3646.625
1076.79611	3557.125
1080.46974	3496.525
1084.14085	3447.525
1087.80943	3406.425
1091.47549	3382.325
1095.13903	3340.925
1098.80005	3291.225
1102.45857	3252.025
1106.11456	3221.825
1109.76805	3195.225
1113.41903	3182.025
1117.06751	3198.925
1120.71348	3231.825
1124.35696	3263.125
1127.99793	3326.525
1131.63641	3354.425
1135.2724	3302.725
1138.90589	3232.425
1142.5369	3184.025
1146.16542	3157.025
1149.79145	3127.525
1153.415	3122.125
1157.03607	3116.825
1160.65467	3117.525
1164.27079	3159.025
1167.88443	3199.125
1171.49561	3287.525
1175.10432	3396.725
1178.71056	3550.925
1182.31434	3690.925
1185.91565	3765.125
1189.51451	3778.625
1193.11091	3739.625
1196.70485	3639.925
1200.29634	3544.625
1203.88538	3454.425
1207.47197	3373.725
1211.05612	3314.125
1214.63782	3276.825
1218.21708	3258.025
1221.79391	3261.025
1225.36829	3275.925
1228.94024	3297.825
1232.50976	3308.425
1236.07685	3321.925
1239.6415	3319.625
1243.20374	3325.825
1246.76355	3331.525
1250.32093	3336.025
1253.8759	3368.725
1257.42845	3398.125
1260.97859	3452.525
1264.52631	3505.325
1268.07163	3542.925
1271.61453	3590.725
1275.15503	3640.425
1278.69312	3646.225
1282.22882	3682.025
1285.76211	3726.725
1289.29301	3789.725
1292.82151	3891.425
1296.34761	3965.925
1299.87133	4032.025
1303.39266	4146.925
1306.9116	4269.525
1310.42815	4416.125
1313.94233	4513.625
1317.45412	4457.725
1320.96354	4345.325
1324.47058	4237.825
1327.97525	4161.625
1331.47754	4103.725
1334.97747	4084.025
1338.47502	4110.725
1341.97022	4165.325
1345.46305	4229.825
1348.95352	4333.225
1352.44163	4464.225
1355.92738	4652.725
1359.41078	4864.625
1362.89183	5138.325
1366.37053	5215.125
1369.84688	4979.425
1373.32088	4672.625
1376.79254	4448.525
1380.26186	4359.725
1383.72883	4336.525
1387.19347	4326.425
1390.65578	4309.825
1394.11575	4311.625
1397.57339	4302.925
1401.0287	4291.025
1404.48168	4257.225
1407.93234	4207.125
1411.38068	4156.525
1414.82669	4109.225
1418.27039	4061.025
1421.71177	4010.425
1425.15083	3963.025
1428.58758	3898.525
1432.02203	3843.825
1435.45416	3841.325
1438.88399	3829.725
1442.31151	3765.425
1445.73673	3757.925
1449.15965	3711.525
1452.58027	3706.325
1455.9986	3695.925
1459.41463	3671.825
1462.82837	3660.125
1466.23982	3672.125
1469.64898	3669.725
1473.05586	3685.525
1476.46045	3682.825
1479.86276	3713.625
1483.26279	3699.725
1486.66054	3735.725
1490.05602	3770.325
1493.44922	3812.625
1496.84016	3893.325
1500.22882	4024.425
1503.61521	4191.225
1506.99934	4392.525
1510.38121	4567.125
1513.76081	4623.925
1517.13816	4495.925
1520.51324	4261.725
1523.88607	4048.325
1527.25665	3915.125
1530.62498	3826.525
1533.99105	3754.225
1537.35488	3720.925
1540.71647	3694.325
1544.07581	3673.125
1547.4329	3638.025
1550.78776	3612.325
1554.14038	3599.425
1557.49077	3582.925
1560.83892	3585.725
1564.18484	3588.525
1567.52853	3587.525
1570.86999	3608.325
1574.20922	3632.625
1577.54624	3621.025
1580.88103	3558.925
1584.2136	3475.225
1587.54395	3402.325
1590.87208	3384.625
1594.19801	3387.125
1597.52172	3420.025
1600.84321	3448.725
1604.16251	3393.925
1607.47959	3356.225
1610.79447	3302.825
1614.10715	3246.525
1617.41763	3207.625
1620.7259	3157.425
1624.03199	3128.125
1627.33587	3126.525
1630.63757	3135.325
1633.93707	3157.225
1637.23439	3190.425
1640.52951	3259.625
1643.82246	3361.025
1647.11321	3486.125
1650.40179	3567.125
1653.68819	3504.025
1656.97241	3338.025
1660.25446	3106.225
1663.53433	2932.525
1666.81203	2831.325
1670.08756	2743.625
1673.36092	2693.925
1676.63211	2652.025
1679.90115	2618.325
1683.16801	2577.025
1686.43272	2569.325
1689.69527	2541.425
1692.95567	2514.025
1696.2139	2504.925
1699.46999	2483.925
1702.72392	2460.525
1705.97571	2467.825
1709.22535	2451.325
1712.47284	2450.925
1715.71819	2451.725
1718.96139	2445.125
1722.20246	2440.025
1725.44139	2443.925
1728.67818	2428.525
1731.91284	2410.425
1735.14537	2403.525
1738.37576	2399.525
1741.60403	2402.525
1744.83017	2384.925
1748.05418	2389.625
1751.27607	2385.925
1754.49584	2388.325
1757.71349	2384.225
1760.92903	2377.225
1764.14244	2372.025
1767.35375	2362.825
1770.56294	2358.425
1773.77002	2345.525
1776.97499	2338.825
1780.17785	2337.625
1783.37861	2331.925
1786.57727	2323.825
1789.77382	2326.325
1792.96828	2323.025
1796.16064	2304.725
1799.3509	2297.725
1802.53907	2296.425
1805.72514	2299.725
1808.90913	2284.725
1812.09102	2281.625
1815.27083	2267.325
1818.44856	2265.825
1821.6242	2259.725
1824.79776	2268.925
1827.96924	2261.225
1831.13864	2250.425
1834.30597	2260.825
1837.47122	2257.025
1840.6344	2241.025
1843.7955	2256.825
1846.95454	2254.025
1850.11151	2246.725
1853.26642	2250.625
1856.41926	2236.425
1859.57004	2245.525
1862.71876	2235.825
1865.86542	2232.125
1869.01003	2233.025
1872.15258	2230.725
1875.29308	2217.625
1878.43152	2221.325
1881.56792	2224.325
1884.70227	2212.525
1887.83457	2202.925
1890.96482	2202.825
1894.09304	2202.825
1897.21921	2200.225
1900.34335	2198.825
1903.46544	2189.325
1906.58551	2188.725
1909.70353	2183.925
1912.81953	2187.325
1915.93349	2200.925
1919.04543	2195.625
1922.15534	2180.725
1925.26322	2168.525
1928.36908	2171.325
1931.47292	2173.025
1934.57473	2160.625
1937.67453	2159.725
1940.77232	2164.625
1943.86808	2170.525
1946.96184	2146.325
1950.05358	2138.825
1953.14331	2123.925
1956.23103	2134.625
1959.31675	2124.225
1962.40046	2113.525
1965.48217	2113.725
1968.56188	2116.025
1971.63959	2103.725
1974.7153	2093.525
1977.78901	2091.225
1980.86073	2078.425
1983.93046	2076.525
1986.99819	2071.925
1990.06394	2074.125
1993.1277	2075.925
1996.18947	2051.625
1999.24925	2051.125
2002.30706	2052.725
2005.36288	2044.225
2008.41672	2039.925
2011.46859	2044.925
2014.51848	2040.125
2017.56639	2040.225
2020.61233	2045.625
2023.6563	2037.325
2026.6983	2054.225
2029.73833	2053.625
2032.7764	2058.525
2035.8125	2080.825
2038.84664	2082.725
2041.87881	2112.825
2044.90903	2114.125
2047.93729	2142.025
2050.96359	2176.325
2053.98794	2203.425
2057.01034	2229.525
2060.03078	2257.125
2063.04927	2273.925
2066.06582	2317.125
2069.08042	2335.325
2072.09307	2358.125
2075.10378	2384.625
2078.11255	2403.425
2081.11938	2416.125
2084.12426	2436.125
2087.12722	2439.525
2090.12824	2437.025
2093.12732	2434.925
2096.12447	2413.325
2099.11969	2415.525
2102.11299	2393.525
2105.10435	2376.025
2108.09379	2347.925
2111.08131	2325.425
2114.0669	2295.525
2117.05057	2256.825
2120.03233	2234.525
2123.01216	2195.725
2125.99008	2164.725
2128.96609	2130.825
2131.94018	2111.525
2134.91236	2082.825
2137.88263	2071.825
2140.851	2062.625
2143.81746	2034.425
2146.78201	2023.425
2149.74466	2015.825
2152.7054	2001.725
2155.66425	1991.125
2158.6212	1984.425
2161.57625	1982.425
2164.52941	1971.825
2167.48067	1972.125
2170.43004	1970.825
2173.37752	1964.325
2176.32311	1953.025
2179.26681	1949.425
2182.20863	1958.425
2185.14856	1954.425
2188.08661	1945.025
2191.02278	1953.425
2193.95707	1947.525
2196.88948	1928.325
2199.82001	1937.525
2202.74867	1938.425
2205.67545	1934.125
2208.60037	1936.325
2211.52341	1920.925
2214.44458	1923.025
2217.36388	1933.625
2220.28132	1920.125
2223.1969	1916.825
2226.11061	1907.925
2229.02246	1902.325
2231.93245	1903.125
2234.84058	1899.925
2237.74686	1900.225
2240.65128	1903.325
2243.55385	1891.225
2246.45456	1890.525
2249.35343	1894.925
2252.25044	1880.025
2255.14561	1873.025
2258.03893	1876.825
2260.93041	1867.125
2263.82004	1874.125
2266.70783	1865.025
2269.59378	1864.625
2272.4779	1861.525
2275.36017	1854.625
2278.24061	1840.025
2281.11922	1832.025
2283.996	1837.425
2286.87094	1844.125
2289.74405	1828.125
2292.61534	1810.125
2295.4848	1825.525
2298.35243	1826.625
2301.21824	1816.825
2304.08223	1810.825
2306.94439	1810.825
2309.80474	1810.025
2312.66327	1803.825
2315.51999	1809.725
2318.37489	1798.925
2321.22797	1790.125
2324.07925	1793.825
2326.92871	1797.025
2329.77637	1801.125
2332.62222	1798.825
2335.46626	1797.625
2338.3085	1788.125
2341.14893	1789.725
2343.98756	1781.025
2346.8244	1775.025
2349.65943	1773.325
2352.49267	1774.125
2355.32411	1770.325
2358.15376	1762.525
2360.98161	1763.625
2363.80768	1768.825
2366.63195	1763.625
2369.45444	1774.025
2372.27514	1763.025
2375.09405	1763.925
2377.91118	1749.725
2380.72652	1748.425
2383.54009	1746.325
2386.35187	1754.325
2389.16188	1740.425
2391.97011	1734.525
2394.77657	1735.125
2397.58125	1729.325
2400.38416	1725.325
2403.18529	1721.725
2405.98466	1721.125
2408.78226	1716.525
2411.57809	1720.425
2414.37216	1704.825
2417.16446	1717.525
2419.955	1708.725
2422.74378	1706.725
2425.5308	1707.025
2428.31606	1695.225
2431.09956	1706.725
2433.88131	1691.525
2436.6613	1700.025
2439.43954	1699.125
2442.21603	1689.525
2444.99077	1685.525
2447.76377	1694.125
2450.53501	1685.925
2453.30451	1690.725
2456.07226	1690.125
2458.83827	1687.525
2461.60254	1684.825
2464.36507	1679.025
2467.12586	1674.925
2469.88492	1661.125
2472.64224	1673.925
2475.39782	1668.925
2478.15167	1672.125
2480.90379	1656.625
2483.65417	1674.825
2486.40283	1669.125
2489.14976	1674.025
2491.89497	1657.425
2494.63845	1659.825
2497.3802	1656.025
2500.12024	1652.125
2502.85855	1653.425
2505.59514	1661.425
2508.33002	1643.925
2511.06318	1652.625
2513.79462	1646.625
2516.52435	1645.125
2519.25237	1642.725
2521.97867	1636.225
2524.70327	1640.025
2527.42616	1634.625
2530.14734	1637.725
2532.86681	1614.325
2535.58458	1627.125
2538.30065	1627.725
2541.01501	1616.325
2543.72768	1613.225
2546.43864	1619.325
2549.14791	1605.125
2551.85548	1614.425
2554.56136	1599.525
2557.26554	1596.925
2559.96803	1597.525
2562.66883	1592.025
2565.36794	1593.425
2568.06536	1597.125
2570.7611	1584.525
2573.45514	1590.525
2576.14751	1582.725
2578.83819	1582.925
2581.52719	1583.825
2584.21451	1582.125
2586.90015	1568.425
2589.58411	1571.925
2592.2664	1573.025
2594.94701	1569.025
2597.62594	1559.825
2600.30321	1555.225
2602.9788	1551.225
2605.65273	1553.725
2608.32498	1550.125
2610.99557	1547.725
2613.66449	1544.625
2616.33175	1549.125
2618.99734	1534.625
2621.66128	1545.525
2624.32355	1548.525
2626.98416	1534.825
2629.64311	1537.025
2632.30041	1533.725
2634.95605	1531.925
2637.61004	1532.525
2640.26238	1523.725
2642.91306	1535.125
2645.56209	1522.325
2648.20948	1524.125
2650.85521	1519.825
2653.4993	1513.225
2656.14175	1518.225
2658.78255	1520.025
2661.42171	1525.825
2664.05923	1523.725
2666.6951	1516.125
2669.32934	1525.825
2671.96194	1532.025
2674.59291	1527.725
2677.22224	1527.225
2679.84993	1527.225
2682.476	1531.625
2685.10043	1528.325
2687.72324	1537.025
2690.34441	1533.325
2692.96396	1524.925
2695.58188	1530.425
2698.19818	1529.225
2700.81285	1537.425
2703.4259	1525.925
2706.03733	1504.425
2708.64714	1518.025
2711.25533	1524.525
2713.86191	1523.325
2716.46687	1532.625
2719.07021	1534.125
2721.67194	1536.225
2724.27206	1531.125
2726.87057	1532.525
2729.46747	1533.125
2732.06276	1529.125
2734.65644	1531.925
2737.24852	1533.225
2739.83899	1523.025
2742.42786	1534.425
2745.01513	1528.825
2747.60079	1518.025
2750.18486	1511.225
2752.76733	1519.325
2755.3482	1521.125
2757.92747	1516.325
2760.50515	1523.825
2763.08123	1524.225
2765.65573	1515.025
2768.22863	1515.825
2770.79994	1511.225
2773.36967	1507.325
2775.9378	1513.225
2778.50435	1505.025
2781.06932	1502.025
2783.6327	1504.925
2786.1945	1504.025
2788.75471	1499.625
2791.31335	1494.725
2793.87041	1498.025
2796.42589	1489.525
2798.97979	1487.425
2801.53212	1483.825
2804.08288	1487.725
2806.63206	1476.025
2809.17967	1489.025
2811.72571	1471.725
2814.27018	1478.125
2816.81308	1481.125
2819.35442	1477.225
2821.89419	1476.825
2824.43239	1484.325
2826.96904	1476.625
2829.50412	1480.125
2832.03763	1478.025
2834.56959	1483.925
2837.1	1485.725
2839.62884	1491.625
2842.15613	1501.925
2844.68186	1520.025
2847.20604	1541.725
2849.72867	1545.925
2852.24974	1550.225
2854.76927	1542.625
2857.28724	1543.725
2859.80367	1552.725
2862.31855	1567.725
2864.83189	1558.225
2867.34368	1559.925
2869.85393	1573.225
2872.36264	1581.825
2874.8698	1585.425
2877.37543	1580.025
2879.87952	1589.025
2882.38207	1604.125
2884.88308	1605.925
2887.38256	1618.025
2889.88051	1617.125
2892.37692	1628.825
2894.8718	1628.825
2897.36515	1654.225
2899.85698	1648.225
2902.34727	1659.925
2904.83604	1678.025
2907.32328	1672.525
2909.809	1680.025
2912.29319	1686.625
2914.77587	1695.225
2917.25702	1691.125
2919.73665	1693.325
2922.21476	1701.625
2924.69136	1702.025
2927.16644	1710.125
2929.64	1691.625
2932.11205	1696.325
2934.58258	1696.025
2937.05161	1689.825
2939.51912	1683.325
2941.98513	1664.925
2944.44962	1657.925
2946.91261	1633.125
2949.37409	1627.825
2951.83407	1599.025
2954.29254	1591.625
2956.74951	1580.225
2959.20498	1572.825
2961.65895	1561.625
2964.11142	1546.725
2966.56239	1548.525
2969.01186	1531.525
2971.45984	1519.725
2973.90632	1504.725
2976.35131	1489.425
2978.7948	1497.125
2981.23681	1483.625
2983.67732	1483.525
2986.11635	1468.425
2988.55388	1451.225
2990.98993	1460.625
2993.4245	1456.325
2995.85758	1445.625
2998.28917	1438.525
3000.71928	1441.725
3003.14791	1441.025
3005.57506	1442.725
3008.00073	1440.825
3010.42493	1433.425
3012.84764	1433.425
3015.26888	1431.225
3017.68865	1429.025
3020.10694	1436.525
3022.52376	1426.725
3024.9391	1418.425
3027.35298	1428.425
3029.76539	1416.425
3032.17632	1413.925
3034.5858	1419.925
3036.9938	1414.525
3039.40034	1420.325
3041.80542	1411.225
3044.20903	1403.325
3046.61118	1409.125
3049.01187	1415.025
3051.4111	1407.025
3053.80888	1417.325
3056.20519	1408.725
3058.60005	1407.425
3060.99345	1409.325
3063.3854	1408.025
3065.7759	1412.125
3068.16494	1413.325
3070.55254	1405.625
3072.93868	1422.325
3075.32338	1419.225
3077.70662	1411.525
3080.08842	1408.025
3082.46878	1414.125
3084.84769	1414.825
3087.22515	1421.425
3089.60118	1425.425
3091.97576	1428.425
3094.3489	1433.825
3096.72061	1438.725
3099.09087	1440.925
3101.4597	1436.825
3103.82709	1444.925
3106.19305	1451.425
3108.55757	1456.225
3110.92066	1456.725
3113.28232	1450.425
3115.64255	1446.525
3118.00134	1463.625
3120.35871	1458.925
3122.71466	1455.125
3125.06917	1466.025
3127.42226	1477.325
3129.77393	1470.425
3132.12417	1483.025
3134.47299	1480.825
3136.82039	1488.825
3139.16636	1504.725
3141.51092	1496.925
3143.85406	1518.725
3146.19579	1511.825
3148.53609	1530.725
3150.87499	1539.125
3153.21246	1536.025
3155.54853	1541.625
3157.88318	1547.025
3160.21642	1558.625
3162.54826	1557.925
3164.87868	1571.725
3167.2077	1574.625
3169.5353	1576.625
3171.86151	1584.425
3174.18631	1574.825
3176.5097	1581.625
3178.83169	1595.725
3181.15228	1604.425
3183.47147	1593.125
3185.78926	1593.725
3188.10565	1607.525
3190.42065	1614.625
3192.73424	1614.125
3195.04645	1619.425
3197.35725	1638.125
3199.66667	1635.525
3201.97469	1636.925
3204.28132	1645.125
3206.58656	1642.825
3208.8904	1654.825
3211.19287	1660.825
3213.49394	1663.725
3215.79363	1663.525
3218.09193	1666.725
3220.38884	1671.525
3222.68438	1668.325
3224.97853	1671.925
3227.2713	1669.525
3229.56269	1666.825
3231.8527	1669.525
3234.14133	1667.525
3236.42858	1669.825
