Data from AgNPs_FTO_APTES_UA_2uM_CRN_0uM_R6G_10uM_NaF_0.1M_Addition_RamanShift__9__10-14-54-923.txt Node

Date: Wed Feb 02 10:14:54 GMT 2022
User: TCL
Spectrometer: QEP01345
Trigger mode: 4
Integration Time (sec): 7.000000E0
Scans to average: 10
Electric dark correction enabled: true
Nonlinearity correction enabled: false
Boxcar width: 0
XAxis mode: Raman Shifts
Number of Pixels in Spectrum: 1044
>>>>>Begin Spectral Data<<<<<
46.04893	1.2875
50.45542	0.0875
54.85868	-0.5125
59.25871	0.1875
63.6555	24.7875
68.04907	29.1875
72.43941	27.1875
76.82654	33.0875
81.21044	36.0875
85.59113	39.2875
89.96862	38.1875
94.34289	41.1875
98.71396	41.5875
103.08183	45.6875
107.4465	46.0875
111.80798	45.8875
116.16626	45.4875
120.52136	45.0875
124.87327	45.0875
129.222	44.0875
133.56755	46.8875
137.90993	47.3875
142.24913	48.1875
146.58517	56.8875
150.91804	58.3875
155.24774	67.8875
159.57429	78.5875
163.89768	92.2875
168.21792	116.6875
172.53501	150.4875
176.84895	199.0875
181.15975	277.5875
185.46741	385.0875
189.77193	529.2875
194.07331	719.9875
198.37157	941.2875
202.6667	1190.0875
206.9587	1446.3875
211.24758	1703.1875
215.53334	1960.0875
219.81599	2233.3875
224.09553	2538.7875
228.37195	2883.1875
232.64527	3256.9875
236.91549	3664.1875
241.18261	4085.5875
245.44663	4503.6875
249.70755	4876.7875
253.96539	5192.7875
258.22014	5435.5875
262.4718	5597.6875
266.72039	5615.4875
270.96589	5546.6875
275.20832	5372.9875
279.44768	5157.7875
283.68397	4879.0875
287.91719	4624.6875
292.14735	4370.3875
296.37445	4154.9875
300.59849	3975.1875
304.81948	3847.5875
309.03742	3734.8875
313.25231	3647.8875
317.46415	3568.4875
321.67296	3467.3875
325.87872	3396.5875
330.08145	3363.9875
334.28114	3347.8875
338.47781	3342.1875
342.67145	3349.8875
346.86207	3337.7875
351.04966	3364.6875
355.23424	3389.8875
359.4158	3386.2875
363.59435	3372.3875
367.76989	3335.6875
371.94243	3299.1875
376.11196	3261.5875
380.27849	3223.6875
384.44203	3176.4875
388.60257	3147.8875
392.76012	3112.4875
396.91468	3104.4875
401.06626	3097.1875
405.21485	3111.8875
409.36047	3096.8875
413.50311	3099.2875
417.64277	3180.8875
421.77947	3198.1875
425.9132	3055.7875
430.04396	2988.5875
434.17176	3005.0875
438.2966	3028.7875
442.41849	3055.5875
446.53742	3068.6875
450.6534	3082.9875
454.76644	3112.9875
458.87653	3114.0875
462.98368	3109.9875
467.08789	3082.8875
471.18916	3069.7875
475.2875	3048.1875
479.38291	3007.8875
483.4754	2999.5875
487.56496	2978.2875
491.6516	2961.8875
495.73531	2944.5875
499.81612	2920.6875
503.89401	2902.3875
507.96899	2923.1875
512.04106	2924.7875
516.11023	2933.9875
520.1765	2957.1875
524.23987	2975.6875
528.30034	3004.8875
532.35792	3039.4875
536.41261	3057.9875
540.46441	3080.9875
544.51333	3104.2875
548.55936	3141.6875
552.60252	3185.1875
556.64279	3235.9875
560.6802	3273.3875
564.71473	3321.2875
568.7464	3383.6875
572.7752	3399.3875
576.80114	3381.0875
580.82422	3338.3875
584.84444	3284.5875
588.86181	3226.9875
592.87633	3225.7875
596.888	3213.5875
600.89682	3271.2875
604.9028	3429.2875
608.90594	3751.5875
612.90624	4233.7875
616.90371	4420.2875
620.89834	4257.5875
624.89015	4101.0875
628.87913	3959.8875
632.86528	3718.4875
636.84862	3416.8875
640.82913	3188.7875
644.80683	3022.4875
648.78172	2918.0875
652.75379	2894.4875
656.72306	2913.1875
660.68952	2947.7875
664.65319	2962.1875
668.61405	2969.0875
672.57211	3022.2875
676.52738	3098.9875
680.47986	3174.8875
684.42955	3229.4875
688.37646	3261.5875
692.32058	3271.8875
696.26192	3219.7875
700.20048	3225.8875
704.13626	3216.3875
708.06928	3201.7875
711.99952	3149.1875
715.927	3125.3875
719.85171	3083.8875
723.77365	3065.7875
727.69284	3019.6875
731.60928	3001.0875
735.52295	2987.5875
739.43388	2963.2875
743.34206	2964.9875
747.24749	2948.4875
751.15017	2964.9875
755.05012	2972.0875
758.94733	3000.3875
762.8418	3060.6875
766.73354	3179.6875
770.62254	3321.8875
774.50882	3418.5875
778.39237	3377.9875
782.27321	3243.6875
786.15132	3134.3875
790.02671	3053.0875
793.89938	3029.6875
797.76935	3016.6875
801.6366	3014.9875
805.50115	3031.5875
809.36299	3041.7875
813.22213	3044.3875
817.07857	3055.0875
820.93231	3059.1875
824.78336	3057.1875
828.63172	3064.6875
832.47738	3053.3875
836.32036	3062.5875
840.16066	3086.6875
843.99827	3096.5875
847.8332	3094.9875
851.66546	3100.1875
855.49504	3113.6875
859.32195	3144.4875
863.1462	3173.9875
866.96777	3216.2875
870.78668	3254.0875
874.60293	3288.6875
878.41652	3347.2875
882.22745	3389.5875
886.03573	3471.2875
889.84136	3568.8875
893.64433	3676.9875
897.44466	3807.6875
901.24235	3943.5875
905.0374	4122.5875
908.8298	4286.2875
912.61957	4485.4875
916.40671	4644.4875
920.19121	4774.2875
923.97308	4857.4875
927.75233	4900.2875
931.52895	4869.7875
935.30295	4759.4875
939.07433	4584.7875
942.84309	4427.9875
946.60924	4282.8875
950.37278	4126.8875
954.13371	4004.7875
957.89203	3922.3875
961.64774	3826.1875
965.40086	3731.0875
969.15137	3677.7875
972.89929	3637.7875
976.64461	3548.5875
980.38733	3536.9875
984.12747	3482.7875
987.86502	3460.6875
991.59999	3434.0875
995.33237	3407.3875
999.06217	3415.6875
1002.78939	3431.1875
1006.51404	3438.1875
1010.23611	3436.8875
1013.95561	3457.1875
1017.67255	3464.1875
1021.38692	3465.8875
1025.09872	3480.8875
1028.80796	3499.0875
1032.51465	3522.3875
1036.21877	3561.3875
1039.92035	3622.4875
1043.61937	3703.6875
1047.31584	3750.2875
1051.00976	3825.0875
1054.70114	3842.4875
1058.38998	3808.7875
1062.07627	3754.7875
1065.76003	3655.9875
1069.44126	3563.9875
1073.11995	3471.7875
1076.79611	3388.2875
1080.46974	3327.2875
1084.14085	3275.3875
1087.80943	3230.9875
1091.47549	3206.7875
1095.13903	3161.3875
1098.80005	3121.7875
1102.45857	3090.3875
1106.11456	3056.5875
1109.76805	3033.8875
1113.41903	3031.3875
1117.06751	3032.2875
1120.71348	3060.6875
1124.35696	3092.8875
1127.99793	3143.1875
1131.63641	3176.0875
1135.2724	3118.0875
1138.90589	3059.7875
1142.5369	3017.0875
1146.16542	2989.5875
1149.79145	2971.5875
1153.415	2955.5875
1157.03607	2956.2875
1160.65467	2961.4875
1164.27079	2992.1875
1167.88443	3034.6875
1171.49561	3100.2875
1175.10432	3203.8875
1178.71056	3352.7875
1182.31434	3481.0875
1185.91565	3549.3875
1189.51451	3565.6875
1193.11091	3505.3875
1196.70485	3429.1875
1200.29634	3317.1875
1203.88538	3254.5875
1207.47197	3193.2875
1211.05612	3134.7875
1214.63782	3109.8875
1218.21708	3085.7875
1221.79391	3083.6875
1225.36829	3090.8875
1228.94024	3137.4875
1232.50976	3109.4875
1236.07685	3143.8875
1239.6415	3134.7875
1243.20374	3148.8875
1246.76355	3152.6875
1250.32093	3157.1875
1253.8759	3188.8875
1257.42845	3235.7875
1260.97859	3255.3875
1264.52631	3325.2875
1268.07163	3358.2875
1271.61453	3399.7875
1275.15503	3430.8875
1278.69312	3460.5875
1282.22882	3476.2875
1285.76211	3524.5875
1289.29301	3573.9875
1292.82151	3643.7875
1296.34761	3704.4875
1299.87133	3819.1875
1303.39266	3906.5875
1306.9116	4025.5875
1310.42815	4170.4875
1313.94233	4241.3875
1317.45412	4193.5875
1320.96354	4089.1875
1324.47058	3992.6875
1327.97525	3915.2875
1331.47754	3852.8875
1334.97747	3853.0875
1338.47502	3862.9875
1341.97022	3908.8875
1345.46305	3975.7875
1348.95352	4069.3875
1352.44163	4204.8875
1355.92738	4367.5875
1359.41078	4567.2875
1362.89183	4828.8875
1366.37053	4904.5875
1369.84688	4665.0875
1373.32088	4367.1875
1376.79254	4174.5875
1380.26186	4096.3875
1383.72883	4064.5875
1387.19347	4047.0875
1390.65578	4037.8875
1394.11575	4035.3875
1397.57339	4009.4875
1401.0287	4015.1875
1404.48168	3994.2875
1407.93234	3946.6875
1411.38068	3900.1875
1414.82669	3840.7875
1418.27039	3794.6875
1421.71177	3766.9875
1425.15083	3718.4875
1428.58758	3667.3875
1432.02203	3627.5875
1435.45416	3606.2875
1438.88399	3590.2875
1442.31151	3566.7875
1445.73673	3540.6875
1449.15965	3517.7875
1452.58027	3485.9875
1455.9986	3463.2875
1459.41463	3450.8875
1462.82837	3468.4875
1466.23982	3466.4875
1469.64898	3455.5875
1473.05586	3468.7875
1476.46045	3471.8875
1479.86276	3490.4875
1483.26279	3493.2875
1486.66054	3516.2875
1490.05602	3537.1875
1493.44922	3584.3875
1496.84016	3658.9875
1500.22882	3793.2875
1503.61521	3960.7875
1506.99934	4152.3875
1510.38121	4321.4875
1513.76081	4368.6875
1517.13816	4249.0875
1520.51324	4037.6875
1523.88607	3815.4875
1527.25665	3690.2875
1530.62498	3616.8875
1533.99105	3555.4875
1537.35488	3521.2875
1540.71647	3470.5875
1544.07581	3457.7875
1547.4329	3422.0875
1550.78776	3416.8875
1554.14038	3399.2875
1557.49077	3401.5875
1560.83892	3381.6875
1564.18484	3391.3875
1567.52853	3406.9875
1570.86999	3425.8875
1574.20922	3432.2875
1577.54624	3424.1875
1580.88103	3360.4875
1584.2136	3279.2875
1587.54395	3212.6875
1590.87208	3204.6875
1594.19801	3204.2875
1597.52172	3224.6875
1600.84321	3252.6875
1604.16251	3217.0875
1607.47959	3163.0875
1610.79447	3128.6875
1614.10715	3075.1875
1617.41763	3017.6875
1620.7259	2990.9875
1624.03199	2970.1875
1627.33587	2965.2875
1630.63757	2960.1875
1633.93707	2997.2875
1637.23439	3033.7875
1640.52951	3075.4875
1643.82246	3185.0875
1647.11321	3296.9875
1650.40179	3363.9875
1653.68819	3325.7875
1656.97241	3161.9875
1660.25446	2958.1875
1663.53433	2778.8875
1666.81203	2691.7875
1670.08756	2616.5875
1673.36092	2562.2875
1676.63211	2518.9875
1679.90115	2503.1875
1683.16801	2475.0875
1686.43272	2446.6875
1689.69527	2428.4875
1692.95567	2403.8875
1696.2139	2387.2875
1699.46999	2375.7875
1702.72392	2357.5875
1705.97571	2357.9875
1709.22535	2357.9875
1712.47284	2351.9875
1715.71819	2348.9875
1718.96139	2356.7875
1722.20246	2344.2875
1725.44139	2339.8875
1728.67818	2331.8875
1731.91284	2318.0875
1735.14537	2315.5875
1738.37576	2310.1875
1741.60403	2297.7875
1744.83017	2285.1875
1748.05418	2297.1875
1751.27607	2306.5875
1754.49584	2289.6875
1757.71349	2297.0875
1760.92903	2276.2875
1764.14244	2282.7875
1767.35375	2277.2875
1770.56294	2271.3875
1773.77002	2243.1875
1776.97499	2242.6875
1780.17785	2249.1875
1783.37861	2245.4875
1786.57727	2237.3875
1789.77382	2226.4875
1792.96828	2237.1875
1796.16064	2216.5875
1799.3509	2211.6875
1802.53907	2214.1875
1805.72514	2210.3875
1808.90913	2208.1875
1812.09102	2193.7875
1815.27083	2185.0875
1818.44856	2181.9875
1821.6242	2178.0875
1824.79776	2178.1875
1827.96924	2177.5875
1831.13864	2179.3875
1834.30597	2174.8875
1837.47122	2176.2875
1840.6344	2166.1875
1843.7955	2173.3875
1846.95454	2182.0875
1850.11151	2164.4875
1853.26642	2174.0875
1856.41926	2168.8875
1859.57004	2157.6875
1862.71876	2146.6875
1865.86542	2153.3875
1869.01003	2153.2875
1872.15258	2153.7875
1875.29308	2142.7875
1878.43152	2146.5875
1881.56792	2140.8875
1884.70227	2140.6875
1887.83457	2120.9875
1890.96482	2118.4875
1894.09304	2129.4875
1897.21921	2127.5875
1900.34335	2125.5875
1903.46544	2111.8875
1906.58551	2112.2875
1909.70353	2107.6875
1912.81953	2122.7875
1915.93349	2103.4875
1919.04543	2094.8875
1922.15534	2098.8875
1925.26322	2095.2875
1928.36908	2109.3875
1931.47292	2095.2875
1934.57473	2095.1875
1937.67453	2086.4875
1940.77232	2081.0875
1943.86808	2079.0875
1946.96184	2075.9875
1950.05358	2071.0875
1953.14331	2065.3875
1956.23103	2044.0875
1959.31675	2053.2875
1962.40046	2044.9875
1965.48217	2035.4875
1968.56188	2026.6875
1971.63959	2025.5875
1974.7153	2027.3875
1977.78901	2020.0875
1980.86073	1999.6875
1983.93046	1999.5875
1986.99819	2000.3875
1990.06394	1988.4875
1993.1277	1991.8875
1996.18947	1980.6875
1999.24925	1970.4875
2002.30706	1974.7875
2005.36288	1965.7875
2008.41672	1970.6875
2011.46859	1964.1875
2014.51848	1967.2875
2017.56639	1969.7875
2020.61233	1969.7875
2023.6563	1977.4875
2026.6983	1972.1875
2029.73833	1983.9875
2032.7764	1992.8875
2035.8125	2002.2875
2038.84664	2025.5875
2041.87881	2032.0875
2044.90903	2047.4875
2047.93729	2071.9875
2050.96359	2093.4875
2053.98794	2115.0875
2057.01034	2140.0875
2060.03078	2164.1875
2063.04927	2204.1875
2066.06582	2213.8875
2069.08042	2245.2875
2072.09307	2275.3875
2075.10378	2282.1875
2078.11255	2302.5875
2081.11938	2319.3875
2084.12426	2313.6875
2087.12722	2328.2875
2090.12824	2314.7875
2093.12732	2307.4875
2096.12447	2301.7875
2099.11969	2298.5875
2102.11299	2280.4875
2105.10435	2256.4875
2108.09379	2230.8875
2111.08131	2214.0875
2114.0669	2185.7875
2117.05057	2151.0875
2120.03233	2122.0875
2123.01216	2089.7875
2125.99008	2071.7875
2128.96609	2040.3875
2131.94018	2017.4875
2134.91236	2001.0875
2137.88263	1986.8875
2140.851	1970.1875
2143.81746	1964.6875
2146.78201	1946.2875
2149.74466	1926.4875
2152.7054	1928.2875
2155.66425	1911.8875
2158.6212	1916.0875
2161.57625	1906.8875
2164.52941	1903.3875
2167.48067	1908.2875
2170.43004	1893.4875
2173.37752	1892.1875
2176.32311	1879.4875
2179.26681	1883.5875
2182.20863	1877.9875
2185.14856	1879.9875
2188.08661	1873.0875
2191.02278	1887.5875
2193.95707	1873.4875
2196.88948	1884.4875
2199.82001	1873.5875
2202.74867	1867.1875
2205.67545	1866.9875
2208.60037	1868.4875
2211.52341	1866.8875
2214.44458	1859.0875
2217.36388	1849.6875
2220.28132	1858.9875
2223.1969	1850.4875
2226.11061	1845.3875
2229.02246	1840.5875
2231.93245	1836.8875
2234.84058	1838.1875
2237.74686	1833.7875
2240.65128	1833.1875
2243.55385	1826.0875
2246.45456	1826.3875
2249.35343	1815.5875
2252.25044	1818.3875
2255.14561	1810.1875
2258.03893	1812.1875
2260.93041	1809.1875
2263.82004	1807.3875
2266.70783	1801.8875
2269.59378	1796.0875
2272.4779	1802.0875
2275.36017	1782.2875
2278.24061	1781.1875
2281.11922	1777.0875
2283.996	1783.4875
2286.87094	1776.6875
2289.74405	1775.5875
2292.61534	1757.7875
2295.4848	1766.3875
2298.35243	1765.9875
2301.21824	1751.3875
2304.08223	1749.7875
2306.94439	1754.7875
2309.80474	1747.6875
2312.66327	1750.5875
2315.51999	1743.6875
2318.37489	1738.2875
2321.22797	1742.8875
2324.07925	1735.2875
2326.92871	1742.1875
2329.77637	1734.5875
2332.62222	1731.3875
2335.46626	1725.5875
2338.3085	1719.8875
2341.14893	1721.8875
2343.98756	1721.4875
2346.8244	1717.1875
2349.65943	1725.8875
2352.49267	1710.4875
2355.32411	1709.0875
2358.15376	1712.1875
2360.98161	1703.9875
2363.80768	1701.3875
2366.63195	1709.8875
2369.45444	1703.7875
2372.27514	1701.2875
2375.09405	1702.8875
2377.91118	1692.6875
2380.72652	1693.1875
2383.54009	1694.1875
2386.35187	1704.0875
2389.16188	1679.4875
2391.97011	1673.5875
2394.77657	1668.8875
2397.58125	1668.2875
2400.38416	1668.9875
2403.18529	1665.9875
2405.98466	1664.2875
2408.78226	1666.9875
2411.57809	1660.8875
2414.37216	1662.1875
2417.16446	1653.0875
2419.955	1652.7875
2422.74378	1653.9875
2425.5308	1644.8875
2428.31606	1649.2875
2431.09956	1641.7875
2433.88131	1644.5875
2436.6613	1639.4875
2439.43954	1636.6875
2442.21603	1638.1875
2444.99077	1627.2875
2447.76377	1633.0875
2450.53501	1635.4875
2453.30451	1637.8875
2456.07226	1626.2875
2458.83827	1629.3875
2461.60254	1619.1875
2464.36507	1614.8875
2467.12586	1623.9875
2469.88492	1610.4875
2472.64224	1609.6875
2475.39782	1607.6875
2478.15167	1607.5875
2480.90379	1601.5875
2483.65417	1614.1875
2486.40283	1603.5875
2489.14976	1613.1875
2491.89497	1617.0875
2494.63845	1609.1875
2497.3802	1606.0875
2500.12024	1605.7875
2502.85855	1601.2875
2505.59514	1598.9875
2508.33002	1590.8875
2511.06318	1594.1875
2513.79462	1600.5875
2516.52435	1585.8875
2519.25237	1588.4875
2521.97867	1585.9875
2524.70327	1577.6875
2527.42616	1580.8875
2530.14734	1577.1875
2532.86681	1572.4875
2535.58458	1573.6875
2538.30065	1567.9875
2541.01501	1561.3875
2543.72768	1554.6875
2546.43864	1567.7875
2549.14791	1559.9875
2551.85548	1558.6875
2554.56136	1547.1875
2557.26554	1548.0875
2559.96803	1543.5875
2562.66883	1542.1875
2565.36794	1542.3875
2568.06536	1548.4875
2570.7611	1536.5875
2573.45514	1533.6875
2576.14751	1526.3875
2578.83819	1523.8875
2581.52719	1533.2875
2584.21451	1526.5875
2586.90015	1515.0875
2589.58411	1523.7875
2592.2664	1522.6875
2594.94701	1516.4875
2597.62594	1503.4875
2600.30321	1498.2875
2602.9788	1499.7875
2605.65273	1491.5875
2608.32498	1504.0875
2610.99557	1497.9875
2613.66449	1493.7875
2616.33175	1491.2875
2618.99734	1496.6875
2621.66128	1493.3875
2624.32355	1492.4875
2626.98416	1486.0875
2629.64311	1489.7875
2632.30041	1480.3875
2634.95605	1473.6875
2637.61004	1486.7875
2640.26238	1480.1875
2642.91306	1481.5875
2645.56209	1480.9875
2648.20948	1462.8875
2650.85521	1472.8875
2653.4993	1477.3875
2656.14175	1472.9875
2658.78255	1478.4875
2661.42171	1470.4875
2664.05923	1479.1875
2666.6951	1480.3875
2669.32934	1469.0875
2671.96194	1469.0875
2674.59291	1470.2875
2677.22224	1472.1875
2679.84993	1481.1875
2682.476	1473.6875
2685.10043	1490.6875
2687.72324	1476.5875
2690.34441	1480.9875
2692.96396	1477.8875
2695.58188	1484.4875
2698.19818	1474.6875
2700.81285	1474.8875
2703.4259	1472.2875
2706.03733	1454.6875
2708.64714	1464.3875
2711.25533	1482.7875
2713.86191	1470.4875
2716.46687	1483.0875
2719.07021	1474.7875
2721.67194	1474.8875
2724.27206	1479.0875
2726.87057	1478.5875
2729.46747	1487.4875
2732.06276	1474.7875
2734.65644	1477.2875
2737.24852	1470.6875
2739.83899	1479.6875
2742.42786	1479.6875
2745.01513	1470.8875
2747.60079	1469.3875
2750.18486	1470.8875
2752.76733	1476.1875
2755.3482	1464.8875
2757.92747	1468.7875
2760.50515	1470.2875
2763.08123	1453.0875
2765.65573	1458.0875
2768.22863	1461.2875
2770.79994	1459.3875
2773.36967	1451.8875
2775.9378	1457.4875
2778.50435	1453.8875
2781.06932	1451.9875
2783.6327	1458.4875
2786.1945	1449.5875
2788.75471	1444.1875
2791.31335	1437.1875
2793.87041	1434.2875
2796.42589	1440.9875
2798.97979	1433.2875
2801.53212	1429.9875
2804.08288	1437.1875
2806.63206	1422.7875
2809.17967	1424.0875
2811.72571	1431.4875
2814.27018	1431.1875
2816.81308	1424.3875
2819.35442	1423.4875
2821.89419	1433.7875
2824.43239	1418.8875
2826.96904	1425.0875
2829.50412	1425.1875
2832.03763	1424.7875
2834.56959	1432.2875
2837.1	1424.9875
2839.62884	1431.2875
2842.15613	1447.0875
2844.68186	1464.1875
2847.20604	1470.8875
2849.72867	1482.6875
2852.24974	1494.9875
2854.76927	1491.0875
2857.28724	1473.5875
2859.80367	1484.3875
2862.31855	1491.3875
2864.83189	1481.7875
2867.34368	1487.4875
2869.85393	1501.9875
2872.36264	1515.4875
2874.8698	1511.4875
2877.37543	1516.8875
2879.87952	1522.4875
2882.38207	1534.2875
2884.88308	1524.5875
2887.38256	1537.2875
2889.88051	1539.0875
2892.37692	1542.3875
2894.8718	1559.6875
2897.36515	1561.9875
2899.85698	1573.3875
2902.34727	1581.0875
2904.83604	1584.4875
2907.32328	1595.8875
2909.809	1603.0875
2912.29319	1603.8875
2914.77587	1613.6875
2917.25702	1606.6875
2919.73665	1612.5875
2922.21476	1616.5875
2924.69136	1614.1875
2927.16644	1617.3875
2929.64	1625.8875
2932.11205	1611.6875
2934.58258	1610.0875
2937.05161	1608.0875
2939.51912	1603.7875
2941.98513	1584.2875
2944.44962	1585.1875
2946.91261	1562.5875
2949.37409	1546.7875
2951.83407	1534.8875
2954.29254	1529.7875
2956.74951	1511.8875
2959.20498	1505.4875
2961.65895	1494.4875
2964.11142	1479.0875
2966.56239	1470.3875
2969.01186	1470.0875
2971.45984	1467.7875
2973.90632	1450.3875
2976.35131	1438.3875
2978.7948	1435.3875
2981.23681	1424.8875
2983.67732	1424.7875
2986.11635	1408.7875
2988.55388	1407.1875
2990.98993	1411.4875
2993.4245	1399.2875
2995.85758	1391.3875
2998.28917	1387.4875
3000.71928	1383.2875
3003.14791	1395.7875
3005.57506	1380.8875
3008.00073	1380.2875
3010.42493	1383.7875
3012.84764	1374.2875
3015.26888	1378.4875
3017.68865	1376.3875
3020.10694	1376.9875
3022.52376	1370.3875
3024.9391	1368.3875
3027.35298	1366.4875
3029.76539	1374.1875
3032.17632	1361.7875
3034.5858	1370.7875
3036.9938	1367.2875
3039.40034	1370.2875
3041.80542	1355.5875
3044.20903	1363.2875
3046.61118	1360.9875
3049.01187	1360.6875
3051.4111	1351.3875
3053.80888	1356.1875
3056.20519	1350.5875
3058.60005	1356.6875
3060.99345	1357.8875
3063.3854	1352.5875
3065.7759	1357.8875
3068.16494	1357.5875
3070.55254	1353.9875
3072.93868	1361.9875
3075.32338	1349.9875
3077.70662	1360.2875
3080.08842	1357.7875
3082.46878	1359.4875
3084.84769	1363.4875
3087.22515	1368.1875
3089.60118	1363.5875
3091.97576	1372.2875
3094.3489	1377.4875
3096.72061	1380.0875
3099.09087	1384.7875
3101.4597	1381.8875
3103.82709	1383.5875
3106.19305	1387.8875
3108.55757	1398.6875
3110.92066	1394.6875
3113.28232	1396.3875
3115.64255	1390.1875
3118.00134	1405.0875
3120.35871	1402.3875
3122.71466	1409.0875
3125.06917	1404.0875
