Data from AgNPs_FTO_APTES_UA_2uM_CRN_200uM_R6G_10uM_NaF_0.1M_Addition_RamanShift__9__16-29-25-360.txt Node

Date: Wed Feb 02 16:29:25 GMT 2022
User: TCL
Spectrometer: QEP01345
Trigger mode: 4
Integration Time (sec): 7.000000E0
Scans to average: 10
Electric dark correction enabled: true
Nonlinearity correction enabled: false
Boxcar width: 0
XAxis mode: Raman Shifts
Number of Pixels in Spectrum: 1044
>>>>>Begin Spectral Data<<<<<
46.04893	0.8125
50.45542	0.5125
54.85868	-1.7875
59.25871	0.6125
63.6555	62.6125
68.04907	67.7125
72.43941	69.8125
76.82654	78.6125
81.21044	77.9125
85.59113	84.6125
89.96862	86.7125
94.34289	87.2125
98.71396	90.7125
103.08183	93.8125
107.4465	97.5125
111.80798	100.3125
116.16626	104.9125
120.52136	104.8125
124.87327	107.1125
129.222	110.2125
133.56755	120.3125
137.90993	126.1125
142.24913	144.0125
146.58517	155.8125
150.91804	178.6125
155.24774	214.0125
159.57429	263.8125
163.89768	335.4125
168.21792	443.4125
172.53501	606.0125
176.84895	835.1125
181.15975	1168.1125
185.46741	1630.1125
189.77193	2244.0125
194.07331	3009.5125
198.37157	3869.7125
202.6667	4781.4125
206.9587	5689.6125
211.24758	6550.9125
215.53334	7431.2125
219.81599	8365.5125
224.09553	9399.9125
228.37195	10534.4125
232.64527	11739.6125
236.91549	12983.4125
241.18261	14271.5125
245.44663	15464.4125
249.70755	16574.9125
253.96539	17545.6125
258.22014	18369.5125
262.4718	19029.9125
266.72039	19530.8125
270.96589	19768.1125
275.20832	19858.6125
279.44768	19806.3125
283.68397	19731.8125
287.91719	19667.8125
292.14735	19733.7125
296.37445	19838.7125
300.59849	19921.9125
304.81948	20027.4125
309.03742	19923.6125
313.25231	19674.8125
317.46415	19205.3125
321.67296	18619.8125
325.87872	18081.5125
330.08145	17780.2125
334.28114	17685.5125
338.47781	17711.5125
342.67145	17870.4125
346.86207	18046.8125
351.04966	18223.5125
355.23424	18432.9125
359.4158	18626.4125
363.59435	18779.5125
367.76989	18865.0125
371.94243	18934.0125
376.11196	18983.2125
380.27849	19024.6125
384.44203	19093.7125
388.60257	19264.2125
392.76012	19546.9125
396.91468	19951.7125
401.06626	20305.0125
405.21485	20393.4125
409.36047	20341.2125
413.50311	20123.0125
417.64277	20005.8125
421.77947	20092.7125
425.9132	20255.9125
430.04396	20406.5125
434.17176	20503.7125
438.2966	20581.3125
442.41849	20850.1125
446.53742	21362.4125
450.6534	21986.8125
454.76644	22398.2125
458.87653	22626.4125
462.98368	22618.0125
467.08789	22467.4125
471.18916	22358.1125
475.2875	22333.7125
479.38291	22448.0125
483.4754	22408.4125
487.56496	22053.6125
491.6516	21390.6125
495.73531	20757.0125
499.81612	20311.1125
503.89401	20273.0125
507.96899	20377.1125
512.04106	20334.5125
516.11023	20129.2125
520.1765	19840.7125
524.23987	19464.4125
528.30034	19155.2125
532.35792	18964.2125
536.41261	18767.7125
540.46441	18622.4125
544.51333	18715.5125
548.55936	19088.4125
552.60252	19623.6125
556.64279	20223.3125
560.6802	20747.2125
564.71473	21156.0125
568.7464	21738.7125
572.7752	22724.1125
576.80114	23836.2125
580.82422	24747.6125
584.84444	25550.8125
588.86181	26508.2125
592.87633	27186.5125
596.888	26633.7125
600.89682	25014.1125
604.9028	24158.6125
608.90594	24579.1125
612.90624	25108.2125
616.90371	23261.1125
620.89834	20154.6125
624.89015	18744.4125
628.87913	18691.0125
632.86528	18915.8125
636.84862	18926.1125
640.82913	18571.3125
644.80683	18182.2125
648.78172	17837.3125
652.75379	17765.1125
656.72306	17898.3125
660.68952	18025.4125
664.65319	17909.6125
668.61405	17680.3125
672.57211	17631.8125
676.52738	17693.2125
680.47986	17769.2125
684.42955	17700.5125
688.37646	17593.0125
692.32058	17687.0125
696.26192	17849.0125
700.20048	18143.5125
704.13626	18347.9125
708.06928	18466.6125
711.99952	18462.2125
715.927	18459.9125
719.85171	18431.7125
723.77365	18249.4125
727.69284	17974.0125
731.60928	17720.2125
735.52295	17551.8125
739.43388	17504.7125
743.34206	17536.1125
747.24749	17666.9125
751.15017	17940.3125
755.05012	18382.1125
758.94733	19010.3125
762.8418	20026.0125
766.73354	21324.5125
770.62254	22374.1125
774.50882	22278.5125
778.39237	21111.7125
782.27321	19651.4125
786.15132	18542.1125
790.02671	17798.7125
793.89938	17438.1125
797.76935	17306.6125
801.6366	17245.2125
805.50115	17200.7125
809.36299	17163.9125
813.22213	17073.2125
817.07857	17049.2125
820.93231	17013.3125
824.78336	16842.1125
828.63172	16648.4125
832.47738	16548.1125
836.32036	16493.7125
840.16066	16483.4125
843.99827	16471.5125
847.8332	16444.8125
851.66546	16427.3125
855.49504	16427.4125
859.32195	16406.7125
863.1462	16362.2125
866.96777	16300.8125
870.78668	16236.5125
874.60293	16246.1125
878.41652	16242.3125
882.22745	16278.2125
886.03573	16302.5125
889.84136	16303.7125
893.64433	16253.6125
897.44466	16187.6125
901.24235	16169.7125
905.0374	16144.3125
908.8298	16112.8125
912.61957	16216.8125
916.40671	16487.8125
920.19121	16858.5125
923.97308	17045.1125
927.75233	16919.6125
931.52895	16571.1125
935.30295	16167.1125
939.07433	15822.7125
942.84309	15547.1125
946.60924	15347.8125
950.37278	15287.8125
954.13371	15324.3125
957.89203	15375.1125
961.64774	15382.1125
965.40086	15393.4125
969.15137	15296.3125
972.89929	15140.0125
976.64461	14945.8125
980.38733	14886.9125
984.12747	14890.2125
987.86502	14927.0125
991.59999	14976.4125
995.33237	15058.5125
999.06217	15264.4125
1002.78939	15509.4125
1006.51404	15765.4125
1010.23611	16039.6125
1013.95561	16253.6125
1017.67255	16313.8125
1021.38692	16238.6125
1025.09872	15981.2125
1028.80796	15726.0125
1032.51465	15624.6125
1036.21877	15638.9125
1039.92035	15756.4125
1043.61937	15843.0125
1047.31584	15942.1125
1051.00976	16043.9125
1054.70114	16159.1125
1058.38998	16430.7125
1062.07627	16706.3125
1065.76003	17018.9125
1069.44126	17302.9125
1073.11995	17570.8125
1076.79611	17766.1125
1080.46974	17734.0125
1084.14085	17784.5125
1087.80943	17923.3125
1091.47549	18141.3125
1095.13903	18342.9125
1098.80005	18177.6125
1102.45857	17597.0125
1106.11456	17077.1125
1109.76805	16793.7125
1113.41903	16751.9125
1117.06751	16847.0125
1120.71348	17046.7125
1124.35696	17290.7125
1127.99793	17561.5125
1131.63641	17794.0125
1135.2724	17812.1125
1138.90589	17816.7125
1142.5369	17968.6125
1146.16542	18347.1125
1149.79145	18750.2125
1153.415	19150.2125
1157.03607	19645.9125
1160.65467	20424.0125
1164.27079	21639.0125
1167.88443	23078.0125
1171.49561	24503.3125
1175.10432	25987.4125
1178.71056	27887.6125
1182.31434	29569.9125
1185.91565	30389.2125
1189.51451	30292.1125
1193.11091	29684.0125
1196.70485	28848.5125
1200.29634	27830.4125
1203.88538	27241.6125
1207.47197	27250.3125
1211.05612	27335.1125
1214.63782	26872.4125
1218.21708	25767.0125
1221.79391	24430.5125
1225.36829	23352.2125
1228.94024	22699.1125
1232.50976	22364.9125
1236.07685	22045.6125
1239.6415	21884.7125
1243.20374	21948.5125
1246.76355	22174.5125
1250.32093	22503.9125
1253.8759	22992.7125
1257.42845	23696.9125
1260.97859	24429.7125
1264.52631	25208.6125
1268.07163	25898.5125
1271.61453	26674.7125
1275.15503	27587.7125
1278.69312	28700.8125
1282.22882	30006.1125
1285.76211	31500.2125
1289.29301	33422.6125
1292.82151	35658.8125
1296.34761	38345.0125
1299.87133	41016.8125
1303.39266	43289.3125
1306.9116	44950.9125
1310.42815	45874.4125
1313.94233	46161.5125
1317.45412	45910.3125
1320.96354	45580.6125
1324.47058	45557.4125
1327.97525	45762.6125
1331.47754	45795.4125
1334.97747	45649.6125
1338.47502	45125.6125
1341.97022	44217.4125
1345.46305	43174.9125
1348.95352	42059.5125
1352.44163	41285.8125
1355.92738	41235.0125
1359.41078	41820.7125
1362.89183	42224.5125
1366.37053	41519.4125
1369.84688	38752.3125
1373.32088	35086.0125
1376.79254	32551.2125
1380.26186	31992.8125
1383.72883	32619.2125
1387.19347	33196.6125
1390.65578	33371.2125
1394.11575	33471.1125
1397.57339	33968.9125
1401.0287	34599.0125
1404.48168	34922.1125
1407.93234	34421.6125
1411.38068	33029.7125
1414.82669	31114.9125
1418.27039	29123.0125
1421.71177	27313.6125
1425.15083	25890.6125
1428.58758	25250.1125
1432.02203	25502.7125
1435.45416	26417.7125
1438.88399	27508.5125
1442.31151	28425.7125
1445.73673	29070.7125
1449.15965	29649.0125
1452.58027	30044.3125
1455.9986	30232.9125
1459.41463	30462.4125
1462.82837	30773.7125
1466.23982	31175.0125
1469.64898	31505.4125
1473.05586	31664.7125
1476.46045	31548.7125
1479.86276	31052.4125
1483.26279	30501.0125
1486.66054	30159.3125
1490.05602	30184.6125
1493.44922	30399.8125
1496.84016	30727.1125
1500.22882	31187.1125
1503.61521	31910.1125
1506.99934	32756.6125
1510.38121	33431.6125
1513.76081	33714.4125
1517.13816	33624.8125
1520.51324	33287.8125
1523.88607	33458.0125
1527.25665	33797.9125
1530.62498	34135.7125
1533.99105	34080.1125
1537.35488	33435.9125
1540.71647	32341.8125
1544.07581	31011.3125
1547.4329	29595.1125
1550.78776	28429.3125
1554.14038	27649.9125
1557.49077	27162.6125
1560.83892	26944.9125
1564.18484	26904.6125
1567.52853	27063.8125
1570.86999	27454.9125
1574.20922	28321.3125
1577.54624	29343.3125
1580.88103	30161.7125
1584.2136	30970.1125
1587.54395	32181.2125
1590.87208	33727.7125
1594.19801	35431.2125
1597.52172	36802.3125
1600.84321	36710.4125
1604.16251	34517.7125
1607.47959	31245.0125
1610.79447	27949.3125
1614.10715	25148.3125
1617.41763	22982.6125
1620.7259	21498.6125
1624.03199	20828.4125
1627.33587	20908.5125
1630.63757	21745.3125
1633.93707	23569.9125
1637.23439	26599.4125
1640.52951	30917.5125
1643.82246	35993.8125
1647.11321	40039.5125
1650.40179	40727.4125
1653.68819	37545.8125
1656.97241	31874.7125
1660.25446	26377.2125
1663.53433	22135.1125
1666.81203	19234.3125
1670.08756	17427.1125
1673.36092	16286.9125
1676.63211	15542.6125
1679.90115	15070.3125
1683.16801	14695.9125
1686.43272	14410.5125
1689.69527	14221.5125
1692.95567	14035.9125
1696.2139	13963.5125
1699.46999	13841.3125
1702.72392	13754.1125
1705.97571	13651.6125
1709.22535	13577.6125
1712.47284	13511.0125
1715.71819	13463.9125
1718.96139	13403.3125
1722.20246	13325.7125
1725.44139	13249.7125
1728.67818	13155.9125
1731.91284	13045.2125
1735.14537	12957.8125
1738.37576	12890.9125
1741.60403	12828.0125
1744.83017	12778.6125
1748.05418	12753.9125
1751.27607	12727.0125
1754.49584	12703.7125
1757.71349	12739.9125
1760.92903	12705.0125
1764.14244	12675.7125
1767.35375	12625.3125
1770.56294	12597.5125
1773.77002	12529.4125
1776.97499	12480.2125
1780.17785	12454.9125
1783.37861	12402.6125
1786.57727	12365.2125
1789.77382	12317.9125
1792.96828	12269.2125
1796.16064	12218.2125
1799.3509	12195.0125
1802.53907	12155.3125
1805.72514	12131.5125
1808.90913	12083.0125
1812.09102	12063.2125
1815.27083	12031.4125
1818.44856	12008.3125
1821.6242	11971.9125
1824.79776	11991.4125
1827.96924	11994.8125
1831.13864	11945.2125
1834.30597	11958.4125
1837.47122	11944.6125
1840.6344	11967.4125
1843.7955	11960.6125
1846.95454	11913.4125
1850.11151	11917.9125
1853.26642	11913.4125
1856.41926	11885.3125
1859.57004	11869.7125
1862.71876	11828.9125
1865.86542	11835.3125
1869.01003	11787.7125
1872.15258	11776.2125
1875.29308	11741.0125
1878.43152	11714.2125
1881.56792	11700.9125
1884.70227	11699.5125
1887.83457	11670.9125
1890.96482	11642.8125
1894.09304	11635.6125
1897.21921	11617.2125
1900.34335	11600.5125
1903.46544	11571.7125
1906.58551	11540.3125
1909.70353	11548.7125
1912.81953	11488.5125
1915.93349	11451.9125
1919.04543	11436.4125
1922.15534	11411.4125
1925.26322	11367.5125
1928.36908	11337.1125
1931.47292	11323.3125
1934.57473	11272.8125
1937.67453	11232.3125
1940.77232	11190.7125
1943.86808	11175.1125
1946.96184	11146.1125
1950.05358	11127.4125
1953.14331	11092.9125
1956.23103	11038.1125
1959.31675	11020.9125
1962.40046	10983.3125
1965.48217	10934.2125
1968.56188	10887.4125
1971.63959	10841.0125
1974.7153	10812.2125
1977.78901	10783.6125
1980.86073	10722.4125
1983.93046	10687.3125
1986.99819	10642.0125
1990.06394	10628.6125
1993.1277	10616.0125
1996.18947	10563.6125
1999.24925	10515.9125
2002.30706	10486.9125
2005.36288	10421.2125
2008.41672	10393.5125
2011.46859	10387.1125
2014.51848	10293.6125
2017.56639	10297.4125
2020.61233	10258.4125
2023.6563	10218.7125
2026.6983	10237.7125
2029.73833	10218.6125
2032.7764	10172.3125
2035.8125	10155.6125
2038.84664	10123.8125
2041.87881	10115.5125
2044.90903	10094.5125
2047.93729	10077.2125
2050.96359	10043.2125
2053.98794	10060.1125
2057.01034	10035.4125
2060.03078	10019.0125
2063.04927	10007.5125
2066.06582	9991.9125
2069.08042	9996.6125
2072.09307	9993.4125
2075.10378	9960.0125
2078.11255	9950.9125
2081.11938	9933.2125
2084.12426	9949.6125
2087.12722	9938.8125
2090.12824	9928.5125
2093.12732	9910.5125
2096.12447	9926.4125
2099.11969	9891.4125
2102.11299	9906.3125
2105.10435	9916.5125
2108.09379	9919.2125
2111.08131	9909.3125
2114.0669	9893.9125
2117.05057	9914.2125
2120.03233	9922.7125
2123.01216	9902.2125
2125.99008	9914.7125
2128.96609	9888.5125
2131.94018	9886.7125
2134.91236	9900.5125
2137.88263	9881.7125
2140.851	9876.9125
2143.81746	9906.6125
2146.78201	9887.2125
2149.74466	9876.0125
2152.7054	9853.3125
2155.66425	9832.1125
2158.6212	9849.0125
2161.57625	9844.6125
2164.52941	9814.3125
2167.48067	9826.7125
2170.43004	9821.4125
2173.37752	9792.1125
2176.32311	9796.0125
2179.26681	9786.3125
2182.20863	9797.0125
2185.14856	9789.4125
2188.08661	9792.7125
2191.02278	9784.8125
2193.95707	9760.9125
2196.88948	9741.3125
2199.82001	9750.2125
2202.74867	9709.0125
2205.67545	9697.1125
2208.60037	9690.3125
2211.52341	9645.7125
2214.44458	9648.5125
2217.36388	9623.0125
2220.28132	9621.3125
2223.1969	9579.6125
2226.11061	9577.5125
2229.02246	9556.6125
2231.93245	9547.9125
2234.84058	9526.1125
2237.74686	9482.9125
2240.65128	9478.4125
2243.55385	9472.8125
2246.45456	9471.5125
2249.35343	9428.1125
2252.25044	9398.4125
2255.14561	9386.9125
2258.03893	9351.7125
2260.93041	9329.4125
2263.82004	9292.3125
2266.70783	9255.4125
2269.59378	9212.8125
2272.4779	9187.2125
2275.36017	9175.3125
2278.24061	9163.1125
2281.11922	9117.3125
2283.996	9119.3125
2286.87094	9082.3125
2289.74405	9065.8125
2292.61534	9083.4125
2295.4848	9058.7125
2298.35243	9060.7125
2301.21824	9032.7125
2304.08223	9028.4125
2306.94439	9023.7125
2309.80474	9017.7125
2312.66327	8996.6125
2315.51999	8973.5125
2318.37489	8975.1125
2321.22797	8954.7125
2324.07925	8955.4125
2326.92871	8929.0125
2329.77637	8936.9125
2332.62222	8891.1125
2335.46626	8909.0125
2338.3085	8882.0125
2341.14893	8866.8125
2343.98756	8837.2125
2346.8244	8881.5125
2349.65943	8857.2125
2352.49267	8871.5125
2355.32411	8874.5125
2358.15376	8872.3125
2360.98161	8856.8125
2363.80768	8847.9125
2366.63195	8838.1125
2369.45444	8831.3125
2372.27514	8817.6125
2375.09405	8814.6125
2377.91118	8806.7125
2380.72652	8760.2125
2383.54009	8749.5125
2386.35187	8722.6125
2389.16188	8694.8125
2391.97011	8683.2125
2394.77657	8675.0125
2397.58125	8660.9125
2400.38416	8632.3125
2403.18529	8604.8125
2405.98466	8585.9125
2408.78226	8594.4125
2411.57809	8597.1125
2414.37216	8570.9125
2417.16446	8573.2125
2419.955	8564.4125
2422.74378	8552.9125
2425.5308	8546.7125
2428.31606	8547.4125
2431.09956	8537.4125
2433.88131	8525.8125
2436.6613	8525.0125
2439.43954	8517.1125
2442.21603	8492.1125
2444.99077	8500.1125
2447.76377	8489.6125
2450.53501	8480.6125
2453.30451	8488.8125
2456.07226	8465.0125
2458.83827	8473.1125
2461.60254	8468.0125
2464.36507	8473.9125
2467.12586	8433.6125
2469.88492	8456.4125
2472.64224	8457.2125
2475.39782	8446.2125
2478.15167	8447.5125
2480.90379	8424.4125
2483.65417	8430.1125
2486.40283	8433.9125
2489.14976	8439.3125
2491.89497	8440.4125
2494.63845	8444.4125
2497.3802	8415.6125
2500.12024	8420.8125
2502.85855	8400.1125
2505.59514	8405.9125
2508.33002	8417.3125
2511.06318	8419.8125
2513.79462	8408.0125
2516.52435	8412.4125
2519.25237	8367.1125
2521.97867	8363.6125
2524.70327	8362.8125
2527.42616	8326.7125
2530.14734	8365.7125
2532.86681	8326.0125
2535.58458	8350.7125
2538.30065	8340.9125
2541.01501	8321.4125
2543.72768	8289.1125
2546.43864	8293.4125
2549.14791	8256.4125
2551.85548	8247.8125
2554.56136	8280.1125
2557.26554	8263.7125
2559.96803	8246.1125
2562.66883	8240.9125
2565.36794	8254.6125
2568.06536	8253.4125
2570.7611	8242.5125
2573.45514	8242.7125
2576.14751	8213.2125
2578.83819	8186.8125
2581.52719	8172.2125
2584.21451	8189.4125
2586.90015	8174.7125
2589.58411	8190.8125
2592.2664	8176.2125
2594.94701	8151.3125
2597.62594	8157.8125
2600.30321	8134.7125
2602.9788	8154.2125
2605.65273	8148.9125
2608.32498	8154.5125
2610.99557	8133.2125
2613.66449	8166.8125
2616.33175	8149.0125
2618.99734	8143.0125
2621.66128	8154.2125
2624.32355	8128.4125
2626.98416	8116.0125
2629.64311	8117.7125
2632.30041	8096.9125
2634.95605	8107.3125
2637.61004	8112.4125
2640.26238	8084.2125
2642.91306	8096.1125
2645.56209	8095.7125
2648.20948	8117.2125
2650.85521	8089.1125
2653.4993	8089.1125
2656.14175	8097.1125
2658.78255	8116.5125
2661.42171	8106.8125
2664.05923	8120.4125
2666.6951	8123.9125
2669.32934	8112.4125
2671.96194	8129.2125
2674.59291	8123.1125
2677.22224	8117.4125
2679.84993	8118.0125
2682.476	8118.1125
2685.10043	8105.4125
2687.72324	8109.2125
2690.34441	8104.2125
2692.96396	8092.1125
2695.58188	8109.1125
2698.19818	8109.5125
2700.81285	8120.9125
2703.4259	8110.2125
2706.03733	8166.8125
2708.64714	8132.0125
2711.25533	8137.3125
2713.86191	8111.5125
2716.46687	8115.8125
2719.07021	8131.8125
2721.67194	8160.3125
2724.27206	8117.0125
2726.87057	8153.8125
2729.46747	8154.0125
2732.06276	8173.9125
2734.65644	8142.8125
2737.24852	8137.9125
2739.83899	8125.1125
2742.42786	8123.1125
2745.01513	8120.8125
2747.60079	8108.0125
2750.18486	8107.1125
2752.76733	8111.9125
2755.3482	8113.9125
2757.92747	8108.5125
2760.50515	8106.1125
2763.08123	8129.6125
2765.65573	8114.3125
2768.22863	8114.5125
2770.79994	8082.7125
2773.36967	8101.7125
2775.9378	8109.5125
2778.50435	8092.1125
2781.06932	8105.5125
2783.6327	8086.6125
2786.1945	8097.8125
2788.75471	8059.4125
2791.31335	8043.6125
2793.87041	8050.0125
2796.42589	8031.8125
2798.97979	8036.9125
2801.53212	8028.1125
2804.08288	8020.0125
2806.63206	8005.8125
2809.17967	7999.6125
2811.72571	7963.8125
2814.27018	7958.1125
2816.81308	7952.6125
2819.35442	7946.9125
2821.89419	7917.6125
2824.43239	7916.6125
2826.96904	7905.8125
2829.50412	7906.3125
2832.03763	7897.6125
2834.56959	7896.2125
2837.1	7886.7125
2839.62884	7902.4125
2842.15613	7909.4125
2844.68186	7948.7125
2847.20604	7984.0125
2849.72867	7992.6125
2852.24974	7983.0125
2854.76927	7984.5125
2857.28724	7977.5125
2859.80367	7971.6125
2862.31855	7938.4125
2864.83189	7940.1125
2867.34368	7895.9125
2869.85393	7899.7125
2872.36264	7896.7125
2874.8698	7879.2125
2877.37543	7895.1125
2879.87952	7877.8125
2882.38207	7883.2125
2884.88308	7860.6125
2887.38256	7858.3125
2889.88051	7837.8125
2892.37692	7877.4125
2894.8718	7863.1125
2897.36515	7894.6125
2899.85698	7892.7125
2902.34727	7890.6125
2904.83604	7898.6125
2907.32328	7902.7125
2909.809	7921.1125
2912.29319	7903.6125
2914.77587	7906.3125
2917.25702	7896.7125
2919.73665	7889.0125
2922.21476	7863.3125
2924.69136	7898.5125
2927.16644	7885.3125
2929.64	7889.2125
2932.11205	7906.5125
2934.58258	7892.8125
2937.05161	7884.8125
2939.51912	7885.0125
2941.98513	7857.4125
2944.44962	7817.5125
2946.91261	7759.2125
2949.37409	7777.2125
2951.83407	7765.3125
2954.29254	7731.6125
2956.74951	7723.9125
2959.20498	7714.5125
2961.65895	7685.6125
2964.11142	7687.0125
2966.56239	7656.1125
2969.01186	7647.6125
2971.45984	7626.2125
2973.90632	7616.0125
2976.35131	7565.9125
2978.7948	7548.6125
2981.23681	7530.7125
2983.67732	7491.9125
2986.11635	7485.4125
2988.55388	7455.4125
2990.98993	7434.3125
2993.4245	7418.9125
2995.85758	7386.7125
2998.28917	7387.9125
3000.71928	7379.1125
3003.14791	7332.1125
3005.57506	7329.3125
3008.00073	7313.2125
3010.42493	7288.1125
3012.84764	7273.3125
3015.26888	7270.8125
3017.68865	7255.5125
3020.10694	7243.2125
3022.52376	7212.9125
3024.9391	7202.0125
3027.35298	7189.4125
3029.76539	7158.7125
3032.17632	7176.1125
3034.5858	7152.0125
3036.9938	7165.5125
3039.40034	7157.3125
3041.80542	7140.3125
3044.20903	7129.3125
3046.61118	7124.7125
3049.01187	7101.8125
3051.4111	7077.4125
3053.80888	7046.7125
3056.20519	7042.6125
3058.60005	7013.4125
3060.99345	7003.6125
3063.3854	6980.6125
3065.7759	6974.9125
