Data from AgNPs_FTO_APTES_UA_2uM_CRN_0uM_R6G_10uM_NaF_0.1M_Addition_RamanShift__18__10-25-24-936.txt Node

Date: Wed Feb 02 10:25:24 GMT 2022
User: TCL
Spectrometer: QEP01345
Trigger mode: 4
Integration Time (sec): 7.000000E0
Scans to average: 10
Electric dark correction enabled: true
Nonlinearity correction enabled: false
Boxcar width: 0
XAxis mode: Raman Shifts
Number of Pixels in Spectrum: 1044
>>>>>Begin Spectral Data<<<<<
46.04893	0.9875
50.45542	0.3875
54.85868	-1.8125
59.25871	2.3875
63.6555	31.6875
68.04907	34.5875
72.43941	33.4875
76.82654	38.0875
81.21044	42.1875
85.59113	43.3875
89.96862	45.0875
94.34289	48.9875
98.71396	46.9875
103.08183	53.1875
107.4465	50.2875
111.80798	52.8875
116.16626	54.1875
120.52136	53.6875
124.87327	54.2875
129.222	55.9875
133.56755	59.4875
137.90993	61.8875
142.24913	67.5875
146.58517	79.4875
150.91804	90.7875
155.24774	105.2875
159.57429	123.8875
163.89768	159.5875
168.21792	209.6875
172.53501	282.8875
176.84895	387.7875
181.15975	539.4875
185.46741	747.4875
189.77193	1031.8875
194.07331	1388.5875
198.37157	1777.6875
202.6667	2217.1875
206.9587	2645.2875
211.24758	3055.4875
215.53334	3480.7875
219.81599	3920.0875
224.09553	4417.6875
228.37195	4963.3875
232.64527	5555.4875
236.91549	6149.3875
241.18261	6727.4875
245.44663	7213.8875
249.70755	7609.3875
253.96539	7938.3875
258.22014	8247.7875
262.4718	8496.4875
266.72039	8670.7875
270.96589	8718.2875
275.20832	8662.1875
279.44768	8542.6875
283.68397	8331.7875
287.91719	8185.5875
292.14735	8067.9875
296.37445	8135.2875
300.59849	8321.0875
304.81948	8578.0875
309.03742	8785.5875
313.25231	8809.8875
317.46415	8555.1875
321.67296	8133.7875
325.87872	7750.6875
330.08145	7576.6875
334.28114	7520.9875
338.47781	7606.3875
342.67145	7723.0875
346.86207	7926.2875
351.04966	8253.0875
355.23424	8608.5875
359.4158	8923.0875
363.59435	9097.9875
367.76989	9177.7875
371.94243	9207.4875
376.11196	9204.3875
380.27849	9185.9875
384.44203	9118.4875
388.60257	9044.0875
392.76012	8995.5875
396.91468	9008.7875
401.06626	9134.3875
405.21485	9206.5875
409.36047	9096.5875
413.50311	8727.3875
417.64277	8350.5875
421.77947	8144.9875
425.9132	8072.7875
430.04396	8055.6875
434.17176	8087.5875
438.2966	8193.5875
442.41849	8350.1875
446.53742	8552.6875
450.6534	8727.7875
454.76644	8836.6875
458.87653	8777.8875
462.98368	8674.5875
467.08789	8540.7875
471.18916	8407.3875
475.2875	8244.7875
479.38291	8120.8875
483.4754	8049.7875
487.56496	8002.8875
491.6516	7951.4875
495.73531	7964.0875
499.81612	8001.8875
503.89401	8075.9875
507.96899	8177.1875
512.04106	8311.5875
516.11023	8431.8875
520.1765	8564.4875
524.23987	8558.3875
528.30034	8463.7875
532.35792	8342.6875
536.41261	8211.0875
540.46441	8046.5875
544.51333	7962.6875
548.55936	7962.7875
552.60252	8049.5875
556.64279	8182.9875
560.6802	8276.1875
564.71473	8311.7875
568.7464	8456.6875
572.7752	8607.7875
576.80114	8386.1875
580.82422	8102.3875
584.84444	8032.8875
588.86181	8109.6875
592.87633	8343.7875
596.888	8574.1875
600.89682	8674.9875
604.9028	9152.4875
608.90594	10926.4875
612.90624	13606.2875
616.90371	13680.6875
620.89834	10326.3875
624.89015	8430.6875
628.87913	8003.4875
632.86528	8045.9875
636.84862	8149.7875
640.82913	8137.0875
644.80683	7911.1875
648.78172	7732.9875
652.75379	7744.6875
656.72306	7939.9875
660.68952	8214.7875
664.65319	8169.6875
668.61405	7887.0875
672.57211	7712.6875
676.52738	7735.3875
680.47986	7767.6875
684.42955	7705.0875
688.37646	7662.3875
692.32058	7652.9875
696.26192	7653.8875
700.20048	7743.4875
704.13626	7769.9875
708.06928	7791.5875
711.99952	7757.2875
715.927	7738.2875
719.85171	7783.0875
723.77365	7804.0875
727.69284	7757.9875
731.60928	7693.6875
735.52295	7676.4875
739.43388	7696.1875
743.34206	7708.2875
747.24749	7712.1875
751.15017	7713.9875
755.05012	7787.4875
758.94733	7950.2875
762.8418	8445.9875
766.73354	9491.6875
770.62254	10783.0875
774.50882	11582.5875
778.39237	11304.9875
782.27321	10060.9875
786.15132	8819.5875
790.02671	8045.4875
793.89938	7704.6875
797.76935	7558.5875
801.6366	7493.0875
805.50115	7433.1875
809.36299	7412.4875
813.22213	7368.1875
817.07857	7339.5875
820.93231	7306.4875
824.78336	7299.6875
828.63172	7325.2875
832.47738	7340.8875
836.32036	7322.3875
840.16066	7324.0875
843.99827	7274.9875
847.8332	7291.7875
851.66546	7281.5875
855.49504	7274.7875
859.32195	7251.0875
863.1462	7229.4875
866.96777	7209.2875
870.78668	7217.3875
874.60293	7229.7875
878.41652	7235.2875
882.22745	7254.0875
886.03573	7327.4875
889.84136	7346.4875
893.64433	7293.8875
897.44466	7251.6875
901.24235	7237.1875
905.0374	7231.9875
908.8298	7231.3875
912.61957	7246.6875
916.40671	7297.3875
920.19121	7377.0875
923.97308	7473.5875
927.75233	7550.2875
931.52895	7626.4875
935.30295	7571.5875
939.07433	7371.6875
942.84309	7192.0875
946.60924	7044.1875
950.37278	6966.6875
954.13371	6891.3875
957.89203	6820.7875
961.64774	6784.5875
965.40086	6750.4875
969.15137	6708.3875
972.89929	6671.4875
976.64461	6660.2875
980.38733	6612.6875
984.12747	6604.9875
987.86502	6623.5875
991.59999	6613.3875
995.33237	6659.3875
999.06217	6727.8875
1002.78939	6828.7875
1006.51404	6908.2875
1010.23611	6986.3875
1013.95561	7032.8875
1017.67255	6981.5875
1021.38692	6912.3875
1025.09872	6806.8875
1028.80796	6735.2875
1032.51465	6699.8875
1036.21877	6699.9875
1039.92035	6769.4875
1043.61937	6813.7875
1047.31584	6871.1875
1051.00976	6910.9875
1054.70114	6959.2875
1058.38998	6951.9875
1062.07627	6941.3875
1065.76003	6922.8875
1069.44126	6862.2875
1073.11995	6832.5875
1076.79611	6866.9875
1080.46974	6930.5875
1084.14085	7044.0875
1087.80943	7192.3875
1091.47549	7268.1875
1095.13903	7176.7875
1098.80005	6974.7875
1102.45857	6800.8875
1106.11456	6717.8875
1109.76805	6754.7875
1113.41903	6865.8875
1117.06751	7054.8875
1120.71348	7264.7875
1124.35696	7502.5875
1127.99793	7759.7875
1131.63641	7856.6875
1135.2724	7507.9875
1138.90589	7150.2875
1142.5369	6869.4875
1146.16542	6709.3875
1149.79145	6585.4875
1153.415	6520.5875
1157.03607	6549.3875
1160.65467	6594.0875
1164.27079	6761.2875
1167.88443	7061.7875
1171.49561	7569.8875
1175.10432	8440.9875
1178.71056	9606.3875
1182.31434	10604.5875
1185.91565	10820.8875
1189.51451	10439.4875
1193.11091	9759.9875
1196.70485	9008.0875
1200.29634	8441.4875
1203.88538	8015.3875
1207.47197	7489.8875
1211.05612	7051.3875
1214.63782	6822.1875
1218.21708	6780.5875
1221.79391	6817.5875
1225.36829	6890.7875
1228.94024	6904.7875
1232.50976	6852.4875
1236.07685	6780.6875
1239.6415	6738.6875
1243.20374	6693.7875
1246.76355	6701.1875
1250.32093	6711.4875
1253.8759	6780.4875
1257.42845	6907.5875
1260.97859	7087.6875
1264.52631	7300.2875
1268.07163	7486.3875
1271.61453	7678.0875
1275.15503	7801.2875
1278.69312	7838.7875
1282.22882	7862.9875
1285.76211	7975.2875
1289.29301	8221.0875
1292.82151	8540.3875
1296.34761	8859.2875
1299.87133	9260.6875
1303.39266	9877.6875
1306.9116	10839.1875
1310.42815	12141.9875
1313.94233	13014.6875
1317.45412	12834.4875
1320.96354	11753.5875
1324.47058	10512.1875
1327.97525	9469.9875
1331.47754	8762.6875
1334.97747	8474.2875
1338.47502	8454.2875
1341.97022	8603.0875
1345.46305	8894.3875
1348.95352	9570.6875
1352.44163	10641.1875
1355.92738	12092.6875
1359.41078	14115.8875
1362.89183	16366.7875
1366.37053	16683.1875
1369.84688	14295.2875
1373.32088	11477.3875
1376.79254	9626.0875
1380.26186	8762.8875
1383.72883	8408.8875
1387.19347	8121.9875
1390.65578	7875.3875
1394.11575	7586.8875
1397.57339	7418.3875
1401.0287	7359.7875
1404.48168	7310.4875
1407.93234	7272.5875
1411.38068	7212.9875
1414.82669	7147.4875
1418.27039	7127.2875
1421.71177	7068.3875
1425.15083	7009.2875
1428.58758	6941.3875
1432.02203	6941.3875
1435.45416	7026.9875
1438.88399	7087.1875
1442.31151	7084.5875
1445.73673	7090.9875
1449.15965	7079.5875
1452.58027	7031.0875
1455.9986	6898.5875
1459.41463	6805.3875
1462.82837	6765.4875
1466.23982	6870.7875
1469.64898	6992.3875
1473.05586	7108.3875
1476.46045	7158.9875
1479.86276	7221.8875
1483.26279	7331.8875
1486.66054	7476.6875
1490.05602	7657.0875
1493.44922	7958.7875
1496.84016	8420.4875
1500.22882	9234.0875
1503.61521	10519.6875
1506.99934	12026.2875
1510.38121	13598.0875
1513.76081	14515.0875
1517.13816	13944.4875
1520.51324	12148.4875
1523.88607	10165.0875
1527.25665	8854.8875
1530.62498	8122.0875
1533.99105	7736.5875
1537.35488	7459.5875
1540.71647	7288.7875
1544.07581	7166.7875
1547.4329	7112.3875
1550.78776	7102.0875
1554.14038	7121.9875
1557.49077	7247.3875
1560.83892	7389.0875
1564.18484	7588.0875
1567.52853	7848.2875
1570.86999	8121.8875
1574.20922	8353.1875
1577.54624	8379.3875
1580.88103	8022.0875
1584.2136	7403.3875
1587.54395	6915.7875
1590.87208	6788.1875
1594.19801	7000.0875
1597.52172	7474.8875
1600.84321	7804.7875
1604.16251	7680.6875
1607.47959	7308.4875
1610.79447	6853.7875
1614.10715	6382.6875
1617.41763	6047.3875
1620.7259	5830.7875
1624.03199	5729.8875
1627.33587	5710.1875
1630.63757	5791.6875
1633.93707	5969.3875
1637.23439	6315.9875
1640.52951	6874.4875
1643.82246	7794.4875
1647.11321	8941.4875
1650.40179	9854.8875
1653.68819	9813.3875
1656.97241	8649.3875
1660.25446	7216.1875
1663.53433	6147.2875
1666.81203	5542.3875
1670.08756	5195.8875
1673.36092	4993.5875
1676.63211	4846.9875
1679.90115	4757.9875
1683.16801	4682.4875
1686.43272	4607.5875
1689.69527	4576.4875
1692.95567	4523.8875
1696.2139	4486.4875
1699.46999	4475.5875
1702.72392	4434.6875
1705.97571	4444.6875
1709.22535	4394.6875
1712.47284	4389.2875
1715.71819	4409.9875
1718.96139	4384.3875
1722.20246	4363.3875
1725.44139	4326.2875
1728.67818	4323.2875
1731.91284	4272.5875
1735.14537	4240.1875
1738.37576	4218.7875
1741.60403	4182.3875
1744.83017	4176.6875
1748.05418	4166.7875
1751.27607	4132.9875
1754.49584	4124.5875
1757.71349	4112.2875
1760.92903	4089.8875
1764.14244	4070.8875
1767.35375	4046.9875
1770.56294	4026.6875
1773.77002	4019.5875
1776.97499	3999.4875
1780.17785	3983.6875
1783.37861	3968.0875
1786.57727	3960.5875
1789.77382	3948.7875
1792.96828	3932.9875
1796.16064	3913.2875
1799.3509	3920.7875
1802.53907	3896.6875
1805.72514	3894.0875
1808.90913	3854.6875
1812.09102	3842.0875
1815.27083	3829.5875
1818.44856	3834.1875
1821.6242	3820.4875
1824.79776	3814.0875
1827.96924	3788.1875
1831.13864	3765.7875
1834.30597	3768.8875
1837.47122	3766.8875
1840.6344	3748.6875
1843.7955	3758.3875
1846.95454	3736.3875
1850.11151	3739.8875
1853.26642	3721.8875
1856.41926	3711.9875
1859.57004	3728.8875
1862.71876	3705.8875
1865.86542	3704.3875
1869.01003	3697.7875
1872.15258	3703.8875
1875.29308	3673.1875
1878.43152	3692.1875
1881.56792	3678.9875
1884.70227	3669.7875
1887.83457	3662.2875
1890.96482	3647.3875
1894.09304	3654.1875
1897.21921	3649.7875
1900.34335	3638.0875
1903.46544	3634.3875
1906.58551	3636.2875
1909.70353	3628.7875
1912.81953	3616.9875
1915.93349	3602.8875
1919.04543	3607.5875
1922.15534	3593.2875
1925.26322	3574.0875
1928.36908	3570.1875
1931.47292	3557.3875
1934.57473	3525.4875
1937.67453	3525.5875
1940.77232	3512.7875
1943.86808	3502.7875
1946.96184	3481.7875
1950.05358	3473.6875
1953.14331	3443.2875
1956.23103	3430.0875
1959.31675	3422.3875
1962.40046	3408.1875
1965.48217	3393.0875
1968.56188	3394.6875
1971.63959	3375.9875
1974.7153	3394.6875
1977.78901	3348.4875
1980.86073	3349.8875
1983.93046	3330.8875
1986.99819	3311.7875
1990.06394	3309.3875
1993.1277	3285.5875
1996.18947	3277.7875
1999.24925	3250.4875
2002.30706	3234.1875
2005.36288	3230.1875
2008.41672	3217.2875
2011.46859	3207.3875
2014.51848	3197.5875
2017.56639	3191.2875
2020.61233	3175.3875
2023.6563	3161.2875
2026.6983	3147.7875
2029.73833	3143.1875
2032.7764	3126.9875
2035.8125	3121.2875
2038.84664	3100.4875
2041.87881	3106.9875
2044.90903	3101.8875
2047.93729	3083.9875
2050.96359	3092.3875
2053.98794	3086.0875
2057.01034	3072.3875
2060.03078	3079.0875
2063.04927	3069.4875
2066.06582	3064.9875
2069.08042	3063.3875
2072.09307	3065.5875
2075.10378	3054.7875
2078.11255	3047.6875
2081.11938	3048.8875
2084.12426	3046.3875
2087.12722	3045.4875
2090.12824	3050.6875
2093.12732	3039.2875
2096.12447	3036.2875
2099.11969	3046.3875
2102.11299	3052.2875
2105.10435	3040.2875
2108.09379	3041.8875
2111.08131	3033.9875
2114.0669	3022.5875
2117.05057	3019.4875
2120.03233	3023.4875
2123.01216	3021.3875
2125.99008	3017.1875
2128.96609	3028.7875
2131.94018	3012.0875
2134.91236	3017.3875
2137.88263	3013.7875
2140.851	3017.0875
2143.81746	3011.4875
2146.78201	3010.9875
2149.74466	2996.5875
2152.7054	3003.6875
2155.66425	2988.4875
2158.6212	2991.2875
2161.57625	2990.8875
2164.52941	2976.7875
2167.48067	2979.4875
2170.43004	2975.2875
2173.37752	2990.1875
2176.32311	2975.4875
2179.26681	2973.1875
2182.20863	2983.0875
2185.14856	2958.1875
2188.08661	2965.8875
2191.02278	2969.3875
2193.95707	2961.4875
2196.88948	2949.2875
2199.82001	2960.7875
2202.74867	2945.2875
2205.67545	2939.3875
2208.60037	2944.5875
2211.52341	2921.9875
2214.44458	2914.8875
2217.36388	2917.3875
2220.28132	2904.7875
2223.1969	2878.5875
2226.11061	2875.8875
2229.02246	2865.0875
2231.93245	2865.7875
2234.84058	2862.7875
2237.74686	2853.8875
2240.65128	2852.9875
2243.55385	2844.8875
2246.45456	2843.1875
2249.35343	2831.4875
2252.25044	2826.8875
2255.14561	2815.3875
2258.03893	2820.6875
2260.93041	2822.0875
2263.82004	2816.7875
2266.70783	2798.7875
2269.59378	2788.9875
2272.4779	2795.1875
2275.36017	2776.9875
2278.24061	2771.8875
2281.11922	2756.3875
2283.996	2752.8875
2286.87094	2754.4875
2289.74405	2729.8875
2292.61534	2721.0875
2295.4848	2724.1875
2298.35243	2722.7875
2301.21824	2704.2875
2304.08223	2714.8875
2306.94439	2696.1875
2309.80474	2692.0875
2312.66327	2693.2875
2315.51999	2688.6875
2318.37489	2684.5875
2321.22797	2688.0875
2324.07925	2688.3875
2326.92871	2662.4875
2329.77637	2665.9875
2332.62222	2666.3875
2335.46626	2658.8875
2338.3085	2653.0875
2341.14893	2644.2875
2343.98756	2655.4875
2346.8244	2639.9875
2349.65943	2636.4875
2352.49267	2635.8875
2355.32411	2640.9875
2358.15376	2643.3875
2360.98161	2658.7875
2363.80768	2658.4875
2366.63195	2658.2875
2369.45444	2663.4875
2372.27514	2664.6875
2375.09405	2652.9875
2377.91118	2635.8875
2380.72652	2636.2875
2383.54009	2612.5875
2386.35187	2604.5875
2389.16188	2588.5875
2391.97011	2575.4875
2394.77657	2560.8875
2397.58125	2552.3875
2400.38416	2545.5875
2403.18529	2529.6875
2405.98466	2524.9875
2408.78226	2526.9875
2411.57809	2525.6875
2414.37216	2520.8875
2417.16446	2514.5875
2419.955	2516.7875
2422.74378	2503.0875
2425.5308	2513.2875
2428.31606	2502.2875
2431.09956	2506.5875
2433.88131	2509.2875
2436.6613	2489.3875
2439.43954	2496.0875
2442.21603	2494.2875
2444.99077	2481.6875
2447.76377	2494.1875
2450.53501	2479.3875
2453.30451	2479.5875
2456.07226	2479.6875
2458.83827	2482.5875
2461.60254	2479.4875
2464.36507	2485.4875
2467.12586	2470.8875
2469.88492	2469.1875
2472.64224	2477.1875
2475.39782	2465.6875
2478.15167	2460.4875
2480.90379	2460.3875
2483.65417	2471.8875
2486.40283	2461.9875
2489.14976	2476.9875
2491.89497	2473.4875
2494.63845	2471.8875
2497.3802	2467.6875
2500.12024	2459.2875
2502.85855	2453.7875
2505.59514	2455.3875
2508.33002	2443.8875
2511.06318	2422.3875
2513.79462	2416.0875
2516.52435	2400.0875
2519.25237	2395.6875
2521.97867	2376.5875
2524.70327	2375.0875
2527.42616	2354.2875
2530.14734	2357.5875
2532.86681	2346.3875
2535.58458	2343.9875
2538.30065	2337.1875
2541.01501	2335.0875
2543.72768	2337.5875
2546.43864	2331.8875
2549.14791	2345.7875
2551.85548	2333.6875
2554.56136	2324.3875
2557.26554	2331.6875
2559.96803	2310.5875
2562.66883	2311.9875
2565.36794	2326.3875
2568.06536	2313.7875
2570.7611	2305.8875
2573.45514	2303.2875
2576.14751	2301.3875
2578.83819	2272.6875
2581.52719	2292.1875
2584.21451	2274.0875
2586.90015	2273.9875
2589.58411	2267.7875
2592.2664	2264.5875
2594.94701	2260.0875
2597.62594	2249.9875
2600.30321	2243.9875
2602.9788	2234.4875
2605.65273	2250.1875
2608.32498	2233.5875
2610.99557	2231.3875
2613.66449	2235.3875
2616.33175	2232.5875
2618.99734	2228.8875
2621.66128	2241.8875
2624.32355	2226.6875
2626.98416	2219.5875
2629.64311	2223.3875
2632.30041	2221.9875
2634.95605	2209.7875
2637.61004	2216.2875
2640.26238	2192.2875
2642.91306	2203.5875
2645.56209	2187.0875
2648.20948	2182.4875
2650.85521	2186.3875
2653.4993	2188.4875
2656.14175	2198.4875
2658.78255	2194.7875
2661.42171	2189.5875
2664.05923	2201.3875
2666.6951	2195.4875
2669.32934	2200.0875
2671.96194	2206.3875
2674.59291	2225.0875
2677.22224	2204.3875
2679.84993	2208.8875
2682.476	2207.4875
2685.10043	2205.1875
2687.72324	2199.8875
2690.34441	2202.8875
2692.96396	2203.2875
2695.58188	2203.5875
2698.19818	2207.2875
2700.81285	2216.7875
2703.4259	2208.5875
2706.03733	2203.9875
2708.64714	2214.5875
2711.25533	2232.3875
2713.86191	2213.4875
2716.46687	2243.1875
2719.07021	2250.3875
2721.67194	2242.5875
2724.27206	2238.1875
2726.87057	2249.0875
2729.46747	2258.6875
2732.06276	2257.2875
2734.65644	2252.0875
2737.24852	2255.8875
2739.83899	2256.1875
2742.42786	2276.3875
2745.01513	2263.1875
2747.60079	2275.5875
2750.18486	2267.0875
2752.76733	2270.8875
2755.3482	2286.3875
2757.92747	2281.6875
2760.50515	2288.2875
2763.08123	2291.9875
2765.65573	2279.3875
2768.22863	2282.1875
2770.79994	2275.1875
2773.36967	2275.7875
2775.9378	2277.1875
2778.50435	2286.6875
2781.06932	2288.3875
2783.6327	2283.5875
2786.1945	2300.6875
2788.75471	2281.9875
2791.31335	2285.3875
2793.87041	2293.0875
2796.42589	2285.2875
2798.97979	2296.5875
2801.53212	2311.0875
2804.08288	2306.7875
2806.63206	2307.3875
2809.17967	2316.6875
2811.72571	2311.2875
2814.27018	2316.4875
2816.81308	2309.5875
2819.35442	2316.8875
2821.89419	2315.8875
2824.43239	2317.2875
2826.96904	2319.3875
2829.50412	2316.8875
2832.03763	2324.1875
2834.56959	2337.5875
2837.1	2353.8875
2839.62884	2379.8875
2842.15613	2423.6875
2844.68186	2468.2875
2847.20604	2523.0875
2849.72867	2562.1875
2852.24974	2598.3875
2854.76927	2611.9875
2857.28724	2609.0875
2859.80367	2619.2875
2862.31855	2635.5875
2864.83189	2637.4875
2867.34368	2632.6875
2869.85393	2647.6875
2872.36264	2664.0875
2874.8698	2681.6875
2877.37543	2672.7875
2879.87952	2691.5875
2882.38207	2686.8875
2884.88308	2693.3875
2887.38256	2696.5875
2889.88051	2703.2875
2892.37692	2694.4875
2894.8718	2703.9875
2897.36515	2695.9875
2899.85698	2705.4875
2902.34727	2714.3875
2904.83604	2715.6875
2907.32328	2714.4875
2909.809	2718.3875
2912.29319	2705.6875
2914.77587	2695.0875
2917.25702	2710.4875
2919.73665	2705.8875
2922.21476	2695.8875
2924.69136	2711.8875
2927.16644	2684.7875
2929.64	2675.8875
2932.11205	2655.7875
2934.58258	2648.9875
2937.05161	2627.3875
2939.51912	2596.4875
2941.98513	2567.3875
2944.44962	2500.3875
2946.91261	2457.0875
2949.37409	2417.5875
2951.83407	2384.2875
2954.29254	2352.6875
2956.74951	2307.3875
2959.20498	2288.1875
2961.65895	2261.1875
2964.11142	2237.2875
2966.56239	2213.3875
2969.01186	2188.3875
2971.45984	2160.9875
2973.90632	2139.1875
2976.35131	2114.3875
2978.7948	2091.4875
2981.23681	2080.1875
2983.67732	2068.7875
2986.11635	2042.8875
2988.55388	2026.5875
2990.98993	2008.8875
2993.4245	2002.8875
2995.85758	1997.8875
2998.28917	1978.4875
3000.71928	1978.5875
3003.14791	1987.2875
3005.57506	1976.3875
3008.00073	1956.6875
3010.42493	1960.1875
3012.84764	1947.1875
3015.26888	1942.3875
3017.68865	1941.4875
3020.10694	1933.6875
3022.52376	1930.7875
3024.9391	1925.6875
3027.35298	1919.9875
3029.76539	1917.3875
3032.17632	1907.0875
3034.5858	1912.0875
3036.9938	1905.2875
3039.40034	1902.6875
3041.80542	1894.2875
3044.20903	1888.2875
3046.61118	1892.5875
3049.01187	1882.2875
3051.4111	1880.8875
3053.80888	1882.4875
3056.20519	1878.0875
3058.60005	1877.8875
3060.99345	1876.6875
3063.3854	1877.6875
3065.7759	1874.9875
3068.16494	1879.9875
3070.55254	1872.8875
3072.93868	1872.2875
3075.32338	1866.7875
3077.70662	1860.3875
3080.08842	1860.5875
3082.46878	1862.6875
3084.84769	1862.1875
3087.22515	1865.5875
3089.60118	1866.4875
3091.97576	1861.3875
3094.3489	1858.8875
3096.72061	1868.0875
3099.09087	1871.5875
3101.4597	1866.5875
3103.82709	1873.5875
3106.19305	1865.3875
3108.55757	1868.9875
3110.92066	1871.1875
3113.28232	1871.0875
3115.64255	1874.0875
3118.00134	1874.5875
3120.35871	1871.9875
3122.71466	1882.9875
