Data from AgNPs_FTO_APTES_UA_2uM_CRN_1uM_R6G_10uM_NaF_0.1M_Addition_RamanShift__19__11-41-15-023.txt Node

Date: Wed Feb 02 11:41:15 GMT 2022
User: TCL
Spectrometer: QEP01345
Trigger mode: 4
Integration Time (sec): 7.000000E0
Scans to average: 10
Electric dark correction enabled: true
Nonlinearity correction enabled: false
Boxcar width: 0
XAxis mode: Raman Shifts
Number of Pixels in Spectrum: 1044
>>>>>Begin Spectral Data<<<<<
46.04893	2
50.45542	0.1
54.85868	-1.9
59.25871	-0.6
63.6555	85.4
68.04907	89.9
72.43941	92.7
76.82654	102.9
81.21044	105.1
85.59113	106.5
89.96862	110.6
94.34289	116.1
98.71396	117.9
103.08183	128.6
107.4465	130.6
111.80798	129.7
116.16626	130.7
120.52136	137.7
124.87327	143.7
129.222	153.5
133.56755	164.2
137.90993	178.8
142.24913	201.9
146.58517	227.5
150.91804	266.4
155.24774	322
159.57429	401.5
163.89768	515.1
168.21792	682.9
172.53501	938
176.84895	1308
181.15975	1834.4
185.46741	2578.1
189.77193	3532.3
194.07331	4716.3
198.37157	6057.9
202.6667	7473.9
206.9587	8847.4
211.24758	10244.4
215.53334	11670
219.81599	13236.1
224.09553	14965.4
228.37195	16848.9
232.64527	18859.8
236.91549	21018.7
241.18261	23020.6
245.44663	24880.2
249.70755	26454.7
253.96539	27827.6
258.22014	29003
262.4718	29999.1
266.72039	30738.1
270.96589	31125.5
275.20832	31216.6
279.44768	30996.2
283.68397	30787.4
287.91719	30713.7
292.14735	30729.4
296.37445	30849.1
300.59849	31139.2
304.81948	31329.8
309.03742	31436.6
313.25231	31059
317.46415	30036.6
321.67296	28733.7
325.87872	27596.7
330.08145	26872.9
334.28114	26697.4
338.47781	26794
342.67145	27082.3
346.86207	27550.4
351.04966	28257.1
355.23424	28985.3
359.4158	29618.1
363.59435	29956.7
367.76989	30136.2
371.94243	30230.4
376.11196	30298.7
380.27849	30364.9
384.44203	30503.6
388.60257	30693.8
392.76012	31014.4
396.91468	31492.6
401.06626	32089.1
405.21485	32423.9
409.36047	32124
413.50311	31282.9
417.64277	30673.7
421.77947	30516.7
425.9132	30563.3
430.04396	30743.1
434.17176	30905
438.2966	31082
442.41849	31579.8
446.53742	32551.6
450.6534	33646.3
454.76644	34392.3
458.87653	34654.5
462.98368	34536.3
467.08789	34200.8
471.18916	33762.4
475.2875	33438.1
479.38291	33414.8
483.4754	33449.4
487.56496	33141.8
491.6516	32492.3
495.73531	31695.1
499.81612	31170.9
503.89401	31111.6
507.96899	31122.7
512.04106	30988.4
516.11023	30680.9
520.1765	30225.6
524.23987	29830.3
528.30034	29392.6
532.35792	28973.1
536.41261	28405.5
540.46441	27937.3
544.51333	27880.9
548.55936	28374.9
552.60252	29343.2
556.64279	30385.8
560.6802	31126.6
564.71473	31643.1
568.7464	32548
572.7752	33738.1
576.80114	34485.2
580.82422	35109.8
584.84444	35614.7
588.86181	36135.4
592.87633	36586.1
596.888	36733.5
600.89682	36442.4
604.9028	37621.8
608.90594	41850.4
612.90624	46385.5
616.90371	42999
620.89834	33728.8
624.89015	29522.3
628.87913	29079.4
632.86528	29310.4
636.84862	29254.2
640.82913	28686.6
644.80683	27551.4
648.78172	26680.8
652.75379	26352.8
656.72306	26681.3
660.68952	27367.1
664.65319	27256.7
668.61405	26474.7
672.57211	26140.2
676.52738	26132.6
680.47986	26108
684.42955	25947.1
688.37646	25744.8
692.32058	25821
696.26192	26199.4
700.20048	26684.7
704.13626	27020.2
708.06928	27060.7
711.99952	26890.3
715.927	26724.9
719.85171	26786.3
723.77365	26722.2
727.69284	26285.2
731.60928	25862
735.52295	25740.9
739.43388	25751.4
743.34206	25887.5
747.24749	26041.9
751.15017	26391.3
755.05012	27103.9
758.94733	28273
762.8418	30449
766.73354	34006
770.62254	37375.6
774.50882	38135.1
778.39237	35710.3
782.27321	31995
786.15132	28983.2
790.02671	27175.2
793.89938	26303.5
797.76935	25972.5
801.6366	25843.1
805.50115	25719.1
809.36299	25455.3
813.22213	25211.4
817.07857	25083.8
820.93231	24949.7
824.78336	24769.8
828.63172	24610.4
832.47738	24541.6
836.32036	24543.6
840.16066	24622.3
843.99827	24670
847.8332	24571.1
851.66546	24409
855.49504	24310.6
859.32195	24321.1
863.1462	24178.2
866.96777	23992.7
870.78668	23929.6
874.60293	23908.3
878.41652	23970.3
882.22745	24072.1
886.03573	24222.2
889.84136	24282.9
893.64433	24172.8
897.44466	24148.9
901.24235	24038.1
905.0374	23884.6
908.8298	23748.3
912.61957	23801.4
916.40671	24084.7
920.19121	24610.5
923.97308	25101.5
927.75233	25276.1
931.52895	25145.2
935.30295	24639.6
939.07433	23787.8
942.84309	23141.2
946.60924	22793.9
950.37278	22668.1
954.13371	22665.5
957.89203	22582.5
961.64774	22518.1
965.40086	22485.3
969.15137	22335.4
972.89929	22235.5
976.64461	22069.5
980.38733	21964.7
984.12747	22028.6
987.86502	22204.4
991.59999	22507.8
995.33237	23116.4
999.06217	24061.7
1002.78939	25163.8
1006.51404	25935.6
1010.23611	26351.6
1013.95561	26630
1017.67255	26630.1
1021.38692	26217.1
1025.09872	25717.4
1028.80796	25771.3
1032.51465	26588.2
1036.21877	27379.3
1039.92035	27485.3
1043.61937	27137.5
1047.31584	26355.8
1051.00976	25594.9
1054.70114	25230.9
1058.38998	25201
1062.07627	25397.3
1065.76003	25642.6
1069.44126	25977.8
1073.11995	26488.6
1076.79611	26974.1
1080.46974	27230.6
1084.14085	27528.1
1087.80943	28030
1091.47549	28420.7
1095.13903	28477.8
1098.80005	27946.1
1102.45857	26971.1
1106.11456	26142.2
1109.76805	25730.1
1113.41903	25669.4
1117.06751	25885.2
1120.71348	26300.6
1124.35696	26758.5
1127.99793	27388.1
1131.63641	27752.6
1135.2724	27610.2
1138.90589	27351.1
1142.5369	27198.7
1146.16542	27314.8
1149.79145	27539.9
1153.415	27952.9
1157.03607	28585.5
1160.65467	29695.2
1164.27079	31444.4
1167.88443	33879.6
1171.49561	36998.8
1175.10432	41105.1
1178.71056	46349.9
1182.31434	51166.3
1185.91565	53622.3
1189.51451	53583.9
1193.11091	51612.6
1196.70485	48483.4
1200.29634	45309.6
1203.88538	42894.1
1207.47197	41274.7
1211.05612	40035.7
1214.63782	39115.5
1218.21708	38224.4
1221.79391	37654.2
1225.36829	37330.2
1228.94024	36802.3
1232.50976	36037
1236.07685	35316.4
1239.6415	34782.8
1243.20374	34418.5
1246.76355	34446.9
1250.32093	34919
1253.8759	35977.1
1257.42845	37445.7
1260.97859	39141.3
1264.52631	40842
1268.07163	42532.7
1271.61453	44298.6
1275.15503	46219.8
1278.69312	48119.7
1282.22882	49806.6
1285.76211	51467
1289.29301	53464.6
1292.82151	55976.3
1296.34761	59169.5
1299.87133	63101.9
1303.39266	67699.3
1306.9116	72688
1310.42815	77419
1313.94233	80762.7
1317.45412	81346.4
1320.96354	80118.8
1324.47058	78627
1327.97525	77067.6
1331.47754	75557.2
1334.97747	74303.1
1338.47502	73116.8
1341.97022	71632
1345.46305	69668.2
1348.95352	67572.9
1352.44163	66308.4
1355.92738	67056.7
1359.41078	70220.5
1362.89183	74108.3
1366.37053	73983.9
1369.84688	67877.3
1373.32088	59622.3
1376.79254	53614.4
1380.26186	51034.5
1383.72883	50642.6
1387.19347	50637.3
1390.65578	50385.5
1394.11575	50572.1
1397.57339	51617.5
1401.0287	53052.3
1404.48168	54272.3
1407.93234	54139.6
1411.38068	52773.6
1414.82669	50352.3
1418.27039	47380.4
1421.71177	44554.1
1425.15083	42293
1428.58758	41040.3
1432.02203	41053.6
1435.45416	42110
1438.88399	43570.9
1442.31151	44956.7
1445.73673	46062.2
1449.15965	47202.9
1452.58027	48127.5
1455.9986	48617.7
1459.41463	49090.7
1462.82837	49922.3
1466.23982	51000.8
1469.64898	51790.8
1473.05586	52042.1
1476.46045	51772.2
1479.86276	51044.4
1483.26279	50221.3
1486.66054	49747.8
1490.05602	49954.2
1493.44922	50481.5
1496.84016	51181.8
1500.22882	52511.9
1503.61521	54748.7
1506.99934	57516.2
1510.38121	60023.9
1513.76081	60942.1
1517.13816	59471.7
1520.51324	56453.2
1523.88607	53467
1527.25665	51745
1530.62498	50917.5
1533.99105	50419.2
1537.35488	49834.2
1540.71647	48874.8
1544.07581	47575
1547.4329	46107.3
1550.78776	44888.5
1554.14038	44137.7
1557.49077	43865.3
1560.83892	43869.2
1564.18484	44012.3
1567.52853	44257.4
1570.86999	44763.4
1574.20922	45659
1577.54624	46630.4
1580.88103	46907.8
1584.2136	47365.7
1587.54395	48958.2
1590.87208	51778.5
1594.19801	55418.1
1597.52172	58891.8
1600.84321	59479.2
1604.16251	55850.2
1607.47959	49998.3
1610.79447	44278.8
1614.10715	39280.3
1617.41763	35310.5
1620.7259	32708.4
1624.03199	31417.4
1627.33587	31477.3
1630.63757	32925.6
1633.93707	35975.2
1637.23439	40823.1
1640.52951	47703.5
1643.82246	55412.8
1647.11321	61260.9
1650.40179	62519.7
1653.68819	57929.7
1656.97241	49252.8
1660.25446	40205.5
1663.53433	33223.4
1666.81203	28653.3
1670.08756	25855.3
1673.36092	24077.4
1676.63211	22919
1679.90115	22205.9
1683.16801	21669.7
1686.43272	21235.6
1689.69527	20996.1
1692.95567	20766.3
1696.2139	20588.7
1699.46999	20441.3
1702.72392	20347.9
1705.97571	20233.1
1709.22535	20179.6
1712.47284	20102.4
1715.71819	20035.7
1718.96139	19966.2
1722.20246	19867.3
1725.44139	19717
1728.67818	19534.6
1731.91284	19367.6
1735.14537	19238.4
1738.37576	19114.2
1741.60403	19020.2
1744.83017	18927.7
1748.05418	18863.2
1751.27607	18821.9
1754.49584	18777.1
1757.71349	18749.5
1760.92903	18729.1
1764.14244	18708
1767.35375	18669.2
1770.56294	18639.5
1773.77002	18581.3
1776.97499	18545.7
1780.17785	18434.3
1783.37861	18427.8
1786.57727	18372.8
1789.77382	18322.8
1792.96828	18299.4
1796.16064	18253.8
1799.3509	18191.7
1802.53907	18145.3
1805.72514	18151.2
1808.90913	18113.5
1812.09102	18014.4
1815.27083	18020.5
1818.44856	17958.6
1821.6242	17984.5
1824.79776	17935.8
1827.96924	17945.2
1831.13864	17944.5
1834.30597	17999.6
1837.47122	18013.5
1840.6344	18041.7
1843.7955	18075.6
1846.95454	18089.2
1850.11151	18096.4
1853.26642	18130.4
1856.41926	18105.2
1859.57004	18097
1862.71876	18110.9
1865.86542	18131.3
1869.01003	18144.1
1872.15258	18097
1875.29308	18140.2
1878.43152	18147.8
1881.56792	18161.5
1884.70227	18139.8
1887.83457	18155.3
1890.96482	18154.7
1894.09304	18148
1897.21921	18147.9
1900.34335	18115.9
1903.46544	18149.7
1906.58551	18132
1909.70353	18108.4
1912.81953	18026.2
1915.93349	17954.6
1919.04543	17898.2
1922.15534	17807.5
1925.26322	17696.2
1928.36908	17597.9
1931.47292	17491.8
1934.57473	17407.5
1937.67453	17299.8
1940.77232	17227.3
1943.86808	17130.3
1946.96184	17045
1950.05358	17000.8
1953.14331	16897.6
1956.23103	16852.1
1959.31675	16759.3
1962.40046	16729.6
1965.48217	16657.8
1968.56188	16618.7
1971.63959	16527.3
1974.7153	16502.4
1977.78901	16422.4
1980.86073	16384.7
1983.93046	16313.3
1986.99819	16246.2
1990.06394	16215
1993.1277	16195.2
1996.18947	16050.6
1999.24925	16017.7
2002.30706	15966.5
2005.36288	15913
2008.41672	15903.8
2011.46859	15821
2014.51848	15805.2
2017.56639	15736.5
2020.61233	15704.1
2023.6563	15694.1
2026.6983	15664.6
2029.73833	15641.3
2032.7764	15583.5
2035.8125	15565.5
2038.84664	15556.8
2041.87881	15581.7
2044.90903	15532.4
2047.93729	15531.3
2050.96359	15519.7
2053.98794	15494.6
2057.01034	15458
2060.03078	15424.2
2063.04927	15425.5
2066.06582	15385.3
2069.08042	15368.6
2072.09307	15352.4
2075.10378	15337
2078.11255	15314.8
2081.11938	15354.9
2084.12426	15312.2
2087.12722	15304.4
2090.12824	15247.5
2093.12732	15287.2
2096.12447	15287.2
2099.11969	15310.7
2102.11299	15349.7
2105.10435	15297.3
2108.09379	15338.6
2111.08131	15313.9
2114.0669	15304.9
2117.05057	15360
2120.03233	15315.4
2123.01216	15302.7
2125.99008	15331.6
2128.96609	15335.9
2131.94018	15332.5
2134.91236	15342.5
2137.88263	15364.7
2140.851	15347.6
2143.81746	15377
2146.78201	15339.8
2149.74466	15315
2152.7054	15356.6
2155.66425	15363.5
2158.6212	15383.1
2161.57625	15327.2
2164.52941	15342.3
2167.48067	15320.4
2170.43004	15309.7
2173.37752	15308.7
2176.32311	15302.7
2179.26681	15322.1
2182.20863	15301.6
2185.14856	15311.3
2188.08661	15328.6
2191.02278	15339.8
2193.95707	15306.2
2196.88948	15278.3
2199.82001	15315.1
2202.74867	15297
2205.67545	15295.9
2208.60037	15287
2211.52341	15278.8
2214.44458	15286.7
2217.36388	15226.2
2220.28132	15223.8
2223.1969	15196.1
2226.11061	15145.7
2229.02246	15122
2231.93245	15111.7
2234.84058	15063.6
2237.74686	15038.8
2240.65128	15035.2
2243.55385	15013
2246.45456	14987
2249.35343	14941.8
2252.25044	14893.1
2255.14561	14897.7
2258.03893	14909
2260.93041	14828.7
2263.82004	14799.7
2266.70783	14783.5
2269.59378	14740.4
2272.4779	14748.8
2275.36017	14692.1
2278.24061	14645.5
2281.11922	14621.3
2283.996	14624
2286.87094	14583.3
2289.74405	14525.4
2292.61534	14529.2
2295.4848	14484.3
2298.35243	14522.1
2301.21824	14531.7
2304.08223	14521.8
2306.94439	14542.9
2309.80474	14593.4
2312.66327	14597.8
2315.51999	14574.7
2318.37489	14596.8
2321.22797	14594.9
2324.07925	14550.7
2326.92871	14553.8
2329.77637	14545.1
2332.62222	14560.4
2335.46626	14549
2338.3085	14546.5
2341.14893	14589.1
2343.98756	14603
2346.8244	14601.1
2349.65943	14592.8
2352.49267	14603.9
2355.32411	14610.1
2358.15376	14595.5
2360.98161	14594.6
2363.80768	14587
2366.63195	14590.4
2369.45444	14549.2
2372.27514	14536.4
2375.09405	14508.5
2377.91118	14435.2
2380.72652	14402.9
2383.54009	14366.7
2386.35187	14336.9
2389.16188	14291
2391.97011	14282.5
2394.77657	14247.3
2397.58125	14229.8
2400.38416	14234
2403.18529	14193.3
2405.98466	14140.5
2408.78226	14121.8
2411.57809	14076
2414.37216	14086.1
2417.16446	14061.9
2419.955	14061
2422.74378	14037.5
2425.5308	14053.8
2428.31606	14030.3
2431.09956	14017.7
2433.88131	13996.9
2436.6613	14039.3
2439.43954	14025.9
2442.21603	14013.5
2444.99077	14017.4
2447.76377	13993
2450.53501	13987.2
2453.30451	14020.3
2456.07226	14040.4
2458.83827	14049.8
2461.60254	14057.4
2464.36507	14064.5
2467.12586	14042.7
2469.88492	14065.8
2472.64224	14075.3
2475.39782	14085.8
2478.15167	14093.9
2480.90379	14089
2483.65417	14125.1
2486.40283	14104.9
2489.14976	14156.1
2491.89497	14141.2
2494.63845	14170.2
2497.3802	14169.5
2500.12024	14146.9
2502.85855	14162.1
2505.59514	14120
2508.33002	14129.9
2511.06318	14111.2
2513.79462	14084.9
2516.52435	14080.9
2519.25237	14044.3
2521.97867	14029.6
2524.70327	14003.6
2527.42616	14007.3
2530.14734	14015.1
2532.86681	13996.6
2535.58458	14019
2538.30065	13978.8
2541.01501	13978.3
2543.72768	13966.8
2546.43864	13951.8
2549.14791	13969.5
2551.85548	13975.9
2554.56136	13964
2557.26554	13958.3
2559.96803	13926.3
2562.66883	13896.5
2565.36794	13924.3
2568.06536	13914.7
2570.7611	13914.1
2573.45514	13897.8
2576.14751	13900.1
2578.83819	13939.2
2581.52719	13935.4
2584.21451	13916.9
2586.90015	13926.3
2589.58411	13914.9
2592.2664	13916.9
2594.94701	13914.2
2597.62594	13896.7
2600.30321	13897.7
2602.9788	13894.3
2605.65273	13892.9
2608.32498	13909.1
2610.99557	13893.1
2613.66449	13914.6
2616.33175	13912.9
2618.99734	13969
2621.66128	13947.8
2624.32355	13983.2
2626.98416	13960.7
2629.64311	13966.9
2632.30041	13942.4
2634.95605	13935.4
2637.61004	13951.9
2640.26238	13941.7
2642.91306	13930.6
2645.56209	13914.8
2648.20948	13899.5
2650.85521	13887.6
2653.4993	13877
2656.14175	13874
2658.78255	13884.7
2661.42171	13898.8
2664.05923	13924.8
2666.6951	13897
2669.32934	13937.4
2671.96194	13919.2
2674.59291	13969.7
2677.22224	13954.6
2679.84993	13916.7
2682.476	13921.4
2685.10043	13913.9
2687.72324	13870.3
2690.34441	13875.5
2692.96396	13860.5
2695.58188	13864.7
2698.19818	13853.6
2700.81285	13848.4
2703.4259	13866.8
2706.03733	13856.7
2708.64714	13837.7
2711.25533	13880.7
2713.86191	13862.7
2716.46687	13913.3
2719.07021	13889.2
2721.67194	13918
2724.27206	13897.1
2726.87057	13892.3
2729.46747	13920.4
2732.06276	13921.5
2734.65644	13923
2737.24852	13919.3
2739.83899	13955.9
2742.42786	13940
2745.01513	13928.7
2747.60079	13918.6
2750.18486	13914.2
2752.76733	13914.9
2755.3482	13893.8
2757.92747	13893.6
2760.50515	13928.3
2763.08123	13903.6
2765.65573	13915.1
2768.22863	13907.5
2770.79994	13889.6
2773.36967	13890.9
2775.9378	13887.5
2778.50435	13916.9
2781.06932	13874.1
2783.6327	13866.6
2786.1945	13902.3
2788.75471	13902.7
2791.31335	13861.1
2793.87041	13889.4
2796.42589	13805.3
2798.97979	13807.6
2801.53212	13808.7
2804.08288	13814.4
2806.63206	13782
2809.17967	13756.9
2811.72571	13718.3
2814.27018	13722.7
2816.81308	13713.7
2819.35442	13705.4
2821.89419	13698.2
2824.43239	13694.4
2826.96904	13691.2
2829.50412	13679.4
2832.03763	13618.1
2834.56959	13649.4
2837.1	13603.5
2839.62884	13624.3
2842.15613	13679.6
2844.68186	13707.9
2847.20604	13744.5
2849.72867	13724.2
2852.24974	13725.8
2854.76927	13742.7
2857.28724	13725.8
2859.80367	13730.8
2862.31855	13713.4
2864.83189	13705.7
2867.34368	13697.9
2869.85393	13706.8
2872.36264	13695.9
2874.8698	13713.4
2877.37543	13732.5
2879.87952	13777.5
2882.38207	13768.6
2884.88308	13779.4
2887.38256	13805
2889.88051	13782.8
2892.37692	13786.7
2894.8718	13787.8
2897.36515	13813.7
2899.85698	13840.3
2902.34727	13875.1
2904.83604	13883.3
2907.32328	13926.8
2909.809	13909.4
2912.29319	13943.4
2914.77587	13931.6
2917.25702	13919.3
2919.73665	13899.2
2922.21476	13923.7
2924.69136	13861.3
2927.16644	13892.1
2929.64	13860.2
2932.11205	13874.3
2934.58258	13782.5
2937.05161	13794.2
2939.51912	13780.4
2941.98513	13773.5
2944.44962	13706.3
2946.91261	13602.4
2949.37409	13605.1
2951.83407	13597
2954.29254	13548.2
2956.74951	13555.3
2959.20498	13516.4
2961.65895	13488
2964.11142	13465.4
2966.56239	13411.3
2969.01186	13431.6
2971.45984	13345.5
2973.90632	13291.8
2976.35131	13273
2978.7948	13202.6
2981.23681	13187.3
2983.67732	13123.1
2986.11635	13059.1
2988.55388	13064.6
2990.98993	13004.7
2993.4245	12962.3
2995.85758	12927.1
2998.28917	12912.3
3000.71928	12904.5
3003.14791	12891.3
3005.57506	12817.9
3008.00073	12801.2
3010.42493	12790.1
3012.84764	12794.3
3015.26888	12786.2
3017.68865	12748.2
3020.10694	12705.4
3022.52376	12669.5
3024.9391	12649
3027.35298	12651.6
3029.76539	12615.1
3032.17632	12610.8
3034.5858	12550
3036.9938	12575.8
3039.40034	12562.6
3041.80542	12562.7
3044.20903	12565.3
3046.61118	12517.3
3049.01187	12498.1
3051.4111	12476.7
3053.80888	12460
3056.20519	12427.6
3058.60005	12389.4
3060.99345	12379.2
3063.3854	12360.5
3065.7759	12306.8
3068.16494	12312.8
3070.55254	12249.5
3072.93868	12252.3
3075.32338	12222.5
3077.70662	12177.9
3080.08842	12144.3
3082.46878	12128.8
3084.84769	12092.7
3087.22515	12111.1
3089.60118	12082.5
3091.97576	12093.7
3094.3489	12067.4
3096.72061	12061.8
3099.09087	12068.2
3101.4597	12024.2
3103.82709	11993.1
3106.19305	11960.6
3108.55757	11978.1
3110.92066	11941.9
3113.28232	11899.3
3115.64255	11871.5
3118.00134	11838.4
3120.35871	11856.3
3122.71466	11820.1
3125.06917	11779.6
3127.42226	11772.2
3129.77393	11764.6
3132.12417	11754.4
3134.47299	11785.2
3136.82039	11760.1
3139.16636	11756.9
3141.51092	11731.7
3143.85406	11755.6
3146.19579	11750.5
3148.53609	11752.6
3150.87499	11763.3
3153.21246	11729.8
3155.54853	11761.9
3157.88318	11740
3160.21642	11748.2
3162.54826	11753.2
3164.87868	11737.8
3167.2077	11728.5
3169.5353	11726.2
3171.86151	11716
3174.18631	11719
3176.5097	11714.5
3178.83169	11706.6
3181.15228	11717.5
3183.47147	11696.1
3185.78926	11653.1
3188.10565	11664.6
3190.42065	11695.7
3192.73424	11714.3
3195.04645	11666
3197.35725	11690.8
3199.66667	11677.7
3201.97469	11671.7
3204.28132	11689.1
3206.58656	11672.4
3208.8904	11662.6
3211.19287	11688.8
3213.49394	11694.9
3215.79363	11686.6
3218.09193	11653.3
3220.38884	11666.6
3222.68438	11704
3224.97853	11680.4
3227.2713	11668.7
3229.56269	11663.9
3231.8527	11642.2
3234.14133	11640.8
3236.42858	11604.7
3238.71446	11593.7
3240.99896	11589.4
3243.28209	11599.4
3245.56384	11569.1
3247.84423	11581.3
3250.12324	11553.9
3252.40088	11538.8
3254.67715	11548.2
3256.95205	11490.8
3259.22558	11479.5
3261.49775	11435.9
3263.76855	11438.6
3266.03799	11399
3268.30606	11427.9
3270.57277	11371.7
3272.83812	11365.8
3275.10211	11364.2
3277.36474	11358.8
3279.62601	11372.7
3281.88593	11364.8
3284.14448	11389.9
3286.40168	11393.9
3288.65753	11367.6
3290.91202	11350.6
3293.16516	11310.3
3295.41695	11286.9
3297.66738	11218.1
3299.91647	11178.7
3302.16421	11078.7
3304.4106	11048.1
3306.65564	10985.3
3308.89933	10911.9
3311.14169	10860.9
3313.38269	10748.2
3315.62236	10712.9
3317.86068	10587.5
3320.09766	10493.1
3322.3333	10425.5
3324.5676	10414.7
3326.80056	10277.6
3329.03219	10219.2
3331.26248	2.7
3333.49143	-1.7
3335.71905	-0.5
