Data from AgNPs_FTO_APTES_UA_2uM_CRN_0uM_R6G_10uM_NaF_0.1M_Addition_RamanShift__47__10-59-14-975.txt Node

Date: Wed Feb 02 10:59:14 GMT 2022
User: TCL
Spectrometer: QEP01345
Trigger mode: 4
Integration Time (sec): 7.000000E0
Scans to average: 10
Electric dark correction enabled: true
Nonlinearity correction enabled: false
Boxcar width: 0
XAxis mode: Raman Shifts
Number of Pixels in Spectrum: 1044
>>>>>Begin Spectral Data<<<<<
46.04893	-0.8125
50.45542	-0.4125
54.85868	-0.5125
59.25871	-0.5125
63.6555	60.7875
68.04907	62.0875
72.43941	68.8875
76.82654	69.2875
81.21044	73.6875
85.59113	78.0875
89.96862	80.3875
94.34289	83.1875
98.71396	86.3875
103.08183	89.5875
107.4465	90.9875
111.80798	92.9875
116.16626	97.2875
120.52136	100.5875
124.87327	103.8875
129.222	111.8875
133.56755	120.6875
137.90993	132.7875
142.24913	150.2875
146.58517	169.7875
150.91804	194.0875
155.24774	246.0875
159.57429	299.5875
163.89768	398.1875
168.21792	529.2875
172.53501	726.7875
176.84895	1015.6875
181.15975	1424.0875
185.46741	2011.5875
189.77193	2762.8875
194.07331	3677.8875
198.37157	4704.8875
202.6667	5817.4875
206.9587	6902.5875
211.24758	7950.3875
215.53334	9053.7875
219.81599	10246.2875
224.09553	11569.1875
228.37195	13059.9875
232.64527	14645.0875
236.91549	16205.7875
241.18261	17776.0875
245.44663	19207.8875
249.70755	20447.0875
253.96539	21524.2875
258.22014	22519.0875
262.4718	23339.7875
266.72039	23930.1875
270.96589	24242.5875
275.20832	24336.7875
279.44768	24234.6875
283.68397	24112.0875
287.91719	24042.8875
292.14735	24093.5875
296.37445	24248.8875
300.59849	24341.6875
304.81948	24480.1875
309.03742	24438.8875
313.25231	24043.0875
317.46415	23301.5875
321.67296	22196.2875
325.87872	21246.7875
330.08145	20728.4875
334.28114	20548.0875
338.47781	20627.2875
342.67145	20831.6875
346.86207	21220.3875
351.04966	21707.8875
355.23424	22216.1875
359.4158	22691.4875
363.59435	22958.5875
367.76989	23128.1875
371.94243	23200.1875
376.11196	23228.8875
380.27849	23259.6875
384.44203	23326.9875
388.60257	23529.8875
392.76012	23891.5875
396.91468	24260.8875
401.06626	24676.0875
405.21485	24941.0875
409.36047	24758.4875
413.50311	24232.0875
417.64277	23800.5875
421.77947	23700.8875
425.9132	23860.6875
430.04396	24018.4875
434.17176	24080.5875
438.2966	24194.8875
442.41849	24490.4875
446.53742	25168.8875
450.6534	25949.7875
454.76644	26494.6875
458.87653	26764.1875
462.98368	26747.7875
467.08789	26511.5875
471.18916	26249.8875
475.2875	26103.9875
479.38291	26337.5875
483.4754	26541.6875
487.56496	26356.5875
491.6516	25811.2875
495.73531	25087.8875
499.81612	24550.5875
503.89401	24479.6875
507.96899	24421.5875
512.04106	24288.5875
516.11023	23875.6875
520.1765	23445.1875
524.23987	22986.4875
528.30034	22592.4875
532.35792	22266.3875
536.41261	21862.1875
540.46441	21550.1875
544.51333	21588.6875
548.55936	21960.7875
552.60252	22819.6875
556.64279	23703.1875
560.6802	24369.4875
564.71473	24870.0875
568.7464	25635.3875
572.7752	26668.2875
576.80114	27402.0875
580.82422	27872.5875
584.84444	28256.4875
588.86181	28563.7875
592.87633	28789.3875
596.888	28678.0875
600.89682	28404.2875
604.9028	29165.3875
608.90594	32179.7875
612.90624	35244.3875
616.90371	32569.1875
620.89834	25757.4875
624.89015	22555.3875
628.87913	22190.3875
632.86528	22453.7875
636.84862	22521.0875
640.82913	22124.8875
644.80683	21370.1875
648.78172	20656.2875
652.75379	20390.3875
656.72306	20573.1875
660.68952	21028.0875
664.65319	20917.3875
668.61405	20367.1875
672.57211	20112.0875
676.52738	20104.2875
680.47986	20082.2875
684.42955	19963.7875
688.37646	19802.3875
692.32058	19870.2875
696.26192	20159.0875
700.20048	20590.0875
704.13626	20871.7875
708.06928	21039.5875
711.99952	20908.3875
715.927	20806.7875
719.85171	20834.3875
723.77365	20774.3875
727.69284	20416.1875
731.60928	20062.0875
735.52295	19960.0875
739.43388	19972.3875
743.34206	20044.2875
747.24749	20164.2875
751.15017	20469.9875
755.05012	21081.2875
758.94733	22002.7875
762.8418	23732.2875
766.73354	26417.8875
770.62254	28929.3875
774.50882	29303.3875
778.39237	27307.3875
782.27321	24558.8875
786.15132	22348.5875
790.02671	20974.6875
793.89938	20353.6875
797.76935	20071.2875
801.6366	20008.1875
805.50115	19968.0875
809.36299	19852.0875
813.22213	19625.5875
817.07857	19578.7875
820.93231	19504.1875
824.78336	19308.7875
828.63172	19106.9875
832.47738	19036.1875
836.32036	18981.4875
840.16066	19039.5875
843.99827	19070.3875
847.8332	18990.7875
851.66546	18885.7875
855.49504	18826.4875
859.32195	18805.6875
863.1462	18728.7875
866.96777	18669.4875
870.78668	18565.8875
874.60293	18566.7875
878.41652	18582.4875
882.22745	18636.8875
886.03573	18733.8875
889.84136	18790.3875
893.64433	18747.4875
897.44466	18725.3875
901.24235	18648.4875
905.0374	18506.1875
908.8298	18414.5875
912.61957	18456.6875
916.40671	18702.6875
920.19121	19107.2875
923.97308	19450.1875
927.75233	19556.0875
931.52895	19378.9875
935.30295	18864.2875
939.07433	18290.3875
942.84309	17791.7875
946.60924	17524.3875
950.37278	17402.0875
954.13371	17412.1875
957.89203	17410.2875
961.64774	17377.0875
965.40086	17385.7875
969.15137	17299.8875
972.89929	17191.8875
976.64461	17027.0875
980.38733	16939.1875
984.12747	16949.5875
987.86502	17038.6875
991.59999	17249.3875
995.33237	17540.0875
999.06217	18127.0875
1002.78939	18850.7875
1006.51404	19400.7875
1010.23611	19768.0875
1013.95561	20083.5875
1017.67255	20051.0875
1021.38692	19769.0875
1025.09872	19336.1875
1028.80796	19289.1875
1032.51465	19617.6875
1036.21877	20018.6875
1039.92035	20071.7875
1043.61937	19875.6875
1047.31584	19507.8875
1051.00976	19165.6875
1054.70114	19052.1875
1058.38998	19139.0875
1062.07627	19358.2875
1065.76003	19590.5875
1069.44126	19942.0875
1073.11995	20395.8875
1076.79611	20764.8875
1080.46974	20897.6875
1084.14085	21126.8875
1087.80943	21476.3875
1091.47549	21910.5875
1095.13903	22051.7875
1098.80005	21679.4875
1102.45857	20845.3875
1106.11456	20076.0875
1109.76805	19668.6875
1113.41903	19608.9875
1117.06751	19788.1875
1120.71348	20091.9875
1124.35696	20447.6875
1127.99793	20929.3875
1131.63641	21238.1875
1135.2724	21162.8875
1138.90589	20979.2875
1142.5369	21013.5875
1146.16542	21150.1875
1149.79145	21427.0875
1153.415	21790.0875
1157.03607	22322.8875
1160.65467	23339.5875
1164.27079	24817.9875
1167.88443	26763.6875
1171.49561	29158.0875
1175.10432	32243.9875
1178.71056	36221.5875
1182.31434	39849.4875
1185.91565	41904.2875
1189.51451	42021.3875
1193.11091	40855.3875
1196.70485	38748.9875
1200.29634	36369.5875
1203.88538	34511.5875
1207.47197	33184.3875
1211.05612	32279.3875
1214.63782	31461.4875
1218.21708	30588.5875
1221.79391	29870.9875
1225.36829	29361.0875
1228.94024	28894.3875
1232.50976	28202.1875
1236.07685	27647.9875
1239.6415	27250.1875
1243.20374	26987.0875
1246.76355	27026.4875
1250.32093	27402.8875
1253.8759	28198.0875
1257.42845	29375.7875
1260.97859	30737.5875
1264.52631	32015.2875
1268.07163	33291.1875
1271.61453	34669.4875
1275.15503	36143.3875
1278.69312	37611.9875
1282.22882	38979.1875
1285.76211	40452.0875
1289.29301	42331.8875
1292.82151	44709.2875
1296.34761	47624.3875
1299.87133	50985.7875
1303.39266	54749.7875
1306.9116	58326.3875
1310.42815	61680.6875
1313.94233	63863.5875
1317.45412	64262.0875
1320.96354	63769.6875
1324.47058	63034.8875
1327.97525	62332.1875
1331.47754	61673.2875
1334.97747	60870.8875
1338.47502	59939.2875
1341.97022	58528.4875
1345.46305	56771.3875
1348.95352	54894.1875
1352.44163	53319.4875
1355.92738	53177.8875
1359.41078	54936.7875
1362.89183	57358.8875
1366.37053	57354.4875
1369.84688	53090.4875
1373.32088	47068.7875
1376.79254	42513.7875
1380.26186	40698.2875
1383.72883	40598.8875
1387.19347	40816.9875
1390.65578	40844.4875
1394.11575	41113.1875
1397.57339	41987.2875
1401.0287	43207.9875
1404.48168	44235.2875
1407.93234	44169.8875
1411.38068	42830.8875
1414.82669	40524.3875
1418.27039	37839.8875
1421.71177	35296.5875
1425.15083	33231.0875
1428.58758	32186.7875
1432.02203	32191.7875
1435.45416	33168.8875
1438.88399	34535.6875
1442.31151	35820.4875
1445.73673	36930.7875
1449.15965	37978.3875
1452.58027	38823.9875
1455.9986	39328.1875
1459.41463	39731.9875
1462.82837	40324.1875
1466.23982	40979.7875
1469.64898	41393.3875
1473.05586	41431.7875
1476.46045	41059.0875
1479.86276	40420.8875
1483.26279	39740.2875
1486.66054	39316.0875
1490.05602	39397.3875
1493.44922	39790.1875
1496.84016	40384.0875
1500.22882	41418.8875
1503.61521	43040.8875
1506.99934	45040.3875
1510.38121	46908.5875
1513.76081	47738.9875
1517.13816	46870.6875
1520.51324	44785.6875
1523.88607	42786.0875
1527.25665	41592.2875
1530.62498	41135.7875
1533.99105	40908.9875
1537.35488	40448.4875
1540.71647	39637.0875
1544.07581	38386.0875
1547.4329	37049.4875
1550.78776	35858.4875
1554.14038	35130.0875
1557.49077	34895.6875
1560.83892	34824.3875
1564.18484	34988.3875
1567.52853	35121.0875
1570.86999	35506.1875
1574.20922	36350.1875
1577.54624	37311.4875
1580.88103	37893.1875
1584.2136	38592.6875
1587.54395	40089.1875
1590.87208	42543.8875
1594.19801	45471.9875
1597.52172	47929.6875
1600.84321	48169.2875
1604.16251	44938.7875
1607.47959	40001.4875
1610.79447	35316.8875
1614.10715	31212.8875
1617.41763	27971.9875
1620.7259	25821.7875
1624.03199	24732.9875
1627.33587	24714.2875
1630.63757	25867.7875
1633.93707	28268.8875
1637.23439	32209.2875
1640.52951	37813.8875
1643.82246	44110.0875
1647.11321	48987.1875
1650.40179	50113.7875
1653.68819	46399.0875
1656.97241	39366.2875
1660.25446	32033.2875
1663.53433	26309.6875
1666.81203	22531.1875
1670.08756	20234.0875
1673.36092	18800.9875
1676.63211	17851.4875
1679.90115	17266.6875
1683.16801	16787.7875
1686.43272	16442.3875
1689.69527	16217.0875
1692.95567	16023.9875
1696.2139	15896.2875
1699.46999	15805.3875
1702.72392	15714.8875
1705.97571	15638.9875
1709.22535	15544.1875
1712.47284	15493.9875
1715.71819	15451.5875
1718.96139	15374.5875
1722.20246	15286.6875
1725.44139	15160.2875
1728.67818	15057.6875
1731.91284	14910.8875
1735.14537	14801.3875
1738.37576	14715.6875
1741.60403	14666.9875
1744.83017	14566.9875
1748.05418	14514.2875
1751.27607	14455.8875
1754.49584	14428.4875
1757.71349	14410.6875
1760.92903	14388.9875
1764.14244	14358.4875
1767.35375	14342.8875
1770.56294	14292.0875
1773.77002	14243.9875
1776.97499	14255.9875
1780.17785	14184.2875
1783.37861	14158.2875
1786.57727	14143.3875
1789.77382	14083.9875
1792.96828	14075.2875
1796.16064	14023.8875
1799.3509	13976.1875
1802.53907	13972.3875
1805.72514	13932.5875
1808.90913	13908.4875
1812.09102	13890.6875
1815.27083	13845.2875
1818.44856	13811.8875
1821.6242	13821.1875
1824.79776	13790.1875
1827.96924	13807.4875
1831.13864	13783.7875
1834.30597	13822.3875
1837.47122	13847.3875
1840.6344	13855.8875
1843.7955	13899.8875
1846.95454	13896.0875
1850.11151	13924.3875
1853.26642	13919.7875
1856.41926	13893.5875
1859.57004	13906.3875
1862.71876	13905.9875
1865.86542	13895.7875
1869.01003	13909.2875
1872.15258	13912.7875
1875.29308	13909.2875
1878.43152	13919.9875
1881.56792	13931.6875
1884.70227	13935.9875
1887.83457	13924.8875
1890.96482	13891.0875
1894.09304	13874.6875
1897.21921	13885.8875
1900.34335	13863.4875
1903.46544	13861.9875
1906.58551	13845.7875
1909.70353	13797.7875
1912.81953	13763.7875
1915.93349	13718.4875
1919.04543	13635.3875
1922.15534	13620.1875
1925.26322	13512.4875
1928.36908	13463.3875
1931.47292	13400.7875
1934.57473	13344.8875
1937.67453	13268.3875
1940.77232	13188.2875
1943.86808	13157.3875
1946.96184	13100.9875
1950.05358	13002.4875
1953.14331	12943.9875
1956.23103	12910.3875
1959.31675	12890.7875
1962.40046	12824.6875
1965.48217	12746.9875
1968.56188	12741.5875
1971.63959	12685.1875
1974.7153	12671.1875
1977.78901	12579.6875
1980.86073	12552.6875
1983.93046	12549.4875
1986.99819	12476.2875
1990.06394	12467.7875
1993.1277	12398.2875
1996.18947	12352.2875
1999.24925	12308.1875
2002.30706	12237.6875
2005.36288	12215.7875
2008.41672	12203.1875
2011.46859	12160.5875
2014.51848	12116.3875
2017.56639	12066.7875
2020.61233	12046.6875
2023.6563	12021.0875
2026.6983	12026.0875
2029.73833	11990.7875
2032.7764	11975.6875
2035.8125	11950.8875
2038.84664	11938.4875
2041.87881	11925.3875
2044.90903	11910.3875
2047.93729	11896.9875
2050.96359	11883.3875
2053.98794	11840.8875
2057.01034	11858.1875
2060.03078	11818.5875
2063.04927	11827.2875
2066.06582	11778.7875
2069.08042	11776.5875
2072.09307	11780.4875
2075.10378	11783.5875
2078.11255	11780.6875
2081.11938	11763.4875
2084.12426	11754.9875
2087.12722	11755.6875
2090.12824	11758.7875
2093.12732	11733.0875
2096.12447	11760.8875
2099.11969	11788.5875
2102.11299	11758.1875
2105.10435	11764.4875
2108.09379	11732.0875
2111.08131	11759.1875
2114.0669	11744.8875
2117.05057	11765.3875
2120.03233	11750.7875
2123.01216	11759.4875
2125.99008	11763.3875
2128.96609	11785.8875
2131.94018	11746.7875
2134.91236	11785.0875
2137.88263	11790.1875
2140.851	11787.6875
2143.81746	11767.2875
2146.78201	11774.5875
2149.74466	11776.2875
2152.7054	11788.7875
2155.66425	11764.3875
2158.6212	11778.3875
2161.57625	11790.8875
2164.52941	11780.6875
2167.48067	11774.1875
2170.43004	11759.9875
2173.37752	11749.1875
2176.32311	11747.1875
2179.26681	11755.1875
2182.20863	11762.8875
2185.14856	11774.6875
2188.08661	11748.1875
2191.02278	11771.8875
2193.95707	11751.8875
2196.88948	11759.5875
2199.82001	11702.4875
2202.74867	11706.9875
2205.67545	11722.9875
2208.60037	11690.7875
2211.52341	11715.1875
2214.44458	11688.3875
2217.36388	11678.4875
2220.28132	11676.4875
2223.1969	11633.4875
2226.11061	11604.6875
2229.02246	11567.3875
2231.93245	11573.0875
2234.84058	11557.3875
2237.74686	11533.0875
2240.65128	11508.1875
2243.55385	11501.0875
2246.45456	11460.4875
2249.35343	11408.3875
2252.25044	11421.2875
2255.14561	11410.1875
2258.03893	11399.9875
2260.93041	11368.3875
2263.82004	11334.9875
2266.70783	11348.4875
2269.59378	11295.1875
2272.4779	11272.7875
2275.36017	11242.9875
2278.24061	11220.4875
2281.11922	11211.9875
2283.996	11197.7875
2286.87094	11165.7875
2289.74405	11156.1875
2292.61534	11148.9875
2295.4848	11117.3875
2298.35243	11132.9875
2301.21824	11111.0875
2304.08223	11105.0875
2306.94439	11110.9875
2309.80474	11167.0875
2312.66327	11164.6875
2315.51999	11107.3875
2318.37489	11124.4875
2321.22797	11140.6875
2324.07925	11116.8875
2326.92871	11127.7875
2329.77637	11107.3875
2332.62222	11113.8875
2335.46626	11103.4875
2338.3085	11102.7875
2341.14893	11120.4875
2343.98756	11146.9875
2346.8244	11124.8875
2349.65943	11157.2875
2352.49267	11117.6875
2355.32411	11138.4875
2358.15376	11147.7875
2360.98161	11126.5875
2363.80768	11133.0875
2366.63195	11150.5875
2369.45444	11160.7875
2372.27514	11112.1875
2375.09405	11083.1875
2377.91118	11042.9875
2380.72652	11005.0875
2383.54009	10991.3875
2386.35187	10989.5875
2389.16188	10929.0875
2391.97011	10909.8875
2394.77657	10882.3875
2397.58125	10893.1875
2400.38416	10851.3875
2403.18529	10840.0875
2405.98466	10833.8875
2408.78226	10789.4875
2411.57809	10785.9875
2414.37216	10785.4875
2417.16446	10755.0875
2419.955	10735.9875
2422.74378	10753.2875
2425.5308	10746.9875
2428.31606	10774.7875
2431.09956	10755.2875
2433.88131	10715.7875
2436.6613	10742.3875
2439.43954	10722.9875
2442.21603	10713.4875
2444.99077	10757.9875
2447.76377	10746.2875
2450.53501	10760.9875
2453.30451	10760.8875
2456.07226	10751.5875
2458.83827	10757.6875
2461.60254	10783.6875
2464.36507	10794.6875
2467.12586	10778.1875
2469.88492	10782.7875
2472.64224	10786.7875
2475.39782	10797.8875
2478.15167	10794.7875
2480.90379	10787.2875
2483.65417	10812.2875
2486.40283	10816.8875
2489.14976	10829.0875
2491.89497	10850.1875
2494.63845	10894.3875
2497.3802	10862.3875
2500.12024	10871.9875
2502.85855	10870.7875
2505.59514	10879.4875
2508.33002	10870.6875
2511.06318	10838.5875
2513.79462	10815.3875
2516.52435	10804.7875
2519.25237	10780.3875
2521.97867	10784.9875
2524.70327	10782.3875
2527.42616	10773.9875
2530.14734	10768.7875
2532.86681	10746.8875
2535.58458	10753.8875
2538.30065	10717.9875
2541.01501	10726.3875
2543.72768	10700.0875
2546.43864	10706.3875
2549.14791	10689.2875
2551.85548	10699.6875
2554.56136	10677.2875
2557.26554	10672.8875
2559.96803	10676.5875
2562.66883	10675.5875
2565.36794	10689.4875
2568.06536	10681.1875
2570.7611	10667.4875
2573.45514	10647.3875
2576.14751	10667.8875
2578.83819	10643.6875
2581.52719	10671.7875
2584.21451	10682.1875
2586.90015	10664.9875
2589.58411	10635.0875
2592.2664	10647.0875
2594.94701	10629.7875
2597.62594	10640.0875
2600.30321	10620.7875
2602.9788	10625.7875
2605.65273	10625.9875
2608.32498	10667.8875
2610.99557	10649.1875
2613.66449	10674.0875
2616.33175	10656.0875
2618.99734	10678.8875
2621.66128	10692.9875
2624.32355	10684.9875
2626.98416	10709.2875
2629.64311	10683.9875
2632.30041	10699.5875
2634.95605	10701.6875
2637.61004	10684.0875
2640.26238	10684.7875
2642.91306	10671.5875
2645.56209	10657.1875
2648.20948	10667.9875
2650.85521	10658.7875
2653.4993	10660.5875
2656.14175	10655.9875
2658.78255	10666.0875
2661.42171	10692.5875
2664.05923	10695.0875
2666.6951	10662.6875
2669.32934	10704.6875
2671.96194	10711.3875
2674.59291	10722.1875
2677.22224	10690.7875
2679.84993	10693.5875
2682.476	10707.1875
2685.10043	10694.4875
2687.72324	10686.7875
2690.34441	10656.0875
2692.96396	10669.8875
2695.58188	10666.8875
2698.19818	10691.7875
2700.81285	10658.3875
2703.4259	10641.2875
2706.03733	10684.5875
2708.64714	10683.6875
2711.25533	10700.6875
2713.86191	10682.4875
2716.46687	10703.9875
2719.07021	10702.5875
2721.67194	10722.0875
2724.27206	10713.9875
2726.87057	10717.0875
2729.46747	10722.6875
2732.06276	10756.0875
2734.65644	10731.4875
2737.24852	10742.2875
2739.83899	10736.3875
2742.42786	10756.8875
2745.01513	10720.8875
2747.60079	10722.0875
2750.18486	10744.8875
2752.76733	10736.3875
2755.3482	10753.5875
2757.92747	10774.5875
2760.50515	10744.3875
2763.08123	10733.5875
2765.65573	10734.7875
2768.22863	10725.6875
2770.79994	10735.8875
2773.36967	10746.8875
2775.9378	10741.7875
2778.50435	10771.9875
2781.06932	10735.3875
2783.6327	10755.4875
2786.1945	10759.6875
2788.75471	10760.7875
2791.31335	10724.5875
2793.87041	10723.8875
2796.42589	10707.9875
2798.97979	10686.0875
2801.53212	10686.4875
2804.08288	10663.1875
2806.63206	10628.2875
2809.17967	10637.2875
2811.72571	10632.0875
2814.27018	10638.1875
2816.81308	10623.5875
2819.35442	10592.6875
2821.89419	10589.2875
2824.43239	10587.0875
2826.96904	10595.7875
2829.50412	10570.9875
2832.03763	10552.5875
2834.56959	10549.3875
2837.1	10539.7875
2839.62884	10579.1875
2842.15613	10568.7875
2844.68186	10638.1875
2847.20604	10656.4875
2849.72867	10708.9875
2852.24974	10695.8875
2854.76927	10705.3875
2857.28724	10658.0875
2859.80367	10658.4875
2862.31855	10637.0875
2864.83189	10622.3875
2867.34368	10650.2875
2869.85393	10651.6875
2872.36264	10665.6875
2874.8698	10656.4875
2877.37543	10713.3875
2879.87952	10694.9875
2882.38207	10714.9875
2884.88308	10717.7875
2887.38256	10750.8875
2889.88051	10705.8875
2892.37692	10736.0875
2894.8718	10718.0875
2897.36515	10737.5875
2899.85698	10754.2875
2902.34727	10777.4875
2904.83604	10808.0875
2907.32328	10818.0875
2909.809	10820.3875
2912.29319	10822.4875
2914.77587	10816.6875
2917.25702	10845.4875
2919.73665	10832.8875
2922.21476	10824.0875
2924.69136	10798.0875
2927.16644	10788.8875
2929.64	10785.8875
2932.11205	10770.1875
2934.58258	10744.0875
2937.05161	10728.7875
2939.51912	10700.5875
2941.98513	10719.1875
2944.44962	10681.1875
2946.91261	10585.5875
2949.37409	10606.0875
2951.83407	10555.8875
2954.29254	10551.5875
2956.74951	10530.7875
2959.20498	10483.4875
2961.65895	10439.0875
2964.11142	10437.1875
2966.56239	10412.5875
2969.01186	10414.4875
2971.45984	10390.7875
2973.90632	10324.7875
2976.35131	10310.3875
2978.7948	10270.2875
2981.23681	10254.0875
2983.67732	10198.5875
2986.11635	10192.0875
2988.55388	10142.2875
2990.98993	10105.3875
2993.4245	10088.6875
2995.85758	10064.7875
2998.28917	10035.0875
3000.71928	10036.7875
3003.14791	10040.9875
3005.57506	10005.8875
3008.00073	9969.4875
3010.42493	9953.2875
3012.84764	9951.9875
3015.26888	9912.3875
3017.68865	9913.2875
3020.10694	9884.7875
3022.52376	9880.8875
3024.9391	9846.1875
