Data from AgNPs_FTO_APTES_UA_2uM_CRN_2uM_R6G_10uM_NaF_0.1M_Addition_RamanShift__28__12-31-25-082.txt Node

Date: Wed Feb 02 12:31:25 GMT 2022
User: TCL
Spectrometer: QEP01345
Trigger mode: 4
Integration Time (sec): 7.000000E0
Scans to average: 10
Electric dark correction enabled: true
Nonlinearity correction enabled: false
Boxcar width: 0
XAxis mode: Raman Shifts
Number of Pixels in Spectrum: 1044
>>>>>Begin Spectral Data<<<<<
46.04893	0.1125
50.45542	0.3125
54.85868	-1.1875
59.25871	-0.2875
63.6555	68.1125
68.04907	74.4125
72.43941	76.6125
76.82654	83.6125
81.21044	85.8125
85.59113	90.5125
89.96862	89.7125
94.34289	94.9125
98.71396	98.6125
103.08183	103.3125
107.4465	104.2125
111.80798	107.9125
116.16626	108.0125
120.52136	113.3125
124.87327	118.8125
129.222	127.7125
133.56755	138.1125
137.90993	149.8125
142.24913	166.0125
146.58517	190.4125
150.91804	223.0125
155.24774	270.3125
159.57429	340.2125
163.89768	443.3125
168.21792	599.8125
172.53501	815.2125
176.84895	1141.6125
181.15975	1607.6125
185.46741	2239.0125
189.77193	3071.8125
194.07331	4132.4125
198.37157	5316.8125
202.6667	6548.7125
206.9587	7806.4125
211.24758	9036.8125
215.53334	10371.4125
219.81599	11801.9125
224.09553	13461.9125
228.37195	15304.1125
232.64527	17294.4125
236.91549	19230.9125
241.18261	20999.2125
245.44663	22436.5125
249.70755	23578.3125
253.96539	24573.0125
258.22014	25494.4125
262.4718	26351.6125
266.72039	27056.6125
270.96589	27435.3125
275.20832	27511.6125
279.44768	27406.1125
283.68397	27175.1125
287.91719	27063.1125
292.14735	27180.4125
296.37445	27641.2125
300.59849	28438.9125
304.81948	29441.9125
309.03742	30232.7125
313.25231	30132.5125
317.46415	28812.3125
321.67296	26585.7125
325.87872	24706.6125
330.08145	23778.6125
334.28114	23603.0125
338.47781	23902.1125
342.67145	24485.0125
346.86207	25455.7125
351.04966	26928.7125
355.23424	28575.7125
359.4158	29830.3125
363.59435	30399.0125
367.76989	30435.4125
371.94243	30268.9125
376.11196	29969.6125
380.27849	29697.9125
384.44203	29391.5125
388.60257	29028.0125
392.76012	28902.1125
396.91468	29289.5125
401.06626	30123.7125
405.21485	30758.6125
409.36047	30232.3125
413.50311	28789.8125
417.64277	27401.5125
421.77947	26707.6125
425.9132	26447.3125
430.04396	26442.5125
434.17176	26542.2125
438.2966	26877.5125
442.41849	27484.1125
446.53742	28403.2125
450.6534	29388.5125
454.76644	30022.8125
458.87653	30145.0125
462.98368	29873.4125
467.08789	29404.5125
471.18916	28656.8125
475.2875	27948.8125
479.38291	27415.7125
483.4754	27040.5125
487.56496	26623.6125
491.6516	26255.6125
495.73531	26065.4125
499.81612	26044.8125
503.89401	26282.1125
507.96899	26498.2125
512.04106	26717.0125
516.11023	26850.9125
520.1765	26938.9125
524.23987	26771.6125
528.30034	26307.4125
532.35792	25698.3125
536.41261	25046.6125
540.46441	24454.6125
544.51333	24223.6125
548.55936	24518.7125
552.60252	25248.8125
556.64279	26171.4125
560.6802	26658.9125
564.71473	27240.5125
568.7464	28461.3125
572.7752	29491.0125
576.80114	29047.9125
580.82422	28324.2125
584.84444	28094.0125
588.86181	28038.3125
592.87633	28211.7125
596.888	28564.4125
600.89682	29421.9125
604.9028	32376.6125
608.90594	40361.3125
612.90624	50773.8125
616.90371	48609.7125
620.89834	34031.5125
624.89015	27003.8125
628.87913	25771.4125
632.86528	25947.2125
636.84862	26133.4125
640.82913	25595.7125
644.80683	24330.1125
648.78172	23438.4125
652.75379	23457.8125
656.72306	24465.6125
660.68952	25741.0125
664.65319	25618.2125
668.61405	24403.6125
672.57211	23750.6125
676.52738	23663.5125
680.47986	23639.7125
684.42955	23374.7125
688.37646	23249.9125
692.32058	23363.2125
696.26192	23660.1125
700.20048	24089.0125
704.13626	24397.7125
708.06928	24437.4125
711.99952	24139.6125
715.927	23997.5125
719.85171	23990.4125
723.77365	23857.9125
727.69284	23506.9125
731.60928	23185.6125
735.52295	23140.7125
739.43388	23217.3125
743.34206	23398.9125
747.24749	23594.0125
751.15017	23911.9125
755.05012	24525.4125
758.94733	25824.7125
762.8418	28722.2125
766.73354	33710.5125
770.62254	38799.2125
774.50882	40786.7125
778.39237	38359.9125
782.27321	33245.7125
786.15132	28397.4125
790.02671	25423.5125
793.89938	24106.0125
797.76935	23468.0125
801.6366	23224.0125
805.50115	23074.9125
809.36299	22875.3125
813.22213	22731.6125
817.07857	22646.7125
820.93231	22665.0125
824.78336	22732.6125
828.63172	22830.4125
832.47738	22927.2125
836.32036	22908.8125
840.16066	22836.4125
843.99827	22743.5125
847.8332	22583.8125
851.66546	22532.5125
855.49504	22476.9125
859.32195	22389.7125
863.1462	22252.6125
866.96777	22111.8125
870.78668	22053.7125
874.60293	22094.9125
878.41652	22166.5125
882.22745	22307.0125
886.03573	22433.5125
889.84136	22381.0125
893.64433	22238.4125
897.44466	22088.2125
901.24235	22116.1125
905.0374	22094.4125
908.8298	22011.5125
912.61957	22018.2125
916.40671	22198.8125
920.19121	22591.8125
923.97308	22989.4125
927.75233	23209.1125
931.52895	23356.3125
935.30295	23036.6125
939.07433	22203.1125
942.84309	21539.0125
946.60924	21187.9125
950.37278	20972.9125
954.13371	20844.4125
957.89203	20760.7125
961.64774	20682.3125
965.40086	20633.7125
969.15137	20538.1125
972.89929	20465.6125
976.64461	20427.1125
980.38733	20454.9125
984.12747	20569.1125
987.86502	20734.3125
991.59999	20992.1125
995.33237	21373.4125
999.06217	22012.9125
1002.78939	22925.6125
1006.51404	23736.6125
1010.23611	24343.5125
1013.95561	24728.1125
1017.67255	24607.9125
1021.38692	24126.8125
1025.09872	23711.0125
1028.80796	23588.4125
1032.51465	23918.3125
1036.21877	24458.9125
1039.92035	24612.8125
1043.61937	24466.6125
1047.31584	23997.4125
1051.00976	23551.7125
1054.70114	23244.0125
1058.38998	23163.9125
1062.07627	23310.9125
1065.76003	23532.4125
1069.44126	23818.9125
1073.11995	24176.1125
1076.79611	24493.1125
1080.46974	24797.2125
1084.14085	25361.9125
1087.80943	26044.1125
1091.47549	26423.1125
1095.13903	26062.9125
1098.80005	25173.3125
1102.45857	24262.8125
1106.11456	23729.3125
1109.76805	23648.3125
1113.41903	23970.4125
1117.06751	24611.8125
1120.71348	25500.9125
1124.35696	26502.6125
1127.99793	27517.8125
1131.63641	27670.0125
1135.2724	26639.3125
1138.90589	25510.3125
1142.5369	24859.6125
1146.16542	24478.4125
1149.79145	24313.0125
1153.415	24402.2125
1157.03607	24757.0125
1160.65467	25409.2125
1164.27079	26522.9125
1167.88443	28216.8125
1171.49561	30750.8125
1175.10432	34885.3125
1178.71056	40114.9125
1182.31434	44303.8125
1185.91565	45829.8125
1189.51451	45164.6125
1193.11091	42740.8125
1196.70485	39479.3125
1200.29634	36616.1125
1203.88538	34406.8125
1207.47197	32209.9125
1211.05612	30462.7125
1214.63782	29510.3125
1218.21708	29260.3125
1221.79391	29409.1125
1225.36829	29631.9125
1228.94024	29748.2125
1232.50976	29693.0125
1236.07685	29615.0125
1239.6415	29448.2125
1243.20374	29217.9125
1246.76355	29214.6125
1250.32093	29507.6125
1253.8759	30257.9125
1257.42845	31326.7125
1260.97859	32516.9125
1264.52631	33625.2125
1268.07163	34792.4125
1271.61453	35941.0125
1275.15503	37026.1125
1278.69312	37729.1125
1282.22882	38401.7125
1285.76211	39438.0125
1289.29301	40834.0125
1292.82151	42322.5125
1296.34761	43912.4125
1299.87133	46069.9125
1303.39266	49451.6125
1306.9116	54581.5125
1310.42815	60753.7125
1313.94233	65260.6125
1317.45412	65782.3125
1320.96354	63152.8125
1324.47058	59461.9125
1327.97525	55915.4125
1331.47754	53448.8125
1334.97747	52136.3125
1338.47502	51741.7125
1341.97022	51826.0125
1345.46305	52207.5125
1348.95352	53014.4125
1352.44163	54702.2125
1355.92738	58202.5125
1359.41078	64767.9125
1362.89183	72015.6125
1366.37053	71641.6125
1369.84688	62468.5125
1373.32088	52010.5125
1376.79254	45295.6125
1380.26186	42159.8125
1383.72883	40786.4125
1387.19347	39678.6125
1390.65578	38509.5125
1394.11575	37802.2125
1397.57339	37785.4125
1401.0287	38414.6125
1404.48168	39340.6125
1407.93234	39999.0125
1411.38068	40240.9125
1414.82669	39645.5125
1418.27039	38337.4125
1421.71177	36782.0125
1425.15083	35446.7125
1428.58758	34680.4125
1432.02203	34426.8125
1435.45416	34758.8125
1438.88399	35147.2125
1442.31151	35420.8125
1445.73673	35755.1125
1449.15965	36174.7125
1452.58027	36357.0125
1455.9986	36237.6125
1459.41463	36295.3125
1462.82837	36728.3125
1466.23982	37490.9125
1469.64898	38287.0125
1473.05586	38882.3125
1476.46045	39167.0125
1479.86276	39468.3125
1483.26279	39926.0125
1486.66054	40446.2125
1490.05602	41386.5125
1493.44922	42644.5125
1496.84016	44443.2125
1500.22882	47228.8125
1503.61521	51187.7125
1506.99934	56025.7125
1510.38121	61247.4125
1513.76081	64700.3125
1517.13816	63350.3125
1520.51324	57697.1125
1523.88607	51073.7125
1527.25665	46222.1125
1530.62498	43221.5125
1533.99105	41371.3125
1537.35488	40222.5125
1540.71647	39366.3125
1544.07581	38769.4125
1547.4329	38194.6125
1550.78776	37642.8125
1554.14038	37342.3125
1557.49077	37543.3125
1560.83892	38030.7125
1564.18484	38852.9125
1567.52853	39544.3125
1570.86999	40067.1125
1574.20922	40460.7125
1577.54624	40432.8125
1580.88103	39201.3125
1584.2136	37559.2125
1587.54395	37226.3125
1590.87208	38571.6125
1594.19801	41330.4125
1597.52172	44537.9125
1600.84321	45951.7125
1604.16251	44094.5125
1607.47959	40487.6125
1610.79447	36561.9125
1614.10715	33065.6125
1617.41763	30257.0125
1620.7259	28483.6125
1624.03199	27665.1125
1627.33587	27725.1125
1630.63757	28603.5125
1633.93707	30474.3125
1637.23439	33323.8125
1640.52951	37194.4125
1643.82246	41969.7125
1647.11321	46614.2125
1650.40179	49584.3125
1653.68819	48093.8125
1656.97241	41954.8125
1660.25446	34610.3125
1663.53433	29068.1125
1666.81203	25607.5125
1670.08756	23589.6125
1673.36092	22421.0125
1676.63211	21608.3125
1679.90115	21087.4125
1683.16801	20693.8125
1686.43272	20433.3125
1689.69527	20257.5125
1692.95567	20095.3125
1696.2139	20011.8125
1699.46999	19924.6125
1702.72392	19862.3125
1705.97571	19800.4125
1709.22535	19752.8125
1712.47284	19745.6125
1715.71819	19754.6125
1718.96139	19750.3125
1722.20246	19707.5125
1725.44139	19605.3125
1728.67818	19509.4125
1731.91284	19356.0125
1735.14537	19190.8125
1738.37576	19138.9125
1741.60403	18983.5125
1744.83017	18929.8125
1748.05418	18863.2125
1751.27607	18886.3125
1754.49584	18822.3125
1757.71349	18826.4125
1760.92903	18782.1125
1764.14244	18751.8125
1767.35375	18710.7125
1770.56294	18693.7125
1773.77002	18659.3125
1776.97499	18633.3125
1780.17785	18515.8125
1783.37861	18502.6125
1786.57727	18472.1125
1789.77382	18469.5125
1792.96828	18373.6125
1796.16064	18353.1125
1799.3509	18327.0125
1802.53907	18301.7125
1805.72514	18231.5125
1808.90913	18207.6125
1812.09102	18182.2125
1815.27083	18134.0125
1818.44856	18118.3125
1821.6242	18103.0125
1824.79776	18096.6125
1827.96924	18078.2125
1831.13864	18073.8125
1834.30597	18051.6125
1837.47122	18044.3125
1840.6344	18025.1125
1843.7955	18016.5125
1846.95454	18032.2125
1850.11151	18032.4125
1853.26642	18009.6125
1856.41926	17995.3125
1859.57004	18083.6125
1862.71876	18089.4125
1865.86542	18095.8125
1869.01003	18125.4125
1872.15258	18131.9125
1875.29308	18184.6125
1878.43152	18187.8125
1881.56792	18226.1125
1884.70227	18240.1125
1887.83457	18290.5125
1890.96482	18297.2125
1894.09304	18332.9125
1897.21921	18322.5125
1900.34335	18373.7125
1903.46544	18373.0125
1906.58551	18397.5125
1909.70353	18404.6125
1912.81953	18398.8125
1915.93349	18359.2125
1919.04543	18333.3125
1922.15534	18315.5125
1925.26322	18280.4125
1928.36908	18190.7125
1931.47292	18123.0125
1934.57473	17921.2125
1937.67453	17853.9125
1940.77232	17750.4125
1943.86808	17631.8125
1946.96184	17536.9125
1950.05358	17390.7125
1953.14331	17342.3125
1956.23103	17274.2125
1959.31675	17202.6125
1962.40046	17117.2125
1965.48217	17063.8125
1968.56188	17027.9125
1971.63959	17019.4125
1974.7153	16932.6125
1977.78901	16883.3125
1980.86073	16813.2125
1983.93046	16743.9125
1986.99819	16692.7125
1990.06394	16616.7125
1993.1277	16602.9125
1996.18947	16476.9125
1999.24925	16472.4125
2002.30706	16410.2125
2005.36288	16364.5125
2008.41672	16296.7125
2011.46859	16270.0125
2014.51848	16235.6125
2017.56639	16177.4125
2020.61233	16161.5125
2023.6563	16121.6125
2026.6983	16098.6125
2029.73833	16049.3125
2032.7764	16042.4125
2035.8125	16018.8125
2038.84664	15973.7125
2041.87881	15940.6125
2044.90903	15905.3125
2047.93729	15893.9125
2050.96359	15864.6125
2053.98794	15848.3125
2057.01034	15806.5125
2060.03078	15780.3125
2063.04927	15770.1125
2066.06582	15784.4125
2069.08042	15752.0125
2072.09307	15713.7125
2075.10378	15703.9125
2078.11255	15732.4125
2081.11938	15711.5125
2084.12426	15681.7125
2087.12722	15661.6125
2090.12824	15644.3125
2093.12732	15658.6125
2096.12447	15652.6125
2099.11969	15661.0125
2102.11299	15672.1125
2105.10435	15697.1125
2108.09379	15665.4125
2111.08131	15667.4125
2114.0669	15685.9125
2117.05057	15712.6125
2120.03233	15700.2125
2123.01216	15729.2125
2125.99008	15719.7125
2128.96609	15745.6125
2131.94018	15745.8125
2134.91236	15739.2125
2137.88263	15739.1125
2140.851	15716.4125
2143.81746	15762.7125
2146.78201	15747.8125
2149.74466	15725.4125
2152.7054	15745.5125
2155.66425	15734.1125
2158.6212	15745.5125
2161.57625	15731.4125
2164.52941	15723.8125
2167.48067	15710.0125
2170.43004	15702.9125
2173.37752	15689.0125
2176.32311	15703.7125
2179.26681	15703.5125
2182.20863	15718.6125
2185.14856	15718.0125
2188.08661	15758.8125
2191.02278	15722.6125
2193.95707	15708.9125
2196.88948	15708.7125
2199.82001	15660.4125
2202.74867	15673.7125
2205.67545	15673.4125
2208.60037	15684.3125
2211.52341	15647.4125
2214.44458	15626.1125
2217.36388	15601.4125
2220.28132	15581.0125
2223.1969	15545.8125
2226.11061	15520.4125
2229.02246	15479.3125
2231.93245	15444.4125
2234.84058	15460.1125
2237.74686	15431.5125
2240.65128	15358.6125
2243.55385	15341.0125
2246.45456	15340.5125
2249.35343	15366.0125
2252.25044	15341.7125
2255.14561	15262.2125
2258.03893	15316.1125
2260.93041	15268.3125
2263.82004	15229.0125
2266.70783	15217.5125
2269.59378	15137.7125
2272.4779	15129.1125
2275.36017	15060.5125
2278.24061	15055.1125
2281.11922	14980.4125
2283.996	14995.5125
2286.87094	14962.1125
2289.74405	14947.0125
2292.61534	14922.5125
2295.4848	14900.6125
2298.35243	14892.2125
2301.21824	14881.6125
2304.08223	14860.1125
2306.94439	14900.0125
2309.80474	14897.5125
2312.66327	14923.4125
2315.51999	14894.8125
2318.37489	14900.9125
2321.22797	14889.1125
2324.07925	14860.2125
2326.92871	14851.7125
2329.77637	14867.0125
2332.62222	14814.4125
2335.46626	14817.9125
2338.3085	14785.9125
2341.14893	14813.7125
2343.98756	14819.1125
2346.8244	14848.0125
2349.65943	14875.4125
2352.49267	14846.7125
2355.32411	14906.1125
2358.15376	14874.6125
2360.98161	14892.2125
2363.80768	14904.2125
2366.63195	14883.8125
2369.45444	14857.6125
2372.27514	14819.6125
2375.09405	14789.3125
2377.91118	14741.0125
2380.72652	14705.0125
2383.54009	14647.0125
2386.35187	14644.9125
2389.16188	14561.6125
2391.97011	14539.4125
2394.77657	14523.8125
2397.58125	14453.4125
2400.38416	14438.4125
2403.18529	14393.0125
2405.98466	14391.2125
2408.78226	14371.6125
2411.57809	14345.5125
2414.37216	14324.5125
2417.16446	14343.3125
2419.955	14276.7125
2422.74378	14281.6125
2425.5308	14235.9125
2428.31606	14267.1125
2431.09956	14251.4125
2433.88131	14243.2125
2436.6613	14250.8125
2439.43954	14224.7125
2442.21603	14236.6125
2444.99077	14235.0125
2447.76377	14241.4125
2450.53501	14224.6125
2453.30451	14241.1125
2456.07226	14244.8125
2458.83827	14229.9125
2461.60254	14235.1125
2464.36507	14242.7125
2467.12586	14189.2125
2469.88492	14207.1125
2472.64224	14237.1125
2475.39782	14236.8125
2478.15167	14261.7125
2480.90379	14267.2125
2483.65417	14263.5125
2486.40283	14301.3125
2489.14976	14294.4125
2491.89497	14322.8125
2494.63845	14361.1125
2497.3802	14333.7125
2500.12024	14328.8125
2502.85855	14331.4125
2505.59514	14302.1125
2508.33002	14298.3125
2511.06318	14241.7125
2513.79462	14208.2125
2516.52435	14162.2125
2519.25237	14149.7125
2521.97867	14084.4125
2524.70327	14066.5125
2527.42616	14056.8125
2530.14734	14036.9125
2532.86681	14021.7125
2535.58458	13999.5125
2538.30065	13979.6125
2541.01501	13972.7125
2543.72768	14005.2125
2546.43864	14001.8125
2549.14791	13972.6125
2551.85548	13983.2125
2554.56136	13980.2125
2557.26554	13966.3125
2559.96803	13965.9125
2562.66883	13911.8125
2565.36794	13885.2125
2568.06536	13898.2125
2570.7611	13903.2125
2573.45514	13888.1125
2576.14751	13863.9125
2578.83819	13842.7125
2581.52719	13839.0125
2584.21451	13820.4125
2586.90015	13848.5125
2589.58411	13789.3125
2592.2664	13822.4125
2594.94701	13807.5125
2597.62594	13789.0125
2600.30321	13750.9125
2602.9788	13768.5125
2605.65273	13738.5125
2608.32498	13757.7125
2610.99557	13730.9125
2613.66449	13766.6125
2616.33175	13752.2125
2618.99734	13768.9125
2621.66128	13783.2125
2624.32355	13765.7125
2626.98416	13738.8125
2629.64311	13744.3125
2632.30041	13730.9125
2634.95605	13734.0125
2637.61004	13694.2125
2640.26238	13690.5125
2642.91306	13685.3125
2645.56209	13702.7125
2648.20948	13678.3125
2650.85521	13648.5125
2653.4993	13646.1125
2656.14175	13614.8125
2658.78255	13619.2125
2661.42171	13636.7125
2664.05923	13669.0125
2666.6951	13671.1125
2669.32934	13679.9125
2671.96194	13685.6125
2674.59291	13704.4125
2677.22224	13689.1125
2679.84993	13692.5125
2682.476	13702.5125
2685.10043	13722.2125
2687.72324	13693.6125
2690.34441	13691.7125
2692.96396	13696.3125
2695.58188	13700.1125
2698.19818	13680.6125
2700.81285	13659.4125
2703.4259	13682.7125
2706.03733	13707.2125
2708.64714	13673.1125
2711.25533	13689.2125
2713.86191	13707.1125
2716.46687	13735.1125
2719.07021	13714.8125
2721.67194	13753.1125
2724.27206	13738.9125
2726.87057	13717.4125
2729.46747	13723.9125
2732.06276	13713.7125
2734.65644	13740.8125
2737.24852	13714.9125
2739.83899	13705.0125
2742.42786	13732.4125
2745.01513	13658.4125
2747.60079	13664.9125
2750.18486	13627.7125
2752.76733	13653.2125
2755.3482	13642.4125
2757.92747	13619.3125
2760.50515	13613.3125
2763.08123	13631.2125
2765.65573	13613.2125
2768.22863	13600.8125
2770.79994	13576.8125
2773.36967	13560.0125
2775.9378	13570.7125
2778.50435	13550.0125
2781.06932	13574.0125
2783.6327	13535.9125
2786.1945	13546.4125
2788.75471	13541.3125
2791.31335	13475.4125
2793.87041	13521.1125
2796.42589	13467.3125
2798.97979	13471.5125
2801.53212	13464.0125
2804.08288	13446.9125
2806.63206	13420.0125
2809.17967	13394.8125
2811.72571	13400.8125
2814.27018	13384.2125
2816.81308	13405.2125
2819.35442	13364.3125
2821.89419	13391.4125
2824.43239	13387.1125
2826.96904	13401.7125
2829.50412	13407.3125
2832.03763	13382.7125
2834.56959	13422.7125
2837.1	13393.4125
2839.62884	13434.2125
2842.15613	13460.3125
2844.68186	13528.4125
2847.20604	13589.6125
2849.72867	13663.8125
2852.24974	13652.8125
2854.76927	13678.1125
2857.28724	13640.1125
2859.80367	13594.7125
2862.31855	13559.1125
2864.83189	13555.5125
2867.34368	13518.9125
2869.85393	13539.1125
2872.36264	13553.3125
2874.8698	13547.8125
2877.37543	13549.0125
2879.87952	13569.9125
2882.38207	13566.2125
2884.88308	13505.7125
2887.38256	13500.0125
2889.88051	13522.9125
2892.37692	13532.5125
2894.8718	13519.6125
2897.36515	13542.3125
2899.85698	13526.9125
2902.34727	13559.6125
2904.83604	13564.2125
2907.32328	13586.1125
2909.809	13564.2125
2912.29319	13562.5125
2914.77587	13563.8125
2917.25702	13537.9125
2919.73665	13546.6125
2922.21476	13547.8125
2924.69136	13546.9125
2927.16644	13499.9125
2929.64	13475.2125
2932.11205	13430.4125
2934.58258	13367.5125
2937.05161	13368.8125
2939.51912	13350.9125
2941.98513	13286.2125
2944.44962	13233.9125
2946.91261	13172.2125
2949.37409	13186.3125
2951.83407	13127.1125
2954.29254	13092.8125
2956.74951	13043.1125
2959.20498	13045.5125
2961.65895	13024.3125
2964.11142	13017.9125
2966.56239	12960.1125
2969.01186	12918.0125
2971.45984	12873.0125
2973.90632	12851.6125
2976.35131	12818.0125
2978.7948	12799.4125
2981.23681	12717.5125
2983.67732	12686.6125
2986.11635	12620.7125
2988.55388	12605.1125
2990.98993	12592.7125
2993.4245	12555.9125
2995.85758	12539.6125
2998.28917	12504.5125
3000.71928	12490.1125
3003.14791	12463.9125
3005.57506	12435.2125
3008.00073	12419.3125
3010.42493	12405.6125
3012.84764	12372.5125
3015.26888	12372.4125
3017.68865	12324.8125
3020.10694	12320.2125
3022.52376	12287.9125
