Data from AgNPs_FTO_APTES_UA_2uM_CRN_10uM_R6G_10uM_NaF_0.1M_Addition_RamanShift__32__13-55-25-180.txt Node

Date: Wed Feb 02 13:55:25 GMT 2022
User: TCL
Spectrometer: QEP01345
Trigger mode: 4
Integration Time (sec): 7.000000E0
Scans to average: 10
Electric dark correction enabled: true
Nonlinearity correction enabled: false
Boxcar width: 0
XAxis mode: Raman Shifts
Number of Pixels in Spectrum: 1044
>>>>>Begin Spectral Data<<<<<
46.04893	1.725
50.45542	0.125
54.85868	-0.475
59.25871	-0.675
63.6555	52.125
68.04907	54.925
72.43941	63.325
76.82654	72.125
81.21044	72.025
85.59113	72.625
89.96862	76.225
94.34289	82.625
98.71396	80.425
103.08183	88.525
107.4465	86.525
111.80798	87.425
116.16626	89.525
120.52136	93.525
124.87327	96.825
129.222	95.725
133.56755	101.425
137.90993	101.625
142.24913	110.525
146.58517	121.025
150.91804	137.625
155.24774	162.025
159.57429	199.025
163.89768	246.825
168.21792	314.525
172.53501	428.025
176.84895	582.025
181.15975	814.625
185.46741	1125.025
189.77193	1536.525
194.07331	2056.525
198.37157	2635.625
202.6667	3242.225
206.9587	3867.525
211.24758	4497.825
215.53334	5152.825
219.81599	5925.825
224.09553	6796.225
228.37195	7767.925
232.64527	8819.525
236.91549	9808.525
241.18261	10653.225
245.44663	11276.225
249.70755	11680.325
253.96539	12064.725
258.22014	12363.725
262.4718	12774.925
266.72039	13062.425
270.96589	13242.825
275.20832	13281.825
279.44768	13166.625
283.68397	12970.025
287.91719	12889.525
292.14735	13040.025
296.37445	13484.125
300.59849	14187.125
304.81948	15096.425
309.03742	15777.025
313.25231	15830.025
317.46415	14910.225
321.67296	13342.425
325.87872	11992.425
330.08145	11307.025
334.28114	11186.025
338.47781	11377.025
342.67145	11805.625
346.86207	12525.825
351.04966	13599.125
355.23424	14787.525
359.4158	15694.125
363.59435	16004.625
367.76989	16016.325
371.94243	15805.725
376.11196	15575.525
380.27849	15314.025
384.44203	14996.325
388.60257	14616.825
392.76012	14438.825
396.91468	14620.025
401.06626	15107.925
405.21485	15495.325
409.36047	15080.025
413.50311	13930.325
417.64277	12890.525
421.77947	12223.525
425.9132	11936.425
430.04396	11866.025
434.17176	11861.525
438.2966	12008.225
442.41849	12317.625
446.53742	12752.425
450.6534	13124.625
454.76644	13344.025
458.87653	13359.925
462.98368	13200.125
467.08789	12915.725
471.18916	12539.525
475.2875	12103.025
479.38291	11768.825
483.4754	11527.325
487.56496	11326.725
491.6516	11218.825
495.73531	11218.525
499.81612	11278.525
503.89401	11498.325
507.96899	11718.525
512.04106	11972.725
516.11023	12275.325
520.1765	12425.725
524.23987	12346.325
528.30034	12010.125
532.35792	11578.325
536.41261	11152.325
540.46441	10770.725
544.51333	10567.625
548.55936	10672.325
552.60252	11037.025
556.64279	11495.925
560.6802	11744.025
564.71473	12075.725
568.7464	12856.025
572.7752	13402.025
576.80114	12859.825
580.82422	12136.525
584.84444	11780.425
588.86181	11589.825
592.87633	11490.025
596.888	11625.825
600.89682	12281.925
604.9028	14509.525
608.90594	20459.025
612.90624	28342.825
616.90371	27366.725
620.89834	17080.425
624.89015	12063.925
628.87913	11102.225
632.86528	11218.725
636.84862	11572.825
640.82913	11387.425
644.80683	10624.325
648.78172	10112.725
652.75379	10236.125
656.72306	10984.625
660.68952	11844.225
664.65319	11661.825
668.61405	10724.925
672.57211	10228.325
676.52738	10172.925
680.47986	10148.625
684.42955	10005.725
688.37646	9915.525
692.32058	9954.725
696.26192	10093.225
700.20048	10302.125
704.13626	10519.225
708.06928	10540.725
711.99952	10389.025
715.927	10307.325
719.85171	10322.025
723.77365	10280.225
727.69284	10113.325
731.60928	9960.225
735.52295	9921.425
739.43388	9965.225
743.34206	10032.525
747.24749	10121.625
751.15017	10232.625
755.05012	10544.925
758.94733	11368.825
762.8418	13294.125
766.73354	16667.825
770.62254	20219.925
774.50882	21964.125
778.39237	20789.125
782.27321	17243.125
786.15132	13684.225
790.02671	11603.025
793.89938	10621.925
797.76935	10232.125
801.6366	10063.525
805.50115	9923.225
809.36299	9830.225
813.22213	9749.125
817.07857	9700.525
820.93231	9721.125
824.78336	9757.525
828.63172	9826.625
832.47738	9893.025
836.32036	9832.725
840.16066	9705.925
843.99827	9604.025
847.8332	9583.725
851.66546	9553.825
855.49504	9545.625
859.32195	9460.325
863.1462	9410.225
866.96777	9367.925
870.78668	9347.025
874.60293	9337.825
878.41652	9386.825
882.22745	9475.525
886.03573	9526.625
889.84136	9495.125
893.64433	9422.225
897.44466	9367.525
901.24235	9387.025
905.0374	9376.525
908.8298	9313.125
912.61957	9287.825
916.40671	9369.825
920.19121	9516.725
923.97308	9629.725
927.75233	9812.625
931.52895	9962.525
935.30295	9806.125
939.07433	9343.525
942.84309	8943.925
946.60924	8721.125
950.37278	8582.425
954.13371	8497.825
957.89203	8452.625
961.64774	8447.225
965.40086	8410.625
969.15137	8376.925
972.89929	8354.325
976.64461	8305.225
980.38733	8319.225
984.12747	8309.325
987.86502	8380.725
991.59999	8418.825
995.33237	8511.525
999.06217	8746.925
1002.78939	9025.425
1006.51404	9307.425
1010.23611	9650.825
1013.95561	9854.525
1017.67255	9801.425
1021.38692	9591.625
1025.09872	9377.925
1028.80796	9209.125
1032.51465	9221.625
1036.21877	9365.525
1039.92035	9566.325
1043.61937	9665.725
1047.31584	9659.925
1051.00976	9602.625
1054.70114	9542.925
1058.38998	9496.225
1062.07627	9582.025
1065.76003	9655.025
1069.44126	9753.125
1073.11995	9938.425
1076.79611	10145.825
1080.46974	10397.225
1084.14085	10829.225
1087.80943	11334.425
1091.47549	11581.025
1095.13903	11271.425
1098.80005	10671.325
1102.45857	10122.925
1106.11456	9858.925
1109.76805	9903.525
1113.41903	10215.225
1117.06751	10698.525
1120.71348	11403.225
1124.35696	12200.525
1127.99793	12923.625
1131.63641	12909.925
1135.2724	12020.025
1138.90589	11133.925
1142.5369	10609.825
1146.16542	10286.025
1149.79145	10106.225
1153.415	10104.725
1157.03607	10272.125
1160.65467	10590.525
1164.27079	11141.225
1167.88443	12020.725
1171.49561	13457.525
1175.10432	15925.225
1178.71056	19162.225
1182.31434	21294.325
1185.91565	21529.825
1189.51451	20585.325
1193.11091	18880.525
1196.70485	16910.925
1200.29634	15496.725
1203.88538	14443.025
1207.47197	13216.125
1211.05612	12170.125
1214.63782	11588.425
1218.21708	11402.625
1221.79391	11402.125
1225.36829	11504.325
1228.94024	11671.125
1232.50976	11804.225
1236.07685	11911.625
1239.6415	11888.325
1243.20374	11874.325
1246.76355	11920.225
1250.32093	12096.225
1253.8759	12415.725
1257.42845	12887.425
1260.97859	13433.525
1264.52631	14053.325
1268.07163	14673.125
1271.61453	15261.725
1275.15503	15658.125
1278.69312	15724.525
1282.22882	15751.425
1285.76211	16120.525
1289.29301	16778.325
1292.82151	17490.625
1296.34761	18128.725
1299.87133	19127.625
1303.39266	20988.125
1306.9116	24053.525
1310.42815	27900.825
1313.94233	30455.325
1317.45412	30085.625
1320.96354	27609.425
1324.47058	24728.825
1327.97525	22235.925
1331.47754	20629.025
1334.97747	19922.325
1338.47502	19786.325
1341.97022	20169.325
1345.46305	21008.725
1348.95352	22630.525
1352.44163	24899.025
1355.92738	28175.725
1359.41078	33372.725
1362.89183	38864.125
1366.37053	38377.225
1369.84688	31698.525
1373.32088	24661.425
1376.79254	20286.725
1380.26186	18132.625
1383.72883	17068.625
1387.19347	16208.525
1390.65578	15272.125
1394.11575	14511.525
1397.57339	14118.425
1401.0287	14057.225
1404.48168	14244.025
1407.93234	14443.425
1411.38068	14581.925
1414.82669	14547.225
1418.27039	14311.325
1421.71177	14028.425
1425.15083	13701.925
1428.58758	13451.725
1432.02203	13360.525
1435.45416	13489.925
1438.88399	13598.625
1442.31151	13605.225
1445.73673	13681.225
1449.15965	13810.025
1452.58027	13787.025
1455.9986	13687.225
1459.41463	13615.525
1462.82837	13737.325
1466.23982	14117.125
1469.64898	14485.625
1473.05586	14822.925
1476.46045	15052.425
1479.86276	15413.625
1483.26279	15889.525
1486.66054	16445.425
1490.05602	17190.225
1493.44922	18254.825
1496.84016	19925.725
1500.22882	22641.925
1503.61521	26267.925
1506.99934	30478.325
1510.38121	34688.325
1513.76081	37156.525
1517.13816	35790.225
1520.51324	30836.525
1523.88607	25415.025
1527.25665	21510.925
1530.62498	19202.725
1533.99105	17846.525
1537.35488	16964.625
1540.71647	16333.225
1544.07581	15989.125
1547.4329	15789.925
1550.78776	15674.525
1554.14038	15702.125
1557.49077	15916.425
1560.83892	16466.825
1564.18484	17203.725
1567.52853	18010.125
1570.86999	18665.725
1574.20922	19084.125
1577.54624	18966.825
1580.88103	17749.225
1584.2136	16050.525
1587.54395	15075.125
1590.87208	15134.125
1594.19801	16039.125
1597.52172	17364.325
1600.84321	17903.425
1604.16251	17026.525
1607.47959	15680.725
1610.79447	14328.225
1614.10715	13010.525
1617.41763	11948.225
1620.7259	11265.425
1624.03199	10928.325
1627.33587	10959.425
1630.63757	11270.725
1633.93707	11931.325
1637.23439	13132.525
1640.52951	14744.925
1643.82246	17117.525
1647.11321	20084.425
1650.40179	22715.325
1653.68819	22695.125
1656.97241	19492.925
1660.25446	15360.825
1663.53433	12340.825
1666.81203	10534.525
1670.08756	9496.225
1673.36092	8894.025
1676.63211	8530.825
1679.90115	8273.525
1683.16801	8092.025
1686.43272	7953.625
1689.69527	7861.525
1692.95567	7777.325
1696.2139	7746.925
1699.46999	7726.425
1702.72392	7698.125
1705.97571	7662.225
1709.22535	7632.525
1712.47284	7617.525
1715.71819	7633.525
1718.96139	7650.525
1722.20246	7630.825
1725.44139	7591.325
1728.67818	7485.125
1731.91284	7418.825
1735.14537	7326.125
1738.37576	7245.825
1741.60403	7196.225
1744.83017	7156.025
1748.05418	7132.125
1751.27607	7121.125
1754.49584	7087.825
1757.71349	7095.325
1760.92903	7077.125
1764.14244	7049.525
1767.35375	7025.625
1770.56294	6996.925
1773.77002	6944.725
1776.97499	6899.125
1780.17785	6863.625
1783.37861	6799.625
1786.57727	6793.725
1789.77382	6788.325
1792.96828	6778.425
1796.16064	6755.525
1799.3509	6753.625
1802.53907	6735.725
1805.72514	6692.325
1808.90913	6676.425
1812.09102	6633.725
1815.27083	6633.025
1818.44856	6605.625
1821.6242	6598.325
1824.79776	6578.825
1827.96924	6547.025
1831.13864	6553.625
1834.30597	6563.825
1837.47122	6523.325
1840.6344	6513.625
1843.7955	6524.125
1846.95454	6538.225
1850.11151	6503.125
1853.26642	6523.925
1856.41926	6501.825
1859.57004	6504.925
1862.71876	6514.425
1865.86542	6524.425
1869.01003	6521.225
1872.15258	6543.925
1875.29308	6549.125
1878.43152	6562.425
1881.56792	6561.725
1884.70227	6569.525
1887.83457	6603.225
1890.96482	6588.325
1894.09304	6584.725
1897.21921	6613.625
1900.34335	6589.825
1903.46544	6584.525
1906.58551	6615.125
1909.70353	6609.325
1912.81953	6613.625
1915.93349	6607.625
1919.04543	6599.825
1922.15534	6603.725
1925.26322	6569.525
1928.36908	6534.025
1931.47292	6490.725
1934.57473	6442.625
1937.67453	6395.325
1940.77232	6331.925
1943.86808	6289.925
1946.96184	6245.625
1950.05358	6230.225
1953.14331	6170.925
1956.23103	6130.225
1959.31675	6136.225
1962.40046	6098.425
1965.48217	6091.125
1968.56188	6060.925
1971.63959	6043.925
1974.7153	6046.525
1977.78901	6016.025
1980.86073	5984.825
1983.93046	5944.525
1986.99819	5924.525
1990.06394	5901.625
1993.1277	5874.025
1996.18947	5853.025
1999.24925	5838.425
2002.30706	5810.225
2005.36288	5776.825
2008.41672	5767.125
2011.46859	5742.025
2014.51848	5725.825
2017.56639	5713.125
2020.61233	5690.625
2023.6563	5680.425
2026.6983	5666.125
2029.73833	5636.325
2032.7764	5620.225
2035.8125	5620.925
2038.84664	5593.725
2041.87881	5583.225
2044.90903	5587.025
2047.93729	5557.025
2050.96359	5574.125
2053.98794	5537.525
2057.01034	5534.925
2060.03078	5525.125
2063.04927	5518.825
2066.06582	5510.225
2069.08042	5503.525
2072.09307	5474.825
2075.10378	5478.825
2078.11255	5478.225
2081.11938	5466.825
2084.12426	5475.525
2087.12722	5469.625
2090.12824	5453.125
2093.12732	5476.025
2096.12447	5471.225
2099.11969	5444.025
2102.11299	5472.325
2105.10435	5459.925
2108.09379	5449.925
2111.08131	5464.525
2114.0669	5440.825
2117.05057	5461.525
2120.03233	5451.125
2123.01216	5462.425
2125.99008	5483.025
2128.96609	5481.225
2131.94018	5481.725
2134.91236	5482.125
2137.88263	5464.025
2140.851	5473.425
2143.81746	5475.125
2146.78201	5474.425
2149.74466	5461.525
2152.7054	5448.725
2155.66425	5440.025
2158.6212	5437.825
2161.57625	5420.325
2164.52941	5426.025
2167.48067	5415.325
2170.43004	5401.025
2173.37752	5420.125
2176.32311	5404.325
2179.26681	5421.725
2182.20863	5405.825
2185.14856	5401.625
2188.08661	5396.525
2191.02278	5397.925
2193.95707	5384.725
2196.88948	5364.925
2199.82001	5375.425
2202.74867	5369.325
2205.67545	5359.325
2208.60037	5348.025
2211.52341	5340.725
2214.44458	5348.725
2217.36388	5310.325
2220.28132	5326.025
2223.1969	5291.125
2226.11061	5282.725
2229.02246	5273.025
2231.93245	5269.025
2234.84058	5245.225
2237.74686	5224.425
2240.65128	5224.025
2243.55385	5215.125
2246.45456	5219.925
2249.35343	5202.625
2252.25044	5203.725
2255.14561	5203.625
2258.03893	5206.925
2260.93041	5222.925
2263.82004	5203.925
2266.70783	5197.725
2269.59378	5168.525
2272.4779	5166.825
2275.36017	5152.125
2278.24061	5128.225
2281.11922	5130.725
2283.996	5119.225
2286.87094	5086.325
2289.74405	5084.925
2292.61534	5053.425
2295.4848	5056.325
2298.35243	5029.425
2301.21824	5025.925
2304.08223	5039.225
2306.94439	5028.025
2309.80474	5023.425
2312.66327	5025.125
2315.51999	5019.825
2318.37489	5001.025
2321.22797	5014.625
2324.07925	5006.125
2326.92871	4995.725
2329.77637	5006.425
2332.62222	4984.425
2335.46626	4977.025
2338.3085	4968.325
2341.14893	4971.525
2343.98756	4971.625
2346.8244	4979.225
2349.65943	4994.425
2352.49267	5002.525
2355.32411	5021.625
2358.15376	5021.025
2360.98161	5048.725
2363.80768	5044.825
2366.63195	5062.725
2369.45444	5063.625
2372.27514	5071.625
2375.09405	5065.425
2377.91118	5026.325
2380.72652	5012.125
2383.54009	4974.825
2386.35187	4965.525
2389.16188	4926.725
2391.97011	4887.325
2394.77657	4867.525
2397.58125	4851.725
2400.38416	4834.525
2403.18529	4822.225
2405.98466	4815.225
2408.78226	4799.125
2411.57809	4786.925
2414.37216	4773.725
2417.16446	4804.625
2419.955	4783.325
2422.74378	4790.925
2425.5308	4789.025
2428.31606	4778.825
2431.09956	4770.625
2433.88131	4765.225
2436.6613	4762.425
2439.43954	4782.625
2442.21603	4775.025
2444.99077	4784.525
2447.76377	4782.725
2450.53501	4783.825
2453.30451	4792.225
2456.07226	4781.225
2458.83827	4792.125
2461.60254	4773.325
2464.36507	4783.525
2467.12586	4785.725
2469.88492	4760.325
2472.64224	4770.025
2475.39782	4793.825
2478.15167	4796.625
2480.90379	4776.925
2483.65417	4803.825
2486.40283	4839.125
2489.14976	4839.325
2491.89497	4854.325
2494.63845	4881.825
2497.3802	4870.625
2500.12024	4866.025
2502.85855	4852.025
2505.59514	4824.725
2508.33002	4795.725
2511.06318	4773.825
2513.79462	4729.525
2516.52435	4721.725
2519.25237	4698.625
2521.97867	4676.225
2524.70327	4652.325
2527.42616	4632.525
2530.14734	4648.425
2532.86681	4624.325
2535.58458	4622.625
2538.30065	4625.825
2541.01501	4602.725
2543.72768	4626.625
2546.43864	4627.225
2549.14791	4629.425
2551.85548	4618.425
2554.56136	4618.525
2557.26554	4632.925
2559.96803	4605.925
2562.66883	4609.025
2565.36794	4589.925
2568.06536	4606.625
2570.7611	4573.625
2573.45514	4569.725
2576.14751	4559.625
2578.83819	4549.925
2581.52719	4557.425
2584.21451	4540.925
2586.90015	4549.025
2589.58411	4525.825
2592.2664	4519.625
2594.94701	4503.025
2597.62594	4502.125
2600.30321	4512.125
2602.9788	4508.725
2605.65273	4503.225
2608.32498	4514.025
2610.99557	4504.025
2613.66449	4511.625
2616.33175	4493.125
2618.99734	4505.225
2621.66128	4516.725
2624.32355	4498.625
2626.98416	4489.425
2629.64311	4495.525
2632.30041	4484.525
2634.95605	4469.625
2637.61004	4461.625
2640.26238	4444.125
2642.91306	4432.325
2645.56209	4432.925
2648.20948	4415.925
2650.85521	4419.625
2653.4993	4425.125
2656.14175	4418.125
2658.78255	4436.525
2661.42171	4422.225
2664.05923	4428.225
2666.6951	4446.325
2669.32934	4467.625
2671.96194	4468.925
2674.59291	4482.425
2677.22224	4465.625
2679.84993	4490.125
2682.476	4458.125
2685.10043	4472.225
2687.72324	4463.525
2690.34441	4468.125
2692.96396	4460.325
2695.58188	4474.425
2698.19818	4466.725
2700.81285	4470.425
2703.4259	4474.525
2706.03733	4514.125
2708.64714	4494.525
2711.25533	4503.725
2713.86191	4472.625
2716.46687	4488.325
2719.07021	4480.325
2721.67194	4511.325
2724.27206	4497.325
2726.87057	4486.025
2729.46747	4479.525
2732.06276	4490.825
2734.65644	4471.925
2737.24852	4462.725
2739.83899	4453.225
2742.42786	4446.725
2745.01513	4446.225
2747.60079	4433.925
2750.18486	4427.425
2752.76733	4415.625
2755.3482	4417.525
2757.92747	4417.625
2760.50515	4414.125
2763.08123	4409.525
2765.65573	4377.625
2768.22863	4380.725
2770.79994	4373.225
2773.36967	4372.525
2775.9378	4378.125
2778.50435	4384.325
2781.06932	4376.825
2783.6327	4380.025
2786.1945	4394.225
2788.75471	4383.525
2791.31335	4360.725
2793.87041	4386.325
2796.42589	4354.325
2798.97979	4382.025
2801.53212	4359.825
2804.08288	4377.725
2806.63206	4374.725
2809.17967	4381.325
2811.72571	4363.525
2814.27018	4384.925
2816.81308	4389.025
2819.35442	4407.525
2821.89419	4404.825
2824.43239	4430.625
2826.96904	4444.725
2829.50412	4454.525
2832.03763	4456.925
2834.56959	4473.325
2837.1	4472.725
2839.62884	4514.025
2842.15613	4543.025
2844.68186	4611.125
2847.20604	4687.225
2849.72867	4759.825
2852.24974	4775.625
2854.76927	4783.025
2857.28724	4781.425
2859.80367	4784.625
2862.31855	4752.125
2864.83189	4728.025
2867.34368	4727.325
2869.85393	4716.125
2872.36264	4702.825
2874.8698	4720.525
2877.37543	4717.425
2879.87952	4714.125
2882.38207	4703.225
2884.88308	4685.725
2887.38256	4688.025
2889.88051	4690.425
2892.37692	4679.925
2894.8718	4691.825
2897.36515	4688.225
2899.85698	4674.825
2902.34727	4690.125
2904.83604	4692.825
2907.32328	4713.525
2909.809	4698.125
2912.29319	4685.325
2914.77587	4675.225
2917.25702	4674.225
2919.73665	4679.025
2922.21476	4674.725
2924.69136	4654.225
2927.16644	4663.925
2929.64	4640.025
2932.11205	4624.025
2934.58258	4625.425
2937.05161	4581.125
2939.51912	4567.325
2941.98513	4541.925
2944.44962	4557.725
2946.91261	4429.125
2949.37409	4385.825
2951.83407	4360.525
2954.29254	4347.825
2956.74951	4330.925
2959.20498	4304.425
2961.65895	4290.425
2964.11142	4274.925
2966.56239	4262.925
2969.01186	4241.925
2971.45984	4233.025
2973.90632	4202.425
2976.35131	4185.625
2978.7948	4153.125
2981.23681	4157.625
2983.67732	4131.925
2986.11635	4119.825
2988.55388	4105.525
2990.98993	4105.225
2993.4245	4083.725
2995.85758	4066.825
2998.28917	4048.225
3000.71928	4053.125
3003.14791	4042.725
3005.57506	4031.125
3008.00073	4020.225
3010.42493	4008.225
3012.84764	4009.625
3015.26888	4009.925
3017.68865	4012.225
3020.10694	3985.325
3022.52376	3991.025
3024.9391	3976.025
3027.35298	3963.125
3029.76539	3960.725
3032.17632	3945.525
3034.5858	3945.325
3036.9938	3950.725
3039.40034	3938.525
3041.80542	3923.725
3044.20903	3920.925
3046.61118	3916.025
3049.01187	3886.725
3051.4111	3884.525
3053.80888	3895.925
3056.20519	3883.125
3058.60005	3872.625
3060.99345	3859.025
3063.3854	3868.825
3065.7759	3848.725
3068.16494	3847.525
3070.55254	3838.625
3072.93868	3830.825
3075.32338	3824.125
3077.70662	3822.125
3080.08842	3792.525
3082.46878	3765.425
3084.84769	3755.825
3087.22515	3750.425
3089.60118	3749.925
3091.97576	3732.925
3094.3489	3729.025
3096.72061	3720.225
3099.09087	3709.925
3101.4597	3703.125
3103.82709	3704.325
3106.19305	3699.825
3108.55757	3700.025
3110.92066	3689.625
3113.28232	3691.425
3115.64255	3680.925
3118.00134	3670.025
3120.35871	3662.225
3122.71466	3657.025
3125.06917	3641.625
3127.42226	3645.225
3129.77393	3659.425
3132.12417	3652.625
3134.47299	3661.125
3136.82039	3638.025
3139.16636	3664.325
3141.51092	3674.325
3143.85406	3660.025
3146.19579	3658.025
3148.53609	3676.225
3150.87499	3669.525
3153.21246	3680.525
3155.54853	3688.925
3157.88318	3683.925
3160.21642	3682.125
3162.54826	3689.425
3164.87868	3692.025
3167.2077	3688.025
3169.5353	3680.525
3171.86151	3685.025
3174.18631	3688.625
3176.5097	3688.925
3178.83169	3673.525
3181.15228	3685.725
3183.47147	3680.625
3185.78926	3688.325
3188.10565	3693.825
3190.42065	3696.325
3192.73424	3693.625
3195.04645	3699.525
3197.35725	3706.925
3199.66667	3696.525
