Data from AgNPs_FTO_APTES_UA_2uM_CRN_200uM_R6G_10uM_NaF_0.1M_Addition_RamanShift__14__16-35-15-367.txt Node

Date: Wed Feb 02 16:35:15 GMT 2022
User: TCL
Spectrometer: QEP01345
Trigger mode: 4
Integration Time (sec): 7.000000E0
Scans to average: 10
Electric dark correction enabled: true
Nonlinearity correction enabled: false
Boxcar width: 0
XAxis mode: Raman Shifts
Number of Pixels in Spectrum: 1044
>>>>>Begin Spectral Data<<<<<
46.04893	0.5625
50.45542	-0.0375
54.85868	-0.7375
59.25871	-0.2375
63.6555	62.9625
68.04907	70.1625
72.43941	69.4625
76.82654	75.0625
81.21044	76.4625
85.59113	81.0625
89.96862	85.7625
94.34289	86.1625
98.71396	87.3625
103.08183	95.4625
107.4465	97.6625
111.80798	101.2625
116.16626	102.3625
120.52136	103.9625
124.87327	104.9625
129.222	113.2625
133.56755	117.3625
137.90993	123.1625
142.24913	136.8625
146.58517	154.8625
150.91804	171.0625
155.24774	205.8625
159.57429	254.8625
163.89768	321.2625
168.21792	422.0625
172.53501	572.7625
176.84895	789.4625
181.15975	1109.0625
185.46741	1561.5625
189.77193	2148.4625
194.07331	2888.5625
198.37157	3737.7625
202.6667	4639.3625
206.9587	5521.2625
211.24758	6380.2625
215.53334	7242.5625
219.81599	8135.8625
224.09553	9113.8625
228.37195	10194.3625
232.64527	11342.9625
236.91549	12617.3625
241.18261	13891.1625
245.44663	15136.0625
249.70755	16195.4625
253.96539	17163.2625
258.22014	17951.0625
262.4718	18612.3625
266.72039	19074.1625
270.96589	19368.4625
275.20832	19439.9625
279.44768	19481.5625
283.68397	19429.7625
287.91719	19305.7625
292.14735	19301.2625
296.37445	19307.2625
300.59849	19446.7625
304.81948	19423.7625
309.03742	19327.5625
313.25231	19032.6625
317.46415	18590.6625
321.67296	18036.3625
325.87872	17603.2625
330.08145	17343.4625
334.28114	17270.8625
338.47781	17360.9625
342.67145	17491.8625
346.86207	17718.9625
351.04966	17867.1625
355.23424	18055.0625
359.4158	18216.0625
363.59435	18349.7625
367.76989	18400.9625
371.94243	18469.9625
376.11196	18504.4625
380.27849	18545.4625
384.44203	18632.2625
388.60257	18741.0625
392.76012	18925.9625
396.91468	19197.7625
401.06626	19507.1625
405.21485	19725.9625
409.36047	19726.6625
413.50311	19535.0625
417.64277	19358.8625
421.77947	19312.5625
425.9132	19308.3625
430.04396	19420.0625
434.17176	19538.5625
438.2966	19659.9625
442.41849	19860.2625
446.53742	20181.2625
450.6534	20546.0625
454.76644	20865.3625
458.87653	21057.9625
462.98368	21082.1625
467.08789	21055.5625
471.18916	20994.2625
475.2875	20930.7625
479.38291	20939.1625
483.4754	20890.0625
487.56496	20707.0625
491.6516	20387.7625
495.73531	20067.2625
499.81612	19828.9625
503.89401	19815.7625
507.96899	19873.6625
512.04106	19898.5625
516.11023	19839.9625
520.1765	19707.5625
524.23987	19523.5625
528.30034	19273.9625
532.35792	19079.2625
536.41261	18951.0625
540.46441	18810.5625
544.51333	18877.9625
548.55936	19130.8625
552.60252	19590.8625
556.64279	19995.5625
560.6802	20380.7625
564.71473	20624.3625
568.7464	20972.6625
572.7752	21623.7625
576.80114	22316.3625
580.82422	22916.1625
584.84444	23261.7625
588.86181	23327.5625
592.87633	23224.3625
596.888	22918.0625
600.89682	22609.8625
604.9028	22651.6625
608.90594	23435.9625
612.90624	24318.0625
616.90371	23040.0625
620.89834	20366.8625
624.89015	19155.0625
628.87913	19045.4625
632.86528	19275.3625
636.84862	19357.7625
640.82913	19160.2625
644.80683	18846.3625
648.78172	18531.3625
652.75379	18389.2625
656.72306	18482.7625
660.68952	18652.6625
664.65319	18657.0625
668.61405	18528.6625
672.57211	18515.5625
676.52738	18530.0625
680.47986	18575.5625
684.42955	18498.9625
688.37646	18478.2625
692.32058	18468.9625
696.26192	18586.1625
700.20048	18785.6625
704.13626	18936.8625
708.06928	19052.0625
711.99952	19070.0625
715.927	18973.2625
719.85171	18920.3625
723.77365	18795.0625
727.69284	18569.2625
731.60928	18359.7625
735.52295	18258.8625
739.43388	18109.5625
743.34206	18161.4625
747.24749	18243.4625
751.15017	18410.7625
755.05012	18692.0625
758.94733	19209.4625
762.8418	20016.4625
766.73354	21232.0625
770.62254	22345.7625
774.50882	22481.1625
778.39237	21550.1625
782.27321	20290.8625
786.15132	19253.8625
790.02671	18609.7625
793.89938	18207.3625
797.76935	18024.7625
801.6366	17947.5625
805.50115	17902.4625
809.36299	17826.0625
813.22213	17725.8625
817.07857	17739.6625
820.93231	17739.5625
824.78336	17697.5625
828.63172	17651.1625
832.47738	17567.8625
836.32036	17530.1625
840.16066	17491.2625
843.99827	17476.7625
847.8332	17437.5625
851.66546	17415.0625
855.49504	17435.5625
859.32195	17416.6625
863.1462	17389.9625
866.96777	17379.3625
870.78668	17352.6625
874.60293	17357.5625
878.41652	17348.6625
882.22745	17403.0625
886.03573	17386.0625
889.84136	17408.1625
893.64433	17386.4625
897.44466	17334.7625
901.24235	17321.0625
905.0374	17303.2625
908.8298	17267.2625
912.61957	17374.3625
916.40671	17572.1625
920.19121	17804.8625
923.97308	17965.6625
927.75233	17838.0625
931.52895	17645.9625
935.30295	17341.9625
939.07433	17086.3625
942.84309	16862.4625
946.60924	16675.9625
950.37278	16535.0625
954.13371	16532.2625
957.89203	16527.0625
961.64774	16511.8625
965.40086	16532.1625
969.15137	16483.0625
972.89929	16373.3625
976.64461	16286.7625
980.38733	16249.7625
984.12747	16264.0625
987.86502	16288.1625
991.59999	16340.2625
995.33237	16391.2625
999.06217	16516.9625
1002.78939	16662.6625
1006.51404	16773.8625
1010.23611	16969.5625
1013.95561	17071.2625
1017.67255	17149.0625
1021.38692	17089.6625
1025.09872	16975.8625
1028.80796	16880.8625
1032.51465	16814.5625
1036.21877	16876.2625
1039.92035	16908.7625
1043.61937	17024.3625
1047.31584	17094.4625
1051.00976	17197.1625
1054.70114	17304.9625
1058.38998	17480.0625
1062.07627	17699.2625
1065.76003	17960.6625
1069.44126	18237.1625
1073.11995	18417.1625
1076.79611	18554.7625
1080.46974	18560.2625
1084.14085	18561.9625
1087.80943	18663.0625
1091.47549	18829.7625
1095.13903	18947.5625
1098.80005	18861.4625
1102.45857	18500.9625
1106.11456	18068.9625
1109.76805	17802.6625
1113.41903	17707.2625
1117.06751	17747.6625
1120.71348	17867.0625
1124.35696	18086.0625
1127.99793	18351.3625
1131.63641	18482.2625
1135.2724	18461.7625
1138.90589	18318.2625
1142.5369	18318.8625
1146.16542	18466.0625
1149.79145	18674.9625
1153.415	18922.2625
1157.03607	19215.5625
1160.65467	19614.5625
1164.27079	20265.9625
1167.88443	21054.0625
1171.49561	21948.3625
1175.10432	22999.9625
1178.71056	24442.5625
1182.31434	25744.7625
1185.91565	26642.3625
1189.51451	26990.5625
1193.11091	26901.8625
1196.70485	26411.0625
1200.29634	25530.2625
1203.88538	24736.8625
1207.47197	24244.7625
1211.05612	23951.8625
1214.63782	23601.8625
1218.21708	23025.5625
1221.79391	22239.8625
1225.36829	21646.0625
1228.94024	21243.4625
1232.50976	21010.7625
1236.07685	20865.5625
1239.6415	20861.0625
1243.20374	20935.2625
1246.76355	21014.3625
1250.32093	21280.3625
1253.8759	21544.8625
1257.42845	22120.0625
1260.97859	22637.2625
1264.52631	23134.1625
1268.07163	23603.4625
1271.61453	24072.3625
1275.15503	24655.2625
1278.69312	25221.1625
1282.22882	25834.4625
1285.76211	26492.7625
1289.29301	27283.3625
1292.82151	28386.8625
1296.34761	29637.2625
1299.87133	30952.5625
1303.39266	32217.0625
1306.9116	33295.5625
1310.42815	34109.0625
1313.94233	34479.9625
1317.45412	34423.9625
1320.96354	34345.9625
1324.47058	34424.4625
1327.97525	34590.8625
1331.47754	34808.9625
1334.97747	35035.0625
1338.47502	35239.6625
1341.97022	35617.9625
1345.46305	35753.5625
1348.95352	35642.4625
1352.44163	35128.3625
1355.92738	34626.5625
1359.41078	34382.1625
1362.89183	34336.1625
1366.37053	33584.0625
1369.84688	31624.8625
1373.32088	29274.1625
1376.79254	27601.3625
1380.26186	26837.9625
1383.72883	26806.7625
1387.19347	26938.2625
1390.65578	26918.9625
1394.11575	26811.2625
1397.57339	26829.4625
1401.0287	26933.9625
1404.48168	26901.2625
1407.93234	26610.3625
1411.38068	26006.0625
1414.82669	25101.8625
1418.27039	24039.2625
1421.71177	23077.6625
1425.15083	22320.2625
1428.58758	21856.6625
1432.02203	21843.0625
1435.45416	22146.3625
1438.88399	22604.7625
1442.31151	23040.6625
1445.73673	23353.8625
1449.15965	23806.6625
1452.58027	24228.5625
1455.9986	24520.5625
1459.41463	24884.6625
1462.82837	25172.6625
1466.23982	25478.5625
1469.64898	25739.0625
1473.05586	25918.9625
1476.46045	25939.3625
1479.86276	25869.9625
1483.26279	25749.0625
1486.66054	25719.1625
1490.05602	25930.2625
1493.44922	26235.1625
1496.84016	26840.6625
1500.22882	27749.7625
1503.61521	28802.7625
1506.99934	29921.1625
1510.38121	30819.3625
1513.76081	30988.2625
1517.13816	30611.0625
1520.51324	29889.7625
1523.88607	29363.3625
1527.25665	29085.8625
1530.62498	28870.4625
1533.99105	28593.3625
1537.35488	28114.4625
1540.71647	27390.1625
1544.07581	26619.6625
1547.4329	25782.4625
1550.78776	25126.6625
1554.14038	24745.5625
1557.49077	24559.8625
1560.83892	24495.4625
1564.18484	24603.1625
1567.52853	24675.3625
1570.86999	24885.9625
1574.20922	25236.1625
1577.54624	25574.6625
1580.88103	25678.2625
1584.2136	25676.8625
1587.54395	25953.4625
1590.87208	26492.2625
1594.19801	27236.7625
1597.52172	28143.4625
1600.84321	28241.0625
1604.16251	27346.8625
1607.47959	25870.7625
1610.79447	24295.7625
1614.10715	22774.9625
1617.41763	21370.4625
1620.7259	20279.9625
1624.03199	19625.9625
1627.33587	19415.6625
1630.63757	19600.0625
1633.93707	20366.8625
1637.23439	21788.2625
1640.52951	23849.0625
1643.82246	26427.5625
1647.11321	28905.4625
1650.40179	30174.0625
1653.68819	29615.2625
1656.97241	27202.1625
1660.25446	24106.7625
1663.53433	21328.9625
1666.81203	19214.1625
1670.08756	17711.7625
1673.36092	16736.6625
1676.63211	16117.7625
1679.90115	15684.5625
1683.16801	15359.9625
1686.43272	15140.0625
1689.69527	14969.2625
1692.95567	14835.9625
1696.2139	14738.5625
1699.46999	14697.1625
1702.72392	14616.6625
1705.97571	14536.9625
1709.22535	14430.5625
1712.47284	14407.6625
1715.71819	14364.6625
1718.96139	14311.2625
1722.20246	14247.2625
1725.44139	14217.8625
1728.67818	14137.8625
1731.91284	14055.3625
1735.14537	14000.6625
1738.37576	13913.3625
1741.60403	13891.3625
1744.83017	13839.6625
1748.05418	13818.4625
1751.27607	13801.7625
1754.49584	13790.4625
1757.71349	13788.5625
1760.92903	13738.1625
1764.14244	13743.9625
1767.35375	13722.2625
1770.56294	13663.5625
1773.77002	13592.3625
1776.97499	13552.6625
1780.17785	13501.1625
1783.37861	13501.3625
1786.57727	13425.5625
1789.77382	13404.1625
1792.96828	13345.1625
1796.16064	13323.2625
1799.3509	13271.4625
1802.53907	13237.2625
1805.72514	13191.5625
1808.90913	13152.0625
1812.09102	13162.3625
1815.27083	13130.9625
1818.44856	13098.1625
1821.6242	13070.5625
1824.79776	13052.5625
1827.96924	13032.6625
1831.13864	13010.4625
1834.30597	12994.8625
1837.47122	12969.0625
1840.6344	12995.0625
1843.7955	12993.0625
1846.95454	12949.1625
1850.11151	12948.4625
1853.26642	12973.6625
1856.41926	12912.2625
1859.57004	12934.5625
1862.71876	12901.8625
1865.86542	12878.8625
1869.01003	12843.1625
1872.15258	12800.6625
1875.29308	12771.9625
1878.43152	12770.8625
1881.56792	12735.1625
1884.70227	12723.8625
1887.83457	12694.5625
1890.96482	12693.2625
1894.09304	12653.9625
1897.21921	12628.3625
1900.34335	12596.6625
1903.46544	12565.9625
1906.58551	12572.8625
1909.70353	12544.7625
1912.81953	12517.8625
1915.93349	12484.4625
1919.04543	12443.7625
1922.15534	12422.8625
1925.26322	12416.0625
1928.36908	12371.0625
1931.47292	12332.3625
1934.57473	12299.3625
1937.67453	12271.7625
1940.77232	12230.1625
1943.86808	12198.7625
1946.96184	12169.3625
1950.05358	12145.8625
1953.14331	12105.9625
1956.23103	12062.6625
1959.31675	12030.1625
1962.40046	11998.5625
1965.48217	11948.9625
1968.56188	11907.0625
1971.63959	11866.2625
1974.7153	11822.4625
1977.78901	11791.6625
1980.86073	11747.7625
1983.93046	11689.4625
1986.99819	11660.0625
1990.06394	11617.0625
1993.1277	11600.2625
1996.18947	11529.7625
1999.24925	11498.8625
2002.30706	11457.6625
2005.36288	11395.6625
2008.41672	11371.4625
2011.46859	11344.1625
2014.51848	11304.8625
2017.56639	11247.0625
2020.61233	11245.8625
2023.6563	11208.2625
2026.6983	11180.3625
2029.73833	11131.9625
2032.7764	11106.6625
2035.8125	11080.0625
2038.84664	11082.0625
2041.87881	11042.3625
2044.90903	11019.3625
2047.93729	11019.6625
2050.96359	10993.8625
2053.98794	10963.3625
2057.01034	10942.4625
2060.03078	10952.3625
2063.04927	10919.8625
2066.06582	10926.9625
2069.08042	10884.6625
2072.09307	10899.1625
2075.10378	10874.6625
2078.11255	10864.6625
2081.11938	10867.4625
2084.12426	10847.2625
2087.12722	10838.6625
2090.12824	10836.3625
2093.12732	10840.2625
2096.12447	10831.9625
2099.11969	10838.0625
2102.11299	10829.6625
2105.10435	10848.5625
2108.09379	10831.0625
2111.08131	10824.5625
2114.0669	10828.5625
2117.05057	10827.0625
2120.03233	10842.8625
2123.01216	10856.5625
2125.99008	10853.1625
2128.96609	10836.0625
2131.94018	10842.5625
2134.91236	10845.4625
2137.88263	10835.9625
2140.851	10837.8625
2143.81746	10850.1625
2146.78201	10853.0625
2149.74466	10868.2625
2152.7054	10861.1625
2155.66425	10844.9625
2158.6212	10819.2625
2161.57625	10810.8625
2164.52941	10794.0625
2167.48067	10815.8625
2170.43004	10801.8625
2173.37752	10752.3625
2176.32311	10751.8625
2179.26681	10774.5625
2182.20863	10747.5625
2185.14856	10753.7625
2188.08661	10759.2625
2191.02278	10757.9625
2193.95707	10716.2625
2196.88948	10722.9625
2199.82001	10705.3625
2202.74867	10681.4625
2205.67545	10664.0625
2208.60037	10647.1625
2211.52341	10632.3625
2214.44458	10602.7625
2217.36388	10598.3625
2220.28132	10576.5625
2223.1969	10553.1625
2226.11061	10528.4625
2229.02246	10493.2625
2231.93245	10470.4625
2234.84058	10448.9625
2237.74686	10394.2625
2240.65128	10409.0625
2243.55385	10401.3625
2246.45456	10402.4625
2249.35343	10386.3625
2252.25044	10352.5625
2255.14561	10335.5625
2258.03893	10318.0625
2260.93041	10278.0625
2263.82004	10237.5625
2266.70783	10221.9625
2269.59378	10187.7625
2272.4779	10172.3625
2275.36017	10116.3625
2278.24061	10077.0625
2281.11922	10061.1625
2283.996	10061.9625
2286.87094	10051.8625
2289.74405	10010.0625
2292.61534	9998.7625
2295.4848	9982.8625
2298.35243	9994.8625
2301.21824	9956.2625
2304.08223	9940.0625
2306.94439	9939.5625
2309.80474	9911.1625
2312.66327	9920.2625
2315.51999	9890.0625
2318.37489	9871.5625
2321.22797	9868.4625
2324.07925	9848.8625
2326.92871	9818.1625
2329.77637	9829.1625
2332.62222	9780.8625
2335.46626	9806.0625
2338.3085	9769.1625
2341.14893	9757.7625
2343.98756	9733.7625
2346.8244	9738.4625
2349.65943	9744.0625
2352.49267	9755.5625
2355.32411	9734.2625
2358.15376	9695.9625
2360.98161	9725.3625
2363.80768	9711.5625
2366.63195	9698.0625
2369.45444	9662.4625
2372.27514	9660.0625
2375.09405	9660.3625
2377.91118	9651.3625
2380.72652	9634.4625
2383.54009	9600.2625
2386.35187	9601.3625
2389.16188	9565.0625
2391.97011	9544.3625
2394.77657	9500.9625
2397.58125	9491.5625
2400.38416	9442.0625
2403.18529	9456.7625
2405.98466	9422.2625
2408.78226	9423.0625
2411.57809	9389.3625
2414.37216	9385.9625
2417.16446	9399.5625
2419.955	9380.4625
2422.74378	9387.8625
2425.5308	9368.4625
2428.31606	9369.9625
2431.09956	9348.7625
2433.88131	9308.4625
2436.6613	9323.9625
2439.43954	9281.8625
2442.21603	9301.5625
2444.99077	9288.9625
2447.76377	9277.2625
2450.53501	9281.6625
2453.30451	9271.3625
2456.07226	9216.5625
2458.83827	9232.5625
2461.60254	9222.9625
2464.36507	9206.8625
2467.12586	9219.6625
2469.88492	9198.4625
2472.64224	9198.9625
2475.39782	9187.2625
2478.15167	9176.2625
2480.90379	9152.1625
2483.65417	9191.8625
2486.40283	9143.7625
2489.14976	9165.5625
2491.89497	9127.8625
2494.63845	9158.6625
2497.3802	9147.4625
2500.12024	9114.3625
2502.85855	9094.4625
2505.59514	9092.0625
2508.33002	9103.2625
2511.06318	9097.6625
2513.79462	9055.5625
2516.52435	9089.1625
2519.25237	9039.4625
2521.97867	9024.3625
2524.70327	9021.1625
2527.42616	9015.2625
2530.14734	9030.8625
2532.86681	8976.2625
2535.58458	8973.5625
2538.30065	8960.3625
2541.01501	8952.9625
2543.72768	8946.8625
2546.43864	8916.0625
2549.14791	8888.3625
2551.85548	8874.9625
2554.56136	8880.9625
2557.26554	8862.9625
2559.96803	8849.1625
2562.66883	8834.9625
2565.36794	8849.1625
2568.06536	8804.3625
2570.7611	8816.1625
2573.45514	8786.6625
2576.14751	8761.0625
2578.83819	8737.3625
2581.52719	8724.8625
2584.21451	8725.6625
2586.90015	8716.2625
2589.58411	8704.1625
2592.2664	8688.6625
2594.94701	8690.1625
2597.62594	8644.4625
2600.30321	8631.4625
2602.9788	8626.5625
2605.65273	8597.2625
2608.32498	8633.0625
2610.99557	8591.4625
2613.66449	8613.3625
2616.33175	8588.0625
2618.99734	8586.6625
2621.66128	8575.0625
2624.32355	8557.7625
2626.98416	8552.9625
2629.64311	8535.2625
2632.30041	8543.6625
2634.95605	8532.5625
2637.61004	8505.8625
2640.26238	8472.5625
2642.91306	8509.9625
2645.56209	8590.3625
2648.20948	8518.7625
2650.85521	8534.9625
2653.4993	8503.5625
2656.14175	8505.5625
2658.78255	8485.9625
2661.42171	8459.9625
2664.05923	8491.6625
2666.6951	8468.7625
2669.32934	8481.5625
2671.96194	8463.1625
2674.59291	8454.5625
2677.22224	8446.1625
2679.84993	8461.6625
2682.476	8454.4625
2685.10043	8450.3625
2687.72324	8432.4625
2690.34441	8438.4625
2692.96396	8451.4625
2695.58188	8441.5625
2698.19818	8438.3625
2700.81285	8429.4625
2703.4259	8463.6625
2706.03733	8496.1625
2708.64714	8468.3625
2711.25533	8448.2625
2713.86191	8434.8625
2716.46687	8438.9625
2719.07021	8437.1625
2721.67194	8452.0625
2724.27206	8445.5625
2726.87057	8448.3625
2729.46747	8450.4625
2732.06276	8431.7625
2734.65644	8425.6625
2737.24852	8435.5625
2739.83899	8400.0625
2742.42786	8390.8625
2745.01513	8391.4625
2747.60079	8361.6625
2750.18486	8360.9625
2752.76733	8352.2625
2755.3482	8374.0625
2757.92747	8362.4625
2760.50515	8350.8625
2763.08123	8379.1625
2765.65573	8379.1625
2768.22863	8330.7625
2770.79994	8303.9625
2773.36967	8300.2625
2775.9378	8303.1625
2778.50435	8283.3625
2781.06932	8282.4625
2783.6327	8269.3625
2786.1945	8270.0625
2788.75471	8241.0625
2791.31335	8216.5625
2793.87041	8233.5625
2796.42589	8189.2625
2798.97979	8207.0625
2801.53212	8175.4625
2804.08288	8164.6625
2806.63206	8151.6625
2809.17967	8136.8625
2811.72571	8121.0625
2814.27018	8106.7625
2816.81308	8077.9625
2819.35442	8071.0625
2821.89419	8055.5625
2824.43239	8031.7625
2826.96904	8035.8625
2829.50412	8050.1625
2832.03763	8022.4625
2834.56959	8019.6625
2837.1	8032.7625
2839.62884	8019.9625
2842.15613	8033.6625
2844.68186	8065.5625
2847.20604	8080.2625
2849.72867	8082.7625
2852.24974	8080.9625
2854.76927	8082.1625
2857.28724	8056.6625
2859.80367	8033.3625
2862.31855	8040.7625
2864.83189	7994.9625
2867.34368	8011.2625
2869.85393	8018.6625
2872.36264	7982.4625
2874.8698	7978.5625
2877.37543	7983.9625
2879.87952	7978.9625
2882.38207	8004.2625
2884.88308	7971.2625
2887.38256	7977.0625
2889.88051	7973.3625
2892.37692	7946.8625
2894.8718	7948.8625
2897.36515	7951.8625
2899.85698	7955.5625
2902.34727	7970.5625
2904.83604	7964.5625
2907.32328	8000.5625
2909.809	7962.1625
2912.29319	7971.7625
2914.77587	7966.4625
2917.25702	7951.8625
2919.73665	7943.8625
2922.21476	7935.9625
2924.69136	7965.0625
2927.16644	7944.9625
2929.64	7961.1625
2932.11205	7949.1625
2934.58258	7932.7625
2937.05161	7937.0625
2939.51912	7951.0625
2941.98513	7915.9625
2944.44962	7867.8625
2946.91261	7824.5625
2949.37409	7828.0625
2951.83407	7819.7625
2954.29254	7787.7625
2956.74951	7779.8625
2959.20498	7761.2625
2961.65895	7747.4625
2964.11142	7726.2625
2966.56239	7718.3625
2969.01186	7730.9625
2971.45984	7684.5625
2973.90632	7699.0625
2976.35131	7644.1625
2978.7948	7617.4625
2981.23681	7621.7625
2983.67732	7607.7625
2986.11635	7589.4625
2988.55388	7564.4625
2990.98993	7526.0625
2993.4245	7537.4625
2995.85758	7525.9625
2998.28917	7514.3625
3000.71928	7506.4625
3003.14791	7470.7625
3005.57506	7456.3625
3008.00073	7443.0625
3010.42493	7424.7625
3012.84764	7399.6625
3015.26888	7417.0625
3017.68865	7379.2625
3020.10694	7368.6625
3022.52376	7355.5625
3024.9391	7325.0625
3027.35298	7324.9625
3029.76539	7297.8625
3032.17632	7320.3625
3034.5858	7291.8625
3036.9938	7292.2625
3039.40034	7285.1625
3041.80542	7248.3625
3044.20903	7236.1625
3046.61118	7230.5625
3049.01187	7222.0625
3051.4111	7219.3625
3053.80888	7193.3625
3056.20519	7193.3625
