Data from AgNPs_FTO_APTES_UA_2uM_CRN_1uM_R6G_10uM_NaF_0.1M_Addition_RamanShift__0__11-19-04-998.txt Node

Date: Wed Feb 02 11:19:04 GMT 2022
User: TCL
Spectrometer: QEP01345
Trigger mode: 4
Integration Time (sec): 7.000000E0
Scans to average: 10
Electric dark correction enabled: true
Nonlinearity correction enabled: false
Boxcar width: 0
XAxis mode: Raman Shifts
Number of Pixels in Spectrum: 1044
>>>>>Begin Spectral Data<<<<<
46.04893	-0.0125
50.45542	1.0875
54.85868	-0.8125
59.25871	1.4875
63.6555	39.6875
68.04907	43.0875
72.43941	41.2875
76.82654	51.2875
81.21044	48.8875
85.59113	51.5875
89.96862	52.3875
94.34289	56.5875
98.71396	55.3875
103.08183	62.5875
107.4465	61.9875
111.80798	61.8875
116.16626	61.8875
120.52136	69.1875
124.87327	67.6875
129.222	67.1875
133.56755	76.9875
137.90993	76.0875
142.24913	87.8875
146.58517	95.1875
150.91804	112.2875
155.24774	128.8875
159.57429	157.9875
163.89768	205.2875
168.21792	266.3875
172.53501	370.3875
176.84895	499.3875
181.15975	702.1875
185.46741	981.5875
189.77193	1355.8875
194.07331	1823.8875
198.37157	2348.7875
202.6667	2909.9875
206.9587	3472.5875
211.24758	4032.8875
215.53334	4597.5875
219.81599	5189.9875
224.09553	5883.6875
228.37195	6606.4875
232.64527	7407.4875
236.91549	8220.6875
241.18261	9017.1875
245.44663	9706.9875
249.70755	10257.0875
253.96539	10747.4875
258.22014	11198.8875
262.4718	11545.2875
266.72039	11776.6875
270.96589	11874.6875
275.20832	11770.7875
279.44768	11606.4875
283.68397	11390.2875
287.91719	11200.0875
292.14735	11118.4875
296.37445	11147.0875
300.59849	11350.6875
304.81948	11614.3875
309.03742	11828.9875
313.25231	11882.6875
317.46415	11655.3875
321.67296	11246.2875
325.87872	10889.5875
330.08145	10716.8875
334.28114	10714.5875
338.47781	10773.0875
342.67145	10897.7875
346.86207	11074.1875
351.04966	11418.9875
355.23424	11729.2875
359.4158	11996.4875
363.59435	12158.0875
367.76989	12230.6875
371.94243	12242.7875
376.11196	12203.9875
380.27849	12171.2875
384.44203	12158.6875
388.60257	12089.3875
392.76012	12092.2875
396.91468	12189.9875
401.06626	12426.9875
405.21485	12594.0875
409.36047	12524.1875
413.50311	12239.3875
417.64277	11947.4875
421.77947	11803.2875
425.9132	11773.8875
430.04396	11757.5875
434.17176	11785.6875
438.2966	11896.7875
442.41849	12140.7875
446.53742	12466.1875
450.6534	12874.0875
454.76644	13090.9875
458.87653	13051.8875
462.98368	12863.0875
467.08789	12643.4875
471.18916	12376.3875
475.2875	12120.9875
479.38291	11900.8875
483.4754	11776.8875
487.56496	11726.7875
491.6516	11701.2875
495.73531	11694.3875
499.81612	11694.3875
503.89401	11763.6875
507.96899	11804.0875
512.04106	11807.6875
516.11023	11875.9875
520.1765	11929.2875
524.23987	11984.9875
528.30034	11970.2875
532.35792	11904.2875
536.41261	11670.2875
540.46441	11426.1875
544.51333	11303.5875
548.55936	11321.6875
552.60252	11472.5875
556.64279	11696.1875
560.6802	11888.0875
564.71473	11889.9875
568.7464	12035.6875
572.7752	12173.5875
576.80114	12116.9875
580.82422	12079.3875
584.84444	12301.8875
588.86181	12817.0875
592.87633	13424.6875
596.888	13756.1875
600.89682	13574.8875
604.9028	13845.6875
608.90594	15762.4875
612.90624	18401.8875
616.90371	17834.0875
620.89834	14133.3875
624.89015	12246.3875
628.87913	11916.8875
632.86528	11903.4875
636.84862	11867.4875
640.82913	11668.2875
644.80683	11347.3875
648.78172	11072.0875
652.75379	11082.8875
656.72306	11371.5875
660.68952	11698.6875
664.65319	11680.9875
668.61405	11353.0875
672.57211	11238.6875
676.52738	11254.6875
680.47986	11239.2875
684.42955	11131.5875
688.37646	11103.6875
692.32058	11134.5875
696.26192	11332.3875
700.20048	11525.3875
704.13626	11622.8875
708.06928	11572.6875
711.99952	11457.7875
715.927	11471.4875
719.85171	11535.5875
723.77365	11530.9875
727.69284	11369.2875
731.60928	11256.3875
735.52295	11268.7875
739.43388	11296.5875
743.34206	11332.3875
747.24749	11361.1875
751.15017	11426.3875
755.05012	11556.5875
758.94733	11843.7875
762.8418	12494.8875
766.73354	13728.5875
770.62254	15092.5875
774.50882	15751.8875
778.39237	15289.6875
782.27321	14027.9875
786.15132	12762.6875
790.02671	11973.8875
793.89938	11567.2875
797.76935	11430.4875
801.6366	11377.7875
805.50115	11288.4875
809.36299	11224.9875
813.22213	11177.1875
817.07857	11092.4875
820.93231	11076.0875
824.78336	11086.2875
828.63172	11157.7875
832.47738	11193.9875
836.32036	11252.0875
840.16066	11312.5875
843.99827	11366.5875
847.8332	11308.3875
851.66546	11263.4875
855.49504	11200.5875
859.32195	11180.8875
863.1462	11138.5875
866.96777	11087.8875
870.78668	11049.9875
874.60293	11059.3875
878.41652	11138.2875
882.22745	11197.6875
886.03573	11291.0875
889.84136	11321.4875
893.64433	11236.5875
897.44466	11179.9875
901.24235	11146.3875
905.0374	11125.4875
908.8298	11110.4875
912.61957	11112.5875
916.40671	11173.4875
920.19121	11296.8875
923.97308	11445.6875
927.75233	11614.6875
931.52895	11712.4875
935.30295	11592.1875
939.07433	11324.7875
942.84309	11080.6875
946.60924	10918.2875
950.37278	10864.1875
954.13371	10800.3875
957.89203	10693.4875
961.64774	10639.1875
965.40086	10616.0875
969.15137	10560.0875
972.89929	10565.7875
976.64461	10576.7875
980.38733	10603.4875
984.12747	10653.8875
987.86502	10726.6875
991.59999	10868.7875
995.33237	11072.9875
999.06217	11382.3875
1002.78939	11747.2875
1006.51404	11871.4875
1010.23611	11922.6875
1013.95561	11952.7875
1017.67255	11981.6875
1021.38692	11876.0875
1025.09872	11793.5875
1028.80796	11922.4875
1032.51465	12374.8875
1036.21877	12787.5875
1039.92035	12915.9875
1043.61937	12832.7875
1047.31584	12525.3875
1051.00976	12161.4875
1054.70114	11937.1875
1058.38998	11816.5875
1062.07627	11749.9875
1065.76003	11696.1875
1069.44126	11733.4875
1073.11995	11853.4875
1076.79611	12024.3875
1080.46974	12184.2875
1084.14085	12316.5875
1087.80943	12460.8875
1091.47549	12540.5875
1095.13903	12418.1875
1098.80005	12141.4875
1102.45857	11871.6875
1106.11456	11693.9875
1109.76805	11679.9875
1113.41903	11760.8875
1117.06751	11863.1875
1120.71348	12050.6875
1124.35696	12289.7875
1127.99793	12531.1875
1131.63641	12597.8875
1135.2724	12348.7875
1138.90589	12014.1875
1142.5369	11809.0875
1146.16542	11691.7875
1149.79145	11656.8875
1153.415	11653.1875
1157.03607	11697.1875
1160.65467	11878.3875
1164.27079	12238.8875
1167.88443	12790.9875
1171.49561	13572.8875
1175.10432	14807.4875
1178.71056	16393.0875
1182.31434	17801.6875
1185.91565	18413.0875
1189.51451	18125.9875
1193.11091	17280.5875
1196.70485	16219.2875
1200.29634	15350.3875
1203.88538	14668.2875
1207.47197	13976.3875
1211.05612	13419.6875
1214.63782	13106.7875
1218.21708	13057.8875
1221.79391	13148.4875
1225.36829	13263.8875
1228.94024	13206.9875
1232.50976	12942.2875
1236.07685	12734.1875
1239.6415	12605.0875
1243.20374	12600.1875
1246.76355	12672.1875
1250.32093	12795.2875
1253.8759	13077.6875
1257.42845	13382.4875
1260.97859	13797.3875
1264.52631	14225.3875
1268.07163	14621.2875
1271.61453	15086.5875
1275.15503	15523.0875
1278.69312	15848.3875
1282.22882	16139.2875
1285.76211	16396.0875
1289.29301	16809.0875
1292.82151	17299.3875
1296.34761	17955.1875
1299.87133	18857.8875
1303.39266	20147.9875
1306.9116	21780.3875
1310.42815	23481.5875
1313.94233	24417.4875
1317.45412	23967.0875
1320.96354	22565.0875
1324.47058	20941.4875
1327.97525	19469.2875
1331.47754	18400.8875
1334.97747	17817.8875
1338.47502	17513.0875
1341.97022	17324.8875
1345.46305	17409.4875
1348.95352	17962.1875
1352.44163	19122.5875
1355.92738	20899.4875
1359.41078	23323.9875
1362.89183	25709.7875
1366.37053	25872.6875
1369.84688	23224.5875
1373.32088	19764.5875
1376.79254	17368.8875
1380.26186	16284.6875
1383.72883	15808.1875
1387.19347	15464.4875
1390.65578	14978.0875
1394.11575	14588.1875
1397.57339	14422.8875
1401.0287	14457.2875
1404.48168	14484.2875
1407.93234	14428.9875
1411.38068	14345.2875
1414.82669	14229.2875
1418.27039	14036.4875
1421.71177	13834.6875
1425.15083	13623.6875
1428.58758	13474.9875
1432.02203	13589.0875
1435.45416	13819.5875
1438.88399	14000.4875
1442.31151	14016.1875
1445.73673	14068.8875
1449.15965	14053.5875
1452.58027	13938.9875
1455.9986	13760.1875
1459.41463	13611.8875
1462.82837	13697.4875
1466.23982	13982.7875
1469.64898	14285.8875
1473.05586	14556.3875
1476.46045	14779.8875
1479.86276	14968.2875
1483.26279	15166.0875
1486.66054	15371.3875
1490.05602	15698.0875
1493.44922	16149.6875
1496.84016	16631.7875
1500.22882	17370.5875
1503.61521	18510.1875
1506.99934	19809.1875
1510.38121	21130.6875
1513.76081	21749.2875
1517.13816	21131.4875
1520.51324	19540.7875
1523.88607	17784.8875
1527.25665	16582.5875
1530.62498	15905.3875
1533.99105	15490.6875
1537.35488	15101.1875
1540.71647	14823.0875
1544.07581	14533.6875
1547.4329	14304.0875
1550.78776	14111.6875
1554.14038	13991.3875
1557.49077	13948.6875
1560.83892	13958.1875
1564.18484	14068.6875
1567.52853	14364.8875
1570.86999	14701.9875
1574.20922	14961.1875
1577.54624	15025.8875
1580.88103	14759.6875
1584.2136	14351.0875
1587.54395	14299.5875
1590.87208	14802.4875
1594.19801	15669.2875
1597.52172	16659.9875
1600.84321	17148.3875
1604.16251	16550.1875
1607.47959	15346.0875
1610.79447	14077.4875
1614.10715	12970.0875
1617.41763	12220.4875
1620.7259	11781.2875
1624.03199	11601.2875
1627.33587	11669.5875
1630.63757	11888.3875
1633.93707	12408.6875
1637.23439	13197.2875
1640.52951	14486.2875
1643.82246	16248.1875
1647.11321	18032.6875
1650.40179	18927.6875
1653.68819	18179.2875
1656.97241	16044.4875
1660.25446	13802.7875
1663.53433	12182.5875
1666.81203	11249.9875
1670.08756	10734.8875
1673.36092	10391.2875
1676.63211	10160.0875
1679.90115	9973.2875
1683.16801	9887.1875
1686.43272	9797.2875
1689.69527	9750.9875
1692.95567	9770.1875
1696.2139	9831.9875
1699.46999	9882.8875
1702.72392	9872.5875
1705.97571	9786.4875
1709.22535	9692.3875
1712.47284	9647.2875
1715.71819	9594.3875
1718.96139	9560.0875
1722.20246	9560.6875
1725.44139	9505.1875
1728.67818	9451.5875
1731.91284	9420.4875
1735.14537	9377.3875
1738.37576	9338.9875
1741.60403	9312.4875
1744.83017	9315.2875
1748.05418	9306.6875
1751.27607	9292.2875
1754.49584	9297.7875
1757.71349	9344.3875
1760.92903	9387.1875
1764.14244	9390.3875
1767.35375	9340.6875
1770.56294	9335.8875
1773.77002	9293.1875
1776.97499	9221.9875
1780.17785	9174.9875
1783.37861	9164.7875
1786.57727	9122.8875
1789.77382	9089.5875
1792.96828	9077.2875
1796.16064	9061.3875
1799.3509	9039.0875
1802.53907	9028.6875
1805.72514	9012.5875
1808.90913	8967.4875
1812.09102	8950.6875
1815.27083	8947.0875
1818.44856	8920.6875
1821.6242	8927.0875
1824.79776	8916.2875
1827.96924	8892.9875
1831.13864	8891.0875
1834.30597	8884.0875
1837.47122	8852.0875
1840.6344	8849.9875
1843.7955	8854.8875
1846.95454	8839.1875
1850.11151	8861.7875
1853.26642	8838.9875
1856.41926	8839.9875
1859.57004	8819.6875
1862.71876	8810.3875
1865.86542	8820.7875
1869.01003	8793.4875
1872.15258	8805.9875
1875.29308	8814.9875
1878.43152	8784.0875
1881.56792	8760.2875
1884.70227	8773.3875
1887.83457	8749.5875
1890.96482	8745.9875
1894.09304	8743.2875
1897.21921	8733.8875
1900.34335	8696.9875
1903.46544	8725.0875
1906.58551	8743.3875
1909.70353	8706.7875
1912.81953	8685.5875
1915.93349	8689.6875
1919.04543	8699.8875
1922.15534	8672.6875
1925.26322	8677.2875
1928.36908	8631.6875
1931.47292	8621.3875
1934.57473	8587.2875
1937.67453	8589.1875
1940.77232	8555.1875
1943.86808	8517.2875
1946.96184	8520.3875
1950.05358	8515.9875
1953.14331	8491.2875
1956.23103	8474.2875
1959.31675	8457.0875
1962.40046	8404.9875
1965.48217	8399.1875
1968.56188	8391.6875
1971.63959	8354.4875
1974.7153	8328.3875
1977.78901	8331.6875
1980.86073	8292.4875
1983.93046	8269.4875
1986.99819	8244.1875
1990.06394	8225.5875
1993.1277	8170.7875
1996.18947	8145.9875
1999.24925	8130.8875
2002.30706	8119.7875
2005.36288	8091.4875
2008.41672	8096.5875
2011.46859	8051.3875
2014.51848	8025.9875
2017.56639	8001.2875
2020.61233	7972.5875
2023.6563	7996.0875
2026.6983	7984.1875
2029.73833	7962.1875
2032.7764	7943.8875
2035.8125	7950.4875
2038.84664	7926.6875
2041.87881	7926.2875
2044.90903	7912.3875
2047.93729	7928.4875
2050.96359	7913.2875
2053.98794	7888.1875
2057.01034	7882.8875
2060.03078	7872.0875
2063.04927	7866.7875
2066.06582	7859.0875
2069.08042	7853.8875
2072.09307	7857.6875
2075.10378	7852.8875
2078.11255	7865.3875
2081.11938	7858.2875
2084.12426	7884.9875
2087.12722	7850.8875
2090.12824	7868.3875
2093.12732	7882.9875
2096.12447	7901.9875
2099.11969	7904.6875
2102.11299	7918.3875
2105.10435	7924.9875
2108.09379	7943.0875
2111.08131	7936.4875
2114.0669	7930.6875
2117.05057	7930.2875
2120.03233	7933.3875
2123.01216	7938.7875
2125.99008	7923.0875
2128.96609	7922.9875
2131.94018	7903.2875
2134.91236	7929.2875
2137.88263	7928.7875
2140.851	7929.3875
2143.81746	7930.2875
2146.78201	7907.7875
2149.74466	7911.3875
2152.7054	7929.8875
2155.66425	7896.7875
2158.6212	7912.5875
2161.57625	7900.6875
2164.52941	7907.8875
2167.48067	7898.4875
2170.43004	7899.6875
2173.37752	7901.9875
2176.32311	7898.3875
2179.26681	7904.9875
2182.20863	7914.2875
2185.14856	7917.9875
2188.08661	7898.7875
2191.02278	7924.5875
2193.95707	7914.0875
2196.88948	7895.8875
2199.82001	7922.9875
2202.74867	7914.0875
2205.67545	7920.3875
2208.60037	7937.9875
2211.52341	7905.8875
2214.44458	7897.8875
2217.36388	7892.7875
2220.28132	7891.8875
2223.1969	7850.9875
2226.11061	7852.6875
2229.02246	7829.1875
2231.93245	7826.1875
2234.84058	7816.0875
2237.74686	7792.2875
2240.65128	7802.4875
2243.55385	7788.9875
2246.45456	7765.2875
2249.35343	7762.6875
2252.25044	7733.7875
2255.14561	7770.3875
2258.03893	7768.0875
2260.93041	7750.5875
2263.82004	7732.4875
2266.70783	7716.1875
2269.59378	7691.2875
2272.4779	7681.3875
2275.36017	7659.6875
2278.24061	7638.8875
2281.11922	7633.0875
2283.996	7631.9875
2286.87094	7620.6875
2289.74405	7591.3875
2292.61534	7584.0875
2295.4848	7558.4875
2298.35243	7587.2875
2301.21824	7581.4875
2304.08223	7584.9875
2306.94439	7595.4875
2309.80474	7617.7875
2312.66327	7598.0875
2315.51999	7605.3875
2318.37489	7597.0875
2321.22797	7580.3875
2324.07925	7591.9875
2326.92871	7572.7875
2329.77637	7595.9875
2332.62222	7582.3875
2335.46626	7579.0875
2338.3085	7558.1875
2341.14893	7583.2875
2343.98756	7573.6875
2346.8244	7541.0875
2349.65943	7539.6875
2352.49267	7550.4875
2355.32411	7552.0875
2358.15376	7544.7875
2360.98161	7552.2875
2363.80768	7547.1875
2366.63195	7537.8875
2369.45444	7530.7875
2372.27514	7521.1875
2375.09405	7534.0875
2377.91118	7491.5875
2380.72652	7476.5875
2383.54009	7464.5875
2386.35187	7444.9875
2389.16188	7420.8875
2391.97011	7398.1875
2394.77657	7399.9875
2397.58125	7390.0875
2400.38416	7400.8875
2403.18529	7360.6875
2405.98466	7357.5875
2408.78226	7329.9875
2411.57809	7318.8875
2414.37216	7330.7875
2417.16446	7312.8875
2419.955	7320.0875
2422.74378	7325.9875
2425.5308	7307.3875
2428.31606	7315.9875
2431.09956	7311.6875
2433.88131	7283.3875
2436.6613	7280.6875
2439.43954	7280.4875
2442.21603	7287.3875
2444.99077	7289.5875
2447.76377	7286.9875
2450.53501	7271.1875
2453.30451	7259.6875
2456.07226	7259.7875
2458.83827	7269.3875
2461.60254	7258.9875
2464.36507	7257.1875
2467.12586	7244.5875
2469.88492	7253.5875
2472.64224	7256.7875
2475.39782	7273.2875
2478.15167	7277.2875
2480.90379	7254.1875
2483.65417	7257.1875
2486.40283	7280.3875
2489.14976	7301.5875
2491.89497	7282.8875
2494.63845	7276.9875
2497.3802	7279.6875
2500.12024	7261.8875
2502.85855	7242.7875
2505.59514	7262.0875
2508.33002	7239.5875
2511.06318	7219.2875
2513.79462	7197.4875
2516.52435	7209.7875
2519.25237	7164.7875
2521.97867	7173.1875
2524.70327	7176.0875
2527.42616	7158.2875
2530.14734	7156.1875
2532.86681	7146.1875
2535.58458	7174.8875
2538.30065	7115.4875
2541.01501	7125.3875
2543.72768	7129.5875
2546.43864	7109.4875
2549.14791	7103.9875
2551.85548	7122.0875
2554.56136	7114.8875
2557.26554	7102.8875
2559.96803	7086.6875
2562.66883	7085.4875
2565.36794	7092.7875
2568.06536	7099.8875
2570.7611	7085.7875
2573.45514	7077.8875
2576.14751	7047.2875
2578.83819	7052.1875
2581.52719	7065.5875
2584.21451	7061.1875
2586.90015	7060.9875
2589.58411	7042.1875
2592.2664	7030.5875
2594.94701	7008.8875
2597.62594	7007.8875
2600.30321	6985.5875
2602.9788	6975.0875
2605.65273	6978.0875
2608.32498	6974.6875
2610.99557	6983.9875
2613.66449	6997.8875
2616.33175	7002.3875
2618.99734	6959.9875
2621.66128	6981.5875
2624.32355	6963.6875
2626.98416	6961.1875
2629.64311	6955.8875
2632.30041	6949.6875
2634.95605	6941.6875
2637.61004	6947.8875
2640.26238	6932.6875
2642.91306	6915.0875
2645.56209	6916.3875
2648.20948	6904.3875
2650.85521	6905.0875
2653.4993	6887.0875
2656.14175	6893.8875
2658.78255	6905.9875
2661.42171	6926.6875
2664.05923	6916.3875
2666.6951	6896.8875
2669.32934	6905.5875
2671.96194	6914.8875
2674.59291	6934.2875
2677.22224	6923.3875
2679.84993	6941.9875
2682.476	6922.3875
2685.10043	6916.6875
2687.72324	6898.9875
2690.34441	6922.2875
2692.96396	6912.2875
2695.58188	6938.9875
2698.19818	6915.0875
2700.81285	6926.6875
2703.4259	6972.4875
2706.03733	7068.2875
2708.64714	6999.0875
2711.25533	6974.8875
2713.86191	6972.0875
2716.46687	6992.3875
2719.07021	6969.6875
2721.67194	6964.2875
2724.27206	6951.3875
2726.87057	6959.6875
2729.46747	6963.1875
2732.06276	6965.3875
2734.65644	6984.3875
2737.24852	6993.2875
2739.83899	6994.4875
2742.42786	6985.9875
2745.01513	6957.6875
2747.60079	6967.1875
2750.18486	6962.0875
2752.76733	6967.6875
2755.3482	6958.4875
2757.92747	6949.2875
2760.50515	6957.7875
2763.08123	6961.4875
2765.65573	6953.2875
2768.22863	6958.3875
2770.79994	6926.8875
2773.36967	6945.4875
2775.9378	6919.0875
2778.50435	6936.5875
2781.06932	6942.6875
2783.6327	6926.5875
2786.1945	6925.2875
2788.75471	6945.0875
2791.31335	6916.3875
2793.87041	6934.1875
2796.42589	6911.7875
2798.97979	6899.2875
2801.53212	6890.1875
2804.08288	6892.7875
2806.63206	6900.2875
2809.17967	6875.5875
2811.72571	6866.9875
2814.27018	6870.2875
2816.81308	6880.3875
2819.35442	6880.7875
2821.89419	6881.4875
2824.43239	6889.0875
2826.96904	6865.9875
2829.50412	6881.4875
2832.03763	6854.6875
2834.56959	6873.6875
2837.1	6873.9875
2839.62884	6912.0875
2842.15613	6945.6875
2844.68186	7011.5875
2847.20604	7058.3875
2849.72867	7080.1875
2852.24974	7098.3875
2854.76927	7138.7875
2857.28724	7167.4875
2859.80367	7130.6875
2862.31855	7144.0875
2864.83189	7145.2875
2867.34368	7140.2875
2869.85393	7152.4875
2872.36264	7143.4875
2874.8698	7169.3875
2877.37543	7178.5875
2879.87952	7200.1875
2882.38207	7216.0875
2884.88308	7215.9875
2887.38256	7233.0875
2889.88051	7213.0875
2892.37692	7228.7875
2894.8718	7224.3875
2897.36515	7241.2875
2899.85698	7220.8875
2902.34727	7220.6875
2904.83604	7242.1875
2907.32328	7246.4875
2909.809	7225.9875
2912.29319	7214.7875
2914.77587	7239.5875
2917.25702	7244.2875
2919.73665	7214.6875
2922.21476	7220.6875
2924.69136	7207.5875
2927.16644	7224.7875
2929.64	7215.3875
2932.11205	7200.4875
2934.58258	7159.6875
2937.05161	7155.3875
2939.51912	7143.4875
2941.98513	7099.1875
2944.44962	7040.8875
2946.91261	6986.2875
2949.37409	6965.6875
2951.83407	6937.2875
2954.29254	6900.1875
2956.74951	6881.0875
2959.20498	6855.7875
2961.65895	6820.3875
2964.11142	6799.5875
2966.56239	6802.5875
2969.01186	6782.9875
2971.45984	6729.4875
2973.90632	6720.1875
2976.35131	6681.4875
2978.7948	6657.3875
2981.23681	6652.4875
2983.67732	6615.9875
2986.11635	6576.3875
2988.55388	6570.4875
2990.98993	6559.5875
2993.4245	6545.1875
2995.85758	6519.2875
2998.28917	6505.3875
3000.71928	6505.1875
3003.14791	6510.7875
3005.57506	6501.6875
3008.00073	6468.9875
3010.42493	6464.9875
3012.84764	6455.7875
3015.26888	6451.2875
3017.68865	6456.3875
3020.10694	6436.8875
3022.52376	6444.9875
3024.9391	6429.4875
3027.35298	6419.4875
3029.76539	6402.0875
3032.17632	6381.4875
3034.5858	6383.6875
3036.9938	6387.2875
3039.40034	6376.5875
3041.80542	6380.4875
3044.20903	6381.6875
3046.61118	6378.7875
3049.01187	6355.0875
3051.4111	6368.2875
3053.80888	6332.6875
3056.20519	6325.5875
3058.60005	6326.3875
3060.99345	6333.4875
3063.3854	6336.9875
3065.7759	6316.2875
3068.16494	6332.0875
3070.55254	6299.9875
3072.93868	6294.8875
3075.32338	6275.3875
3077.70662	6268.3875
3080.08842	6256.2875
3082.46878	6255.1875
