Data from AgNPs_FTO_APTES_UA_2uM_CRN_100uM_R6G_10uM_NaF_0.1M_Addition_RamanShift__10__15-49-45-313.txt Node

Date: Wed Feb 02 15:49:45 GMT 2022
User: TCL
Spectrometer: QEP01345
Trigger mode: 4
Integration Time (sec): 7.000000E0
Scans to average: 10
Electric dark correction enabled: true
Nonlinearity correction enabled: false
Boxcar width: 0
XAxis mode: Raman Shifts
Number of Pixels in Spectrum: 1044
>>>>>Begin Spectral Data<<<<<
46.04893	0.425
50.45542	1.225
54.85868	-1.275
59.25871	-0.175
63.6555	72.525
68.04907	74.725
72.43941	79.625
76.82654	87.925
81.21044	92.525
85.59113	95.925
89.96862	96.425
94.34289	99.625
98.71396	104.725
103.08183	114.325
107.4465	111.325
111.80798	109.625
116.16626	114.325
120.52136	119.725
124.87327	121.825
129.222	123.425
133.56755	136.425
137.90993	143.625
142.24913	158.025
146.58517	178.925
150.91804	204.925
155.24774	239.625
159.57429	302.825
163.89768	373.825
168.21792	491.025
172.53501	666.825
176.84895	932.525
181.15975	1303.125
185.46741	1818.725
189.77193	2494.425
194.07331	3343.025
198.37157	4312.425
202.6667	5345.225
206.9587	6362.225
211.24758	7350.525
215.53334	8370.225
219.81599	9413.325
224.09553	10547.225
228.37195	11817.725
232.64527	13175.625
236.91549	14571.625
241.18261	16032.625
245.44663	17399.325
249.70755	18619.425
253.96539	19739.225
258.22014	20569.825
262.4718	21336.825
266.72039	21809.825
270.96589	22103.125
275.20832	22196.325
279.44768	22216.125
283.68397	22184.325
287.91719	22147.125
292.14735	22150.425
296.37445	22275.525
300.59849	22479.625
304.81948	22605.025
309.03742	22495.625
313.25231	22218.325
317.46415	21616.525
321.67296	20874.825
325.87872	20253.025
330.08145	19899.225
334.28114	19767.725
338.47781	19839.225
342.67145	19991.225
346.86207	20132.725
351.04966	20367.325
355.23424	20535.825
359.4158	20668.625
363.59435	20755.025
367.76989	20831.225
371.94243	20845.025
376.11196	20861.625
380.27849	20873.625
384.44203	20899.425
388.60257	21101.625
392.76012	21366.025
396.91468	21773.125
401.06626	22210.525
405.21485	22411.325
409.36047	22323.425
413.50311	22033.025
417.64277	21863.525
421.77947	21910.725
425.9132	22001.725
430.04396	22166.325
434.17176	22270.525
438.2966	22298.025
442.41849	22508.625
446.53742	23009.925
450.6534	23587.325
454.76644	24053.825
458.87653	24313.925
462.98368	24363.925
467.08789	24331.925
471.18916	24234.425
475.2875	24249.925
479.38291	24327.425
483.4754	24304.025
487.56496	24010.525
491.6516	23359.625
495.73531	22716.025
499.81612	22307.425
503.89401	22251.625
507.96899	22314.425
512.04106	22309.625
516.11023	22144.325
520.1765	21848.025
524.23987	21433.625
528.30034	21107.325
532.35792	20856.825
536.41261	20624.925
540.46441	20483.925
544.51333	20613.625
548.55936	21006.125
552.60252	21591.225
556.64279	22258.225
560.6802	22742.025
564.71473	23213.125
568.7464	23939.025
572.7752	25178.325
576.80114	26393.625
580.82422	27359.425
584.84444	27951.625
588.86181	28449.525
592.87633	28672.225
596.888	28080.925
600.89682	26900.425
604.9028	26358.025
608.90594	27062.325
612.90624	27663.625
616.90371	25669.325
620.89834	22164.025
624.89015	20731.325
628.87913	20715.825
632.86528	20987.525
636.84862	21077.225
640.82913	20748.125
644.80683	20229.225
648.78172	19807.925
652.75379	19672.025
656.72306	19749.525
660.68952	19948.025
664.65319	19879.525
668.61405	19701.725
672.57211	19683.825
676.52738	19702.825
680.47986	19691.925
684.42955	19678.225
688.37646	19536.725
692.32058	19590.725
696.26192	19815.725
700.20048	20081.925
704.13626	20330.425
708.06928	20455.125
711.99952	20455.725
715.927	20408.825
719.85171	20263.925
723.77365	20085.025
727.69284	19769.025
731.60928	19445.325
735.52295	19302.525
739.43388	19189.025
743.34206	19215.825
747.24749	19367.625
751.15017	19652.825
755.05012	20101.225
758.94733	20936.725
762.8418	22062.025
766.73354	23656.225
770.62254	24974.225
774.50882	24844.625
778.39237	23428.725
782.27321	21799.725
786.15132	20509.125
790.02671	19683.925
793.89938	19239.025
797.76935	19007.025
801.6366	18937.125
805.50115	18908.725
809.36299	18772.125
813.22213	18731.225
817.07857	18722.425
820.93231	18715.225
824.78336	18578.425
828.63172	18396.625
832.47738	18245.325
836.32036	18213.925
840.16066	18167.725
843.99827	18149.225
847.8332	18158.025
851.66546	18117.925
855.49504	18151.225
859.32195	18150.525
863.1462	18093.625
866.96777	18016.525
870.78668	17967.925
874.60293	17929.125
878.41652	17925.325
882.22745	17943.625
886.03573	17988.625
889.84136	18034.725
893.64433	17985.025
897.44466	17938.425
901.24235	17933.525
905.0374	17904.025
908.8298	17886.625
912.61957	18032.325
916.40671	18350.225
920.19121	18748.925
923.97308	18929.825
927.75233	18738.725
931.52895	18409.925
935.30295	17972.625
939.07433	17553.625
942.84309	17234.425
946.60924	17010.825
950.37278	16892.125
954.13371	16914.825
957.89203	16928.325
961.64774	16969.725
965.40086	17005.625
969.15137	16910.025
972.89929	16758.725
976.64461	16602.125
980.38733	16517.825
984.12747	16468.425
987.86502	16527.825
991.59999	16588.725
995.33237	16698.025
999.06217	16873.825
1002.78939	17109.325
1006.51404	17334.625
1010.23611	17633.325
1013.95561	17820.225
1017.67255	17895.725
1021.38692	17820.925
1025.09872	17586.625
1028.80796	17378.425
1032.51465	17261.625
1036.21877	17334.125
1039.92035	17478.925
1043.61937	17594.125
1047.31584	17709.925
1051.00976	17822.525
1054.70114	18023.325
1058.38998	18237.325
1062.07627	18611.825
1065.76003	19006.125
1069.44126	19362.225
1073.11995	19681.825
1076.79611	19965.125
1080.46974	19947.625
1084.14085	19978.125
1087.80943	20054.025
1091.47549	20268.725
1095.13903	20431.225
1098.80005	20215.825
1102.45857	19592.325
1106.11456	18955.025
1109.76805	18579.025
1113.41903	18480.225
1117.06751	18585.825
1120.71348	18779.825
1124.35696	19028.525
1127.99793	19393.025
1131.63641	19617.825
1135.2724	19581.325
1138.90589	19613.125
1142.5369	19730.325
1146.16542	20042.325
1149.79145	20452.825
1153.415	20884.325
1157.03607	21383.825
1160.65467	22080.625
1164.27079	23214.625
1167.88443	24597.325
1171.49561	26092.225
1175.10432	27794.625
1178.71056	29826.025
1182.31434	31650.825
1185.91565	32633.425
1189.51451	32763.725
1193.11091	32358.525
1196.70485	31452.225
1200.29634	30254.525
1203.88538	29391.325
1207.47197	29123.125
1211.05612	29088.625
1214.63782	28635.725
1218.21708	27541.425
1221.79391	26140.625
1225.36829	25055.125
1228.94024	24402.725
1232.50976	23995.225
1236.07685	23786.025
1239.6415	23696.725
1243.20374	23784.325
1246.76355	23989.625
1250.32093	24326.825
1253.8759	24840.625
1257.42845	25608.525
1260.97859	26446.425
1264.52631	27265.625
1268.07163	28006.125
1271.61453	28819.125
1275.15503	29700.425
1278.69312	30920.625
1282.22882	32080.825
1285.76211	33648.125
1289.29301	35337.825
1292.82151	37453.725
1296.34761	39883.225
1299.87133	42344.325
1303.39266	44444.925
1306.9116	45967.625
1310.42815	46756.925
1313.94233	46986.225
1317.45412	46812.525
1320.96354	46791.625
1324.47058	47048.925
1327.97525	47427.125
1331.47754	47702.625
1334.97747	47705.625
1338.47502	47442.525
1341.97022	47007.625
1345.46305	46418.525
1348.95352	45521.025
1352.44163	44402.025
1355.92738	43664.925
1359.41078	43614.925
1362.89183	43741.325
1366.37053	42967.325
1369.84688	40493.425
1373.32088	37156.625
1376.79254	34753.525
1380.26186	33968.825
1383.72883	34241.625
1387.19347	34723.625
1390.65578	34815.825
1394.11575	34810.725
1397.57339	34963.825
1401.0287	35140.625
1404.48168	35203.425
1407.93234	34616.925
1411.38068	33309.525
1414.82669	31529.625
1418.27039	29702.925
1421.71177	28058.525
1425.15083	26838.025
1428.58758	26285.625
1432.02203	26501.025
1435.45416	27230.625
1438.88399	28238.525
1442.31151	29028.525
1445.73673	29672.425
1449.15965	30356.525
1452.58027	30902.525
1455.9986	31296.825
1459.41463	31604.625
1462.82837	31998.625
1466.23982	32429.025
1469.64898	32718.925
1473.05586	32816.025
1476.46045	32706.425
1479.86276	32278.625
1483.26279	31857.725
1486.66054	31736.725
1490.05602	31910.425
1493.44922	32361.525
1496.84016	33036.425
1500.22882	34046.725
1503.61521	35265.125
1506.99934	36527.125
1510.38121	37479.425
1513.76081	37725.825
1517.13816	37457.425
1520.51324	36928.125
1523.88607	36685.025
1527.25665	36850.425
1530.62498	36927.925
1533.99105	36606.325
1537.35488	35804.825
1540.71647	34594.425
1544.07581	33132.025
1547.4329	31752.325
1550.78776	30658.525
1554.14038	29929.725
1557.49077	29517.925
1560.83892	29341.825
1564.18484	29391.425
1567.52853	29477.625
1570.86999	29872.425
1574.20922	30708.625
1577.54624	31594.925
1580.88103	32206.525
1584.2136	32703.025
1587.54395	33507.825
1590.87208	34607.025
1594.19801	35936.825
1597.52172	37040.625
1600.84321	36818.225
1604.16251	34912.025
1607.47959	32111.525
1610.79447	29380.225
1614.10715	26862.325
1617.41763	24717.925
1620.7259	23195.625
1624.03199	22378.225
1627.33587	22310.725
1630.63757	23069.925
1633.93707	24786.425
1637.23439	27602.125
1640.52951	31671.925
1643.82246	36397.925
1647.11321	40271.225
1650.40179	41379.125
1653.68819	38850.425
1656.97241	33875.125
1660.25446	28498.825
1663.53433	24117.725
1666.81203	21034.325
1670.08756	19044.025
1673.36092	17779.125
1676.63211	16961.025
1679.90115	16392.325
1683.16801	16000.225
1686.43272	15694.125
1689.69527	15497.025
1692.95567	15297.825
1696.2139	15184.325
1699.46999	15076.925
1702.72392	14971.525
1705.97571	14856.425
1709.22535	14789.825
1712.47284	14708.425
1715.71819	14645.725
1718.96139	14588.125
1722.20246	14506.125
1725.44139	14397.325
1728.67818	14325.325
1731.91284	14199.525
1735.14537	14143.225
1738.37576	14038.725
1741.60403	13988.225
1744.83017	13913.125
1748.05418	13887.825
1751.27607	13837.425
1754.49584	13826.625
1757.71349	13848.725
1760.92903	13848.925
1764.14244	13809.625
1767.35375	13738.925
1770.56294	13690.225
1773.77002	13633.625
1776.97499	13606.725
1780.17785	13526.825
1783.37861	13461.725
1786.57727	13435.625
1789.77382	13398.025
1792.96828	13353.225
1796.16064	13321.325
1799.3509	13270.325
1802.53907	13222.425
1805.72514	13165.125
1808.90913	13159.325
1812.09102	13098.825
1815.27083	13114.025
1818.44856	13078.925
1821.6242	13022.625
1824.79776	13022.025
1827.96924	13006.825
1831.13864	12987.225
1834.30597	12970.525
1837.47122	12979.125
1840.6344	12972.125
1843.7955	12974.625
1846.95454	12952.025
1850.11151	12942.825
1853.26642	12937.625
1856.41926	12897.225
1859.57004	12885.425
1862.71876	12847.925
1865.86542	12827.925
1869.01003	12811.925
1872.15258	12765.425
1875.29308	12741.825
1878.43152	12694.225
1881.56792	12670.325
1884.70227	12662.825
1887.83457	12642.925
1890.96482	12639.525
1894.09304	12590.325
1897.21921	12585.725
1900.34335	12554.925
1903.46544	12511.025
1906.58551	12495.125
1909.70353	12444.025
1912.81953	12432.125
1915.93349	12413.125
1919.04543	12369.025
1922.15534	12332.925
1925.26322	12324.825
1928.36908	12294.025
1931.47292	12245.225
1934.57473	12192.825
1937.67453	12143.625
1940.77232	12132.425
1943.86808	12092.325
1946.96184	12059.025
1950.05358	12024.725
1953.14331	12006.525
1956.23103	11933.825
1959.31675	11905.125
1962.40046	11856.525
1965.48217	11832.925
1968.56188	11755.725
1971.63959	11721.225
1974.7153	11689.825
1977.78901	11633.625
1980.86073	11590.225
1983.93046	11512.325
1986.99819	11501.325
1990.06394	11500.625
1993.1277	11469.925
1996.18947	11408.725
1999.24925	11373.925
2002.30706	11303.925
2005.36288	11260.825
2008.41672	11228.425
2011.46859	11187.425
2014.51848	11155.625
2017.56639	11124.025
2020.61233	11099.825
2023.6563	11069.225
2026.6983	11051.125
2029.73833	11014.025
2032.7764	10970.525
2035.8125	10964.225
2038.84664	10919.625
2041.87881	10920.425
2044.90903	10884.525
2047.93729	10835.825
2050.96359	10878.925
2053.98794	10820.625
2057.01034	10797.525
2060.03078	10794.225
2063.04927	10796.525
2066.06582	10763.425
2069.08042	10763.025
2072.09307	10753.925
2075.10378	10728.525
2078.11255	10711.825
2081.11938	10724.025
2084.12426	10696.025
2087.12722	10655.825
2090.12824	10699.425
2093.12732	10661.825
2096.12447	10685.125
2099.11969	10693.825
2102.11299	10660.625
2105.10435	10683.925
2108.09379	10665.725
2111.08131	10661.625
2114.0669	10681.025
2117.05057	10672.525
2120.03233	10669.525
2123.01216	10677.725
2125.99008	10695.125
2128.96609	10665.525
2131.94018	10641.125
2134.91236	10677.925
2137.88263	10673.325
2140.851	10648.125
2143.81746	10657.825
2146.78201	10662.625
2149.74466	10644.825
2152.7054	10657.125
2155.66425	10628.425
2158.6212	10627.425
2161.57625	10596.025
2164.52941	10603.525
2167.48067	10585.025
2170.43004	10578.125
2173.37752	10561.025
2176.32311	10526.725
2179.26681	10548.825
2182.20863	10540.725
2185.14856	10563.225
2188.08661	10544.625
2191.02278	10530.125
2193.95707	10539.025
2196.88948	10499.725
2199.82001	10484.625
2202.74867	10454.125
2205.67545	10453.625
2208.60037	10401.325
2211.52341	10399.625
2214.44458	10375.425
2217.36388	10373.625
2220.28132	10369.425
2223.1969	10333.425
2226.11061	10308.625
2229.02246	10253.925
2231.93245	10260.625
2234.84058	10255.625
2237.74686	10216.425
2240.65128	10228.925
2243.55385	10189.425
2246.45456	10192.525
2249.35343	10139.525
2252.25044	10115.025
2255.14561	10087.325
2258.03893	10086.525
2260.93041	10043.125
2263.82004	9992.325
2266.70783	9976.725
2269.59378	9939.325
2272.4779	9901.425
2275.36017	9868.325
2278.24061	9867.925
2281.11922	9817.725
2283.996	9829.425
2286.87094	9794.625
2289.74405	9754.725
2292.61534	9750.825
2295.4848	9745.325
2298.35243	9737.925
2301.21824	9688.425
2304.08223	9709.525
2306.94439	9701.925
2309.80474	9673.725
2312.66327	9661.525
2315.51999	9668.525
2318.37489	9642.425
2321.22797	9652.325
2324.07925	9601.825
2326.92871	9585.825
2329.77637	9589.825
2332.62222	9569.825
2335.46626	9566.725
2338.3085	9537.225
2341.14893	9558.125
2343.98756	9532.225
2346.8244	9532.025
2349.65943	9552.625
2352.49267	9517.625
2355.32411	9522.625
2358.15376	9524.725
2360.98161	9526.525
2363.80768	9509.525
2366.63195	9505.725
2369.45444	9473.025
2372.27514	9474.725
2375.09405	9458.725
2377.91118	9431.825
2380.72652	9407.925
2383.54009	9372.725
2386.35187	9395.725
2389.16188	9341.725
2391.97011	9342.725
2394.77657	9305.625
2397.58125	9294.925
2400.38416	9261.625
2403.18529	9222.825
2405.98466	9219.425
2408.78226	9213.325
2411.57809	9211.325
2414.37216	9199.925
2417.16446	9211.525
2419.955	9185.125
2422.74378	9188.225
2425.5308	9155.425
2428.31606	9157.325
2431.09956	9155.825
2433.88131	9137.325
2436.6613	9137.425
2439.43954	9137.625
2442.21603	9102.425
2444.99077	9110.425
2447.76377	9095.725
2450.53501	9099.125
2453.30451	9113.425
2456.07226	9085.425
2458.83827	9075.825
2461.60254	9075.325
2464.36507	9093.125
2467.12586	9076.925
2469.88492	9062.825
2472.64224	9071.025
2475.39782	9048.425
2478.15167	9056.225
2480.90379	9033.025
2483.65417	9026.325
2486.40283	9019.225
2489.14976	9030.025
2491.89497	9034.725
2494.63845	9037.625
2497.3802	9029.225
2500.12024	9000.525
2502.85855	9004.125
2505.59514	9015.225
2508.33002	8983.825
2511.06318	8994.425
2513.79462	8982.925
2516.52435	8965.425
2519.25237	8978.325
2521.97867	8939.225
2524.70327	8928.025
2527.42616	8912.225
2530.14734	8921.625
2532.86681	8898.725
2535.58458	8908.425
2538.30065	8890.425
2541.01501	8869.625
2543.72768	8863.025
2546.43864	8830.825
2549.14791	8824.325
2551.85548	8818.025
2554.56136	8831.225
2557.26554	8813.325
2559.96803	8789.225
2562.66883	8784.725
2565.36794	8774.525
2568.06536	8777.825
2570.7611	8773.625
2573.45514	8751.525
2576.14751	8754.025
2578.83819	8711.225
2581.52719	8715.725
2584.21451	8715.925
2586.90015	8694.425
2589.58411	8664.925
2592.2664	8684.925
2594.94701	8666.525
2597.62594	8676.725
2600.30321	8645.825
2602.9788	8653.325
2605.65273	8641.325
2608.32498	8657.625
2610.99557	8631.325
2613.66449	8626.525
2616.33175	8618.325
2618.99734	8635.625
2621.66128	8622.725
2624.32355	8623.025
2626.98416	8588.625
2629.64311	8597.325
2632.30041	8606.325
2634.95605	8589.225
2637.61004	8569.925
2640.26238	8550.225
2642.91306	8543.625
2645.56209	8558.625
2648.20948	8556.325
2650.85521	8565.025
2653.4993	8560.425
2656.14175	8593.225
2658.78255	8576.325
2661.42171	8586.125
2664.05923	8575.025
2666.6951	8590.425
2669.32934	8619.225
2671.96194	8577.825
2674.59291	8595.125
2677.22224	8576.625
2679.84993	8598.225
2682.476	8572.125
2685.10043	8585.925
2687.72324	8549.525
2690.34441	8562.725
2692.96396	8554.625
2695.58188	8545.825
2698.19818	8546.225
2700.81285	8548.925
2703.4259	8543.525
2706.03733	8589.125
2708.64714	8598.125
2711.25533	8552.825
2713.86191	8551.925
2716.46687	8566.625
2719.07021	8581.625
2721.67194	8578.025
2724.27206	8583.725
2726.87057	8593.625
2729.46747	8599.825
2732.06276	8605.425
2734.65644	8566.525
2737.24852	8591.925
2739.83899	8556.625
2742.42786	8563.025
2745.01513	8538.225
2747.60079	8536.225
2750.18486	8537.125
2752.76733	8525.525
2755.3482	8535.125
2757.92747	8538.125
2760.50515	8538.425
2763.08123	8550.725
2765.65573	8532.325
2768.22863	8524.025
2770.79994	8503.025
2773.36967	8522.625
2775.9378	8514.425
2778.50435	8487.925
2781.06932	8500.725
2783.6327	8487.525
2786.1945	8471.225
2788.75471	8479.425
2791.31335	8450.625
2793.87041	8461.225
2796.42589	8439.925
2798.97979	8437.025
2801.53212	8396.225
2804.08288	8409.925
2806.63206	8404.125
2809.17967	8370.525
2811.72571	8355.925
2814.27018	8344.825
2816.81308	8349.625
2819.35442	8331.525
2821.89419	8305.025
2824.43239	8311.725
2826.96904	8261.825
2829.50412	8283.225
2832.03763	8272.125
2834.56959	8270.425
2837.1	8285.025
2839.62884	8275.125
2842.15613	8293.325
2844.68186	8327.225
2847.20604	8344.725
2849.72867	8351.725
2852.24974	8364.425
2854.76927	8356.325
2857.28724	8342.825
2859.80367	8341.825
2862.31855	8335.625
2864.83189	8297.925
2867.34368	8287.825
2869.85393	8298.025
2872.36264	8279.525
2874.8698	8290.425
2877.37543	8267.525
2879.87952	8258.925
2882.38207	8258.225
2884.88308	8262.725
2887.38256	8254.625
2889.88051	8233.525
2892.37692	8241.925
2894.8718	8257.725
2897.36515	8268.325
2899.85698	8245.225
2902.34727	8261.125
2904.83604	8276.225
2907.32328	8271.825
2909.809	8266.925
2912.29319	8270.925
2914.77587	8281.225
2917.25702	8262.925
2919.73665	8234.425
2922.21476	8261.625
2924.69136	8260.325
2927.16644	8271.625
2929.64	8300.325
2932.11205	8255.525
2934.58258	8246.825
2937.05161	8254.625
2939.51912	8237.325
2941.98513	8226.225
2944.44962	8186.125
2946.91261	8121.925
2949.37409	8120.725
2951.83407	8104.225
2954.29254	8091.425
2956.74951	8053.325
2959.20498	8060.125
2961.65895	8043.325
2964.11142	8031.325
2966.56239	8004.525
2969.01186	7991.325
2971.45984	7963.925
2973.90632	7958.825
2976.35131	7912.325
2978.7948	7895.425
2981.23681	7868.625
2983.67732	7849.525
2986.11635	7837.525
2988.55388	7803.525
2990.98993	7810.825
2993.4245	7780.625
2995.85758	7749.325
2998.28917	7718.625
3000.71928	7722.225
3003.14791	7692.525
3005.57506	7670.625
3008.00073	7639.925
3010.42493	7624.925
3012.84764	7614.125
3015.26888	7601.325
3017.68865	7581.125
3020.10694	7561.625
3022.52376	7541.625
3024.9391	7539.825
3027.35298	7522.525
3029.76539	7510.325
3032.17632	7501.925
3034.5858	7509.425
3036.9938	7507.525
3039.40034	7481.425
3041.80542	7466.825
3044.20903	7447.725
3046.61118	7444.425
3049.01187	7426.725
3051.4111	7405.525
3053.80888	7382.925
3056.20519	7376.225
3058.60005	7337.025
3060.99345	7339.625
3063.3854	7320.425
3065.7759	7277.025
3068.16494	7255.625
3070.55254	7235.425
3072.93868	7211.525
3075.32338	7215.725
3077.70662	7199.125
3080.08842	7141.325
3082.46878	7130.725
3084.84769	7128.425
3087.22515	7116.725
3089.60118	7121.125
3091.97576	7126.625
3094.3489	7114.325
3096.72061	7120.325
3099.09087	7091.725
3101.4597	7092.125
3103.82709	7076.025
3106.19305	7070.725
3108.55757	7051.725
3110.92066	7025.425
3113.28232	7010.625
3115.64255	6983.825
3118.00134	6958.525
3120.35871	6952.325
3122.71466	6923.025
3125.06917	6944.525
3127.42226	6930.425
3129.77393	6918.625
3132.12417	6919.225
3134.47299	6923.725
3136.82039	6890.125
3139.16636	6898.925
3141.51092	6874.125
3143.85406	6896.825
3146.19579	6901.525
3148.53609	6898.125
3150.87499	6898.725
3153.21246	6912.325
3155.54853	6924.225
3157.88318	6890.825
3160.21642	6888.125
3162.54826	6896.025
3164.87868	6887.825
3167.2077	6899.025
