Data from AgNPs_FTO_APTES_UA_2uM_CRN_500uM_R6G_10uM_NaF_0.1M_Addition_RamanShift__3__17-02-05-398.txt Node

Date: Wed Feb 02 17:02:05 GMT 2022
User: TCL
Spectrometer: QEP01345
Trigger mode: 4
Integration Time (sec): 7.000000E0
Scans to average: 10
Electric dark correction enabled: true
Nonlinearity correction enabled: false
Boxcar width: 0
XAxis mode: Raman Shifts
Number of Pixels in Spectrum: 1044
>>>>>Begin Spectral Data<<<<<
46.04893	0.7125
50.45542	0.5125
54.85868	-1.0875
59.25871	-0.1875
63.6555	63.4125
68.04907	70.4125
72.43941	71.3125
76.82654	77.1125
81.21044	78.8125
85.59113	85.1125
89.96862	88.6125
94.34289	89.2125
98.71396	91.2125
103.08183	98.4125
107.4465	100.7125
111.80798	103.7125
116.16626	104.0125
120.52136	103.3125
124.87327	113.7125
129.222	114.0125
133.56755	124.2125
137.90993	127.2125
142.24913	139.3125
146.58517	158.9125
150.91804	179.9125
155.24774	217.2125
159.57429	269.7125
163.89768	344.6125
168.21792	448.1125
172.53501	612.0125
176.84895	857.5125
181.15975	1196.5125
185.46741	1676.2125
189.77193	2306.8125
194.07331	3062.8125
198.37157	3945.1125
202.6667	4871.9125
206.9587	5792.7125
211.24758	6696.3125
215.53334	7623.1125
219.81599	8576.7125
224.09553	9635.7125
228.37195	10790.5125
232.64527	12059.4125
236.91549	13331.9125
241.18261	14588.4125
245.44663	15822.0125
249.70755	16938.9125
253.96539	17918.1125
258.22014	18711.6125
262.4718	19388.6125
266.72039	19855.6125
270.96589	20139.7125
275.20832	20152.0125
279.44768	20125.4125
283.68397	19978.0125
287.91719	19884.0125
292.14735	19840.7125
296.37445	19915.7125
300.59849	20045.9125
304.81948	20184.8125
309.03742	20185.5125
313.25231	19947.8125
317.46415	19470.3125
321.67296	18913.3125
325.87872	18372.0125
330.08145	18092.6125
334.28114	17969.1125
338.47781	18005.1125
342.67145	18140.6125
346.86207	18368.7125
351.04966	18715.5125
355.23424	19049.5125
359.4158	19316.6125
363.59435	19493.7125
367.76989	19649.9125
371.94243	19716.7125
376.11196	19751.3125
380.27849	19807.9125
384.44203	19925.3125
388.60257	20181.3125
392.76012	20426.4125
396.91468	20677.7125
401.06626	21042.8125
405.21485	21254.0125
409.36047	21186.3125
413.50311	20945.2125
417.64277	20748.4125
421.77947	20735.7125
425.9132	20794.7125
430.04396	20908.1125
434.17176	21069.1125
438.2966	21236.3125
442.41849	21624.3125
446.53742	22335.0125
450.6534	23131.6125
454.76644	23639.6125
458.87653	23770.4125
462.98368	23604.7125
467.08789	23336.1125
471.18916	23036.3125
475.2875	22940.4125
479.38291	23012.9125
483.4754	23075.7125
487.56496	22746.9125
491.6516	22113.2125
495.73531	21400.5125
499.81612	20897.3125
503.89401	20826.1125
507.96899	20827.9125
512.04106	20721.5125
516.11023	20466.5125
520.1765	20179.6125
524.23987	19902.1125
528.30034	19658.2125
532.35792	19487.1125
536.41261	19229.8125
540.46441	19067.1125
544.51333	19090.1125
548.55936	19419.8125
552.60252	20005.8125
556.64279	20735.0125
560.6802	21309.8125
564.71473	21750.5125
568.7464	22388.9125
572.7752	23323.5125
576.80114	24134.3125
580.82422	24804.9125
584.84444	25500.9125
588.86181	26568.0125
592.87633	27331.6125
596.888	26842.0125
600.89682	25360.0125
604.9028	24629.4125
608.90594	25691.2125
612.90624	27057.4125
616.90371	25272.0125
620.89834	21228.2125
624.89015	19345.0125
628.87913	19127.0125
632.86528	19283.6125
636.84862	19299.6125
640.82913	18956.5125
644.80683	18516.0125
648.78172	18198.2125
652.75379	18127.8125
656.72306	18296.6125
660.68952	18502.7125
664.65319	18302.8125
668.61405	17959.6125
672.57211	17912.2125
676.52738	18033.5125
680.47986	18066.6125
684.42955	18000.5125
688.37646	17887.8125
692.32058	17962.5125
696.26192	18214.5125
700.20048	18526.6125
704.13626	18674.0125
708.06928	18745.7125
711.99952	18736.7125
715.927	18737.0125
719.85171	18814.9125
723.77365	18709.8125
727.69284	18408.4125
731.60928	18173.0125
735.52295	18042.2125
739.43388	18040.2125
743.34206	18089.6125
747.24749	18228.1125
751.15017	18460.5125
755.05012	18863.7125
758.94733	19521.0125
762.8418	20646.7125
766.73354	22063.4125
770.62254	23364.7125
774.50882	23492.6125
778.39237	22279.3125
782.27321	20604.8125
786.15132	19208.5125
790.02671	18394.0125
793.89938	17998.4125
797.76935	17866.2125
801.6366	17814.3125
805.50115	17767.4125
809.36299	17711.0125
813.22213	17558.3125
817.07857	17576.3125
820.93231	17539.3125
824.78336	17311.6125
828.63172	17145.4125
832.47738	17059.0125
836.32036	17062.4125
840.16066	17074.7125
843.99827	17048.8125
847.8332	17043.3125
851.66546	16973.2125
855.49504	16943.9125
859.32195	16927.2125
863.1462	16855.2125
866.96777	16816.2125
870.78668	16745.2125
874.60293	16734.5125
878.41652	16762.0125
882.22745	16784.4125
886.03573	16885.2125
889.84136	16867.5125
893.64433	16798.2125
897.44466	16738.5125
901.24235	16669.5125
905.0374	16612.1125
908.8298	16588.3125
912.61957	16605.0125
916.40671	16862.6125
920.19121	17164.1125
923.97308	17389.9125
927.75233	17332.3125
931.52895	17073.2125
935.30295	16719.5125
939.07433	16338.2125
942.84309	16065.3125
946.60924	15882.2125
950.37278	15845.6125
954.13371	15858.0125
957.89203	15879.0125
961.64774	15943.7125
965.40086	15899.7125
969.15137	15810.1125
972.89929	15680.4125
976.64461	15536.3125
980.38733	15463.8125
984.12747	15455.4125
987.86502	15512.7125
991.59999	15629.7125
995.33237	15798.6125
999.06217	16074.1125
1002.78939	16472.3125
1006.51404	16772.2125
1010.23611	17088.0125
1013.95561	17276.3125
1017.67255	17401.3125
1021.38692	17219.9125
1025.09872	16850.3125
1028.80796	16639.8125
1032.51465	16647.7125
1036.21877	16839.5125
1039.92035	16942.9125
1043.61937	16956.9125
1047.31584	16935.7125
1051.00976	16864.1125
1054.70114	16888.4125
1058.38998	16957.8125
1062.07627	17173.9125
1065.76003	17390.0125
1069.44126	17577.3125
1073.11995	17858.2125
1076.79611	18040.1125
1080.46974	18117.5125
1084.14085	18239.7125
1087.80943	18443.7125
1091.47549	18680.3125
1095.13903	18867.5125
1098.80005	18668.7125
1102.45857	18182.2125
1106.11456	17746.6125
1109.76805	17515.5125
1113.41903	17529.5125
1117.06751	17640.9125
1120.71348	17909.5125
1124.35696	18209.4125
1127.99793	18515.5125
1131.63641	18716.9125
1135.2724	18625.0125
1138.90589	18532.3125
1142.5369	18675.2125
1146.16542	18951.0125
1149.79145	19312.7125
1153.415	19697.1125
1157.03607	20205.2125
1160.65467	21045.9125
1164.27079	22319.1125
1167.88443	23774.9125
1171.49561	25275.0125
1175.10432	27161.5125
1178.71056	29475.2125
1182.31434	31654.1125
1185.91565	32540.0125
1189.51451	32078.0125
1193.11091	31048.1125
1196.70485	29940.9125
1200.29634	28867.3125
1203.88538	28201.4125
1207.47197	27991.7125
1211.05612	27838.6125
1214.63782	27304.8125
1218.21708	26346.7125
1221.79391	25262.6125
1225.36829	24543.2125
1228.94024	23961.0125
1232.50976	23434.1125
1236.07685	22981.5125
1239.6415	22687.4125
1243.20374	22722.1125
1246.76355	22867.8125
1250.32093	23316.1125
1253.8759	23840.9125
1257.42845	24544.0125
1260.97859	25304.0125
1264.52631	26027.7125
1268.07163	26803.9125
1271.61453	27610.8125
1275.15503	28534.3125
1278.69312	29628.8125
1282.22882	30833.5125
1285.76211	32340.4125
1289.29301	34351.4125
1292.82151	36691.0125
1296.34761	39448.7125
1299.87133	42500.7125
1303.39266	45288.5125
1306.9116	47498.9125
1310.42815	49133.2125
1313.94233	49936.2125
1317.45412	49852.1125
1320.96354	49064.7125
1324.47058	48367.5125
1327.97525	47901.3125
1331.47754	47481.0125
1334.97747	47014.1125
1338.47502	46297.1125
1341.97022	45155.5125
1345.46305	43835.9125
1348.95352	42825.5125
1352.44163	42430.9125
1355.92738	43188.9125
1359.41078	44725.2125
1362.89183	45996.5125
1366.37053	45184.0125
1369.84688	41659.1125
1373.32088	36979.5125
1376.79254	33854.8125
1380.26186	33087.9125
1383.72883	33687.3125
1387.19347	34131.4125
1390.65578	34235.3125
1394.11575	34563.0125
1397.57339	35369.0125
1401.0287	36349.2125
1404.48168	36913.9125
1407.93234	36614.1125
1411.38068	35359.4125
1414.82669	33466.6125
1418.27039	31424.6125
1421.71177	29382.0125
1425.15083	27724.6125
1428.58758	26934.4125
1432.02203	27111.6125
1435.45416	28096.6125
1438.88399	29275.7125
1442.31151	30249.1125
1445.73673	30943.1125
1449.15965	31584.7125
1452.58027	31860.7125
1455.9986	31948.6125
1459.41463	32025.3125
1462.82837	32322.5125
1466.23982	32760.3125
1469.64898	33230.0125
1473.05586	33419.1125
1476.46045	33348.3125
1479.86276	32941.0125
1483.26279	32356.8125
1486.66054	31933.1125
1490.05602	31858.4125
1493.44922	32016.9125
1496.84016	32267.2125
1500.22882	32688.3125
1503.61521	33506.5125
1506.99934	34474.3125
1510.38121	35392.3125
1513.76081	35717.5125
1517.13816	35221.8125
1520.51324	34383.7125
1523.88607	33818.3125
1527.25665	33845.5125
1530.62498	34115.8125
1533.99105	34163.1125
1537.35488	33769.3125
1540.71647	32827.9125
1544.07581	31629.9125
1547.4329	30346.0125
1550.78776	29235.1125
1554.14038	28452.8125
1557.49077	28016.3125
1560.83892	27808.4125
1564.18484	27849.8125
1567.52853	27936.7125
1570.86999	28457.7125
1574.20922	29312.0125
1577.54624	30248.9125
1580.88103	30934.3125
1584.2136	31792.4125
1587.54395	33176.9125
1590.87208	35100.7125
1594.19801	37249.5125
1597.52172	39172.3125
1600.84321	39320.8125
1604.16251	37066.9125
1607.47959	33430.7125
1610.79447	29563.8125
1614.10715	26293.6125
1617.41763	23862.3125
1620.7259	22340.7125
1624.03199	21619.1125
1627.33587	21749.9125
1630.63757	22705.5125
1633.93707	24604.3125
1637.23439	27792.7125
1640.52951	32334.0125
1643.82246	37825.8125
1647.11321	42242.8125
1650.40179	43076.5125
1653.68819	39388.9125
1656.97241	33222.7125
1660.25446	27257.1125
1663.53433	22824.1125
1666.81203	19936.7125
1670.08756	18137.9125
1673.36092	17033.3125
1676.63211	16301.8125
1679.90115	15810.7125
1683.16801	15436.3125
1686.43272	15209.2125
1689.69527	15012.8125
1692.95567	14819.5125
1696.2139	14756.4125
1699.46999	14704.0125
1702.72392	14636.6125
1705.97571	14550.7125
1709.22535	14433.2125
1712.47284	14389.2125
1715.71819	14340.0125
1718.96139	14266.6125
1722.20246	14209.0125
1725.44139	14123.4125
1728.67818	14003.7125
1731.91284	13929.2125
1735.14537	13853.9125
1738.37576	13794.3125
1741.60403	13710.3125
1744.83017	13690.8125
1748.05418	13616.6125
1751.27607	13617.1125
1754.49584	13605.7125
1757.71349	13606.4125
1760.92903	13583.5125
1764.14244	13571.7125
1767.35375	13515.6125
1770.56294	13496.6125
1773.77002	13473.2125
1776.97499	13406.6125
1780.17785	13350.3125
1783.37861	13323.7125
1786.57727	13266.9125
1789.77382	13271.7125
1792.96828	13199.7125
1796.16064	13175.2125
1799.3509	13145.4125
1802.53907	13086.0125
1805.72514	13121.6125
1808.90913	13050.1125
1812.09102	13006.5125
1815.27083	12966.6125
1818.44856	12958.1125
1821.6242	12937.8125
1824.79776	12870.8125
1827.96924	12891.6125
1831.13864	12880.1125
1834.30597	12902.3125
1837.47122	12891.5125
1840.6344	12880.5125
1843.7955	12874.3125
1846.95454	12842.8125
1850.11151	12842.7125
1853.26642	12846.2125
1856.41926	12825.8125
1859.57004	12814.6125
1862.71876	12799.0125
1865.86542	12772.9125
1869.01003	12759.3125
1872.15258	12731.7125
1875.29308	12729.4125
1878.43152	12721.9125
1881.56792	12718.2125
1884.70227	12665.8125
1887.83457	12668.8125
1890.96482	12637.2125
1894.09304	12627.7125
1897.21921	12630.4125
1900.34335	12605.1125
1903.46544	12614.1125
1906.58551	12581.8125
1909.70353	12589.0125
1912.81953	12558.8125
1915.93349	12512.2125
1919.04543	12457.3125
1922.15534	12422.6125
1925.26322	12402.2125
1928.36908	12375.3125
1931.47292	12347.6125
1934.57473	12324.4125
1937.67453	12255.0125
1940.77232	12197.5125
1943.86808	12190.8125
1946.96184	12161.8125
1950.05358	12133.4125
1953.14331	12089.9125
1956.23103	12042.5125
1959.31675	11999.2125
1962.40046	11972.4125
1965.48217	11917.1125
1968.56188	11889.0125
1971.63959	11871.4125
1974.7153	11819.1125
1977.78901	11803.9125
1980.86073	11744.0125
1983.93046	11722.8125
1986.99819	11692.3125
1990.06394	11664.7125
1993.1277	11607.8125
1996.18947	11577.7125
1999.24925	11552.5125
2002.30706	11483.0125
2005.36288	11457.3125
2008.41672	11419.3125
2011.46859	11383.6125
2014.51848	11349.8125
2017.56639	11325.7125
2020.61233	11313.8125
2023.6563	11307.8125
2026.6983	11277.1125
2029.73833	11240.0125
2032.7764	11231.8125
2035.8125	11225.5125
2038.84664	11182.1125
2041.87881	11149.4125
2044.90903	11098.0125
2047.93729	11068.4125
2050.96359	11093.3125
2053.98794	11089.6125
2057.01034	11087.8125
2060.03078	11060.0125
2063.04927	11064.4125
2066.06582	11029.0125
2069.08042	11026.7125
2072.09307	11007.7125
2075.10378	11012.7125
2078.11255	10995.8125
2081.11938	10992.9125
2084.12426	10988.7125
2087.12722	10977.8125
2090.12824	10962.4125
2093.12732	10985.2125
2096.12447	10986.9125
2099.11969	10976.7125
2102.11299	11002.1125
2105.10435	10975.8125
2108.09379	11001.4125
2111.08131	11001.5125
2114.0669	10990.4125
2117.05057	11003.2125
2120.03233	10988.1125
2123.01216	10990.4125
2125.99008	10983.8125
2128.96609	10992.9125
2131.94018	10990.1125
2134.91236	10987.8125
2137.88263	10984.2125
2140.851	11010.6125
2143.81746	10996.7125
2146.78201	11002.4125
2149.74466	11015.7125
2152.7054	10988.0125
2155.66425	10973.7125
2158.6212	10990.5125
2161.57625	10942.9125
2164.52941	10970.0125
2167.48067	10931.2125
2170.43004	10943.8125
2173.37752	10941.8125
2176.32311	10955.2125
2179.26681	10954.7125
2182.20863	10962.6125
2185.14856	10960.2125
2188.08661	10951.0125
2191.02278	10926.7125
2193.95707	10935.8125
2196.88948	10925.1125
2199.82001	10892.7125
2202.74867	10860.6125
2205.67545	10900.5125
2208.60037	10822.8125
2211.52341	10844.0125
2214.44458	10819.7125
2217.36388	10800.5125
2220.28132	10775.0125
2223.1969	10794.3125
2226.11061	10755.3125
2229.02246	10731.0125
2231.93245	10733.2125
2234.84058	10709.5125
2237.74686	10686.4125
2240.65128	10686.6125
2243.55385	10662.7125
2246.45456	10646.8125
2249.35343	10628.2125
2252.25044	10575.5125
2255.14561	10560.6125
2258.03893	10527.6125
2260.93041	10513.0125
2263.82004	10492.2125
2266.70783	10463.3125
2269.59378	10433.4125
2272.4779	10404.1125
2275.36017	10382.9125
2278.24061	10361.1125
2281.11922	10330.1125
2283.996	10326.2125
2286.87094	10319.0125
2289.74405	10303.0125
2292.61534	10286.5125
2295.4848	10245.4125
2298.35243	10286.7125
2301.21824	10256.5125
2304.08223	10225.8125
2306.94439	10250.0125
2309.80474	10228.6125
2312.66327	10231.6125
2315.51999	10228.9125
2318.37489	10216.9125
2321.22797	10195.1125
2324.07925	10177.8125
2326.92871	10164.4125
2329.77637	10159.3125
2332.62222	10141.5125
2335.46626	10141.7125
2338.3085	10116.3125
2341.14893	10113.9125
2343.98756	10118.9125
2346.8244	10114.4125
2349.65943	10107.3125
2352.49267	10119.7125
2355.32411	10140.3125
2358.15376	10122.2125
2360.98161	10089.1125
2363.80768	10094.0125
2366.63195	10096.0125
2369.45444	10077.2125
2372.27514	10049.1125
2375.09405	10040.8125
2377.91118	10027.8125
2380.72652	10006.3125
2383.54009	9989.6125
2386.35187	9956.6125
2389.16188	9946.4125
2391.97011	9934.2125
2394.77657	9903.3125
2397.58125	9895.7125
2400.38416	9884.5125
2403.18529	9853.9125
2405.98466	9846.8125
2408.78226	9835.7125
2411.57809	9864.0125
2414.37216	9801.7125
2417.16446	9818.5125
2419.955	9820.4125
2422.74378	9799.1125
2425.5308	9791.0125
2428.31606	9789.8125
2431.09956	9783.7125
2433.88131	9757.9125
2436.6613	9778.8125
2439.43954	9751.4125
2442.21603	9734.7125
2444.99077	9718.8125
2447.76377	9733.3125
2450.53501	9743.4125
2453.30451	9747.0125
2456.07226	9756.3125
2458.83827	9738.3125
2461.60254	9720.4125
2464.36507	9726.0125
2467.12586	9727.0125
2469.88492	9724.8125
2472.64224	9732.6125
2475.39782	9738.7125
2478.15167	9733.3125
2480.90379	9721.4125
2483.65417	9719.2125
2486.40283	9726.2125
2489.14976	9716.9125
2491.89497	9729.6125
2494.63845	9723.3125
2497.3802	9748.6125
2500.12024	9716.0125
2502.85855	9733.5125
2505.59514	9738.9125
2508.33002	9718.6125
2511.06318	9716.5125
2513.79462	9683.6125
2516.52435	9678.8125
2519.25237	9668.6125
2521.97867	9673.8125
2524.70327	9671.1125
2527.42616	9637.5125
2530.14734	9621.0125
2532.86681	9620.8125
2535.58458	9620.8125
2538.30065	9606.6125
2541.01501	9591.7125
2543.72768	9567.3125
2546.43864	9577.8125
2549.14791	9576.4125
2551.85548	9567.1125
2554.56136	9559.0125
2557.26554	9542.3125
2559.96803	9529.6125
2562.66883	9549.5125
2565.36794	9548.6125
2568.06536	9553.2125
2570.7611	9523.2125
2573.45514	9536.1125
2576.14751	9482.7125
2578.83819	9503.6125
2581.52719	9500.2125
2584.21451	9502.0125
2586.90015	9488.6125
2589.58411	9485.5125
2592.2664	9483.1125
2594.94701	9478.3125
2597.62594	9486.3125
2600.30321	9445.8125
2602.9788	9503.1125
2605.65273	9450.5125
2608.32498	9462.2125
2610.99557	9463.5125
2613.66449	9472.4125
2616.33175	9460.4125
2618.99734	9474.8125
2621.66128	9463.3125
2624.32355	9463.4125
2626.98416	9471.2125
2629.64311	9461.1125
2632.30041	9462.1125
2634.95605	9452.0125
2637.61004	9437.9125
2640.26238	9428.7125
2642.91306	9426.1125
2645.56209	9410.5125
2648.20948	9405.9125
2650.85521	9395.3125
2653.4993	9395.9125
2656.14175	9411.0125
2658.78255	9428.0125
2661.42171	9415.1125
2664.05923	9439.4125
2666.6951	9446.3125
2669.32934	9460.1125
2671.96194	9440.8125
2674.59291	9462.7125
2677.22224	9434.2125
2679.84993	9446.1125
2682.476	9446.7125
2685.10043	9465.4125
2687.72324	9444.3125
2690.34441	9426.3125
2692.96396	9446.9125
2695.58188	9455.9125
2698.19818	9448.2125
2700.81285	9458.0125
2703.4259	9460.3125
2706.03733	9498.1125
2708.64714	9464.8125
2711.25533	9494.6125
2713.86191	9484.3125
2716.46687	9492.8125
2719.07021	9472.2125
2721.67194	9503.3125
2724.27206	9490.1125
2726.87057	9500.4125
2729.46747	9487.9125
2732.06276	9517.6125
2734.65644	9512.0125
2737.24852	9509.8125
2739.83899	9485.5125
2742.42786	9535.6125
2745.01513	9508.6125
2747.60079	9504.6125
2750.18486	9499.3125
2752.76733	9486.5125
2755.3482	9495.9125
2757.92747	9519.2125
2760.50515	9510.9125
2763.08123	9504.1125
2765.65573	9501.4125
2768.22863	9513.7125
2770.79994	9478.9125
2773.36967	9500.9125
2775.9378	9496.3125
2778.50435	9489.2125
2781.06932	9486.6125
2783.6327	9500.6125
2786.1945	9492.8125
2788.75471	9478.4125
2791.31335	9468.8125
2793.87041	9458.0125
2796.42589	9411.4125
2798.97979	9421.8125
2801.53212	9401.2125
2804.08288	9399.4125
2806.63206	9375.6125
2809.17967	9350.0125
2811.72571	9354.5125
2814.27018	9344.7125
2816.81308	9327.1125
2819.35442	9322.8125
2821.89419	9303.7125
2824.43239	9297.9125
2826.96904	9294.6125
2829.50412	9302.0125
2832.03763	9276.2125
2834.56959	9301.6125
2837.1	9288.4125
2839.62884	9310.6125
2842.15613	9344.1125
2844.68186	9363.0125
2847.20604	9399.8125
2849.72867	9422.0125
2852.24974	9405.1125
2854.76927	9399.1125
2857.28724	9383.2125
2859.80367	9372.3125
2862.31855	9348.9125
2864.83189	9319.8125
2867.34368	9291.8125
2869.85393	9318.9125
2872.36264	9324.8125
2874.8698	9315.5125
2877.37543	9330.0125
2879.87952	9318.5125
2882.38207	9307.7125
2884.88308	9295.2125
2887.38256	9300.7125
2889.88051	9301.3125
2892.37692	9317.1125
2894.8718	9324.5125
2897.36515	9364.0125
2899.85698	9342.1125
2902.34727	9344.4125
2904.83604	9357.8125
2907.32328	9393.4125
2909.809	9385.0125
2912.29319	9372.7125
2914.77587	9376.6125
2917.25702	9377.8125
2919.73665	9353.6125
2922.21476	9391.9125
2924.69136	9364.1125
2927.16644	9376.4125
2929.64	9360.4125
2932.11205	9333.3125
2934.58258	9328.9125
2937.05161	9353.0125
2939.51912	9353.9125
2941.98513	9311.4125
2944.44962	9276.4125
2946.91261	9229.0125
2949.37409	9252.4125
2951.83407	9198.5125
2954.29254	9204.9125
2956.74951	9177.6125
2959.20498	9166.7125
2961.65895	9128.4125
2964.11142	9132.0125
2966.56239	9116.8125
2969.01186	9096.1125
2971.45984	9044.1125
2973.90632	9043.0125
2976.35131	9018.0125
2978.7948	9007.1125
2981.23681	8996.3125
2983.67732	8993.3125
2986.11635	8919.4125
2988.55388	8916.3125
2990.98993	8891.7125
2993.4245	8880.7125
2995.85758	8837.6125
2998.28917	8814.9125
3000.71928	8796.4125
3003.14791	8786.2125
3005.57506	8766.5125
3008.00073	8755.2125
3010.42493	8739.1125
3012.84764	8743.7125
3015.26888	8708.2125
3017.68865	8704.1125
3020.10694	8682.1125
3022.52376	8666.7125
3024.9391	8642.2125
3027.35298	8636.8125
3029.76539	8603.9125
3032.17632	8597.7125
3034.5858	8583.1125
3036.9938	8580.5125
3039.40034	8584.3125
3041.80542	8592.4125
3044.20903	8549.7125
3046.61118	8566.0125
3049.01187	8523.5125
3051.4111	8526.1125
3053.80888	8507.1125
