Data from AgNPs_FTO_APTES_UA_2uM_CRN_50uM_R6G_10uM_NaF_0.1M_Addition_RamanShift__3__14-39-45-231.txt Node

Date: Wed Feb 02 14:39:45 GMT 2022
User: TCL
Spectrometer: QEP01345
Trigger mode: 4
Integration Time (sec): 7.000000E0
Scans to average: 10
Electric dark correction enabled: true
Nonlinearity correction enabled: false
Boxcar width: 0
XAxis mode: Raman Shifts
Number of Pixels in Spectrum: 1044
>>>>>Begin Spectral Data<<<<<
46.04893	0.475
50.45542	0.675
54.85868	-1.925
59.25871	-1.025
63.6555	100.775
68.04907	101.975
72.43941	108.275
76.82654	115.075
81.21044	119.975
85.59113	122.675
89.96862	125.975
94.34289	133.275
98.71396	135.775
103.08183	141.775
107.4465	146.575
111.80798	149.275
116.16626	146.775
120.52136	159.875
124.87327	160.875
129.222	171.775
133.56755	184.375
137.90993	193.875
142.24913	213.275
146.58517	240.075
150.91804	303.175
155.24774	341.175
159.57429	408.875
163.89768	533.175
168.21792	697.875
172.53501	942.975
176.84895	1311.175
181.15975	1853.575
185.46741	2587.075
189.77193	3551.275
194.07331	4749.975
198.37157	6107.475
202.6667	7515.975
206.9587	8942.275
211.24758	10318.775
215.53334	11718.675
219.81599	13253.375
224.09553	14888.775
228.37195	16737.575
232.64527	18670.075
236.91549	20638.575
241.18261	22672.375
245.44663	24571.875
249.70755	26280.075
253.96539	27734.775
258.22014	28974.475
262.4718	30061.775
266.72039	30779.375
270.96589	31208.075
275.20832	31249.375
279.44768	31101.975
283.68397	30882.775
287.91719	30696.475
292.14735	30635.675
296.37445	30737.675
300.59849	30838.375
304.81948	30997.175
309.03742	30928.975
313.25231	30699.775
317.46415	30093.275
321.67296	29327.075
325.87872	28593.875
330.08145	28253.475
334.28114	28119.275
338.47781	28218.575
342.67145	28475.575
346.86207	28924.775
351.04966	29418.275
355.23424	29928.975
359.4158	30472.675
363.59435	30891.675
367.76989	31145.675
371.94243	31351.575
376.11196	31444.875
380.27849	31501.775
384.44203	31686.175
388.60257	31994.275
392.76012	32337.675
396.91468	32825.275
401.06626	33290.675
405.21485	33645.375
409.36047	33583.875
413.50311	33255.875
417.64277	33212.875
421.77947	33335.575
425.9132	33511.275
430.04396	33720.675
434.17176	33867.975
438.2966	34024.475
442.41849	34576.875
446.53742	35715.475
450.6534	36965.475
454.76644	37880.375
458.87653	38100.375
462.98368	37731.175
467.08789	37095.475
471.18916	36483.675
475.2875	35936.975
479.38291	35728.175
483.4754	35607.475
487.56496	35237.675
491.6516	34564.475
495.73531	33759.875
499.81612	33336.775
503.89401	33347.875
507.96899	33362.775
512.04106	33167.475
516.11023	32773.175
520.1765	32279.375
524.23987	31852.675
528.30034	31559.575
532.35792	31229.275
536.41261	30818.675
540.46441	30491.275
544.51333	30461.875
548.55936	30909.075
552.60252	31695.675
556.64279	32658.175
560.6802	33582.775
564.71473	34079.875
568.7464	34869.375
572.7752	36162.475
576.80114	37487.575
580.82422	38791.775
584.84444	40441.475
588.86181	42362.775
592.87633	43746.775
596.888	43049.075
600.89682	40748.275
604.9028	39921.575
608.90594	41961.575
612.90624	44225.375
616.90371	41146.075
620.89834	34652.775
624.89015	31752.875
628.87913	31403.675
632.86528	31481.075
636.84862	31184.475
640.82913	30567.775
644.80683	29755.675
648.78172	29327.575
652.75379	29350.675
656.72306	29688.175
660.68952	30031.875
664.65319	29743.575
668.61405	29128.775
672.57211	29060.075
676.52738	29176.375
680.47986	29203.075
684.42955	28972.775
688.37646	28780.175
692.32058	29004.375
696.26192	29567.275
700.20048	30143.975
704.13626	30476.975
708.06928	30450.875
711.99952	30331.875
715.927	30446.075
719.85171	30643.275
723.77365	30488.775
727.69284	29919.975
731.60928	29391.375
735.52295	29198.975
739.43388	29162.475
743.34206	29316.275
747.24749	29527.475
751.15017	29902.175
755.05012	30619.275
758.94733	31618.575
762.8418	33321.475
766.73354	35573.475
770.62254	37500.175
774.50882	37464.475
778.39237	35504.375
782.27321	32967.675
786.15132	31025.975
790.02671	29861.975
793.89938	29304.475
797.76935	29134.375
801.6366	29102.975
805.50115	29143.075
809.36299	28922.175
813.22213	28664.975
817.07857	28493.475
820.93231	28282.975
824.78336	28098.575
828.63172	27888.675
832.47738	27813.875
836.32036	27931.975
840.16066	28055.675
843.99827	28115.475
847.8332	28004.475
851.66546	27859.075
855.49504	27822.775
859.32195	27794.175
863.1462	27676.475
866.96777	27538.775
870.78668	27492.875
874.60293	27435.375
878.41652	27448.775
882.22745	27564.475
886.03573	27623.375
889.84136	27619.075
893.64433	27497.575
897.44466	27365.075
901.24235	27253.475
905.0374	27197.875
908.8298	27175.575
912.61957	27275.075
916.40671	27638.275
920.19121	28198.275
923.97308	28625.475
927.75233	28722.575
931.52895	28375.775
935.30295	27763.775
939.07433	27126.675
942.84309	26711.875
946.60924	26534.075
950.37278	26481.975
954.13371	26491.775
957.89203	26451.075
961.64774	26420.975
965.40086	26520.075
969.15137	26388.275
972.89929	26191.675
976.64461	26066.075
980.38733	26029.875
984.12747	26123.475
987.86502	26330.375
991.59999	26646.775
995.33237	27169.575
999.06217	27954.275
1002.78939	28911.975
1006.51404	29567.075
1010.23611	30025.975
1013.95561	30354.975
1017.67255	30374.175
1021.38692	29974.575
1025.09872	29500.275
1028.80796	29562.775
1032.51465	30290.175
1036.21877	31185.575
1039.92035	31463.875
1043.61937	31201.675
1047.31584	30476.375
1051.00976	29699.375
1054.70114	29303.175
1058.38998	29245.375
1062.07627	29420.275
1065.76003	29638.175
1069.44126	29934.175
1073.11995	30425.575
1076.79611	30861.975
1080.46974	31133.775
1084.14085	31356.375
1087.80943	31772.975
1091.47549	32066.775
1095.13903	32137.575
1098.80005	31647.375
1102.45857	30820.175
1106.11456	30146.875
1109.76805	29884.575
1113.41903	29930.675
1117.06751	30048.175
1120.71348	30364.275
1124.35696	30689.375
1127.99793	31127.275
1131.63641	31418.075
1135.2724	31403.275
1138.90589	31385.675
1142.5369	31598.375
1146.16542	32028.375
1149.79145	32499.275
1153.415	33099.675
1157.03607	33908.475
1160.65467	35504.575
1164.27079	37768.275
1167.88443	40286.075
1171.49561	42747.475
1175.10432	45688.775
1178.71056	49466.675
1182.31434	53063.275
1185.91565	54647.975
1189.51451	54028.175
1193.11091	52363.175
1196.70485	50450.575
1200.29634	48611.075
1203.88538	47476.575
1207.47197	47090.575
1211.05612	46710.375
1214.63782	45731.875
1218.21708	44319.275
1221.79391	42806.575
1225.36829	41742.875
1228.94024	40829.675
1232.50976	39842.775
1236.07685	39085.575
1239.6415	38730.575
1243.20374	38765.275
1246.76355	39187.475
1250.32093	40000.275
1253.8759	41010.975
1257.42845	42381.575
1260.97859	43747.475
1264.52631	45204.175
1268.07163	46667.775
1271.61453	48310.475
1275.15503	50051.775
1278.69312	51930.875
1282.22882	53946.575
1285.76211	56308.275
1289.29301	59135.175
1292.82151	62603.175
1296.34761	66796.475
1299.87133	71855.775
1303.39266	76852.275
1306.9116	80991.575
1310.42815	83827.675
1313.94233	84717.675
1317.45412	83846.575
1320.96354	82163.875
1324.47058	80717.975
1327.97525	79985.375
1331.47754	79405.075
1334.97747	78808.475
1338.47502	77663.575
1341.97022	75514.675
1345.46305	72989.175
1348.95352	71191.375
1352.44163	70741.075
1355.92738	72430.175
1359.41078	75648.675
1362.89183	78008.075
1366.37053	76816.175
1369.84688	71043.275
1373.32088	63020.575
1376.79254	57242.075
1380.26186	55720.775
1383.72883	56428.075
1387.19347	56998.975
1390.65578	56790.475
1394.11575	56674.675
1397.57339	57759.075
1401.0287	59440.575
1404.48168	60858.875
1407.93234	60823.375
1411.38068	59403.975
1414.82669	56788.675
1418.27039	53820.175
1421.71177	50746.375
1425.15083	48217.675
1428.58758	47021.975
1432.02203	47474.875
1435.45416	49178.975
1438.88399	51360.175
1442.31151	53064.575
1445.73673	54103.975
1449.15965	54786.575
1452.58027	54962.675
1455.9986	54577.275
1459.41463	54470.375
1462.82837	54995.775
1466.23982	55996.375
1469.64898	57091.175
1473.05586	57825.975
1476.46045	58058.475
1479.86276	57636.675
1483.26279	56700.375
1486.66054	56076.175
1490.05602	56024.175
1493.44922	56247.375
1496.84016	56380.775
1500.22882	56613.875
1503.61521	57249.575
1506.99934	58153.975
1510.38121	59035.275
1513.76081	59284.775
1517.13816	58645.075
1520.51324	57489.775
1523.88607	56905.375
1527.25665	57120.975
1530.62498	57621.575
1533.99105	57661.175
1537.35488	57088.175
1540.71647	55670.575
1544.07581	53815.575
1547.4329	51854.975
1550.78776	50176.675
1554.14038	48979.575
1557.49077	48215.975
1560.83892	47674.475
1564.18484	47453.075
1567.52853	47478.575
1570.86999	47910.375
1574.20922	49158.175
1577.54624	50512.375
1580.88103	51687.275
1584.2136	53292.175
1587.54395	56159.375
1590.87208	60269.975
1594.19801	64840.275
1597.52172	68432.575
1600.84321	68737.675
1604.16251	64440.775
1607.47959	57723.975
1610.79447	50911.075
1614.10715	45261.675
1617.41763	41156.875
1620.7259	38661.175
1624.03199	37593.275
1627.33587	37948.175
1630.63757	39755.975
1633.93707	43128.975
1637.23439	48586.075
1640.52951	56373.275
1643.82246	65479.075
1647.11321	72242.875
1650.40179	72664.875
1653.68819	65682.775
1656.97241	55106.775
1660.25446	45341.175
1663.53433	38376.775
1666.81203	33992.975
1670.08756	31272.175
1673.36092	29610.475
1676.63211	28535.575
1679.90115	27784.775
1683.16801	27193.675
1686.43272	26782.375
1689.69527	26486.675
1692.95567	26250.575
1696.2139	26101.275
1699.46999	25992.575
1702.72392	25877.875
1705.97571	25782.375
1709.22535	25688.175
1712.47284	25570.475
1715.71819	25567.875
1718.96139	25415.575
1722.20246	25349.575
1725.44139	25198.375
1728.67818	25050.375
1731.91284	24870.175
1735.14537	24699.275
1738.37576	24608.075
1741.60403	24500.875
1744.83017	24406.575
1748.05418	24345.075
1751.27607	24323.475
1754.49584	24248.275
1757.71349	24221.975
1760.92903	24215.875
1764.14244	24208.875
1767.35375	24179.875
1770.56294	24100.175
1773.77002	24034.375
1776.97499	24011.975
1780.17785	23997.975
1783.37861	23932.775
1786.57727	23909.575
1789.77382	23802.375
1792.96828	23759.375
1796.16064	23755.375
1799.3509	23679.375
1802.53907	23680.075
1805.72514	23583.875
1808.90913	23522.975
1812.09102	23529.675
1815.27083	23474.175
1818.44856	23462.675
1821.6242	23377.275
1824.79776	23366.075
1827.96924	23377.275
1831.13864	23378.975
1834.30597	23406.275
1837.47122	23422.975
1840.6344	23426.375
1843.7955	23428.475
1846.95454	23427.775
1850.11151	23428.875
1853.26642	23435.275
1856.41926	23408.675
1859.57004	23391.775
1862.71876	23326.075
1865.86542	23320.975
1869.01003	23323.575
1872.15258	23286.275
1875.29308	23259.775
1878.43152	23257.575
1881.56792	23256.575
1884.70227	23207.775
1887.83457	23209.875
1890.96482	23207.475
1894.09304	23154.975
1897.21921	23162.575
1900.34335	23114.675
1903.46544	23055.375
1906.58551	23068.675
1909.70353	23017.275
1912.81953	22979.675
1915.93349	22911.275
1919.04543	22855.275
1922.15534	22815.275
1925.26322	22791.875
1928.36908	22726.375
1931.47292	22655.775
1934.57473	22576.675
1937.67453	22528.375
1940.77232	22509.275
1943.86808	22431.375
1946.96184	22423.975
1950.05358	22308.475
1953.14331	22242.975
1956.23103	22239.475
1959.31675	22146.275
1962.40046	22098.775
1965.48217	21999.275
1968.56188	21929.075
1971.63959	21863.475
1974.7153	21814.975
1977.78901	21769.275
1980.86073	21706.775
1983.93046	21623.675
1986.99819	21550.775
1990.06394	21513.875
1993.1277	21465.675
1996.18947	21356.475
1999.24925	21300.275
2002.30706	21249.375
2005.36288	21226.375
2008.41672	21197.275
2011.46859	21155.975
2014.51848	21068.575
2017.56639	20985.975
2020.61233	20993.975
2023.6563	20943.375
2026.6983	20931.075
2029.73833	20860.375
2032.7764	20875.675
2035.8125	20804.675
2038.84664	20773.075
2041.87881	20776.975
2044.90903	20750.375
2047.93729	20711.175
2050.96359	20695.775
2053.98794	20630.375
2057.01034	20644.775
2060.03078	20606.775
2063.04927	20612.975
2066.06582	20607.075
2069.08042	20602.175
2072.09307	20591.375
2075.10378	20549.975
2078.11255	20520.775
2081.11938	20522.175
2084.12426	20508.175
2087.12722	20534.075
2090.12824	20530.975
2093.12732	20512.175
2096.12447	20529.775
2099.11969	20554.775
2102.11299	20596.575
2105.10435	20604.475
2108.09379	20575.675
2111.08131	20617.275
2114.0669	20634.975
2117.05057	20621.675
2120.03233	20616.475
2123.01216	20671.475
2125.99008	20643.975
2128.96609	20709.075
2131.94018	20668.175
2134.91236	20673.975
2137.88263	20681.375
2140.851	20722.275
2143.81746	20731.475
2146.78201	20757.575
2149.74466	20773.775
2152.7054	20751.675
2155.66425	20741.875
2158.6212	20751.875
2161.57625	20753.675
2164.52941	20733.775
2167.48067	20706.875
2170.43004	20690.675
2173.37752	20667.375
2176.32311	20716.275
2179.26681	20705.675
2182.20863	20724.375
2185.14856	20734.975
2188.08661	20728.175
2191.02278	20742.475
2193.95707	20729.875
2196.88948	20735.575
2199.82001	20755.375
2202.74867	20704.775
2205.67545	20734.875
2208.60037	20716.075
2211.52341	20675.875
2214.44458	20659.775
2217.36388	20661.275
2220.28132	20619.575
2223.1969	20583.775
2226.11061	20580.175
2229.02246	20528.575
2231.93245	20526.175
2234.84058	20453.975
2237.74686	20456.375
2240.65128	20477.275
2243.55385	20430.375
2246.45456	20394.875
2249.35343	20391.175
2252.25044	20332.475
2255.14561	20299.975
2258.03893	20232.575
2260.93041	20222.075
2263.82004	20167.875
2266.70783	20107.975
2269.59378	20049.675
2272.4779	19993.375
2275.36017	19950.075
2278.24061	19952.275
2281.11922	19921.375
2283.996	19898.575
2286.87094	19892.275
2289.74405	19856.075
2292.61534	19863.475
2295.4848	19849.175
2298.35243	19865.375
2301.21824	19874.975
2304.08223	19906.475
2306.94439	19924.675
2309.80474	19945.875
2312.66327	19907.075
2315.51999	19903.775
2318.37489	19915.875
2321.22797	19883.575
2324.07925	19878.575
2326.92871	19882.775
2329.77637	19839.775
2332.62222	19846.175
2335.46626	19867.675
2338.3085	19841.675
2341.14893	19867.075
2343.98756	19839.475
2346.8244	19863.275
2349.65943	19874.975
2352.49267	19856.475
2355.32411	19857.575
2358.15376	19813.975
2360.98161	19804.075
2363.80768	19781.475
2366.63195	19759.075
2369.45444	19734.675
2372.27514	19687.075
2375.09405	19683.175
2377.91118	19633.875
2380.72652	19650.775
2383.54009	19608.275
2386.35187	19617.975
2389.16188	19536.275
2391.97011	19551.475
2394.77657	19533.575
2397.58125	19501.775
2400.38416	19495.675
2403.18529	19443.975
2405.98466	19428.275
2408.78226	19405.575
2411.57809	19407.575
2414.37216	19367.775
2417.16446	19362.775
2419.955	19341.275
2422.74378	19339.075
2425.5308	19310.275
2428.31606	19311.475
2431.09956	19292.475
2433.88131	19266.575
2436.6613	19274.875
2439.43954	19292.175
2442.21603	19293.275
2444.99077	19232.075
2447.76377	19281.075
2450.53501	19296.875
2453.30451	19288.275
2456.07226	19271.675
2458.83827	19290.475
2461.60254	19290.975
2464.36507	19309.475
2467.12586	19302.075
2469.88492	19322.175
2472.64224	19295.175
2475.39782	19357.275
2478.15167	19357.875
2480.90379	19356.775
2483.65417	19390.175
2486.40283	19368.575
2489.14976	19380.575
2491.89497	19389.675
2494.63845	19438.675
2497.3802	19411.675
2500.12024	19416.075
2502.85855	19422.875
2505.59514	19461.075
2508.33002	19457.675
2511.06318	19443.575
2513.79462	19419.375
2516.52435	19435.575
2519.25237	19403.175
2521.97867	19393.075
2524.70327	19372.075
2527.42616	19366.675
2530.14734	19385.875
2532.86681	19350.975
2535.58458	19387.775
2538.30065	19338.375
2541.01501	19345.775
2543.72768	19327.875
2546.43864	19303.875
2549.14791	19294.875
2551.85548	19319.375
2554.56136	19336.075
2557.26554	19296.675
2559.96803	19318.175
2562.66883	19308.275
2565.36794	19306.175
2568.06536	19332.375
2570.7611	19346.575
2573.45514	19324.475
2576.14751	19332.175
2578.83819	19300.375
2581.52719	19313.775
2584.21451	19319.875
2586.90015	19323.875
2589.58411	19288.875
2592.2664	19297.175
2594.94701	19255.575
2597.62594	19304.075
2600.30321	19272.675
2602.9788	19283.175
2605.65273	19265.875
2608.32498	19306.775
2610.99557	19280.475
2613.66449	19335.975
2616.33175	19307.175
2618.99734	19339.575
2621.66128	19307.475
2624.32355	19295.175
2626.98416	19312.675
2629.64311	19290.575
2632.30041	19339.275
2634.95605	19326.775
2637.61004	19304.775
2640.26238	19264.275
2642.91306	19281.875
2645.56209	19303.375
2648.20948	19276.275
2650.85521	19266.875
2653.4993	19289.875
2656.14175	19320.675
2658.78255	19311.375
2661.42171	19339.575
2664.05923	19378.875
2666.6951	19383.875
2669.32934	19390.975
2671.96194	19386.675
2674.59291	19380.875
2677.22224	19387.275
2679.84993	19397.575
2682.476	19353.175
2685.10043	19404.775
2687.72324	19384.875
2690.34441	19364.375
2692.96396	19351.275
2695.58188	19360.875
2698.19818	19359.175
2700.81285	19402.375
2703.4259	19408.675
2706.03733	19449.975
2708.64714	19448.775
2711.25533	19477.675
2713.86191	19450.275
2716.46687	19472.275
2719.07021	19495.875
2721.67194	19553.375
2724.27206	19548.775
2726.87057	19616.775
2729.46747	19600.275
2732.06276	19631.775
2734.65644	19603.275
2737.24852	19586.275
2739.83899	19576.875
2742.42786	19589.575
2745.01513	19547.275
2747.60079	19566.475
2750.18486	19541.875
2752.76733	19567.975
2755.3482	19607.675
2757.92747	19634.175
2760.50515	19630.975
2763.08123	19649.675
2765.65573	19633.275
2768.22863	19659.175
2770.79994	19604.675
2773.36967	19626.675
2775.9378	19642.375
2778.50435	19622.875
2781.06932	19618.475
2783.6327	19626.975
2786.1945	19643.475
2788.75471	19646.575
2791.31335	19594.975
2793.87041	19595.275
2796.42589	19566.775
2798.97979	19591.575
2801.53212	19546.275
2804.08288	19519.875
2806.63206	19492.375
2809.17967	19480.175
2811.72571	19411.175
2814.27018	19415.175
2816.81308	19343.175
2819.35442	19328.775
2821.89419	19316.975
2824.43239	19317.375
2826.96904	19313.675
2829.50412	19297.275
2832.03763	19289.575
2834.56959	19303.675
2837.1	19292.875
2839.62884	19285.075
2842.15613	19257.575
2844.68186	19317.575
2847.20604	19337.075
2849.72867	19347.775
2852.24974	19341.275
2854.76927	19322.275
2857.28724	19310.175
2859.80367	19285.575
2862.31855	19231.275
2864.83189	19248.875
2867.34368	19250.175
2869.85393	19234.475
2872.36264	19236.375
2874.8698	19234.075
2877.37543	19230.875
2879.87952	19222.575
2882.38207	19228.575
2884.88308	19241.275
2887.38256	19263.975
2889.88051	19268.375
2892.37692	19296.575
2894.8718	19315.375
2897.36515	19317.475
2899.85698	19350.975
2902.34727	19383.175
2904.83604	19365.675
2907.32328	19409.175
2909.809	19416.875
2912.29319	19396.775
2914.77587	19415.675
2917.25702	19394.575
2919.73665	19366.675
2922.21476	19391.375
2924.69136	19405.975
2927.16644	19399.075
2929.64	19423.775
2932.11205	19411.075
2934.58258	19376.175
2937.05161	19422.375
2939.51912	19450.275
2941.98513	19365.275
2944.44962	19348.975
2946.91261	19251.575
2949.37409	19298.375
2951.83407	19273.475
2954.29254	19267.175
2956.74951	19235.475
2959.20498	19240.175
2961.65895	19227.875
2964.11142	19200.775
2966.56239	19180.275
2969.01186	19178.975
2971.45984	19134.975
2973.90632	19113.375
2976.35131	19059.975
2978.7948	19015.875
2981.23681	18962.775
2983.67732	18922.875
2986.11635	18933.475
2988.55388	18853.575
2990.98993	18820.675
2993.4245	18789.075
2995.85758	18788.975
2998.28917	18752.275
3000.71928	18701.175
3003.14791	18658.775
3005.57506	18651.675
3008.00073	18558.375
3010.42493	18560.575
3012.84764	18563.975
3015.26888	18544.975
3017.68865	18531.675
3020.10694	18464.675
3022.52376	18435.475
3024.9391	18407.475
3027.35298	18393.175
3029.76539	18373.575
3032.17632	18368.375
3034.5858	18395.775
3036.9938	18371.875
3039.40034	18403.875
3041.80542	18361.575
3044.20903	18311.675
3046.61118	18312.975
3049.01187	18240.575
3051.4111	18212.375
3053.80888	18195.475
3056.20519	18183.175
3058.60005	18124.675
3060.99345	18084.575
3063.3854	18059.075
3065.7759	18026.275
3068.16494	17948.075
3070.55254	17903.375
3072.93868	17899.275
3075.32338	17827.275
3077.70662	17796.975
3080.08842	17763.075
3082.46878	17795.175
3084.84769	17743.775
3087.22515	17752.275
3089.60118	17740.875
3091.97576	17756.875
3094.3489	17712.675
3096.72061	17713.775
3099.09087	17688.975
3101.4597	17684.775
3103.82709	17693.875
3106.19305	17650.575
3108.55757	17639.575
3110.92066	17559.075
3113.28232	17516.375
3115.64255	17451.575
3118.00134	17457.875
3120.35871	17414.175
3122.71466	17406.875
3125.06917	17394.775
3127.42226	17369.475
