Data from AgNPs_FTO_APTES_UA_2uM_CRN_1uM_R6G_10uM_NaF_0.1M_Addition_RamanShift__11__11-31-55-013.txt Node

Date: Wed Feb 02 11:31:55 GMT 2022
User: TCL
Spectrometer: QEP01345
Trigger mode: 4
Integration Time (sec): 7.000000E0
Scans to average: 10
Electric dark correction enabled: true
Nonlinearity correction enabled: false
Boxcar width: 0
XAxis mode: Raman Shifts
Number of Pixels in Spectrum: 1044
>>>>>Begin Spectral Data<<<<<
46.04893	0.275
50.45542	1.175
54.85868	-1.825
59.25871	-0.625
63.6555	86.775
68.04907	92.075
72.43941	91.875
76.82654	99.675
81.21044	103.175
85.59113	107.575
89.96862	108.875
94.34289	114.875
98.71396	117.775
103.08183	127.975
107.4465	125.175
111.80798	130.375
116.16626	134.575
120.52136	139.175
124.87327	142.875
129.222	156.375
133.56755	167.275
137.90993	178.875
142.24913	200.075
146.58517	230.675
150.91804	270.475
155.24774	325.275
159.57429	408.475
163.89768	528.475
168.21792	710.575
172.53501	964.075
176.84895	1343.975
181.15975	1891.475
185.46741	2654.275
189.77193	3679.975
194.07331	4908.575
198.37157	6333.775
202.6667	7829.975
206.9587	9335.375
211.24758	10797.175
215.53334	12294.575
219.81599	13859.775
224.09553	15583.275
228.37195	17494.175
232.64527	19553.875
236.91549	21771.675
241.18261	23927.975
245.44663	25993.675
249.70755	27828.775
253.96539	29412.675
258.22014	30694.575
262.4718	31673.975
266.72039	32277.475
270.96589	32540.075
275.20832	32416.975
279.44768	32070.375
283.68397	31703.975
287.91719	31345.075
292.14735	31033.075
296.37445	30990.375
300.59849	30956.975
304.81948	31038.575
309.03742	31172.975
313.25231	31064.175
317.46415	30595.375
321.67296	29907.475
325.87872	29268.075
330.08145	28861.275
334.28114	28692.375
338.47781	28778.375
342.67145	29019.575
346.86207	29398.575
351.04966	29826.375
355.23424	30331.375
359.4158	30732.375
363.59435	31063.275
367.76989	31256.175
371.94243	31258.575
376.11196	31139.075
380.27849	31065.475
384.44203	30991.075
388.60257	31120.175
392.76012	31565.375
396.91468	32140.375
401.06626	32750.175
405.21485	33067.475
409.36047	32882.475
413.50311	32414.875
417.64277	32128.375
421.77947	32238.075
425.9132	32490.875
430.04396	32657.975
434.17176	32755.775
438.2966	32810.875
442.41849	33031.775
446.53742	33690.175
450.6534	34451.175
454.76644	34858.575
458.87653	34992.875
462.98368	34928.275
467.08789	34709.675
471.18916	34408.175
475.2875	34045.375
479.38291	33850.875
483.4754	33841.175
487.56496	33709.375
491.6516	33318.175
495.73531	32726.975
499.81612	32259.475
503.89401	32245.375
507.96899	32359.675
512.04106	32356.275
516.11023	32190.675
520.1765	31760.775
524.23987	31365.075
528.30034	31037.175
532.35792	30705.675
536.41261	30283.775
540.46441	29959.475
544.51333	29954.375
548.55936	30341.175
552.60252	31006.975
556.64279	31730.575
560.6802	32354.575
564.71473	32842.875
568.7464	33648.275
572.7752	35092.075
576.80114	36848.475
580.82422	38465.875
584.84444	40230.375
588.86181	42629.175
592.87633	44958.675
596.888	44697.575
600.89682	41485.575
604.9028	39397.075
608.90594	40635.975
612.90624	42573.075
616.90371	39771.375
620.89834	33975.675
624.89015	31384.375
628.87913	31301.175
632.86528	31734.475
636.84862	31732.875
640.82913	30916.775
644.80683	29898.375
648.78172	29237.475
652.75379	29191.675
656.72306	29533.875
660.68952	29893.875
664.65319	29706.375
668.61405	29171.775
672.57211	29085.075
676.52738	29132.675
680.47986	29119.475
684.42955	28907.175
688.37646	28705.075
692.32058	28879.275
696.26192	29315.475
700.20048	29813.775
704.13626	30188.375
708.06928	30433.175
711.99952	30445.375
715.927	30379.975
719.85171	30262.475
723.77365	29933.175
727.69284	29313.675
731.60928	28766.575
735.52295	28553.075
739.43388	28510.675
743.34206	28591.075
747.24749	28836.875
751.15017	29303.775
755.05012	29969.975
758.94733	30908.675
762.8418	32443.175
766.73354	34749.475
770.62254	36764.575
774.50882	36824.575
778.39237	34995.775
782.27321	32669.375
786.15132	30832.975
790.02671	29632.675
793.89938	28938.175
797.76935	28612.075
801.6366	28382.075
805.50115	28292.175
809.36299	28126.975
813.22213	27985.475
817.07857	27946.675
820.93231	27870.775
824.78336	27665.375
828.63172	27523.875
832.47738	27397.475
836.32036	27312.775
840.16066	27308.175
843.99827	27280.475
847.8332	27279.675
851.66546	27282.975
855.49504	27418.275
859.32195	27410.375
863.1462	27320.575
866.96777	27208.575
870.78668	27182.775
874.60293	27205.675
878.41652	27274.975
882.22745	27389.575
886.03573	27506.075
889.84136	27593.075
893.64433	27616.075
897.44466	27628.775
901.24235	27673.775
905.0374	27693.375
908.8298	27680.375
912.61957	27756.875
916.40671	28133.075
920.19121	28663.375
923.97308	29070.175
927.75233	29170.875
931.52895	28765.975
935.30295	27988.175
939.07433	27192.975
942.84309	26643.575
946.60924	26270.675
950.37278	26094.675
954.13371	26072.475
957.89203	26041.075
961.64774	25980.675
965.40086	25955.175
969.15137	25837.575
972.89929	25617.675
976.64461	25440.875
980.38733	25278.375
984.12747	25246.175
987.86502	25237.875
991.59999	25325.675
995.33237	25493.575
999.06217	25897.875
1002.78939	26306.275
1006.51404	26881.875
1010.23611	27474.675
1013.95561	27871.175
1017.67255	27958.475
1021.38692	27600.475
1025.09872	27122.575
1028.80796	26632.075
1032.51465	26505.075
1036.21877	26526.075
1039.92035	26683.875
1043.61937	26897.175
1047.31584	27024.875
1051.00976	27182.475
1054.70114	27305.075
1058.38998	27510.575
1062.07627	27761.575
1065.76003	28171.675
1069.44126	28706.375
1073.11995	29436.975
1076.79611	29959.575
1080.46974	30164.375
1084.14085	30211.475
1087.80943	30545.175
1091.47549	30914.575
1095.13903	31154.875
1098.80005	30691.675
1102.45857	29655.675
1106.11456	28743.475
1109.76805	28160.175
1113.41903	27979.375
1117.06751	28013.875
1120.71348	28324.675
1124.35696	28689.275
1127.99793	29118.675
1131.63641	29422.675
1135.2724	29447.075
1138.90589	29355.975
1142.5369	29524.975
1146.16542	29819.475
1149.79145	30273.675
1153.415	30758.175
1157.03607	31312.475
1160.65467	32308.775
1164.27079	33908.275
1167.88443	35754.375
1171.49561	37851.175
1175.10432	40282.775
1178.71056	43364.875
1182.31434	46152.775
1185.91565	47457.475
1189.51451	47371.275
1193.11091	46390.275
1196.70485	44672.575
1200.29634	42746.375
1203.88538	41441.975
1207.47197	40964.475
1211.05612	40809.675
1214.63782	40262.975
1218.21708	39001.075
1221.79391	37415.375
1225.36829	36220.675
1228.94024	35586.275
1232.50976	35145.675
1236.07685	34791.575
1239.6415	34448.575
1243.20374	34268.175
1246.76355	34438.675
1250.32093	34893.075
1253.8759	35639.475
1257.42845	36762.275
1260.97859	38153.875
1264.52631	39538.275
1268.07163	40804.975
1271.61453	42155.975
1275.15503	43651.175
1278.69312	45403.675
1282.22882	47356.375
1285.76211	49676.275
1289.29301	52132.575
1292.82151	54706.375
1296.34761	57620.575
1299.87133	61083.675
1303.39266	64110.675
1306.9116	66432.875
1310.42815	67689.375
1313.94233	67949.775
1317.45412	67225.275
1320.96354	66335.175
1324.47058	65957.475
1327.97525	65826.475
1331.47754	65494.975
1334.97747	64651.675
1338.47502	63522.975
1341.97022	62420.075
1345.46305	61392.975
1348.95352	60649.775
1352.44163	60258.775
1355.92738	61081.475
1359.41078	63200.775
1362.89183	65549.475
1366.37053	65783.075
1369.84688	61888.875
1373.32088	55327.375
1376.79254	50230.575
1380.26186	48179.275
1383.72883	47959.275
1387.19347	47810.875
1390.65578	47222.675
1394.11575	47024.475
1397.57339	47442.775
1401.0287	48205.075
1404.48168	48603.675
1407.93234	48026.575
1411.38068	46387.075
1414.82669	44321.175
1418.27039	42126.475
1421.71177	40281.075
1425.15083	38956.275
1428.58758	38400.575
1432.02203	38873.275
1435.45416	40013.475
1438.88399	41102.775
1442.31151	41860.275
1445.73673	42302.275
1449.15965	42793.975
1452.58027	43147.275
1455.9986	43230.075
1459.41463	43564.275
1462.82837	44190.575
1466.23982	45004.375
1469.64898	45619.975
1473.05586	45872.175
1476.46045	45902.375
1479.86276	45606.975
1483.26279	45491.375
1486.66054	45651.275
1490.05602	46381.375
1493.44922	47451.075
1496.84016	48687.275
1500.22882	50060.375
1503.61521	51490.875
1506.99934	52678.475
1510.38121	53578.775
1513.76081	53789.175
1517.13816	53274.075
1520.51324	52472.275
1523.88607	52101.875
1527.25665	52048.975
1530.62498	51869.375
1533.99105	50932.775
1537.35488	49396.375
1540.71647	47310.375
1544.07581	45217.675
1547.4329	43319.675
1550.78776	41890.875
1554.14038	41159.475
1557.49077	40796.575
1560.83892	40793.175
1564.18484	40879.175
1567.52853	41114.875
1570.86999	41646.575
1574.20922	42612.675
1577.54624	43673.875
1580.88103	44331.975
1584.2136	45050.575
1587.54395	46603.575
1590.87208	48910.275
1594.19801	51281.775
1597.52172	53060.675
1600.84321	52432.075
1604.16251	48929.975
1607.47959	44371.275
1610.79447	40115.575
1614.10715	36649.975
1617.41763	33851.675
1620.7259	32065.375
1624.03199	31210.875
1627.33587	31427.975
1630.63757	32662.275
1633.93707	35308.275
1637.23439	39791.675
1640.52951	46548.275
1643.82246	54782.375
1647.11321	61377.775
1650.40179	62640.875
1653.68819	57472.275
1656.97241	48745.575
1660.25446	40236.775
1663.53433	34013.275
1666.81203	29996.775
1670.08756	27542.275
1673.36092	26063.875
1676.63211	25066.175
1679.90115	24433.375
1683.16801	23971.375
1686.43272	23633.175
1689.69527	23356.175
1692.95567	23176.475
1696.2139	22974.975
1699.46999	22845.975
1702.72392	22748.275
1705.97571	22672.975
1709.22535	22529.775
1712.47284	22500.775
1715.71819	22417.275
1718.96139	22332.475
1722.20246	22289.875
1725.44139	22134.975
1728.67818	21970.375
1731.91284	21797.875
1735.14537	21642.375
1738.37576	21543.275
1741.60403	21441.875
1744.83017	21347.575
1748.05418	21294.675
1751.27607	21231.575
1754.49584	21163.975
1757.71349	21144.775
1760.92903	21168.475
1764.14244	21098.475
1767.35375	21083.675
1770.56294	20988.575
1773.77002	20965.875
1776.97499	20915.375
1780.17785	20827.075
1783.37861	20808.175
1786.57727	20744.675
1789.77382	20680.875
1792.96828	20659.075
1796.16064	20571.375
1799.3509	20554.875
1802.53907	20516.375
1805.72514	20442.675
1808.90913	20400.675
1812.09102	20365.975
1815.27083	20289.275
1818.44856	20266.075
1821.6242	20289.675
1824.79776	20243.775
1827.96924	20233.975
1831.13864	20253.375
1834.30597	20253.675
1837.47122	20264.775
1840.6344	20316.075
1843.7955	20320.275
1846.95454	20340.975
1850.11151	20284.475
1853.26642	20278.675
1856.41926	20237.075
1859.57004	20244.075
1862.71876	20148.375
1865.86542	20162.275
1869.01003	20087.975
1872.15258	20019.075
1875.29308	20026.975
1878.43152	19965.775
1881.56792	19876.175
1884.70227	19880.075
1887.83457	19838.275
1890.96482	19785.175
1894.09304	19747.175
1897.21921	19714.975
1900.34335	19654.775
1903.46544	19642.875
1906.58551	19577.375
1909.70353	19535.775
1912.81953	19466.875
1915.93349	19418.675
1919.04543	19369.875
1922.15534	19299.275
1925.26322	19220.675
1928.36908	19165.075
1931.47292	19098.675
1934.57473	18991.175
1937.67453	18940.975
1940.77232	18928.875
1943.86808	18821.075
1946.96184	18801.775
1950.05358	18726.375
1953.14331	18689.875
1956.23103	18624.875
1959.31675	18597.075
1962.40046	18547.075
1965.48217	18480.575
1968.56188	18384.375
1971.63959	18289.675
1974.7153	18225.275
1977.78901	18168.675
1980.86073	18104.375
1983.93046	18036.975
1986.99819	17967.475
1990.06394	17936.275
1993.1277	17862.475
1996.18947	17782.275
1999.24925	17746.575
2002.30706	17697.275
2005.36288	17598.375
2008.41672	17529.675
2011.46859	17481.275
2014.51848	17418.675
2017.56639	17362.775
2020.61233	17334.575
2023.6563	17250.275
2026.6983	17261.775
2029.73833	17169.175
2032.7764	17155.775
2035.8125	17082.475
2038.84664	17039.075
2041.87881	17068.575
2044.90903	17014.775
2047.93729	17030.975
2050.96359	16995.375
2053.98794	16957.375
2057.01034	16924.875
2060.03078	16908.475
2063.04927	16877.975
2066.06582	16871.175
2069.08042	16865.775
2072.09307	16883.475
2075.10378	16849.975
2078.11255	16875.675
2081.11938	16900.675
2084.12426	16884.175
2087.12722	16875.275
2090.12824	16848.675
2093.12732	16870.175
2096.12447	16895.275
2099.11969	16864.375
2102.11299	16855.875
2105.10435	16867.975
2108.09379	16876.175
2111.08131	16854.675
2114.0669	16871.175
2117.05057	16837.575
2120.03233	16834.375
2123.01216	16821.375
2125.99008	16775.375
2128.96609	16789.375
2131.94018	16768.275
2134.91236	16745.875
2137.88263	16748.775
2140.851	16719.775
2143.81746	16689.575
2146.78201	16683.075
2149.74466	16653.875
2152.7054	16643.575
2155.66425	16626.575
2158.6212	16626.775
2161.57625	16637.175
2164.52941	16595.675
2167.48067	16586.975
2170.43004	16562.275
2173.37752	16542.475
2176.32311	16550.475
2179.26681	16552.175
2182.20863	16548.975
2185.14856	16519.875
2188.08661	16523.875
2191.02278	16479.475
2193.95707	16473.875
2196.88948	16484.575
2199.82001	16415.875
2202.74867	16415.175
2205.67545	16379.175
2208.60037	16363.875
2211.52341	16359.175
2214.44458	16316.375
2217.36388	16275.475
2220.28132	16248.575
2223.1969	16230.075
2226.11061	16183.275
2229.02246	16140.975
2231.93245	16131.775
2234.84058	16106.575
2237.74686	16091.875
2240.65128	16117.175
2243.55385	16062.775
2246.45456	16031.575
2249.35343	15975.675
2252.25044	15928.575
2255.14561	15886.575
2258.03893	15890.575
2260.93041	15799.675
2263.82004	15771.175
2266.70783	15697.875
2269.59378	15656.275
2272.4779	15615.675
2275.36017	15586.575
2278.24061	15554.175
2281.11922	15517.975
2283.996	15503.875
2286.87094	15465.275
2289.74405	15397.975
2292.61534	15375.175
2295.4848	15318.675
2298.35243	15308.475
2301.21824	15289.675
2304.08223	15298.675
2306.94439	15262.575
2309.80474	15291.575
2312.66327	15260.475
2315.51999	15207.575
2318.37489	15226.475
2321.22797	15183.475
2324.07925	15165.275
2326.92871	15143.975
2329.77637	15121.375
2332.62222	15121.375
2335.46626	15105.275
2338.3085	15070.175
2341.14893	15055.675
2343.98756	15069.575
2346.8244	15027.675
2349.65943	14993.375
2352.49267	14984.575
2355.32411	15028.175
2358.15376	15012.075
2360.98161	15008.875
2363.80768	14965.275
2366.63195	14977.875
2369.45444	14974.375
2372.27514	14990.975
2375.09405	14899.675
2377.91118	14904.375
2380.72652	14830.775
2383.54009	14782.275
2386.35187	14785.975
2389.16188	14697.175
2391.97011	14654.775
2394.77657	14661.375
2397.58125	14651.175
2400.38416	14641.975
2403.18529	14600.475
2405.98466	14555.675
2408.78226	14532.275
2411.57809	14525.875
2414.37216	14498.875
2417.16446	14496.775
2419.955	14488.275
2422.74378	14475.375
2425.5308	14510.975
2428.31606	14476.675
2431.09956	14439.375
2433.88131	14383.475
2436.6613	14409.375
2439.43954	14370.275
2442.21603	14378.375
2444.99077	14363.775
2447.76377	14356.375
2450.53501	14353.675
2453.30451	14318.575
2456.07226	14332.175
2458.83827	14337.575
2461.60254	14301.675
2464.36507	14302.375
2467.12586	14302.775
2469.88492	14284.075
2472.64224	14262.075
2475.39782	14277.575
2478.15167	14250.975
2480.90379	14232.775
2483.65417	14221.275
2486.40283	14206.675
2489.14976	14212.775
2491.89497	14230.575
2494.63845	14222.575
2497.3802	14166.775
2500.12024	14161.675
2502.85855	14157.875
2505.59514	14186.875
2508.33002	14115.275
2511.06318	14116.975
2513.79462	14073.575
2516.52435	14066.675
2519.25237	14058.375
2521.97867	14059.875
2524.70327	14028.275
2527.42616	13981.575
2530.14734	13968.875
2532.86681	13964.375
2535.58458	13943.775
2538.30065	13915.375
2541.01501	13909.975
2543.72768	13863.175
2546.43864	13886.875
2549.14791	13844.375
2551.85548	13818.975
2554.56136	13820.475
2557.26554	13809.975
2559.96803	13787.575
2562.66883	13771.475
2565.36794	13746.775
2568.06536	13777.075
2570.7611	13740.075
2573.45514	13737.475
2576.14751	13713.675
2578.83819	13683.675
2581.52719	13670.175
2584.21451	13660.675
2586.90015	13649.575
2589.58411	13622.075
2592.2664	13622.575
2594.94701	13613.175
2597.62594	13563.675
2600.30321	13517.075
2602.9788	13537.375
2605.65273	13507.675
2608.32498	13522.675
2610.99557	13504.975
2613.66449	13516.475
2616.33175	13489.175
2618.99734	13503.575
2621.66128	13499.575
2624.32355	13465.975
2626.98416	13445.375
2629.64311	13430.875
2632.30041	13421.075
2634.95605	13406.975
2637.61004	13392.975
2640.26238	13372.375
2642.91306	13369.875
2645.56209	13346.075
2648.20948	13338.675
2650.85521	13351.075
2653.4993	13335.175
2656.14175	13336.575
2658.78255	13386.275
2661.42171	13362.075
2664.05923	13358.375
2666.6951	13353.275
2669.32934	13362.575
2671.96194	13353.875
2674.59291	13392.975
2677.22224	13377.275
2679.84993	13375.575
2682.476	13369.675
2685.10043	13373.375
2687.72324	13326.375
2690.34441	13330.475
2692.96396	13329.475
2695.58188	13333.675
2698.19818	13316.975
2700.81285	13333.075
2703.4259	13307.675
2706.03733	13358.975
2708.64714	13321.375
2711.25533	13329.075
2713.86191	13334.475
2716.46687	13348.675
2719.07021	13318.975
2721.67194	13333.075
2724.27206	13308.475
2726.87057	13311.775
2729.46747	13305.875
2732.06276	13326.575
2734.65644	13334.775
2737.24852	13341.575
2739.83899	13325.275
2742.42786	13330.375
2745.01513	13256.375
2747.60079	13295.275
2750.18486	13259.975
2752.76733	13246.275
2755.3482	13247.875
2757.92747	13220.775
2760.50515	13219.575
2763.08123	13207.775
2765.65573	13197.975
2768.22863	13200.875
2770.79994	13175.175
2773.36967	13137.575
2775.9378	13129.975
2778.50435	13130.875
2781.06932	13103.475
2783.6327	13115.675
2786.1945	13097.575
2788.75471	13123.675
2791.31335	13060.175
2793.87041	13030.575
2796.42589	13002.675
2798.97979	12981.675
2801.53212	12974.775
2804.08288	12966.375
2806.63206	12958.175
2809.17967	12945.275
2811.72571	12916.575
2814.27018	12885.775
2816.81308	12881.875
2819.35442	12868.975
2821.89419	12836.475
2824.43239	12849.775
2826.96904	12833.675
2829.50412	12811.675
2832.03763	12758.575
2834.56959	12769.375
2837.1	12724.575
2839.62884	12733.875
2842.15613	12738.175
2844.68186	12805.475
2847.20604	12826.775
2849.72867	12836.275
2852.24974	12801.475
2854.76927	12819.375
2857.28724	12832.975
2859.80367	12778.075
2862.31855	12735.075
2864.83189	12716.775
2867.34368	12726.675
2869.85393	12695.775
2872.36264	12671.275
2874.8698	12691.275
2877.37543	12697.575
2879.87952	12705.175
2882.38207	12711.475
2884.88308	12729.075
2887.38256	12728.675
2889.88051	12696.075
2892.37692	12725.075
2894.8718	12713.875
2897.36515	12749.175
2899.85698	12743.375
2902.34727	12777.175
2904.83604	12743.875
2907.32328	12772.675
2909.809	12752.575
2912.29319	12740.275
2914.77587	12758.575
2917.25702	12729.875
2919.73665	12718.075
2922.21476	12742.675
2924.69136	12707.275
2927.16644	12706.875
2929.64	12691.675
2932.11205	12696.475
2934.58258	12619.775
2937.05161	12656.475
2939.51912	12655.575
2941.98513	12623.675
2944.44962	12587.975
2946.91261	12490.575
2949.37409	12484.775
2951.83407	12468.275
2954.29254	12472.575
2956.74951	12454.575
2959.20498	12377.475
2961.65895	12346.475
2964.11142	12337.675
2966.56239	12327.375
2969.01186	12334.275
2971.45984	12245.975
2973.90632	12237.475
2976.35131	12168.675
2978.7948	12133.575
2981.23681	12092.975
2983.67732	12057.375
2986.11635	12004.575
2988.55388	11952.675
2990.98993	11944.675
2993.4245	11888.275
2995.85758	11864.975
2998.28917	11846.475
3000.71928	11807.175
3003.14791	11794.775
3005.57506	11776.075
3008.00073	11704.375
3010.42493	11683.675
3012.84764	11702.975
3015.26888	11665.875
3017.68865	11640.175
3020.10694	11597.375
3022.52376	11548.375
3024.9391	11561.475
3027.35298	11518.475
3029.76539	11504.475
3032.17632	11491.775
3034.5858	11442.275
3036.9938	11432.475
3039.40034	11463.875
3041.80542	11443.975
3044.20903	11404.875
3046.61118	11379.375
3049.01187	11342.475
3051.4111	11346.675
3053.80888	11289.775
3056.20519	11260.475
3058.60005	11250.675
3060.99345	11202.275
3063.3854	11175.075
3065.7759	11139.275
3068.16494	11121.775
3070.55254	11094.675
3072.93868	11041.475
3075.32338	11045.375
3077.70662	11003.675
3080.08842	10947.475
3082.46878	10961.475
3084.84769	10945.975
3087.22515	10916.175
3089.60118	10912.875
3091.97576	10867.975
3094.3489	10876.375
3096.72061	10855.675
3099.09087	10882.075
3101.4597	10834.675
3103.82709	10809.075
3106.19305	10793.875
3108.55757	10769.375
3110.92066	10725.775
3113.28232	10708.175
3115.64255	10665.475
3118.00134	10638.175
3120.35871	10662.375
3122.71466	10611.675
3125.06917	10592.975
3127.42226	10569.675
