Data from AgNPs_FTO_APTES_UA_2uM_CRN_1uM_R6G_10uM_NaF_0.1M_Addition_RamanShift__25__11-48-15-032.txt Node

Date: Wed Feb 02 11:48:15 GMT 2022
User: TCL
Spectrometer: QEP01345
Trigger mode: 4
Integration Time (sec): 7.000000E0
Scans to average: 10
Electric dark correction enabled: true
Nonlinearity correction enabled: false
Boxcar width: 0
XAxis mode: Raman Shifts
Number of Pixels in Spectrum: 1044
>>>>>Begin Spectral Data<<<<<
46.04893	1.45
50.45542	-0.85
54.85868	-1.35
59.25871	-0.15
63.6555	82.45
68.04907	87.85
72.43941	91.35
76.82654	96.85
81.21044	97.45
85.59113	103.35
89.96862	108.15
94.34289	112.85
98.71396	116.85
103.08183	119.85
107.4465	122.25
111.80798	127.75
116.16626	127.25
120.52136	137.85
124.87327	137.95
129.222	145.75
133.56755	160.25
137.90993	167.95
142.24913	186.35
146.58517	208.95
150.91804	243.75
155.24774	294.85
159.57429	365.35
163.89768	473.35
168.21792	629.05
172.53501	848.85
176.84895	1188.25
181.15975	1658.15
185.46741	2319.35
189.77193	3196.35
194.07331	4280.05
198.37157	5484.55
202.6667	6767.75
206.9587	8031.65
211.24758	9310.55
215.53334	10604.85
219.81599	12067.35
224.09553	13725.45
228.37195	15508.15
232.64527	17449.65
236.91549	19416.55
241.18261	21205.25
245.44663	22802.25
249.70755	24127.65
253.96539	25311.65
258.22014	26302.05
262.4718	27229.15
266.72039	27884.05
270.96589	28327.25
275.20832	28393.25
279.44768	28295.75
283.68397	28130.85
287.91719	28020.05
292.14735	28134.15
296.37445	28455.45
300.59849	28963.95
304.81948	29653.75
309.03742	30097.05
313.25231	29886.25
317.46415	28627.15
321.67296	26785.75
325.87872	25199.75
330.08145	24471.45
334.28114	24361.55
338.47781	24632.25
342.67145	25168.55
346.86207	26036.65
351.04966	27225.85
355.23424	28665.25
359.4158	29737.25
363.59435	30247.55
367.76989	30351.65
371.94243	30306.65
376.11196	30142.85
380.27849	30013.25
384.44203	29833.15
388.60257	29693.15
392.76012	29651.85
396.91468	30065.45
401.06626	30769.25
405.21485	31386.55
409.36047	30997.05
413.50311	29843.85
417.64277	28772.25
421.77947	28263.45
425.9132	28140.05
430.04396	28201.55
434.17176	28330.45
438.2966	28681.45
442.41849	29341.15
446.53742	30212.55
450.6534	31225.35
454.76644	31888.45
458.87653	32037.35
462.98368	31890.45
467.08789	31408.55
471.18916	30816.75
475.2875	30216.15
479.38291	29834.35
483.4754	29505.45
487.56496	29104.55
491.6516	28696.65
495.73531	28386.05
499.81612	28334.05
503.89401	28505.55
507.96899	28689.65
512.04106	28745.35
516.11023	28846.75
520.1765	28783.55
524.23987	28555.75
528.30034	28139.15
532.35792	27617.05
536.41261	27037.05
540.46441	26461.15
544.51333	26288.35
548.55936	26638.95
552.60252	27398.65
556.64279	28284.55
560.6802	28798.85
564.71473	29391.65
568.7464	30565.35
572.7752	31625.85
576.80114	31441.45
580.82422	30999.75
584.84444	30771.85
588.86181	30717.75
592.87633	30930.35
596.888	31293.95
600.89682	31923.85
604.9028	34365.35
608.90594	41085.25
612.90624	49462.95
616.90371	47139.55
620.89834	34868.85
624.89015	29093.95
628.87913	28121.45
632.86528	28201.55
636.84862	28350.85
640.82913	27743.05
644.80683	26585.15
648.78172	25739.15
652.75379	25719.45
656.72306	26555.55
660.68952	27704.85
664.65319	27628.45
668.61405	26588.05
672.57211	26079.75
676.52738	26000.75
680.47986	25960.75
684.42955	25773.85
688.37646	25625.25
692.32058	25779.45
696.26192	25998.85
700.20048	26489.05
704.13626	26848.85
708.06928	26925.85
711.99952	26654.05
715.927	26453.05
719.85171	26452.15
723.77365	26305.75
727.69284	25933.95
731.60928	25609.45
735.52295	25581.45
739.43388	25644.55
743.34206	25786.55
747.24749	26010.05
751.15017	26345.55
755.05012	26929.05
758.94733	28116.45
762.8418	30647.75
766.73354	34977.75
770.62254	39463.05
774.50882	41150.65
778.39237	38967.35
782.27321	34415.05
786.15132	30185.15
790.02671	27689.25
793.89938	26487.35
797.76935	26026.85
801.6366	25762.95
805.50115	25601.15
809.36299	25334.55
813.22213	25213.55
817.07857	25144.55
820.93231	25103.05
824.78336	25137.75
828.63172	25250.25
832.47738	25374.45
836.32036	25382.05
840.16066	25397.45
843.99827	25296.05
847.8332	25194.95
851.66546	25090.25
855.49504	25049.25
859.32195	24984.95
863.1462	24798.55
866.96777	24654.05
870.78668	24650.95
874.60293	24652.85
878.41652	24726.95
882.22745	24911.05
886.03573	25011.35
889.84136	25051.15
893.64433	24871.75
897.44466	24769.65
901.24235	24720.05
905.0374	24662.15
908.8298	24585.75
912.61957	24631.25
916.40671	24838.45
920.19121	25209.95
923.97308	25599.25
927.75233	25834.85
931.52895	25951.35
935.30295	25601.85
939.07433	24884.65
942.84309	24251.25
946.60924	23906.85
950.37278	23718.85
954.13371	23591.65
957.89203	23474.35
961.64774	23373.85
965.40086	23360.55
969.15137	23251.95
972.89929	23210.25
976.64461	23144.45
980.38733	23183.75
984.12747	23277.35
987.86502	23490.15
991.59999	23792.15
995.33237	24208.85
999.06217	24985.15
1002.78939	25971.25
1006.51404	26788.75
1010.23611	27285.45
1013.95561	27596.15
1017.67255	27532.45
1021.38692	27070.35
1025.09872	26615.35
1028.80796	26494.95
1032.51465	26905.15
1036.21877	27360.75
1039.92035	27531.05
1043.61937	27327.65
1047.31584	26864.15
1051.00976	26367.85
1054.70114	26084.35
1058.38998	26056.35
1062.07627	26192.05
1065.76003	26457.05
1069.44126	26717.05
1073.11995	27123.15
1076.79611	27443.95
1080.46974	27666.95
1084.14085	28074.75
1087.80943	28704.15
1091.47549	29056.85
1095.13903	28810.25
1098.80005	28027.75
1102.45857	27086.15
1106.11456	26533.05
1109.76805	26434.15
1113.41903	26718.85
1117.06751	27197.95
1120.71348	27991.05
1124.35696	28813.15
1127.99793	29668.15
1131.63641	29841.05
1135.2724	29040.65
1138.90589	28115.55
1142.5369	27611.85
1146.16542	27297.55
1149.79145	27159.45
1153.415	27297.65
1157.03607	27658.15
1160.65467	28313.25
1164.27079	29465.85
1167.88443	31185.15
1171.49561	33779.95
1175.10432	37697.45
1178.71056	42837.55
1182.31434	46948.65
1185.91565	48955.55
1189.51451	48677.15
1193.11091	46619.35
1196.70485	43361.55
1200.29634	40394.15
1203.88538	37953.05
1207.47197	35778.95
1211.05612	34045.25
1214.63782	33159.15
1218.21708	32982.95
1221.79391	33232.75
1225.36829	33563.25
1228.94024	33783.55
1232.50976	33808.75
1236.07685	33553.95
1239.6415	33215.85
1243.20374	32689.45
1246.76355	32564.45
1250.32093	32812.05
1253.8759	33508.75
1257.42845	34632.85
1260.97859	35897.35
1264.52631	37058.65
1268.07163	38275.85
1271.61453	39562.25
1275.15503	40870.15
1278.69312	41920.75
1282.22882	42730.85
1285.76211	43772.35
1289.29301	45090.65
1292.82151	46634.15
1296.34761	48307.15
1299.87133	50698.75
1303.39266	54107.15
1306.9116	59041.15
1310.42815	64914.55
1313.94233	69383.05
1317.45412	70236.85
1320.96354	68340.05
1324.47058	65395.35
1327.97525	62282.75
1331.47754	59828.15
1334.97747	58327.95
1338.47502	57629.05
1341.97022	57307.25
1345.46305	57091.05
1348.95352	57067.05
1352.44163	57923.85
1355.92738	60535.85
1359.41078	65851.55
1362.89183	71847.65
1366.37053	71618.45
1369.84688	63893.65
1373.32088	54905.35
1376.79254	48887.05
1380.26186	46021.25
1383.72883	44789.95
1387.19347	43790.75
1390.65578	42866.55
1394.11575	42419.45
1397.57339	42747.75
1401.0287	43667.15
1404.48168	44728.75
1407.93234	45362.65
1411.38068	45376.75
1414.82669	44348.25
1418.27039	42659.65
1421.71177	40825.85
1425.15083	39311.55
1428.58758	38388.05
1432.02203	38159.15
1435.45416	38461.85
1438.88399	38822.75
1442.31151	39110.75
1445.73673	39482.75
1449.15965	39965.55
1452.58027	40348.45
1455.9986	40404.85
1459.41463	40691.15
1462.82837	41270.55
1466.23982	42035.85
1469.64898	42783.15
1473.05586	43195.65
1476.46045	43218.15
1479.86276	43283.45
1483.26279	43506.35
1486.66054	43996.65
1490.05602	44756.65
1493.44922	45899.65
1496.84016	47190.35
1500.22882	49439.35
1503.61521	52602.65
1506.99934	56621.05
1510.38121	60806.05
1513.76081	63412.75
1517.13816	62146.75
1520.51324	57427.75
1523.88607	52164.15
1527.25665	48231.45
1530.62498	46006.25
1533.99105	44615.45
1537.35488	43657.95
1540.71647	42947.55
1544.07581	42349.25
1547.4329	41739.75
1550.78776	41138.95
1554.14038	40892.55
1557.49077	41040.15
1560.83892	41481.15
1564.18484	42024.35
1567.52853	42426.35
1570.86999	42766.15
1574.20922	43138.55
1577.54624	43242.55
1580.88103	42411.95
1584.2136	41263.75
1587.54395	41406.45
1590.87208	43048.35
1594.19801	45954.35
1597.52172	49174.75
1600.84321	50451.15
1604.16251	48430.95
1607.47959	44595.15
1610.79447	40478.35
1614.10715	36733.65
1617.41763	33710.05
1620.7259	31854.95
1624.03199	30916.85
1627.33587	30905.35
1630.63757	31949.15
1633.93707	33950.05
1637.23439	37172.45
1640.52951	41412.85
1643.82246	46201.15
1647.11321	50345.25
1650.40179	52421.55
1653.68819	50344.35
1656.97241	44210.45
1660.25446	37238.15
1663.53433	31878.15
1666.81203	28493.85
1670.08756	26534.65
1673.36092	25313.45
1676.63211	24535.45
1679.90115	23969.05
1683.16801	23590.25
1686.43272	23331.85
1689.69527	23138.85
1692.95567	23014.35
1696.2139	22909.25
1699.46999	22834.55
1702.72392	22747.75
1705.97571	22690.15
1709.22535	22654.25
1712.47284	22652.75
1715.71819	22634.25
1718.96139	22632.15
1722.20246	22574.45
1725.44139	22478.95
1728.67818	22352.65
1731.91284	22201.75
1735.14537	22057.75
1738.37576	21985.75
1741.60403	21854.15
1744.83017	21804.95
1748.05418	21749.85
1751.27607	21729.85
1754.49584	21640.35
1757.71349	21638.25
1760.92903	21663.65
1764.14244	21637.05
1767.35375	21588.35
1770.56294	21552.15
1773.77002	21518.85
1776.97499	21504.55
1780.17785	21431.55
1783.37861	21417.45
1786.57727	21381.55
1789.77382	21326.45
1792.96828	21319.05
1796.16064	21264.45
1799.3509	21252.35
1802.53907	21249.65
1805.72514	21212.45
1808.90913	21113.65
1812.09102	21099.65
1815.27083	21066.85
1818.44856	21047.55
1821.6242	21014.35
1824.79776	21004.65
1827.96924	20986.45
1831.13864	21008.25
1834.30597	20995.65
1837.47122	20971.15
1840.6344	21003.05
1843.7955	20990.15
1846.95454	21005.65
1850.11151	21029.35
1853.26642	21035.95
1856.41926	21061.65
1859.57004	21086.55
1862.71876	21105.75
1865.86542	21146.05
1869.01003	21130.65
1872.15258	21189.95
1875.29308	21231.25
1878.43152	21266.55
1881.56792	21256.95
1884.70227	21333.75
1887.83457	21343.05
1890.96482	21412.55
1894.09304	21423.35
1897.21921	21481.85
1900.34335	21500.75
1903.46544	21563.05
1906.58551	21590.45
1909.70353	21580.25
1912.81953	21589.75
1915.93349	21593.35
1919.04543	21547.95
1922.15534	21535.45
1925.26322	21456.35
1928.36908	21369.65
1931.47292	21217.75
1934.57473	21039.25
1937.67453	20861.95
1940.77232	20788.15
1943.86808	20690.75
1946.96184	20566.05
1950.05358	20427.75
1953.14331	20334.75
1956.23103	20232.75
1959.31675	20122.35
1962.40046	20069.35
1965.48217	20003.65
1968.56188	19886.05
1971.63959	19836.65
1974.7153	19779.65
1977.78901	19726.85
1980.86073	19671.25
1983.93046	19619.75
1986.99819	19534.45
1990.06394	19484.35
1993.1277	19417.75
1996.18947	19318.55
1999.24925	19272.35
2002.30706	19222.95
2005.36288	19184.25
2008.41672	19104.25
2011.46859	19074.65
2014.51848	19030.45
2017.56639	18953.15
2020.61233	18876.15
2023.6563	18832.45
2026.6983	18850.75
2029.73833	18789.15
2032.7764	18742.35
2035.8125	18754.15
2038.84664	18690.45
2041.87881	18660.25
2044.90903	18662.85
2047.93729	18667.65
2050.96359	18643.15
2053.98794	18579.75
2057.01034	18554.75
2060.03078	18510.05
2063.04927	18502.15
2066.06582	18488.35
2069.08042	18503.35
2072.09307	18455.65
2075.10378	18440.55
2078.11255	18443.55
2081.11938	18468.55
2084.12426	18460.75
2087.12722	18395.75
2090.12824	18354.65
2093.12732	18420.75
2096.12447	18433.15
2099.11969	18439.85
2102.11299	18445.35
2105.10435	18429.05
2108.09379	18441.35
2111.08131	18464.05
2114.0669	18473.85
2117.05057	18494.35
2120.03233	18472.45
2123.01216	18456.55
2125.99008	18505.45
2128.96609	18483.95
2131.94018	18520.45
2134.91236	18524.65
2137.88263	18532.05
2140.851	18553.15
2143.81746	18564.25
2146.78201	18513.25
2149.74466	18514.35
2152.7054	18519.75
2155.66425	18535.95
2158.6212	18538.95
2161.57625	18533.25
2164.52941	18512.65
2167.48067	18537.65
2170.43004	18499.05
2173.37752	18502.45
2176.32311	18541.05
2179.26681	18569.05
2182.20863	18525.25
2185.14856	18566.55
2188.08661	18525.35
2191.02278	18529.05
2193.95707	18501.15
2196.88948	18515.25
2199.82001	18519.45
2202.74867	18519.85
2205.67545	18524.45
2208.60037	18479.65
2211.52341	18460.55
2214.44458	18477.65
2217.36388	18456.15
2220.28132	18414.75
2223.1969	18372.75
2226.11061	18339.95
2229.02246	18293.75
2231.93245	18264.85
2234.84058	18223.95
2237.74686	18213.75
2240.65128	18211.75
2243.55385	18174.95
2246.45456	18161.85
2249.35343	18119.15
2252.25044	18101.35
2255.14561	18117.85
2258.03893	18095.75
2260.93041	18097.25
2263.82004	18028.65
2266.70783	18008.05
2269.59378	17955.15
2272.4779	17915.15
2275.36017	17861.45
2278.24061	17821.25
2281.11922	17788.25
2283.996	17772.65
2286.87094	17766.75
2289.74405	17666.25
2292.61534	17652.65
2295.4848	17631.65
2298.35243	17660.25
2301.21824	17647.45
2304.08223	17673.35
2306.94439	17675.15
2309.80474	17649.75
2312.66327	17691.95
2315.51999	17633.65
2318.37489	17653.45
2321.22797	17650.45
2324.07925	17639.55
2326.92871	17627.55
2329.77637	17615.15
2332.62222	17642.75
2335.46626	17605.45
2338.3085	17603.95
2341.14893	17630.25
2343.98756	17611.95
2346.8244	17615.05
2349.65943	17586.45
2352.49267	17596.65
2355.32411	17594.95
2358.15376	17606.35
2360.98161	17632.15
2363.80768	17620.85
2366.63195	17562.95
2369.45444	17595.55
2372.27514	17580.25
2375.09405	17526.65
2377.91118	17520.25
2380.72652	17440.45
2383.54009	17383.15
2386.35187	17331.35
2389.16188	17290.45
2391.97011	17256.25
2394.77657	17230.35
2397.58125	17204.25
2400.38416	17168.85
2403.18529	17159.05
2405.98466	17123.25
2408.78226	17042.45
2411.57809	17037.05
2414.37216	17001.75
2417.16446	17017.05
2419.955	17014.25
2422.74378	17008.75
2425.5308	16979.95
2428.31606	17007.35
2431.09956	16964.05
2433.88131	16938.45
2436.6613	16931.05
2439.43954	16935.55
2442.21603	16889.55
2444.99077	16942.15
2447.76377	16914.65
2450.53501	16931.35
2453.30451	16916.75
2456.07226	16939.15
2458.83827	16907.35
2461.60254	16923.15
2464.36507	16905.45
2467.12586	16916.65
2469.88492	16902.75
2472.64224	16915.35
2475.39782	16910.15
2478.15167	16936.35
2480.90379	16953.45
2483.65417	16944.15
2486.40283	16950.85
2489.14976	16958.35
2491.89497	17004.45
2494.63845	17032.65
2497.3802	17004.95
2500.12024	17002.95
2502.85855	16995.05
2505.59514	17016.05
2508.33002	16948.85
2511.06318	16935.75
2513.79462	16882.25
2516.52435	16880.15
2519.25237	16821.55
2521.97867	16803.95
2524.70327	16791.35
2527.42616	16761.05
2530.14734	16758.55
2532.86681	16744.05
2535.58458	16735.35
2538.30065	16697.75
2541.01501	16688.35
2543.72768	16661.45
2546.43864	16684.15
2549.14791	16669.05
2551.85548	16663.35
2554.56136	16643.85
2557.26554	16621.75
2559.96803	16630.75
2562.66883	16586.75
2565.36794	16589.05
2568.06536	16579.65
2570.7611	16560.35
2573.45514	16524.35
2576.14751	16550.05
2578.83819	16529.15
2581.52719	16531.55
2584.21451	16509.05
2586.90015	16512.95
2589.58411	16491.85
2592.2664	16493.15
2594.94701	16446.15
2597.62594	16467.45
2600.30321	16432.95
2602.9788	16434.95
2605.65273	16429.85
2608.32498	16457.75
2610.99557	16418.45
2613.66449	16442.45
2616.33175	16446.85
2618.99734	16452.25
2621.66128	16459.95
2624.32355	16433.25
2626.98416	16456.25
2629.64311	16464.15
2632.30041	16438.15
2634.95605	16406.25
2637.61004	16396.85
2640.26238	16364.15
2642.91306	16360.95
2645.56209	16357.65
2648.20948	16306.75
2650.85521	16327.95
2653.4993	16263.45
2656.14175	16286.15
2658.78255	16299.85
2661.42171	16313.25
2664.05923	16333.75
2666.6951	16342.65
2669.32934	16343.55
2671.96194	16351.65
2674.59291	16391.75
2677.22224	16361.05
2679.84993	16396.15
2682.476	16369.15
2685.10043	16373.55
2687.72324	16348.55
2690.34441	16346.85
2692.96396	16339.45
2695.58188	16352.15
2698.19818	16333.05
2700.81285	16345.65
2703.4259	16339.95
2706.03733	16393.35
2708.64714	16341.15
2711.25533	16364.75
2713.86191	16351.95
2716.46687	16399.65
2719.07021	16385.75
2721.67194	16381.55
2724.27206	16350.35
2726.87057	16378.55
2729.46747	16360.75
2732.06276	16378.45
2734.65644	16361.75
2737.24852	16384.45
2739.83899	16356.85
2742.42786	16364.45
2745.01513	16341.55
2747.60079	16331.95
2750.18486	16310.45
2752.76733	16328.05
2755.3482	16319.55
2757.92747	16314.45
2760.50515	16305.85
2763.08123	16292.35
2765.65573	16313.15
2768.22863	16296.35
2770.79994	16230.35
2773.36967	16295.25
2775.9378	16235.85
2778.50435	16215.85
2781.06932	16251.15
2783.6327	16244.15
2786.1945	16205.05
2788.75471	16199.75
2791.31335	16198.75
2793.87041	16188.45
2796.42589	16146.65
2798.97979	16099.95
2801.53212	16090.45
2804.08288	16089.25
2806.63206	16061.75
2809.17967	16067.15
2811.72571	16038.35
2814.27018	16025.85
2816.81308	16029.75
2819.35442	16049.05
2821.89419	16044.15
2824.43239	16076.15
2826.96904	16046.75
2829.50412	16044.25
2832.03763	16001.35
2834.56959	15997.75
2837.1	15962.15
2839.62884	16013.05
2842.15613	16069.55
2844.68186	16159.55
2847.20604	16214.55
2849.72867	16233.85
2852.24974	16233.95
2854.76927	16224.05
2857.28724	16225.55
2859.80367	16196.35
2862.31855	16160.65
2864.83189	16135.55
2867.34368	16145.25
2869.85393	16117.35
2872.36264	16116.55
2874.8698	16120.35
2877.37543	16137.65
2879.87952	16130.85
2882.38207	16136.35
2884.88308	16152.15
2887.38256	16135.95
2889.88051	16165.35
2892.37692	16134.55
2894.8718	16133.45
2897.36515	16130.65
2899.85698	16167.25
2902.34727	16189.35
2904.83604	16188.35
2907.32328	16254.25
2909.809	16194.85
2912.29319	16199.95
2914.77587	16212.05
2917.25702	16217.95
2919.73665	16177.55
2922.21476	16163.45
2924.69136	16126.25
2927.16644	16123.15
2929.64	16115.35
2932.11205	16088.75
2934.58258	16018.05
2937.05161	16012.55
2939.51912	15983.45
2941.98513	15930.45
2944.44962	15872.45
2946.91261	15787.95
2949.37409	15788.05
2951.83407	15757.75
2954.29254	15735.05
2956.74951	15700.15
2959.20498	15651.35
2961.65895	15626.75
2964.11142	15610.75
2966.56239	15589.55
2969.01186	15550.45
2971.45984	15477.75
2973.90632	15427.05
2976.35131	15426.05
2978.7948	15343.25
2981.23681	15278.85
2983.67732	15243.65
2986.11635	15238.65
2988.55388	15187.55
2990.98993	15134.65
2993.4245	15101.25
2995.85758	15079.95
2998.28917	15059.15
3000.71928	15027.25
3003.14791	15001.55
3005.57506	14985.95
3008.00073	14915.95
3010.42493	14943.75
3012.84764	14905.55
3015.26888	14896.45
3017.68865	14861.45
3020.10694	14862.35
3022.52376	14791.55
3024.9391	14774.45
3027.35298	14738.25
3029.76539	14705.15
3032.17632	14705.65
3034.5858	14683.85
3036.9938	14650.45
3039.40034	14665.75
3041.80542	14629.95
3044.20903	14597.45
3046.61118	14584.25
3049.01187	14579.25
3051.4111	14520.15
3053.80888	14497.65
3056.20519	14470.55
3058.60005	14428.35
3060.99345	14398.25
3063.3854	14374.75
3065.7759	14318.45
3068.16494	14336.65
3070.55254	14266.95
3072.93868	14248.55
3075.32338	14215.05
3077.70662	14198.95
3080.08842	14154.45
3082.46878	14130.45
3084.84769	14113.25
3087.22515	14083.65
3089.60118	14102.15
3091.97576	14078.85
3094.3489	14046.05
3096.72061	14046.15
3099.09087	14018.75
3101.4597	13999.35
3103.82709	13998.25
3106.19305	13950.75
3108.55757	13955.75
3110.92066	13899.55
3113.28232	13885.65
3115.64255	13815.15
3118.00134	13821.65
3120.35871	13815.95
3122.71466	13789.45
3125.06917	13736.85
3127.42226	13736.15
3129.77393	13745.55
3132.12417	13721.25
3134.47299	13728.05
3136.82039	13734.65
3139.16636	13716.05
3141.51092	13693.05
3143.85406	13715.15
3146.19579	13703.65
3148.53609	13717.05
3150.87499	13716.65
3153.21246	13709.45
3155.54853	13705.95
3157.88318	13711.75
3160.21642	13700.85
3162.54826	13710.25
3164.87868	13681.85
3167.2077	13676.75
3169.5353	13684.25
3171.86151	13674.15
3174.18631	13659.55
3176.5097	13661.25
3178.83169	13619.85
3181.15228	13645.95
3183.47147	13610.25
3185.78926	13581.35
3188.10565	13585.35
3190.42065	13603.05
3192.73424	13588.95
3195.04645	13581.05
3197.35725	13612.85
3199.66667	13583.85
3201.97469	13605.45
3204.28132	13606.25
3206.58656	13613.95
3208.8904	13614.35
3211.19287	13613.85
3213.49394	13619.25
3215.79363	13614.45
3218.09193	13639.75
3220.38884	13636.15
3222.68438	13604.85
3224.97853	13620.85
3227.2713	13597.75
3229.56269	13584.45
3231.8527	13559.35
3234.14133	13542.65
3236.42858	13509.45
3238.71446	13492.35
