Data from AgNPs_FTO_APTES_UA_2uM_CRN_100uM_R6G_10uM_NaF_0.1M_Addition_RamanShift__20__16-01-25-327.txt Node

Date: Wed Feb 02 16:01:25 GMT 2022
User: TCL
Spectrometer: QEP01345
Trigger mode: 4
Integration Time (sec): 7.000000E0
Scans to average: 10
Electric dark correction enabled: true
Nonlinearity correction enabled: false
Boxcar width: 0
XAxis mode: Raman Shifts
Number of Pixels in Spectrum: 1044
>>>>>Begin Spectral Data<<<<<
46.04893	0.075
50.45542	1.075
54.85868	-0.525
59.25871	-0.425
63.6555	70.175
68.04907	77.175
72.43941	77.775
76.82654	84.675
81.21044	90.475
85.59113	94.175
89.96862	96.875
94.34289	101.075
98.71396	106.275
103.08183	109.175
107.4465	111.475
111.80798	114.275
116.16626	114.775
120.52136	119.675
124.87327	118.475
129.222	129.775
133.56755	135.675
137.90993	139.775
142.24913	155.675
146.58517	174.975
150.91804	202.475
155.24774	237.375
159.57429	292.375
163.89768	368.975
168.21792	482.275
172.53501	652.875
176.84895	898.475
181.15975	1262.775
185.46741	1771.175
189.77193	2431.375
194.07331	3273.075
198.37157	4194.275
202.6667	5183.575
206.9587	6166.375
211.24758	7103.675
215.53334	8067.775
219.81599	9076.575
224.09553	10218.275
228.37195	11430.275
232.64527	12757.875
236.91549	14163.275
241.18261	15565.875
245.44663	16930.675
249.70755	18178.075
253.96539	19264.475
258.22014	20202.175
262.4718	20998.675
266.72039	21556.375
270.96589	21929.175
275.20832	22057.275
279.44768	22115.475
283.68397	22084.975
287.91719	22117.875
292.14735	22170.675
296.37445	22333.275
300.59849	22377.275
304.81948	22294.575
309.03742	22036.975
313.25231	21547.875
317.46415	20898.575
321.67296	20159.275
325.87872	19583.675
330.08145	19244.075
334.28114	19184.675
338.47781	19230.975
342.67145	19441.375
346.86207	19670.175
351.04966	19971.675
355.23424	20269.375
359.4158	20509.575
363.59435	20653.375
367.76989	20731.375
371.94243	20845.375
376.11196	20960.575
380.27849	21068.175
384.44203	21252.175
388.60257	21481.875
392.76012	21724.675
396.91468	22006.375
401.06626	22383.575
405.21485	22572.975
409.36047	22511.275
413.50311	22255.175
417.64277	22025.275
421.77947	22008.075
425.9132	22090.775
430.04396	22341.175
434.17176	22482.275
438.2966	22726.475
442.41849	23094.475
446.53742	23753.175
450.6534	24476.175
454.76644	25130.375
458.87653	25404.275
462.98368	25380.275
467.08789	25297.375
471.18916	25081.075
475.2875	25096.375
479.38291	25247.375
483.4754	25239.175
487.56496	24813.575
491.6516	24089.775
495.73531	23418.575
499.81612	23028.375
503.89401	22963.475
507.96899	22942.375
512.04106	22807.375
516.11023	22521.775
520.1765	22151.175
524.23987	21892.775
528.30034	21650.875
532.35792	21418.375
536.41261	21267.875
540.46441	21160.175
544.51333	21259.075
548.55936	21681.775
552.60252	22269.375
556.64279	22954.675
560.6802	23486.375
564.71473	23818.375
568.7464	24344.575
572.7752	25002.575
576.80114	25496.075
580.82422	25789.875
584.84444	26026.375
588.86181	26307.975
592.87633	26621.075
596.888	26821.175
600.89682	26775.675
604.9028	27118.275
608.90594	28341.975
612.90624	29347.075
616.90371	27236.875
620.89834	23274.675
624.89015	21601.775
628.87913	21534.375
632.86528	21791.275
636.84862	21880.975
640.82913	21630.075
644.80683	21000.075
648.78172	20477.675
652.75379	20270.475
656.72306	20301.975
660.68952	20511.075
664.65319	20446.175
668.61405	20188.175
672.57211	20111.775
676.52738	20187.975
680.47986	20218.875
684.42955	20184.475
688.37646	20064.275
692.32058	20097.775
696.26192	20282.975
700.20048	20478.275
704.13626	20647.575
708.06928	20693.975
711.99952	20615.875
715.927	20539.775
719.85171	20527.175
723.77365	20484.575
727.69284	20262.975
731.60928	20123.975
735.52295	20051.175
739.43388	19997.875
743.34206	20040.075
747.24749	20147.475
751.15017	20351.475
755.05012	20783.175
758.94733	21532.375
762.8418	22709.375
766.73354	24368.475
770.62254	25791.375
774.50882	25888.175
778.39237	24404.975
782.27321	22564.175
786.15132	21074.375
790.02671	20233.575
793.89938	19814.375
797.76935	19651.675
801.6366	19662.075
805.50115	19647.575
809.36299	19547.775
813.22213	19430.075
817.07857	19398.075
820.93231	19393.075
824.78336	19250.275
828.63172	19132.575
832.47738	19059.875
836.32036	19081.075
840.16066	19058.675
843.99827	19046.475
847.8332	19001.475
851.66546	18875.275
855.49504	18858.375
859.32195	18837.275
863.1462	18783.275
866.96777	18716.875
870.78668	18668.075
874.60293	18658.675
878.41652	18679.975
882.22745	18717.075
886.03573	18744.675
889.84136	18748.275
893.64433	18705.975
897.44466	18601.675
901.24235	18555.275
905.0374	18458.775
908.8298	18451.675
912.61957	18535.975
916.40671	18783.175
920.19121	19043.775
923.97308	19272.375
927.75233	19188.375
931.52895	18957.775
935.30295	18677.475
939.07433	18300.975
942.84309	18004.575
946.60924	17817.175
950.37278	17737.375
954.13371	17723.475
957.89203	17747.475
961.64774	17797.275
965.40086	17767.275
969.15137	17645.675
972.89929	17506.075
976.64461	17381.475
980.38733	17303.775
984.12747	17341.575
987.86502	17462.075
991.59999	17631.275
995.33237	17862.075
999.06217	18252.275
1002.78939	18783.175
1006.51404	19060.975
1010.23611	19257.975
1013.95561	19432.375
1017.67255	19467.375
1021.38692	19334.075
1025.09872	19061.575
1028.80796	18994.975
1032.51465	19190.075
1036.21877	19486.075
1039.92035	19573.575
1043.61937	19479.275
1047.31584	19292.575
1051.00976	19102.475
1054.70114	19081.575
1058.38998	19209.275
1062.07627	19494.975
1065.76003	19736.475
1069.44126	19984.375
1073.11995	20184.275
1076.79611	20378.375
1080.46974	20397.175
1084.14085	20473.375
1087.80943	20627.675
1091.47549	20849.575
1095.13903	20955.975
1098.80005	20833.675
1102.45857	20344.975
1106.11456	19872.275
1109.76805	19698.475
1113.41903	19733.075
1117.06751	19876.775
1120.71348	20118.275
1124.35696	20317.175
1127.99793	20583.275
1131.63641	20812.275
1135.2724	20721.775
1138.90589	20635.075
1142.5369	20678.675
1146.16542	20863.175
1149.79145	21185.375
1153.415	21586.475
1157.03607	22110.075
1160.65467	22848.775
1164.27079	23933.475
1167.88443	25345.975
1171.49561	27029.075
1175.10432	29080.875
1178.71056	31623.775
1182.31434	33943.575
1185.91565	35235.775
1189.51451	35448.975
1193.11091	34904.575
1196.70485	33917.675
1200.29634	32592.775
1203.88538	31408.575
1207.47197	30681.575
1211.05612	30192.675
1214.63782	29557.475
1218.21708	28729.575
1221.79391	27946.975
1225.36829	27309.575
1228.94024	26723.775
1232.50976	26200.075
1236.07685	25773.075
1239.6415	25586.975
1243.20374	25612.375
1246.76355	25756.075
1250.32093	26139.975
1253.8759	26705.375
1257.42845	27493.575
1260.97859	28241.775
1264.52631	28965.475
1268.07163	29701.475
1271.61453	30579.375
1275.15503	31581.675
1278.69312	32682.475
1282.22882	33781.075
1285.76211	34970.075
1289.29301	36432.475
1292.82151	38417.275
1296.34761	40912.875
1299.87133	43618.975
1303.39266	46285.775
1306.9116	48638.675
1310.42815	50691.575
1313.94233	52111.875
1317.45412	52546.675
1320.96354	52469.375
1324.47058	52390.275
1327.97525	52299.775
1331.47754	52242.075
1334.97747	52175.375
1338.47502	52146.675
1341.97022	51775.575
1345.46305	50773.475
1348.95352	49127.575
1352.44163	47455.975
1355.92738	46509.075
1359.41078	46612.875
1362.89183	46951.675
1366.37053	46051.575
1369.84688	43084.175
1373.32088	39436.675
1376.79254	36903.675
1380.26186	36097.675
1383.72883	36467.275
1387.19347	37184.675
1390.65578	37624.375
1394.11575	38182.975
1397.57339	39080.875
1401.0287	40248.175
1404.48168	41232.375
1407.93234	41195.275
1411.38068	40234.875
1414.82669	38382.175
1418.27039	35993.075
1421.71177	33672.675
1425.15083	31778.175
1428.58758	30686.775
1432.02203	30516.875
1435.45416	31138.075
1438.88399	32229.975
1442.31151	33390.375
1445.73673	34361.375
1449.15965	35322.275
1452.58027	36230.375
1455.9986	36861.575
1459.41463	37402.575
1462.82837	38025.375
1466.23982	38589.575
1469.64898	38992.275
1473.05586	39053.675
1476.46045	38786.075
1479.86276	38105.775
1483.26279	37226.975
1486.66054	36509.975
1490.05602	36170.875
1493.44922	35974.175
1496.84016	35965.275
1500.22882	36157.375
1503.61521	36798.475
1506.99934	37669.675
1510.38121	38600.675
1513.76081	38987.475
1517.13816	38655.475
1520.51324	37830.875
1523.88607	37146.175
1527.25665	36915.275
1530.62498	36946.175
1533.99105	37067.675
1537.35488	36973.975
1540.71647	36555.175
1544.07581	35711.475
1547.4329	34765.775
1550.78776	33812.075
1554.14038	33249.875
1557.49077	32946.475
1560.83892	32798.675
1564.18484	32772.675
1567.52853	32741.575
1570.86999	32865.275
1574.20922	33451.675
1577.54624	34155.975
1580.88103	34792.875
1584.2136	35594.475
1587.54395	36957.175
1590.87208	38825.675
1594.19801	40909.975
1597.52172	42863.775
1600.84321	43235.575
1604.16251	41326.775
1607.47959	37987.075
1610.79447	34375.075
1614.10715	31006.975
1617.41763	28277.775
1620.7259	26320.575
1624.03199	25239.975
1627.33587	25078.075
1630.63757	25781.975
1633.93707	27550.875
1637.23439	30553.775
1640.52951	34705.675
1643.82246	39365.575
1647.11321	42967.175
1650.40179	43713.875
1653.68819	40945.475
1656.97241	35798.775
1660.25446	30324.075
1663.53433	25958.775
1666.81203	22917.675
1670.08756	20936.575
1673.36092	19646.775
1676.63211	18834.075
1679.90115	18261.375
1683.16801	17839.075
1686.43272	17557.375
1689.69527	17332.675
1692.95567	17143.375
1696.2139	17058.175
1699.46999	16931.875
1702.72392	16838.675
1705.97571	16722.475
1709.22535	16629.575
1712.47284	16577.575
1715.71819	16491.675
1718.96139	16441.775
1722.20246	16377.175
1725.44139	16313.575
1728.67818	16214.375
1731.91284	16106.275
1735.14537	15996.675
1738.37576	15965.675
1741.60403	15876.575
1744.83017	15880.475
1748.05418	15838.075
1751.27607	15842.575
1754.49584	15792.675
1757.71349	15773.775
1760.92903	15741.375
1764.14244	15734.975
1767.35375	15699.875
1770.56294	15627.875
1773.77002	15551.775
1776.97499	15532.975
1780.17785	15490.975
1783.37861	15438.175
1786.57727	15408.575
1789.77382	15352.475
1792.96828	15350.975
1796.16064	15295.475
1799.3509	15237.475
1802.53907	15218.575
1805.72514	15129.075
1808.90913	15122.275
1812.09102	15121.275
1815.27083	15088.475
1818.44856	15046.475
1821.6242	15023.875
1824.79776	15029.775
1827.96924	14993.975
1831.13864	14960.175
1834.30597	14979.375
1837.47122	15013.775
1840.6344	14979.075
1843.7955	14980.175
1846.95454	14959.175
1850.11151	14995.075
1853.26642	14978.275
1856.41926	14984.675
1859.57004	14982.075
1862.71876	14912.875
1865.86542	14935.475
1869.01003	14908.775
1872.15258	14884.575
1875.29308	14895.375
1878.43152	14895.875
1881.56792	14883.475
1884.70227	14824.675
1887.83457	14863.275
1890.96482	14839.475
1894.09304	14834.775
1897.21921	14808.175
1900.34335	14786.675
1903.46544	14773.075
1906.58551	14764.675
1909.70353	14787.075
1912.81953	14727.275
1915.93349	14699.475
1919.04543	14665.875
1922.15534	14652.875
1925.26322	14606.975
1928.36908	14577.475
1931.47292	14494.375
1934.57473	14492.375
1937.67453	14452.375
1940.77232	14380.675
1943.86808	14349.375
1946.96184	14327.175
1950.05358	14236.675
1953.14331	14227.375
1956.23103	14179.475
1959.31675	14130.975
1962.40046	14080.975
1965.48217	14040.175
1968.56188	13957.675
1971.63959	13929.075
1974.7153	13913.375
1977.78901	13869.075
1980.86073	13828.675
1983.93046	13765.175
1986.99819	13717.275
1990.06394	13698.575
1993.1277	13650.875
1996.18947	13579.475
1999.24925	13561.075
2002.30706	13511.175
2005.36288	13463.375
2008.41672	13465.375
2011.46859	13395.375
2014.51848	13379.175
2017.56639	13338.375
2020.61233	13266.375
2023.6563	13277.175
2026.6983	13237.575
2029.73833	13243.675
2032.7764	13189.675
2035.8125	13162.875
2038.84664	13167.475
2041.87881	13168.675
2044.90903	13118.675
2047.93729	13100.875
2050.96359	13090.475
2053.98794	13081.775
2057.01034	13071.575
2060.03078	13069.575
2063.04927	13062.675
2066.06582	13038.975
2069.08042	13018.875
2072.09307	13014.275
2075.10378	12979.475
2078.11255	12952.875
2081.11938	12960.275
2084.12426	12942.475
2087.12722	12964.675
2090.12824	12945.075
2093.12732	12968.575
2096.12447	12951.175
2099.11969	12947.975
2102.11299	12968.375
2105.10435	12984.775
2108.09379	12962.975
2111.08131	12972.075
2114.0669	12946.875
2117.05057	12958.675
2120.03233	12982.075
2123.01216	12985.075
2125.99008	13000.775
2128.96609	12977.275
2131.94018	12978.375
2134.91236	12991.075
2137.88263	13000.575
2140.851	12998.675
2143.81746	13035.775
2146.78201	13045.575
2149.74466	13034.575
2152.7054	13000.175
2155.66425	13045.975
2158.6212	13026.375
2161.57625	13003.075
2164.52941	12989.775
2167.48067	13007.575
2170.43004	12963.275
2173.37752	12953.575
2176.32311	12958.975
2179.26681	12970.075
2182.20863	12964.075
2185.14856	12969.275
2188.08661	12964.675
2191.02278	12973.375
2193.95707	12940.775
2196.88948	12952.675
2199.82001	12930.475
2202.74867	12942.975
2205.67545	12913.275
2208.60037	12888.575
2211.52341	12857.375
2214.44458	12868.275
2217.36388	12836.975
2220.28132	12835.175
2223.1969	12817.475
2226.11061	12791.275
2229.02246	12760.675
2231.93245	12726.175
2234.84058	12699.075
2237.74686	12659.975
2240.65128	12667.675
2243.55385	12647.775
2246.45456	12623.375
2249.35343	12610.075
2252.25044	12562.775
2255.14561	12585.675
2258.03893	12580.275
2260.93041	12529.075
2263.82004	12491.075
2266.70783	12481.175
2269.59378	12400.775
2272.4779	12385.275
2275.36017	12345.275
2278.24061	12339.375
2281.11922	12288.275
2283.996	12311.675
2286.87094	12271.075
2289.74405	12235.175
2292.61534	12253.675
2295.4848	12209.575
2298.35243	12230.475
2301.21824	12214.275
2304.08223	12205.675
2306.94439	12241.575
2309.80474	12218.675
2312.66327	12210.775
2315.51999	12207.675
2318.37489	12207.375
2321.22797	12178.575
2324.07925	12173.675
2326.92871	12168.875
2329.77637	12168.675
2332.62222	12137.575
2335.46626	12151.575
2338.3085	12127.775
2341.14893	12112.375
2343.98756	12124.375
2346.8244	12117.475
2349.65943	12123.075
2352.49267	12134.775
2355.32411	12126.575
2358.15376	12119.775
2360.98161	12106.575
2363.80768	12096.375
2366.63195	12082.475
2369.45444	12055.575
2372.27514	12040.775
2375.09405	12043.775
2377.91118	12013.775
2380.72652	12037.475
2383.54009	11956.275
2386.35187	11958.975
2389.16188	11939.175
2391.97011	11887.975
2394.77657	11877.975
2397.58125	11866.875
2400.38416	11839.175
2403.18529	11846.975
2405.98466	11812.675
2408.78226	11791.075
2411.57809	11772.075
2414.37216	11760.375
2417.16446	11772.675
2419.955	11734.575
2422.74378	11744.175
2425.5308	11727.975
2428.31606	11730.975
2431.09956	11717.875
2433.88131	11692.475
2436.6613	11707.675
2439.43954	11701.575
2442.21603	11704.375
2444.99077	11655.775
2447.76377	11692.375
2450.53501	11674.775
2453.30451	11681.475
2456.07226	11660.475
2458.83827	11663.975
2461.60254	11693.375
2464.36507	11668.375
2467.12586	11701.675
2469.88492	11645.975
2472.64224	11651.775
2475.39782	11681.375
2478.15167	11654.275
2480.90379	11676.175
2483.65417	11675.275
2486.40283	11696.375
2489.14976	11667.975
2491.89497	11682.475
2494.63845	11743.575
2497.3802	11666.775
2500.12024	11690.575
2502.85855	11678.575
2505.59514	11700.975
2508.33002	11700.775
2511.06318	11707.675
2513.79462	11673.075
2516.52435	11688.575
2519.25237	11684.975
2521.97867	11672.475
2524.70327	11652.775
2527.42616	11620.775
2530.14734	11647.575
2532.86681	11624.075
2535.58458	11643.875
2538.30065	11613.375
2541.01501	11607.075
2543.72768	11577.975
2546.43864	11553.675
2549.14791	11552.775
2551.85548	11563.375
2554.56136	11537.975
2557.26554	11537.775
2559.96803	11527.775
2562.66883	11525.075
2565.36794	11509.575
2568.06536	11515.375
2570.7611	11508.375
2573.45514	11497.775
2576.14751	11503.975
2578.83819	11477.575
2581.52719	11483.175
2584.21451	11469.775
2586.90015	11488.975
2589.58411	11489.875
2592.2664	11473.475
2594.94701	11471.675
2597.62594	11471.875
2600.30321	11458.975
2602.9788	11445.675
2605.65273	11437.775
2608.32498	11453.875
2610.99557	11468.575
2613.66449	11457.175
2616.33175	11473.275
2618.99734	11453.175
2621.66128	11451.775
2624.32355	11450.775
2626.98416	11473.475
2629.64311	11474.375
2632.30041	11486.375
2634.95605	11476.775
2637.61004	11443.175
2640.26238	11458.175
2642.91306	11421.875
2645.56209	11467.475
2648.20948	11446.375
2650.85521	11438.275
2653.4993	11423.475
2656.14175	11450.675
2658.78255	11456.875
2661.42171	11447.975
2664.05923	11486.775
2666.6951	11499.775
2669.32934	11492.375
2671.96194	11499.875
2674.59291	11465.775
2677.22224	11474.975
2679.84993	11493.375
2682.476	11489.775
2685.10043	11456.775
2687.72324	11456.175
2690.34441	11458.375
2692.96396	11466.275
2695.58188	11431.275
2698.19818	11455.475
2700.81285	11459.575
2703.4259	11494.475
2706.03733	11511.075
2708.64714	11495.975
2711.25533	11480.875
2713.86191	11481.375
2716.46687	11510.975
2719.07021	11525.375
2721.67194	11532.375
2724.27206	11500.075
2726.87057	11558.575
2729.46747	11561.975
2732.06276	11575.275
2734.65644	11558.275
2737.24852	11553.075
2739.83899	11530.475
2742.42786	11548.175
2745.01513	11533.475
2747.60079	11519.475
2750.18486	11510.975
2752.76733	11524.275
2755.3482	11530.375
2757.92747	11573.975
2760.50515	11557.375
2763.08123	11569.975
2765.65573	11562.675
2768.22863	11555.175
2770.79994	11535.875
2773.36967	11566.675
2775.9378	11539.775
2778.50435	11580.575
2781.06932	11552.575
2783.6327	11547.975
2786.1945	11554.375
2788.75471	11548.475
2791.31335	11531.175
2793.87041	11509.075
2796.42589	11506.375
2798.97979	11518.275
2801.53212	11492.275
2804.08288	11475.675
2806.63206	11449.175
2809.17967	11439.875
2811.72571	11402.275
2814.27018	11369.775
2816.81308	11387.575
2819.35442	11362.075
2821.89419	11330.675
2824.43239	11334.775
2826.96904	11310.375
2829.50412	11306.175
2832.03763	11295.475
2834.56959	11287.975
2837.1	11314.175
2839.62884	11278.275
2842.15613	11271.275
2844.68186	11335.075
2847.20604	11329.875
2849.72867	11343.875
2852.24974	11341.575
2854.76927	11346.475
2857.28724	11336.475
2859.80367	11292.075
2862.31855	11295.575
2864.83189	11300.575
2867.34368	11282.075
2869.85393	11285.975
2872.36264	11274.275
2874.8698	11274.775
2877.37543	11280.875
2879.87952	11295.375
2882.38207	11285.375
2884.88308	11311.575
2887.38256	11321.375
2889.88051	11281.375
2892.37692	11292.575
2894.8718	11307.375
2897.36515	11322.375
2899.85698	11322.375
2902.34727	11362.375
2904.83604	11375.175
2907.32328	11405.475
2909.809	11388.275
2912.29319	11361.075
2914.77587	11384.675
2917.25702	11382.275
2919.73665	11381.975
2922.21476	11388.975
2924.69136	11372.175
2927.16644	11427.075
2929.64	11405.175
2932.11205	11388.575
2934.58258	11361.175
2937.05161	11381.775
2939.51912	11388.975
2941.98513	11346.575
2944.44962	11313.075
2946.91261	11239.775
2949.37409	11281.775
2951.83407	11245.575
2954.29254	11212.975
2956.74951	11212.175
2959.20498	11198.075
2961.65895	11174.575
2964.11142	11175.375
2966.56239	11136.175
2969.01186	11136.175
2971.45984	11110.175
2973.90632	11083.175
2976.35131	11000.675
2978.7948	11001.675
2981.23681	10987.475
2983.67732	10952.875
2986.11635	10925.375
2988.55388	10898.675
2990.98993	10879.275
2993.4245	10859.175
2995.85758	10858.675
2998.28917	10839.875
3000.71928	10807.275
3003.14791	10762.275
3005.57506	10741.675
3008.00073	10724.475
3010.42493	10698.375
3012.84764	10679.475
3015.26888	10705.875
3017.68865	10637.375
3020.10694	10657.875
3022.52376	10650.375
3024.9391	10599.275
3027.35298	10601.875
3029.76539	10565.675
3032.17632	10589.075
3034.5858	10567.175
3036.9938	10568.375
3039.40034	10569.075
3041.80542	10563.075
3044.20903	10535.175
3046.61118	10549.775
3049.01187	10507.275
3051.4111	10498.275
3053.80888	10447.575
3056.20519	10449.075
3058.60005	10409.675
3060.99345	10392.375
3063.3854	10347.575
3065.7759	10328.975
3068.16494	10316.075
3070.55254	10268.475
3072.93868	10273.475
3075.32338	10234.375
3077.70662	10200.575
3080.08842	10151.775
3082.46878	10167.775
3084.84769	10150.975
3087.22515	10168.475
3089.60118	10151.975
3091.97576	10140.875
3094.3489	10129.775
3096.72061	10122.675
3099.09087	10120.575
3101.4597	10116.375
3103.82709	10101.475
3106.19305	10096.275
3108.55757	10077.575
3110.92066	10024.775
3113.28232	10021.875
3115.64255	9971.275
3118.00134	9957.875
3120.35871	9940.375
3122.71466	9920.675
3125.06917	9923.475
3127.42226	9911.375
