Data from AgNPs_FTO_APTES_UA_2uM_CRN_0uM_R6G_10uM_NaF_0.1M_Addition_RamanShift__28__10-37-04-949.txt Node

Date: Wed Feb 02 10:37:04 GMT 2022
User: TCL
Spectrometer: QEP01345
Trigger mode: 4
Integration Time (sec): 7.000000E0
Scans to average: 10
Electric dark correction enabled: true
Nonlinearity correction enabled: false
Boxcar width: 0
XAxis mode: Raman Shifts
Number of Pixels in Spectrum: 1044
>>>>>Begin Spectral Data<<<<<
46.04893	1.7625
50.45542	0.4625
54.85868	-0.1375
59.25871	0.2625
63.6555	25.1625
68.04907	29.6625
72.43941	31.4625
76.82654	36.4625
81.21044	39.5625
85.59113	43.3625
89.96862	44.0625
94.34289	44.6625
98.71396	46.5625
103.08183	49.7625
107.4465	49.1625
111.80798	47.2625
116.16626	46.3625
120.52136	47.9625
124.87327	47.7625
129.222	45.7625
133.56755	49.1625
137.90993	46.9625
142.24913	52.3625
146.58517	56.8625
150.91804	59.1625
155.24774	69.3625
159.57429	78.0625
163.89768	87.5625
168.21792	111.9625
172.53501	142.4625
176.84895	184.7625
181.15975	246.8625
185.46741	339.1625
189.77193	452.7625
194.07331	600.8625
198.37157	758.4625
202.6667	925.7625
206.9587	1092.4625
211.24758	1248.9625
215.53334	1409.8625
219.81599	1572.4625
224.09553	1762.0625
228.37195	1966.0625
232.64527	2210.5625
236.91549	2441.6625
241.18261	2659.9625
245.44663	2871.8625
249.70755	3040.5625
253.96539	3141.2625
258.22014	3260.7625
262.4718	3333.5625
266.72039	3359.4625
270.96589	3380.7625
275.20832	3358.8625
279.44768	3302.2625
283.68397	3224.7625
287.91719	3156.3625
292.14735	3110.4625
296.37445	3121.8625
300.59849	3200.8625
304.81948	3292.4625
309.03742	3373.8625
313.25231	3337.9625
317.46415	3193.1625
321.67296	2981.0625
325.87872	2785.8625
330.08145	2695.7625
334.28114	2676.1625
338.47781	2702.7625
342.67145	2764.5625
346.86207	2885.6625
351.04966	3053.4625
355.23424	3253.8625
359.4158	3421.3625
363.59435	3499.2625
367.76989	3549.4625
371.94243	3559.9625
376.11196	3560.3625
380.27849	3550.0625
384.44203	3496.1625
388.60257	3442.1625
392.76012	3388.7625
396.91468	3385.2625
401.06626	3463.9625
405.21485	3520.8625
409.36047	3467.4625
413.50311	3325.2625
417.64277	3206.6625
421.77947	3136.8625
425.9132	3069.6625
430.04396	3048.3625
434.17176	3054.4625
438.2966	3110.1625
442.41849	3204.0625
446.53742	3308.2625
450.6534	3400.2625
454.76644	3487.3625
458.87653	3481.5625
462.98368	3451.4625
467.08789	3378.9625
471.18916	3297.2625
475.2875	3229.2625
479.38291	3145.7625
483.4754	3094.8625
487.56496	3067.1625
491.6516	3056.5625
495.73531	3039.1625
499.81612	3035.7625
503.89401	3045.8625
507.96899	3106.5625
512.04106	3169.8625
516.11023	3244.6625
520.1765	3323.3625
524.23987	3320.0625
528.30034	3238.9625
532.35792	3156.1625
536.41261	3056.6625
540.46441	2975.1625
544.51333	2935.4625
548.55936	2945.0625
552.60252	2986.7625
556.64279	3040.7625
560.6802	3085.6625
564.71473	3106.1625
568.7464	3162.8625
572.7752	3223.1625
576.80114	3115.5625
580.82422	2995.7625
584.84444	2955.7625
588.86181	2975.9625
592.87633	3019.9625
596.888	3053.0625
600.89682	3155.0625
604.9028	3438.8625
608.90594	4261.2625
612.90624	5457.6625
616.90371	5455.5625
620.89834	4004.9625
624.89015	3219.1625
628.87913	3023.3625
632.86528	2969.2625
636.84862	2985.3625
640.82913	2968.3625
644.80683	2885.2625
648.78172	2828.1625
652.75379	2894.1625
656.72306	3076.3625
660.68952	3233.9625
664.65319	3161.1625
668.61405	2924.4625
672.57211	2804.5625
676.52738	2803.8625
680.47986	2805.4625
684.42955	2801.2625
688.37646	2816.3625
692.32058	2861.5625
696.26192	2902.4625
700.20048	3013.0625
704.13626	3073.9625
708.06928	3061.9625
711.99952	2991.2625
715.927	2924.4625
719.85171	2903.6625
723.77365	2898.5625
727.69284	2879.5625
731.60928	2866.1625
735.52295	2861.9625
739.43388	2868.8625
743.34206	2878.2625
747.24749	2878.4625
751.15017	2887.5625
755.05012	2937.7625
758.94733	3049.2625
762.8418	3301.9625
766.73354	3721.1625
770.62254	4284.1625
774.50882	4685.2625
778.39237	4618.2625
782.27321	4084.3625
786.15132	3496.3625
790.02671	3169.9625
793.89938	3056.2625
797.76935	3009.3625
801.6366	3007.3625
805.50115	2995.1625
809.36299	2998.9625
813.22213	2992.4625
817.07857	2982.6625
820.93231	2980.6625
824.78336	2961.3625
828.63172	2966.4625
832.47738	2971.2625
836.32036	2965.2625
840.16066	2973.9625
843.99827	2936.8625
847.8332	2925.3625
851.66546	2939.4625
855.49504	2947.0625
859.32195	2918.0625
863.1462	2867.5625
866.96777	2836.0625
870.78668	2822.9625
874.60293	2837.9625
878.41652	2845.0625
882.22745	2861.6625
886.03573	2886.0625
889.84136	2878.7625
893.64433	2885.8625
897.44466	2870.6625
901.24235	2867.0625
905.0374	2851.5625
908.8298	2848.4625
912.61957	2848.6625
916.40671	2886.3625
920.19121	2926.2625
923.97308	2952.1625
927.75233	2972.6625
931.52895	3011.4625
935.30295	2994.0625
939.07433	2914.6625
942.84309	2827.7625
946.60924	2779.2625
950.37278	2734.8625
954.13371	2704.3625
957.89203	2667.0625
961.64774	2642.8625
965.40086	2620.8625
969.15137	2596.3625
972.89929	2584.4625
976.64461	2579.8625
980.38733	2561.7625
984.12747	2570.0625
987.86502	2567.5625
991.59999	2564.1625
995.33237	2578.8625
999.06217	2618.7625
1002.78939	2649.2625
1006.51404	2681.9625
1010.23611	2716.5625
1013.95561	2761.2625
1017.67255	2757.9625
1021.38692	2725.1625
1025.09872	2708.9625
1028.80796	2702.8625
1032.51465	2746.0625
1036.21877	2859.2625
1039.92035	3015.5625
1043.61937	3100.3625
1047.31584	3032.4625
1051.00976	2946.6625
1054.70114	2857.7625
1058.38998	2773.1625
1062.07627	2729.6625
1065.76003	2703.8625
1069.44126	2683.5625
1073.11995	2707.8625
1076.79611	2778.7625
1080.46974	2831.8625
1084.14085	2893.9625
1087.80943	2935.9625
1091.47549	2927.6625
1095.13903	2850.8625
1098.80005	2721.4625
1102.45857	2622.8625
1106.11456	2604.2625
1109.76805	2663.7625
1113.41903	2715.7625
1117.06751	2817.7625
1120.71348	2948.5625
1124.35696	3099.1625
1127.99793	3215.2625
1131.63641	3217.5625
1135.2724	3042.7625
1138.90589	2863.7625
1142.5369	2744.9625
1146.16542	2673.9625
1149.79145	2626.7625
1153.415	2617.5625
1157.03607	2652.4625
1160.65467	2728.1625
1164.27079	2827.2625
1167.88443	2972.0625
1171.49561	3197.5625
1175.10432	3594.1625
1178.71056	4116.9625
1182.31434	4514.4625
1185.91565	4644.4625
1189.51451	4561.3625
1193.11091	4355.0625
1196.70485	4044.4625
1200.29634	3783.1625
1203.88538	3547.4625
1207.47197	3269.4625
1211.05612	3058.2625
1214.63782	2918.0625
1218.21708	2865.4625
1221.79391	2837.9625
1225.36829	2833.9625
1228.94024	2814.2625
1232.50976	2815.8625
1236.07685	2825.6625
1239.6415	2868.9625
1243.20374	2885.5625
1246.76355	2915.4625
1250.32093	2985.5625
1253.8759	3076.4625
1257.42845	3194.4625
1260.97859	3318.5625
1264.52631	3443.7625
1268.07163	3572.9625
1271.61453	3657.1625
1275.15503	3687.6625
1278.69312	3669.1625
1282.22882	3676.5625
1285.76211	3725.8625
1289.29301	3838.9625
1292.82151	3971.7625
1296.34761	4136.4625
1299.87133	4301.9625
1303.39266	4574.0625
1306.9116	5003.8625
1310.42815	5504.5625
1313.94233	5755.6625
1317.45412	5625.4625
1320.96354	5190.9625
1324.47058	4687.7625
1327.97525	4283.3625
1331.47754	4031.6625
1334.97747	3943.2625
1338.47502	3946.8625
1341.97022	4010.6625
1345.46305	4182.8625
1348.95352	4522.5625
1352.44163	5055.5625
1355.92738	5777.1625
1359.41078	6690.6625
1362.89183	7514.2625
1366.37053	7477.8625
1369.84688	6479.8625
1373.32088	5373.5625
1376.79254	4596.9625
1380.26186	4143.5625
1383.72883	3907.4625
1387.19347	3691.8625
1390.65578	3460.6625
1394.11575	3288.8625
1397.57339	3156.8625
1401.0287	3105.5625
1404.48168	3099.9625
1407.93234	3075.4625
1411.38068	3075.4625
1414.82669	3072.2625
1418.27039	3082.9625
1421.71177	3086.1625
1425.15083	3088.7625
1428.58758	3132.4625
1432.02203	3162.8625
1435.45416	3230.6625
1438.88399	3263.1625
1442.31151	3245.2625
1445.73673	3214.8625
1449.15965	3175.4625
1452.58027	3115.8625
1455.9986	3040.4625
1459.41463	2981.3625
1462.82837	2977.3625
1466.23982	3009.0625
1469.64898	3050.5625
1473.05586	3093.5625
1476.46045	3119.6625
1479.86276	3160.1625
1483.26279	3208.8625
1486.66054	3244.0625
1490.05602	3293.4625
1493.44922	3402.6625
1496.84016	3612.6625
1500.22882	4006.7625
1503.61521	4570.9625
1506.99934	5215.6625
1510.38121	5849.8625
1513.76081	6197.1625
1517.13816	5900.9625
1520.51324	5117.9625
1523.88607	4310.1625
1527.25665	3771.7625
1530.62498	3486.0625
1533.99105	3357.9625
1537.35488	3277.7625
1540.71647	3207.6625
1544.07581	3183.4625
1547.4329	3180.3625
1550.78776	3164.3625
1554.14038	3162.5625
1557.49077	3189.6625
1560.83892	3251.8625
1564.18484	3349.8625
1567.52853	3506.8625
1570.86999	3704.5625
1574.20922	3876.0625
1577.54624	3916.8625
1580.88103	3710.4625
1584.2136	3390.4625
1587.54395	3183.0625
1590.87208	3180.7625
1594.19801	3327.2625
1597.52172	3547.3625
1600.84321	3649.3625
1604.16251	3499.4625
1607.47959	3272.7625
1610.79447	3031.7625
1614.10715	2806.2625
1617.41763	2653.9625
1620.7259	2535.3625
1624.03199	2498.4625
1627.33587	2497.7625
1630.63757	2520.2625
1633.93707	2580.1625
1637.23439	2698.8625
1640.52951	2884.7625
1643.82246	3179.1625
1647.11321	3569.8625
1650.40179	3907.2625
1653.68819	3897.2625
1656.97241	3472.7625
1660.25446	2909.5625
1663.53433	2496.1625
1666.81203	2280.4625
1670.08756	2150.1625
1673.36092	2071.9625
1676.63211	2007.2625
1679.90115	1978.7625
1683.16801	1939.8625
1686.43272	1918.2625
1689.69527	1899.4625
1692.95567	1870.1625
1696.2139	1870.0625
1699.46999	1855.4625
1702.72392	1832.0625
1705.97571	1819.2625
1709.22535	1797.0625
1712.47284	1798.0625
1715.71819	1789.4625
1718.96139	1796.7625
1722.20246	1794.3625
1725.44139	1791.0625
1728.67818	1762.9625
1731.91284	1727.2625
1735.14537	1688.8625
1738.37576	1658.8625
1741.60403	1635.5625
1744.83017	1618.7625
1748.05418	1607.4625
1751.27607	1593.3625
1754.49584	1587.9625
1757.71349	1579.0625
1760.92903	1573.1625
1764.14244	1571.6625
1767.35375	1556.2625
1770.56294	1549.3625
1773.77002	1544.7625
1776.97499	1525.7625
1780.17785	1516.8625
1783.37861	1510.0625
1786.57727	1504.5625
1789.77382	1501.3625
1792.96828	1501.1625
1796.16064	1486.8625
1799.3509	1483.8625
1802.53907	1488.8625
1805.72514	1476.6625
1808.90913	1456.6625
1812.09102	1455.9625
1815.27083	1450.7625
1818.44856	1439.2625
1821.6242	1442.4625
1824.79776	1441.5625
1827.96924	1425.6625
1831.13864	1428.5625
1834.30597	1426.9625
1837.47122	1414.2625
1840.6344	1406.7625
1843.7955	1409.5625
1846.95454	1405.1625
1850.11151	1409.5625
1853.26642	1407.8625
1856.41926	1397.1625
1859.57004	1392.7625
1862.71876	1393.1625
1865.86542	1381.2625
1869.01003	1384.4625
1872.15258	1380.8625
1875.29308	1377.8625
1878.43152	1380.8625
1881.56792	1373.7625
1884.70227	1376.4625
1887.83457	1362.1625
1890.96482	1372.7625
1894.09304	1363.8625
1897.21921	1366.0625
1900.34335	1364.5625
1903.46544	1355.6625
1906.58551	1352.4625
1909.70353	1355.7625
1912.81953	1361.5625
1915.93349	1360.1625
1919.04543	1347.3625
1922.15534	1343.1625
1925.26322	1337.2625
1928.36908	1340.4625
1931.47292	1338.2625
1934.57473	1324.4625
1937.67453	1321.1625
1940.77232	1310.9625
1943.86808	1308.8625
1946.96184	1308.2625
1950.05358	1299.9625
1953.14331	1301.9625
1956.23103	1284.3625
1959.31675	1286.7625
1962.40046	1286.8625
1965.48217	1278.5625
1968.56188	1274.7625
1971.63959	1276.7625
1974.7153	1280.6625
1977.78901	1265.9625
1980.86073	1255.9625
1983.93046	1251.3625
1986.99819	1252.0625
1990.06394	1249.3625
1993.1277	1246.8625
1996.18947	1238.1625
1999.24925	1229.3625
2002.30706	1224.8625
2005.36288	1217.8625
2008.41672	1220.1625
2011.46859	1212.5625
2014.51848	1205.3625
2017.56639	1202.0625
2020.61233	1190.9625
2023.6563	1189.7625
2026.6983	1187.1625
2029.73833	1183.7625
2032.7764	1178.8625
2035.8125	1182.5625
2038.84664	1170.7625
2041.87881	1176.0625
2044.90903	1157.1625
2047.93729	1166.9625
2050.96359	1171.6625
2053.98794	1159.3625
2057.01034	1160.2625
2060.03078	1157.3625
2063.04927	1157.6625
2066.06582	1166.4625
2069.08042	1159.7625
2072.09307	1164.8625
2075.10378	1156.2625
2078.11255	1162.0625
2081.11938	1150.6625
2084.12426	1161.2625
2087.12722	1155.0625
2090.12824	1153.2625
2093.12732	1162.5625
2096.12447	1166.8625
2099.11969	1163.5625
2102.11299	1171.5625
2105.10435	1162.1625
2108.09379	1165.9625
2111.08131	1167.3625
2114.0669	1154.6625
2117.05057	1145.7625
2120.03233	1155.6625
2123.01216	1147.5625
2125.99008	1143.4625
2128.96609	1138.2625
2131.94018	1146.9625
2134.91236	1146.7625
2137.88263	1137.9625
2140.851	1137.8625
2143.81746	1143.3625
2146.78201	1141.0625
2149.74466	1141.7625
2152.7054	1123.8625
2155.66425	1129.6625
2158.6212	1132.5625
2161.57625	1132.0625
2164.52941	1136.6625
2167.48067	1128.8625
2170.43004	1129.8625
2173.37752	1132.3625
2176.32311	1126.4625
2179.26681	1117.1625
2182.20863	1130.5625
2185.14856	1125.2625
2188.08661	1127.1625
2191.02278	1125.1625
2193.95707	1118.6625
2196.88948	1120.6625
2199.82001	1114.8625
2202.74867	1115.9625
2205.67545	1103.6625
2208.60037	1108.6625
2211.52341	1100.2625
2214.44458	1107.3625
2217.36388	1107.8625
2220.28132	1095.7625
2223.1969	1094.7625
2226.11061	1084.0625
2229.02246	1079.9625
2231.93245	1074.5625
2234.84058	1070.3625
2237.74686	1074.7625
2240.65128	1065.0625
2243.55385	1069.6625
2246.45456	1073.1625
2249.35343	1062.0625
2252.25044	1068.7625
2255.14561	1060.4625
2258.03893	1061.3625
2260.93041	1067.2625
2263.82004	1065.6625
2266.70783	1059.5625
2269.59378	1059.2625
2272.4779	1055.1625
2275.36017	1046.7625
2278.24061	1053.9625
2281.11922	1042.4625
2283.996	1036.7625
2286.87094	1044.7625
2289.74405	1028.4625
2292.61534	1028.1625
2295.4848	1022.4625
2298.35243	1023.0625
2301.21824	1023.3625
2304.08223	1020.8625
2306.94439	1020.1625
2309.80474	1018.8625
2312.66327	1010.9625
2315.51999	1018.0625
2318.37489	1010.5625
2321.22797	1000.1625
2324.07925	1009.5625
2326.92871	1009.5625
2329.77637	1002.3625
2332.62222	1001.6625
2335.46626	1000.8625
2338.3085	1007.6625
2341.14893	996.4625
2343.98756	987.5625
2346.8244	1000.4625
2349.65943	996.6625
2352.49267	1004.6625
2355.32411	993.4625
2358.15376	993.2625
2360.98161	1001.3625
2363.80768	1000.0625
2366.63195	1005.9625
2369.45444	1013.0625
2372.27514	1009.0625
2375.09405	1003.8625
2377.91118	998.5625
2380.72652	995.9625
2383.54009	986.1625
2386.35187	1002.3625
2389.16188	980.3625
2391.97011	976.4625
2394.77657	974.3625
2397.58125	966.3625
2400.38416	974.6625
2403.18529	960.2625
2405.98466	964.1625
2408.78226	962.9625
2411.57809	960.3625
2414.37216	955.9625
2417.16446	955.3625
2419.955	951.9625
2422.74378	949.2625
2425.5308	954.3625
2428.31606	952.6625
2431.09956	950.4625
2433.88131	953.6625
2436.6613	953.6625
2439.43954	951.5625
2442.21603	945.4625
2444.99077	956.0625
2447.76377	952.8625
2450.53501	947.8625
2453.30451	949.4625
2456.07226	952.3625
2458.83827	944.2625
2461.60254	950.5625
2464.36507	947.7625
2467.12586	939.7625
2469.88492	943.0625
2472.64224	942.9625
2475.39782	946.6625
2478.15167	943.9625
2480.90379	935.8625
2483.65417	949.3625
2486.40283	943.7625
2489.14976	946.9625
2491.89497	951.2625
2494.63845	958.5625
2497.3802	954.5625
2500.12024	956.3625
2502.85855	955.6625
2505.59514	952.8625
2508.33002	941.4625
2511.06318	938.7625
2513.79462	933.7625
2516.52435	935.8625
2519.25237	923.6625
2521.97867	923.3625
2524.70327	921.6625
2527.42616	917.2625
2530.14734	921.8625
2532.86681	917.3625
2535.58458	921.0625
2538.30065	923.1625
2541.01501	922.7625
2543.72768	911.0625
2546.43864	915.5625
2549.14791	912.2625
2551.85548	920.2625
2554.56136	919.4625
2557.26554	917.3625
2559.96803	922.9625
2562.66883	924.3625
2565.36794	923.2625
2568.06536	923.9625
2570.7611	924.3625
2573.45514	922.1625
2576.14751	917.7625
2578.83819	914.5625
2581.52719	925.7625
2584.21451	918.1625
2586.90015	922.8625
2589.58411	921.8625
2592.2664	918.5625
2594.94701	919.1625
2597.62594	916.0625
2600.30321	915.2625
2602.9788	920.1625
2605.65273	912.3625
2608.32498	921.0625
2610.99557	925.2625
2613.66449	912.3625
2616.33175	916.3625
2618.99734	914.5625
2621.66128	917.7625
2624.32355	922.7625
2626.98416	915.4625
2629.64311	909.3625
2632.30041	914.2625
2634.95605	918.4625
2637.61004	912.6625
2640.26238	911.3625
2642.91306	908.2625
2645.56209	923.4625
2648.20948	921.2625
2650.85521	914.4625
2653.4993	919.0625
2656.14175	925.8625
2658.78255	928.8625
2661.42171	936.4625
2664.05923	940.0625
2666.6951	938.1625
2669.32934	951.1625
2671.96194	951.4625
2674.59291	959.9625
2677.22224	964.7625
2679.84993	971.3625
2682.476	988.7625
2685.10043	986.6625
2687.72324	996.4625
2690.34441	998.3625
2692.96396	1010.1625
2695.58188	1013.9625
2698.19818	1028.7625
2700.81285	1034.0625
2703.4259	1046.5625
2706.03733	1063.7625
2708.64714	1074.4625
2711.25533	1085.3625
2713.86191	1091.8625
2716.46687	1103.2625
2719.07021	1103.1625
2721.67194	1102.8625
2724.27206	1116.0625
2726.87057	1115.2625
2729.46747	1114.5625
2732.06276	1115.7625
2734.65644	1111.7625
2737.24852	1120.3625
2739.83899	1122.3625
2742.42786	1126.6625
2745.01513	1134.0625
2747.60079	1136.6625
2750.18486	1151.8625
2752.76733	1162.6625
2755.3482	1171.6625
2757.92747	1177.0625
2760.50515	1191.6625
2763.08123	1198.6625
2765.65573	1217.1625
2768.22863	1234.9625
2770.79994	1252.3625
2773.36967	1274.0625
2775.9378	1293.7625
2778.50435	1310.3625
2781.06932	1338.0625
2783.6327	1368.0625
2786.1945	1406.0625
2788.75471	1435.4625
2791.31335	1454.9625
2793.87041	1496.8625
2796.42589	1538.1625
2798.97979	1562.9625
2801.53212	1609.7625
2804.08288	1650.9625
2806.63206	1693.8625
2809.17967	1732.8625
2811.72571	1761.0625
2814.27018	1805.0625
2816.81308	1830.0625
2819.35442	1842.7625
2821.89419	1838.4625
2824.43239	1837.0625
2826.96904	1829.6625
2829.50412	1822.3625
2832.03763	1825.3625
2834.56959	1818.3625
2837.1	1835.5625
2839.62884	1860.0625
2842.15613	1919.0625
2844.68186	2006.1625
2847.20604	2109.5625
2849.72867	2167.9625
2852.24974	2202.6625
2854.76927	2203.7625
2857.28724	2183.3625
2859.80367	2155.2625
2862.31855	2124.0625
2864.83189	2097.2625
2867.34368	2059.8625
2869.85393	2039.4625
2872.36264	2021.7625
2874.8698	2002.4625
2877.37543	1989.8625
2879.87952	1976.1625
2882.38207	1961.6625
2884.88308	1943.9625
2887.38256	1938.3625
2889.88051	1921.9625
2892.37692	1916.0625
2894.8718	1919.0625
2897.36515	1912.8625
2899.85698	1910.7625
2902.34727	1909.4625
2904.83604	1906.6625
2907.32328	1890.5625
2909.809	1898.8625
2912.29319	1882.8625
2914.77587	1871.4625
2917.25702	1861.0625
2919.73665	1862.5625
2922.21476	1850.4625
2924.69136	1828.9625
2927.16644	1817.9625
2929.64	1797.6625
2932.11205	1771.8625
2934.58258	1734.2625
2937.05161	1700.2625
2939.51912	1646.3625
2941.98513	1581.9625
2944.44962	1522.2625
2946.91261	1441.8625
2949.37409	1392.1625
2951.83407	1335.1625
2954.29254	1300.7625
2956.74951	1252.7625
2959.20498	1223.7625
2961.65895	1193.6625
2964.11142	1168.5625
2966.56239	1155.4625
2969.01186	1137.5625
2971.45984	1107.7625
2973.90632	1093.8625
2976.35131	1068.5625
2978.7948	1060.1625
2981.23681	1048.6625
2983.67732	1030.6625
2986.11635	1020.1625
2988.55388	995.0625
2990.98993	989.2625
2993.4245	973.3625
2995.85758	962.7625
2998.28917	945.0625
3000.71928	951.9625
3003.14791	939.1625
3005.57506	932.1625
3008.00073	914.8625
3010.42493	923.1625
3012.84764	912.0625
3015.26888	909.6625
3017.68865	913.8625
3020.10694	911.3625
3022.52376	913.5625
3024.9391	914.8625
3027.35298	909.7625
3029.76539	909.9625
3032.17632	907.7625
3034.5858	912.8625
3036.9938	911.5625
3039.40034	912.0625
3041.80542	915.1625
3044.20903	918.2625
3046.61118	916.1625
3049.01187	916.8625
3051.4111	913.8625
3053.80888	922.5625
3056.20519	918.6625
3058.60005	918.2625
3060.99345	923.8625
3063.3854	926.3625
3065.7759	936.1625
3068.16494	938.6625
3070.55254	933.8625
3072.93868	938.2625
3075.32338	941.2625
3077.70662	936.4625
3080.08842	924.8625
3082.46878	928.2625
3084.84769	916.6625
3087.22515	920.5625
3089.60118	913.1625
3091.97576	916.7625
3094.3489	918.6625
3096.72061	920.9625
3099.09087	918.5625
3101.4597	922.6625
3103.82709	926.4625
3106.19305	922.7625
3108.55757	927.2625
3110.92066	930.6625
3113.28232	936.5625
3115.64255	938.0625
3118.00134	926.8625
3120.35871	939.4625
3122.71466	941.5625
3125.06917	949.0625
3127.42226	957.3625
3129.77393	967.1625
3132.12417	971.7625
3134.47299	977.8625
3136.82039	986.2625
3139.16636	988.6625
3141.51092	1002.3625
3143.85406	1004.0625
3146.19579	1018.0625
