Data from AgNPs_FTO_APTES_UA_2uM_CRN_0uM_R6G_10uM_NaF_0.1M_Addition_RamanShift__23__10-31-14-942.txt Node

Date: Wed Feb 02 10:31:14 GMT 2022
User: TCL
Spectrometer: QEP01345
Trigger mode: 4
Integration Time (sec): 7.000000E0
Scans to average: 10
Electric dark correction enabled: true
Nonlinearity correction enabled: false
Boxcar width: 0
XAxis mode: Raman Shifts
Number of Pixels in Spectrum: 1044
>>>>>Begin Spectral Data<<<<<
46.04893	-0.575
50.45542	1.125
54.85868	-0.075
59.25871	0.625
63.6555	27.225
68.04907	30.725
72.43941	34.625
76.82654	40.125
81.21044	40.825
85.59113	41.825
89.96862	43.825
94.34289	48.225
98.71396	46.325
103.08183	51.625
107.4465	49.425
111.80798	50.625
116.16626	50.625
120.52136	51.225
124.87327	48.725
129.222	50.625
133.56755	56.025
137.90993	51.825
142.24913	57.425
146.58517	59.925
150.91804	64.525
155.24774	75.525
159.57429	86.625
163.89768	103.025
168.21792	128.925
172.53501	168.925
176.84895	223.625
181.15975	299.225
185.46741	408.425
189.77193	556.525
194.07331	735.925
198.37157	949.025
202.6667	1162.625
206.9587	1369.125
211.24758	1567.725
215.53334	1786.925
219.81599	1988.525
224.09553	2227.425
228.37195	2490.825
232.64527	2801.325
236.91549	3083.025
241.18261	3381.825
245.44663	3659.325
249.70755	3888.025
253.96539	4064.225
258.22014	4214.725
262.4718	4317.325
266.72039	4364.725
270.96589	4351.425
275.20832	4322.025
279.44768	4238.625
283.68397	4129.525
287.91719	4045.425
292.14735	3984.925
296.37445	3987.725
300.59849	4066.725
304.81948	4158.425
309.03742	4236.825
313.25231	4205.425
317.46415	4088.025
321.67296	3837.925
325.87872	3632.625
330.08145	3546.225
334.28114	3544.025
338.47781	3563.125
342.67145	3637.125
346.86207	3733.125
351.04966	3911.725
355.23424	4095.825
359.4158	4291.725
363.59435	4397.925
367.76989	4476.025
371.94243	4495.825
376.11196	4508.725
380.27849	4480.425
384.44203	4467.825
388.60257	4395.225
392.76012	4360.725
396.91468	4365.125
401.06626	4432.825
405.21485	4488.325
409.36047	4435.625
413.50311	4279.925
417.64277	4113.625
421.77947	4014.525
425.9132	3962.825
430.04396	3965.525
434.17176	3982.825
438.2966	4035.925
442.41849	4142.125
446.53742	4243.725
450.6534	4382.325
454.76644	4408.425
458.87653	4436.425
462.98368	4405.125
467.08789	4347.225
471.18916	4276.325
475.2875	4192.225
479.38291	4136.925
483.4754	4103.425
487.56496	4061.225
491.6516	4036.225
495.73531	4021.325
499.81612	4008.125
503.89401	4020.025
507.96899	4076.925
512.04106	4155.625
516.11023	4232.025
520.1765	4306.325
524.23987	4309.125
528.30034	4244.725
532.35792	4160.825
536.41261	4073.525
540.46441	3992.025
544.51333	3949.725
548.55936	3950.725
552.60252	3991.425
556.64279	4065.725
560.6802	4086.125
564.71473	4107.625
568.7464	4194.025
572.7752	4217.825
576.80114	4139.125
580.82422	4020.325
584.84444	3971.225
588.86181	3995.425
592.87633	4067.225
596.888	4143.025
600.89682	4223.525
604.9028	4523.525
608.90594	5416.325
612.90624	6733.825
616.90371	6722.225
620.89834	5109.225
624.89015	4265.625
628.87913	4063.125
632.86528	4041.025
636.84862	4062.125
640.82913	4045.825
644.80683	3935.025
648.78172	3847.825
652.75379	3895.725
656.72306	4020.225
660.68952	4188.825
664.65319	4141.125
668.61405	3967.925
672.57211	3887.225
676.52738	3870.925
680.47986	3871.025
684.42955	3861.425
688.37646	3860.225
692.32058	3905.125
696.26192	3940.925
700.20048	4001.725
704.13626	4045.125
708.06928	4063.825
711.99952	3996.325
715.927	3969.925
719.85171	3956.725
723.77365	3949.325
727.69284	3923.425
731.60928	3899.425
735.52295	3916.725
739.43388	3920.625
743.34206	3947.325
747.24749	3942.725
751.15017	3947.425
755.05012	3998.525
758.94733	4089.825
762.8418	4318.025
766.73354	4812.825
770.62254	5453.125
774.50882	5903.525
778.39237	5813.225
782.27321	5171.225
786.15132	4517.725
790.02671	4147.825
793.89938	3978.625
797.76935	3926.425
801.6366	3901.925
805.50115	3888.925
809.36299	3887.625
813.22213	3857.725
817.07857	3853.825
820.93231	3838.325
824.78336	3833.425
828.63172	3842.925
832.47738	3861.025
836.32036	3885.925
840.16066	3870.925
843.99827	3860.025
847.8332	3851.925
851.66546	3861.325
855.49504	3853.125
859.32195	3823.125
863.1462	3797.525
866.96777	3774.025
870.78668	3766.325
874.60293	3776.325
878.41652	3810.425
882.22745	3834.425
886.03573	3871.825
889.84136	3868.525
893.64433	3840.225
897.44466	3845.425
901.24235	3833.125
905.0374	3832.825
908.8298	3838.325
912.61957	3860.825
916.40671	3908.325
920.19121	3969.925
923.97308	4013.925
927.75233	4083.425
931.52895	4093.425
935.30295	4060.625
939.07433	3946.525
942.84309	3851.525
946.60924	3788.025
950.37278	3727.925
954.13371	3690.425
957.89203	3657.525
961.64774	3638.425
965.40086	3614.925
969.15137	3580.025
972.89929	3572.925
976.64461	3544.325
980.38733	3539.625
984.12747	3540.025
987.86502	3547.025
991.59999	3557.125
995.33237	3578.225
999.06217	3605.825
1002.78939	3668.525
1006.51404	3696.025
1010.23611	3735.125
1013.95561	3747.925
1017.67255	3735.625
1021.38692	3715.625
1025.09872	3687.025
1028.80796	3643.725
1032.51465	3676.125
1036.21877	3737.525
1039.92035	3843.725
1043.61937	3901.225
1047.31584	3913.625
1051.00976	3874.425
1054.70114	3831.325
1058.38998	3808.825
1062.07627	3781.825
1065.76003	3752.725
1069.44126	3724.825
1073.11995	3706.625
1076.79611	3742.125
1080.46974	3796.225
1084.14085	3859.525
1087.80943	3905.325
1091.47549	3917.825
1095.13903	3840.325
1098.80005	3719.925
1102.45857	3615.325
1106.11456	3591.225
1109.76805	3605.625
1113.41903	3665.025
1117.06751	3766.725
1120.71348	3907.725
1124.35696	4047.025
1127.99793	4200.825
1131.63641	4229.125
1135.2724	4053.225
1138.90589	3836.025
1142.5369	3688.825
1146.16542	3581.625
1149.79145	3539.325
1153.415	3514.325
1157.03607	3526.625
1160.65467	3591.925
1164.27079	3700.225
1167.88443	3868.725
1171.49561	4111.825
1175.10432	4548.425
1178.71056	5149.825
1182.31434	5655.425
1185.91565	5849.325
1189.51451	5752.525
1193.11091	5497.225
1196.70485	5135.325
1200.29634	4799.925
1203.88538	4518.125
1207.47197	4188.725
1211.05612	3952.325
1214.63782	3798.525
1218.21708	3758.225
1221.79391	3770.225
1225.36829	3774.325
1228.94024	3778.825
1232.50976	3766.625
1236.07685	3771.925
1239.6415	3763.125
1243.20374	3777.225
1246.76355	3778.525
1250.32093	3833.125
1253.8759	3897.625
1257.42845	3977.825
1260.97859	4101.125
1264.52631	4214.225
1268.07163	4327.325
1271.61453	4394.425
1275.15503	4485.925
1278.69312	4474.925
1282.22882	4501.125
1285.76211	4580.025
1289.29301	4716.525
1292.82151	4878.825
1296.34761	5075.725
1299.87133	5287.125
1303.39266	5593.425
1306.9116	6052.625
1310.42815	6600.825
1313.94233	6926.425
1317.45412	6800.725
1320.96354	6290.825
1324.47058	5713.025
1327.97525	5255.225
1331.47754	4984.725
1334.97747	4922.925
1338.47502	4986.025
1341.97022	5061.325
1345.46305	5204.125
1348.95352	5520.425
1352.44163	6067.025
1355.92738	6842.425
1359.41078	7843.425
1362.89183	8864.825
1366.37053	8947.225
1369.84688	7821.225
1373.32088	6511.025
1376.79254	5631.525
1380.26186	5178.725
1383.72883	4943.425
1387.19347	4744.025
1390.65578	4544.925
1394.11575	4343.825
1397.57339	4199.325
1401.0287	4142.025
1404.48168	4102.925
1407.93234	4062.025
1411.38068	4060.725
1414.82669	4045.725
1418.27039	4039.325
1421.71177	4017.825
1425.15083	4018.625
1428.58758	4033.425
1432.02203	4051.825
1435.45416	4131.725
1438.88399	4161.725
1442.31151	4162.825
1445.73673	4142.125
1449.15965	4098.925
1452.58027	4022.925
1455.9986	3943.825
1459.41463	3876.825
1462.82837	3883.425
1466.23982	3905.625
1469.64898	3953.525
1473.05586	3997.725
1476.46045	4033.625
1479.86276	4083.925
1483.26279	4103.825
1486.66054	4189.725
1490.05602	4260.825
1493.44922	4367.625
1496.84016	4610.425
1500.22882	4991.125
1503.61521	5598.425
1506.99934	6318.425
1510.38121	7020.025
1513.76081	7382.825
1517.13816	7063.825
1520.51324	6228.825
1523.88607	5355.025
1527.25665	4745.025
1530.62498	4455.725
1533.99105	4290.525
1537.35488	4200.825
1540.71647	4129.325
1544.07581	4100.425
1547.4329	4077.825
1550.78776	4070.725
1554.14038	4075.725
1557.49077	4098.925
1560.83892	4165.825
1564.18484	4254.225
1567.52853	4397.625
1570.86999	4569.225
1574.20922	4740.825
1577.54624	4777.625
1580.88103	4624.425
1584.2136	4283.125
1587.54395	4042.425
1590.87208	4008.225
1594.19801	4131.225
1597.52172	4386.025
1600.84321	4524.825
1604.16251	4424.725
1607.47959	4183.025
1610.79447	3945.325
1614.10715	3699.925
1617.41763	3510.925
1620.7259	3400.025
1624.03199	3341.025
1627.33587	3331.725
1630.63757	3364.725
1633.93707	3441.825
1637.23439	3613.125
1640.52951	3864.525
1643.82246	4240.525
1647.11321	4725.525
1650.40179	5112.825
1653.68819	5083.125
1656.97241	4548.525
1660.25446	3867.925
1663.53433	3380.925
1666.81203	3094.725
1670.08756	2923.825
1673.36092	2807.725
1676.63211	2736.425
1679.90115	2685.825
1683.16801	2642.225
1686.43272	2598.825
1689.69527	2569.025
1692.95567	2545.725
1696.2139	2525.025
1699.46999	2512.425
1702.72392	2496.625
1705.97571	2477.525
1709.22535	2462.025
1712.47284	2453.225
1715.71819	2450.625
1718.96139	2459.825
1722.20246	2448.125
1725.44139	2445.525
1728.67818	2413.325
1731.91284	2384.525
1735.14537	2342.725
1738.37576	2328.025
1741.60403	2307.025
1744.83017	2296.425
1748.05418	2284.525
1751.27607	2279.925
1754.49584	2257.825
1757.71349	2251.925
1760.92903	2243.425
1764.14244	2226.325
1767.35375	2219.025
1770.56294	2216.825
1773.77002	2218.525
1776.97499	2192.725
1780.17785	2176.625
1783.37861	2165.125
1786.57727	2154.325
1789.77382	2152.925
1792.96828	2153.525
1796.16064	2141.625
1799.3509	2143.425
1802.53907	2129.025
1805.72514	2123.525
1808.90913	2122.425
1812.09102	2103.625
1815.27083	2095.425
1818.44856	2089.925
1821.6242	2101.225
1824.79776	2087.525
1827.96924	2072.825
1831.13864	2074.625
1834.30597	2064.525
1837.47122	2051.825
1840.6344	2051.125
1843.7955	2058.725
1846.95454	2050.625
1850.11151	2038.325
1853.26642	2037.125
1856.41926	2039.625
1859.57004	2032.725
1862.71876	2028.325
1865.86542	2027.925
1869.01003	2024.725
1872.15258	2023.925
1875.29308	2027.025
1878.43152	2014.325
1881.56792	2006.825
1884.70227	2010.225
1887.83457	1999.325
1890.96482	2011.225
1894.09304	2005.225
1897.21921	1993.825
1900.34335	1999.525
1903.46544	1990.925
1906.58551	2005.325
1909.70353	1999.625
1912.81953	1994.825
1915.93349	1987.225
1919.04543	1986.925
1922.15534	1975.125
1925.26322	1977.025
1928.36908	1966.725
1931.47292	1962.025
1934.57473	1953.425
1937.67453	1948.425
1940.77232	1931.225
1943.86808	1935.725
1946.96184	1924.625
1950.05358	1917.725
1953.14331	1910.025
1956.23103	1893.025
1959.31675	1894.725
1962.40046	1892.125
1965.48217	1887.925
1968.56188	1874.825
1971.63959	1873.325
1974.7153	1864.025
1977.78901	1854.325
1980.86073	1846.725
1983.93046	1847.725
1986.99819	1842.425
1990.06394	1829.725
1993.1277	1830.825
1996.18947	1813.425
1999.24925	1805.325
2002.30706	1811.225
2005.36288	1799.825
2008.41672	1787.325
2011.46859	1789.925
2014.51848	1777.025
2017.56639	1783.825
2020.61233	1769.025
2023.6563	1760.725
2026.6983	1748.325
2029.73833	1747.025
2032.7764	1747.925
2035.8125	1748.525
2038.84664	1732.725
2041.87881	1739.625
2044.90903	1735.525
2047.93729	1719.325
2050.96359	1736.925
2053.98794	1726.425
2057.01034	1716.125
2060.03078	1718.925
2063.04927	1722.725
2066.06582	1720.425
2069.08042	1721.125
2072.09307	1721.725
2075.10378	1713.525
2078.11255	1719.225
2081.11938	1729.925
2084.12426	1727.425
2087.12722	1727.125
2090.12824	1727.325
2093.12732	1720.625
2096.12447	1722.825
2099.11969	1722.225
2102.11299	1721.725
2105.10435	1726.625
2108.09379	1727.125
2111.08131	1727.625
2114.0669	1711.825
2117.05057	1715.425
2120.03233	1711.325
2123.01216	1708.625
2125.99008	1709.725
2128.96609	1711.525
2131.94018	1697.125
2134.91236	1697.025
2137.88263	1692.725
2140.851	1702.125
2143.81746	1706.725
2146.78201	1689.925
2149.74466	1694.125
2152.7054	1699.025
2155.66425	1693.025
2158.6212	1690.625
2161.57625	1691.125
2164.52941	1692.825
2167.48067	1693.025
2170.43004	1678.725
2173.37752	1679.925
2176.32311	1682.225
2179.26681	1683.725
2182.20863	1674.725
2185.14856	1688.125
2188.08661	1690.925
2191.02278	1686.225
2193.95707	1683.025
2196.88948	1677.325
2199.82001	1679.525
2202.74867	1670.925
2205.67545	1674.925
2208.60037	1671.025
2211.52341	1655.825
2214.44458	1649.725
2217.36388	1652.625
2220.28132	1645.425
2223.1969	1633.925
2226.11061	1624.525
2229.02246	1620.525
2231.93245	1625.525
2234.84058	1625.325
2237.74686	1621.425
2240.65128	1617.725
2243.55385	1618.125
2246.45456	1610.125
2249.35343	1612.325
2252.25044	1606.125
2255.14561	1596.225
2258.03893	1606.725
2260.93041	1607.325
2263.82004	1591.725
2266.70783	1585.625
2269.59378	1588.325
2272.4779	1590.325
2275.36017	1573.125
2278.24061	1581.525
2281.11922	1574.525
2283.996	1581.025
2286.87094	1567.225
2289.74405	1556.225
2292.61534	1554.625
2295.4848	1554.625
2298.35243	1560.525
2301.21824	1544.825
2304.08223	1540.425
2306.94439	1543.525
2309.80474	1540.025
2312.66327	1538.225
2315.51999	1537.025
2318.37489	1530.125
2321.22797	1538.925
2324.07925	1532.525
2326.92871	1534.625
2329.77637	1525.125
2332.62222	1528.225
2335.46626	1518.725
2338.3085	1525.625
2341.14893	1517.325
2343.98756	1513.525
2346.8244	1503.925
2349.65943	1516.825
2352.49267	1511.725
2355.32411	1507.525
2358.15376	1516.225
2360.98161	1514.325
2363.80768	1516.625
2366.63195	1508.725
2369.45444	1517.425
2372.27514	1524.325
2375.09405	1518.925
2377.91118	1510.425
2380.72652	1505.725
2383.54009	1502.525
2386.35187	1493.925
2389.16188	1486.925
2391.97011	1485.125
2394.77657	1468.925
2397.58125	1469.725
2400.38416	1469.425
2403.18529	1472.025
2405.98466	1453.225
2408.78226	1457.625
2411.57809	1453.025
2414.37216	1459.125
2417.16446	1448.825
2419.955	1452.625
2422.74378	1450.725
2425.5308	1451.525
2428.31606	1443.125
2431.09956	1444.925
2433.88131	1440.125
2436.6613	1451.625
2439.43954	1441.925
2442.21603	1442.425
2444.99077	1446.825
2447.76377	1444.125
2450.53501	1435.225
2453.30451	1440.125
2456.07226	1439.025
2458.83827	1437.925
2461.60254	1425.225
2464.36507	1432.325
2467.12586	1423.725
2469.88492	1425.625
2472.64224	1423.625
2475.39782	1425.825
2478.15167	1423.225
2480.90379	1434.625
2483.65417	1422.825
2486.40283	1430.525
2489.14976	1427.025
2491.89497	1437.325
2494.63845	1435.325
2497.3802	1424.925
2500.12024	1424.125
2502.85855	1430.925
2505.59514	1433.125
2508.33002	1418.225
2511.06318	1414.225
2513.79462	1411.425
2516.52435	1405.025
2519.25237	1404.025
2521.97867	1397.425
2524.70327	1393.025
2527.42616	1394.725
2530.14734	1385.725
2532.86681	1382.425
2535.58458	1390.725
2538.30065	1381.525
2541.01501	1375.525
2543.72768	1381.025
2546.43864	1377.625
2549.14791	1381.925
2551.85548	1375.725
2554.56136	1373.425
2557.26554	1381.825
2559.96803	1369.425
2562.66883	1378.025
2565.36794	1376.525
2568.06536	1373.625
2570.7611	1377.125
2573.45514	1367.925
2576.14751	1361.125
2578.83819	1370.525
2581.52719	1379.025
2584.21451	1363.725
2586.90015	1362.425
2589.58411	1357.125
2592.2664	1356.125
2594.94701	1355.625
2597.62594	1355.125
2600.30321	1350.525
2602.9788	1354.825
2605.65273	1353.025
2608.32498	1352.025
2610.99557	1343.425
2613.66449	1352.025
2616.33175	1341.725
2618.99734	1345.025
2621.66128	1338.825
2624.32355	1347.025
2626.98416	1350.825
2629.64311	1348.525
2632.30041	1347.825
2634.95605	1334.425
2637.61004	1333.625
2640.26238	1330.225
2642.91306	1340.725
2645.56209	1336.725
2648.20948	1336.525
2650.85521	1335.725
2653.4993	1338.525
2656.14175	1348.825
2658.78255	1353.525
2661.42171	1355.725
2664.05923	1352.925
2666.6951	1361.325
2669.32934	1364.625
2671.96194	1366.325
2674.59291	1372.425
2677.22224	1372.425
2679.84993	1373.825
2682.476	1380.525
2685.10043	1383.825
2687.72324	1391.025
2690.34441	1382.625
2692.96396	1401.725
2695.58188	1399.425
2698.19818	1402.425
2700.81285	1415.425
2703.4259	1425.125
2706.03733	1428.825
2708.64714	1435.325
2711.25533	1454.325
2713.86191	1453.125
2716.46687	1465.125
2719.07021	1472.325
2721.67194	1482.825
2724.27206	1484.025
2726.87057	1486.925
2729.46747	1495.425
2732.06276	1504.125
2734.65644	1497.125
2737.24852	1524.725
2739.83899	1520.325
2742.42786	1532.225
2745.01513	1544.125
2747.60079	1535.325
2750.18486	1553.525
2752.76733	1559.125
2755.3482	1576.825
2757.92747	1576.225
2760.50515	1584.425
2763.08123	1602.425
2765.65573	1605.825
2768.22863	1620.725
2770.79994	1618.725
2773.36967	1629.725
2775.9378	1635.825
2778.50435	1670.725
2781.06932	1675.425
2783.6327	1691.825
2786.1945	1707.725
2788.75471	1712.625
2791.31335	1729.125
2793.87041	1747.625
2796.42589	1761.825
2798.97979	1790.325
2801.53212	1803.925
2804.08288	1818.125
2806.63206	1846.125
2809.17967	1866.925
2811.72571	1884.825
2814.27018	1897.925
2816.81308	1907.225
2819.35442	1917.825
2821.89419	1926.025
2824.43239	1918.025
2826.96904	1920.225
2829.50412	1919.625
2832.03763	1925.125
2834.56959	1928.325
2837.1	1940.725
2839.62884	1991.025
2842.15613	2038.625
2844.68186	2126.025
2847.20604	2217.325
2849.72867	2281.925
2852.24974	2314.525
2854.76927	2320.425
2857.28724	2302.225
2859.80367	2288.225
2862.31855	2279.725
2864.83189	2255.325
2867.34368	2245.025
2869.85393	2224.625
2872.36264	2225.825
2874.8698	2223.425
2877.37543	2214.625
2879.87952	2210.825
2882.38207	2210.825
2884.88308	2205.625
2887.38256	2204.825
2889.88051	2197.725
2892.37692	2197.025
2894.8718	2184.925
2897.36515	2193.225
2899.85698	2183.125
2902.34727	2191.225
2904.83604	2176.525
2907.32328	2178.125
2909.809	2183.025
2912.29319	2157.425
2914.77587	2163.425
2917.25702	2156.625
2919.73665	2166.325
2922.21476	2161.925
2924.69136	2152.325
2927.16644	2140.625
2929.64	2120.025
2932.11205	2110.425
2934.58258	2077.725
2937.05161	2043.725
2939.51912	1998.925
2941.98513	1954.825
2944.44962	1888.325
2946.91261	1812.925
2949.37409	1760.925
2951.83407	1705.425
2954.29254	1674.625
2956.74951	1634.825
2959.20498	1600.725
2961.65895	1574.125
2964.11142	1539.625
2966.56239	1510.825
2969.01186	1500.125
2971.45984	1472.225
2973.90632	1446.925
2976.35131	1425.125
2978.7948	1410.425
2981.23681	1396.825
2983.67732	1373.625
2986.11635	1363.025
2988.55388	1343.625
2990.98993	1339.325
2993.4245	1320.725
2995.85758	1315.825
2998.28917	1295.725
3000.71928	1300.225
3003.14791	1295.725
3005.57506	1286.525
3008.00073	1281.525
3010.42493	1272.325
3012.84764	1267.325
3015.26888	1258.925
3017.68865	1268.625
3020.10694	1257.925
3022.52376	1260.525
3024.9391	1249.425
3027.35298	1264.125
3029.76539	1256.325
3032.17632	1247.725
3034.5858	1255.925
3036.9938	1247.225
3039.40034	1253.125
3041.80542	1244.725
3044.20903	1239.725
3046.61118	1255.925
3049.01187	1248.525
3051.4111	1249.425
3053.80888	1258.525
3056.20519	1251.425
3058.60005	1262.125
3060.99345	1262.325
3063.3854	1257.125
3065.7759	1258.825
3068.16494	1264.925
3070.55254	1264.125
3072.93868	1263.325
3075.32338	1258.725
3077.70662	1251.225
3080.08842	1260.825
3082.46878	1259.325
3084.84769	1251.925
3087.22515	1264.125
3089.60118	1254.325
3091.97576	1254.525
3094.3489	1258.725
3096.72061	1260.325
3099.09087	1263.725
3101.4597	1261.125
3103.82709	1266.325
3106.19305	1260.325
3108.55757	1274.825
3110.92066	1267.225
3113.28232	1261.825
3115.64255	1267.125
3118.00134	1274.725
3120.35871	1275.925
3122.71466	1285.725
3125.06917	1289.125
3127.42226	1288.825
3129.77393	1296.525
3132.12417	1307.925
3134.47299	1309.725
3136.82039	1315.225
3139.16636	1321.825
3141.51092	1331.125
3143.85406	1335.225
3146.19579	1342.725
3148.53609	1350.125
3150.87499	1354.625
3153.21246	1364.825
3155.54853	1376.225
3157.88318	1378.225
3160.21642	1379.725
3162.54826	1383.625
3164.87868	1402.025
3167.2077	1399.725
3169.5353	1410.225
3171.86151	1414.725
3174.18631	1417.325
3176.5097	1429.825
3178.83169	1423.725
3181.15228	1438.525
3183.47147	1429.225
3185.78926	1435.325
3188.10565	1451.125
3190.42065	1452.725
3192.73424	1468.425
3195.04645	1465.925
3197.35725	1471.725
3199.66667	1471.925
3201.97469	1487.425
3204.28132	1485.825
3206.58656	1490.825
3208.8904	1485.425
3211.19287	1493.525
3213.49394	1500.525
3215.79363	1509.925
3218.09193	1503.625
3220.38884	1507.725
3222.68438	1517.625
3224.97853	1522.125
3227.2713	1518.525
3229.56269	1522.025
3231.8527	1528.925
3234.14133	1526.925
3236.42858	1525.725
