Data from AgNPs_FTO_APTES_UA_2uM_CRN_2uM_R6G_10uM_NaF_0.1M_Addition_RamanShift__14__12-15-05-063.txt Node

Date: Wed Feb 02 12:15:05 GMT 2022
User: TCL
Spectrometer: QEP01345
Trigger mode: 4
Integration Time (sec): 7.000000E0
Scans to average: 10
Electric dark correction enabled: true
Nonlinearity correction enabled: false
Boxcar width: 0
XAxis mode: Raman Shifts
Number of Pixels in Spectrum: 1044
>>>>>Begin Spectral Data<<<<<
46.04893	-0.125
50.45542	-0.625
54.85868	-1.625
59.25871	-0.325
63.6555	116.275
68.04907	120.275
72.43941	123.575
76.82654	131.075
81.21044	132.475
85.59113	140.675
89.96862	144.775
94.34289	145.575
98.71396	150.675
103.08183	163.875
107.4465	166.075
111.80798	170.375
116.16626	174.575
120.52136	182.875
124.87327	194.975
129.222	205.875
133.56755	217.775
137.90993	235.775
142.24913	267.475
146.58517	304.075
150.91804	357.075
155.24774	427.475
159.57429	540.575
163.89768	696.875
168.21792	929.875
172.53501	1276.575
176.84895	1792.775
181.15975	2516.975
185.46741	3556.375
189.77193	4906.075
194.07331	6588.475
198.37157	8509.675
202.6667	10521.675
206.9587	12514.175
211.24758	14455.075
215.53334	16439.775
219.81599	18519.675
224.09553	20746.275
228.37195	23224.975
232.64527	25920.375
236.91549	28886.675
241.18261	31797.875
245.44663	34581.475
249.70755	37152.375
253.96539	39403.275
258.22014	41263.075
262.4718	42791.675
266.72039	43830.375
270.96589	44281.475
275.20832	44326.475
279.44768	44012.975
283.68397	43597.375
287.91719	43251.075
292.14735	42968.275
296.37445	42793.975
300.59849	42707.775
304.81948	42693.775
309.03742	42629.475
313.25231	42365.475
317.46415	41635.975
321.67296	40781.975
325.87872	40041.075
330.08145	39625.275
334.28114	39598.475
338.47781	39812.375
342.67145	40192.575
346.86207	40689.775
351.04966	41262.875
355.23424	41885.375
359.4158	42459.275
363.59435	42921.075
367.76989	43237.075
371.94243	43467.275
376.11196	43587.175
380.27849	43600.775
384.44203	43721.975
388.60257	44020.475
392.76012	44513.475
396.91468	45129.075
401.06626	45839.675
405.21485	46273.275
409.36047	46135.675
413.50311	45629.275
417.64277	45250.575
421.77947	45365.675
425.9132	45519.175
430.04396	45772.775
434.17176	45917.775
438.2966	46078.375
442.41849	46479.975
446.53742	47272.675
450.6534	48147.375
454.76644	48723.975
458.87653	49054.775
462.98368	49128.575
467.08789	48972.475
471.18916	48667.075
475.2875	48289.275
479.38291	48132.675
483.4754	48142.975
487.56496	47894.775
491.6516	47392.475
495.73531	46803.275
499.81612	46456.975
503.89401	46475.575
507.96899	46675.675
512.04106	46738.475
516.11023	46530.275
520.1765	46137.275
524.23987	45744.175
528.30034	45173.175
532.35792	44794.475
536.41261	44392.875
540.46441	44132.175
544.51333	44177.775
548.55936	44646.675
552.60252	45395.875
556.64279	46309.475
560.6802	47012.975
564.71473	47523.475
568.7464	48352.775
572.7752	49613.175
576.80114	51300.175
580.82422	52818.975
584.84444	54128.575
588.86181	55485.975
592.87633	56573.175
596.888	56140.675
600.89682	54327.775
604.9028	53784.775
608.90594	55988.175
612.90624	58449.575
616.90371	55415.975
620.89834	48847.375
624.89015	45875.975
628.87913	45713.375
632.86528	46072.675
636.84862	46144.475
640.82913	45482.275
644.80683	44448.075
648.78172	43729.275
652.75379	43609.575
656.72306	43948.175
660.68952	44400.275
664.65319	44331.275
668.61405	43848.575
672.57211	43740.675
676.52738	43877.775
680.47986	43835.475
684.42955	43622.775
688.37646	43483.275
692.32058	43690.475
696.26192	44082.975
700.20048	44569.775
704.13626	44946.175
708.06928	45136.375
711.99952	45027.475
715.927	44926.875
719.85171	44825.775
723.77365	44576.975
727.69284	44023.775
731.60928	43446.875
735.52295	43180.275
739.43388	43123.175
743.34206	43283.275
747.24749	43468.075
751.15017	43872.275
755.05012	44504.175
758.94733	45590.475
762.8418	47369.375
766.73354	49908.875
770.62254	52174.575
774.50882	52447.575
778.39237	50531.075
782.27321	48092.675
786.15132	45904.575
790.02671	44449.475
793.89938	43622.275
797.76935	43218.675
801.6366	42977.575
805.50115	42828.275
809.36299	42721.575
813.22213	42567.675
817.07857	42418.475
820.93231	42442.475
824.78336	42301.675
828.63172	42106.675
832.47738	41968.175
836.32036	41929.575
840.16066	41916.875
843.99827	41888.075
847.8332	41860.075
851.66546	41877.775
855.49504	41999.475
859.32195	42035.075
863.1462	41915.275
866.96777	41902.975
870.78668	41826.775
874.60293	41908.675
878.41652	41981.075
882.22745	42107.575
886.03573	42251.175
889.84136	42286.875
893.64433	42225.175
897.44466	42153.675
901.24235	42118.375
905.0374	42080.575
908.8298	42112.275
912.61957	42190.975
916.40671	42494.375
920.19121	42995.475
923.97308	43408.875
927.75233	43403.475
931.52895	42919.875
935.30295	42307.975
939.07433	41613.675
942.84309	40995.375
946.60924	40703.675
950.37278	40448.875
954.13371	40423.675
957.89203	40381.575
961.64774	40410.275
965.40086	40369.375
969.15137	40243.775
972.89929	40067.675
976.64461	39881.175
980.38733	39793.075
984.12747	39790.675
987.86502	39819.975
991.59999	40001.175
995.33237	40230.775
999.06217	40532.975
1002.78939	41065.475
1006.51404	41651.775
1010.23611	42254.675
1013.95561	42696.275
1017.67255	42723.175
1021.38692	42380.775
1025.09872	41878.775
1028.80796	41456.975
1032.51465	41271.975
1036.21877	41395.675
1039.92035	41532.675
1043.61937	41686.875
1047.31584	41785.075
1051.00976	41944.575
1054.70114	42155.875
1058.38998	42331.775
1062.07627	42775.775
1065.76003	43330.075
1069.44126	43910.075
1073.11995	44473.075
1076.79611	45048.975
1080.46974	45320.375
1084.14085	45449.275
1087.80943	45771.175
1091.47549	46147.175
1095.13903	46521.275
1098.80005	46154.275
1102.45857	45224.975
1106.11456	44326.675
1109.76805	43622.775
1113.41903	43342.375
1117.06751	43358.175
1120.71348	43592.875
1124.35696	43922.075
1127.99793	44341.575
1131.63641	44681.475
1135.2724	44714.075
1138.90589	44512.175
1142.5369	44631.675
1146.16542	44919.975
1149.79145	45304.875
1153.415	45647.775
1157.03607	46198.175
1160.65467	47191.575
1164.27079	48794.475
1167.88443	50762.575
1171.49561	52992.575
1175.10432	55662.875
1178.71056	58916.475
1182.31434	62018.875
1185.91565	63755.075
1189.51451	64257.375
1193.11091	63730.475
1196.70485	62147.575
1200.29634	60030.775
1203.88538	58498.675
1207.47197	57640.475
1211.05612	57182.075
1214.63782	56510.175
1218.21708	55250.775
1221.79391	53527.975
1225.36829	52216.275
1228.94024	51381.775
1232.50976	50942.875
1236.07685	50683.875
1239.6415	50458.875
1243.20374	50436.375
1246.76355	50679.375
1250.32093	51252.675
1253.8759	52082.175
1257.42845	53236.075
1260.97859	54688.675
1264.52631	56074.275
1268.07163	57482.175
1271.61453	58766.775
1275.15503	60163.175
1278.69312	61693.775
1282.22882	63362.475
1285.76211	65309.475
1289.29301	67457.675
1292.82151	69964.875
1296.34761	72620.475
1299.87133	75819.075
1303.39266	78802.675
1306.9116	81474.175
1310.42815	83249.075
1313.94233	84076.275
1317.45412	83956.175
1320.96354	83631.375
1324.47058	83540.175
1327.97525	83706.575
1331.47754	83837.075
1334.97747	83832.475
1338.47502	83537.575
1341.97022	83205.475
1345.46305	82810.675
1348.95352	82089.075
1352.44163	81112.575
1355.92738	80590.675
1359.41078	81306.075
1362.89183	82225.875
1366.37053	81155.775
1369.84688	76879.675
1373.32088	70813.775
1376.79254	66279.775
1380.26186	64439.375
1383.72883	64142.475
1387.19347	64162.375
1390.65578	63627.175
1394.11575	63216.175
1397.57339	63313.175
1401.0287	63830.675
1404.48168	64176.075
1407.93234	63657.075
1411.38068	62364.375
1414.82669	60480.275
1418.27039	58259.975
1421.71177	56212.175
1425.15083	54623.575
1428.58758	53954.775
1432.02203	54283.775
1435.45416	55249.775
1438.88399	56574.375
1442.31151	57543.975
1445.73673	58262.175
1449.15965	58931.775
1452.58027	59389.675
1455.9986	59634.775
1459.41463	60189.575
1462.82837	60979.975
1466.23982	61654.275
1469.64898	62253.475
1473.05586	62463.575
1476.46045	62568.875
1479.86276	62268.775
1483.26279	61959.175
1486.66054	61908.975
1490.05602	62293.375
1493.44922	63278.575
1496.84016	64551.975
1500.22882	66233.075
1503.61521	68039.175
1506.99934	69830.475
1510.38121	71080.975
1513.76081	71436.075
1517.13816	70653.775
1520.51324	69409.275
1523.88607	68421.375
1527.25665	68041.675
1530.62498	67724.575
1533.99105	67023.175
1537.35488	65758.975
1540.71647	64092.075
1544.07581	62164.975
1547.4329	60340.875
1550.78776	58922.075
1554.14038	58099.875
1557.49077	57772.875
1560.83892	57626.875
1564.18484	57750.975
1567.52853	57958.675
1570.86999	58401.075
1574.20922	59429.675
1577.54624	60362.975
1580.88103	60893.875
1584.2136	61375.975
1587.54395	62608.075
1590.87208	64629.775
1594.19801	67009.775
1597.52172	68981.375
1600.84321	68983.275
1604.16251	66069.575
1607.47959	61784.775
1610.79447	57552.275
1614.10715	53650.675
1617.41763	50377.875
1620.7259	47998.475
1624.03199	46783.275
1627.33587	46760.475
1630.63757	47893.575
1633.93707	50407.375
1637.23439	54846.375
1640.52951	61067.275
1643.82246	68541.275
1647.11321	74325.875
1650.40179	75699.075
1653.68819	71473.075
1656.97241	63423.475
1660.25446	55262.775
1663.53433	48779.975
1666.81203	44437.575
1670.08756	41705.375
1673.36092	39933.575
1676.63211	38827.375
1679.90115	38053.475
1683.16801	37418.975
1686.43272	36990.275
1689.69527	36669.575
1692.95567	36376.975
1696.2139	36205.775
1699.46999	36021.775
1702.72392	35984.675
1705.97571	35784.975
1709.22535	35711.675
1712.47284	35656.975
1715.71819	35588.775
1718.96139	35445.975
1722.20246	35379.975
1725.44139	35216.975
1728.67818	35061.675
1731.91284	34875.975
1735.14537	34668.175
1738.37576	34502.975
1741.60403	34431.675
1744.83017	34270.575
1748.05418	34196.775
1751.27607	34156.375
1754.49584	34098.275
1757.71349	34029.775
1760.92903	34002.675
1764.14244	33985.275
1767.35375	33932.075
1770.56294	33876.375
1773.77002	33804.875
1776.97499	33745.075
1780.17785	33613.775
1783.37861	33560.875
1786.57727	33527.775
1789.77382	33448.875
1792.96828	33426.175
1796.16064	33327.275
1799.3509	33227.575
1802.53907	33137.075
1805.72514	33028.175
1808.90913	32931.875
1812.09102	32908.975
1815.27083	32845.075
1818.44856	32871.975
1821.6242	32833.175
1824.79776	32805.975
1827.96924	32775.275
1831.13864	32761.175
1834.30597	32738.975
1837.47122	32667.175
1840.6344	32680.175
1843.7955	32750.075
1846.95454	32691.375
1850.11151	32662.875
1853.26642	32674.175
1856.41926	32587.875
1859.57004	32615.675
1862.71876	32608.475
1865.86542	32527.775
1869.01003	32480.275
1872.15258	32421.975
1875.29308	32402.375
1878.43152	32328.075
1881.56792	32221.175
1884.70227	32126.575
1887.83457	32153.375
1890.96482	32053.275
1894.09304	31995.975
1897.21921	31939.575
1900.34335	31884.575
1903.46544	31861.375
1906.58551	31782.575
1909.70353	31716.575
1912.81953	31618.575
1915.93349	31527.275
1919.04543	31451.175
1922.15534	31412.975
1925.26322	31300.275
1928.36908	31224.775
1931.47292	31156.475
1934.57473	31024.575
1937.67453	30900.775
1940.77232	30849.275
1943.86808	30769.275
1946.96184	30703.775
1950.05358	30612.975
1953.14331	30482.075
1956.23103	30400.475
1959.31675	30323.275
1962.40046	30194.275
1965.48217	30078.375
1968.56188	29975.175
1971.63959	29915.675
1974.7153	29840.875
1977.78901	29709.175
1980.86073	29594.875
1983.93046	29462.375
1986.99819	29380.475
1990.06394	29292.675
1993.1277	29161.675
1996.18947	29099.275
1999.24925	29022.075
2002.30706	28919.875
2005.36288	28833.775
2008.41672	28724.775
2011.46859	28649.675
2014.51848	28622.775
2017.56639	28515.975
2020.61233	28466.275
2023.6563	28370.575
2026.6983	28312.275
2029.73833	28217.875
2032.7764	28135.075
2035.8125	28050.075
2038.84664	28017.075
2041.87881	27992.275
2044.90903	27927.275
2047.93729	27862.575
2050.96359	27828.275
2053.98794	27770.375
2057.01034	27759.975
2060.03078	27714.675
2063.04927	27678.975
2066.06582	27674.875
2069.08042	27628.975
2072.09307	27576.075
2075.10378	27569.875
2078.11255	27615.875
2081.11938	27567.975
2084.12426	27503.275
2087.12722	27498.775
2090.12824	27525.575
2093.12732	27486.575
2096.12447	27501.875
2099.11969	27485.375
2102.11299	27473.975
2105.10435	27502.375
2108.09379	27503.875
2111.08131	27525.775
2114.0669	27454.975
2117.05057	27492.175
2120.03233	27512.975
2123.01216	27587.075
2125.99008	27514.075
2128.96609	27510.375
2131.94018	27532.275
2134.91236	27525.575
2137.88263	27525.275
2140.851	27468.175
2143.81746	27437.575
2146.78201	27421.275
2149.74466	27489.375
2152.7054	27466.875
2155.66425	27443.575
2158.6212	27462.675
2161.57625	27475.775
2164.52941	27470.675
2167.48067	27411.275
2170.43004	27378.775
2173.37752	27389.175
2176.32311	27348.675
2179.26681	27378.775
2182.20863	27383.375
2185.14856	27397.175
2188.08661	27366.375
2191.02278	27368.675
2193.95707	27334.375
2196.88948	27295.975
2199.82001	27260.175
2202.74867	27224.175
2205.67545	27196.075
2208.60037	27109.875
2211.52341	27107.375
2214.44458	27071.875
2217.36388	26953.575
2220.28132	26928.675
2223.1969	26844.675
2226.11061	26772.575
2229.02246	26732.975
2231.93245	26714.075
2234.84058	26685.775
2237.74686	26633.475
2240.65128	26569.475
2243.55385	26493.675
2246.45456	26489.575
2249.35343	26420.775
2252.25044	26377.375
2255.14561	26320.575
2258.03893	26240.675
2260.93041	26185.575
2263.82004	26090.575
2266.70783	26045.175
2269.59378	25947.475
2272.4779	25910.075
2275.36017	25831.675
2278.24061	25771.175
2281.11922	25725.375
2283.996	25682.875
2286.87094	25635.575
2289.74405	25590.375
2292.61534	25536.475
2295.4848	25487.375
2298.35243	25440.075
2301.21824	25393.875
2304.08223	25393.675
2306.94439	25362.975
2309.80474	25383.175
2312.66327	25333.075
2315.51999	25298.375
2318.37489	25256.475
2321.22797	25205.875
2324.07925	25186.475
2326.92871	25180.375
2329.77637	25125.675
2332.62222	25064.675
2335.46626	25030.975
2338.3085	24969.075
2341.14893	24932.975
2343.98756	24934.175
2346.8244	24897.175
2349.65943	24912.575
2352.49267	24903.275
2355.32411	24921.275
2358.15376	24931.575
2360.98161	24878.175
2363.80768	24846.875
2366.63195	24847.475
2369.45444	24800.775
2372.27514	24731.875
2375.09405	24659.175
2377.91118	24609.075
2380.72652	24521.675
2383.54009	24477.275
2386.35187	24479.275
2389.16188	24433.275
2391.97011	24395.175
2394.77657	24336.375
2397.58125	24247.275
2400.38416	24207.275
2403.18529	24174.875
2405.98466	24173.675
2408.78226	24124.475
2411.57809	24090.375
2414.37216	24095.375
2417.16446	24081.675
2419.955	24040.675
2422.74378	24036.075
2425.5308	23967.875
2428.31606	23952.675
2431.09956	23941.575
2433.88131	23906.275
2436.6613	23887.475
2439.43954	23900.875
2442.21603	23908.475
2444.99077	23813.075
2447.76377	23805.475
2450.53501	23797.375
2453.30451	23770.375
2456.07226	23741.775
2458.83827	23734.475
2461.60254	23666.475
2464.36507	23673.775
2467.12586	23604.175
2469.88492	23583.375
2472.64224	23572.175
2475.39782	23558.875
2478.15167	23574.075
2480.90379	23532.275
2483.65417	23513.675
2486.40283	23493.575
2489.14976	23483.875
2491.89497	23493.575
2494.63845	23481.775
2497.3802	23434.275
2500.12024	23454.875
2502.85855	23428.675
2505.59514	23421.875
2508.33002	23363.575
2511.06318	23364.175
2513.79462	23322.775
2516.52435	23277.975
2519.25237	23294.275
2521.97867	23178.275
2524.70327	23179.575
2527.42616	23171.975
2530.14734	23157.975
2532.86681	23060.575
2535.58458	23071.775
2538.30065	22997.275
2541.01501	22989.075
2543.72768	22972.475
2546.43864	22957.775
2549.14791	22903.075
2551.85548	22890.275
2554.56136	22860.575
2557.26554	22820.175
2559.96803	22761.775
2562.66883	22731.275
2565.36794	22727.775
2568.06536	22678.975
2570.7611	22601.775
2573.45514	22601.775
2576.14751	22579.775
2578.83819	22511.575
2581.52719	22506.675
2584.21451	22472.675
2586.90015	22434.575
2589.58411	22435.075
2592.2664	22356.875
2594.94701	22292.275
2597.62594	22279.475
2600.30321	22237.475
2602.9788	22231.675
2605.65273	22195.375
2608.32498	22216.075
2610.99557	22139.475
2613.66449	22111.775
2616.33175	22086.075
2618.99734	22105.975
2621.66128	22077.275
2624.32355	22029.575
2626.98416	22033.275
2629.64311	21999.475
2632.30041	21984.275
2634.95605	21951.475
2637.61004	21930.475
2640.26238	21876.675
2642.91306	21888.975
2645.56209	21862.775
2648.20948	21879.575
2650.85521	21878.375
2653.4993	21849.875
2656.14175	21817.475
2658.78255	21808.375
2661.42171	21776.875
2664.05923	21846.575
2666.6951	21812.375
2669.32934	21822.475
2671.96194	21817.675
2674.59291	21830.675
2677.22224	21777.775
2679.84993	21793.175
2682.476	21771.775
2685.10043	21755.075
2687.72324	21730.275
2690.34441	21787.775
2692.96396	21799.475
2695.58188	21802.875
2698.19818	21728.875
2700.81285	21765.075
2703.4259	21719.675
2706.03733	21813.475
2708.64714	21724.575
2711.25533	21759.375
2713.86191	21753.975
2716.46687	21804.275
2719.07021	21767.175
2721.67194	21794.375
2724.27206	21755.475
2726.87057	21777.575
2729.46747	21748.275
2732.06276	21814.575
2734.65644	21757.175
2737.24852	21748.175
2739.83899	21718.375
2742.42786	21714.975
2745.01513	21677.075
2747.60079	21657.475
2750.18486	21598.275
2752.76733	21600.375
2755.3482	21561.475
2757.92747	21525.975
2760.50515	21504.875
2763.08123	21499.975
2765.65573	21498.475
2768.22863	21453.475
2770.79994	21426.275
2773.36967	21399.775
2775.9378	21386.075
2778.50435	21385.275
2781.06932	21314.275
2783.6327	21312.375
2786.1945	21292.475
2788.75471	21224.475
2791.31335	21178.675
2793.87041	21149.975
2796.42589	21084.875
2798.97979	21137.575
2801.53212	21058.475
2804.08288	21041.175
2806.63206	20971.375
2809.17967	20894.075
2811.72571	20846.775
2814.27018	20804.475
2816.81308	20776.475
2819.35442	20731.675
2821.89419	20701.175
2824.43239	20672.775
2826.96904	20658.675
2829.50412	20663.975
2832.03763	20607.375
2834.56959	20614.375
2837.1	20582.575
2839.62884	20583.475
2842.15613	20550.175
2844.68186	20619.075
2847.20604	20603.375
2849.72867	20614.075
2852.24974	20556.375
2854.76927	20527.575
2857.28724	20536.975
2859.80367	20456.875
2862.31855	20425.575
2864.83189	20392.575
2867.34368	20368.375
2869.85393	20382.275
2872.36264	20323.775
2874.8698	20297.575
2877.37543	20311.675
2879.87952	20336.175
2882.38207	20315.375
2884.88308	20284.175
2887.38256	20272.775
2889.88051	20262.675
2892.37692	20296.875
2894.8718	20307.475
2897.36515	20339.675
2899.85698	20269.275
2902.34727	20290.075
2904.83604	20295.175
2907.32328	20289.375
2909.809	20248.375
2912.29319	20298.875
2914.77587	20255.375
2917.25702	20263.675
2919.73665	20248.275
2922.21476	20249.875
2924.69136	20223.175
2927.16644	20260.375
2929.64	20187.475
2932.11205	20149.375
2934.58258	20076.275
2937.05161	20084.275
2939.51912	20072.275
2941.98513	20047.975
2944.44962	19998.775
2946.91261	19898.475
2949.37409	19957.875
2951.83407	19951.475
2954.29254	19944.875
2956.74951	19886.975
2959.20498	19870.475
2961.65895	19819.375
2964.11142	19845.475
2966.56239	19786.575
2969.01186	19714.575
2971.45984	19678.775
2973.90632	19709.075
2976.35131	19624.075
2978.7948	19624.375
2981.23681	19502.175
2983.67732	19451.975
2986.11635	19362.375
2988.55388	19302.375
2990.98993	19293.175
2993.4245	19239.275
2995.85758	19185.575
2998.28917	19165.875
3000.71928	19137.775
3003.14791	19059.175
3005.57506	19042.375
3008.00073	18972.375
3010.42493	18946.475
3012.84764	18945.175
3015.26888	18909.875
3017.68865	18868.775
3020.10694	18788.675
3022.52376	18774.875
3024.9391	18715.875
3027.35298	18749.275
3029.76539	18719.475
3032.17632	18657.575
3034.5858	18622.375
3036.9938	18568.375
3039.40034	18585.475
3041.80542	18539.475
3044.20903	18490.875
3046.61118	18481.775
3049.01187	18425.775
3051.4111	18448.575
3053.80888	18354.275
3056.20519	18320.875
3058.60005	18263.675
3060.99345	18216.675
3063.3854	18157.675
3065.7759	18080.975
3068.16494	18047.575
3070.55254	17963.075
3072.93868	18004.175
3075.32338	17891.875
3077.70662	17885.675
3080.08842	17807.075
3082.46878	17827.175
3084.84769	17773.875
3087.22515	17721.875
3089.60118	17722.275
3091.97576	17699.175
3094.3489	17689.475
3096.72061	17681.475
3099.09087	17667.775
3101.4597	17621.575
3103.82709	17601.675
3106.19305	17540.975
3108.55757	17517.675
3110.92066	17498.875
3113.28232	17452.775
3115.64255	17393.875
3118.00134	17344.775
3120.35871	17325.875
3122.71466	17270.375
3125.06917	17222.075
