Data from AgNPs_FTO_APTES_UA_2uM_CRN_0uM_R6G_10uM_NaF_0.1M_Addition_RamanShift__11__10-17-14-925.txt Node

Date: Wed Feb 02 10:17:14 GMT 2022
User: TCL
Spectrometer: QEP01345
Trigger mode: 4
Integration Time (sec): 7.000000E0
Scans to average: 10
Electric dark correction enabled: true
Nonlinearity correction enabled: false
Boxcar width: 0
XAxis mode: Raman Shifts
Number of Pixels in Spectrum: 1044
>>>>>Begin Spectral Data<<<<<
46.04893	0.6375
50.45542	1.1375
54.85868	0.8375
59.25871	0.0375
63.6555	24.8375
68.04907	28.8375
72.43941	23.7375
76.82654	32.8375
81.21044	34.3375
85.59113	37.0375
89.96862	36.3375
94.34289	40.6375
98.71396	40.4375
103.08183	43.9375
107.4465	43.9375
111.80798	42.7375
116.16626	41.7375
120.52136	44.2375
124.87327	45.2375
129.222	43.8375
133.56755	47.4375
137.90993	49.6375
142.24913	51.7375
146.58517	54.6375
150.91804	63.5375
155.24774	71.2375
159.57429	83.7375
163.89768	102.8375
168.21792	131.3375
172.53501	172.4375
176.84895	225.0375
181.15975	310.3375
185.46741	432.5375
189.77193	591.1375
194.07331	797.4375
198.37157	1032.4375
202.6667	1293.9375
206.9587	1550.8375
211.24758	1793.2375
215.53334	2056.3375
219.81599	2333.4375
224.09553	2638.0375
228.37195	2966.6375
232.64527	3323.5375
236.91549	3684.2375
241.18261	4021.0375
245.44663	4318.5375
249.70755	4583.4375
253.96539	4765.7375
258.22014	4916.3375
262.4718	5022.3375
266.72039	5097.6375
270.96589	5069.7375
275.20832	5030.3375
279.44768	4929.2375
283.68397	4778.9375
287.91719	4658.2375
292.14735	4582.1375
296.37445	4535.4375
300.59849	4567.4375
304.81948	4653.2375
309.03742	4707.5375
313.25231	4687.2375
317.46415	4569.6375
321.67296	4389.1375
325.87872	4207.5375
330.08145	4126.1375
334.28114	4104.2375
338.47781	4106.2375
342.67145	4149.3375
346.86207	4228.6375
351.04966	4328.6375
355.23424	4475.5375
359.4158	4586.4375
363.59435	4638.8375
367.76989	4655.6375
371.94243	4669.7375
376.11196	4655.3375
380.27849	4645.4375
384.44203	4625.5375
388.60257	4607.7375
392.76012	4587.4375
396.91468	4595.8375
401.06626	4646.4375
405.21485	4699.5375
409.36047	4635.4375
413.50311	4473.1375
417.64277	4332.0375
421.77947	4252.2375
425.9132	4221.8375
430.04396	4234.7375
434.17176	4239.6375
438.2966	4278.4375
442.41849	4337.0375
446.53742	4404.3375
450.6534	4475.3375
454.76644	4496.9375
458.87653	4513.4375
462.98368	4484.1375
467.08789	4466.9375
471.18916	4425.1375
475.2875	4379.0375
479.38291	4331.1375
483.4754	4305.5375
487.56496	4286.7375
491.6516	4289.0375
495.73531	4288.9375
499.81612	4308.7375
503.89401	4347.6375
507.96899	4401.8375
512.04106	4430.8375
516.11023	4497.8375
520.1765	4536.8375
524.23987	4523.1375
528.30034	4483.8375
532.35792	4420.4375
536.41261	4368.4375
540.46441	4301.2375
544.51333	4264.8375
548.55936	4273.2375
552.60252	4318.0375
556.64279	4383.1375
560.6802	4433.4375
564.71473	4461.6375
568.7464	4514.4375
572.7752	4573.4375
576.80114	4496.7375
580.82422	4407.0375
584.84444	4357.4375
588.86181	4381.4375
592.87633	4446.3375
596.888	4524.1375
600.89682	4626.6375
604.9028	4913.2375
608.90594	5779.6375
612.90624	7018.2375
616.90371	7078.4375
620.89834	5575.1375
624.89015	4656.7375
628.87913	4408.6375
632.86528	4363.0375
636.84862	4410.0375
640.82913	4374.5375
644.80683	4305.1375
648.78172	4204.0375
652.75379	4195.0375
656.72306	4295.4375
660.68952	4435.8375
664.65319	4429.5375
668.61405	4304.7375
672.57211	4257.0375
676.52738	4302.6375
680.47986	4357.5375
684.42955	4376.7375
688.37646	4361.9375
692.32058	4307.7375
696.26192	4300.1375
700.20048	4309.6375
704.13626	4327.8375
708.06928	4323.3375
711.99952	4321.0375
715.927	4315.1375
719.85171	4324.5375
723.77365	4321.5375
727.69284	4320.6375
731.60928	4288.0375
735.52295	4284.3375
739.43388	4275.8375
743.34206	4276.9375
747.24749	4264.5375
751.15017	4265.2375
755.05012	4291.6375
758.94733	4365.0375
762.8418	4604.8375
766.73354	5079.2375
770.62254	5635.4375
774.50882	5970.2375
778.39237	5835.0375
782.27321	5284.9375
786.15132	4794.9375
790.02671	4451.1375
793.89938	4315.0375
797.76935	4251.4375
801.6366	4255.6375
805.50115	4217.9375
809.36299	4220.4375
813.22213	4190.7375
817.07857	4175.4375
820.93231	4150.0375
824.78336	4143.0375
828.63172	4149.5375
832.47738	4143.6375
836.32036	4126.5375
840.16066	4129.3375
843.99827	4121.5375
847.8332	4122.4375
851.66546	4109.0375
855.49504	4113.0375
859.32195	4109.6375
863.1462	4102.8375
866.96777	4107.3375
870.78668	4119.6375
874.60293	4124.0375
878.41652	4150.0375
882.22745	4182.0375
886.03573	4225.0375
889.84136	4274.8375
893.64433	4264.9375
897.44466	4306.8375
901.24235	4340.6375
905.0374	4385.0375
908.8298	4449.3375
912.61957	4529.8375
916.40671	4620.0375
920.19121	4755.7375
923.97308	4888.7375
927.75233	4980.0375
931.52895	5025.9375
935.30295	4947.1375
939.07433	4765.5375
942.84309	4612.7375
946.60924	4468.3375
950.37278	4364.5375
954.13371	4300.1375
957.89203	4215.9375
961.64774	4154.9375
965.40086	4097.0375
969.15137	4040.3375
972.89929	3989.1375
976.64461	3953.4375
980.38733	3924.4375
984.12747	3896.3375
987.86502	3902.1375
991.59999	3920.5375
995.33237	3927.2375
999.06217	3954.3375
1002.78939	4001.0375
1006.51404	4029.4375
1010.23611	4073.3375
1013.95561	4113.2375
1017.67255	4102.2375
1021.38692	4062.9375
1025.09872	4030.0375
1028.80796	3992.4375
1032.51465	3977.4375
1036.21877	3981.9375
1039.92035	4023.2375
1043.61937	4047.4375
1047.31584	4085.9375
1051.00976	4122.4375
1054.70114	4153.9375
1058.38998	4180.3375
1062.07627	4177.2375
1065.76003	4178.0375
1069.44126	4148.3375
1073.11995	4119.2375
1076.79611	4122.3375
1080.46974	4133.7375
1084.14085	4169.8375
1087.80943	4209.9375
1091.47549	4235.4375
1095.13903	4199.7375
1098.80005	4109.6375
1102.45857	4022.5375
1106.11456	3977.4375
1109.76805	3948.9375
1113.41903	4007.0375
1117.06751	4086.3375
1120.71348	4170.9375
1124.35696	4293.5375
1127.99793	4423.4375
1131.63641	4502.1375
1135.2724	4341.3375
1138.90589	4159.7375
1142.5369	4024.5375
1146.16542	3950.3375
1149.79145	3888.0375
1153.415	3872.4375
1157.03607	3867.9375
1160.65467	3897.5375
1164.27079	3992.9375
1167.88443	4128.5375
1171.49561	4351.3375
1175.10432	4742.1375
1178.71056	5270.6375
1182.31434	5753.4375
1185.91565	5917.8375
1189.51451	5798.9375
1193.11091	5538.9375
1196.70485	5185.4375
1200.29634	4891.8375
1203.88538	4665.8375
1207.47197	4436.9375
1211.05612	4236.9375
1214.63782	4099.2375
1218.21708	4065.0375
1221.79391	4075.4375
1225.36829	4122.0375
1228.94024	4178.5375
1232.50976	4180.5375
1236.07685	4163.4375
1239.6415	4127.5375
1243.20374	4110.2375
1246.76355	4103.3375
1250.32093	4104.3375
1253.8759	4145.7375
1257.42845	4225.5375
1260.97859	4302.3375
1264.52631	4414.2375
1268.07163	4546.2375
1271.61453	4633.9375
1275.15503	4700.7375
1278.69312	4757.2375
1282.22882	4770.7375
1285.76211	4832.0375
1289.29301	4958.4375
1292.82151	5131.9375
1296.34761	5286.5375
1299.87133	5489.5375
1303.39266	5778.1375
1306.9116	6229.0375
1310.42815	6792.3375
1313.94233	7162.7375
1317.45412	7050.0375
1320.96354	6602.6375
1324.47058	6138.1375
1327.97525	5694.3375
1331.47754	5416.4375
1334.97747	5292.4375
1338.47502	5274.9375
1341.97022	5348.8375
1345.46305	5532.9375
1348.95352	5851.3375
1352.44163	6297.2375
1355.92738	6922.6375
1359.41078	7803.3375
1362.89183	8786.8375
1366.37053	8976.1375
1369.84688	7952.9375
1373.32088	6663.2375
1376.79254	5847.6375
1380.26186	5477.4375
1383.72883	5309.8375
1387.19347	5218.6375
1390.65578	5114.2375
1394.11575	5029.3375
1397.57339	4937.4375
1401.0287	4908.1375
1404.48168	4860.6375
1407.93234	4803.0375
1411.38068	4712.6375
1414.82669	4651.8375
1418.27039	4615.7375
1421.71177	4590.2375
1425.15083	4512.5375
1428.58758	4465.1375
1432.02203	4422.6375
1435.45416	4456.8375
1438.88399	4484.1375
1442.31151	4489.7375
1445.73673	4473.5375
1449.15965	4477.2375
1452.58027	4468.4375
1455.9986	4434.0375
1459.41463	4396.9375
1462.82837	4421.4375
1466.23982	4445.1375
1469.64898	4500.0375
1473.05586	4544.7375
1476.46045	4571.0375
1479.86276	4597.6375
1483.26279	4630.8375
1486.66054	4687.2375
1490.05602	4790.3375
1493.44922	4930.9375
1496.84016	5182.7375
1500.22882	5616.8375
1503.61521	6216.1375
1506.99934	6949.1375
1510.38121	7676.5375
1513.76081	7998.5375
1517.13816	7687.5375
1520.51324	6819.9375
1523.88607	5927.7375
1527.25665	5306.5375
1530.62498	4966.2375
1533.99105	4769.2375
1537.35488	4623.8375
1540.71647	4551.5375
1544.07581	4490.6375
1547.4329	4450.9375
1550.78776	4455.1375
1554.14038	4469.2375
1557.49077	4526.5375
1560.83892	4570.6375
1564.18484	4657.1375
1567.52853	4755.3375
1570.86999	4902.5375
1574.20922	4978.5375
1577.54624	4971.2375
1580.88103	4812.6375
1584.2136	4517.7375
1587.54395	4295.6375
1590.87208	4209.1375
1594.19801	4278.5375
1597.52172	4434.2375
1600.84321	4537.7375
1604.16251	4441.8375
1607.47959	4287.4375
1610.79447	4154.3375
1614.10715	3967.0375
1617.41763	3816.5375
1620.7259	3731.9375
1624.03199	3656.9375
1627.33587	3652.4375
1630.63757	3689.7375
1633.93707	3761.4375
1637.23439	3900.3375
1640.52951	4133.0375
1643.82246	4541.5375
1647.11321	5030.8375
1650.40179	5450.2375
1653.68819	5446.8375
1656.97241	4889.5375
1660.25446	4201.9375
1663.53433	3684.0375
1666.81203	3367.9375
1670.08756	3192.7375
1673.36092	3037.5375
1676.63211	2975.1375
1679.90115	2902.5375
1683.16801	2854.1375
1686.43272	2798.1375
1689.69527	2763.5375
1692.95567	2731.7375
1696.2139	2697.0375
1699.46999	2667.8375
1702.72392	2652.4375
1705.97571	2643.1375
1709.22535	2625.0375
1712.47284	2630.2375
1715.71819	2619.4375
1718.96139	2619.4375
1722.20246	2626.6375
1725.44139	2596.2375
1728.67818	2551.3375
1731.91284	2546.0375
1735.14537	2537.4375
1738.37576	2511.3375
1741.60403	2489.6375
1744.83017	2489.9375
1748.05418	2486.7375
1751.27607	2476.9375
1754.49584	2470.3375
1757.71349	2477.4375
1760.92903	2457.3375
1764.14244	2454.6375
1767.35375	2421.5375
1770.56294	2401.4375
1773.77002	2388.5375
1776.97499	2379.4375
1780.17785	2361.9375
1783.37861	2374.6375
1786.57727	2353.8375
1789.77382	2337.0375
1792.96828	2339.8375
1796.16064	2329.0375
1799.3509	2322.3375
1802.53907	2327.2375
1805.72514	2303.7375
1808.90913	2286.6375
1812.09102	2285.4375
1815.27083	2279.7375
1818.44856	2262.5375
1821.6242	2277.9375
1824.79776	2252.5375
1827.96924	2251.7375
1831.13864	2246.1375
1834.30597	2241.3375
1837.47122	2238.8375
1840.6344	2230.0375
1843.7955	2233.8375
1846.95454	2240.4375
1850.11151	2238.3375
1853.26642	2232.3375
1856.41926	2239.0375
1859.57004	2226.6375
1862.71876	2208.7375
1865.86542	2196.1375
1869.01003	2198.9375
1872.15258	2201.7375
1875.29308	2192.5375
1878.43152	2182.4375
1881.56792	2181.5375
1884.70227	2174.3375
1887.83457	2163.2375
1890.96482	2165.7375
1894.09304	2162.6375
1897.21921	2159.3375
1900.34335	2158.5375
1903.46544	2149.7375
1906.58551	2157.0375
1909.70353	2145.5375
1912.81953	2142.2375
1915.93349	2132.7375
1919.04543	2131.5375
1922.15534	2123.1375
1925.26322	2120.6375
1928.36908	2121.4375
1931.47292	2104.2375
1934.57473	2093.0375
1937.67453	2094.8375
1940.77232	2093.2375
1943.86808	2084.5375
1946.96184	2061.4375
1950.05358	2060.1375
1953.14331	2048.0375
1956.23103	2050.0375
1959.31675	2041.5375
1962.40046	2014.5375
1965.48217	2032.4375
1968.56188	2008.0375
1971.63959	2006.6375
1974.7153	2008.7375
1977.78901	1996.3375
1980.86073	1990.3375
1983.93046	1985.5375
1986.99819	1972.9375
1990.06394	1976.0375
1993.1277	1961.7375
1996.18947	1949.0375
1999.24925	1947.1375
2002.30706	1935.0375
2005.36288	1932.8375
2008.41672	1917.8375
2011.46859	1920.1375
2014.51848	1905.7375
2017.56639	1898.0375
2020.61233	1890.5375
2023.6563	1883.5375
2026.6983	1882.6375
2029.73833	1875.8375
2032.7764	1880.9375
2035.8125	1870.4375
2038.84664	1854.3375
2041.87881	1869.5375
2044.90903	1839.2375
2047.93729	1857.8375
2050.96359	1855.8375
2053.98794	1850.1375
2057.01034	1834.1375
2060.03078	1849.1375
2063.04927	1835.3375
2066.06582	1833.2375
2069.08042	1831.9375
2072.09307	1837.5375
2075.10378	1835.9375
2078.11255	1841.7375
2081.11938	1830.7375
2084.12426	1836.7375
2087.12722	1841.2375
2090.12824	1836.3375
2093.12732	1832.4375
2096.12447	1842.5375
2099.11969	1839.0375
2102.11299	1846.2375
2105.10435	1842.1375
2108.09379	1836.8375
2111.08131	1841.8375
2114.0669	1835.5375
2117.05057	1836.4375
2120.03233	1826.1375
2123.01216	1836.1375
2125.99008	1827.5375
2128.96609	1816.8375
2131.94018	1831.9375
2134.91236	1822.2375
2137.88263	1817.0375
2140.851	1814.9375
2143.81746	1816.3375
2146.78201	1814.5375
2149.74466	1808.1375
2152.7054	1808.2375
2155.66425	1797.6375
2158.6212	1803.0375
2161.57625	1796.7375
2164.52941	1791.1375
2167.48067	1793.6375
2170.43004	1788.9375
2173.37752	1799.6375
2176.32311	1776.0375
2179.26681	1783.5375
2182.20863	1776.4375
2185.14856	1788.3375
2188.08661	1779.4375
2191.02278	1778.6375
2193.95707	1774.2375
2196.88948	1770.6375
2199.82001	1784.8375
2202.74867	1765.5375
2205.67545	1767.7375
2208.60037	1762.2375
2211.52341	1767.3375
2214.44458	1761.9375
2217.36388	1749.3375
2220.28132	1746.4375
2223.1969	1742.4375
2226.11061	1727.2375
2229.02246	1725.9375
2231.93245	1721.5375
2234.84058	1730.2375
2237.74686	1702.2375
2240.65128	1713.3375
2243.55385	1704.0375
2246.45456	1712.0375
2249.35343	1708.6375
2252.25044	1703.1375
2255.14561	1703.0375
2258.03893	1695.6375
2260.93041	1693.7375
2263.82004	1682.6375
2266.70783	1680.0375
2269.59378	1684.4375
2272.4779	1671.9375
2275.36017	1671.1375
2278.24061	1658.5375
2281.11922	1655.4375
2283.996	1653.0375
2286.87094	1658.5375
2289.74405	1647.9375
2292.61534	1628.1375
2295.4848	1635.7375
2298.35243	1625.2375
2301.21824	1635.3375
2304.08223	1621.9375
2306.94439	1621.4375
2309.80474	1622.7375
2312.66327	1621.0375
2315.51999	1611.2375
2318.37489	1608.2375
2321.22797	1607.0375
2324.07925	1605.9375
2326.92871	1604.2375
2329.77637	1607.7375
2332.62222	1602.0375
2335.46626	1598.2375
2338.3085	1595.1375
2341.14893	1594.0375
2343.98756	1581.6375
2346.8244	1585.1375
2349.65943	1578.2375
2352.49267	1585.9375
2355.32411	1577.6375
2358.15376	1590.5375
2360.98161	1578.1375
2363.80768	1585.2375
2366.63195	1576.1375
2369.45444	1587.4375
2372.27514	1589.1375
2375.09405	1587.0375
2377.91118	1571.4375
2380.72652	1570.8375
2383.54009	1577.2375
2386.35187	1562.5375
2389.16188	1550.4375
2391.97011	1544.5375
2394.77657	1538.4375
2397.58125	1528.8375
2400.38416	1531.2375
2403.18529	1518.5375
2405.98466	1517.7375
2408.78226	1516.1375
2411.57809	1512.6375
2414.37216	1517.8375
2417.16446	1509.9375
2419.955	1495.6375
2422.74378	1502.3375
2425.5308	1505.1375
2428.31606	1505.1375
2431.09956	1502.3375
2433.88131	1495.2375
2436.6613	1495.1375
2439.43954	1489.1375
2442.21603	1497.7375
2444.99077	1485.6375
2447.76377	1489.5375
2450.53501	1486.5375
2453.30451	1492.6375
2456.07226	1486.4375
2458.83827	1486.0375
2461.60254	1484.9375
2464.36507	1469.6375
2467.12586	1470.6375
2469.88492	1483.8375
2472.64224	1473.1375
2475.39782	1474.6375
2478.15167	1467.4375
2480.90379	1458.0375
2483.65417	1471.5375
2486.40283	1470.0375
2489.14976	1469.0375
2491.89497	1471.6375
2494.63845	1473.5375
2497.3802	1460.6375
2500.12024	1465.3375
2502.85855	1464.9375
2505.59514	1459.1375
2508.33002	1449.6375
2511.06318	1446.6375
2513.79462	1441.9375
2516.52435	1442.2375
2519.25237	1422.7375
2521.97867	1431.0375
2524.70327	1420.0375
2527.42616	1420.3375
2530.14734	1407.0375
2532.86681	1403.4375
2535.58458	1414.1375
2538.30065	1400.2375
2541.01501	1400.1375
2543.72768	1409.6375
2546.43864	1403.5375
2549.14791	1391.1375
2551.85548	1386.6375
2554.56136	1388.1375
2557.26554	1385.4375
2559.96803	1380.8375
2562.66883	1381.7375
2565.36794	1383.5375
2568.06536	1388.4375
2570.7611	1371.8375
2573.45514	1379.6375
2576.14751	1371.8375
2578.83819	1367.2375
2581.52719	1369.4375
2584.21451	1355.9375
2586.90015	1361.9375
2589.58411	1367.2375
2592.2664	1352.9375
2594.94701	1348.1375
2597.62594	1357.6375
2600.30321	1344.1375
2602.9788	1339.5375
2605.65273	1333.6375
2608.32498	1332.8375
2610.99557	1333.7375
2613.66449	1336.8375
2616.33175	1331.4375
2618.99734	1332.7375
2621.66128	1331.1375
2624.32355	1324.1375
2626.98416	1334.8375
2629.64311	1327.9375
2632.30041	1322.7375
2634.95605	1321.0375
2637.61004	1318.1375
2640.26238	1317.5375
2642.91306	1312.7375
2645.56209	1316.1375
2648.20948	1305.8375
2650.85521	1313.4375
2653.4993	1310.3375
2656.14175	1312.6375
2658.78255	1309.9375
2661.42171	1313.4375
2664.05923	1316.1375
2666.6951	1309.5375
2669.32934	1313.0375
2671.96194	1313.9375
2674.59291	1317.8375
2677.22224	1307.0375
2679.84993	1318.9375
2682.476	1312.9375
2685.10043	1321.1375
2687.72324	1319.9375
2690.34441	1313.5375
2692.96396	1317.2375
2695.58188	1314.3375
2698.19818	1320.0375
2700.81285	1327.7375
2703.4259	1311.9375
2706.03733	1303.6375
2708.64714	1305.1375
2711.25533	1309.0375
2713.86191	1310.3375
2716.46687	1326.4375
2719.07021	1327.4375
2721.67194	1325.2375
2724.27206	1325.6375
2726.87057	1328.9375
2729.46747	1331.0375
2732.06276	1330.2375
2734.65644	1317.8375
2737.24852	1328.2375
2739.83899	1329.6375
2742.42786	1327.9375
2745.01513	1326.2375
2747.60079	1326.7375
2750.18486	1326.8375
2752.76733	1324.6375
2755.3482	1327.4375
2757.92747	1325.2375
2760.50515	1327.9375
2763.08123	1327.8375
2765.65573	1327.7375
2768.22863	1323.1375
2770.79994	1318.9375
2773.36967	1317.2375
2775.9378	1328.6375
2778.50435	1329.1375
2781.06932	1324.3375
2783.6327	1317.3375
2786.1945	1317.0375
2788.75471	1321.8375
2791.31335	1311.2375
2793.87041	1322.4375
2796.42589	1316.3375
2798.97979	1327.9375
2801.53212	1327.6375
2804.08288	1317.0375
2806.63206	1311.6375
2809.17967	1315.7375
2811.72571	1309.1375
2814.27018	1317.1375
2816.81308	1315.6375
2819.35442	1310.8375
2821.89419	1313.9375
2824.43239	1306.4375
2826.96904	1309.2375
2829.50412	1311.7375
2832.03763	1318.7375
2834.56959	1313.1375
2837.1	1331.5375
2839.62884	1344.7375
2842.15613	1365.4375
2844.68186	1395.2375
2847.20604	1426.1375
2849.72867	1441.5375
2852.24974	1458.6375
2854.76927	1468.3375
2857.28724	1466.1375
2859.80367	1480.3375
2862.31855	1491.1375
2864.83189	1500.2375
2867.34368	1503.6375
2869.85393	1520.1375
2872.36264	1529.2375
2874.8698	1542.7375
2877.37543	1553.6375
2879.87952	1559.2375
2882.38207	1562.7375
2884.88308	1571.1375
2887.38256	1585.4375
2889.88051	1590.1375
2892.37692	1603.4375
2894.8718	1605.1375
2897.36515	1617.9375
2899.85698	1621.4375
2902.34727	1625.4375
2904.83604	1631.1375
2907.32328	1645.4375
2909.809	1643.8375
2912.29319	1661.4375
2914.77587	1679.9375
2917.25702	1649.7375
2919.73665	1665.5375
2922.21476	1753.8375
2924.69136	1682.3375
2927.16644	1655.5375
2929.64	1655.3375
2932.11205	1640.0375
2934.58258	1654.6375
2937.05161	1636.4375
2939.51912	1625.8375
2941.98513	1598.9375
2944.44962	1578.5375
2946.91261	1549.8375
2949.37409	1527.1375
2951.83407	1509.4375
2954.29254	1496.6375
2956.74951	1461.0375
2959.20498	1442.8375
2961.65895	1418.6375
2964.11142	1408.5375
2966.56239	1395.0375
2969.01186	1373.8375
2971.45984	1357.9375
2973.90632	1334.6375
2976.35131	1322.0375
2978.7948	1308.4375
2981.23681	1310.0375
2983.67732	1292.6375
2986.11635	1266.9375
2988.55388	1260.8375
2990.98993	1255.5375
2993.4245	1253.3375
2995.85758	1236.7375
2998.28917	1238.7375
3000.71928	1239.1375
3003.14791	1239.2375
3005.57506	1238.5375
3008.00073	1227.5375
3010.42493	1239.2375
3012.84764	1226.9375
3015.26888	1218.0375
3017.68865	1217.4375
3020.10694	1223.4375
3022.52376	1213.8375
3024.9391	1207.4375
3027.35298	1206.3375
3029.76539	1208.4375
3032.17632	1206.4375
3034.5858	1201.3375
3036.9938	1204.4375
3039.40034	1196.5375
3041.80542	1203.5375
3044.20903	1198.9375
3046.61118	1205.5375
3049.01187	1193.5375
3051.4111	1194.6375
3053.80888	1198.5375
3056.20519	1186.9375
3058.60005	1191.6375
3060.99345	1199.4375
3063.3854	1185.3375
3065.7759	1196.0375
3068.16494	1205.4375
3070.55254	1193.1375
3072.93868	1188.7375
3075.32338	1191.0375
3077.70662	1195.2375
3080.08842	1197.5375
3082.46878	1201.4375
3084.84769	1203.3375
3087.22515	1200.1375
3089.60118	1209.5375
3091.97576	1209.2375
3094.3489	1213.8375
3096.72061	1218.8375
3099.09087	1224.2375
3101.4597	1220.7375
3103.82709	1226.6375
3106.19305	1229.9375
3108.55757	1227.6375
3110.92066	1237.9375
3113.28232	1229.5375
3115.64255	1232.1375
3118.00134	1239.6375
3120.35871	1236.6375
3122.71466	1241.4375
3125.06917	1257.6375
