Data from AgNPs_FTO_APTES_UA_2uM_CRN_0uM_R6G_10uM_NaF_0.1M_Addition_RamanShift__57__11-10-54-989.txt Node

Date: Wed Feb 02 11:10:54 GMT 2022
User: TCL
Spectrometer: QEP01345
Trigger mode: 4
Integration Time (sec): 7.000000E0
Scans to average: 10
Electric dark correction enabled: true
Nonlinearity correction enabled: false
Boxcar width: 0
XAxis mode: Raman Shifts
Number of Pixels in Spectrum: 1044
>>>>>Begin Spectral Data<<<<<
46.04893	1.3125
50.45542	1.0125
54.85868	-1.5875
59.25871	-1.0875
63.6555	48.6125
68.04907	55.1125
72.43941	54.1125
76.82654	60.2125
81.21044	61.8125
85.59113	66.1125
89.96862	66.2125
94.34289	65.8125
98.71396	73.3125
103.08183	76.1125
107.4465	78.8125
111.80798	78.9125
116.16626	80.1125
120.52136	88.0125
124.87327	89.3125
129.222	93.5125
133.56755	98.1125
137.90993	107.3125
142.24913	119.9125
146.58517	137.5125
150.91804	156.6125
155.24774	190.6125
159.57429	232.0125
163.89768	303.6125
168.21792	407.4125
172.53501	547.5125
176.84895	769.9125
181.15975	1076.5125
185.46741	1509.9125
189.77193	2061.7125
194.07331	2765.9125
198.37157	3554.3125
202.6667	4379.6125
206.9587	5168.5125
211.24758	6011.1125
215.53334	6829.5125
219.81599	7804.6125
224.09553	8903.4125
228.37195	10079.9125
232.64527	11348.8125
236.91549	12592.4125
241.18261	13724.9125
245.44663	14676.2125
249.70755	15418.4125
253.96539	16115.3125
258.22014	16737.7125
262.4718	17268.6125
266.72039	17720.2125
270.96589	17973.6125
275.20832	18032.8125
279.44768	17952.3125
283.68397	17802.7125
287.91719	17745.4125
292.14735	17836.3125
296.37445	18057.1125
300.59849	18511.2125
304.81948	19114.4125
309.03742	19499.5125
313.25231	19432.0125
317.46415	18549.8125
321.67296	17125.9125
325.87872	15894.3125
330.08145	15271.4125
334.28114	15167.5125
338.47781	15360.8125
342.67145	15767.5125
346.86207	16380.7125
351.04966	17299.4125
355.23424	18324.7125
359.4158	19163.1125
363.59435	19508.1125
367.76989	19521.9125
371.94243	19398.7125
376.11196	19165.3125
380.27849	19045.6125
384.44203	18808.7125
388.60257	18652.0125
392.76012	18568.2125
396.91468	18825.7125
401.06626	19360.6125
405.21485	19749.5125
409.36047	19459.5125
413.50311	18541.9125
417.64277	17704.2125
421.77947	17301.0125
425.9132	17192.6125
430.04396	17212.8125
434.17176	17264.7125
438.2966	17463.6125
442.41849	17867.7125
446.53742	18529.1125
450.6534	19154.1125
454.76644	19568.6125
458.87653	19645.0125
462.98368	19478.9125
467.08789	19245.3125
471.18916	18852.1125
475.2875	18534.2125
479.38291	18297.7125
483.4754	18085.9125
487.56496	17751.4125
491.6516	17469.8125
495.73531	17220.7125
499.81612	17189.7125
503.89401	17313.4125
507.96899	17435.9125
512.04106	17496.9125
516.11023	17523.1125
520.1765	17444.3125
524.23987	17290.3125
528.30034	16975.1125
532.35792	16558.5125
536.41261	16176.5125
540.46441	15726.5125
544.51333	15573.9125
548.55936	15768.6125
552.60252	16289.5125
556.64279	16948.4125
560.6802	17395.1125
564.71473	17934.6125
568.7464	18997.7125
572.7752	19831.3125
576.80114	19529.4125
580.82422	18880.0125
584.84444	18589.5125
588.86181	18520.7125
592.87633	18654.5125
596.888	18872.2125
600.89682	19302.1125
604.9028	21085.1125
608.90594	26028.0125
612.90624	32308.2125
616.90371	30882.4125
620.89834	21734.9125
624.89015	17292.0125
628.87913	16504.1125
632.86528	16587.0125
636.84862	16703.1125
640.82913	16323.5125
644.80683	15542.8125
648.78172	14921.8125
652.75379	14903.3125
656.72306	15549.3125
660.68952	16360.8125
664.65319	16299.9125
668.61405	15540.0125
672.57211	15134.8125
676.52738	15073.7125
680.47986	15012.8125
684.42955	14853.0125
688.37646	14737.3125
692.32058	14826.8125
696.26192	15039.7125
700.20048	15377.7125
704.13626	15588.8125
708.06928	15691.6125
711.99952	15498.9125
715.927	15350.2125
719.85171	15340.1125
723.77365	15234.8125
727.69284	14976.6125
731.60928	14778.8125
735.52295	14705.3125
739.43388	14767.8125
743.34206	14881.6125
747.24749	15021.4125
751.15017	15279.2125
755.05012	15669.7125
758.94733	16526.3125
762.8418	18377.0125
766.73354	21598.6125
770.62254	24907.8125
774.50882	26144.0125
778.39237	24624.1125
782.27321	21330.1125
786.15132	18201.7125
790.02671	16265.8125
793.89938	15379.2125
797.76935	15009.5125
801.6366	14812.0125
805.50115	14714.8125
809.36299	14577.2125
813.22213	14456.3125
817.07857	14435.0125
820.93231	14410.8125
824.78336	14426.1125
828.63172	14492.2125
832.47738	14528.3125
836.32036	14567.8125
840.16066	14494.2125
843.99827	14423.4125
847.8332	14278.0125
851.66546	14223.8125
855.49504	14229.2125
859.32195	14141.2125
863.1462	14048.9125
866.96777	13957.1125
870.78668	13925.6125
874.60293	13907.0125
878.41652	13971.5125
882.22745	14057.9125
886.03573	14139.1125
889.84136	14117.2125
893.64433	14020.9125
897.44466	13927.3125
901.24235	13959.0125
905.0374	13891.4125
908.8298	13854.3125
912.61957	13882.9125
916.40671	14061.8125
920.19121	14296.6125
923.97308	14533.7125
927.75233	14708.7125
931.52895	14749.4125
935.30295	14476.1125
939.07433	13947.4125
942.84309	13536.1125
946.60924	13295.4125
950.37278	13246.7125
954.13371	13070.3125
957.89203	12989.2125
961.64774	12978.9125
965.40086	12936.9125
969.15137	12882.6125
972.89929	12864.9125
976.64461	12833.1125
980.38733	12809.7125
984.12747	12865.7125
987.86502	12982.6125
991.59999	13135.0125
995.33237	13351.8125
999.06217	13754.4125
1002.78939	14376.8125
1006.51404	14928.0125
1010.23611	15331.9125
1013.95561	15517.9125
1017.67255	15342.7125
1021.38692	14992.6125
1025.09872	14609.8125
1028.80796	14449.7125
1032.51465	14528.8125
1036.21877	14756.3125
1039.92035	14914.1125
1043.61937	14939.8125
1047.31584	14765.2125
1051.00976	14567.7125
1054.70114	14463.3125
1058.38998	14426.0125
1062.07627	14529.8125
1065.76003	14684.6125
1069.44126	14908.9125
1073.11995	15206.4125
1076.79611	15436.9125
1080.46974	15619.4125
1084.14085	15978.2125
1087.80943	16436.1125
1091.47549	16664.3125
1095.13903	16517.8125
1098.80005	15939.1125
1102.45857	15285.9125
1106.11456	14888.1125
1109.76805	14802.4125
1113.41903	14980.9125
1117.06751	15406.4125
1120.71348	15923.0125
1124.35696	16587.0125
1127.99793	17257.9125
1131.63641	17409.6125
1135.2724	16780.8125
1138.90589	16081.3125
1142.5369	15682.9125
1146.16542	15483.1125
1149.79145	15433.0125
1153.415	15491.5125
1157.03607	15744.4125
1160.65467	16239.1125
1164.27079	17036.2125
1167.88443	18223.3125
1171.49561	20037.9125
1175.10432	22844.8125
1178.71056	26450.4125
1182.31434	29321.2125
1185.91565	30467.4125
1189.51451	30165.4125
1193.11091	28795.4125
1196.70485	26744.5125
1200.29634	24703.1125
1203.88538	23059.8125
1207.47197	21423.0125
1211.05612	20130.5125
1214.63782	19449.9125
1218.21708	19366.5125
1221.79391	19501.3125
1225.36829	19639.2125
1228.94024	19719.3125
1232.50976	19629.9125
1236.07685	19458.4125
1239.6415	19233.5125
1243.20374	18946.1125
1246.76355	18770.8125
1250.32093	18928.9125
1253.8759	19445.0125
1257.42845	20146.1125
1260.97859	20977.3125
1264.52631	21841.4125
1268.07163	22682.9125
1271.61453	23572.3125
1275.15503	24292.4125
1278.69312	24859.5125
1282.22882	25305.3125
1285.76211	26008.2125
1289.29301	27077.7125
1292.82151	28191.4125
1296.34761	29472.5125
1299.87133	31220.5125
1303.39266	33574.8125
1306.9116	36966.1125
1310.42815	41165.3125
1313.94233	44474.0125
1317.45412	45181.4125
1320.96354	43763.3125
1324.47058	41617.4125
1327.97525	39353.2125
1331.47754	37557.2125
1334.97747	36330.6125
1338.47502	35670.3125
1341.97022	35372.0125
1345.46305	35210.7125
1348.95352	35438.1125
1352.44163	36224.1125
1355.92738	38264.5125
1359.41078	42176.6125
1362.89183	46764.4125
1366.37053	46959.8125
1369.84688	41375.7125
1373.32088	34830.3125
1376.79254	30518.8125
1380.26186	28469.8125
1383.72883	27571.0125
1387.19347	26953.4125
1390.65578	26337.5125
1394.11575	26011.6125
1397.57339	26203.4125
1401.0287	26837.9125
1404.48168	27535.3125
1407.93234	27875.4125
1411.38068	27685.7125
1414.82669	26841.5125
1418.27039	25544.9125
1421.71177	24197.1125
1425.15083	23073.0125
1428.58758	22401.4125
1432.02203	22187.7125
1435.45416	22456.7125
1438.88399	22810.5125
1442.31151	23086.2125
1445.73673	23388.4125
1449.15965	23813.5125
1452.58027	24094.8125
1455.9986	24228.9125
1459.41463	24411.3125
1462.82837	24784.9125
1466.23982	25239.0125
1469.64898	25690.1125
1473.05586	25858.9125
1476.46045	25870.9125
1479.86276	25857.0125
1483.26279	25964.5125
1486.66054	26256.7125
1490.05602	26733.3125
1493.44922	27452.3125
1496.84016	28465.3125
1500.22882	30107.4125
1503.61521	32574.9125
1506.99934	35600.9125
1510.38121	38964.9125
1513.76081	41263.5125
1517.13816	40770.7125
1520.51324	37284.1125
1523.88607	33108.7125
1527.25665	30106.0125
1530.62498	28298.0125
1533.99105	27299.8125
1537.35488	26605.3125
1540.71647	26104.9125
1544.07581	25657.2125
1547.4329	25142.5125
1550.78776	24689.0125
1554.14038	24476.4125
1557.49077	24512.5125
1560.83892	24879.9125
1564.18484	25409.0125
1567.52853	25847.5125
1570.86999	26186.6125
1574.20922	26562.7125
1577.54624	26735.0125
1580.88103	26072.9125
1584.2136	25090.1125
1587.54395	24976.0125
1590.87208	25991.2125
1594.19801	27891.5125
1597.52172	29999.7125
1600.84321	30857.0125
1604.16251	29481.3125
1607.47959	26872.6125
1610.79447	23948.9125
1614.10715	21381.1125
1617.41763	19370.6125
1620.7259	18099.3125
1624.03199	17482.2125
1627.33587	17442.0125
1630.63757	18014.1125
1633.93707	19336.4125
1637.23439	21437.0125
1640.52951	24307.5125
1643.82246	27759.8125
1647.11321	31059.0125
1650.40179	33000.9125
1653.68819	31890.1125
1656.97241	27604.3125
1660.25446	22544.7125
1663.53433	18642.0125
1666.81203	16208.7125
1670.08756	14774.6125
1673.36092	13913.0125
1676.63211	13363.9125
1679.90115	13004.2125
1683.16801	12744.9125
1686.43272	12541.0125
1689.69527	12414.1125
1692.95567	12309.4125
1696.2139	12252.5125
1699.46999	12185.6125
1702.72392	12154.0125
1705.97571	12126.4125
1709.22535	12101.9125
1712.47284	12060.0125
1715.71819	12070.2125
1718.96139	12067.3125
1722.20246	12030.0125
1725.44139	11978.3125
1728.67818	11874.3125
1731.91284	11776.7125
1735.14537	11656.7125
1738.37576	11582.9125
1741.60403	11506.2125
1744.83017	11498.4125
1748.05418	11466.1125
1751.27607	11417.9125
1754.49584	11374.8125
1757.71349	11376.6125
1760.92903	11381.1125
1764.14244	11376.6125
1767.35375	11345.8125
1770.56294	11287.4125
1773.77002	11283.8125
1776.97499	11241.9125
1780.17785	11208.6125
1783.37861	11194.8125
1786.57727	11151.4125
1789.77382	11114.9125
1792.96828	11138.0125
1796.16064	11074.6125
1799.3509	11080.1125
1802.53907	11059.5125
1805.72514	11050.5125
1808.90913	11022.2125
1812.09102	10981.4125
1815.27083	10958.8125
1818.44856	10945.6125
1821.6242	10926.9125
1824.79776	10920.6125
1827.96924	10903.1125
1831.13864	10879.9125
1834.30597	10877.9125
1837.47122	10899.2125
1840.6344	10880.1125
1843.7955	10880.4125
1846.95454	10883.1125
1850.11151	10878.9125
1853.26642	10894.6125
1856.41926	10900.4125
1859.57004	10938.3125
1862.71876	10918.5125
1865.86542	10939.9125
1869.01003	10961.7125
1872.15258	10954.7125
1875.29308	10990.0125
1878.43152	11021.2125
1881.56792	11057.0125
1884.70227	11059.8125
1887.83457	11087.0125
1890.96482	11092.6125
1894.09304	11109.0125
1897.21921	11140.8125
1900.34335	11163.2125
1903.46544	11202.4125
1906.58551	11198.2125
1909.70353	11239.4125
1912.81953	11258.8125
1915.93349	11272.3125
1919.04543	11248.6125
1922.15534	11223.8125
1925.26322	11177.1125
1928.36908	11112.1125
1931.47292	11060.0125
1934.57473	10946.9125
1937.67453	10885.1125
1940.77232	10802.8125
1943.86808	10715.6125
1946.96184	10637.6125
1950.05358	10539.7125
1953.14331	10486.0125
1956.23103	10441.3125
1959.31675	10368.4125
1962.40046	10328.7125
1965.48217	10310.9125
1968.56188	10258.7125
1971.63959	10221.8125
1974.7153	10202.5125
1977.78901	10149.2125
1980.86073	10121.8125
1983.93046	10102.8125
1986.99819	10051.0125
1990.06394	10027.4125
1993.1277	9967.3125
1996.18947	9947.2125
1999.24925	9911.7125
2002.30706	9883.4125
2005.36288	9858.5125
2008.41672	9826.4125
2011.46859	9780.7125
2014.51848	9756.9125
2017.56639	9724.6125
2020.61233	9695.7125
2023.6563	9690.7125
2026.6983	9668.9125
2029.73833	9641.2125
2032.7764	9645.5125
2035.8125	9614.4125
2038.84664	9580.2125
2041.87881	9575.5125
2044.90903	9552.5125
2047.93729	9525.7125
2050.96359	9539.5125
2053.98794	9525.1125
2057.01034	9492.9125
2060.03078	9481.2125
2063.04927	9483.3125
2066.06582	9478.0125
2069.08042	9476.8125
2072.09307	9470.9125
2075.10378	9447.1125
2078.11255	9438.7125
2081.11938	9445.9125
2084.12426	9442.5125
2087.12722	9435.4125
2090.12824	9437.5125
2093.12732	9421.7125
2096.12447	9460.3125
2099.11969	9453.0125
2102.11299	9453.3125
2105.10435	9436.2125
2108.09379	9440.8125
2111.08131	9424.0125
2114.0669	9432.5125
2117.05057	9472.6125
2120.03233	9462.5125
2123.01216	9467.6125
2125.99008	9466.3125
2128.96609	9465.1125
2131.94018	9483.2125
2134.91236	9460.0125
2137.88263	9483.7125
2140.851	9481.0125
2143.81746	9477.6125
2146.78201	9486.4125
2149.74466	9477.4125
2152.7054	9490.7125
2155.66425	9452.1125
2158.6212	9473.5125
2161.57625	9475.8125
2164.52941	9465.6125
2167.48067	9456.4125
2170.43004	9458.2125
2173.37752	9434.0125
2176.32311	9466.1125
2179.26681	9453.6125
2182.20863	9466.3125
2185.14856	9457.6125
2188.08661	9470.4125
2191.02278	9456.1125
2193.95707	9468.5125
2196.88948	9449.0125
2199.82001	9448.2125
2202.74867	9411.9125
2205.67545	9440.1125
2208.60037	9425.9125
2211.52341	9392.4125
2214.44458	9395.4125
2217.36388	9386.2125
2220.28132	9353.4125
2223.1969	9338.2125
2226.11061	9325.0125
2229.02246	9296.4125
2231.93245	9298.1125
2234.84058	9281.6125
2237.74686	9254.9125
2240.65128	9246.3125
2243.55385	9234.8125
2246.45456	9241.3125
2249.35343	9214.3125
2252.25044	9197.2125
2255.14561	9192.7125
2258.03893	9195.3125
2260.93041	9176.4125
2263.82004	9155.5125
2266.70783	9152.5125
2269.59378	9130.2125
2272.4779	9112.6125
2275.36017	9084.1125
2278.24061	9090.5125
2281.11922	9053.8125
2283.996	9033.0125
2286.87094	9023.2125
2289.74405	9008.5125
2292.61534	8976.6125
2295.4848	8958.4125
2298.35243	8975.4125
2301.21824	8934.6125
2304.08223	8947.9125
2306.94439	8958.3125
2309.80474	8964.9125
2312.66327	8959.3125
2315.51999	8966.2125
2318.37489	8962.4125
2321.22797	8948.0125
2324.07925	8938.9125
2326.92871	8953.6125
2329.77637	8928.5125
2332.62222	8917.0125
2335.46626	8926.5125
2338.3085	8922.0125
2341.14893	8920.7125
2343.98756	8951.5125
2346.8244	8958.6125
2349.65943	8933.0125
2352.49267	8934.8125
2355.32411	8939.7125
2358.15376	8950.1125
2360.98161	8972.3125
2363.80768	8964.2125
2366.63195	8980.8125
2369.45444	8988.0125
2372.27514	8961.9125
2375.09405	8943.8125
2377.91118	8950.6125
2380.72652	8893.4125
2383.54009	8852.0125
2386.35187	8844.5125
2389.16188	8791.1125
2391.97011	8766.7125
2394.77657	8752.8125
2397.58125	8755.8125
2400.38416	8724.0125
2403.18529	8711.1125
2405.98466	8692.3125
2408.78226	8678.0125
2411.57809	8663.1125
2414.37216	8655.8125
2417.16446	8636.3125
2419.955	8611.1125
2422.74378	8637.2125
2425.5308	8621.2125
2428.31606	8617.9125
2431.09956	8628.0125
2433.88131	8610.8125
2436.6613	8610.1125
2439.43954	8622.2125
2442.21603	8603.3125
2444.99077	8624.3125
2447.76377	8626.2125
2450.53501	8625.3125
2453.30451	8629.1125
2456.07226	8631.8125
2458.83827	8642.7125
2461.60254	8621.8125
2464.36507	8637.5125
2467.12586	8635.9125
2469.88492	8647.6125
2472.64224	8639.2125
2475.39782	8623.9125
2478.15167	8648.4125
2480.90379	8640.0125
2483.65417	8695.2125
2486.40283	8702.0125
2489.14976	8674.0125
2491.89497	8725.3125
2494.63845	8712.6125
2497.3802	8725.0125
2500.12024	8707.0125
2502.85855	8721.4125
2505.59514	8702.6125
2508.33002	8687.7125
2511.06318	8664.6125
2513.79462	8632.5125
2516.52435	8631.1125
2519.25237	8590.6125
2521.97867	8576.6125
2524.70327	8567.3125
2527.42616	8552.9125
2530.14734	8530.2125
2532.86681	8537.2125
2535.58458	8538.2125
2538.30065	8520.4125
2541.01501	8510.5125
2543.72768	8480.7125
2546.43864	8497.7125
2549.14791	8506.9125
2551.85548	8489.0125
2554.56136	8484.7125
2557.26554	8507.1125
2559.96803	8476.5125
2562.66883	8461.0125
2565.36794	8464.8125
2568.06536	8465.1125
2570.7611	8450.5125
2573.45514	8440.3125
2576.14751	8440.1125
2578.83819	8444.5125
2581.52719	8440.4125
2584.21451	8440.2125
2586.90015	8436.1125
2589.58411	8423.8125
2592.2664	8405.4125
2594.94701	8411.0125
2597.62594	8391.4125
2600.30321	8364.6125
2602.9788	8382.5125
2605.65273	8405.7125
2608.32498	8383.3125
2610.99557	8388.0125
2613.66449	8402.6125
2616.33175	8388.8125
2618.99734	8401.7125
2621.66128	8402.6125
2624.32355	8399.3125
2626.98416	8416.5125
2629.64311	8411.9125
2632.30041	8401.4125
2634.95605	8377.2125
2637.61004	8367.3125
2640.26238	8374.5125
2642.91306	8364.9125
2645.56209	8357.1125
2648.20948	8344.7125
2650.85521	8341.6125
2653.4993	8339.2125
2656.14175	8355.4125
2658.78255	8352.6125
2661.42171	8364.3125
2664.05923	8356.4125
2666.6951	8367.5125
2669.32934	8364.5125
2671.96194	8399.9125
2674.59291	8410.2125
2677.22224	8401.7125
2679.84993	8414.2125
2682.476	8393.1125
2685.10043	8401.8125
2687.72324	8394.3125
2690.34441	8391.3125
2692.96396	8377.3125
2695.58188	8388.6125
2698.19818	8387.6125
2700.81285	8373.3125
2703.4259	8386.2125
2706.03733	8398.6125
2708.64714	8410.0125
2711.25533	8399.1125
2713.86191	8408.1125
2716.46687	8429.4125
2719.07021	8425.2125
2721.67194	8437.9125
2724.27206	8402.8125
2726.87057	8410.2125
2729.46747	8421.5125
2732.06276	8436.7125
2734.65644	8410.8125
2737.24852	8429.5125
2739.83899	8432.8125
2742.42786	8431.0125
2745.01513	8414.2125
2747.60079	8397.8125
2750.18486	8403.0125
2752.76733	8402.5125
2755.3482	8396.5125
2757.92747	8403.9125
2760.50515	8400.3125
2763.08123	8382.0125
2765.65573	8382.8125
2768.22863	8386.9125
2770.79994	8374.2125
2773.36967	8395.8125
2775.9378	8380.0125
2778.50435	8387.6125
2781.06932	8367.6125
2783.6327	8399.5125
2786.1945	8388.5125
2788.75471	8379.7125
2791.31335	8367.7125
2793.87041	8383.2125
2796.42589	8338.5125
2798.97979	8379.4125
2801.53212	8370.5125
2804.08288	8357.3125
2806.63206	8345.4125
2809.17967	8342.4125
2811.72571	8351.4125
2814.27018	8349.7125
2816.81308	8359.3125
2819.35442	8359.3125
2821.89419	8342.1125
2824.43239	8358.5125
2826.96904	8374.3125
2829.50412	8382.8125
2832.03763	8376.4125
2834.56959	8373.8125
2837.1	8396.7125
2839.62884	8398.1125
2842.15613	8458.7125
2844.68186	8533.0125
2847.20604	8592.9125
2849.72867	8654.2125
2852.24974	8684.6125
2854.76927	8667.7125
2857.28724	8658.0125
2859.80367	8630.5125
2862.31855	8613.4125
2864.83189	8595.4125
2867.34368	8598.0125
2869.85393	8601.9125
2872.36264	8594.1125
2874.8698	8581.3125
2877.37543	8597.9125
2879.87952	8612.5125
2882.38207	8583.1125
2884.88308	8582.3125
2887.38256	8586.0125
2889.88051	8585.3125
2892.37692	8587.5125
2894.8718	8581.8125
2897.36515	8587.1125
2899.85698	8566.1125
2902.34727	8612.4125
2904.83604	8601.3125
2907.32328	8614.5125
2909.809	8611.1125
2912.29319	8597.2125
2914.77587	8593.7125
2917.25702	8593.0125
2919.73665	8576.1125
2922.21476	8578.1125
2924.69136	8562.6125
2927.16644	8548.5125
2929.64	8539.0125
2932.11205	8491.8125
2934.58258	8491.6125
2937.05161	8480.4125
2939.51912	8432.7125
2941.98513	8395.7125
2944.44962	8343.3125
2946.91261	8267.3125
2949.37409	8238.3125
2951.83407	8229.7125
2954.29254	8183.7125
2956.74951	8169.5125
2959.20498	8120.1125
2961.65895	8099.0125
2964.11142	8084.8125
2966.56239	8051.5125
2969.01186	8052.8125
2971.45984	7987.8125
2973.90632	7956.2125
2976.35131	7947.3125
2978.7948	7941.1125
2981.23681	7894.0125
2983.67732	7856.4125
2986.11635	7838.3125
2988.55388	7801.3125
2990.98993	7792.9125
2993.4245	7772.4125
2995.85758	7764.1125
2998.28917	7731.0125
3000.71928	7711.3125
3003.14791	7698.0125
3005.57506	7710.6125
3008.00073	7688.8125
3010.42493	7695.2125
3012.84764	7669.5125
3015.26888	7640.6125
3017.68865	7636.0125
3020.10694	7625.1125
3022.52376	7593.1125
3024.9391	7597.8125
3027.35298	7590.9125
3029.76539	7567.3125
3032.17632	7549.1125
3034.5858	7551.4125
3036.9938	7531.9125
3039.40034	7528.5125
3041.80542	7509.0125
3044.20903	7483.1125
3046.61118	7493.3125
3049.01187	7457.2125
3051.4111	7459.1125
3053.80888	7458.0125
3056.20519	7412.4125
3058.60005	7422.6125
3060.99345	7409.5125
3063.3854	7380.6125
3065.7759	7375.1125
3068.16494	7362.8125
