Data from AgNPs_FTO_APTES_UA_2uM_CRN_1uM_R6G_10uM_NaF_0.1M_Addition_RamanShift__32__11-56-25-041.txt Node

Date: Wed Feb 02 11:56:25 GMT 2022
User: TCL
Spectrometer: QEP01345
Trigger mode: 4
Integration Time (sec): 7.000000E0
Scans to average: 10
Electric dark correction enabled: true
Nonlinearity correction enabled: false
Boxcar width: 0
XAxis mode: Raman Shifts
Number of Pixels in Spectrum: 1044
>>>>>Begin Spectral Data<<<<<
46.04893	2.8375
50.45542	0.4375
54.85868	-0.7625
59.25871	0.3375
63.6555	45.7375
68.04907	50.7375
72.43941	52.8375
76.82654	59.8375
81.21044	60.1375
85.59113	65.8375
89.96862	67.0375
94.34289	68.9375
98.71396	73.0375
103.08183	75.7375
107.4465	77.8375
111.80798	78.8375
116.16626	77.5375
120.52136	81.2375
124.87327	80.3375
129.222	83.6375
133.56755	89.2375
137.90993	92.3375
142.24913	101.1375
146.58517	113.1375
150.91804	124.0375
155.24774	140.8375
159.57429	171.0375
163.89768	215.7375
168.21792	279.9375
172.53501	377.3375
176.84895	507.7375
181.15975	701.9375
185.46741	962.8375
189.77193	1333.3375
194.07331	1786.2375
198.37157	2268.3375
202.6667	2799.2375
206.9587	3312.1375
211.24758	3851.5375
215.53334	4419.1375
219.81599	5087.5375
224.09553	5824.2375
228.37195	6664.0375
232.64527	7513.4375
236.91549	8359.1375
241.18261	9055.1375
245.44663	9560.2375
249.70755	9933.6375
253.96539	10221.8375
258.22014	10485.7375
262.4718	10715.4375
266.72039	10976.2375
270.96589	11120.7375
275.20832	11103.2375
279.44768	10979.9375
283.68397	10803.9375
287.91719	10742.8375
292.14735	10831.4375
296.37445	11169.7375
300.59849	11771.2375
304.81948	12544.6375
309.03742	13160.1375
313.25231	13183.3375
317.46415	12407.1375
321.67296	11084.6375
325.87872	9911.5375
330.08145	9365.9375
334.28114	9280.5375
338.47781	9478.8375
342.67145	9823.2375
346.86207	10434.0375
351.04966	11386.0375
355.23424	12390.3375
359.4158	13212.5375
363.59435	13492.2375
367.76989	13453.0375
371.94243	13248.3375
376.11196	13034.7375
380.27849	12811.8375
384.44203	12547.7375
388.60257	12221.2375
392.76012	12050.4375
396.91468	12180.3375
401.06626	12603.6375
405.21485	12967.8375
409.36047	12624.0375
413.50311	11670.1375
417.64277	10776.6375
421.77947	10264.2375
425.9132	9997.9375
430.04396	9918.8375
434.17176	9921.7375
438.2966	10076.3375
442.41849	10377.7375
446.53742	10778.4375
450.6534	11125.4375
454.76644	11315.7375
458.87653	11289.7375
462.98368	11158.2375
467.08789	10891.5375
471.18916	10585.6375
475.2875	10199.1375
479.38291	9900.9375
483.4754	9679.8375
487.56496	9503.0375
491.6516	9407.4375
495.73531	9403.1375
499.81612	9467.4375
503.89401	9647.0375
507.96899	9809.0375
512.04106	10020.5375
516.11023	10277.8375
520.1765	10427.2375
524.23987	10384.8375
528.30034	10089.4375
532.35792	9744.1375
536.41261	9362.1375
540.46441	8969.0375
544.51333	8766.4375
548.55936	8838.9375
552.60252	9145.5375
556.64279	9493.5375
560.6802	9729.1375
564.71473	10059.2375
568.7464	10768.0375
572.7752	11257.0375
576.80114	10789.6375
580.82422	10164.3375
584.84444	9896.1375
588.86181	9766.5375
592.87633	9686.9375
596.888	9812.4375
600.89682	10336.3375
604.9028	12167.3375
608.90594	17015.6375
612.90624	23621.9375
616.90371	22895.9375
620.89834	14315.0375
624.89015	10059.2375
628.87913	9205.0375
632.86528	9297.7375
636.84862	9558.2375
640.82913	9413.6375
644.80683	8790.3375
648.78172	8331.5375
652.75379	8425.4375
656.72306	9085.1375
660.68952	9875.6375
664.65319	9729.5375
668.61405	8902.6375
672.57211	8456.4375
676.52738	8381.4375
680.47986	8358.2375
684.42955	8206.5375
688.37646	8143.1375
692.32058	8184.9375
696.26192	8319.1375
700.20048	8549.0375
704.13626	8736.2375
708.06928	8756.4375
711.99952	8619.1375
715.927	8529.4375
719.85171	8507.8375
723.77365	8464.6375
727.69284	8308.0375
731.60928	8179.3375
735.52295	8157.1375
739.43388	8212.9375
743.34206	8272.5375
747.24749	8327.3375
751.15017	8457.2375
755.05012	8718.4375
758.94733	9379.1375
762.8418	10931.1375
766.73354	13676.6375
770.62254	16625.0375
774.50882	18203.6375
778.39237	17424.2375
782.27321	14520.9375
786.15132	11471.0375
790.02671	9626.6375
793.89938	8842.7375
797.76935	8507.2375
801.6366	8380.5375
805.50115	8261.5375
809.36299	8157.4375
813.22213	8091.1375
817.07857	8055.7375
820.93231	8053.1375
824.78336	8096.6375
828.63172	8159.3375
832.47738	8223.5375
836.32036	8186.9375
840.16066	8091.8375
843.99827	7995.7375
847.8332	7921.1375
851.66546	7913.9375
855.49504	7930.9375
859.32195	7892.5375
863.1462	7806.8375
866.96777	7723.7375
870.78668	7735.5375
874.60293	7741.0375
878.41652	7779.6375
882.22745	7871.9375
886.03573	7940.1375
889.84136	7899.3375
893.64433	7812.7375
897.44466	7804.2375
901.24235	7813.8375
905.0374	7802.2375
908.8298	7740.1375
912.61957	7719.0375
916.40671	7778.7375
920.19121	7893.7375
923.97308	8015.8375
927.75233	8181.0375
931.52895	8345.3375
935.30295	8206.6375
939.07433	7803.2375
942.84309	7446.5375
946.60924	7215.0375
950.37278	7141.9375
954.13371	7059.6375
957.89203	7008.0375
961.64774	6996.1375
965.40086	6958.1375
969.15137	6906.9375
972.89929	6913.0375
976.64461	6913.9375
980.38733	6904.9375
984.12747	6902.6375
987.86502	6902.8375
991.59999	6953.8375
995.33237	7039.1375
999.06217	7241.1375
1002.78939	7512.5375
1006.51404	7740.8375
1010.23611	8003.1375
1013.95561	8153.2375
1017.67255	8078.0375
1021.38692	7894.3375
1025.09872	7662.7375
1028.80796	7511.6375
1032.51465	7537.4375
1036.21877	7699.8375
1039.92035	7905.5375
1043.61937	8027.4375
1047.31584	8019.2375
1051.00976	7941.8375
1054.70114	7874.8375
1058.38998	7816.3375
1062.07627	7820.7375
1065.76003	7885.8375
1069.44126	7995.6375
1073.11995	8166.0375
1076.79611	8346.8375
1080.46974	8566.9375
1084.14085	8920.2375
1087.80943	9355.6375
1091.47549	9499.0375
1095.13903	9222.8375
1098.80005	8677.3375
1102.45857	8235.6375
1106.11456	7999.4375
1109.76805	8035.5375
1113.41903	8274.3375
1117.06751	8695.6375
1120.71348	9298.9375
1124.35696	9985.8375
1127.99793	10615.5375
1131.63641	10596.5375
1135.2724	9814.9375
1138.90589	9068.1375
1142.5369	8626.8375
1146.16542	8372.7375
1149.79145	8229.3375
1153.415	8230.2375
1157.03607	8341.5375
1160.65467	8626.6375
1164.27079	9102.5375
1167.88443	9841.7375
1171.49561	11060.6375
1175.10432	13162.3375
1178.71056	15968.2375
1182.31434	17847.2375
1185.91565	18120.4375
1189.51451	17423.5375
1193.11091	16041.1375
1196.70485	14326.3375
1200.29634	12963.9375
1203.88538	12018.7375
1207.47197	10885.8375
1211.05612	9972.9375
1214.63782	9461.1375
1218.21708	9315.9375
1221.79391	9340.3375
1225.36829	9504.2375
1228.94024	9651.9375
1232.50976	9816.4375
1236.07685	9864.6375
1239.6415	9808.2375
1243.20374	9714.9375
1246.76355	9710.6375
1250.32093	9805.5375
1253.8759	10043.1375
1257.42845	10418.8375
1260.97859	10935.1375
1264.52631	11500.6375
1268.07163	12072.3375
1271.61453	12579.7375
1275.15503	12956.5375
1278.69312	13055.0375
1282.22882	13083.3375
1285.76211	13419.4375
1289.29301	14014.3375
1292.82151	14606.3375
1296.34761	15146.4375
1299.87133	16057.4375
1303.39266	17597.5375
1306.9116	20141.0375
1310.42815	23303.4375
1313.94233	25522.6375
1317.45412	25274.5375
1320.96354	23395.9375
1324.47058	20998.5375
1327.97525	18862.8375
1331.47754	17440.6375
1334.97747	16694.0375
1338.47502	16418.9375
1341.97022	16551.9375
1345.46305	17166.8375
1348.95352	18529.1375
1352.44163	20521.1375
1355.92738	23370.0375
1359.41078	27628.8375
1362.89183	32015.6375
1366.37053	31688.2375
1369.84688	26389.0375
1373.32088	20815.0375
1376.79254	17189.1375
1380.26186	15294.2375
1383.72883	14279.7375
1387.19347	13494.5375
1390.65578	12678.8375
1394.11575	12000.5375
1397.57339	11724.5375
1401.0287	11707.1375
1404.48168	11850.8375
1407.93234	11955.2375
1411.38068	12009.3375
1414.82669	11879.6375
1418.27039	11621.3375
1421.71177	11343.7375
1425.15083	11079.8375
1428.58758	10877.9375
1432.02203	10858.0375
1435.45416	11016.4375
1438.88399	11104.0375
1442.31151	11075.5375
1445.73673	11131.8375
1449.15965	11217.2375
1452.58027	11152.8375
1455.9986	11047.3375
1459.41463	11029.3375
1462.82837	11186.2375
1466.23982	11430.8375
1469.64898	11695.4375
1473.05586	11944.6375
1476.46045	12092.4375
1479.86276	12316.9375
1483.26279	12663.1375
1486.66054	13109.9375
1490.05602	13682.7375
1493.44922	14546.4375
1496.84016	15885.8375
1500.22882	18115.8375
1503.61521	21160.2375
1506.99934	24483.4375
1510.38121	27859.4375
1513.76081	29844.5375
1517.13816	28686.6375
1520.51324	24705.0375
1523.88607	20266.4375
1527.25665	17156.8375
1530.62498	15413.6375
1533.99105	14325.2375
1537.35488	13649.2375
1540.71647	13193.1375
1544.07581	12934.0375
1547.4329	12763.0375
1550.78776	12634.8375
1554.14038	12567.7375
1557.49077	12700.5375
1560.83892	13035.6375
1564.18484	13589.4375
1567.52853	14258.4375
1570.86999	14874.5375
1574.20922	15318.1375
1577.54624	15319.0375
1580.88103	14337.0375
1584.2136	12911.0375
1587.54395	12099.2375
1590.87208	12218.3375
1594.19801	13010.5375
1597.52172	14167.3375
1600.84321	14687.8375
1604.16251	14003.9375
1607.47959	12803.6375
1610.79447	11580.5375
1614.10715	10374.5375
1617.41763	9449.3375
1620.7259	8880.6375
1624.03199	8624.5375
1627.33587	8632.1375
1630.63757	8924.0375
1633.93707	9486.8375
1637.23439	10447.3375
1640.52951	11852.8375
1643.82246	13880.2375
1647.11321	16301.4375
1650.40179	18326.3375
1653.68819	18243.7375
1656.97241	15558.9375
1660.25446	12247.7375
1663.53433	9743.2375
1666.81203	8294.2375
1670.08756	7493.7375
1673.36092	7011.8375
1676.63211	6716.4375
1679.90115	6517.0375
1683.16801	6373.9375
1686.43272	6274.3375
1689.69527	6194.6375
1692.95567	6142.3375
1696.2139	6104.8375
1699.46999	6075.1375
1702.72392	6061.3375
1705.97571	6025.7375
1709.22535	6016.2375
1712.47284	6025.0375
1715.71819	6033.6375
1718.96139	6053.2375
1722.20246	6059.2375
1725.44139	6019.5375
1728.67818	5954.7375
1731.91284	5855.3375
1735.14537	5770.8375
1738.37576	5711.5375
1741.60403	5654.9375
1744.83017	5624.2375
1748.05418	5588.9375
1751.27607	5577.8375
1754.49584	5532.1375
1757.71349	5542.6375
1760.92903	5531.1375
1764.14244	5520.0375
1767.35375	5490.6375
1770.56294	5457.7375
1773.77002	5417.3375
1776.97499	5393.7375
1780.17785	5366.6375
1783.37861	5325.0375
1786.57727	5322.0375
1789.77382	5326.8375
1792.96828	5292.0375
1796.16064	5282.2375
1799.3509	5273.2375
1802.53907	5251.7375
1805.72514	5252.8375
1808.90913	5223.3375
1812.09102	5201.3375
1815.27083	5174.9375
1818.44856	5142.9375
1821.6242	5157.3375
1824.79776	5137.8375
1827.96924	5106.0375
1831.13864	5118.9375
1834.30597	5118.1375
1837.47122	5118.8375
1840.6344	5090.7375
1843.7955	5100.8375
1846.95454	5104.9375
1850.11151	5079.9375
1853.26642	5069.8375
1856.41926	5097.2375
1859.57004	5092.3375
1862.71876	5103.6375
1865.86542	5095.7375
1869.01003	5104.5375
1872.15258	5120.4375
1875.29308	5131.1375
1878.43152	5138.5375
1881.56792	5136.7375
1884.70227	5156.4375
1887.83457	5166.2375
1890.96482	5161.0375
1894.09304	5173.2375
1897.21921	5188.9375
1900.34335	5181.0375
1903.46544	5177.7375
1906.58551	5218.0375
1909.70353	5210.5375
1912.81953	5213.3375
1915.93349	5204.1375
1919.04543	5219.5375
1922.15534	5197.5375
1925.26322	5186.6375
1928.36908	5170.2375
1931.47292	5120.4375
1934.57473	5051.6375
1937.67453	4988.2375
1940.77232	4957.3375
1943.86808	4921.2375
1946.96184	4872.6375
1950.05358	4850.3375
1953.14331	4794.4375
1956.23103	4787.5375
1959.31675	4759.3375
1962.40046	4746.0375
1965.48217	4711.3375
1968.56188	4729.1375
1971.63959	4684.9375
1974.7153	4676.2375
1977.78901	4659.0375
1980.86073	4650.0375
1983.93046	4639.0375
1986.99819	4612.2375
1990.06394	4590.4375
1993.1277	4566.7375
1996.18947	4530.6375
1999.24925	4509.5375
2002.30706	4496.5375
2005.36288	4490.8375
2008.41672	4465.9375
2011.46859	4463.2375
2014.51848	4440.8375
2017.56639	4412.1375
2020.61233	4412.4375
2023.6563	4390.6375
2026.6983	4376.5375
2029.73833	4371.8375
2032.7764	4349.8375
2035.8125	4342.9375
2038.84664	4327.7375
2041.87881	4336.0375
2044.90903	4311.6375
2047.93729	4297.8375
2050.96359	4302.5375
2053.98794	4280.8375
2057.01034	4280.6375
2060.03078	4272.1375
2063.04927	4266.5375
2066.06582	4265.2375
2069.08042	4243.5375
2072.09307	4237.9375
2075.10378	4236.4375
2078.11255	4233.3375
2081.11938	4228.1375
2084.12426	4235.0375
2087.12722	4222.8375
2090.12824	4219.0375
2093.12732	4219.5375
2096.12447	4213.7375
2099.11969	4228.1375
2102.11299	4214.1375
2105.10435	4212.3375
2108.09379	4211.5375
2111.08131	4214.6375
2114.0669	4231.5375
2117.05057	4223.2375
2120.03233	4209.6375
2123.01216	4224.6375
2125.99008	4228.8375
2128.96609	4215.0375
2131.94018	4227.4375
2134.91236	4236.3375
2137.88263	4221.7375
2140.851	4218.0375
2143.81746	4218.2375
2146.78201	4202.6375
2149.74466	4204.1375
2152.7054	4200.5375
2155.66425	4166.0375
2158.6212	4189.9375
2161.57625	4165.4375
2164.52941	4165.8375
2167.48067	4178.6375
2170.43004	4175.8375
2173.37752	4176.8375
2176.32311	4168.9375
2179.26681	4174.1375
2182.20863	4172.7375
2185.14856	4164.5375
2188.08661	4159.7375
2191.02278	4144.9375
2193.95707	4150.4375
2196.88948	4127.6375
2199.82001	4135.3375
2202.74867	4120.6375
2205.67545	4119.5375
2208.60037	4113.0375
2211.52341	4104.9375
2214.44458	4098.8375
2217.36388	4088.6375
2220.28132	4075.3375
2223.1969	4046.0375
2226.11061	4044.5375
2229.02246	4025.9375
2231.93245	4027.4375
2234.84058	4015.2375
2237.74686	4014.2375
2240.65128	4017.5375
2243.55385	3996.1375
2246.45456	4006.1375
2249.35343	4006.0375
2252.25044	3988.3375
2255.14561	3995.8375
2258.03893	3995.4375
2260.93041	4006.7375
2263.82004	3982.5375
2266.70783	3982.2375
2269.59378	3967.7375
2272.4779	3957.0375
2275.36017	3944.1375
2278.24061	3931.1375
2281.11922	3932.2375
2283.996	3918.7375
2286.87094	3902.5375
2289.74405	3875.2375
2292.61534	3869.3375
2295.4848	3858.5375
2298.35243	3840.4375
2301.21824	3846.1375
2304.08223	3834.3375
2306.94439	3837.3375
2309.80474	3825.6375
2312.66327	3852.0375
2315.51999	3827.4375
2318.37489	3827.6375
2321.22797	3822.7375
2324.07925	3817.4375
2326.92871	3822.4375
2329.77637	3819.3375
2332.62222	3803.7375
2335.46626	3806.2375
2338.3085	3782.4375
2341.14893	3789.7375
2343.98756	3776.2375
2346.8244	3804.7375
2349.65943	3792.3375
2352.49267	3795.3375
2355.32411	3811.3375
2358.15376	3824.0375
2360.98161	3844.1375
2363.80768	3855.3375
2366.63195	3862.2375
2369.45444	3876.2375
2372.27514	3872.6375
2375.09405	3862.7375
2377.91118	3848.3375
2380.72652	3824.1375
2383.54009	3790.4375
2386.35187	3775.9375
2389.16188	3754.9375
2391.97011	3734.7375
2394.77657	3717.2375
2397.58125	3692.0375
2400.38416	3695.2375
2403.18529	3685.7375
2405.98466	3655.8375
2408.78226	3662.0375
2411.57809	3649.0375
2414.37216	3652.4375
2417.16446	3632.0375
2419.955	3643.0375
2422.74378	3647.7375
2425.5308	3626.4375
2428.31606	3639.0375
2431.09956	3646.7375
2433.88131	3645.8375
2436.6613	3644.7375
2439.43954	3634.8375
2442.21603	3636.8375
2444.99077	3638.9375
2447.76377	3642.1375
2450.53501	3645.2375
2453.30451	3646.0375
2456.07226	3645.1375
2458.83827	3661.3375
2461.60254	3648.7375
2464.36507	3662.2375
2467.12586	3639.2375
2469.88492	3640.6375
2472.64224	3636.1375
2475.39782	3667.4375
2478.15167	3662.1375
2480.90379	3658.7375
2483.65417	3675.7375
2486.40283	3706.3375
2489.14976	3709.0375
2491.89497	3719.9375
2494.63845	3710.8375
2497.3802	3707.0375
2500.12024	3704.4375
2502.85855	3689.3375
2505.59514	3683.6375
2508.33002	3672.0375
2511.06318	3627.1375
2513.79462	3622.1375
2516.52435	3585.0375
2519.25237	3576.5375
2521.97867	3571.3375
2524.70327	3556.3375
2527.42616	3549.8375
2530.14734	3529.2375
2532.86681	3529.4375
2535.58458	3530.0375
2538.30065	3516.2375
2541.01501	3522.5375
2543.72768	3517.9375
2546.43864	3516.1375
2549.14791	3525.3375
2551.85548	3521.1375
2554.56136	3537.5375
2557.26554	3515.0375
2559.96803	3516.1375
2562.66883	3516.4375
2565.36794	3515.2375
2568.06536	3518.9375
2570.7611	3512.0375
2573.45514	3486.9375
2576.14751	3479.8375
2578.83819	3485.1375
2581.52719	3482.0375
2584.21451	3470.3375
2586.90015	3474.3375
2589.58411	3461.4375
2592.2664	3465.1375
2594.94701	3470.5375
2597.62594	3439.2375
2600.30321	3446.6375
2602.9788	3455.4375
2605.65273	3440.4375
2608.32498	3441.5375
2610.99557	3453.3375
2613.66449	3452.5375
2616.33175	3453.6375
2618.99734	3450.6375
2621.66128	3433.1375
2624.32355	3431.7375
2626.98416	3437.9375
2629.64311	3434.1375
2632.30041	3417.0375
2634.95605	3404.9375
2637.61004	3424.1375
2640.26238	3398.6375
2642.91306	3383.0375
2645.56209	3378.1375
2648.20948	3392.0375
2650.85521	3383.0375
2653.4993	3382.6375
2656.14175	3396.1375
2658.78255	3411.1375
2661.42171	3400.2375
2664.05923	3397.3375
2666.6951	3407.8375
2669.32934	3405.2375
2671.96194	3431.5375
2674.59291	3431.9375
2677.22224	3425.7375
2679.84993	3431.6375
2682.476	3448.7375
2685.10043	3505.9375
2687.72324	3475.3375
2690.34441	3442.0375
2692.96396	3425.7375
2695.58188	3449.0375
2698.19818	3434.7375
2700.81285	3446.5375
2703.4259	3455.3375
2706.03733	3468.3375
2708.64714	3455.3375
2711.25533	3475.5375
2713.86191	3477.0375
2716.46687	3490.2375
2719.07021	3496.3375
2721.67194	3495.6375
2724.27206	3489.2375
2726.87057	3498.8375
2729.46747	3487.4375
2732.06276	3493.4375
2734.65644	3479.2375
2737.24852	3475.5375
2739.83899	3466.7375
2742.42786	3469.2375
2745.01513	3446.3375
2747.60079	3446.0375
2750.18486	3445.9375
2752.76733	3451.8375
2755.3482	3433.7375
2757.92747	3435.0375
2760.50515	3430.4375
2763.08123	3431.5375
2765.65573	3430.2375
2768.22863	3429.1375
2770.79994	3429.7375
2773.36967	3436.4375
2775.9378	3443.0375
2778.50435	3437.1375
2781.06932	3445.9375
2783.6327	3463.1375
2786.1945	3476.2375
2788.75471	3464.9375
2791.31335	3477.4375
2793.87041	3488.5375
2796.42589	3494.1375
2798.97979	3498.0375
2801.53212	3508.2375
2804.08288	3524.9375
2806.63206	3529.0375
2809.17967	3553.5375
2811.72571	3555.1375
2814.27018	3595.6375
2816.81308	3597.6375
2819.35442	3624.9375
2821.89419	3631.8375
2824.43239	3652.7375
2826.96904	3652.8375
2829.50412	3681.6375
2832.03763	3687.7375
2834.56959	3707.1375
2837.1	3706.0375
2839.62884	3751.7375
2842.15613	3816.6375
2844.68186	3920.6375
2847.20604	4013.5375
2849.72867	4106.5375
2852.24974	4127.0375
2854.76927	4132.8375
2857.28724	4123.7375
2859.80367	4114.6375
2862.31855	4092.2375
2864.83189	4064.5375
2867.34368	4033.9375
2869.85393	4044.8375
2872.36264	4013.9375
2874.8698	4036.0375
2877.37543	4030.5375
2879.87952	4012.3375
2882.38207	4026.4375
2884.88308	4000.7375
2887.38256	3997.7375
2889.88051	3995.5375
2892.37692	4004.9375
2894.8718	3991.6375
2897.36515	4000.2375
2899.85698	4001.6375
2902.34727	4000.4375
2904.83604	4003.6375
2907.32328	4009.3375
2909.809	3993.0375
2912.29319	3985.7375
2914.77587	3982.3375
2917.25702	3971.3375
2919.73665	3958.0375
2922.21476	3949.2375
2924.69136	3947.1375
2927.16644	3936.6375
2929.64	3916.9375
2932.11205	3895.5375
2934.58258	3861.9375
2937.05161	3834.3375
2939.51912	3790.0375
2941.98513	3742.0375
2944.44962	3674.1375
2946.91261	3593.3375
2949.37409	3564.3375
2951.83407	3512.9375
2954.29254	3494.2375
2956.74951	3456.5375
2959.20498	3431.1375
2961.65895	3392.7375
2964.11142	3388.0375
2966.56239	3363.6375
2969.01186	3351.3375
2971.45984	3320.4375
2973.90632	3297.6375
2976.35131	3270.3375
2978.7948	3260.2375
2981.23681	3248.6375
2983.67732	3216.0375
2986.11635	3204.6375
2988.55388	3189.1375
2990.98993	3165.1375
2993.4245	3152.9375
2995.85758	3137.0375
2998.28917	3125.3375
3000.71928	3121.2375
3003.14791	3110.7375
3005.57506	3103.7375
3008.00073	3090.5375
3010.42493	3090.5375
3012.84764	3077.8375
3015.26888	3083.6375
3017.68865	3081.3375
3020.10694	3062.5375
3022.52376	3050.3375
3024.9391	3049.8375
3027.35298	3042.4375
3029.76539	3044.6375
3032.17632	3039.4375
3034.5858	3025.7375
3036.9938	3023.2375
3039.40034	3012.1375
3041.80542	3011.1375
3044.20903	3004.6375
3046.61118	2998.1375
3049.01187	2994.8375
3051.4111	2983.7375
3053.80888	2991.7375
3056.20519	2992.7375
3058.60005	2996.1375
3060.99345	2985.7375
3063.3854	2984.1375
3065.7759	2975.5375
3068.16494	2975.0375
3070.55254	2970.7375
3072.93868	2969.1375
3075.32338	2951.9375
3077.70662	2941.7375
3080.08842	2919.6375
3082.46878	2920.3375
3084.84769	2918.8375
3087.22515	2905.9375
3089.60118	2883.8375
3091.97576	2884.4375
3094.3489	2888.9375
3096.72061	2875.5375
3099.09087	2876.5375
3101.4597	2869.6375
