Data from AgNPs_FTO_APTES_UA_2uM_CRN_5uM_R6G_10uM_NaF_0.1M_Addition_RamanShift__30__13-13-25-131.txt Node

Date: Wed Feb 02 13:13:25 GMT 2022
User: TCL
Spectrometer: QEP01345
Trigger mode: 4
Integration Time (sec): 7.000000E0
Scans to average: 10
Electric dark correction enabled: true
Nonlinearity correction enabled: false
Boxcar width: 0
XAxis mode: Raman Shifts
Number of Pixels in Spectrum: 1044
>>>>>Begin Spectral Data<<<<<
46.04893	0.7125
50.45542	1.3125
54.85868	-0.0875
59.25871	-0.2875
63.6555	33.1125
68.04907	37.4125
72.43941	39.0125
76.82654	44.8125
81.21044	44.3125
85.59113	46.2125
89.96862	48.8125
94.34289	51.7125
98.71396	54.7125
103.08183	56.4125
107.4465	59.9125
111.80798	61.5125
116.16626	58.2125
120.52136	63.8125
124.87327	62.3125
129.222	62.8125
133.56755	72.2125
137.90993	71.7125
142.24913	81.8125
146.58517	93.9125
150.91804	108.5125
155.24774	125.2125
159.57429	161.9125
163.89768	205.1125
168.21792	272.8125
172.53501	360.6125
176.84895	508.3125
181.15975	709.3125
185.46741	991.7125
189.77193	1360.9125
194.07331	1816.7125
198.37157	2338.8125
202.6667	2887.1125
206.9587	3426.0125
211.24758	3963.8125
215.53334	4551.0125
219.81599	5201.7125
224.09553	5974.6125
228.37195	6815.0125
232.64527	7705.2125
236.91549	8576.4125
241.18261	9354.2125
245.44663	9920.6125
249.70755	10360.6125
253.96539	10738.6125
258.22014	11091.1125
262.4718	11427.3125
266.72039	11744.8125
270.96589	11890.9125
275.20832	11951.9125
279.44768	11871.0125
283.68397	11739.8125
287.91719	11728.2125
292.14735	11824.9125
296.37445	12131.4125
300.59849	12656.8125
304.81948	13265.0125
309.03742	13767.3125
313.25231	13757.0125
317.46415	12975.8125
321.67296	11763.0125
325.87872	10770.9125
330.08145	10253.4125
334.28114	10159.2125
338.47781	10320.5125
342.67145	10688.5125
346.86207	11224.4125
351.04966	12038.9125
355.23424	12975.9125
359.4158	13677.8125
363.59435	13963.0125
367.76989	13985.6125
371.94243	13849.3125
376.11196	13658.6125
380.27849	13470.6125
384.44203	13225.0125
388.60257	12974.7125
392.76012	12868.8125
396.91468	13032.1125
401.06626	13479.9125
405.21485	13800.9125
409.36047	13499.4125
413.50311	12638.5125
417.64277	11800.4125
421.77947	11364.1125
425.9132	11161.6125
430.04396	11091.7125
434.17176	11141.8125
438.2966	11219.5125
442.41849	11501.4125
446.53742	11834.3125
450.6534	12184.6125
454.76644	12407.5125
458.87653	12415.9125
462.98368	12310.1125
467.08789	12094.9125
471.18916	11802.4125
475.2875	11430.3125
479.38291	11133.5125
483.4754	10934.0125
487.56496	10749.3125
491.6516	10696.0125
495.73531	10691.5125
499.81612	10767.1125
503.89401	10915.6125
507.96899	11099.8125
512.04106	11268.8125
516.11023	11448.6125
520.1765	11566.1125
524.23987	11476.3125
528.30034	11180.0125
532.35792	10851.9125
536.41261	10508.2125
540.46441	10211.3125
544.51333	10090.5125
548.55936	10194.2125
552.60252	10526.9125
556.64279	10888.7125
560.6802	11089.0125
564.71473	11328.5125
568.7464	11916.7125
572.7752	12361.0125
576.80114	12013.2125
580.82422	11528.3125
584.84444	11320.3125
588.86181	11155.5125
592.87633	11048.1125
596.888	11132.5125
600.89682	11685.9125
604.9028	13474.5125
608.90594	18171.8125
612.90624	24195.1125
616.90371	23173.7125
620.89834	15227.4125
624.89015	11359.4125
628.87913	10637.1125
632.86528	10752.9125
636.84862	10964.2125
640.82913	10805.9125
644.80683	10210.4125
648.78172	9787.5125
652.75379	9883.8125
656.72306	10468.7125
660.68952	11195.5125
664.65319	11079.7125
668.61405	10342.9125
672.57211	9952.9125
676.52738	9871.8125
680.47986	9853.9125
684.42955	9737.0125
688.37646	9675.9125
692.32058	9713.6125
696.26192	9887.7125
700.20048	10077.7125
704.13626	10256.2125
708.06928	10250.9125
711.99952	10122.6125
715.927	10037.0125
719.85171	10030.8125
723.77365	10001.9125
727.69284	9818.0125
731.60928	9691.8125
735.52295	9678.1125
739.43388	9703.5125
743.34206	9780.1125
747.24749	9849.9125
751.15017	9982.5125
755.05012	10309.3125
758.94733	10974.2125
762.8418	12512.9125
766.73354	15225.2125
770.62254	18055.7125
774.50882	19304.9125
778.39237	18208.1125
782.27321	15421.8125
786.15132	12619.7125
790.02671	10948.6125
793.89938	10242.5125
797.76935	9919.0125
801.6366	9786.1125
805.50115	9686.7125
809.36299	9592.2125
813.22213	9536.7125
817.07857	9502.0125
820.93231	9509.0125
824.78336	9558.8125
828.63172	9575.6125
832.47738	9624.1125
836.32036	9614.2125
840.16066	9508.7125
843.99827	9439.7125
847.8332	9366.0125
851.66546	9353.6125
855.49504	9370.8125
859.32195	9323.6125
863.1462	9250.9125
866.96777	9207.0125
870.78668	9198.2125
874.60293	9202.7125
878.41652	9232.2125
882.22745	9335.5125
886.03573	9378.3125
889.84136	9350.1125
893.64433	9277.7125
897.44466	9224.4125
901.24235	9245.6125
905.0374	9237.4125
908.8298	9186.8125
912.61957	9191.1125
916.40671	9256.5125
920.19121	9398.3125
923.97308	9506.7125
927.75233	9613.5125
931.52895	9737.9125
935.30295	9566.6125
939.07433	9185.1125
942.84309	8862.3125
946.60924	8666.6125
950.37278	8587.2125
954.13371	8526.5125
957.89203	8498.0125
961.64774	8457.2125
965.40086	8421.0125
969.15137	8405.8125
972.89929	8375.2125
976.64461	8347.1125
980.38733	8348.3125
984.12747	8370.0125
987.86502	8416.1125
991.59999	8468.2125
995.33237	8571.4125
999.06217	8803.1125
1002.78939	9075.4125
1006.51404	9351.1125
1010.23611	9644.6125
1013.95561	9820.5125
1017.67255	9766.3125
1021.38692	9577.5125
1025.09872	9351.7125
1028.80796	9228.6125
1032.51465	9244.9125
1036.21877	9421.2125
1039.92035	9580.7125
1043.61937	9659.4125
1047.31584	9637.2125
1051.00976	9571.4125
1054.70114	9521.7125
1058.38998	9506.0125
1062.07627	9569.0125
1065.76003	9674.7125
1069.44126	9794.2125
1073.11995	9929.0125
1076.79611	10085.3125
1080.46974	10287.6125
1084.14085	10581.9125
1087.80943	10976.1125
1091.47549	11194.3125
1095.13903	10943.7125
1098.80005	10475.4125
1102.45857	10013.9125
1106.11456	9779.8125
1109.76805	9766.8125
1113.41903	9953.8125
1117.06751	10351.5125
1120.71348	10894.7125
1124.35696	11493.8125
1127.99793	12083.9125
1131.63641	12098.5125
1135.2724	11409.2125
1138.90589	10706.6125
1142.5369	10338.6125
1146.16542	10080.5125
1149.79145	9956.3125
1153.415	9960.8125
1157.03607	10098.4125
1160.65467	10415.1125
1164.27079	10876.5125
1167.88443	11632.6125
1171.49561	12819.8125
1175.10432	14823.8125
1178.71056	17423.3125
1182.31434	19242.9125
1185.91565	19572.5125
1189.51451	18915.3125
1193.11091	17548.0125
1196.70485	15933.0125
1200.29634	14729.5125
1203.88538	13800.9125
1207.47197	12782.3125
1211.05612	11909.7125
1214.63782	11416.0125
1218.21708	11257.0125
1221.79391	11279.7125
1225.36829	11454.3125
1228.94024	11648.4125
1232.50976	11840.2125
1236.07685	11963.8125
1239.6415	11923.7125
1243.20374	11862.6125
1246.76355	11850.5125
1250.32093	11962.4125
1253.8759	12247.4125
1257.42845	12658.6125
1260.97859	13156.1125
1264.52631	13650.5125
1268.07163	14193.8125
1271.61453	14692.5125
1275.15503	15042.9125
1278.69312	15193.2125
1282.22882	15296.1125
1285.76211	15691.0125
1289.29301	16261.3125
1292.82151	16871.9125
1296.34761	17338.0125
1299.87133	18168.2125
1303.39266	19668.2125
1306.9116	22151.2125
1310.42815	25220.3125
1313.94233	27327.0125
1317.45412	27161.5125
1320.96354	25443.2125
1324.47058	23290.8125
1327.97525	21400.1125
1331.47754	20165.7125
1334.97747	19580.8125
1338.47502	19518.6125
1341.97022	19737.2125
1345.46305	20283.6125
1348.95352	21375.2125
1352.44163	22967.6125
1355.92738	25409.8125
1359.41078	29368.2125
1362.89183	33547.4125
1366.37053	33123.7125
1369.84688	27884.4125
1373.32088	22488.3125
1376.79254	19062.1125
1380.26186	17356.5125
1383.72883	16463.7125
1387.19347	15732.3125
1390.65578	14930.3125
1394.11575	14281.5125
1397.57339	13955.4125
1401.0287	13977.7125
1404.48168	14176.9125
1407.93234	14451.7125
1411.38068	14602.2125
1414.82669	14566.3125
1418.27039	14275.0125
1421.71177	13960.6125
1425.15083	13604.4125
1428.58758	13361.1125
1432.02203	13266.0125
1435.45416	13335.6125
1438.88399	13400.8125
1442.31151	13440.3125
1445.73673	13501.3125
1449.15965	13610.2125
1452.58027	13583.8125
1455.9986	13415.6125
1459.41463	13398.8125
1462.82837	13584.8125
1466.23982	13862.7125
1469.64898	14223.0125
1473.05586	14526.3125
1476.46045	14734.1125
1479.86276	15033.9125
1483.26279	15430.7125
1486.66054	15912.9125
1490.05602	16556.3125
1493.44922	17441.4125
1496.84016	18811.6125
1500.22882	20937.7125
1503.61521	23770.8125
1506.99934	26984.7125
1510.38121	30133.7125
1513.76081	32020.9125
1517.13816	30834.5125
1520.51324	27102.2125
1523.88607	23016.7125
1527.25665	20026.0125
1530.62498	18242.0125
1533.99105	17157.9125
1537.35488	16410.5125
1540.71647	15910.2125
1544.07581	15617.3125
1547.4329	15443.5125
1550.78776	15289.4125
1554.14038	15221.5125
1557.49077	15397.4125
1560.83892	15815.4125
1564.18484	16389.6125
1567.52853	16966.7125
1570.86999	17434.5125
1574.20922	17759.6125
1577.54624	17673.3125
1580.88103	16752.0125
1584.2136	15443.9125
1587.54395	14785.2125
1590.87208	14989.3125
1594.19801	15863.3125
1597.52172	17016.9125
1600.84321	17431.3125
1604.16251	16667.9125
1607.47959	15387.2125
1610.79447	14130.6125
1614.10715	12931.2125
1617.41763	11936.0125
1620.7259	11337.4125
1624.03199	11053.0125
1627.33587	11066.7125
1630.63757	11356.5125
1633.93707	12015.9125
1637.23439	13063.2125
1640.52951	14496.0125
1643.82246	16436.0125
1647.11321	18668.1125
1650.40179	20530.1125
1653.68819	20342.4125
1656.97241	17694.6125
1660.25446	14408.5125
1663.53433	11911.5125
1666.81203	10401.8125
1670.08756	9525.5125
1673.36092	9014.0125
1676.63211	8684.5125
1679.90115	8448.3125
1683.16801	8282.3125
1686.43272	8152.3125
1689.69527	8083.6125
1692.95567	8000.3125
1696.2139	7973.2125
1699.46999	7941.8125
1702.72392	7928.2125
1705.97571	7891.1125
1709.22535	7861.1125
1712.47284	7845.2125
1715.71819	7883.1125
1718.96139	7859.7125
1722.20246	7875.0125
1725.44139	7816.8125
1728.67818	7757.6125
1731.91284	7684.2125
1735.14537	7586.6125
1738.37576	7536.0125
1741.60403	7470.7125
1744.83017	7425.2125
1748.05418	7418.9125
1751.27607	7410.0125
1754.49584	7377.8125
1757.71349	7373.3125
1760.92903	7353.3125
1764.14244	7349.3125
1767.35375	7332.7125
1770.56294	7309.1125
1773.77002	7258.1125
1776.97499	7242.0125
1780.17785	7194.6125
1783.37861	7158.2125
1786.57727	7158.9125
1789.77382	7122.4125
1792.96828	7138.9125
1796.16064	7107.9125
1799.3509	7088.2125
1802.53907	7079.2125
1805.72514	7043.9125
1808.90913	7028.5125
1812.09102	6990.6125
1815.27083	6993.1125
1818.44856	6989.3125
1821.6242	6962.7125
1824.79776	6974.6125
1827.96924	6944.4125
1831.13864	6942.3125
1834.30597	6941.8125
1837.47122	6916.9125
1840.6344	6897.7125
1843.7955	6917.6125
1846.95454	6913.0125
1850.11151	6905.4125
1853.26642	6897.5125
1856.41926	6934.3125
1859.57004	6941.5125
1862.71876	6927.7125
1865.86542	6941.9125
1869.01003	6941.8125
1872.15258	6955.4125
1875.29308	6967.1125
1878.43152	6973.6125
1881.56792	7009.7125
1884.70227	7035.5125
1887.83457	7043.8125
1890.96482	7043.6125
1894.09304	7052.1125
1897.21921	7044.8125
1900.34335	7066.1125
1903.46544	7064.0125
1906.58551	7061.4125
1909.70353	7070.1125
1912.81953	7055.4125
1915.93349	7071.3125
1919.04543	7049.5125
1922.15534	7045.2125
1925.26322	7020.9125
1928.36908	6994.9125
1931.47292	6949.7125
1934.57473	6883.6125
1937.67453	6830.0125
1940.77232	6770.6125
1943.86808	6707.5125
1946.96184	6657.3125
1950.05358	6626.4125
1953.14331	6587.9125
1956.23103	6550.5125
1959.31675	6516.3125
1962.40046	6502.6125
1965.48217	6486.1125
1968.56188	6464.4125
1971.63959	6440.7125
1974.7153	6401.5125
1977.78901	6403.8125
1980.86073	6387.9125
1983.93046	6342.7125
1986.99819	6336.2125
1990.06394	6293.7125
1993.1277	6258.9125
1996.18947	6254.3125
1999.24925	6226.7125
2002.30706	6210.6125
2005.36288	6166.5125
2008.41672	6154.8125
2011.46859	6137.9125
2014.51848	6105.7125
2017.56639	6103.5125
2020.61233	6094.0125
2023.6563	6079.1125
2026.6983	6043.9125
2029.73833	6028.7125
2032.7764	6002.2125
2035.8125	6000.4125
2038.84664	5965.1125
2041.87881	5967.2125
2044.90903	5970.6125
2047.93729	5946.3125
2050.96359	5946.1125
2053.98794	5926.2125
2057.01034	5905.2125
2060.03078	5922.6125
2063.04927	5906.3125
2066.06582	5887.4125
2069.08042	5889.3125
2072.09307	5879.3125
2075.10378	5890.2125
2078.11255	5865.5125
2081.11938	5874.6125
2084.12426	5878.9125
2087.12722	5864.3125
2090.12824	5837.8125
2093.12732	5850.6125
2096.12447	5848.3125
2099.11969	5840.8125
2102.11299	5835.3125
2105.10435	5855.2125
2108.09379	5837.2125
2111.08131	5829.1125
2114.0669	5846.3125
2117.05057	5834.1125
2120.03233	5853.0125
2123.01216	5846.1125
2125.99008	5841.0125
2128.96609	5855.9125
2131.94018	5855.9125
2134.91236	5843.8125
2137.88263	5859.5125
2140.851	5846.5125
2143.81746	5854.6125
2146.78201	5841.7125
2149.74466	5831.3125
2152.7054	5839.5125
2155.66425	5849.6125
2158.6212	5841.5125
2161.57625	5826.3125
2164.52941	5821.8125
2167.48067	5793.2125
2170.43004	5807.3125
2173.37752	5814.3125
2176.32311	5793.4125
2179.26681	5814.7125
2182.20863	5817.2125
2185.14856	5819.9125
2188.08661	5808.5125
2191.02278	5792.8125
2193.95707	5781.0125
2196.88948	5761.2125
2199.82001	5766.1125
2202.74867	5764.8125
2205.67545	5758.3125
2208.60037	5754.2125
2211.52341	5766.6125
2214.44458	5747.3125
2217.36388	5722.4125
2220.28132	5713.2125
2223.1969	5703.0125
2226.11061	5681.7125
2229.02246	5670.8125
2231.93245	5660.1125
2234.84058	5644.7125
2237.74686	5618.9125
2240.65128	5637.0125
2243.55385	5613.8125
2246.45456	5606.1125
2249.35343	5598.4125
2252.25044	5611.0125
2255.14561	5596.3125
2258.03893	5592.6125
2260.93041	5582.4125
2263.82004	5580.1125
2266.70783	5574.0125
2269.59378	5543.7125
2272.4779	5530.4125
2275.36017	5521.7125
2278.24061	5511.7125
2281.11922	5501.8125
2283.996	5482.2125
2286.87094	5473.7125
2289.74405	5463.1125
2292.61534	5422.9125
2295.4848	5432.8125
2298.35243	5418.7125
2301.21824	5408.4125
2304.08223	5402.0125
2306.94439	5401.7125
2309.80474	5414.2125
2312.66327	5410.5125
2315.51999	5393.5125
2318.37489	5396.2125
2321.22797	5388.2125
2324.07925	5384.8125
2326.92871	5395.3125
2329.77637	5368.7125
2332.62222	5369.2125
2335.46626	5365.7125
2338.3085	5348.9125
2341.14893	5357.2125
2343.98756	5347.4125
2346.8244	5352.1125
2349.65943	5355.9125
2352.49267	5370.8125
2355.32411	5392.5125
2358.15376	5398.2125
2360.98161	5400.9125
2363.80768	5432.5125
2366.63195	5418.3125
2369.45444	5416.5125
2372.27514	5412.8125
2375.09405	5387.4125
2377.91118	5376.2125
2380.72652	5343.4125
2383.54009	5322.1125
2386.35187	5302.7125
2389.16188	5276.0125
2391.97011	5256.1125
2394.77657	5241.7125
2397.58125	5214.9125
2400.38416	5213.9125
2403.18529	5182.9125
2405.98466	5172.4125
2408.78226	5163.5125
2411.57809	5148.4125
2414.37216	5178.8125
2417.16446	5159.7125
2419.955	5139.9125
2422.74378	5142.8125
2425.5308	5133.5125
2428.31606	5145.7125
2431.09956	5135.4125
2433.88131	5118.8125
2436.6613	5129.6125
2439.43954	5118.2125
2442.21603	5125.9125
2444.99077	5134.2125
2447.76377	5140.6125
2450.53501	5121.4125
2453.30451	5145.1125
2456.07226	5132.3125
2458.83827	5116.3125
2461.60254	5127.1125
2464.36507	5112.3125
2467.12586	5097.0125
2469.88492	5102.8125
2472.64224	5107.4125
2475.39782	5139.8125
2478.15167	5114.3125
2480.90379	5142.7125
2483.65417	5148.5125
2486.40283	5149.3125
2489.14976	5164.4125
2491.89497	5177.6125
2494.63845	5191.8125
2497.3802	5189.7125
2500.12024	5171.5125
2502.85855	5180.7125
2505.59514	5156.6125
2508.33002	5133.9125
2511.06318	5111.6125
2513.79462	5084.9125
2516.52435	5062.8125
2519.25237	5034.8125
2521.97867	5028.0125
2524.70327	5003.3125
2527.42616	5012.6125
2530.14734	4991.0125
2532.86681	4989.5125
2535.58458	4992.2125
2538.30065	4976.6125
2541.01501	4975.9125
2543.72768	4967.5125
2546.43864	4970.6125
2549.14791	4975.8125
2551.85548	4958.8125
2554.56136	4968.1125
2557.26554	4962.1125
2559.96803	4948.9125
2562.66883	4961.9125
2565.36794	4939.1125
2568.06536	4938.6125
2570.7611	4914.9125
2573.45514	4902.1125
2576.14751	4906.4125
2578.83819	4893.0125
2581.52719	4897.5125
2584.21451	4876.2125
2586.90015	4889.0125
2589.58411	4881.4125
2592.2664	4881.3125
2594.94701	4864.3125
2597.62594	4878.3125
2600.30321	4838.5125
2602.9788	4833.5125
2605.65273	4847.7125
2608.32498	4837.7125
2610.99557	4839.3125
2613.66449	4848.6125
2616.33175	4841.4125
2618.99734	4832.9125
2621.66128	4845.3125
2624.32355	4833.2125
2626.98416	4846.2125
2629.64311	4827.6125
2632.30041	4824.3125
2634.95605	4797.6125
2637.61004	4797.0125
2640.26238	4785.1125
2642.91306	4774.3125
2645.56209	4779.6125
2648.20948	4764.7125
2650.85521	4761.9125
2653.4993	4764.3125
2656.14175	4768.6125
2658.78255	4764.4125
2661.42171	4766.1125
2664.05923	4770.6125
2666.6951	4786.3125
2669.32934	4790.9125
2671.96194	4804.0125
2674.59291	4812.1125
2677.22224	4805.3125
2679.84993	4798.3125
2682.476	4815.4125
2685.10043	4795.2125
2687.72324	4788.1125
2690.34441	4810.5125
2692.96396	4804.9125
2695.58188	4790.1125
2698.19818	4798.6125
2700.81285	4817.0125
2703.4259	4806.6125
2706.03733	4826.3125
2708.64714	4809.0125
2711.25533	4815.4125
2713.86191	4814.7125
2716.46687	4842.7125
2719.07021	4827.3125
2721.67194	4827.7125
2724.27206	4804.1125
2726.87057	4803.0125
2729.46747	4814.6125
2732.06276	4815.0125
2734.65644	4799.1125
2737.24852	4810.6125
2739.83899	4789.8125
2742.42786	4777.7125
2745.01513	4773.7125
2747.60079	4765.0125
2750.18486	4755.0125
2752.76733	4754.9125
2755.3482	4759.5125
2757.92747	4747.2125
2760.50515	4725.6125
2763.08123	4728.8125
2765.65573	4718.0125
2768.22863	4719.5125
2770.79994	4699.3125
2773.36967	4696.6125
2775.9378	4693.4125
2778.50435	4699.4125
2781.06932	4697.4125
2783.6327	4707.1125
2786.1945	4683.6125
2788.75471	4686.7125
2791.31335	4689.9125
2793.87041	4675.3125
2796.42589	4678.2125
2798.97979	4696.3125
2801.53212	4696.5125
2804.08288	4695.6125
2806.63206	4686.4125
2809.17967	4691.1125
2811.72571	4684.7125
2814.27018	4687.5125
2816.81308	4705.7125
2819.35442	4691.8125
2821.89419	4696.0125
2824.43239	4718.1125
2826.96904	4714.6125
2829.50412	4729.5125
2832.03763	4717.9125
2834.56959	4736.8125
2837.1	4747.8125
2839.62884	4777.8125
2842.15613	4800.8125
2844.68186	4850.0125
2847.20604	4919.6125
2849.72867	4989.0125
2852.24974	5021.5125
2854.76927	4999.2125
2857.28724	5000.0125
2859.80367	4981.9125
2862.31855	4968.0125
2864.83189	4972.7125
2867.34368	4922.3125
2869.85393	4918.7125
2872.36264	4928.5125
2874.8698	4908.7125
2877.37543	4905.6125
2879.87952	4893.5125
2882.38207	4910.9125
2884.88308	4898.7125
2887.38256	4892.3125
2889.88051	4887.6125
2892.37692	4890.2125
2894.8718	4894.8125
2897.36515	4894.6125
2899.85698	4905.8125
2902.34727	4899.0125
2904.83604	4898.7125
2907.32328	4911.2125
2909.809	4902.0125
2912.29319	4897.7125
2914.77587	4898.1125
2917.25702	4905.1125
2919.73665	4889.2125
2922.21476	4902.2125
2924.69136	4871.3125
2927.16644	4872.9125
2929.64	4855.1125
2932.11205	4855.2125
2934.58258	4818.2125
2937.05161	4804.4125
2939.51912	4785.9125
2941.98513	4748.2125
2944.44962	4717.6125
2946.91261	4657.2125
2949.37409	4650.6125
2951.83407	4606.6125
2954.29254	4597.6125
2956.74951	4590.1125
2959.20498	4550.9125
2961.65895	4538.1125
2964.11142	4541.2125
2966.56239	4525.3125
2969.01186	4514.9125
2971.45984	4482.8125
2973.90632	4477.3125
2976.35131	4455.2125
2978.7948	4431.5125
2981.23681	4413.4125
2983.67732	4405.7125
2986.11635	4379.0125
2988.55388	4348.0125
2990.98993	4354.1125
2993.4245	4316.1125
2995.85758	4322.9125
2998.28917	4293.4125
3000.71928	4286.2125
3003.14791	4299.2125
3005.57506	4286.3125
3008.00073	4272.2125
3010.42493	4266.5125
3012.84764	4254.2125
3015.26888	4251.4125
3017.68865	4234.3125
3020.10694	4244.6125
3022.52376	4234.6125
3024.9391	4212.8125
3027.35298	4213.1125
3029.76539	4213.0125
3032.17632	4204.0125
3034.5858	4201.6125
3036.9938	4186.4125
3039.40034	4179.8125
3041.80542	4175.5125
3044.20903	4174.6125
3046.61118	4156.0125
3049.01187	4141.1125
3051.4111	4147.7125
3053.80888	4150.4125
3056.20519	4125.1125
3058.60005	4113.1125
3060.99345	4110.3125
3063.3854	4109.1125
3065.7759	4098.5125
3068.16494	4092.8125
3070.55254	4070.1125
3072.93868	4070.7125
3075.32338	4054.5125
3077.70662	4053.7125
3080.08842	4025.6125
3082.46878	4016.0125
3084.84769	3999.4125
3087.22515	3991.9125
3089.60118	3994.7125
3091.97576	3980.9125
