Data from AgNPs_FTO_APTES_UA_2uM_CRN_0uM_R6G_10uM_NaF_0.1M_Addition_RamanShift__35__10-45-14-959.txt Node

Date: Wed Feb 02 10:45:14 GMT 2022
User: TCL
Spectrometer: QEP01345
Trigger mode: 4
Integration Time (sec): 7.000000E0
Scans to average: 10
Electric dark correction enabled: true
Nonlinearity correction enabled: false
Boxcar width: 0
XAxis mode: Raman Shifts
Number of Pixels in Spectrum: 1044
>>>>>Begin Spectral Data<<<<<
46.04893	0.4125
50.45542	1.4125
54.85868	-0.9875
59.25871	0.4125
63.6555	55.5125
68.04907	62.1125
72.43941	62.8125
76.82654	68.3125
81.21044	66.7125
85.59113	73.3125
89.96862	73.4125
94.34289	77.5125
98.71396	80.0125
103.08183	86.3125
107.4465	84.8125
111.80798	84.4125
116.16626	85.9125
120.52136	92.0125
124.87327	93.5125
129.222	102.9125
133.56755	107.7125
137.90993	118.5125
142.24913	132.0125
146.58517	143.5125
150.91804	169.5125
155.24774	205.1125
159.57429	255.0125
163.89768	320.4125
168.21792	428.6125
172.53501	591.7125
176.84895	830.0125
181.15975	1164.8125
185.46741	1614.8125
189.77193	2233.0125
194.07331	2966.8125
198.37157	3813.2125
202.6667	4699.4125
206.9587	5585.1125
211.24758	6457.1125
215.53334	7352.8125
219.81599	8312.8125
224.09553	9385.1125
228.37195	10592.9125
232.64527	11851.1125
236.91549	13142.9125
241.18261	14396.7125
245.44663	15562.7125
249.70755	16547.8125
253.96539	17385.4125
258.22014	18094.9125
262.4718	18649.5125
266.72039	19020.2125
270.96589	19126.8125
275.20832	19050.7125
279.44768	18818.0125
283.68397	18545.6125
287.91719	18395.9125
292.14735	18277.5125
296.37445	18288.9125
300.59849	18418.0125
304.81948	18618.8125
309.03742	18773.4125
313.25231	18824.3125
317.46415	18630.6125
321.67296	18337.5125
325.87872	18033.2125
330.08145	17870.4125
334.28114	17816.7125
338.47781	17843.6125
342.67145	17982.9125
346.86207	18266.4125
351.04966	18551.9125
355.23424	18907.6125
359.4158	19185.6125
363.59435	19399.1125
367.76989	19478.9125
371.94243	19541.6125
376.11196	19549.3125
380.27849	19545.2125
384.44203	19655.2125
388.60257	19806.4125
392.76012	20020.4125
396.91468	20214.2125
401.06626	20492.0125
405.21485	20715.3125
409.36047	20727.0125
413.50311	20649.8125
417.64277	20734.2125
421.77947	20956.2125
425.9132	21102.7125
430.04396	21219.3125
434.17176	21286.7125
438.2966	21434.0125
442.41849	21905.1125
446.53742	22786.5125
450.6534	23743.2125
454.76644	24186.6125
458.87653	24119.7125
462.98368	23616.5125
467.08789	22968.5125
471.18916	22336.1125
475.2875	21626.4125
479.38291	21145.7125
483.4754	20950.7125
487.56496	20829.1125
491.6516	20587.7125
495.73531	20340.4125
499.81612	20259.1125
503.89401	20405.5125
507.96899	20464.7125
512.04106	20288.1125
516.11023	19996.2125
520.1765	19706.9125
524.23987	19620.7125
528.30034	19596.3125
532.35792	19451.0125
536.41261	19144.8125
540.46441	18748.1125
544.51333	18586.7125
548.55936	18718.8125
552.60252	19231.2125
556.64279	19996.8125
560.6802	20583.2125
564.71473	20810.4125
568.7464	21061.8125
572.7752	21702.7125
576.80114	22513.8125
580.82422	23612.9125
584.84444	25324.4125
588.86181	27769.8125
592.87633	29891.8125
596.888	29897.7125
600.89682	27298.8125
604.9028	25430.2125
608.90594	26311.5125
612.90624	27946.6125
616.90371	26286.9125
620.89834	22007.3125
624.89015	19890.1125
628.87913	19539.5125
632.86528	19509.5125
636.84862	19256.9125
640.82913	18697.0125
644.80683	18229.7125
648.78172	18009.7125
652.75379	18135.5125
656.72306	18393.0125
660.68952	18641.6125
664.65319	18434.8125
668.61405	17966.9125
672.57211	17928.4125
676.52738	18103.5125
680.47986	18088.3125
684.42955	17874.9125
688.37646	17751.3125
692.32058	17932.5125
696.26192	18391.6125
700.20048	18907.4125
704.13626	19132.7125
708.06928	19074.9125
711.99952	19029.5125
715.927	19122.1125
719.85171	19360.5125
723.77365	19344.1125
727.69284	18810.1125
731.60928	18437.5125
735.52295	18312.0125
739.43388	18351.0125
743.34206	18476.2125
747.24749	18626.0125
751.15017	18852.4125
755.05012	19249.4125
758.94733	19802.7125
762.8418	20872.1125
766.73354	22347.3125
770.62254	23724.0125
774.50882	23853.2125
778.39237	22688.1125
782.27321	21053.6125
786.15132	19771.2125
790.02671	18944.2125
793.89938	18602.1125
797.76935	18503.9125
801.6366	18473.2125
805.50115	18464.8125
809.36299	18417.7125
813.22213	18237.8125
817.07857	18056.7125
820.93231	17866.6125
824.78336	17705.7125
828.63172	17661.9125
832.47738	17645.8125
836.32036	17696.8125
840.16066	17807.1125
843.99827	17898.1125
847.8332	17824.2125
851.66546	17790.3125
855.49504	17759.4125
859.32195	17747.2125
863.1462	17638.4125
866.96777	17544.5125
870.78668	17521.0125
874.60293	17506.2125
878.41652	17529.4125
882.22745	17663.2125
886.03573	17784.9125
889.84136	17796.1125
893.64433	17679.5125
897.44466	17596.8125
901.24235	17550.5125
905.0374	17462.2125
908.8298	17490.9125
912.61957	17538.0125
916.40671	17736.0125
920.19121	18094.2125
923.97308	18461.3125
927.75233	18699.4125
931.52895	18522.7125
935.30295	18028.2125
939.07433	17546.1125
942.84309	17208.6125
946.60924	17042.4125
950.37278	16996.1125
954.13371	16978.2125
957.89203	16857.1125
961.64774	16836.4125
965.40086	16822.6125
969.15137	16793.2125
972.89929	16647.7125
976.64461	16564.0125
980.38733	16615.8125
984.12747	16681.1125
987.86502	16824.0125
991.59999	17012.9125
995.33237	17330.5125
999.06217	17956.7125
1002.78939	18698.8125
1006.51404	19256.1125
1010.23611	19680.6125
1013.95561	19946.8125
1017.67255	19982.3125
1021.38692	19612.5125
1025.09872	19154.3125
1028.80796	19151.2125
1032.51465	19669.3125
1036.21877	20301.0125
1039.92035	20555.6125
1043.61937	20308.0125
1047.31584	19847.4125
1051.00976	19260.8125
1054.70114	18928.4125
1058.38998	18757.2125
1062.07627	18768.5125
1065.76003	18771.1125
1069.44126	18925.9125
1073.11995	19291.8125
1076.79611	19666.3125
1080.46974	19857.8125
1084.14085	20127.2125
1087.80943	20386.9125
1091.47549	20556.0125
1095.13903	20506.3125
1098.80005	20063.2125
1102.45857	19407.2125
1106.11456	18987.8125
1109.76805	18881.9125
1113.41903	18912.1125
1117.06751	19064.1125
1120.71348	19238.2125
1124.35696	19433.6125
1127.99793	19716.6125
1131.63641	19933.3125
1135.2724	19841.6125
1138.90589	19810.8125
1142.5369	19896.5125
1146.16542	20131.4125
1149.79145	20358.6125
1153.415	20543.4125
1157.03607	20962.9125
1160.65467	21853.5125
1164.27079	23316.6125
1167.88443	24925.4125
1171.49561	26527.4125
1175.10432	28599.8125
1178.71056	31439.9125
1182.31434	34189.4125
1185.91565	35253.2125
1189.51451	34311.6125
1193.11091	32534.1125
1196.70485	30917.6125
1200.29634	29630.0125
1203.88538	28781.0125
1207.47197	28407.5125
1211.05612	28047.0125
1214.63782	27477.8125
1218.21708	26786.6125
1221.79391	26227.5125
1225.36829	26022.5125
1228.94024	25657.4125
1232.50976	24997.3125
1236.07685	24129.1125
1239.6415	23533.3125
1243.20374	23349.7125
1246.76355	23518.9125
1250.32093	24002.1125
1253.8759	24721.1125
1257.42845	25593.3125
1260.97859	26537.6125
1264.52631	27536.8125
1268.07163	28509.9125
1271.61453	29514.9125
1275.15503	30584.2125
1278.69312	31914.8125
1282.22882	33426.9125
1285.76211	35239.4125
1289.29301	37314.3125
1292.82151	39546.2125
1296.34761	42331.7125
1299.87133	45743.5125
1303.39266	49228.8125
1306.9116	52177.1125
1310.42815	54312.7125
1313.94233	55046.0125
1317.45412	53962.2125
1320.96354	51711.3125
1324.47058	49541.5125
1327.97525	47865.3125
1331.47754	46636.5125
1334.97747	45481.3125
1338.47502	44128.2125
1341.97022	42294.9125
1345.46305	40616.7125
1348.95352	40071.5125
1352.44163	41167.8125
1355.92738	44311.2125
1359.41078	48527.3125
1362.89183	51864.1125
1366.37053	52370.3125
1369.84688	48258.2125
1373.32088	41355.6125
1376.79254	36294.1125
1380.26186	34594.6125
1383.72883	34664.2125
1387.19347	34605.0125
1390.65578	33866.7125
1394.11575	33554.3125
1397.57339	34169.0125
1401.0287	35233.1125
1404.48168	36191.4125
1407.93234	36258.0125
1411.38068	35406.7125
1414.82669	34009.3125
1418.27039	32447.8125
1421.71177	30806.8125
1425.15083	29421.1125
1428.58758	28877.3125
1432.02203	29434.1125
1435.45416	30745.2125
1438.88399	32001.9125
1442.31151	32743.4125
1445.73673	33049.5125
1449.15965	33107.5125
1452.58027	32692.6125
1455.9986	31914.4125
1459.41463	31578.3125
1462.82837	31925.9125
1466.23982	32773.8125
1469.64898	33740.0125
1473.05586	34433.9125
1476.46045	34747.7125
1479.86276	34764.4125
1483.26279	34423.6125
1486.66054	34199.0125
1490.05602	34412.4125
1493.44922	34596.6125
1496.84016	34622.9125
1500.22882	34560.9125
1503.61521	34756.1125
1506.99934	35186.1125
1510.38121	35763.9125
1513.76081	36001.3125
1517.13816	35517.2125
1520.51324	34778.4125
1523.88607	34345.6125
1527.25665	34560.5125
1530.62498	34979.8125
1533.99105	34997.2125
1537.35488	34455.6125
1540.71647	33461.6125
1544.07581	32203.9125
1547.4329	30920.1125
1550.78776	29777.4125
1554.14038	28838.6125
1557.49077	28291.9125
1560.83892	27874.5125
1564.18484	27678.5125
1567.52853	27686.4125
1570.86999	28040.6125
1574.20922	28651.5125
1577.54624	29349.6125
1580.88103	29866.1125
1584.2136	30643.6125
1587.54395	32614.7125
1590.87208	35721.0125
1594.19801	39353.4125
1597.52172	42379.4125
1600.84321	43050.6125
1604.16251	40253.2125
1607.47959	35311.5125
1610.79447	30418.1125
1614.10715	26615.9125
1617.41763	24125.5125
1620.7259	22745.0125
1624.03199	22223.3125
1627.33587	22499.9125
1630.63757	23560.4125
1633.93707	25571.2125
1637.23439	28962.4125
1640.52951	34194.8125
1643.82246	40773.0125
1647.11321	46003.3125
1650.40179	46308.4125
1653.68819	41091.2125
1656.97241	33616.9125
1660.25446	27133.4125
1663.53433	22898.6125
1666.81203	20431.0125
1670.08756	18993.7125
1673.36092	18084.0125
1676.63211	17525.8125
1679.90115	17125.1125
1683.16801	16817.4125
1686.43272	16576.2125
1689.69527	16444.3125
1692.95567	16313.6125
1696.2139	16245.7125
1699.46999	16186.8125
1702.72392	16138.8125
1705.97571	16067.9125
1709.22535	16010.0125
1712.47284	16015.4125
1715.71819	15972.5125
1718.96139	15969.5125
1722.20246	15888.4125
1725.44139	15824.2125
1728.67818	15717.7125
1731.91284	15600.6125
1735.14537	15511.8125
1738.37576	15464.8125
1741.60403	15389.0125
1744.83017	15311.6125
1748.05418	15288.5125
1751.27607	15243.0125
1754.49584	15211.9125
1757.71349	15193.1125
1760.92903	15201.0125
1764.14244	15161.9125
1767.35375	15167.5125
1770.56294	15131.9125
1773.77002	15112.1125
1776.97499	15066.4125
1780.17785	15067.6125
1783.37861	15038.8125
1786.57727	15004.8125
1789.77382	14922.9125
1792.96828	14950.5125
1796.16064	14949.3125
1799.3509	14879.5125
1802.53907	14899.1125
1805.72514	14892.1125
1808.90913	14841.1125
1812.09102	14785.8125
1815.27083	14734.8125
1818.44856	14744.6125
1821.6242	14752.8125
1824.79776	14742.0125
1827.96924	14719.4125
1831.13864	14690.4125
1834.30597	14695.3125
1837.47122	14688.1125
1840.6344	14741.1125
1843.7955	14746.6125
1846.95454	14727.3125
1850.11151	14706.4125
1853.26642	14705.9125
1856.41926	14711.1125
1859.57004	14688.9125
1862.71876	14663.0125
1865.86542	14655.1125
1869.01003	14692.3125
1872.15258	14640.5125
1875.29308	14660.7125
1878.43152	14647.1125
1881.56792	14643.9125
1884.70227	14637.6125
1887.83457	14627.2125
1890.96482	14575.7125
1894.09304	14587.2125
1897.21921	14568.8125
1900.34335	14577.9125
1903.46544	14550.0125
1906.58551	14533.2125
1909.70353	14510.5125
1912.81953	14499.9125
1915.93349	14476.6125
1919.04543	14420.3125
1922.15534	14415.5125
1925.26322	14374.8125
1928.36908	14304.1125
1931.47292	14305.4125
1934.57473	14247.9125
1937.67453	14232.7125
1940.77232	14230.0125
1943.86808	14180.7125
1946.96184	14161.3125
1950.05358	14123.3125
1953.14331	14059.9125
1956.23103	14057.5125
1959.31675	13992.0125
1962.40046	14001.0125
1965.48217	13941.1125
1968.56188	13880.3125
1971.63959	13840.4125
1974.7153	13796.6125
1977.78901	13744.2125
1980.86073	13746.1125
1983.93046	13702.9125
1986.99819	13678.9125
1990.06394	13659.2125
1993.1277	13631.8125
1996.18947	13575.0125
1999.24925	13516.7125
2002.30706	13457.3125
2005.36288	13442.0125
2008.41672	13423.9125
2011.46859	13397.5125
2014.51848	13344.1125
2017.56639	13310.5125
2020.61233	13303.7125
2023.6563	13256.2125
2026.6983	13247.2125
2029.73833	13245.2125
2032.7764	13217.4125
2035.8125	13224.3125
2038.84664	13201.4125
2041.87881	13192.4125
2044.90903	13168.8125
2047.93729	13169.3125
2050.96359	13140.7125
2053.98794	13129.0125
2057.01034	13122.5125
2060.03078	13134.2125
2063.04927	13112.1125
2066.06582	13075.1125
2069.08042	13113.5125
2072.09307	13066.1125
2075.10378	13099.0125
2078.11255	13093.8125
2081.11938	13138.2125
2084.12426	13116.6125
2087.12722	13111.0125
2090.12824	13087.6125
2093.12732	13112.4125
2096.12447	13114.6125
2099.11969	13153.2125
2102.11299	13145.3125
2105.10435	13155.4125
2108.09379	13143.9125
2111.08131	13140.4125
2114.0669	13138.6125
2117.05057	13153.4125
2120.03233	13126.5125
2123.01216	13118.6125
2125.99008	13147.8125
2128.96609	13151.0125
2131.94018	13141.6125
2134.91236	13146.7125
2137.88263	13150.2125
2140.851	13195.2125
2143.81746	13164.7125
2146.78201	13182.1125
2149.74466	13165.6125
2152.7054	13163.0125
2155.66425	13159.6125
2158.6212	13195.4125
2161.57625	13180.7125
2164.52941	13194.8125
2167.48067	13144.4125
2170.43004	13184.0125
2173.37752	13182.6125
2176.32311	13149.1125
2179.26681	13209.5125
2182.20863	13195.1125
2185.14856	13194.6125
2188.08661	13231.9125
2191.02278	13229.5125
2193.95707	13218.9125
2196.88948	13218.8125
2199.82001	13206.5125
2202.74867	13189.8125
2205.67545	13216.6125
2208.60037	13218.9125
2211.52341	13188.2125
2214.44458	13170.3125
2217.36388	13150.6125
2220.28132	13148.7125
2223.1969	13145.2125
2226.11061	13105.5125
2229.02246	13079.6125
2231.93245	13125.3125
2234.84058	13083.2125
2237.74686	13069.1125
2240.65128	13045.7125
2243.55385	13058.4125
2246.45456	13008.0125
2249.35343	12987.4125
2252.25044	12908.7125
2255.14561	12922.8125
2258.03893	12936.7125
2260.93041	12875.1125
2263.82004	12869.0125
2266.70783	12851.4125
2269.59378	12818.7125
2272.4779	12803.5125
2275.36017	12765.3125
2278.24061	12743.4125
2281.11922	12695.2125
2283.996	12725.8125
2286.87094	12712.4125
2289.74405	12719.8125
2292.61534	12676.0125
2295.4848	12690.6125
2298.35243	12698.6125
2301.21824	12703.1125
2304.08223	12699.1125
2306.94439	12715.9125
2309.80474	12741.3125
2312.66327	12747.6125
2315.51999	12710.9125
2318.37489	12738.7125
2321.22797	12708.9125
2324.07925	12687.4125
2326.92871	12738.6125
2329.77637	12719.0125
2332.62222	12686.2125
2335.46626	12715.1125
2338.3085	12697.9125
2341.14893	12715.4125
2343.98756	12735.0125
2346.8244	12698.0125
2349.65943	12702.8125
2352.49267	12660.3125
2355.32411	12689.0125
2358.15376	12686.9125
2360.98161	12660.1125
2363.80768	12659.5125
2366.63195	12631.4125
2369.45444	12633.8125
2372.27514	12599.7125
2375.09405	12573.5125
2377.91118	12574.9125
2380.72652	12551.2125
2383.54009	12547.0125
2386.35187	12518.7125
2389.16188	12505.5125
2391.97011	12492.9125
2394.77657	12465.7125
2397.58125	12455.9125
2400.38416	12451.5125
2403.18529	12419.2125
2405.98466	12403.1125
2408.78226	12390.0125
2411.57809	12348.4125
2414.37216	12331.1125
2417.16446	12344.2125
2419.955	12304.2125
2422.74378	12339.4125
2425.5308	12315.1125
2428.31606	12315.2125
2431.09956	12341.7125
2433.88131	12302.8125
2436.6613	12284.3125
2439.43954	12289.5125
2442.21603	12314.8125
2444.99077	12310.1125
2447.76377	12294.7125
2450.53501	12320.0125
2453.30451	12347.8125
2456.07226	12309.5125
2458.83827	12334.7125
2461.60254	12314.0125
2464.36507	12321.2125
2467.12586	12328.1125
2469.88492	12343.2125
2472.64224	12344.9125
2475.39782	12343.7125
2478.15167	12360.7125
2480.90379	12346.4125
2483.65417	12349.7125
2486.40283	12370.9125
2489.14976	12373.0125
2491.89497	12393.9125
2494.63845	12417.4125
2497.3802	12389.4125
2500.12024	12399.5125
2502.85855	12410.3125
2505.59514	12389.1125
2508.33002	12368.2125
2511.06318	12343.0125
2513.79462	12352.7125
2516.52435	12346.4125
2519.25237	12321.2125
2521.97867	12308.6125
2524.70327	12336.5125
2527.42616	12301.0125
2530.14734	12314.2125
2532.86681	12298.7125
2535.58458	12309.1125
2538.30065	12281.3125
2541.01501	12247.8125
2543.72768	12259.9125
2546.43864	12252.9125
2549.14791	12254.1125
2551.85548	12242.8125
2554.56136	12236.1125
2557.26554	12254.6125
2559.96803	12249.3125
2562.66883	12239.6125
2565.36794	12258.0125
2568.06536	12252.2125
2570.7611	12266.9125
2573.45514	12254.4125
2576.14751	12253.9125
2578.83819	12267.8125
2581.52719	12268.9125
2584.21451	12263.6125
2586.90015	12244.5125
2589.58411	12223.6125
2592.2664	12226.4125
2594.94701	12207.4125
2597.62594	12224.7125
2600.30321	12178.3125
2602.9788	12156.8125
2605.65273	12191.1125
2608.32498	12224.2125
2610.99557	12205.5125
2613.66449	12207.2125
2616.33175	12209.6125
2618.99734	12201.3125
2621.66128	12262.5125
2624.32355	12238.1125
2626.98416	12221.6125
2629.64311	12198.5125
2632.30041	12191.5125
2634.95605	12185.7125
2637.61004	12192.9125
2640.26238	12197.2125
2642.91306	12156.6125
2645.56209	12141.9125
2648.20948	12156.3125
2650.85521	12149.4125
2653.4993	12153.2125
2656.14175	12178.1125
2658.78255	12202.0125
2661.42171	12212.9125
2664.05923	12219.0125
2666.6951	12206.0125
2669.32934	12235.9125
2671.96194	12263.7125
2674.59291	12270.5125
2677.22224	12248.3125
2679.84993	12234.5125
2682.476	12249.1125
2685.10043	12252.2125
2687.72324	12216.6125
2690.34441	12207.3125
2692.96396	12224.3125
2695.58188	12220.2125
2698.19818	12241.6125
2700.81285	12216.5125
2703.4259	12235.5125
2706.03733	12241.9125
2708.64714	12238.6125
2711.25533	12241.7125
2713.86191	12278.5125
2716.46687	12301.4125
2719.07021	12306.8125
2721.67194	12303.9125
2724.27206	12300.5125
2726.87057	12297.4125
2729.46747	12328.5125
2732.06276	12354.4125
2734.65644	12335.4125
2737.24852	12357.9125
2739.83899	12340.3125
2742.42786	12346.1125
2745.01513	12327.0125
2747.60079	12335.5125
2750.18486	12353.2125
2752.76733	12376.2125
2755.3482	12352.4125
2757.92747	12401.9125
2760.50515	12407.2125
2763.08123	12386.1125
2765.65573	12338.2125
2768.22863	12358.4125
2770.79994	12361.2125
2773.36967	12390.4125
2775.9378	12387.3125
2778.50435	12398.4125
2781.06932	12370.9125
2783.6327	12388.0125
2786.1945	12376.5125
2788.75471	12360.2125
2791.31335	12363.5125
2793.87041	12335.8125
2796.42589	12321.3125
2798.97979	12324.5125
2801.53212	12298.4125
2804.08288	12329.8125
2806.63206	12293.5125
2809.17967	12277.7125
2811.72571	12252.6125
2814.27018	12250.9125
2816.81308	12249.2125
2819.35442	12252.3125
2821.89419	12236.4125
2824.43239	12246.7125
2826.96904	12219.1125
2829.50412	12227.8125
2832.03763	12195.5125
2834.56959	12186.9125
2837.1	12195.6125
2839.62884	12227.9125
2842.15613	12258.0125
2844.68186	12322.1125
2847.20604	12365.7125
2849.72867	12408.1125
2852.24974	12428.4125
2854.76927	12423.0125
2857.28724	12432.3125
2859.80367	12405.2125
2862.31855	12392.8125
2864.83189	12378.0125
2867.34368	12384.2125
2869.85393	12400.8125
2872.36264	12424.9125
2874.8698	12421.0125
2877.37543	12433.4125
2879.87952	12468.1125
2882.38207	12489.0125
2884.88308	12460.3125
2887.38256	12523.0125
2889.88051	12544.3125
2892.37692	12547.3125
2894.8718	12552.4125
2897.36515	12588.7125
2899.85698	12566.1125
2902.34727	12621.5125
2904.83604	12607.8125
2907.32328	12613.4125
2909.809	12588.8125
2912.29319	12608.4125
2914.77587	12599.6125
2917.25702	12617.0125
2919.73665	12578.1125
2922.21476	12603.3125
2924.69136	12584.9125
2927.16644	12577.1125
2929.64	12549.2125
2932.11205	12559.2125
2934.58258	12515.4125
2937.05161	12542.9125
2939.51912	12523.6125
2941.98513	12509.4125
2944.44962	12446.3125
2946.91261	12374.0125
2949.37409	12390.7125
2951.83407	12333.1125
2954.29254	12328.6125
2956.74951	12280.2125
2959.20498	12249.7125
2961.65895	12206.3125
2964.11142	12202.9125
2966.56239	12138.5125
2969.01186	12155.9125
2971.45984	12114.4125
2973.90632	12067.9125
2976.35131	12031.8125
2978.7948	12018.1125
2981.23681	11961.8125
2983.67732	11927.1125
2986.11635	11903.6125
2988.55388	11852.7125
2990.98993	11814.3125
2993.4245	11806.5125
2995.85758	11768.1125
2998.28917	11752.5125
3000.71928	11773.1125
3003.14791	11761.5125
3005.57506	11747.8125
3008.00073	11702.9125
3010.42493	11729.0125
3012.84764	11685.4125
3015.26888	11659.8125
3017.68865	11664.8125
3020.10694	11624.4125
3022.52376	11585.2125
3024.9391	11577.7125
