Data from AgNPs_FTO_APTES_UA_2uM_CRN_20uM_R6G_10uM_NaF_0.1M_Addition_RamanShift__9__14-08-15-195.txt Node

Date: Wed Feb 02 14:08:15 GMT 2022
User: TCL
Spectrometer: QEP01345
Trigger mode: 4
Integration Time (sec): 7.000000E0
Scans to average: 10
Electric dark correction enabled: true
Nonlinearity correction enabled: false
Boxcar width: 0
XAxis mode: Raman Shifts
Number of Pixels in Spectrum: 1044
>>>>>Begin Spectral Data<<<<<
46.04893	0.175
50.45542	1.875
54.85868	-1.725
59.25871	-0.625
63.6555	98.975
68.04907	103.375
72.43941	106.375
76.82654	114.275
81.21044	117.275
85.59113	121.275
89.96862	128.375
94.34289	129.075
98.71396	132.175
103.08183	139.975
107.4465	144.075
111.80798	145.475
116.16626	151.975
120.52136	156.375
124.87327	161.375
129.222	169.275
133.56755	183.175
137.90993	201.075
142.24913	223.975
146.58517	253.375
150.91804	291.275
155.24774	355.675
159.57429	438.775
163.89768	557.675
168.21792	739.975
172.53501	1019.675
176.84895	1410.175
181.15975	1981.075
185.46741	2787.475
189.77193	3835.575
194.07331	5129.275
198.37157	6616.375
202.6667	8177.775
206.9587	9692.275
211.24758	11228.075
215.53334	12733.875
219.81599	14351.175
224.09553	16083.575
228.37195	18031.175
232.64527	20130.775
236.91549	22345.875
241.18261	24518.775
245.44663	26595.875
249.70755	28507.375
253.96539	30138.375
258.22014	31513.875
262.4718	32657.175
266.72039	33459.875
270.96589	33880.075
275.20832	33968.475
279.44768	33847.275
283.68397	33568.075
287.91719	33446.375
292.14735	33333.075
296.37445	33307.775
300.59849	33451.975
304.81948	33579.875
309.03742	33575.675
313.25231	33327.375
317.46415	32757.775
321.67296	31975.775
325.87872	31287.775
330.08145	30896.175
334.28114	30844.175
338.47781	30908.575
342.67145	31198.975
346.86207	31594.875
351.04966	32005.575
355.23424	32502.675
359.4158	32949.375
363.59435	33307.575
367.76989	33511.575
371.94243	33641.975
376.11196	33688.775
380.27849	33719.275
384.44203	33768.075
388.60257	34024.575
392.76012	34454.075
396.91468	35091.275
401.06626	35718.075
405.21485	36044.975
409.36047	35900.775
413.50311	35490.575
417.64277	35394.175
421.77947	35585.775
425.9132	35820.475
430.04396	36032.675
434.17176	36152.275
438.2966	36259.475
442.41849	36653.475
446.53742	37512.075
450.6534	38392.575
454.76644	39036.775
458.87653	39278.275
462.98368	39190.575
467.08789	38849.075
471.18916	38428.275
475.2875	38019.975
479.38291	37826.775
483.4754	37682.675
487.56496	37336.575
491.6516	36684.475
495.73531	35959.275
499.81612	35529.075
503.89401	35572.175
507.96899	35823.775
512.04106	35868.775
516.11023	35627.175
520.1765	35102.075
524.23987	34563.575
528.30034	34079.075
532.35792	33668.075
536.41261	33277.175
540.46441	33066.475
544.51333	33109.075
548.55936	33544.175
552.60252	34314.975
556.64279	35166.275
560.6802	35901.375
564.71473	36422.575
568.7464	37286.275
572.7752	38788.975
576.80114	40507.875
580.82422	42206.475
584.84444	43943.575
588.86181	46117.275
592.87633	47797.275
596.888	47130.275
600.89682	44411.675
604.9028	42920.375
608.90594	43945.275
612.90624	45237.675
616.90371	42144.775
620.89834	36501.075
624.89015	34063.675
628.87913	33977.375
632.86528	34364.575
636.84862	34297.275
640.82913	33585.675
644.80683	32752.175
648.78172	32208.775
652.75379	32166.475
656.72306	32534.975
660.68952	32835.775
664.65319	32583.375
668.61405	32139.075
672.57211	32000.175
676.52738	32228.575
680.47986	32175.275
684.42955	31930.975
688.37646	31816.975
692.32058	32043.475
696.26192	32508.775
700.20048	32887.775
704.13626	33286.575
708.06928	33491.575
711.99952	33407.275
715.927	33411.375
719.85171	33396.375
723.77365	33120.975
727.69284	32538.875
731.60928	31920.075
735.52295	31676.275
739.43388	31579.275
743.34206	31693.075
747.24749	31951.275
751.15017	32377.375
755.05012	33081.375
758.94733	34147.975
762.8418	35776.075
766.73354	38005.975
770.62254	39915.375
774.50882	39687.275
778.39237	37737.575
782.27321	35399.775
786.15132	33600.575
790.02671	32403.375
793.89938	31764.675
797.76935	31457.675
801.6366	31376.275
805.50115	31269.175
809.36299	31132.075
813.22213	30911.475
817.07857	30809.275
820.93231	30672.775
824.78336	30454.775
828.63172	30239.375
832.47738	30069.075
836.32036	29989.175
840.16066	29974.075
843.99827	29987.375
847.8332	29957.975
851.66546	29961.975
855.49504	30041.775
859.32195	30049.075
863.1462	29956.875
866.96777	29861.675
870.78668	29810.275
874.60293	29812.975
878.41652	29774.975
882.22745	29878.075
886.03573	29899.375
889.84136	29942.375
893.64433	29851.975
897.44466	29760.875
901.24235	29634.075
905.0374	29643.575
908.8298	29628.075
912.61957	29736.175
916.40671	30144.475
920.19121	30711.175
923.97308	31068.275
927.75233	30997.175
931.52895	30491.975
935.30295	29777.175
939.07433	29178.375
942.84309	28699.275
946.60924	28449.875
950.37278	28399.975
954.13371	28438.975
957.89203	28442.575
961.64774	28496.875
965.40086	28498.375
969.15137	28392.475
972.89929	28207.775
976.64461	28025.475
980.38733	27932.375
984.12747	27883.175
987.86502	27964.575
991.59999	28150.175
995.33237	28322.175
999.06217	28685.275
1002.78939	29294.175
1006.51404	29867.475
1010.23611	30433.075
1013.95561	30798.075
1017.67255	30899.475
1021.38692	30625.375
1025.09872	30131.575
1028.80796	29684.275
1032.51465	29553.075
1036.21877	29697.675
1039.92035	29848.275
1043.61937	29956.775
1047.31584	30016.975
1051.00976	30014.075
1054.70114	30096.475
1058.38998	30356.575
1062.07627	30808.775
1065.76003	31318.075
1069.44126	31818.075
1073.11995	32458.375
1076.79611	32942.775
1080.46974	33129.475
1084.14085	33276.275
1087.80943	33622.075
1091.47549	34018.875
1095.13903	34271.175
1098.80005	33805.775
1102.45857	32819.075
1106.11456	31933.775
1109.76805	31427.475
1113.41903	31363.475
1117.06751	31434.475
1120.71348	31791.175
1124.35696	32142.975
1127.99793	32498.175
1131.63641	32808.275
1135.2724	32862.875
1138.90589	32864.675
1142.5369	33164.275
1146.16542	33601.675
1149.79145	34056.075
1153.415	34644.575
1157.03607	35408.375
1160.65467	36654.175
1164.27079	38653.375
1167.88443	40883.575
1171.49561	43047.275
1175.10432	45530.675
1178.71056	48526.175
1182.31434	51312.275
1185.91565	52849.975
1189.51451	52880.775
1193.11091	52010.875
1196.70485	50537.875
1200.29634	48704.775
1203.88538	47495.175
1207.47197	47261.875
1211.05612	47251.175
1214.63782	46657.675
1218.21708	45136.975
1221.79391	43193.075
1225.36829	41673.875
1228.94024	40737.675
1232.50976	40147.975
1236.07685	39722.675
1239.6415	39392.975
1243.20374	39420.075
1246.76355	39822.475
1250.32093	40397.975
1253.8759	41323.875
1257.42845	42528.675
1260.97859	43924.175
1264.52631	45300.575
1268.07163	46710.875
1271.61453	48065.975
1275.15503	49524.675
1278.69312	51269.675
1282.22882	53149.575
1285.76211	55598.175
1289.29301	58173.275
1292.82151	61387.975
1296.34761	65070.375
1299.87133	69146.575
1303.39266	72850.275
1306.9116	75715.475
1310.42815	77238.675
1313.94233	77628.275
1317.45412	76968.075
1320.96354	76139.875
1324.47058	76047.575
1327.97525	76319.275
1331.47754	76569.375
1334.97747	76384.475
1338.47502	75652.175
1341.97022	74617.775
1345.46305	73237.275
1348.95352	71756.075
1352.44163	70569.775
1355.92738	70618.275
1359.41078	72029.475
1362.89183	73324.775
1366.37053	72413.975
1369.84688	67987.275
1373.32088	61435.775
1376.79254	56608.875
1380.26186	55013.875
1383.72883	55591.075
1387.19347	56053.675
1390.65578	55825.075
1394.11575	55654.975
1397.57339	56244.875
1401.0287	57313.275
1404.48168	58154.275
1407.93234	57765.275
1411.38068	56134.475
1414.82669	53561.375
1418.27039	50808.275
1421.71177	48255.875
1425.15083	46288.575
1428.58758	45515.175
1432.02203	46014.275
1435.45416	47538.175
1438.88399	49325.875
1442.31151	50699.075
1445.73673	51452.075
1449.15965	51927.475
1452.58027	52223.175
1455.9986	52351.275
1459.41463	52544.475
1462.82837	53225.475
1466.23982	54079.475
1469.64898	54899.675
1473.05586	55263.275
1476.46045	55198.575
1479.86276	54727.075
1483.26279	54133.675
1486.66054	53735.075
1490.05602	54025.975
1493.44922	54607.775
1496.84016	55336.375
1500.22882	56209.075
1503.61521	57301.075
1506.99934	58366.875
1510.38121	59247.675
1513.76081	59452.475
1517.13816	59016.875
1520.51324	58453.075
1523.88607	58438.175
1527.25665	58986.575
1530.62498	59262.075
1533.99105	58869.075
1537.35488	57764.775
1540.71647	55868.075
1544.07581	53732.875
1547.4329	51660.175
1550.78776	50071.475
1554.14038	48913.375
1557.49077	48317.875
1560.83892	47954.075
1564.18484	47711.575
1567.52853	47704.575
1570.86999	48175.075
1574.20922	49431.075
1577.54624	50771.275
1580.88103	51717.875
1584.2136	52959.675
1587.54395	54966.875
1590.87208	57930.275
1594.19801	61219.275
1597.52172	63755.575
1600.84321	63560.875
1604.16251	59802.775
1607.47959	54588.075
1610.79447	49384.875
1614.10715	44865.075
1617.41763	41225.775
1620.7259	38792.075
1624.03199	37568.575
1627.33587	37635.875
1630.63757	38995.475
1633.93707	42038.775
1637.23439	47246.975
1640.52951	54703.575
1643.82246	63452.175
1647.11321	70047.975
1650.40179	70790.175
1653.68819	64864.175
1656.97241	55255.875
1660.25446	46119.075
1663.53433	39282.775
1666.81203	34818.975
1670.08756	31948.275
1673.36092	30203.575
1676.63211	29089.575
1679.90115	28285.175
1683.16801	27744.175
1686.43272	27292.075
1689.69527	26960.075
1692.95567	26673.275
1696.2139	26477.875
1699.46999	26390.475
1702.72392	26266.675
1705.97571	26156.475
1709.22535	26007.375
1712.47284	25905.775
1715.71819	25865.775
1718.96139	25797.575
1722.20246	25671.475
1725.44139	25507.075
1728.67818	25359.975
1731.91284	25173.575
1735.14537	25008.775
1738.37576	24897.675
1741.60403	24743.675
1744.83017	24645.875
1748.05418	24581.175
1751.27607	24530.275
1754.49584	24477.775
1757.71349	24439.275
1760.92903	24453.575
1764.14244	24347.175
1767.35375	24335.175
1770.56294	24292.675
1773.77002	24198.975
1776.97499	24184.575
1780.17785	24102.575
1783.37861	24027.075
1786.57727	23982.675
1789.77382	23901.475
1792.96828	23904.075
1796.16064	23837.775
1799.3509	23776.375
1802.53907	23687.975
1805.72514	23612.275
1808.90913	23548.275
1812.09102	23502.475
1815.27083	23468.175
1818.44856	23404.575
1821.6242	23414.675
1824.79776	23399.075
1827.96924	23350.575
1831.13864	23311.475
1834.30597	23356.675
1837.47122	23335.375
1840.6344	23331.975
1843.7955	23347.275
1846.95454	23320.175
1850.11151	23303.475
1853.26642	23267.675
1856.41926	23256.175
1859.57004	23240.875
1862.71876	23188.875
1865.86542	23153.675
1869.01003	23096.475
1872.15258	23062.575
1875.29308	23012.875
1878.43152	23002.975
1881.56792	22955.775
1884.70227	22940.975
1887.83457	22913.175
1890.96482	22873.675
1894.09304	22816.475
1897.21921	22793.675
1900.34335	22735.575
1903.46544	22662.875
1906.58551	22652.675
1909.70353	22599.275
1912.81953	22549.575
1915.93349	22492.675
1919.04543	22453.675
1922.15534	22422.875
1925.26322	22349.175
1928.36908	22284.975
1931.47292	22253.475
1934.57473	22078.875
1937.67453	22071.675
1940.77232	21984.975
1943.86808	21952.675
1946.96184	21926.175
1950.05358	21823.175
1953.14331	21768.075
1956.23103	21699.075
1959.31675	21623.675
1962.40046	21593.375
1965.48217	21493.175
1968.56188	21463.175
1971.63959	21378.575
1974.7153	21337.975
1977.78901	21246.875
1980.86073	21113.075
1983.93046	21075.875
1986.99819	20983.875
1990.06394	20957.575
1993.1277	20927.675
1996.18947	20805.675
1999.24925	20760.675
2002.30706	20689.775
2005.36288	20577.275
2008.41672	20534.075
2011.46859	20479.575
2014.51848	20394.175
2017.56639	20379.975
2020.61233	20286.575
2023.6563	20319.275
2026.6983	20245.175
2029.73833	20178.975
2032.7764	20136.775
2035.8125	20087.375
2038.84664	20032.975
2041.87881	19994.875
2044.90903	19972.475
2047.93729	19922.275
2050.96359	19914.975
2053.98794	19858.775
2057.01034	19891.075
2060.03078	19850.875
2063.04927	19790.075
2066.06582	19824.275
2069.08042	19801.375
2072.09307	19775.975
2075.10378	19736.375
2078.11255	19722.375
2081.11938	19729.875
2084.12426	19667.175
2087.12722	19676.075
2090.12824	19679.475
2093.12732	19683.975
2096.12447	19662.975
2099.11969	19710.075
2102.11299	19673.875
2105.10435	19653.875
2108.09379	19692.175
2111.08131	19674.075
2114.0669	19704.175
2117.05057	19668.075
2120.03233	19689.475
2123.01216	19710.375
2125.99008	19744.275
2128.96609	19714.175
2131.94018	19731.375
2134.91236	19734.275
2137.88263	19715.875
2140.851	19724.875
2143.81746	19738.175
2146.78201	19708.175
2149.74466	19702.075
2152.7054	19694.875
2155.66425	19697.175
2158.6212	19679.275
2161.57625	19656.175
2164.52941	19642.975
2167.48067	19660.775
2170.43004	19613.175
2173.37752	19570.575
2176.32311	19578.475
2179.26681	19606.075
2182.20863	19549.475
2185.14856	19576.075
2188.08661	19578.875
2191.02278	19624.975
2193.95707	19553.275
2196.88948	19538.775
2199.82001	19498.075
2202.74867	19492.675
2205.67545	19450.575
2208.60037	19415.775
2211.52341	19382.275
2214.44458	19378.775
2217.36388	19323.475
2220.28132	19286.375
2223.1969	19264.975
2226.11061	19242.975
2229.02246	19197.075
2231.93245	19177.675
2234.84058	19144.075
2237.74686	19108.975
2240.65128	19097.375
2243.55385	19027.375
2246.45456	19013.575
2249.35343	18996.775
2252.25044	18967.675
2255.14561	18897.975
2258.03893	18819.475
2260.93041	18811.775
2263.82004	18707.175
2266.70783	18673.175
2269.59378	18607.575
2272.4779	18547.175
2275.36017	18523.275
2278.24061	18492.375
2281.11922	18431.275
2283.996	18397.075
2286.87094	18387.875
2289.74405	18341.075
2292.61534	18329.275
2295.4848	18280.175
2298.35243	18288.975
2301.21824	18293.875
2304.08223	18271.175
2306.94439	18271.375
2309.80474	18245.075
2312.66327	18242.075
2315.51999	18214.775
2318.37489	18174.275
2321.22797	18136.775
2324.07925	18118.375
2326.92871	18094.075
2329.77637	18088.875
2332.62222	18079.875
2335.46626	18047.475
2338.3085	18015.675
2341.14893	17990.275
2343.98756	18000.075
2346.8244	17993.975
2349.65943	17972.675
2352.49267	17986.175
2355.32411	18011.575
2358.15376	17979.075
2360.98161	17983.975
2363.80768	17941.675
2366.63195	17945.075
2369.45444	17883.575
2372.27514	17895.375
2375.09405	17897.375
2377.91118	17851.775
2380.72652	17789.875
2383.54009	17728.775
2386.35187	17731.275
2389.16188	17690.175
2391.97011	17649.775
2394.77657	17555.375
2397.58125	17549.575
2400.38416	17554.375
2403.18529	17539.175
2405.98466	17495.875
2408.78226	17486.475
2411.57809	17432.375
2414.37216	17444.875
2417.16446	17451.475
2419.955	17411.775
2422.74378	17473.175
2425.5308	17420.375
2428.31606	17390.775
2431.09956	17350.375
2433.88131	17302.675
2436.6613	17349.275
2439.43954	17327.975
2442.21603	17312.075
2444.99077	17276.375
2447.76377	17249.975
2450.53501	17218.275
2453.30451	17219.475
2456.07226	17223.475
2458.83827	17252.375
2461.60254	17228.675
2464.36507	17212.275
2467.12586	17229.075
2469.88492	17214.475
2472.64224	17185.075
2475.39782	17167.075
2478.15167	17200.775
2480.90379	17186.275
2483.65417	17207.075
2486.40283	17204.975
2489.14976	17169.475
2491.89497	17170.475
2494.63845	17201.175
2497.3802	17184.975
2500.12024	17153.875
2502.85855	17182.175
2505.59514	17148.475
2508.33002	17156.875
2511.06318	17121.975
2513.79462	17131.975
2516.52435	17084.675
2519.25237	17082.275
2521.97867	17069.975
2524.70327	17094.475
2527.42616	17045.375
2530.14734	17043.875
2532.86681	17017.875
2535.58458	16985.975
2538.30065	16978.975
2541.01501	16933.375
2543.72768	16911.175
2546.43864	16922.275
2549.14791	16858.475
2551.85548	16880.975
2554.56136	16872.875
2557.26554	16877.975
2559.96803	16840.275
2562.66883	16810.175
2565.36794	16806.575
2568.06536	16787.975
2570.7611	16810.575
2573.45514	16745.675
2576.14751	16746.075
2578.83819	16729.275
2581.52719	16723.875
2584.21451	16707.075
2586.90015	16663.075
2589.58411	16646.875
2592.2664	16635.375
2594.94701	16659.475
2597.62594	16653.275
2600.30321	16585.475
2602.9788	16590.775
2605.65273	16587.175
2608.32498	16592.575
2610.99557	16561.175
2613.66449	16615.875
2616.33175	16593.075
2618.99734	16575.975
2621.66128	16585.875
2624.32355	16536.775
2626.98416	16541.575
2629.64311	16548.475
2632.30041	16531.975
2634.95605	16486.975
2637.61004	16511.475
2640.26238	16459.775
2642.91306	16453.975
2645.56209	16409.975
2648.20948	16456.275
2650.85521	16454.175
2653.4993	16461.275
2656.14175	16475.475
2658.78255	16515.175
2661.42171	16493.775
2664.05923	16522.475
2666.6951	16533.975
2669.32934	16537.875
2671.96194	16577.875
2674.59291	16520.775
2677.22224	16535.575
2679.84993	16534.875
2682.476	16509.775
2685.10043	16534.875
2687.72324	16529.175
2690.34441	16496.875
2692.96396	16494.375
2695.58188	16509.775
2698.19818	16488.175
2700.81285	16501.375
2703.4259	16482.775
2706.03733	16552.675
2708.64714	16536.775
2711.25533	16508.475
2713.86191	16503.675
2716.46687	16488.875
2719.07021	16508.175
2721.67194	16559.175
2724.27206	16530.175
2726.87057	16562.375
2729.46747	16525.075
2732.06276	16545.075
2734.65644	16495.575
2737.24852	16529.575
2739.83899	16498.875
2742.42786	16540.075
2745.01513	16500.175
2747.60079	16535.875
2750.18486	16499.375
2752.76733	16507.375
2755.3482	16504.475
2757.92747	16502.675
2760.50515	16487.875
2763.08123	16496.575
2765.65573	16485.275
2768.22863	16458.475
2770.79994	16433.075
2773.36967	16435.275
2775.9378	16458.475
2778.50435	16442.175
2781.06932	16421.575
2783.6327	16435.975
2786.1945	16414.775
2788.75471	16392.275
2791.31335	16330.675
2793.87041	16298.275
2796.42589	16267.475
2798.97979	16275.475
2801.53212	16250.075
2804.08288	16261.375
2806.63206	16204.275
2809.17967	16204.775
2811.72571	16153.375
2814.27018	16092.375
2816.81308	16050.575
2819.35442	16034.575
2821.89419	16012.275
2824.43239	16014.775
2826.96904	15999.075
2829.50412	15982.475
2832.03763	15960.175
2834.56959	15942.375
2837.1	15945.875
2839.62884	15936.775
2842.15613	15953.775
2844.68186	15963.375
2847.20604	16005.975
2849.72867	16020.975
2852.24974	15983.075
2854.76927	15988.075
2857.28724	15923.675
2859.80367	15918.275
2862.31855	15880.375
2864.83189	15841.975
2867.34368	15792.575
2869.85393	15792.775
2872.36264	15744.475
2874.8698	15754.475
2877.37543	15782.975
2879.87952	15760.175
2882.38207	15775.975
2884.88308	15730.175
2887.38256	15750.875
2889.88051	15760.575
2892.37692	15773.175
2894.8718	15766.475
2897.36515	15791.475
2899.85698	15735.575
2902.34727	15786.775
2904.83604	15780.075
2907.32328	15829.675
2909.809	15784.175
2912.29319	15780.275
2914.77587	15753.875
2917.25702	15739.975
2919.73665	15721.275
2922.21476	15754.675
2924.69136	15748.075
2927.16644	15758.575
2929.64	15770.075
2932.11205	15751.075
2934.58258	15722.175
2937.05161	15740.875
2939.51912	15717.175
2941.98513	15706.675
2944.44962	15636.475
2946.91261	15575.375
2949.37409	15584.275
2951.83407	15590.075
2954.29254	15582.675
2956.74951	15546.875
2959.20498	15517.275
2961.65895	15483.775
2964.11142	15499.175
2966.56239	15402.475
2969.01186	15432.275
2971.45984	15379.775
2973.90632	15379.975
2976.35131	15306.675
2978.7948	15268.475
2981.23681	15226.175
2983.67732	15211.475
2986.11635	15176.775
2988.55388	15122.175
2990.98993	15051.175
2993.4245	15045.975
2995.85758	15001.575
2998.28917	14966.675
3000.71928	14920.275
3003.14791	14898.675
3005.57506	14884.175
3008.00073	14815.275
3010.42493	14809.275
3012.84764	14786.175
3015.26888	14747.075
3017.68865	14684.975
3020.10694	14670.475
3022.52376	14653.975
3024.9391	14610.675
3027.35298	14582.275
3029.76539	14535.775
3032.17632	14520.075
3034.5858	14492.375
3036.9938	14527.575
3039.40034	14511.675
3041.80542	14512.275
3044.20903	14454.675
3046.61118	14427.375
3049.01187	14420.275
3051.4111	14401.375
3053.80888	14361.875
3056.20519	14318.875
3058.60005	14280.075
3060.99345	14232.275
3063.3854	14214.075
3065.7759	14121.575
3068.16494	14107.075
3070.55254	14029.075
3072.93868	14022.975
3075.32338	13976.575
3077.70662	13939.175
3080.08842	13905.875
3082.46878	13892.275
3084.84769	13843.775
3087.22515	13849.075
3089.60118	13837.675
3091.97576	13783.075
3094.3489	13753.375
3096.72061	13752.175
3099.09087	13764.975
3101.4597	13746.275
3103.82709	13747.375
3106.19305	13703.175
3108.55757	13669.875
3110.92066	13640.175
3113.28232	13623.475
3115.64255	13558.075
3118.00134	13547.075
3120.35871	13501.075
3122.71466	13468.375
3125.06917	13445.575
3127.42226	13410.975
