Data from AgNPs_FTO_APTES_UA_2uM_CRN_10uM_R6G_10uM_NaF_0.1M_Addition_RamanShift__19__13-40-15-162.txt Node

Date: Wed Feb 02 13:40:15 GMT 2022
User: TCL
Spectrometer: QEP01345
Trigger mode: 4
Integration Time (sec): 7.000000E0
Scans to average: 10
Electric dark correction enabled: true
Nonlinearity correction enabled: false
Boxcar width: 0
XAxis mode: Raman Shifts
Number of Pixels in Spectrum: 1044
>>>>>Begin Spectral Data<<<<<
46.04893	0.075
50.45542	0.075
54.85868	-0.725
59.25871	-0.825
63.6555	82.275
68.04907	86.375
72.43941	90.375
76.82654	96.775
81.21044	98.175
85.59113	104.175
89.96862	104.375
94.34289	108.675
98.71396	115.075
103.08183	122.675
107.4465	121.675
111.80798	123.675
116.16626	129.375
120.52136	132.075
124.87327	137.375
129.222	144.075
133.56755	158.275
137.90993	167.075
142.24913	192.575
146.58517	215.875
150.91804	248.675
155.24774	301.075
159.57429	370.775
163.89768	484.775
168.21792	636.075
172.53501	867.375
176.84895	1211.975
181.15975	1708.875
185.46741	2391.075
189.77193	3291.775
194.07331	4401.375
198.37157	5673.875
202.6667	6977.775
206.9587	8286.475
211.24758	9572.575
215.53334	10884.475
219.81599	12273.775
224.09553	13799.375
228.37195	15477.375
232.64527	17401.075
236.91549	19333.375
241.18261	21278.675
245.44663	23076.975
249.70755	24637.375
253.96539	26016.175
258.22014	27221.175
262.4718	28214.875
266.72039	29025.175
270.96589	29419.075
275.20832	29580.475
279.44768	29475.075
283.68397	29299.675
287.91719	29205.875
292.14735	29230.975
296.37445	29404.975
300.59849	29463.075
304.81948	29606.975
309.03742	29512.875
313.25231	29074.875
317.46415	28243.175
321.67296	27181.875
325.87872	26259.875
330.08145	25822.875
334.28114	25694.675
338.47781	25804.075
342.67145	26033.575
346.86207	26460.475
351.04966	27005.775
355.23424	27563.675
359.4158	28045.875
363.59435	28324.575
367.76989	28535.375
371.94243	28700.875
376.11196	28813.675
380.27849	28935.075
384.44203	29127.775
388.60257	29383.775
392.76012	29687.975
396.91468	30154.175
401.06626	30629.575
405.21485	30879.075
409.36047	30676.075
413.50311	30119.275
417.64277	29735.475
421.77947	29651.175
425.9132	29737.675
430.04396	29936.875
434.17176	30099.475
438.2966	30356.175
442.41849	30836.275
446.53742	31629.975
450.6534	32578.275
454.76644	33339.675
458.87653	33740.275
462.98368	33646.675
467.08789	33376.875
471.18916	33041.475
475.2875	32729.775
479.38291	32657.775
483.4754	32517.575
487.56496	32039.175
491.6516	31342.775
495.73531	30682.175
499.81612	30240.275
503.89401	30338.375
507.96899	30390.175
512.04106	30304.275
516.11023	30060.775
520.1765	29690.475
524.23987	29345.875
528.30034	29018.275
532.35792	28671.675
536.41261	28220.375
540.46441	27923.475
544.51333	28059.475
548.55936	28568.375
552.60252	29382.775
556.64279	30222.875
560.6802	30851.175
564.71473	31186.875
568.7464	31810.675
572.7752	32718.075
576.80114	33443.075
580.82422	34003.575
584.84444	34483.775
588.86181	34828.075
592.87633	35155.975
596.888	35263.175
600.89682	35311.975
604.9028	36402.775
608.90594	39448.575
612.90624	42353.975
616.90371	39321.975
620.89834	32432.875
624.89015	29524.175
628.87913	29272.075
632.86528	29455.075
636.84862	29292.075
640.82913	28741.675
644.80683	27798.275
648.78172	27066.675
652.75379	26874.575
656.72306	27113.875
660.68952	27616.475
664.65319	27458.675
668.61405	26955.275
672.57211	26801.675
676.52738	26809.675
680.47986	26802.375
684.42955	26654.975
688.37646	26572.375
692.32058	26686.775
696.26192	26984.875
700.20048	27329.275
704.13626	27569.875
708.06928	27549.875
711.99952	27366.075
715.927	27260.975
719.85171	27332.675
723.77365	27238.275
727.69284	26878.875
731.60928	26516.575
735.52295	26399.075
739.43388	26380.175
743.34206	26479.275
747.24749	26621.175
751.15017	26944.575
755.05012	27603.575
758.94733	28640.175
762.8418	30378.575
766.73354	32957.975
770.62254	35391.775
774.50882	35901.875
778.39237	33853.275
782.27321	30930.975
786.15132	28684.275
790.02671	27339.675
793.89938	26678.575
797.76935	26466.575
801.6366	26453.275
805.50115	26323.775
809.36299	26134.975
813.22213	25836.675
817.07857	25754.775
820.93231	25682.575
824.78336	25487.875
828.63172	25361.675
832.47738	25297.775
836.32036	25324.975
840.16066	25433.275
843.99827	25548.375
847.8332	25448.975
851.66546	25273.775
855.49504	25166.475
859.32195	25182.175
863.1462	25049.875
866.96777	24992.275
870.78668	24898.675
874.60293	24833.475
878.41652	24813.775
882.22745	24922.375
886.03573	24977.175
889.84136	24986.975
893.64433	24855.075
897.44466	24771.475
901.24235	24687.275
905.0374	24594.675
908.8298	24516.875
912.61957	24659.875
916.40671	24911.675
920.19121	25409.875
923.97308	25758.275
927.75233	25822.375
931.52895	25617.675
935.30295	25210.675
939.07433	24619.475
942.84309	24151.975
946.60924	23883.475
950.37278	23864.575
954.13371	23782.275
957.89203	23694.475
961.64774	23676.575
965.40086	23629.875
969.15137	23542.475
972.89929	23368.275
976.64461	23260.175
980.38733	23224.675
984.12747	23294.975
987.86502	23576.575
991.59999	23923.175
995.33237	24436.875
999.06217	25361.875
1002.78939	26356.575
1006.51404	26923.775
1010.23611	27177.675
1013.95561	27413.575
1017.67255	27478.375
1021.38692	27134.475
1025.09872	26836.975
1028.80796	26978.675
1032.51465	27838.875
1036.21877	28751.575
1039.92035	28926.075
1043.61937	28407.475
1047.31584	27655.375
1051.00976	26771.575
1054.70114	26414.975
1058.38998	26463.375
1062.07627	26723.075
1065.76003	26920.975
1069.44126	27154.175
1073.11995	27530.875
1076.79611	27893.075
1080.46974	28095.675
1084.14085	28301.975
1087.80943	28701.875
1091.47549	29005.675
1095.13903	29082.375
1098.80005	28641.975
1102.45857	27991.675
1106.11456	27290.175
1109.76805	27012.975
1113.41903	27048.575
1117.06751	27242.475
1120.71348	27557.875
1124.35696	27873.875
1127.99793	28331.875
1131.63641	28652.075
1135.2724	28536.975
1138.90589	28338.375
1142.5369	28364.175
1146.16542	28480.175
1149.79145	28753.975
1153.415	29193.875
1157.03607	29816.575
1160.65467	30840.475
1164.27079	32371.175
1167.88443	34486.475
1171.49561	37025.475
1175.10432	40411.675
1178.71056	44451.675
1182.31434	48294.975
1185.91565	50478.075
1189.51451	50792.175
1193.11091	49296.675
1196.70485	47063.075
1200.29634	44578.875
1203.88538	42622.175
1207.47197	41350.475
1211.05612	40484.575
1214.63782	39645.275
1218.21708	38836.675
1221.79391	38127.975
1225.36829	37611.675
1228.94024	37045.175
1232.50976	36366.975
1236.07685	35721.175
1239.6415	35351.175
1243.20374	35284.475
1246.76355	35488.075
1250.32093	36139.875
1253.8759	37090.175
1257.42845	38350.475
1260.97859	39674.875
1264.52631	41022.375
1268.07163	42483.175
1271.61453	43920.275
1275.15503	45586.575
1278.69312	47231.875
1282.22882	48805.975
1285.76211	50255.175
1289.29301	51747.875
1292.82151	53903.275
1296.34761	56797.775
1299.87133	60304.575
1303.39266	64347.575
1306.9116	68558.675
1310.42815	72287.175
1313.94233	74759.775
1317.45412	75121.175
1320.96354	74153.675
1324.47058	73134.675
1327.97525	72139.675
1331.47754	71365.875
1334.97747	70713.575
1338.47502	70246.275
1341.97022	69699.375
1345.46305	68465.375
1348.95352	66683.375
1352.44163	65033.775
1355.92738	64818.075
1359.41078	66498.675
1362.89183	68330.275
1366.37053	67202.975
1369.84688	62054.475
1373.32088	55805.175
1376.79254	51381.075
1380.26186	49708.275
1383.72883	49712.875
1387.19347	49912.675
1390.65578	49882.875
1394.11575	50049.375
1397.57339	50763.075
1401.0287	51909.775
1404.48168	52823.275
1407.93234	52927.475
1411.38068	51793.375
1414.82669	49754.075
1418.27039	47219.475
1421.71177	44727.775
1425.15083	42664.575
1428.58758	41613.875
1432.02203	41699.675
1435.45416	42756.975
1438.88399	44205.575
1442.31151	45577.275
1445.73673	46567.675
1449.15965	47512.875
1452.58027	48315.775
1455.9986	48757.475
1459.41463	49321.475
1462.82837	50031.975
1466.23982	50971.175
1469.64898	51694.575
1473.05586	52068.275
1476.46045	51745.375
1479.86276	51060.575
1483.26279	50238.375
1486.66054	49573.675
1490.05602	49431.475
1493.44922	49590.175
1496.84016	49971.975
1500.22882	50821.875
1503.61521	52340.875
1506.99934	54229.275
1510.38121	55906.575
1513.76081	56539.875
1517.13816	55509.575
1520.51324	53547.975
1523.88607	51861.175
1527.25665	50926.575
1530.62498	50599.375
1533.99105	50350.975
1537.35488	50055.775
1540.71647	49362.875
1544.07581	48213.975
1547.4329	47109.775
1550.78776	45998.675
1554.14038	45291.475
1557.49077	44904.875
1560.83892	44685.375
1564.18484	44595.275
1567.52853	44629.175
1570.86999	44844.275
1574.20922	45642.675
1577.54624	46436.775
1580.88103	46943.475
1584.2136	47599.775
1587.54395	49114.975
1590.87208	51689.375
1594.19801	54989.475
1597.52172	58088.375
1600.84321	58787.375
1604.16251	55923.875
1607.47959	51068.675
1610.79447	46087.275
1614.10715	41498.475
1617.41763	37780.675
1620.7259	35122.875
1624.03199	33779.775
1627.33587	33776.875
1630.63757	35003.575
1633.93707	37689.675
1637.23439	42136.175
1640.52951	48008.575
1643.82246	54344.375
1647.11321	58711.175
1650.40179	58976.975
1653.68819	54536.475
1656.97241	47069.575
1660.25446	39507.175
1663.53433	33756.175
1666.81203	29919.475
1670.08756	27468.575
1673.36092	25948.275
1676.63211	24936.975
1679.90115	24195.975
1683.16801	23670.575
1686.43272	23255.975
1689.69527	22994.175
1692.95567	22793.375
1696.2139	22640.775
1699.46999	22514.075
1702.72392	22433.375
1705.97571	22329.975
1709.22535	22187.875
1712.47284	22136.075
1715.71819	22070.275
1718.96139	22010.675
1722.20246	21862.075
1725.44139	21763.475
1728.67818	21626.175
1731.91284	21446.375
1735.14537	21290.675
1738.37576	21187.675
1741.60403	21119.175
1744.83017	21034.375
1748.05418	21025.975
1751.27607	20955.175
1754.49584	20943.875
1757.71349	20904.475
1760.92903	20887.175
1764.14244	20811.775
1767.35375	20782.875
1770.56294	20757.175
1773.77002	20691.975
1776.97499	20644.575
1780.17785	20568.975
1783.37861	20523.075
1786.57727	20480.775
1789.77382	20424.875
1792.96828	20401.675
1796.16064	20358.175
1799.3509	20339.075
1802.53907	20286.875
1805.72514	20215.075
1808.90913	20125.875
1812.09102	20107.875
1815.27083	20114.975
1818.44856	20061.575
1821.6242	20066.175
1824.79776	20048.775
1827.96924	20032.375
1831.13864	20033.275
1834.30597	20050.675
1837.47122	20020.475
1840.6344	20017.775
1843.7955	20100.175
1846.95454	20109.575
1850.11151	20098.075
1853.26642	20093.275
1856.41926	20095.275
1859.57004	20072.875
1862.71876	20074.075
1865.86542	20082.675
1869.01003	20044.775
1872.15258	20023.475
1875.29308	20034.875
1878.43152	20004.975
1881.56792	19994.875
1884.70227	20022.075
1887.83457	20023.975
1890.96482	20030.775
1894.09304	20007.775
1897.21921	20000.675
1900.34335	19987.375
1903.46544	19916.975
1906.58551	19904.575
1909.70353	19832.375
1912.81953	19850.375
1915.93349	19764.075
1919.04543	19724.875
1922.15534	19673.275
1925.26322	19588.975
1928.36908	19550.075
1931.47292	19470.575
1934.57473	19396.675
1937.67453	19335.975
1940.77232	19210.475
1943.86808	19170.775
1946.96184	19076.775
1950.05358	19030.175
1953.14331	18959.575
1956.23103	18909.275
1959.31675	18845.275
1962.40046	18750.975
1965.48217	18729.975
1968.56188	18681.075
1971.63959	18606.675
1974.7153	18572.275
1977.78901	18521.075
1980.86073	18431.275
1983.93046	18378.675
1986.99819	18334.375
1990.06394	18284.775
1993.1277	18219.775
1996.18947	18175.375
1999.24925	18075.575
2002.30706	18019.475
2005.36288	17955.175
2008.41672	17937.575
2011.46859	17878.675
2014.51848	17833.075
2017.56639	17824.175
2020.61233	17784.075
2023.6563	17737.275
2026.6983	17693.775
2029.73833	17673.775
2032.7764	17633.975
2035.8125	17637.175
2038.84664	17579.175
2041.87881	17595.475
2044.90903	17534.275
2047.93729	17495.875
2050.96359	17523.975
2053.98794	17514.375
2057.01034	17470.775
2060.03078	17452.975
2063.04927	17422.275
2066.06582	17425.375
2069.08042	17414.075
2072.09307	17392.475
2075.10378	17379.875
2078.11255	17333.975
2081.11938	17334.975
2084.12426	17286.975
2087.12722	17293.575
2090.12824	17291.575
2093.12732	17313.475
2096.12447	17320.575
2099.11969	17291.875
2102.11299	17298.075
2105.10435	17289.875
2108.09379	17328.975
2111.08131	17342.375
2114.0669	17335.075
2117.05057	17373.075
2120.03233	17379.975
2123.01216	17373.075
2125.99008	17400.275
2128.96609	17374.775
2131.94018	17404.575
2134.91236	17449.175
2137.88263	17455.475
2140.851	17436.075
2143.81746	17457.875
2146.78201	17486.675
2149.74466	17490.175
2152.7054	17448.275
2155.66425	17403.675
2158.6212	17425.875
2161.57625	17443.275
2164.52941	17406.375
2167.48067	17406.775
2170.43004	17405.375
2173.37752	17388.975
2176.32311	17397.375
2179.26681	17401.875
2182.20863	17387.175
2185.14856	17436.975
2188.08661	17407.575
2191.02278	17426.875
2193.95707	17430.075
2196.88948	17387.975
2199.82001	17415.375
2202.74867	17390.875
2205.67545	17401.775
2208.60037	17377.675
2211.52341	17354.075
2214.44458	17374.375
2217.36388	17333.475
2220.28132	17326.675
2223.1969	17300.475
2226.11061	17286.575
2229.02246	17217.275
2231.93245	17192.775
2234.84058	17152.875
2237.74686	17139.875
2240.65128	17106.075
2243.55385	17040.175
2246.45456	17018.475
2249.35343	17010.375
2252.25044	16970.975
2255.14561	16958.375
2258.03893	16934.875
2260.93041	16915.775
2263.82004	16872.675
2266.70783	16851.175
2269.59378	16762.075
2272.4779	16716.975
2275.36017	16696.375
2278.24061	16647.175
2281.11922	16629.275
2283.996	16646.975
2286.87094	16592.275
2289.74405	16577.075
2292.61534	16575.275
2295.4848	16563.375
2298.35243	16574.075
2301.21824	16534.575
2304.08223	16567.175
2306.94439	16585.675
2309.80474	16627.075
2312.66327	16614.575
2315.51999	16623.775
2318.37489	16614.175
2321.22797	16588.575
2324.07925	16582.575
2326.92871	16559.375
2329.77637	16571.975
2332.62222	16557.575
2335.46626	16592.675
2338.3085	16555.675
2341.14893	16559.475
2343.98756	16586.175
2346.8244	16628.475
2349.65943	16608.975
2352.49267	16573.875
2355.32411	16622.475
2358.15376	16610.775
2360.98161	16576.775
2363.80768	16541.975
2366.63195	16532.375
2369.45444	16496.675
2372.27514	16463.275
2375.09405	16452.675
2377.91118	16387.275
2380.72652	16374.675
2383.54009	16335.775
2386.35187	16289.675
2389.16188	16285.375
2391.97011	16256.275
2394.77657	16216.275
2397.58125	16207.675
2400.38416	16195.775
2403.18529	16176.575
2405.98466	16168.075
2408.78226	16125.375
2411.57809	16088.675
2414.37216	16060.875
2417.16446	16082.475
2419.955	16022.275
2422.74378	16013.275
2425.5308	16016.675
2428.31606	16040.175
2431.09956	16018.675
2433.88131	15989.175
2436.6613	15990.675
2439.43954	15987.275
2442.21603	15962.175
2444.99077	15955.375
2447.76377	15968.375
2450.53501	15971.375
2453.30451	15946.575
2456.07226	15982.275
2458.83827	15995.175
2461.60254	16002.375
2464.36507	15998.875
2467.12586	16003.675
2469.88492	15999.875
2472.64224	15977.875
2475.39782	16005.075
2478.15167	16028.375
2480.90379	16023.375
2483.65417	16028.575
2486.40283	16054.175
2489.14976	16081.975
2491.89497	16114.175
2494.63845	16155.875
2497.3802	16163.575
2500.12024	16087.575
2502.85855	16120.075
2505.59514	16142.375
2508.33002	16082.175
2511.06318	16098.875
2513.79462	16082.975
2516.52435	16063.675
2519.25237	16014.675
2521.97867	16014.375
2524.70327	16031.275
2527.42616	16027.875
2530.14734	16025.975
2532.86681	15993.575
2535.58458	16011.675
2538.30065	15979.475
2541.01501	15992.875
2543.72768	15968.175
2546.43864	15964.175
2549.14791	15943.375
2551.85548	15940.275
2554.56136	15931.475
2557.26554	15929.675
2559.96803	15937.475
2562.66883	15951.175
2565.36794	15873.675
2568.06536	15882.275
2570.7611	15874.375
2573.45514	15848.075
2576.14751	15850.375
2578.83819	15852.275
2581.52719	15887.075
2584.21451	15884.875
2586.90015	15890.475
2589.58411	15870.875
2592.2664	15873.775
2594.94701	15862.775
2597.62594	15865.675
2600.30321	15824.875
2602.9788	15861.475
2605.65273	15840.375
2608.32498	15823.575
2610.99557	15847.075
2613.66449	15890.575
2616.33175	15906.475
2618.99734	15890.075
2621.66128	15881.575
2624.32355	15895.575
2626.98416	15931.275
2629.64311	15915.675
2632.30041	15929.375
2634.95605	15903.575
2637.61004	15898.475
2640.26238	15868.275
2642.91306	15854.375
2645.56209	15833.675
2648.20948	15830.275
2650.85521	15822.375
2653.4993	15833.875
2656.14175	15837.175
2658.78255	15857.875
2661.42171	15830.875
2664.05923	15883.975
2666.6951	15890.375
2669.32934	15914.575
2671.96194	15910.475
2674.59291	15905.475
2677.22224	15899.375
2679.84993	15890.775
2682.476	15868.675
2685.10043	15884.075
2687.72324	15843.275
2690.34441	15858.475
2692.96396	15824.775
2695.58188	15820.475
2698.19818	15834.275
2700.81285	15845.875
2703.4259	15837.175
2706.03733	15888.675
2708.64714	15855.575
2711.25533	15875.075
2713.86191	15872.175
2716.46687	15863.175
2719.07021	15861.075
2721.67194	15883.875
2724.27206	15891.275
2726.87057	15910.575
2729.46747	15918.575
2732.06276	15945.175
2734.65644	15900.675
2737.24852	15910.075
2739.83899	15893.675
2742.42786	15928.775
2745.01513	15884.275
2747.60079	15907.275
2750.18486	15907.975
2752.76733	15911.475
2755.3482	15902.075
2757.92747	15931.775
2760.50515	15910.875
2763.08123	15893.675
2765.65573	15927.375
2768.22863	15872.575
2770.79994	15893.375
2773.36967	15892.075
2775.9378	15881.175
2778.50435	15910.175
2781.06932	15918.075
2783.6327	15913.675
2786.1945	15879.975
2788.75471	15888.575
2791.31335	15843.375
2793.87041	15835.175
2796.42589	15797.375
2798.97979	15786.275
2801.53212	15725.575
2804.08288	15738.675
2806.63206	15747.175
2809.17967	15725.775
2811.72571	15678.475
2814.27018	15670.875
2816.81308	15615.575
2819.35442	15640.875
2821.89419	15573.175
2824.43239	15559.375
2826.96904	15586.075
2829.50412	15573.375
2832.03763	15521.675
2834.56959	15555.775
2837.1	15521.375
2839.62884	15536.775
2842.15613	15523.875
2844.68186	15547.175
2847.20604	15579.175
2849.72867	15585.675
2852.24974	15580.675
2854.76927	15560.975
2857.28724	15565.475
2859.80367	15566.475
2862.31855	15517.675
2864.83189	15509.975
2867.34368	15492.275
2869.85393	15478.175
2872.36264	15487.075
2874.8698	15515.275
2877.37543	15486.575
2879.87952	15506.075
2882.38207	15492.575
2884.88308	15502.975
2887.38256	15518.975
2889.88051	15547.875
2892.37692	15562.775
2894.8718	15556.075
2897.36515	15572.275
2899.85698	15604.075
2902.34727	15633.175
2904.83604	15628.375
2907.32328	15660.675
2909.809	15627.475
2912.29319	15630.375
2914.77587	15629.075
2917.25702	15626.075
2919.73665	15605.775
2922.21476	15648.075
2924.69136	15630.975
2927.16644	15658.575
2929.64	15625.375
2932.11205	15613.675
2934.58258	15564.775
2937.05161	15566.375
2939.51912	15585.775
2941.98513	15549.375
2944.44962	15484.575
2946.91261	15438.175
2949.37409	15459.075
2951.83407	15430.075
2954.29254	15425.375
2956.74951	15427.675
2959.20498	15381.975
2961.65895	15314.275
2964.11142	15340.775
2966.56239	15296.275
2969.01186	15270.775
2971.45984	15223.775
2973.90632	15218.775
2976.35131	15169.275
2978.7948	15099.775
2981.23681	15045.375
2983.67732	15072.175
2986.11635	14997.075
2988.55388	14971.975
2990.98993	14957.175
2993.4245	14908.775
2995.85758	14884.275
2998.28917	14838.375
3000.71928	14791.675
3003.14791	14758.775
3005.57506	14750.675
3008.00073	14732.475
3010.42493	14697.975
3012.84764	14674.875
3015.26888	14696.675
3017.68865	14634.075
3020.10694	14640.275
3022.52376	14634.775
3024.9391	14548.575
3027.35298	14524.975
3029.76539	14525.175
3032.17632	14489.075
3034.5858	14472.875
3036.9938	14468.175
3039.40034	14451.175
3041.80542	14491.575
3044.20903	14429.575
3046.61118	14457.375
3049.01187	14407.275
3051.4111	14386.975
3053.80888	14356.875
3056.20519	14355.675
3058.60005	14309.975
3060.99345	14276.975
3063.3854	14230.175
3065.7759	14196.375
3068.16494	14183.575
3070.55254	14100.775
3072.93868	14090.375
3075.32338	14085.075
3077.70662	14070.975
3080.08842	13998.975
3082.46878	13999.275
3084.84769	13957.875
3087.22515	13959.875
3089.60118	13958.375
3091.97576	13923.775
3094.3489	13907.775
3096.72061	13901.475
3099.09087	13917.575
3101.4597	13886.475
3103.82709	13896.675
3106.19305	13895.875
3108.55757	13862.875
3110.92066	13790.175
3113.28232	13787.575
3115.64255	13754.075
3118.00134	13719.775
3120.35871	13705.475
3122.71466	13678.075
3125.06917	13623.175
3127.42226	13621.675
