Data from AgNPs_FTO_APTES_UA_2uM_CRN_50uM_R6G_10uM_NaF_0.1M_Addition_RamanShift__29__15-10-05-267.txt Node

Date: Wed Feb 02 15:10:05 GMT 2022
User: TCL
Spectrometer: QEP01345
Trigger mode: 4
Integration Time (sec): 7.000000E0
Scans to average: 10
Electric dark correction enabled: true
Nonlinearity correction enabled: false
Boxcar width: 0
XAxis mode: Raman Shifts
Number of Pixels in Spectrum: 1044
>>>>>Begin Spectral Data<<<<<
46.04893	2.025
50.45542	0.825
54.85868	-0.675
59.25871	-1.675
63.6555	55.625
68.04907	61.625
72.43941	61.525
76.82654	72.425
81.21044	71.325
85.59113	79.525
89.96862	76.325
94.34289	83.525
98.71396	85.225
103.08183	90.725
107.4465	91.225
111.80798	92.225
116.16626	90.725
120.52136	95.125
124.87327	94.725
129.222	96.325
133.56755	101.825
137.90993	103.825
142.24913	113.125
146.58517	124.325
150.91804	138.125
155.24774	161.525
159.57429	193.025
163.89768	239.125
168.21792	311.025
172.53501	418.025
176.84895	569.125
181.15975	790.925
185.46741	1098.725
189.77193	1508.625
194.07331	1999.425
198.37157	2572.725
202.6667	3168.125
206.9587	3769.525
211.24758	4354.525
215.53334	4965.225
219.81599	5632.325
224.09553	6389.825
228.37195	7260.925
232.64527	8159.025
236.91549	9057.925
241.18261	9950.725
245.44663	10682.525
249.70755	11280.625
253.96539	11823.225
258.22014	12257.925
262.4718	12734.125
266.72039	13077.725
270.96589	13322.125
275.20832	13456.925
279.44768	13476.525
283.68397	13531.525
287.91719	13557.325
292.14735	13652.625
296.37445	13880.525
300.59849	14145.525
304.81948	14460.425
309.03742	14628.725
313.25231	14431.525
317.46415	13755.625
321.67296	12769.725
325.87872	11968.525
330.08145	11556.225
334.28114	11517.325
338.47781	11642.825
342.67145	11913.525
346.86207	12359.225
351.04966	12965.825
355.23424	13630.625
359.4158	14124.325
363.59435	14286.025
367.76989	14313.525
371.94243	14236.025
376.11196	14083.925
380.27849	13946.525
384.44203	13820.025
388.60257	13688.625
392.76012	13675.125
396.91468	13855.125
401.06626	14255.425
405.21485	14585.925
409.36047	14417.425
413.50311	13812.525
417.64277	13209.625
421.77947	12871.925
425.9132	12731.925
430.04396	12783.325
434.17176	12852.325
438.2966	12923.625
442.41849	13136.225
446.53742	13432.725
450.6534	13779.525
454.76644	14033.225
458.87653	14087.625
462.98368	14046.025
467.08789	13906.825
471.18916	13689.725
475.2875	13430.025
479.38291	13230.225
483.4754	13030.925
487.56496	12814.025
491.6516	12699.625
495.73531	12674.025
499.81612	12716.825
503.89401	12838.925
507.96899	12924.225
512.04106	12943.825
516.11023	12989.925
520.1765	12996.525
524.23987	12897.025
528.30034	12630.225
532.35792	12370.325
536.41261	12130.525
540.46441	11904.325
544.51333	11904.625
548.55936	12116.825
552.60252	12511.725
556.64279	12875.225
560.6802	13067.325
564.71473	13235.925
568.7464	13695.425
572.7752	14062.525
576.80114	13923.925
580.82422	13635.225
584.84444	13502.525
588.86181	13354.925
592.87633	13186.425
596.888	13219.925
600.89682	13641.825
604.9028	15100.625
608.90594	18572.125
612.90624	23000.525
616.90371	21967.925
620.89834	15817.425
624.89015	12887.225
628.87913	12337.125
632.86528	12434.025
636.84862	12599.825
640.82913	12424.925
644.80683	11905.425
648.78172	11538.925
652.75379	11532.425
656.72306	11995.325
660.68952	12583.825
664.65319	12521.425
668.61405	11985.825
672.57211	11715.425
676.52738	11697.525
680.47986	11679.025
684.42955	11580.025
688.37646	11501.925
692.32058	11596.825
696.26192	11736.725
700.20048	11943.525
704.13626	12076.325
708.06928	12155.125
711.99952	12040.225
715.927	11917.725
719.85171	11890.125
723.77365	11833.325
727.69284	11640.825
731.60928	11458.025
735.52295	11380.325
739.43388	11401.025
743.34206	11432.125
747.24749	11530.625
751.15017	11710.325
755.05012	12011.125
758.94733	12675.525
762.8418	14038.525
766.73354	16399.225
770.62254	18680.825
774.50882	19419.125
778.39237	18232.125
782.27321	15854.625
786.15132	13622.225
790.02671	12336.625
793.89938	11720.225
797.76935	11447.725
801.6366	11308.925
805.50115	11254.925
809.36299	11178.025
813.22213	11111.525
817.07857	11086.325
820.93231	11055.625
824.78336	11088.325
828.63172	11155.725
832.47738	11168.225
836.32036	11134.025
840.16066	11073.125
843.99827	10995.225
847.8332	10941.325
851.66546	10897.325
855.49504	10909.925
859.32195	10865.025
863.1462	10778.325
866.96777	10707.425
870.78668	10707.425
874.60293	10737.225
878.41652	10750.225
882.22745	10774.525
886.03573	10820.925
889.84136	10819.725
893.64433	10756.925
897.44466	10708.025
901.24235	10735.425
905.0374	10691.425
908.8298	10693.925
912.61957	10703.925
916.40671	10835.825
920.19121	10989.425
923.97308	11130.225
927.75233	11115.425
931.52895	11120.225
935.30295	10935.325
939.07433	10580.425
942.84309	10302.825
946.60924	10141.925
950.37278	10058.525
954.13371	9979.025
957.89203	9963.925
961.64774	9933.725
965.40086	9911.025
969.15137	9859.225
972.89929	9834.125
976.64461	9798.125
980.38733	9788.525
984.12747	9807.625
987.86502	9809.725
991.59999	9886.725
995.33237	9997.425
999.06217	10193.325
1002.78939	10473.425
1006.51404	10759.925
1010.23611	11009.325
1013.95561	11143.325
1017.67255	11108.225
1021.38692	10936.225
1025.09872	10749.225
1028.80796	10640.625
1032.51465	10647.525
1036.21877	10793.825
1039.92035	10957.225
1043.61937	11027.625
1047.31584	11038.725
1051.00976	11012.725
1054.70114	11064.325
1058.38998	11123.125
1062.07627	11298.225
1065.76003	11454.225
1069.44126	11597.425
1073.11995	11727.125
1076.79611	11835.325
1080.46974	11911.625
1084.14085	12088.025
1087.80943	12391.425
1091.47549	12569.025
1095.13903	12418.825
1098.80005	12032.825
1102.45857	11585.925
1106.11456	11274.125
1109.76805	11178.625
1113.41903	11302.225
1117.06751	11577.725
1120.71348	11994.425
1124.35696	12432.025
1127.99793	12883.925
1131.63641	12934.125
1135.2724	12432.225
1138.90589	11934.725
1142.5369	11682.925
1146.16542	11544.425
1149.79145	11495.425
1153.415	11537.925
1157.03607	11713.625
1160.65467	12050.125
1164.27079	12515.725
1167.88443	13217.825
1171.49561	14289.725
1175.10432	16021.225
1178.71056	18203.425
1182.31434	19670.925
1185.91565	20031.125
1189.51451	19639.525
1193.11091	18723.825
1196.70485	17532.825
1200.29634	16510.125
1203.88538	15640.825
1207.47197	14645.025
1211.05612	13863.625
1214.63782	13386.925
1218.21708	13223.325
1221.79391	13222.225
1225.36829	13310.925
1228.94024	13451.825
1232.50976	13605.025
1236.07685	13697.425
1239.6415	13680.125
1243.20374	13648.125
1246.76355	13672.625
1250.32093	13851.425
1253.8759	14126.025
1257.42845	14617.025
1260.97859	15090.425
1264.52631	15514.625
1268.07163	15932.025
1271.61453	16339.825
1275.15503	16691.025
1278.69312	16904.925
1282.22882	17063.625
1285.76211	17454.725
1289.29301	17985.925
1292.82151	18551.725
1296.34761	19122.425
1299.87133	19997.125
1303.39266	21359.525
1306.9116	23404.225
1310.42815	25806.825
1313.94233	27567.725
1317.45412	27688.525
1320.96354	26653.925
1324.47058	25237.525
1327.97525	24019.225
1331.47754	23225.825
1334.97747	22895.425
1338.47502	22848.425
1341.97022	23059.225
1345.46305	23317.325
1348.95352	23730.125
1352.44163	24511.025
1355.92738	25974.925
1359.41078	28686.725
1362.89183	31614.925
1366.37053	31120.325
1369.84688	27224.025
1373.32088	23116.225
1376.79254	20469.625
1380.26186	19160.825
1383.72883	18493.825
1387.19347	17985.025
1390.65578	17465.425
1394.11575	17025.825
1397.57339	16866.625
1401.0287	16946.325
1404.48168	17212.825
1407.93234	17445.025
1411.38068	17503.425
1414.82669	17246.525
1418.27039	16709.125
1421.71177	16115.425
1425.15083	15587.025
1428.58758	15221.025
1432.02203	15065.925
1435.45416	15141.225
1438.88399	15241.225
1442.31151	15330.025
1445.73673	15483.625
1449.15965	15639.725
1452.58027	15718.425
1455.9986	15721.225
1459.41463	15795.425
1462.82837	15984.825
1466.23982	16331.425
1469.64898	16727.625
1473.05586	16980.125
1476.46045	17147.825
1479.86276	17413.525
1483.26279	17726.625
1486.66054	18056.725
1490.05602	18586.425
1493.44922	19268.825
1496.84016	20373.025
1500.22882	21972.925
1503.61521	24135.625
1506.99934	26497.725
1510.38121	28909.925
1513.76081	30273.825
1517.13816	29473.625
1520.51324	26771.925
1523.88607	23867.125
1527.25665	21741.825
1530.62498	20389.325
1533.99105	19515.125
1537.35488	18913.525
1540.71647	18513.325
1544.07581	18162.025
1547.4329	17850.725
1550.78776	17586.025
1554.14038	17422.925
1557.49077	17536.325
1560.83892	17884.025
1564.18484	18407.025
1567.52853	18852.825
1570.86999	19098.825
1574.20922	19281.525
1577.54624	19132.625
1580.88103	18372.225
1584.2136	17397.425
1587.54395	17041.225
1590.87208	17409.125
1594.19801	18295.725
1597.52172	19385.625
1600.84321	19689.725
1604.16251	18832.825
1607.47959	17503.825
1610.79447	16169.525
1614.10715	14920.325
1617.41763	13941.825
1620.7259	13254.125
1624.03199	12896.925
1627.33587	12832.325
1630.63757	13135.625
1633.93707	13763.425
1637.23439	14761.925
1640.52951	16192.225
1643.82246	18035.125
1647.11321	19984.525
1650.40179	21371.925
1653.68819	21048.725
1656.97241	18634.425
1660.25446	15687.025
1663.53433	13367.625
1666.81203	11911.325
1670.08756	11016.525
1673.36092	10493.525
1676.63211	10134.125
1679.90115	9883.025
1683.16801	9687.925
1686.43272	9545.325
1689.69527	9478.025
1692.95567	9387.825
1696.2139	9337.425
1699.46999	9309.625
1702.72392	9265.025
1705.97571	9209.125
1709.22535	9181.625
1712.47284	9162.125
1715.71819	9159.725
1718.96139	9159.625
1722.20246	9133.425
1725.44139	9086.425
1728.67818	9027.625
1731.91284	8956.625
1735.14537	8874.425
1738.37576	8828.725
1741.60403	8786.625
1744.83017	8753.225
1748.05418	8734.125
1751.27607	8702.325
1754.49584	8685.225
1757.71349	8671.125
1760.92903	8677.325
1764.14244	8667.225
1767.35375	8634.125
1770.56294	8601.725
1773.77002	8576.925
1776.97499	8528.825
1780.17785	8485.925
1783.37861	8462.425
1786.57727	8455.025
1789.77382	8436.725
1792.96828	8411.325
1796.16064	8389.925
1799.3509	8383.225
1802.53907	8378.725
1805.72514	8353.025
1808.90913	8300.725
1812.09102	8295.525
1815.27083	8270.025
1818.44856	8252.425
1821.6242	8233.925
1824.79776	8237.025
1827.96924	8233.025
1831.13864	8207.125
1834.30597	8198.525
1837.47122	8226.725
1840.6344	8184.925
1843.7955	8192.825
1846.95454	8195.625
1850.11151	8181.225
1853.26642	8211.225
1856.41926	8185.825
1859.57004	8184.125
1862.71876	8174.225
1865.86542	8186.525
1869.01003	8162.925
1872.15258	8182.725
1875.29308	8191.825
1878.43152	8214.825
1881.56792	8214.325
1884.70227	8216.825
1887.83457	8218.525
1890.96482	8216.025
1894.09304	8222.525
1897.21921	8247.725
1900.34335	8263.425
1903.46544	8267.525
1906.58551	8279.025
1909.70353	8286.725
1912.81953	8267.125
1915.93349	8296.125
1919.04543	8272.225
1922.15534	8266.325
1925.26322	8245.525
1928.36908	8214.825
1931.47292	8158.825
1934.57473	8109.925
1937.67453	8039.025
1940.77232	8005.525
1943.86808	7912.325
1946.96184	7892.125
1950.05358	7829.525
1953.14331	7808.925
1956.23103	7757.325
1959.31675	7740.025
1962.40046	7709.125
1965.48217	7661.425
1968.56188	7641.625
1971.63959	7599.125
1974.7153	7596.425
1977.78901	7584.825
1980.86073	7545.625
1983.93046	7527.525
1986.99819	7468.525
1990.06394	7467.825
1993.1277	7435.625
1996.18947	7401.925
1999.24925	7378.125
2002.30706	7379.425
2005.36288	7330.225
2008.41672	7317.325
2011.46859	7302.425
2014.51848	7270.225
2017.56639	7231.625
2020.61233	7219.925
2023.6563	7192.025
2026.6983	7180.725
2029.73833	7159.725
2032.7764	7142.925
2035.8125	7132.125
2038.84664	7097.425
2041.87881	7103.025
2044.90903	7072.425
2047.93729	7068.625
2050.96359	7071.225
2053.98794	7034.225
2057.01034	7050.725
2060.03078	7021.125
2063.04927	7023.225
2066.06582	7013.125
2069.08042	7003.625
2072.09307	7001.425
2075.10378	6969.825
2078.11255	6971.525
2081.11938	6958.425
2084.12426	6964.325
2087.12722	6959.325
2090.12824	6961.125
2093.12732	6964.025
2096.12447	6951.625
2099.11969	6978.325
2102.11299	6964.225
2105.10435	6965.125
2108.09379	6967.525
2111.08131	6965.125
2114.0669	6955.625
2117.05057	6978.525
2120.03233	6958.925
2123.01216	6990.725
2125.99008	6967.625
2128.96609	6973.825
2131.94018	6972.825
2134.91236	6955.425
2137.88263	6979.225
2140.851	6965.025
2143.81746	6966.425
2146.78201	6990.025
2149.74466	6976.125
2152.7054	6980.425
2155.66425	6962.925
2158.6212	6961.525
2161.57625	6943.025
2164.52941	6942.325
2167.48067	6958.525
2170.43004	6921.925
2173.37752	6911.325
2176.32311	6923.925
2179.26681	6907.725
2182.20863	6922.425
2185.14856	6918.925
2188.08661	6906.925
2191.02278	6903.525
2193.95707	6909.525
2196.88948	6870.425
2199.82001	6871.525
2202.74867	6867.925
2205.67545	6877.425
2208.60037	6859.325
2211.52341	6832.925
2214.44458	6822.025
2217.36388	6824.225
2220.28132	6804.625
2223.1969	6775.725
2226.11061	6760.825
2229.02246	6738.125
2231.93245	6743.525
2234.84058	6728.625
2237.74686	6695.225
2240.65128	6687.125
2243.55385	6693.825
2246.45456	6688.525
2249.35343	6676.925
2252.25044	6673.625
2255.14561	6669.525
2258.03893	6662.225
2260.93041	6672.625
2263.82004	6633.225
2266.70783	6618.625
2269.59378	6622.625
2272.4779	6586.925
2275.36017	6570.425
2278.24061	6538.225
2281.11922	6520.425
2283.996	6513.625
2286.87094	6484.625
2289.74405	6479.325
2292.61534	6466.925
2295.4848	6438.625
2298.35243	6466.725
2301.21824	6440.725
2304.08223	6463.325
2306.94439	6442.525
2309.80474	6450.325
2312.66327	6436.525
2315.51999	6407.225
2318.37489	6420.625
2321.22797	6399.825
2324.07925	6427.225
2326.92871	6383.525
2329.77637	6400.325
2332.62222	6367.325
2335.46626	6374.125
2338.3085	6372.725
2341.14893	6346.025
2343.98756	6362.525
2346.8244	6361.925
2349.65943	6345.425
2352.49267	6371.525
2355.32411	6375.725
2358.15376	6384.525
2360.98161	6372.525
2363.80768	6365.725
2366.63195	6384.225
2369.45444	6373.225
2372.27514	6375.125
2375.09405	6361.525
2377.91118	6349.425
2380.72652	6318.525
2383.54009	6305.325
2386.35187	6279.425
2389.16188	6251.125
2391.97011	6247.225
2394.77657	6204.725
2397.58125	6213.825
2400.38416	6181.125
2403.18529	6166.725
2405.98466	6160.725
2408.78226	6141.725
2411.57809	6143.725
2414.37216	6126.625
2417.16446	6133.125
2419.955	6119.425
2422.74378	6114.225
2425.5308	6107.025
2428.31606	6082.625
2431.09956	6098.025
2433.88131	6082.525
2436.6613	6072.625
2439.43954	6090.125
2442.21603	6089.325
2444.99077	6088.525
2447.76377	6083.825
2450.53501	6067.725
2453.30451	6079.025
2456.07226	6062.925
2458.83827	6054.325
2461.60254	6064.625
2464.36507	6046.825
2467.12586	6056.725
2469.88492	6063.125
2472.64224	6038.225
2475.39782	6062.025
2478.15167	6065.325
2480.90379	6080.425
2483.65417	6082.025
2486.40283	6084.925
2489.14976	6115.025
2491.89497	6103.725
2494.63845	6097.625
2497.3802	6099.425
2500.12024	6100.025
2502.85855	6070.525
2505.59514	6084.125
2508.33002	6059.925
2511.06318	6054.125
2513.79462	6022.125
2516.52435	6012.825
2519.25237	5979.425
2521.97867	5976.225
2524.70327	5961.925
2527.42616	5938.425
2530.14734	5941.225
2532.86681	5909.425
2535.58458	5947.125
2538.30065	5922.025
2541.01501	5917.325
2543.72768	5907.925
2546.43864	5901.425
2549.14791	5888.825
2551.85548	5893.125
2554.56136	5891.225
2557.26554	5871.625
2559.96803	5874.125
2562.66883	5880.925
2565.36794	5857.925
2568.06536	5843.725
2570.7611	5836.825
2573.45514	5838.425
2576.14751	5813.125
2578.83819	5804.825
2581.52719	5797.225
2584.21451	5806.625
2586.90015	5783.125
2589.58411	5801.325
2592.2664	5799.025
2594.94701	5764.825
2597.62594	5786.825
2600.30321	5772.025
2602.9788	5763.725
2605.65273	5749.325
2608.32498	5752.625
2610.99557	5761.025
2613.66449	5750.825
2616.33175	5752.225
2618.99734	5750.425
2621.66128	5747.525
2624.32355	5739.125
2626.98416	5729.825
2629.64311	5718.825
2632.30041	5718.325
2634.95605	5714.025
2637.61004	5695.125
2640.26238	5667.225
2642.91306	5685.025
2645.56209	5685.725
2648.20948	5675.225
2650.85521	5672.725
2653.4993	5682.225
2656.14175	5677.125
2658.78255	5671.825
2661.42171	5676.725
2664.05923	5706.925
2666.6951	5698.825
2669.32934	5703.925
2671.96194	5696.025
2674.59291	5704.325
2677.22224	5688.125
2679.84993	5705.625
2682.476	5708.325
2685.10043	5703.425
2687.72324	5710.025
2690.34441	5688.225
2692.96396	5711.725
2695.58188	5677.225
2698.19818	5694.725
2700.81285	5683.825
2703.4259	5698.125
2706.03733	5739.225
2708.64714	5713.425
2711.25533	5707.625
2713.86191	5714.425
2716.46687	5714.725
2719.07021	5718.025
2721.67194	5719.425
2724.27206	5719.625
2726.87057	5737.925
2729.46747	5731.625
2732.06276	5726.225
2734.65644	5707.125
2737.24852	5718.925
2739.83899	5689.425
2742.42786	5663.725
2745.01513	5675.225
2747.60079	5680.725
2750.18486	5648.225
2752.76733	5658.125
2755.3482	5665.925
2757.92747	5658.625
2760.50515	5651.425
2763.08123	5652.825
2765.65573	5627.425
2768.22863	5615.025
2770.79994	5598.425
2773.36967	5614.925
2775.9378	5611.925
2778.50435	5607.125
2781.06932	5607.325
2783.6327	5604.325
2786.1945	5612.025
2788.75471	5594.725
2791.31335	5586.125
2793.87041	5570.325
2796.42589	5559.925
2798.97979	5570.325
2801.53212	5565.825
2804.08288	5560.725
2806.63206	5548.025
2809.17967	5538.525
2811.72571	5541.325
2814.27018	5556.325
2816.81308	5558.125
2819.35442	5548.725
2821.89419	5562.625
2824.43239	5569.725
2826.96904	5558.225
2829.50412	5564.025
2832.03763	5562.625
2834.56959	5578.325
2837.1	5584.525
2839.62884	5594.825
2842.15613	5627.325
2844.68186	5682.725
2847.20604	5734.825
2849.72867	5810.525
2852.24974	5836.825
2854.76927	5864.225
2857.28724	5843.125
2859.80367	5813.825
2862.31855	5797.125
2864.83189	5783.025
2867.34368	5762.925
2869.85393	5756.525
2872.36264	5728.825
2874.8698	5748.325
2877.37543	5753.325
2879.87952	5735.125
2882.38207	5719.725
2884.88308	5732.225
2887.38256	5709.225
2889.88051	5714.325
2892.37692	5714.525
2894.8718	5718.625
2897.36515	5717.725
2899.85698	5720.125
2902.34727	5733.425
2904.83604	5737.725
2907.32328	5748.825
2909.809	5751.225
2912.29319	5732.525
2914.77587	5720.225
2917.25702	5737.625
2919.73665	5712.025
2922.21476	5716.725
2924.69136	5718.225
2927.16644	5725.625
2929.64	5705.325
2932.11205	5700.425
2934.58258	5657.625
2937.05161	5651.125
2939.51912	5652.425
2941.98513	5603.025
2944.44962	5558.825
2946.91261	5497.125
2949.37409	5480.525
2951.83407	5447.925
2954.29254	5431.225
2956.74951	5413.925
2959.20498	5395.025
2961.65895	5389.625
2964.11142	5392.225
2966.56239	5359.025
2969.01186	5337.725
2971.45984	5326.925
2973.90632	5299.625
2976.35131	5282.125
2978.7948	5267.125
2981.23681	5228.725
2983.67732	5234.125
2986.11635	5208.125
2988.55388	5208.025
2990.98993	5182.825
2993.4245	5182.625
2995.85758	5166.525
2998.28917	5164.725
3000.71928	5136.425
3003.14791	5144.925
3005.57506	5119.525
3008.00073	5102.725
3010.42493	5102.925
3012.84764	5088.025
3015.26888	5097.525
3017.68865	5090.925
3020.10694	5061.325
3022.52376	5069.525
3024.9391	5057.225
3027.35298	5037.325
3029.76539	5020.425
3032.17632	5037.325
3034.5858	5023.325
3036.9938	5018.025
3039.40034	5020.325
3041.80542	5012.225
3044.20903	4986.425
3046.61118	4986.225
3049.01187	4961.425
3051.4111	4971.625
3053.80888	4961.725
3056.20519	4950.125
3058.60005	4938.525
3060.99345	4936.325
3063.3854	4922.825
3065.7759	4910.925
3068.16494	4889.525
3070.55254	4876.125
3072.93868	4872.625
3075.32338	4869.425
3077.70662	4844.425
3080.08842	4826.225
3082.46878	4830.125
3084.84769	4811.525
3087.22515	4792.225
3089.60118	4791.625
3091.97576	4779.325
3094.3489	4785.425
3096.72061	4776.325
3099.09087	4772.025
3101.4597	4756.125
3103.82709	4758.025
3106.19305	4756.425
3108.55757	4761.925
3110.92066	4729.125
3113.28232	4724.725
3115.64255	4688.825
3118.00134	4695.825
3120.35871	4676.225
3122.71466	4683.725
3125.06917	4674.425
3127.42226	4675.325
3129.77393	4688.925
3132.12417	4685.325
3134.47299	4693.925
3136.82039	4685.725
3139.16636	4679.925
3141.51092	4666.825
3143.85406	4693.525
3146.19579	4695.825
3148.53609	4717.725
3150.87499	4712.825
3153.21246	4700.925
3155.54853	4714.025
3157.88318	4708.725
3160.21642	4714.625
3162.54826	4718.325
3164.87868	4711.425
3167.2077	4699.325
3169.5353	4704.925
3171.86151	4717.125
3174.18631	4698.725
3176.5097	4699.225
3178.83169	4702.625
3181.15228	4701.425
3183.47147	4685.225
3185.78926	4689.025
3188.10565	4696.625
3190.42065	4687.925
3192.73424	4701.125
