Data from AgNPs_FTO_APTES_UA_2uM_CRN_20uM_R6G_10uM_NaF_0.1M_Addition_RamanShift__21__14-22-15-211.txt Node

Date: Wed Feb 02 14:22:15 GMT 2022
User: TCL
Spectrometer: QEP01345
Trigger mode: 4
Integration Time (sec): 7.000000E0
Scans to average: 10
Electric dark correction enabled: true
Nonlinearity correction enabled: false
Boxcar width: 0
XAxis mode: Raman Shifts
Number of Pixels in Spectrum: 1044
>>>>>Begin Spectral Data<<<<<
46.04893	0.3875
50.45542	0.3875
54.85868	-0.8125
59.25871	0.1875
63.6555	100.9875
68.04907	107.8875
72.43941	112.2875
76.82654	120.4875
81.21044	124.1875
85.59113	128.4875
89.96862	131.4875
94.34289	139.7875
98.71396	139.6875
103.08183	149.5875
107.4465	149.4875
111.80798	151.4875
116.16626	152.0875
120.52136	161.3875
124.87327	170.4875
129.222	178.5875
133.56755	191.4875
137.90993	203.7875
142.24913	221.9875
146.58517	257.2875
150.91804	290.0875
155.24774	352.6875
159.57429	437.2875
163.89768	553.3875
168.21792	732.2875
172.53501	992.4875
176.84895	1382.8875
181.15975	1948.3875
185.46741	2725.0875
189.77193	3741.1875
194.07331	5004.8875
198.37157	6421.6875
202.6667	7949.3875
206.9587	9429.6875
211.24758	10894.3875
215.53334	12385.5875
219.81599	13960.3875
224.09553	15742.0875
228.37195	17678.5875
232.64527	19840.1875
236.91549	22070.5875
241.18261	24305.0875
245.44663	26272.7875
249.70755	28073.9875
253.96539	29631.1875
258.22014	30999.1875
262.4718	32189.8875
266.72039	33091.4875
270.96589	33645.3875
275.20832	33927.2875
279.44768	33912.9875
283.68397	33831.3875
287.91719	33776.3875
292.14735	33889.1875
296.37445	34107.3875
300.59849	34280.7875
304.81948	34374.6875
309.03742	34181.6875
313.25231	33600.9875
317.46415	32502.0875
321.67296	31116.9875
325.87872	30010.9875
330.08145	29499.0875
334.28114	29398.1875
338.47781	29591.6875
342.67145	30031.3875
346.86207	30581.2875
351.04966	31347.7875
355.23424	32127.9875
359.4158	32784.3875
363.59435	33168.4875
367.76989	33386.4875
371.94243	33576.0875
376.11196	33637.3875
380.27849	33784.4875
384.44203	33875.3875
388.60257	34070.0875
392.76012	34385.3875
396.91468	34811.5875
401.06626	35486.2875
405.21485	35855.3875
409.36047	35659.7875
413.50311	34961.7875
417.64277	34319.6875
421.77947	34214.0875
425.9132	34308.9875
430.04396	34531.8875
434.17176	34770.8875
438.2966	35109.3875
442.41849	35719.1875
446.53742	36746.4875
450.6534	37905.4875
454.76644	38792.0875
458.87653	39204.1875
462.98368	39106.6875
467.08789	38692.6875
471.18916	38163.3875
475.2875	37762.4875
479.38291	37609.5875
483.4754	37336.3875
487.56496	36793.7875
491.6516	36027.2875
495.73531	35353.2875
499.81612	34946.7875
503.89401	35029.9875
507.96899	35094.4875
512.04106	34953.0875
516.11023	34698.9875
520.1765	34342.8875
524.23987	33964.4875
528.30034	33554.2875
532.35792	33152.8875
536.41261	32685.0875
540.46441	32362.9875
544.51333	32399.5875
548.55936	32920.9875
552.60252	33908.2875
556.64279	34873.7875
560.6802	35545.2875
564.71473	36001.0875
568.7464	36751.0875
572.7752	37715.1875
576.80114	38168.0875
580.82422	38488.9875
584.84444	38670.2875
588.86181	38931.9875
592.87633	39313.4875
596.888	39770.4875
600.89682	40140.2875
604.9028	41682.7875
608.90594	45932.3875
612.90624	50410.5875
616.90371	47112.7875
620.89834	38189.5875
624.89015	34248.7875
628.87913	33768.6875
632.86528	33919.5875
636.84862	33935.0875
640.82913	33325.1875
644.80683	32175.1875
648.78172	31297.1875
652.75379	31080.2875
656.72306	31514.6875
660.68952	32208.3875
664.65319	32102.3875
668.61405	31441.1875
672.57211	31116.8875
676.52738	31176.6875
680.47986	31150.8875
684.42955	31067.5875
688.37646	30978.2875
692.32058	31066.8875
696.26192	31385.7875
700.20048	31774.9875
704.13626	32047.8875
708.06928	32034.6875
711.99952	31747.4875
715.927	31602.4875
719.85171	31624.2875
723.77365	31501.7875
727.69284	31144.3875
731.60928	30750.2875
735.52295	30634.9875
739.43388	30673.1875
743.34206	30787.5875
747.24749	31020.6875
751.15017	31364.6875
755.05012	32109.7875
758.94733	33343.2875
762.8418	35549.8875
766.73354	38950.3875
770.62254	42148.7875
774.50882	42853.1875
778.39237	40398.3875
782.27321	36627.7875
786.15132	33600.6875
790.02671	31855.3875
793.89938	30984.6875
797.76935	30634.1875
801.6366	30547.7875
805.50115	30403.0875
809.36299	30218.7875
813.22213	29973.0875
817.07857	29869.5875
820.93231	29927.5875
824.78336	29774.7875
828.63172	29672.3875
832.47738	29612.4875
836.32036	29593.1875
840.16066	29662.9875
843.99827	29702.0875
847.8332	29613.5875
851.66546	29464.6875
855.49504	29412.7875
859.32195	29328.1875
863.1462	29219.4875
866.96777	29091.8875
870.78668	28992.1875
874.60293	28984.9875
878.41652	28944.0875
882.22745	29068.5875
886.03573	29196.8875
889.84136	29102.5875
893.64433	28955.8875
897.44466	28870.8875
901.24235	28735.8875
905.0374	28678.3875
908.8298	28633.1875
912.61957	28718.9875
916.40671	29065.6875
920.19121	29535.2875
923.97308	29900.6875
927.75233	29927.5875
931.52895	29722.3875
935.30295	29318.3875
939.07433	28663.0875
942.84309	28103.6875
946.60924	27847.4875
950.37278	27762.5875
954.13371	27671.6875
957.89203	27600.2875
961.64774	27495.4875
965.40086	27499.2875
969.15137	27374.6875
972.89929	27224.4875
976.64461	27058.4875
980.38733	27051.0875
984.12747	27153.4875
987.86502	27415.9875
991.59999	27824.3875
995.33237	28378.8875
999.06217	29319.5875
1002.78939	30488.4875
1006.51404	31290.8875
1010.23611	31745.0875
1013.95561	32049.8875
1017.67255	32062.8875
1021.38692	31708.3875
1025.09872	31317.5875
1028.80796	31445.2875
1032.51465	32160.4875
1036.21877	32894.8875
1039.92035	33051.0875
1043.61937	32639.6875
1047.31584	31857.6875
1051.00976	31027.1875
1054.70114	30605.7875
1058.38998	30620.4875
1062.07627	30849.4875
1065.76003	31167.7875
1069.44126	31474.3875
1073.11995	31850.7875
1076.79611	32202.5875
1080.46974	32358.3875
1084.14085	32570.4875
1087.80943	33020.0875
1091.47549	33430.4875
1095.13903	33400.8875
1098.80005	32882.7875
1102.45857	32098.1875
1106.11456	31459.0875
1109.76805	31201.8875
1113.41903	31358.3875
1117.06751	31727.7875
1120.71348	32211.9875
1124.35696	32744.6875
1127.99793	33268.9875
1131.63641	33495.7875
1135.2724	33204.3875
1138.90589	32821.8875
1142.5369	32718.9875
1146.16542	32702.7875
1149.79145	32904.5875
1153.415	33293.2875
1157.03607	33964.4875
1160.65467	34962.8875
1164.27079	36592.9875
1167.88443	38733.0875
1171.49561	41580.6875
1175.10432	45440.5875
1178.71056	50198.8875
1182.31434	54536.1875
1185.91565	57040.8875
1189.51451	57490.4875
1193.11091	56145.3875
1196.70485	53599.0875
1200.29634	50781.3875
1203.88538	48392.4875
1207.47197	46541.4875
1211.05612	45130.3875
1214.63782	44110.1875
1218.21708	43424.4875
1221.79391	42989.3875
1225.36829	42681.5875
1228.94024	42210.7875
1232.50976	41652.9875
1236.07685	41168.9875
1239.6415	40885.9875
1243.20374	40727.6875
1246.76355	40895.9875
1250.32093	41535.0875
1253.8759	42537.1875
1257.42845	43953.5875
1260.97859	45374.2875
1264.52631	46699.1875
1268.07163	48000.5875
1271.61453	49504.6875
1275.15503	51210.3875
1278.69312	52762.9875
1282.22882	54212.8875
1285.76211	55669.3875
1289.29301	57402.7875
1292.82151	59506.7875
1296.34761	62357.6875
1299.87133	65927.7875
1303.39266	70148.6875
1306.9116	74863.5875
1310.42815	79713.9875
1313.94233	83080.5875
1317.45412	83897.0875
1320.96354	82918.2875
1324.47058	81550.3875
1327.97525	80072.8875
1331.47754	79141.0875
1334.97747	78793.9875
1338.47502	78840.3875
1341.97022	78927.9875
1345.46305	78015.8875
1348.95352	76223.0875
1352.44163	74415.6875
1355.92738	74131.3875
1359.41078	76315.6875
1362.89183	79023.6875
1366.37053	77683.9875
1369.84688	71243.1875
1373.32088	63743.9875
1376.79254	58586.1875
1380.26186	56472.0875
1383.72883	56180.9875
1387.19347	56184.4875
1390.65578	56148.3875
1394.11575	56487.8875
1397.57339	57603.1875
1401.0287	59148.0875
1404.48168	60662.1875
1407.93234	61420.7875
1411.38068	60982.7875
1414.82669	59151.7875
1418.27039	56385.6875
1421.71177	53294.7875
1425.15083	50755.1875
1428.58758	49244.5875
1432.02203	49022.6875
1435.45416	49725.9875
1438.88399	50958.4875
1442.31151	52218.4875
1445.73673	53364.5875
1449.15965	54501.5875
1452.58027	55467.3875
1455.9986	56105.8875
1459.41463	56743.2875
1462.82837	57595.3875
1466.23982	58678.9875
1469.64898	59606.3875
1473.05586	59951.0875
1476.46045	59718.0875
1479.86276	59171.5875
1483.26279	58566.7875
1486.66054	58101.2875
1490.05602	58189.0875
1493.44922	58460.7875
1496.84016	58849.6875
1500.22882	59671.3875
1503.61521	61248.5875
1506.99934	63515.1875
1510.38121	65903.0875
1513.76081	67014.8875
1517.13816	65907.8875
1520.51324	63198.1875
1523.88607	60362.8875
1527.25665	58651.8875
1530.62498	57741.1875
1533.99105	57288.8875
1537.35488	56910.1875
1540.71647	56328.3875
1544.07581	55533.4875
1547.4329	54525.4875
1550.78776	53470.2875
1554.14038	52859.3875
1557.49077	52697.8875
1560.83892	52712.7875
1564.18484	52689.1875
1567.52853	52589.4875
1570.86999	52570.9875
1574.20922	53053.8875
1577.54624	53635.2875
1580.88103	53879.0875
1584.2136	54213.2875
1587.54395	55791.8875
1590.87208	58618.1875
1594.19801	62297.4875
1597.52172	65898.9875
1600.84321	66934.1875
1604.16251	64212.5875
1607.47959	59246.5875
1610.79447	53752.4875
1614.10715	48617.3875
1617.41763	44359.3875
1620.7259	41313.2875
1624.03199	39730.7875
1627.33587	39564.0875
1630.63757	40765.9875
1633.93707	43516.5875
1637.23439	47961.4875
1640.52951	53807.1875
1643.82246	60127.7875
1647.11321	64785.4875
1650.40179	65629.8875
1653.68819	61540.3875
1656.97241	53704.3875
1660.25446	45496.9875
1663.53433	39166.6875
1666.81203	34976.2875
1670.08756	32288.6875
1673.36092	30562.0875
1676.63211	29432.4875
1679.90115	28697.4875
1683.16801	28157.9875
1686.43272	27666.5875
1689.69527	27354.3875
1692.95567	27095.2875
1696.2139	26975.6875
1699.46999	26834.1875
1702.72392	26695.8875
1705.97571	26622.9875
1709.22535	26514.4875
1712.47284	26469.9875
1715.71819	26380.9875
1718.96139	26340.4875
1722.20246	26178.7875
1725.44139	26058.3875
1728.67818	25883.9875
1731.91284	25732.9875
1735.14537	25587.0875
1738.37576	25498.7875
1741.60403	25335.7875
1744.83017	25262.4875
1748.05418	25253.2875
1751.27607	25196.1875
1754.49584	25133.2875
1757.71349	25170.1875
1760.92903	25039.5875
1764.14244	25049.4875
1767.35375	25004.1875
1770.56294	24976.2875
1773.77002	24936.1875
1776.97499	24867.1875
1780.17785	24805.8875
1783.37861	24741.6875
1786.57727	24727.6875
1789.77382	24648.9875
1792.96828	24626.5875
1796.16064	24592.8875
1799.3509	24584.2875
1802.53907	24485.5875
1805.72514	24436.5875
1808.90913	24323.5875
1812.09102	24284.8875
1815.27083	24297.5875
1818.44856	24267.4875
1821.6242	24256.8875
1824.79776	24196.0875
1827.96924	24224.3875
1831.13864	24192.3875
1834.30597	24193.4875
1837.47122	24181.1875
1840.6344	24203.0875
1843.7955	24236.0875
1846.95454	24251.6875
1850.11151	24250.4875
1853.26642	24276.9875
1856.41926	24241.9875
1859.57004	24278.5875
1862.71876	24268.9875
1865.86542	24262.1875
1869.01003	24284.0875
1872.15258	24247.3875
1875.29308	24266.5875
1878.43152	24296.5875
1881.56792	24306.6875
1884.70227	24320.0875
1887.83457	24312.8875
1890.96482	24319.4875
1894.09304	24346.0875
1897.21921	24336.5875
1900.34335	24332.1875
1903.46544	24318.1875
1906.58551	24328.0875
1909.70353	24315.7875
1912.81953	24280.5875
1915.93349	24239.0875
1919.04543	24165.4875
1922.15534	24109.0875
1925.26322	24080.5875
1928.36908	23961.5875
1931.47292	23874.8875
1934.57473	23739.6875
1937.67453	23616.6875
1940.77232	23555.7875
1943.86808	23460.0875
1946.96184	23355.6875
1950.05358	23261.2875
1953.14331	23160.5875
1956.23103	23060.5875
1959.31675	22975.9875
1962.40046	22911.7875
1965.48217	22830.1875
1968.56188	22772.2875
1971.63959	22712.1875
1974.7153	22672.0875
1977.78901	22571.7875
1980.86073	22467.7875
1983.93046	22414.8875
1986.99819	22313.0875
1990.06394	22281.4875
1993.1277	22197.0875
1996.18947	22108.2875
1999.24925	22061.9875
2002.30706	21988.5875
2005.36288	21939.2875
2008.41672	21899.7875
2011.46859	21789.2875
2014.51848	21728.3875
2017.56639	21725.7875
2020.61233	21662.4875
2023.6563	21600.8875
2026.6983	21602.1875
2029.73833	21511.8875
2032.7764	21500.2875
2035.8125	21454.9875
2038.84664	21449.6875
2041.87881	21427.4875
2044.90903	21392.6875
2047.93729	21346.8875
2050.96359	21322.3875
2053.98794	21284.8875
2057.01034	21298.4875
2060.03078	21265.9875
2063.04927	21208.6875
2066.06582	21236.5875
2069.08042	21216.9875
2072.09307	21187.0875
2075.10378	21133.8875
2078.11255	21103.1875
2081.11938	21073.9875
2084.12426	21062.5875
2087.12722	21032.0875
2090.12824	21038.9875
2093.12732	21048.3875
2096.12447	21042.8875
2099.11969	21077.0875
2102.11299	21088.7875
2105.10435	21065.3875
2108.09379	21063.6875
2111.08131	21066.2875
2114.0669	21068.0875
2117.05057	21090.0875
2120.03233	21116.1875
2123.01216	21111.3875
2125.99008	21116.4875
2128.96609	21140.3875
2131.94018	21119.1875
2134.91236	21160.0875
2137.88263	21204.1875
2140.851	21206.3875
2143.81746	21219.6875
2146.78201	21205.7875
2149.74466	21210.9875
2152.7054	21190.9875
2155.66425	21182.2875
2158.6212	21173.2875
2161.57625	21173.6875
2164.52941	21183.4875
2167.48067	21165.5875
2170.43004	21160.1875
2173.37752	21138.2875
2176.32311	21123.6875
2179.26681	21142.4875
2182.20863	21119.8875
2185.14856	21134.7875
2188.08661	21105.1875
2191.02278	21173.5875
2193.95707	21143.8875
2196.88948	21121.4875
2199.82001	21117.2875
2202.74867	21139.9875
2205.67545	21138.8875
2208.60037	21136.8875
2211.52341	21073.4875
2214.44458	21069.2875
2217.36388	21020.7875
2220.28132	20969.6875
2223.1969	20956.7875
2226.11061	20937.9875
2229.02246	20890.0875
2231.93245	20894.1875
2234.84058	20801.2875
2237.74686	20762.6875
2240.65128	20733.2875
2243.55385	20711.4875
2246.45456	20658.7875
2249.35343	20663.0875
2252.25044	20627.1875
2255.14561	20600.4875
2258.03893	20569.7875
2260.93041	20530.5875
2263.82004	20488.2875
2266.70783	20428.1875
2269.59378	20370.5875
2272.4779	20322.7875
2275.36017	20309.1875
2278.24061	20237.5875
2281.11922	20194.6875
2283.996	20179.0875
2286.87094	20158.8875
2289.74405	20142.8875
2292.61534	20107.2875
2295.4848	20053.7875
2298.35243	20107.5875
2301.21824	20087.4875
2304.08223	20099.9875
2306.94439	20121.7875
2309.80474	20122.6875
2312.66327	20158.1875
2315.51999	20148.0875
2318.37489	20125.0875
2321.22797	20099.8875
2324.07925	20078.5875
2326.92871	20072.7875
2329.77637	20074.7875
2332.62222	20076.0875
2335.46626	20067.3875
2338.3085	20052.1875
2341.14893	20060.1875
2343.98756	20089.8875
2346.8244	20116.9875
2349.65943	20100.9875
2352.49267	20072.0875
2355.32411	20084.5875
2358.15376	20096.2875
2360.98161	20091.3875
2363.80768	20028.8875
2366.63195	20042.6875
2369.45444	19997.5875
2372.27514	19946.9875
2375.09405	19894.8875
2377.91118	19877.9875
2380.72652	19822.1875
2383.54009	19802.1875
2386.35187	19754.6875
2389.16188	19715.7875
2391.97011	19686.3875
2394.77657	19637.3875
2397.58125	19582.8875
2400.38416	19579.5875
2403.18529	19577.8875
2405.98466	19548.2875
2408.78226	19463.5875
2411.57809	19486.9875
2414.37216	19416.7875
2417.16446	19415.2875
2419.955	19405.2875
2422.74378	19348.9875
2425.5308	19377.5875
2428.31606	19373.9875
2431.09956	19331.8875
2433.88131	19279.1875
2436.6613	19336.7875
2439.43954	19316.6875
2442.21603	19277.7875
2444.99077	19258.5875
2447.76377	19240.3875
2450.53501	19245.7875
2453.30451	19271.2875
2456.07226	19251.1875
2458.83827	19304.6875
2461.60254	19250.5875
2464.36507	19257.6875
2467.12586	19266.7875
2469.88492	19263.7875
2472.64224	19270.4875
2475.39782	19277.1875
2478.15167	19307.9875
2480.90379	19324.2875
2483.65417	19324.8875
2486.40283	19362.4875
2489.14976	19391.1875
2491.89497	19377.4875
2494.63845	19403.2875
2497.3802	19414.0875
2500.12024	19403.6875
2502.85855	19404.7875
2505.59514	19415.2875
2508.33002	19412.1875
2511.06318	19396.9875
2513.79462	19330.7875
2516.52435	19329.1875
2519.25237	19300.4875
2521.97867	19316.3875
2524.70327	19302.3875
2527.42616	19287.3875
2530.14734	19301.8875
2532.86681	19265.5875
2535.58458	19255.4875
2538.30065	19233.7875
2541.01501	19221.6875
2543.72768	19181.6875
2546.43864	19186.9875
2549.14791	19178.6875
2551.85548	19155.7875
2554.56136	19170.6875
2557.26554	19165.9875
2559.96803	19129.1875
2562.66883	19101.9875
2565.36794	19080.8875
2568.06536	19110.5875
2570.7611	19087.6875
2573.45514	19045.0875
2576.14751	19070.5875
2578.83819	19051.8875
2581.52719	19052.5875
2584.21451	19029.2875
2586.90015	19051.4875
2589.58411	19040.5875
2592.2664	19055.5875
2594.94701	19058.5875
2597.62594	19069.1875
2600.30321	19024.0875
2602.9788	19032.5875
2605.65273	19008.9875
2608.32498	19034.7875
2610.99557	19059.0875
2613.66449	19073.5875
2616.33175	19050.8875
2618.99734	19087.7875
2621.66128	19066.4875
2624.32355	19066.0875
2626.98416	19083.1875
2629.64311	19119.6875
2632.30041	19127.0875
2634.95605	19117.1875
2637.61004	19108.4875
2640.26238	19060.4875
2642.91306	19046.0875
2645.56209	18967.3875
2648.20948	19015.4875
2650.85521	18978.8875
2653.4993	19010.0875
2656.14175	19010.4875
2658.78255	19027.6875
2661.42171	19020.0875
2664.05923	19038.6875
2666.6951	19093.3875
2669.32934	19093.5875
2671.96194	19108.5875
2674.59291	19115.7875
2677.22224	19114.2875
2679.84993	19103.9875
2682.476	19091.9875
2685.10043	19087.1875
2687.72324	19074.0875
2690.34441	19048.1875
2692.96396	19044.4875
2695.58188	19060.1875
2698.19818	19039.1875
2700.81285	19048.0875
2703.4259	19028.4875
2706.03733	19081.0875
2708.64714	19070.5875
2711.25533	19060.0875
2713.86191	19021.8875
2716.46687	19071.4875
2719.07021	19028.5875
2721.67194	19096.9875
2724.27206	19049.6875
2726.87057	19108.0875
2729.46747	19110.4875
2732.06276	19115.8875
2734.65644	19097.2875
2737.24852	19107.4875
2739.83899	19055.8875
2742.42786	19085.4875
2745.01513	19072.3875
2747.60079	19087.2875
2750.18486	19107.3875
2752.76733	19131.0875
2755.3482	19099.5875
2757.92747	19158.2875
2760.50515	19139.8875
2763.08123	19125.6875
2765.65573	19110.4875
2768.22863	19111.0875
2770.79994	19061.0875
2773.36967	19086.2875
2775.9378	19113.4875
2778.50435	19078.2875
2781.06932	19094.3875
2783.6327	19085.4875
2786.1945	19063.3875
2788.75471	19108.2875
2791.31335	19051.0875
2793.87041	19024.2875
2796.42589	18911.5875
2798.97979	18956.9875
2801.53212	18905.9875
2804.08288	18924.8875
2806.63206	18902.3875
2809.17967	18849.7875
2811.72571	18810.8875
2814.27018	18827.1875
2816.81308	18780.2875
2819.35442	18747.4875
2821.89419	18721.6875
2824.43239	18746.3875
2826.96904	18733.0875
2829.50412	18733.9875
2832.03763	18672.0875
2834.56959	18692.9875
2837.1	18660.1875
2839.62884	18653.9875
2842.15613	18650.5875
2844.68186	18716.8875
2847.20604	18698.5875
2849.72867	18728.2875
2852.24974	18716.1875
2854.76927	18678.1875
2857.28724	18694.7875
2859.80367	18649.7875
2862.31855	18623.3875
2864.83189	18581.9875
2867.34368	18550.3875
2869.85393	18580.0875
2872.36264	18548.5875
2874.8698	18590.3875
2877.37543	18570.9875
2879.87952	18550.5875
2882.38207	18576.0875
2884.88308	18579.6875
2887.38256	18603.6875
2889.88051	18617.7875
2892.37692	18635.5875
2894.8718	18609.7875
2897.36515	18646.4875
2899.85698	18625.6875
2902.34727	18688.2875
2904.83604	18696.3875
2907.32328	18761.0875
2909.809	18712.0875
2912.29319	18701.2875
2914.77587	18701.7875
2917.25702	18717.5875
2919.73665	18648.6875
2922.21476	18664.4875
2924.69136	18668.7875
2927.16644	18667.1875
2929.64	18663.3875
2932.11205	18663.2875
2934.58258	18557.8875
2937.05161	18575.7875
2939.51912	18574.5875
2941.98513	18548.8875
2944.44962	18486.5875
2946.91261	18445.6875
2949.37409	18466.5875
2951.83407	18449.5875
2954.29254	18397.2875
2956.74951	18416.9875
2959.20498	18399.9875
2961.65895	18295.0875
2964.11142	18297.1875
2966.56239	18271.4875
2969.01186	18273.3875
2971.45984	18227.8875
2973.90632	18195.5875
2976.35131	18108.6875
2978.7948	18060.9875
2981.23681	18037.8875
2983.67732	17989.7875
2986.11635	17949.6875
2988.55388	17903.1875
2990.98993	17868.0875
2993.4245	17833.9875
2995.85758	17787.1875
2998.28917	17737.4875
3000.71928	17736.1875
3003.14791	17673.1875
3005.57506	17685.2875
3008.00073	17607.9875
3010.42493	17626.8875
3012.84764	17553.0875
3015.26888	17557.7875
3017.68865	17513.5875
3020.10694	17469.1875
3022.52376	17412.1875
