Data from AgNPs_FTO_APTES_UA_2uM_CRN_5uM_R6G_10uM_NaF_0.1M_Addition_RamanShift__25__13-07-35-124.txt Node

Date: Wed Feb 02 13:07:35 GMT 2022
User: TCL
Spectrometer: QEP01345
Trigger mode: 4
Integration Time (sec): 7.000000E0
Scans to average: 10
Electric dark correction enabled: true
Nonlinearity correction enabled: false
Boxcar width: 0
XAxis mode: Raman Shifts
Number of Pixels in Spectrum: 1044
>>>>>Begin Spectral Data<<<<<
46.04893	-1.0375
50.45542	0.5625
54.85868	-0.8375
59.25871	-0.1375
63.6555	70.3625
68.04907	77.9625
72.43941	76.2625
76.82654	84.7625
81.21044	85.6625
85.59113	91.8625
89.96862	92.3625
94.34289	96.4625
98.71396	101.0625
103.08183	104.7625
107.4465	107.7625
111.80798	112.5625
116.16626	114.1625
120.52136	118.2625
124.87327	123.2625
129.222	128.1625
133.56755	140.7625
137.90993	151.8625
142.24913	170.9625
146.58517	198.5625
150.91804	227.0625
155.24774	280.0625
159.57429	351.6625
163.89768	457.4625
168.21792	613.4625
172.53501	845.5625
176.84895	1179.5625
181.15975	1655.1625
185.46741	2314.9625
189.77193	3208.7625
194.07331	4262.3625
198.37157	5505.5625
202.6667	6787.1625
206.9587	8046.3625
211.24758	9342.2625
215.53334	10620.4625
219.81599	12080.4625
224.09553	13718.7625
228.37195	15541.5625
232.64527	17529.2625
236.91549	19513.2625
241.18261	21378.6625
245.44663	22999.2625
249.70755	24373.5625
253.96539	25561.0625
258.22014	26623.6625
262.4718	27623.5625
266.72039	28375.4625
270.96589	28850.2625
275.20832	29081.6625
279.44768	28972.0625
283.68397	28839.3625
287.91719	28773.0625
292.14735	28945.0625
296.37445	29317.4625
300.59849	29814.1625
304.81948	30421.4625
309.03742	30760.9625
313.25231	30439.7625
317.46415	29181.5625
321.67296	27368.6625
325.87872	25876.6625
330.08145	25098.0625
334.28114	24999.2625
338.47781	25288.2625
342.67145	25852.0625
346.86207	26684.0625
351.04966	27892.2625
355.23424	29271.0625
359.4158	30274.1625
363.59435	30718.8625
367.76989	30883.4625
371.94243	30908.7625
376.11196	30790.2625
380.27849	30628.7625
384.44203	30452.4625
388.60257	30292.3625
392.76012	30358.9625
396.91468	30726.0625
401.06626	31484.1625
405.21485	32019.2625
409.36047	31668.0625
413.50311	30404.7625
417.64277	29372.7625
421.77947	28830.5625
425.9132	28762.4625
430.04396	28816.7625
434.17176	28980.4625
438.2966	29269.8625
442.41849	29818.9625
446.53742	30585.7625
450.6534	31488.3625
454.76644	32196.2625
458.87653	32398.5625
462.98368	32312.3625
467.08789	31907.9625
471.18916	31298.2625
475.2875	30653.3625
479.38291	30237.5625
483.4754	29838.8625
487.56496	29428.4625
491.6516	29012.1625
495.73531	28786.7625
499.81612	28749.7625
503.89401	28930.4625
507.96899	29175.5625
512.04106	29279.7625
516.11023	29335.6625
520.1765	29337.3625
524.23987	29146.8625
528.30034	28675.6625
532.35792	28139.0625
536.41261	27621.4625
540.46441	27169.3625
544.51333	27076.5625
548.55936	27480.4625
552.60252	28286.8625
556.64279	29104.2625
560.6802	29614.1625
564.71473	29969.0625
568.7464	30867.6625
572.7752	31746.1625
576.80114	31555.9625
580.82422	31163.4625
584.84444	31033.4625
588.86181	30887.6625
592.87633	30893.2625
596.888	31206.2625
600.89682	32070.7625
604.9028	34877.8625
608.90594	41898.6625
612.90624	50252.4625
616.90371	47598.9625
620.89834	35293.5625
624.89015	29654.1625
628.87913	28719.7625
632.86528	28835.0625
636.84862	28922.2625
640.82913	28394.0625
644.80683	27270.6625
648.78172	26440.3625
652.75379	26466.2625
656.72306	27248.1625
660.68952	28373.1625
664.65319	28230.5625
668.61405	27212.3625
672.57211	26742.9625
676.52738	26715.5625
680.47986	26648.5625
684.42955	26475.7625
688.37646	26412.5625
692.32058	26523.2625
696.26192	26766.4625
700.20048	27236.2625
704.13626	27498.1625
708.06928	27465.2625
711.99952	27193.5625
715.927	27064.6625
719.85171	27073.6625
723.77365	26911.5625
727.69284	26634.1625
731.60928	26275.2625
735.52295	26191.3625
739.43388	26265.6625
743.34206	26438.2625
747.24749	26664.2625
751.15017	26968.0625
755.05012	27612.4625
758.94733	28901.4625
762.8418	31477.6625
766.73354	35824.6625
770.62254	40225.4625
774.50882	41777.6625
778.39237	39259.8625
782.27321	34640.9625
786.15132	30502.6625
790.02671	28108.3625
793.89938	26960.0625
797.76935	26473.6625
801.6366	26273.9625
805.50115	26146.7625
809.36299	25957.4625
813.22213	25772.1625
817.07857	25707.5625
820.93231	25692.0625
824.78336	25745.5625
828.63172	25775.8625
832.47738	25804.6625
836.32036	25848.6625
840.16066	25811.2625
843.99827	25724.7625
847.8332	25682.3625
851.66546	25559.6625
855.49504	25551.7625
859.32195	25480.1625
863.1462	25290.4625
866.96777	25171.6625
870.78668	25137.1625
874.60293	25156.0625
878.41652	25218.4625
882.22745	25339.9625
886.03573	25455.7625
889.84136	25386.4625
893.64433	25248.8625
897.44466	25145.5625
901.24235	25120.5625
905.0374	25103.2625
908.8298	25013.1625
912.61957	25099.6625
916.40671	25366.7625
920.19121	25713.9625
923.97308	26057.9625
927.75233	26193.1625
931.52895	26272.5625
935.30295	25937.3625
939.07433	25233.4625
942.84309	24620.5625
946.60924	24342.5625
950.37278	24189.8625
954.13371	24022.0625
957.89203	23899.8625
961.64774	23832.5625
965.40086	23821.6625
969.15137	23733.8625
972.89929	23644.6625
976.64461	23555.5625
980.38733	23643.5625
984.12747	23720.9625
987.86502	23901.5625
991.59999	24180.1625
995.33237	24620.0625
999.06217	25382.5625
1002.78939	26305.0625
1006.51404	27109.9625
1010.23611	27716.6625
1013.95561	28065.9625
1017.67255	28094.8625
1021.38692	27662.6625
1025.09872	27335.2625
1028.80796	27323.1625
1032.51465	27850.5625
1036.21877	28445.4625
1039.92035	28573.3625
1043.61937	28279.3625
1047.31584	27671.6625
1051.00976	27069.2625
1054.70114	26753.5625
1058.38998	26663.1625
1062.07627	26861.8625
1065.76003	27103.7625
1069.44126	27392.4625
1073.11995	27639.0625
1076.79611	27934.9625
1080.46974	28245.2625
1084.14085	28670.9625
1087.80943	29251.2625
1091.47549	29573.0625
1095.13903	29294.3625
1098.80005	28518.4625
1102.45857	27748.5625
1106.11456	27231.8625
1109.76805	27168.3625
1113.41903	27466.6625
1117.06751	27993.8625
1120.71348	28721.4625
1124.35696	29534.7625
1127.99793	30344.7625
1131.63641	30488.7625
1135.2724	29652.7625
1138.90589	28830.3625
1142.5369	28286.9625
1146.16542	27969.3625
1149.79145	27872.4625
1153.415	28047.6625
1157.03607	28420.5625
1160.65467	29161.5625
1164.27079	30302.7625
1167.88443	32030.1625
1171.49561	34514.3625
1175.10432	38264.4625
1178.71056	43163.4625
1182.31434	47178.3625
1185.91565	49132.5625
1189.51451	48852.7625
1193.11091	46748.1625
1196.70485	43732.2625
1200.29634	40846.1625
1203.88538	38629.3625
1207.47197	36542.0625
1211.05612	34828.3625
1214.63782	33927.1625
1218.21708	33618.1625
1221.79391	33691.4625
1225.36829	33901.4625
1228.94024	34066.7625
1232.50976	34086.3625
1236.07685	34073.0625
1239.6415	33918.7625
1243.20374	33693.4625
1246.76355	33646.6625
1250.32093	34008.2625
1253.8759	34781.2625
1257.42845	35991.4625
1260.97859	37265.6625
1264.52631	38309.8625
1268.07163	39405.0625
1271.61453	40547.8625
1275.15503	41727.5625
1278.69312	42708.4625
1282.22882	43559.0625
1285.76211	44600.4625
1289.29301	45813.2625
1292.82151	47170.0625
1296.34761	48642.7625
1299.87133	50758.0625
1303.39266	54109.9625
1306.9116	58978.5625
1310.42815	64669.4625
1313.94233	68833.0625
1317.45412	69489.6625
1320.96354	67602.4625
1324.47058	64806.3625
1327.97525	61907.4625
1331.47754	59916.2625
1334.97747	58995.8625
1338.47502	58873.1625
1341.97022	59154.4625
1345.46305	59322.6625
1348.95352	59442.6625
1352.44163	60123.6625
1355.92738	62523.9625
1359.41078	67808.1625
1362.89183	73694.6625
1366.37053	72637.9625
1369.84688	64245.0625
1373.32088	55038.7625
1376.79254	49173.0625
1380.26186	46541.6625
1383.72883	45422.3625
1387.19347	44473.7625
1390.65578	43361.2625
1394.11575	42816.1625
1397.57339	42988.8625
1401.0287	43716.1625
1404.48168	44830.8625
1407.93234	45624.5625
1411.38068	45862.6625
1414.82669	45252.8625
1418.27039	43803.7625
1421.71177	42064.8625
1425.15083	40661.0625
1428.58758	39680.4625
1432.02203	39405.4625
1435.45416	39631.4625
1438.88399	40029.8625
1442.31151	40422.7625
1445.73673	40871.5625
1449.15965	41390.7625
1452.58027	41647.0625
1455.9986	41647.9625
1459.41463	41831.7625
1462.82837	42362.8625
1466.23982	43182.0625
1469.64898	44053.2625
1473.05586	44709.7625
1476.46045	44960.6625
1479.86276	45164.6625
1483.26279	45524.1625
1486.66054	46012.4625
1490.05602	46744.6625
1493.44922	47908.3625
1496.84016	49359.3625
1500.22882	51618.5625
1503.61521	54898.0625
1506.99934	59083.2625
1510.38121	63513.6625
1513.76081	66253.6625
1517.13816	64949.8625
1520.51324	60171.2625
1523.88607	54705.9625
1527.25665	50641.8625
1530.62498	48103.4625
1533.99105	46540.2625
1537.35488	45515.0625
1540.71647	44851.4625
1544.07581	44200.1625
1547.4329	43654.0625
1550.78776	43147.5625
1554.14038	42914.3625
1557.49077	43130.5625
1560.83892	43599.1625
1564.18484	44202.9625
1567.52853	44644.0625
1570.86999	44776.7625
1574.20922	45029.9625
1577.54624	45026.2625
1580.88103	44125.5625
1584.2136	43040.8625
1587.54395	43138.8625
1590.87208	44796.6625
1594.19801	47621.3625
1597.52172	50666.3625
1600.84321	51737.3625
1604.16251	49646.9625
1607.47959	45978.6625
1610.79447	42143.0625
1614.10715	38593.8625
1617.41763	35675.9625
1620.7259	33690.1625
1624.03199	32718.3625
1627.33587	32755.9625
1630.63757	33700.8625
1633.93707	35721.1625
1637.23439	38748.3625
1640.52951	42698.9625
1643.82246	47098.8625
1647.11321	51027.4625
1650.40179	53167.6625
1653.68819	51178.6625
1656.97241	45128.4625
1660.25446	38303.4625
1663.53433	33014.1625
1666.81203	29701.2625
1670.08756	27627.8625
1673.36092	26390.8625
1676.63211	25582.1625
1679.90115	25036.9625
1683.16801	24609.2625
1686.43272	24251.7625
1689.69527	24075.7625
1692.95567	23901.9625
1696.2139	23803.5625
1699.46999	23706.3625
1702.72392	23636.5625
1705.97571	23563.0625
1709.22535	23508.4625
1712.47284	23524.4625
1715.71819	23527.3625
1718.96139	23491.6625
1722.20246	23415.0625
1725.44139	23360.6625
1728.67818	23198.9625
1731.91284	23045.8625
1735.14537	22878.5625
1738.37576	22793.3625
1741.60403	22721.7625
1744.83017	22650.3625
1748.05418	22603.7625
1751.27607	22560.3625
1754.49584	22517.2625
1757.71349	22489.4625
1760.92903	22484.8625
1764.14244	22435.4625
1767.35375	22446.8625
1770.56294	22369.5625
1773.77002	22311.3625
1776.97499	22260.3625
1780.17785	22221.5625
1783.37861	22237.1625
1786.57727	22193.7625
1789.77382	22140.4625
1792.96828	22111.9625
1796.16064	22070.1625
1799.3509	22005.1625
1802.53907	21982.9625
1805.72514	21936.1625
1808.90913	21923.5625
1812.09102	21890.4625
1815.27083	21834.4625
1818.44856	21806.0625
1821.6242	21799.0625
1824.79776	21791.4625
1827.96924	21770.6625
1831.13864	21790.2625
1834.30597	21756.1625
1837.47122	21740.0625
1840.6344	21730.6625
1843.7955	21738.1625
1846.95454	21742.6625
1850.11151	21798.8625
1853.26642	21774.1625
1856.41926	21805.9625
1859.57004	21838.8625
1862.71876	21867.0625
1865.86542	21893.6625
1869.01003	21954.2625
1872.15258	21933.2625
1875.29308	21963.7625
1878.43152	21998.0625
1881.56792	22011.1625
1884.70227	22035.6625
1887.83457	22110.1625
1890.96482	22161.1625
1894.09304	22130.5625
1897.21921	22154.4625
1900.34335	22177.3625
1903.46544	22201.6625
1906.58551	22231.5625
1909.70353	22230.1625
1912.81953	22212.1625
1915.93349	22254.0625
1919.04543	22174.4625
1922.15534	22148.8625
1925.26322	22105.1625
1928.36908	21992.0625
1931.47292	21870.6625
1934.57473	21755.1625
1937.67453	21581.5625
1940.77232	21469.5625
1943.86808	21314.5625
1946.96184	21238.7625
1950.05358	21084.4625
1953.14331	21016.3625
1956.23103	20919.3625
1959.31675	20844.5625
1962.40046	20794.5625
1965.48217	20682.3625
1968.56188	20620.4625
1971.63959	20556.9625
1974.7153	20529.6625
1977.78901	20429.3625
1980.86073	20374.0625
1983.93046	20292.9625
1986.99819	20209.5625
1990.06394	20140.6625
1993.1277	20095.4625
1996.18947	20039.0625
1999.24925	20002.5625
2002.30706	19931.0625
2005.36288	19887.7625
2008.41672	19795.6625
2011.46859	19758.4625
2014.51848	19703.8625
2017.56639	19634.6625
2020.61233	19634.2625
2023.6563	19583.3625
2026.6983	19563.1625
2029.73833	19486.8625
2032.7764	19439.8625
2035.8125	19426.0625
2038.84664	19388.0625
2041.87881	19369.0625
2044.90903	19370.3625
2047.93729	19304.5625
2050.96359	19293.7625
2053.98794	19244.8625
2057.01034	19213.3625
2060.03078	19187.9625
2063.04927	19183.5625
2066.06582	19181.0625
2069.08042	19155.7625
2072.09307	19131.0625
2075.10378	19150.3625
2078.11255	19129.9625
2081.11938	19116.7625
2084.12426	19073.7625
2087.12722	19060.7625
2090.12824	19045.1625
2093.12732	19028.0625
2096.12447	19049.2625
2099.11969	19075.8625
2102.11299	19077.4625
2105.10435	19074.3625
2108.09379	19068.0625
2111.08131	19104.2625
2114.0669	19052.4625
2117.05057	19085.1625
2120.03233	19139.2625
2123.01216	19153.3625
2125.99008	19113.0625
2128.96609	19138.7625
2131.94018	19154.5625
2134.91236	19137.9625
2137.88263	19140.4625
2140.851	19122.5625
2143.81746	19186.6625
2146.78201	19184.4625
2149.74466	19155.4625
2152.7054	19199.7625
2155.66425	19186.2625
2158.6212	19191.8625
2161.57625	19185.9625
2164.52941	19175.6625
2167.48067	19162.6625
2170.43004	19098.5625
2173.37752	19129.1625
2176.32311	19135.4625
2179.26681	19139.3625
2182.20863	19150.7625
2185.14856	19208.5625
2188.08661	19157.2625
2191.02278	19192.0625
2193.95707	19128.4625
2196.88948	19127.0625
2199.82001	19107.0625
2202.74867	19078.2625
2205.67545	19141.8625
2208.60037	19090.4625
2211.52341	19115.9625
2214.44458	19091.9625
2217.36388	19076.3625
2220.28132	19018.0625
2223.1969	18981.2625
2226.11061	18952.9625
2229.02246	18886.7625
2231.93245	18895.5625
2234.84058	18842.5625
2237.74686	18819.3625
2240.65128	18817.5625
2243.55385	18773.1625
2246.45456	18702.0625
2249.35343	18740.0625
2252.25044	18728.3625
2255.14561	18673.9625
2258.03893	18653.7625
2260.93041	18608.0625
2263.82004	18596.9625
2266.70783	18545.6625
2269.59378	18476.7625
2272.4779	18441.8625
2275.36017	18381.8625
2278.24061	18356.0625
2281.11922	18339.1625
2283.996	18278.0625
2286.87094	18305.5625
2289.74405	18239.0625
2292.61534	18213.8625
2295.4848	18190.6625
2298.35243	18204.4625
2301.21824	18190.6625
2304.08223	18177.4625
2306.94439	18213.7625
2309.80474	18246.2625
2312.66327	18264.2625
2315.51999	18221.8625
2318.37489	18205.9625
2321.22797	18192.9625
2324.07925	18224.9625
2326.92871	18167.6625
2329.77637	18176.0625
2332.62222	18205.9625
2335.46626	18162.9625
2338.3085	18166.3625
2341.14893	18160.0625
2343.98756	18174.0625
2346.8244	18153.7625
2349.65943	18210.0625
2352.49267	18178.9625
2355.32411	18235.0625
2358.15376	18194.7625
2360.98161	18241.5625
2363.80768	18202.9625
2366.63195	18205.8625
2369.45444	18154.9625
2372.27514	18136.5625
2375.09405	18078.1625
2377.91118	18063.8625
2380.72652	17973.9625
2383.54009	17909.6625
2386.35187	17899.9625
2389.16188	17838.1625
2391.97011	17850.9625
2394.77657	17780.2625
2397.58125	17780.7625
2400.38416	17737.9625
2403.18529	17680.1625
2405.98466	17667.6625
2408.78226	17622.7625
2411.57809	17605.6625
2414.37216	17592.5625
2417.16446	17560.9625
2419.955	17530.6625
2422.74378	17539.0625
2425.5308	17489.7625
2428.31606	17476.5625
2431.09956	17484.7625
2433.88131	17466.0625
2436.6613	17461.7625
2439.43954	17473.4625
2442.21603	17435.9625
2444.99077	17459.9625
2447.76377	17452.3625
2450.53501	17423.6625
2453.30451	17479.5625
2456.07226	17469.7625
2458.83827	17443.4625
2461.60254	17417.7625
2464.36507	17421.0625
2467.12586	17418.0625
2469.88492	17422.1625
2472.64224	17437.1625
2475.39782	17469.1625
2478.15167	17480.7625
2480.90379	17443.8625
2483.65417	17499.7625
2486.40283	17467.9625
2489.14976	17513.4625
2491.89497	17557.7625
2494.63845	17545.5625
2497.3802	17527.4625
2500.12024	17521.9625
2502.85855	17573.4625
2505.59514	17529.8625
2508.33002	17505.5625
2511.06318	17477.1625
2513.79462	17446.1625
2516.52435	17411.0625
2519.25237	17377.7625
2521.97867	17321.0625
2524.70327	17317.4625
2527.42616	17303.4625
2530.14734	17331.8625
2532.86681	17247.4625
2535.58458	17269.2625
2538.30065	17230.7625
2541.01501	17280.8625
2543.72768	17231.1625
2546.43864	17217.6625
2549.14791	17188.8625
2551.85548	17186.4625
2554.56136	17194.4625
2557.26554	17183.1625
2559.96803	17179.0625
2562.66883	17137.2625
2565.36794	17113.2625
2568.06536	17119.6625
2570.7611	17078.3625
2573.45514	17091.8625
2576.14751	17071.7625
2578.83819	17050.5625
2581.52719	17027.1625
2584.21451	17019.9625
2586.90015	17039.4625
2589.58411	17011.1625
2592.2664	17013.2625
2594.94701	16987.4625
2597.62594	16981.0625
2600.30321	16982.1625
2602.9788	16976.5625
2605.65273	16970.4625
2608.32498	16943.3625
2610.99557	16947.4625
2613.66449	16990.0625
2616.33175	16992.2625
2618.99734	16985.6625
2621.66128	17014.1625
2624.32355	16995.3625
2626.98416	16996.1625
2629.64311	16985.2625
2632.30041	16988.9625
2634.95605	16963.3625
2637.61004	16945.6625
2640.26238	16925.9625
2642.91306	16922.3625
2645.56209	16886.4625
2648.20948	16899.7625
2650.85521	16831.4625
2653.4993	16856.8625
2656.14175	16842.9625
2658.78255	16840.5625
2661.42171	16834.9625
2664.05923	16873.5625
2666.6951	16883.8625
2669.32934	16912.3625
2671.96194	16896.4625
2674.59291	16930.9625
2677.22224	16924.1625
2679.84993	16953.7625
2682.476	16905.1625
2685.10043	16898.3625
2687.72324	16912.5625
2690.34441	16930.4625
2692.96396	16930.9625
2695.58188	16895.0625
2698.19818	16904.5625
2700.81285	16893.2625
2703.4259	16893.6625
2706.03733	16930.7625
2708.64714	16876.5625
2711.25533	16893.6625
2713.86191	16895.0625
2716.46687	16907.6625
2719.07021	16889.2625
2721.67194	16927.7625
2724.27206	16918.4625
2726.87057	16935.2625
2729.46747	16896.3625
2732.06276	16923.5625
2734.65644	16898.1625
2737.24852	16947.5625
2739.83899	16905.0625
2742.42786	16910.0625
2745.01513	16892.6625
2747.60079	16853.1625
2750.18486	16856.4625
2752.76733	16848.3625
2755.3482	16836.0625
2757.92747	16845.8625
2760.50515	16812.4625
2763.08123	16819.4625
2765.65573	16786.5625
2768.22863	16783.9625
2770.79994	16742.3625
2773.36967	16749.8625
2775.9378	16747.1625
2778.50435	16748.0625
2781.06932	16748.2625
2783.6327	16715.9625
2786.1945	16721.6625
2788.75471	16683.6625
2791.31335	16659.2625
2793.87041	16642.6625
2796.42589	16611.1625
2798.97979	16628.6625
2801.53212	16599.5625
2804.08288	16604.9625
2806.63206	16545.2625
2809.17967	16502.6625
2811.72571	16479.3625
2814.27018	16476.0625
2816.81308	16462.0625
2819.35442	16478.9625
2821.89419	16440.8625
2824.43239	16445.6625
2826.96904	16465.0625
2829.50412	16455.3625
2832.03763	16419.4625
2834.56959	16436.4625
2837.1	16438.2625
2839.62884	16428.6625
2842.15613	16407.4625
2844.68186	16457.1625
2847.20604	16495.7625
2849.72867	16545.1625
2852.24974	16518.7625
2854.76927	16532.4625
2857.28724	16511.7625
2859.80367	16448.9625
2862.31855	16411.7625
2864.83189	16456.5625
2867.34368	16417.6625
2869.85393	16397.1625
2872.36264	16381.0625
2874.8698	16364.5625
2877.37543	16422.1625
2879.87952	16399.0625
2882.38207	16418.2625
2884.88308	16370.6625
2887.38256	16376.8625
2889.88051	16358.4625
2892.37692	16392.2625
2894.8718	16397.6625
2897.36515	16427.3625
2899.85698	16399.8625
2902.34727	16422.1625
2904.83604	16405.2625
2907.32328	16474.7625
2909.809	16433.8625
2912.29319	16451.7625
2914.77587	16451.6625
2917.25702	16451.7625
2919.73665	16432.8625
2922.21476	16431.0625
2924.69136	16421.8625
2927.16644	16446.1625
2929.64	16387.6625
2932.11205	16361.0625
2934.58258	16298.5625
2937.05161	16294.7625
2939.51912	16284.4625
2941.98513	16265.4625
2944.44962	16215.9625
2946.91261	16139.1625
2949.37409	16149.7625
2951.83407	16126.6625
2954.29254	16118.4625
2956.74951	16091.3625
2959.20498	16074.1625
2961.65895	16043.1625
2964.11142	16034.3625
2966.56239	15969.3625
2969.01186	15965.9625
2971.45984	15929.2625
2973.90632	15875.9625
2976.35131	15870.9625
2978.7948	15823.0625
2981.23681	15761.3625
2983.67732	15757.7625
2986.11635	15696.8625
2988.55388	15626.5625
2990.98993	15611.3625
2993.4245	15571.8625
2995.85758	15567.8625
2998.28917	15498.1625
3000.71928	15506.4625
3003.14791	15489.8625
3005.57506	15464.6625
3008.00073	15395.8625
3010.42493	15392.9625
3012.84764	15355.1625
3015.26888	15353.5625
3017.68865	15318.6625
3020.10694	15285.8625
3022.52376	15275.2625
