Data from AgNPs_FTO_APTES_UA_2uM_CRN_0uM_R6G_10uM_NaF_0.1M_Addition_RamanShift__22__10-30-04-941.txt Node

Date: Wed Feb 02 10:30:04 GMT 2022
User: TCL
Spectrometer: QEP01345
Trigger mode: 4
Integration Time (sec): 7.000000E0
Scans to average: 10
Electric dark correction enabled: true
Nonlinearity correction enabled: false
Boxcar width: 0
XAxis mode: Raman Shifts
Number of Pixels in Spectrum: 1044
>>>>>Begin Spectral Data<<<<<
46.04893	0.1625
50.45542	2.1625
54.85868	0.3625
59.25871	-0.3375
63.6555	28.5625
68.04907	29.8625
72.43941	32.5625
76.82654	36.1625
81.21044	39.9625
85.59113	41.6625
89.96862	43.5625
94.34289	42.6625
98.71396	47.7625
103.08183	49.1625
107.4465	49.8625
111.80798	48.3625
116.16626	49.9625
120.52136	51.2625
124.87327	50.2625
129.222	51.4625
133.56755	50.8625
137.90993	51.0625
142.24913	54.6625
146.58517	59.7625
150.91804	65.6625
155.24774	73.6625
159.57429	86.8625
163.89768	103.4625
168.21792	129.5625
172.53501	169.5625
176.84895	224.5625
181.15975	308.1625
185.46741	419.8625
189.77193	564.3625
194.07331	748.3625
198.37157	953.8625
202.6667	1181.2625
206.9587	1398.2625
211.24758	1605.5625
215.53334	1814.6625
219.81599	2032.7625
224.09553	2280.7625
228.37195	2557.7625
232.64527	2850.1625
236.91549	3165.3625
241.18261	3466.8625
245.44663	3737.1625
249.70755	3957.7625
253.96539	4144.4625
258.22014	4297.8625
262.4718	4407.5625
266.72039	4462.8625
270.96589	4476.3625
275.20832	4416.2625
279.44768	4339.1625
283.68397	4243.9625
287.91719	4140.4625
292.14735	4092.3625
296.37445	4084.3625
300.59849	4161.8625
304.81948	4272.8625
309.03742	4324.7625
313.25231	4308.9625
317.46415	4157.2625
321.67296	3927.6625
325.87872	3742.5625
330.08145	3661.7625
334.28114	3629.9625
338.47781	3665.5625
342.67145	3732.7625
346.86207	3831.7625
351.04966	4009.0625
355.23424	4207.2625
359.4158	4374.5625
363.59435	4498.3625
367.76989	4565.8625
371.94243	4597.7625
376.11196	4616.6625
380.27849	4589.2625
384.44203	4576.2625
388.60257	4504.5625
392.76012	4475.7625
396.91468	4502.4625
401.06626	4540.1625
405.21485	4605.4625
409.36047	4550.2625
413.50311	4366.5625
417.64277	4201.7625
421.77947	4108.4625
425.9132	4069.2625
430.04396	4077.5625
434.17176	4092.0625
438.2966	4146.8625
442.41849	4243.8625
446.53742	4358.1625
450.6534	4455.3625
454.76644	4521.9625
458.87653	4542.4625
462.98368	4511.5625
467.08789	4438.3625
471.18916	4371.3625
475.2875	4327.7625
479.38291	4259.4625
483.4754	4202.2625
487.56496	4143.1625
491.6516	4130.0625
495.73531	4115.4625
499.81612	4119.1625
503.89401	4149.3625
507.96899	4173.1625
512.04106	4259.9625
516.11023	4339.0625
520.1765	4404.5625
524.23987	4417.3625
528.30034	4362.5625
532.35792	4293.0625
536.41261	4196.9625
540.46441	4131.1625
544.51333	4079.3625
548.55936	4080.1625
552.60252	4121.9625
556.64279	4181.8625
560.6802	4214.6625
564.71473	4238.8625
568.7464	4299.9625
572.7752	4371.9625
576.80114	4250.0625
580.82422	4138.5625
584.84444	4094.0625
588.86181	4118.4625
592.87633	4189.1625
596.888	4260.0625
600.89682	4346.6625
604.9028	4649.9625
608.90594	5541.1625
612.90624	6866.5625
616.90371	6881.6625
620.89834	5250.9625
624.89015	4372.8625
628.87913	4190.1625
632.86528	4175.0625
636.84862	4186.5625
640.82913	4156.4625
644.80683	4058.1625
648.78172	3984.0625
652.75379	4013.5625
656.72306	4143.7625
660.68952	4278.9625
664.65319	4274.0625
668.61405	4090.1625
672.57211	3997.6625
676.52738	3995.8625
680.47986	3989.8625
684.42955	3990.1625
688.37646	3987.6625
692.32058	4028.2625
696.26192	4058.2625
700.20048	4114.9625
704.13626	4162.5625
708.06928	4168.9625
711.99952	4108.9625
715.927	4088.2625
719.85171	4077.7625
723.77365	4075.2625
727.69284	4056.3625
731.60928	4023.2625
735.52295	4027.7625
739.43388	4045.0625
743.34206	4051.0625
747.24749	4064.4625
751.15017	4085.4625
755.05012	4120.7625
758.94733	4208.5625
762.8418	4457.0625
766.73354	4936.1625
770.62254	5553.6625
774.50882	6014.8625
778.39237	5921.6625
782.27321	5280.9625
786.15132	4640.4625
790.02671	4250.8625
793.89938	4091.5625
797.76935	4033.0625
801.6366	4007.9625
805.50115	3999.6625
809.36299	4007.4625
813.22213	3974.7625
817.07857	3968.7625
820.93231	3946.8625
824.78336	3945.6625
828.63172	3944.2625
832.47738	3971.6625
836.32036	3976.9625
840.16066	3980.4625
843.99827	3974.2625
847.8332	3970.8625
851.66546	3979.4625
855.49504	3961.5625
859.32195	3943.8625
863.1462	3915.4625
866.96777	3900.8625
870.78668	3883.8625
874.60293	3897.5625
878.41652	3926.5625
882.22745	3957.1625
886.03573	3983.1625
889.84136	3999.3625
893.64433	3975.2625
897.44466	3965.1625
901.24235	3959.5625
905.0374	3969.3625
908.8298	3965.2625
912.61957	3984.9625
916.40671	4047.4625
920.19121	4102.4625
923.97308	4152.1625
927.75233	4187.2625
931.52895	4251.5625
935.30295	4200.8625
939.07433	4117.5625
942.84309	4003.5625
946.60924	3920.6625
950.37278	3862.7625
954.13371	3814.2625
957.89203	3779.9625
961.64774	3769.7625
965.40086	3748.2625
969.15137	3712.5625
972.89929	3700.3625
976.64461	3681.5625
980.38733	3670.7625
984.12747	3656.4625
987.86502	3661.2625
991.59999	3670.7625
995.33237	3695.8625
999.06217	3744.5625
1002.78939	3782.2625
1006.51404	3812.9625
1010.23611	3856.3625
1013.95561	3883.5625
1017.67255	3873.9625
1021.38692	3836.0625
1025.09872	3798.0625
1028.80796	3760.6625
1032.51465	3788.4625
1036.21877	3854.2625
1039.92035	3963.5625
1043.61937	4029.7625
1047.31584	4018.3625
1051.00976	3997.9625
1054.70114	3958.3625
1058.38998	3937.3625
1062.07627	3900.5625
1065.76003	3870.4625
1069.44126	3849.6625
1073.11995	3831.4625
1076.79611	3872.0625
1080.46974	3919.6625
1084.14085	3977.2625
1087.80943	4032.8625
1091.47549	4026.6625
1095.13903	3959.2625
1098.80005	3836.3625
1102.45857	3746.8625
1106.11456	3712.1625
1109.76805	3723.5625
1113.41903	3782.8625
1117.06751	3880.0625
1120.71348	4023.8625
1124.35696	4158.2625
1127.99793	4308.1625
1131.63641	4335.4625
1135.2724	4156.7625
1138.90589	3950.0625
1142.5369	3806.4625
1146.16542	3712.8625
1149.79145	3641.5625
1153.415	3619.6625
1157.03607	3635.8625
1160.65467	3691.2625
1164.27079	3806.1625
1167.88443	3951.8625
1171.49561	4223.1625
1175.10432	4656.3625
1178.71056	5244.5625
1182.31434	5767.9625
1185.91565	5966.7625
1189.51451	5880.2625
1193.11091	5606.0625
1196.70485	5244.4625
1200.29634	4911.6625
1203.88538	4613.2625
1207.47197	4301.6625
1211.05612	4027.7625
1214.63782	3906.9625
1218.21708	3854.7625
1221.79391	3860.3625
1225.36829	3886.8625
1228.94024	3872.7625
1232.50976	3864.6625
1236.07685	3868.8625
1239.6415	3865.5625
1243.20374	3879.3625
1246.76355	3887.2625
1250.32093	3926.0625
1253.8759	3981.2625
1257.42845	4083.3625
1260.97859	4177.4625
1264.52631	4298.0625
1268.07163	4415.6625
1271.61453	4497.9625
1275.15503	4567.5625
1278.69312	4583.5625
1282.22882	4593.3625
1285.76211	4668.6625
1289.29301	4814.8625
1292.82151	4977.8625
1296.34761	5164.0625
1299.87133	5367.7625
1303.39266	5670.1625
1306.9116	6141.9625
1310.42815	6692.5625
1313.94233	7040.1625
1317.45412	6893.7625
1320.96354	6399.0625
1324.47058	5825.8625
1327.97525	5361.5625
1331.47754	5077.8625
1334.97747	5006.4625
1338.47502	5067.3625
1341.97022	5174.6625
1345.46305	5324.0625
1348.95352	5643.3625
1352.44163	6195.2625
1355.92738	6952.5625
1359.41078	7971.6625
1362.89183	8987.8625
1366.37053	9035.0625
1369.84688	7914.1625
1373.32088	6610.9625
1376.79254	5743.6625
1380.26186	5293.2625
1383.72883	5040.5625
1387.19347	4851.5625
1390.65578	4661.0625
1394.11575	4467.0625
1397.57339	4325.9625
1401.0287	4251.1625
1404.48168	4196.4625
1407.93234	4184.0625
1411.38068	4170.9625
1414.82669	4161.2625
1418.27039	4154.5625
1421.71177	4136.6625
1425.15083	4122.5625
1428.58758	4131.1625
1432.02203	4155.2625
1435.45416	4247.1625
1438.88399	4277.3625
1442.31151	4261.6625
1445.73673	4237.7625
1449.15965	4204.9625
1452.58027	4146.2625
1455.9986	4041.9625
1459.41463	3975.8625
1462.82837	3970.4625
1466.23982	4003.1625
1469.64898	4061.3625
1473.05586	4093.4625
1476.46045	4139.2625
1479.86276	4186.0625
1483.26279	4236.8625
1486.66054	4289.6625
1490.05602	4359.4625
1493.44922	4484.8625
1496.84016	4714.4625
1500.22882	5123.7625
1503.61521	5722.3625
1506.99934	6438.8625
1510.38121	7144.3625
1513.76081	7496.8625
1517.13816	7180.7625
1520.51324	6345.2625
1523.88607	5471.2625
1527.25665	4869.1625
1530.62498	4565.2625
1533.99105	4396.0625
1537.35488	4295.7625
1540.71647	4247.7625
1544.07581	4190.1625
1547.4329	4182.4625
1550.78776	4168.3625
1554.14038	4184.0625
1557.49077	4227.2625
1560.83892	4257.5625
1564.18484	4366.1625
1567.52853	4494.9625
1570.86999	4674.0625
1574.20922	4830.1625
1577.54624	4884.0625
1580.88103	4706.3625
1584.2136	4394.5625
1587.54395	4137.5625
1590.87208	4091.5625
1594.19801	4230.6625
1597.52172	4467.7625
1600.84321	4617.9625
1604.16251	4514.2625
1607.47959	4298.8625
1610.79447	4039.0625
1614.10715	3805.1625
1617.41763	3598.4625
1620.7259	3496.1625
1624.03199	3423.2625
1627.33587	3424.4625
1630.63757	3465.5625
1633.93707	3551.5625
1637.23439	3706.6625
1640.52951	3990.9625
1643.82246	4382.8625
1647.11321	4864.1625
1650.40179	5233.4625
1653.68819	5190.9625
1656.97241	4652.5625
1660.25446	3976.9625
1663.53433	3480.7625
1666.81203	3202.5625
1670.08756	3020.0625
1673.36092	2912.4625
1676.63211	2829.3625
1679.90115	2779.5625
1683.16801	2716.4625
1686.43272	2687.2625
1689.69527	2655.7625
1692.95567	2631.4625
1696.2139	2605.7625
1699.46999	2605.2625
1702.72392	2572.4625
1705.97571	2560.8625
1709.22535	2550.7625
1712.47284	2544.2625
1715.71819	2540.1625
1718.96139	2547.9625
1722.20246	2538.6625
1725.44139	2524.7625
1728.67818	2497.2625
1731.91284	2464.3625
1735.14537	2436.8625
1738.37576	2416.7625
1741.60403	2397.5625
1744.83017	2373.3625
1748.05418	2376.9625
1751.27607	2353.4625
1754.49584	2338.3625
1757.71349	2341.0625
1760.92903	2320.7625
1764.14244	2321.8625
1767.35375	2304.8625
1770.56294	2291.7625
1773.77002	2286.3625
1776.97499	2273.8625
1780.17785	2264.5625
1783.37861	2261.7625
1786.57727	2251.7625
1789.77382	2239.3625
1792.96828	2228.0625
1796.16064	2225.5625
1799.3509	2228.3625
1802.53907	2214.8625
1805.72514	2201.4625
1808.90913	2209.9625
1812.09102	2198.8625
1815.27083	2169.1625
1818.44856	2188.5625
1821.6242	2162.3625
1824.79776	2176.0625
1827.96924	2153.6625
1831.13864	2152.0625
1834.30597	2151.2625
1837.47122	2146.8625
1840.6344	2142.4625
1843.7955	2140.8625
1846.95454	2132.2625
1850.11151	2122.9625
1853.26642	2127.1625
1856.41926	2121.9625
1859.57004	2114.5625
1862.71876	2120.0625
1865.86542	2101.5625
1869.01003	2106.8625
1872.15258	2103.9625
1875.29308	2104.1625
1878.43152	2095.3625
1881.56792	2097.4625
1884.70227	2097.2625
1887.83457	2089.6625
1890.96482	2081.5625
1894.09304	2089.7625
1897.21921	2072.7625
1900.34335	2079.9625
1903.46544	2089.2625
1906.58551	2077.9625
1909.70353	2068.9625
1912.81953	2083.0625
1915.93349	2074.9625
1919.04543	2069.6625
1922.15534	2057.0625
1925.26322	2052.7625
1928.36908	2058.4625
1931.47292	2046.6625
1934.57473	2023.0625
1937.67453	2028.1625
1940.77232	2015.0625
1943.86808	2006.3625
1946.96184	1997.9625
1950.05358	1992.2625
1953.14331	1983.4625
1956.23103	1970.7625
1959.31675	1967.2625
1962.40046	1968.3625
1965.48217	1951.8625
1968.56188	1945.9625
1971.63959	1946.5625
1974.7153	1940.5625
1977.78901	1933.4625
1980.86073	1934.1625
1983.93046	1919.0625
1986.99819	1907.4625
1990.06394	1908.4625
1993.1277	1899.6625
1996.18947	1889.5625
1999.24925	1887.7625
2002.30706	1881.4625
2005.36288	1878.5625
2008.41672	1870.9625
2011.46859	1855.8625
2014.51848	1850.7625
2017.56639	1849.1625
2020.61233	1836.5625
2023.6563	1833.6625
2026.6983	1826.1625
2029.73833	1808.0625
2032.7764	1821.6625
2035.8125	1815.7625
2038.84664	1812.6625
2041.87881	1806.7625
2044.90903	1802.9625
2047.93729	1806.8625
2050.96359	1805.7625
2053.98794	1789.2625
2057.01034	1791.4625
2060.03078	1789.6625
2063.04927	1787.4625
2066.06582	1787.4625
2069.08042	1780.0625
2072.09307	1788.4625
2075.10378	1790.6625
2078.11255	1793.3625
2081.11938	1792.8625
2084.12426	1802.4625
2087.12722	1792.0625
2090.12824	1798.0625
2093.12732	1792.9625
2096.12447	1797.2625
2099.11969	1797.4625
2102.11299	1807.0625
2105.10435	1799.7625
2108.09379	1795.2625
2111.08131	1786.4625
2114.0669	1797.9625
2117.05057	1784.9625
2120.03233	1785.0625
2123.01216	1778.5625
2125.99008	1785.8625
2128.96609	1764.1625
2131.94018	1777.2625
2134.91236	1774.7625
2137.88263	1768.3625
2140.851	1776.2625
2143.81746	1778.9625
2146.78201	1774.4625
2149.74466	1752.5625
2152.7054	1761.3625
2155.66425	1764.7625
2158.6212	1761.8625
2161.57625	1770.1625
2164.52941	1769.0625
2167.48067	1757.0625
2170.43004	1753.9625
2173.37752	1759.4625
2176.32311	1743.3625
2179.26681	1754.3625
2182.20863	1756.2625
2185.14856	1762.9625
2188.08661	1753.3625
2191.02278	1755.5625
2193.95707	1749.5625
2196.88948	1748.9625
2199.82001	1744.9625
2202.74867	1740.9625
2205.67545	1748.1625
2208.60037	1740.3625
2211.52341	1732.9625
2214.44458	1731.7625
2217.36388	1716.1625
2220.28132	1719.4625
2223.1969	1705.4625
2226.11061	1700.1625
2229.02246	1694.6625
2231.93245	1694.9625
2234.84058	1696.9625
2237.74686	1693.5625
2240.65128	1689.4625
2243.55385	1685.2625
2246.45456	1684.4625
2249.35343	1675.9625
2252.25044	1673.5625
2255.14561	1666.2625
2258.03893	1674.1625
2260.93041	1676.0625
2263.82004	1659.9625
2266.70783	1670.7625
2269.59378	1662.1625
2272.4779	1663.7625
2275.36017	1654.7625
2278.24061	1645.1625
2281.11922	1629.8625
2283.996	1637.1625
2286.87094	1643.9625
2289.74405	1631.4625
2292.61534	1626.1625
2295.4848	1624.1625
2298.35243	1615.6625
2301.21824	1614.0625
2304.08223	1609.5625
2306.94439	1609.2625
2309.80474	1605.5625
2312.66327	1615.1625
2315.51999	1608.5625
2318.37489	1593.8625
2321.22797	1604.4625
2324.07925	1591.2625
2326.92871	1597.4625
2329.77637	1598.8625
2332.62222	1592.4625
2335.46626	1590.8625
2338.3085	1583.3625
2341.14893	1588.5625
2343.98756	1581.1625
2346.8244	1579.3625
2349.65943	1580.7625
2352.49267	1587.2625
2355.32411	1585.2625
2358.15376	1584.9625
2360.98161	1585.5625
2363.80768	1586.7625
2366.63195	1581.6625
2369.45444	1584.2625
2372.27514	1593.1625
2375.09405	1590.7625
2377.91118	1582.3625
2380.72652	1569.7625
2383.54009	1568.2625
2386.35187	1560.5625
2389.16188	1549.4625
2391.97011	1545.5625
2394.77657	1541.7625
2397.58125	1541.0625
2400.38416	1535.7625
2403.18529	1535.5625
2405.98466	1520.0625
2408.78226	1517.5625
2411.57809	1525.8625
2414.37216	1519.6625
2417.16446	1510.1625
2419.955	1511.8625
2422.74378	1512.6625
2425.5308	1513.5625
2428.31606	1511.1625
2431.09956	1510.5625
2433.88131	1498.3625
2436.6613	1506.5625
2439.43954	1495.8625
2442.21603	1502.4625
2444.99077	1510.6625
2447.76377	1501.0625
2450.53501	1502.8625
2453.30451	1509.0625
2456.07226	1509.8625
2458.83827	1502.3625
2461.60254	1494.5625
2464.36507	1502.2625
2467.12586	1485.5625
2469.88492	1499.2625
2472.64224	1495.2625
2475.39782	1489.6625
2478.15167	1494.3625
2480.90379	1492.6625
2483.65417	1487.3625
2486.40283	1496.9625
2489.14976	1496.0625
2491.89497	1494.7625
2494.63845	1506.6625
2497.3802	1491.5625
2500.12024	1496.6625
2502.85855	1488.2625
2505.59514	1477.0625
2508.33002	1482.4625
2511.06318	1469.2625
2513.79462	1465.4625
2516.52435	1476.2625
2519.25237	1466.4625
2521.97867	1456.8625
2524.70327	1452.6625
2527.42616	1451.3625
2530.14734	1447.0625
2532.86681	1440.0625
2535.58458	1448.1625
2538.30065	1446.9625
2541.01501	1445.5625
2543.72768	1446.6625
2546.43864	1437.2625
2549.14791	1447.9625
2551.85548	1440.9625
2554.56136	1430.6625
2557.26554	1434.9625
2559.96803	1440.9625
2562.66883	1433.1625
2565.36794	1435.6625
2568.06536	1437.5625
2570.7611	1437.3625
2573.45514	1427.1625
2576.14751	1422.3625
2578.83819	1434.1625
2581.52719	1433.0625
2584.21451	1421.5625
2586.90015	1419.2625
2589.58411	1416.5625
2592.2664	1408.6625
2594.94701	1416.3625
2597.62594	1414.4625
2600.30321	1417.7625
2602.9788	1405.0625
2605.65273	1404.3625
2608.32498	1411.9625
2610.99557	1407.4625
2613.66449	1408.6625
2616.33175	1397.3625
2618.99734	1393.8625
2621.66128	1416.5625
2624.32355	1400.4625
2626.98416	1406.9625
2629.64311	1391.2625
2632.30041	1389.4625
2634.95605	1399.5625
2637.61004	1405.4625
2640.26238	1402.1625
2642.91306	1396.9625
2645.56209	1399.7625
2648.20948	1394.6625
2650.85521	1392.3625
2653.4993	1401.4625
2656.14175	1409.1625
2658.78255	1399.6625
2661.42171	1407.9625
2664.05923	1417.3625
2666.6951	1410.5625
2669.32934	1431.7625
2671.96194	1420.3625
2674.59291	1432.4625
2677.22224	1429.9625
2679.84993	1431.5625
2682.476	1437.6625
2685.10043	1444.9625
2687.72324	1441.1625
2690.34441	1435.6625
2692.96396	1451.6625
2695.58188	1453.3625
2698.19818	1460.5625
2700.81285	1473.3625
2703.4259	1474.7625
2706.03733	1483.0625
2708.64714	1502.9625
2711.25533	1497.8625
2713.86191	1501.1625
2716.46687	1525.3625
2719.07021	1530.1625
2721.67194	1536.3625
2724.27206	1542.8625
2726.87057	1549.8625
2729.46747	1556.1625
2732.06276	1565.0625
2734.65644	1564.7625
2737.24852	1576.4625
2739.83899	1577.7625
2742.42786	1590.1625
2745.01513	1596.7625
2747.60079	1608.4625
2750.18486	1616.8625
2752.76733	1622.2625
2755.3482	1625.3625
2757.92747	1645.7625
2760.50515	1660.3625
2763.08123	1662.7625
2765.65573	1667.1625
2768.22863	1680.5625
2770.79994	1684.0625
2773.36967	1691.2625
2775.9378	1713.3625
2778.50435	1724.8625
2781.06932	1738.2625
2783.6327	1753.2625
2786.1945	1765.8625
2788.75471	1768.9625
2791.31335	1787.1625
2793.87041	1805.4625
2796.42589	1822.6625
2798.97979	1852.1625
2801.53212	1861.5625
2804.08288	1885.7625
2806.63206	1899.4625
2809.17967	1924.7625
2811.72571	1928.0625
2814.27018	1949.3625
2816.81308	1958.5625
2819.35442	1956.8625
2821.89419	1960.3625
2824.43239	1967.7625
2826.96904	1966.9625
2829.50412	1965.5625
2832.03763	1967.9625
2834.56959	1980.0625
2837.1	1994.0625
2839.62884	2013.8625
2842.15613	2087.8625
2844.68186	2154.7625
2847.20604	2243.8625
2849.72867	2305.2625
2852.24974	2334.2625
2854.76927	2346.8625
2857.28724	2337.6625
2859.80367	2339.6625
2862.31855	2316.6625
2864.83189	2285.1625
2867.34368	2279.4625
2869.85393	2273.5625
2872.36264	2266.2625
2874.8698	2266.0625
2877.37543	2267.4625
2879.87952	2254.0625
2882.38207	2259.4625
2884.88308	2242.2625
2887.38256	2246.7625
2889.88051	2239.1625
2892.37692	2248.5625
2894.8718	2229.5625
2897.36515	2232.0625
2899.85698	2225.5625
2902.34727	2225.5625
2904.83604	2211.9625
2907.32328	2226.5625
2909.809	2218.6625
2912.29319	2217.8625
2914.77587	2208.4625
2917.25702	2207.0625
2919.73665	2199.3625
2922.21476	2204.4625
2924.69136	2188.6625
2927.16644	2182.6625
2929.64	2160.7625
2932.11205	2127.4625
2934.58258	2123.4625
2937.05161	2094.6625
2939.51912	2049.8625
2941.98513	1995.1625
2944.44962	1926.6625
2946.91261	1853.3625
2949.37409	1808.9625
2951.83407	1767.5625
2954.29254	1725.7625
2956.74951	1682.2625
2959.20498	1644.3625
2961.65895	1619.3625
2964.11142	1579.4625
2966.56239	1564.3625
2969.01186	1547.4625
2971.45984	1517.7625
2973.90632	1500.8625
2976.35131	1479.6625
2978.7948	1453.6625
2981.23681	1436.1625
2983.67732	1422.8625
2986.11635	1405.6625
2988.55388	1390.6625
2990.98993	1386.3625
2993.4245	1366.7625
2995.85758	1359.8625
2998.28917	1351.9625
3000.71928	1341.3625
3003.14791	1334.5625
3005.57506	1328.0625
3008.00073	1326.7625
3010.42493	1322.1625
3012.84764	1311.7625
3015.26888	1305.4625
3017.68865	1311.1625
3020.10694	1310.2625
3022.52376	1303.9625
3024.9391	1309.1625
3027.35298	1302.9625
3029.76539	1300.4625
3032.17632	1295.4625
3034.5858	1291.6625
3036.9938	1296.9625
3039.40034	1297.7625
3041.80542	1296.8625
3044.20903	1296.3625
3046.61118	1291.5625
3049.01187	1289.1625
3051.4111	1298.4625
3053.80888	1304.2625
3056.20519	1290.1625
3058.60005	1297.9625
3060.99345	1302.3625
3063.3854	1302.0625
3065.7759	1302.3625
3068.16494	1305.6625
3070.55254	1305.4625
3072.93868	1304.2625
3075.32338	1312.8625
3077.70662	1306.8625
3080.08842	1298.5625
3082.46878	1299.8625
3084.84769	1291.9625
3087.22515	1297.1625
3089.60118	1301.2625
3091.97576	1301.7625
3094.3489	1301.6625
3096.72061	1309.0625
3099.09087	1305.3625
3101.4597	1307.1625
3103.82709	1302.3625
3106.19305	1309.1625
3108.55757	1306.5625
3110.92066	1310.3625
3113.28232	1311.9625
3115.64255	1313.1625
3118.00134	1315.5625
3120.35871	1322.8625
3122.71466	1339.0625
3125.06917	1330.9625
