Data from AgNPs_FTO_APTES_UA_2uM_CRN_1uM_R6G_10uM_NaF_0.1M_Addition_RamanShift__22__11-44-45-028.txt Node

Date: Wed Feb 02 11:44:45 GMT 2022
User: TCL
Spectrometer: QEP01345
Trigger mode: 4
Integration Time (sec): 7.000000E0
Scans to average: 10
Electric dark correction enabled: true
Nonlinearity correction enabled: false
Boxcar width: 0
XAxis mode: Raman Shifts
Number of Pixels in Spectrum: 1044
>>>>>Begin Spectral Data<<<<<
46.04893	0.125
50.45542	0.725
54.85868	-0.875
59.25871	-1.175
63.6555	93.425
68.04907	97.325
72.43941	100.925
76.82654	110.125
81.21044	113.325
85.59113	118.225
89.96862	122.025
94.34289	124.725
98.71396	126.925
103.08183	138.925
107.4465	139.025
111.80798	143.725
116.16626	147.425
120.52136	149.725
124.87327	159.725
129.222	168.325
133.56755	181.925
137.90993	193.325
142.24913	221.125
146.58517	249.825
150.91804	288.225
155.24774	346.825
159.57429	438.425
163.89768	567.725
168.21792	762.725
172.53501	1031.125
176.84895	1447.525
181.15975	2021.925
185.46741	2833.125
189.77193	3909.925
194.07331	5229.725
198.37157	6702.725
202.6667	8270.825
206.9587	9839.125
211.24758	11361.325
215.53334	12972.925
219.81599	14683.325
224.09553	16580.725
228.37195	18730.925
232.64527	21024.525
236.91549	23361.825
241.18261	25636.625
245.44663	27601.525
249.70755	29312.225
253.96539	30807.625
258.22014	32102.125
262.4718	33205.325
266.72039	34075.725
270.96589	34602.725
275.20832	34700.725
279.44768	34567.025
283.68397	34371.225
287.91719	34192.625
292.14735	34210.925
296.37445	34471.925
300.59849	34911.325
304.81948	35354.425
309.03742	35619.725
313.25231	35148.225
317.46415	33937.225
321.67296	32104.225
325.87872	30607.625
330.08145	29885.325
334.28114	29713.925
338.47781	29947.525
342.67145	30484.725
346.86207	31202.825
351.04966	32261.625
355.23424	33458.425
359.4158	34415.425
363.59435	34939.525
367.76989	35175.725
371.94243	35234.025
376.11196	35218.025
380.27849	35202.025
384.44203	35249.825
388.60257	35266.925
392.76012	35460.025
396.91468	35978.225
401.06626	36689.225
405.21485	37257.625
409.36047	36848.625
413.50311	35789.825
417.64277	34860.325
421.77947	34467.525
425.9132	34505.725
430.04396	34664.125
434.17176	34889.625
438.2966	35205.025
442.41849	35872.125
446.53742	37043.925
450.6534	38362.425
454.76644	39240.325
458.87653	39520.725
462.98368	39256.025
467.08789	38776.125
471.18916	38098.525
475.2875	37510.825
479.38291	37286.425
483.4754	37049.925
487.56496	36617.825
491.6516	35973.025
495.73531	35284.125
499.81612	34914.125
503.89401	34937.025
507.96899	35044.625
512.04106	35010.925
516.11023	34781.825
520.1765	34604.925
524.23987	34273.825
528.30034	33747.325
532.35792	33176.125
536.41261	32513.125
540.46441	31895.125
544.51333	31759.325
548.55936	32246.025
552.60252	33234.925
556.64279	34334.125
560.6802	35076.325
564.71473	35673.125
568.7464	36858.125
572.7752	38173.925
576.80114	38464.825
580.82422	38426.125
584.84444	38564.025
588.86181	38915.725
592.87633	39482.125
596.888	39973.725
600.89682	40231.925
604.9028	42304.825
608.90594	48396.625
612.90624	55684.525
616.90371	52513.325
620.89834	40280.625
624.89015	34659.925
628.87913	33834.725
632.86528	33986.525
636.84862	33906.025
640.82913	33192.825
644.80683	31776.825
648.78172	30729.225
652.75379	30512.525
656.72306	31197.425
660.68952	32246.125
664.65319	32183.125
668.61405	31191.325
672.57211	30676.525
676.52738	30649.325
680.47986	30588.025
684.42955	30402.225
688.37646	30210.825
692.32058	30348.725
696.26192	30732.925
700.20048	31228.525
704.13626	31608.625
708.06928	31618.925
711.99952	31325.425
715.927	31110.225
719.85171	31101.525
723.77365	30950.825
727.69284	30535.425
731.60928	30184.325
735.52295	30041.625
739.43388	30148.425
743.34206	30294.625
747.24749	30513.825
751.15017	30952.425
755.05012	31669.525
758.94733	32997.925
762.8418	35657.025
766.73354	40216.525
770.62254	44721.525
774.50882	46131.525
778.39237	43408.925
782.27321	38667.325
786.15132	34527.725
790.02671	32097.625
793.89938	30881.425
797.76935	30354.225
801.6366	30223.925
805.50115	30055.525
809.36299	29770.625
813.22213	29562.225
817.07857	29510.025
820.93231	29439.025
824.78336	29365.825
828.63172	29343.825
832.47738	29374.025
836.32036	29377.925
840.16066	29485.125
843.99827	29435.625
847.8332	29336.725
851.66546	29187.025
855.49504	29063.925
859.32195	28978.425
863.1462	28829.825
866.96777	28606.525
870.78668	28494.825
874.60293	28490.825
878.41652	28545.925
882.22745	28686.425
886.03573	28844.325
889.84136	28883.625
893.64433	28743.825
897.44466	28594.325
901.24235	28497.025
905.0374	28379.325
908.8298	28243.225
912.61957	28291.225
916.40671	28626.925
920.19121	29142.525
923.97308	29653.625
927.75233	29969.625
931.52895	29952.725
935.30295	29422.025
939.07433	28572.025
942.84309	27846.125
946.60924	27467.225
950.37278	27296.025
954.13371	27137.225
957.89203	26958.525
961.64774	26900.725
965.40086	26857.925
969.15137	26713.525
972.89929	26527.025
976.64461	26471.025
980.38733	26472.525
984.12747	26536.225
987.86502	26831.925
991.59999	27279.425
995.33237	27924.125
999.06217	29083.425
1002.78939	30519.125
1006.51404	31540.325
1010.23611	32047.325
1013.95561	32320.025
1017.67255	32237.325
1021.38692	31722.825
1025.09872	31201.225
1028.80796	31364.625
1032.51465	32307.925
1036.21877	33196.825
1039.92035	33395.025
1043.61937	32899.525
1047.31584	31904.225
1051.00976	30863.725
1054.70114	30286.525
1058.38998	30144.525
1062.07627	30249.625
1065.76003	30519.425
1069.44126	30792.025
1073.11995	31328.525
1076.79611	31778.025
1080.46974	32018.125
1084.14085	32389.425
1087.80943	33012.525
1091.47549	33438.725
1095.13903	33283.425
1098.80005	32534.125
1102.45857	31477.725
1106.11456	30701.825
1109.76805	30500.425
1113.41903	30628.625
1117.06751	31068.825
1120.71348	31766.025
1124.35696	32499.725
1127.99793	33281.125
1131.63641	33613.525
1135.2724	33051.125
1138.90589	32355.725
1142.5369	31987.825
1146.16542	31788.925
1149.79145	31837.625
1153.415	32144.225
1157.03607	32640.225
1160.65467	33645.225
1164.27079	35258.125
1167.88443	37583.725
1171.49561	41010.425
1175.10432	45771.225
1178.71056	51855.125
1182.31434	57210.725
1185.91565	59984.925
1189.51451	59841.225
1193.11091	57379.525
1196.70485	53584.125
1200.29634	49987.925
1203.88538	47123.425
1207.47197	44792.925
1211.05612	43043.325
1214.63782	41941.225
1218.21708	41515.525
1221.79391	41560.125
1225.36829	41670.125
1228.94024	41476.425
1232.50976	40973.625
1236.07685	40412.625
1239.6415	39848.825
1243.20374	39369.225
1246.76355	39200.125
1250.32093	39633.925
1253.8759	40668.025
1257.42845	42256.125
1260.97859	43912.625
1264.52631	45522.225
1268.07163	47165.925
1271.61453	49022.325
1275.15503	50982.725
1278.69312	52793.025
1282.22882	54195.325
1285.76211	55669.525
1289.29301	57494.525
1292.82151	59816.725
1296.34761	62519.825
1299.87133	66194.425
1303.39266	70903.725
1306.9116	76852.625
1310.42815	83423.525
1313.94233	88073.625
1317.45412	89075.025
1320.96354	87137.825
1324.47058	84262.625
1327.97525	81252.825
1331.47754	78795.225
1334.97747	77206.825
1338.47502	76389.925
1341.97022	75742.025
1345.46305	74460.225
1348.95352	73148.225
1352.44163	72630.925
1355.92738	74303.025
1359.41078	79172.825
1362.89183	84987.025
1366.37053	84817.625
1369.84688	76729.025
1373.32088	66642.325
1376.79254	59547.825
1380.26186	56351.825
1383.72883	55344.625
1387.19347	54768.425
1390.65578	54159.325
1394.11575	54316.425
1397.57339	55256.625
1401.0287	56858.625
1404.48168	58377.325
1407.93234	59076.625
1411.38068	58608.825
1414.82669	56790.625
1418.27039	54008.525
1421.71177	51109.125
1425.15083	48711.025
1428.58758	47326.725
1432.02203	47080.125
1435.45416	47690.825
1438.88399	48649.625
1442.31151	49619.425
1445.73673	50565.025
1449.15965	51540.025
1452.58027	52308.325
1455.9986	52719.025
1459.41463	53246.325
1462.82837	54077.325
1466.23982	55172.125
1469.64898	56104.625
1473.05586	56511.725
1476.46045	56335.925
1479.86276	55909.125
1483.26279	55623.825
1486.66054	55638.725
1490.05602	56224.425
1493.44922	57161.225
1496.84016	58131.225
1500.22882	59845.525
1503.61521	62566.825
1506.99934	66115.525
1510.38121	69869.525
1513.76081	71980.625
1517.13816	70432.325
1520.51324	66008.825
1523.88607	61321.125
1527.25665	58076.125
1530.62498	56187.125
1533.99105	55058.825
1537.35488	54274.525
1540.71647	53456.625
1544.07581	52504.425
1547.4329	51410.525
1550.78776	50447.325
1554.14038	49924.425
1557.49077	49918.325
1560.83892	50254.925
1564.18484	50518.625
1567.52853	50739.325
1570.86999	50983.025
1574.20922	51629.725
1577.54624	52129.525
1580.88103	51919.525
1584.2136	51612.125
1587.54395	52774.225
1590.87208	55677.025
1594.19801	59707.425
1597.52172	63756.625
1600.84321	65035.025
1604.16251	61910.025
1607.47959	56138.425
1610.79447	50229.325
1614.10715	44867.325
1617.41763	40669.725
1620.7259	37929.325
1624.03199	36598.925
1627.33587	36678.725
1630.63757	38107.425
1633.93707	41118.425
1637.23439	45709.525
1640.52951	51957.925
1643.82246	58938.925
1647.11321	64447.325
1650.40179	66187.125
1653.68819	62287.125
1656.97241	53840.125
1660.25446	44684.425
1663.53433	37612.025
1666.81203	33112.125
1670.08756	30345.125
1673.36092	28653.725
1676.63211	27571.225
1679.90115	26815.325
1683.16801	26279.325
1686.43272	25920.525
1689.69527	25621.625
1692.95567	25422.125
1696.2139	25261.725
1699.46999	25203.525
1702.72392	25059.325
1705.97571	24985.125
1709.22535	24930.925
1712.47284	24873.125
1715.71819	24772.225
1718.96139	24743.825
1722.20246	24680.525
1725.44139	24547.225
1728.67818	24359.125
1731.91284	24169.925
1735.14537	23995.725
1738.37576	23919.725
1741.60403	23781.625
1744.83017	23703.425
1748.05418	23657.325
1751.27607	23619.125
1754.49584	23545.125
1757.71349	23541.425
1760.92903	23509.825
1764.14244	23493.625
1767.35375	23482.325
1770.56294	23405.425
1773.77002	23363.125
1776.97499	23312.125
1780.17785	23238.125
1783.37861	23211.025
1786.57727	23158.325
1789.77382	23117.125
1792.96828	23119.125
1796.16064	23053.725
1799.3509	22981.225
1802.53907	22993.225
1805.72514	22944.325
1808.90913	22836.825
1812.09102	22826.925
1815.27083	22765.425
1818.44856	22721.625
1821.6242	22715.825
1824.79776	22701.725
1827.96924	22696.725
1831.13864	22717.025
1834.30597	22692.825
1837.47122	22679.125
1840.6344	22699.725
1843.7955	22773.525
1846.95454	22820.325
1850.11151	22776.225
1853.26642	22807.325
1856.41926	22844.625
1859.57004	22842.925
1862.71876	22886.525
1865.86542	22883.225
1869.01003	22881.825
1872.15258	22890.125
1875.29308	22979.225
1878.43152	23013.025
1881.56792	23029.025
1884.70227	23046.125
1887.83457	23088.325
1890.96482	23160.325
1894.09304	23141.025
1897.21921	23196.525
1900.34335	23204.225
1903.46544	23256.025
1906.58551	23263.325
1909.70353	23253.525
1912.81953	23252.725
1915.93349	23190.425
1919.04543	23165.125
1922.15534	23099.825
1925.26322	22970.725
1928.36908	22856.225
1931.47292	22740.425
1934.57473	22519.725
1937.67453	22401.525
1940.77232	22266.925
1943.86808	22150.325
1946.96184	21983.525
1950.05358	21896.725
1953.14331	21778.925
1956.23103	21691.725
1959.31675	21594.525
1962.40046	21507.825
1965.48217	21435.425
1968.56188	21364.325
1971.63959	21296.925
1974.7153	21205.025
1977.78901	21153.725
1980.86073	21073.525
1983.93046	21025.025
1986.99819	20909.925
1990.06394	20845.225
1993.1277	20745.125
1996.18947	20671.525
1999.24925	20616.325
2002.30706	20556.325
2005.36288	20478.125
2008.41672	20444.025
2011.46859	20410.225
2014.51848	20338.325
2017.56639	20304.025
2020.61233	20218.125
2023.6563	20148.725
2026.6983	20165.325
2029.73833	20137.425
2032.7764	20079.925
2035.8125	20048.125
2038.84664	20038.725
2041.87881	20009.625
2044.90903	20006.425
2047.93729	19956.525
2050.96359	19933.025
2053.98794	19875.125
2057.01034	19888.825
2060.03078	19827.825
2063.04927	19780.225
2066.06582	19781.025
2069.08042	19763.325
2072.09307	19767.925
2075.10378	19687.425
2078.11255	19680.025
2081.11938	19708.025
2084.12426	19677.025
2087.12722	19655.025
2090.12824	19639.825
2093.12732	19631.825
2096.12447	19685.825
2099.11969	19690.525
2102.11299	19686.925
2105.10435	19669.225
2108.09379	19677.925
2111.08131	19669.625
2114.0669	19694.825
2117.05057	19725.425
2120.03233	19686.325
2123.01216	19691.025
2125.99008	19727.325
2128.96609	19728.025
2131.94018	19726.525
2134.91236	19753.525
2137.88263	19726.225
2140.851	19732.325
2143.81746	19751.025
2146.78201	19742.025
2149.74466	19770.525
2152.7054	19733.925
2155.66425	19746.525
2158.6212	19745.225
2161.57625	19715.325
2164.52941	19730.625
2167.48067	19728.425
2170.43004	19716.925
2173.37752	19725.325
2176.32311	19744.425
2179.26681	19717.125
2182.20863	19730.425
2185.14856	19733.325
2188.08661	19724.025
2191.02278	19753.825
2193.95707	19697.225
2196.88948	19698.025
2199.82001	19719.525
2202.74867	19714.625
2205.67545	19738.525
2208.60037	19730.225
2211.52341	19719.325
2214.44458	19708.125
2217.36388	19682.625
2220.28132	19645.325
2223.1969	19574.325
2226.11061	19571.325
2229.02246	19517.825
2231.93245	19474.925
2234.84058	19445.425
2237.74686	19397.525
2240.65128	19422.125
2243.55385	19352.425
2246.45456	19357.525
2249.35343	19305.025
2252.25044	19246.225
2255.14561	19285.825
2258.03893	19241.025
2260.93041	19238.425
2263.82004	19136.125
2266.70783	19117.125
2269.59378	19098.725
2272.4779	19035.625
2275.36017	18968.125
2278.24061	18948.025
2281.11922	18897.625
2283.996	18885.025
2286.87094	18850.025
2289.74405	18831.625
2292.61534	18769.025
2295.4848	18775.125
2298.35243	18774.225
2301.21824	18783.025
2304.08223	18814.125
2306.94439	18812.825
2309.80474	18864.225
2312.66327	18843.725
2315.51999	18843.525
2318.37489	18877.225
2321.22797	18846.125
2324.07925	18845.325
2326.92871	18799.225
2329.77637	18822.125
2332.62222	18826.125
2335.46626	18840.225
2338.3085	18822.225
2341.14893	18860.525
2343.98756	18863.525
2346.8244	18885.625
2349.65943	18861.325
2352.49267	18852.925
2355.32411	18902.525
2358.15376	18867.825
2360.98161	18886.425
2363.80768	18849.925
2366.63195	18807.525
2369.45444	18769.925
2372.27514	18778.125
2375.09405	18743.525
2377.91118	18702.725
2380.72652	18611.625
2383.54009	18535.025
2386.35187	18523.025
2389.16188	18428.625
2391.97011	18438.125
2394.77657	18389.025
2397.58125	18401.025
2400.38416	18364.425
2403.18529	18358.425
2405.98466	18299.425
2408.78226	18216.925
2411.57809	18228.525
2414.37216	18154.225
2417.16446	18159.525
2419.955	18130.025
2422.74378	18159.825
2425.5308	18082.325
2428.31606	18115.625
2431.09956	18137.525
2433.88131	18055.125
2436.6613	18055.225
2439.43954	18071.425
2442.21603	18028.825
2444.99077	18070.825
2447.76377	18080.525
2450.53501	18046.225
2453.30451	18076.125
2456.07226	18099.525
2458.83827	18091.425
2461.60254	18061.725
2464.36507	18101.725
2467.12586	18105.625
2469.88492	18077.725
2472.64224	18104.925
2475.39782	18129.725
2478.15167	18142.825
2480.90379	18163.625
2483.65417	18164.725
2486.40283	18202.325
2489.14976	18200.725
2491.89497	18239.725
2494.63845	18257.825
2497.3802	18227.625
2500.12024	18219.425
2502.85855	18225.125
2505.59514	18238.925
2508.33002	18221.325
2511.06318	18192.125
2513.79462	18131.125
2516.52435	18125.625
2519.25237	18083.325
2521.97867	18089.525
2524.70327	18046.525
2527.42616	18008.625
2530.14734	17994.925
2532.86681	17986.325
2535.58458	17983.325
2538.30065	17957.825
2541.01501	17975.025
2543.72768	17898.725
2546.43864	17918.125
2549.14791	17947.525
2551.85548	17966.225
2554.56136	17940.025
2557.26554	17928.525
2559.96803	17879.525
2562.66883	17875.025
2565.36794	17905.025
2568.06536	17892.025
2570.7611	17896.925
2573.45514	17836.425
2576.14751	17834.225
2578.83819	17858.725
2581.52719	17878.025
2584.21451	17893.125
2586.90015	17880.425
2589.58411	17839.325
2592.2664	17853.125
2594.94701	17838.925
2597.62594	17854.225
2600.30321	17797.525
2602.9788	17787.225
2605.65273	17796.325
2608.32498	17823.725
2610.99557	17826.225
2613.66449	17874.025
2616.33175	17857.925
2618.99734	17870.625
2621.66128	17917.325
2624.32355	17904.225
2626.98416	17878.825
2629.64311	17925.825
2632.30041	17909.225
2634.95605	17879.825
2637.61004	17887.725
2640.26238	17840.525
2642.91306	17800.725
2645.56209	17786.225
2648.20948	17769.725
2650.85521	17801.825
2653.4993	17761.925
2656.14175	17761.625
2658.78255	17783.525
2661.42171	17774.925
2664.05923	17804.925
2666.6951	17804.525
2669.32934	17830.625
2671.96194	17851.425
2674.59291	17842.925
2677.22224	17824.725
2679.84993	17850.125
2682.476	17820.225
2685.10043	17794.225
2687.72324	17779.625
2690.34441	17778.725
2692.96396	17772.225
2695.58188	17780.625
2698.19818	17732.125
2700.81285	17771.225
2703.4259	17747.625
2706.03733	17746.225
2708.64714	17751.025
2711.25533	17792.525
2713.86191	17761.025
2716.46687	17799.425
2719.07021	17775.225
2721.67194	17800.025
2724.27206	17769.325
2726.87057	17807.025
2729.46747	17795.925
2732.06276	17860.225
2734.65644	17827.825
2737.24852	17815.825
2739.83899	17823.025
2742.42786	17815.325
2745.01513	17805.425
2747.60079	17790.325
2750.18486	17795.525
2752.76733	17801.625
2755.3482	17801.225
2757.92747	17812.425
2760.50515	17768.525
2763.08123	17792.725
2765.65573	17785.825
2768.22863	17778.125
2770.79994	17754.825
2773.36967	17754.825
2775.9378	17702.325
2778.50435	17731.425
2781.06932	17753.025
2783.6327	17752.725
2786.1945	17746.225
2788.75471	17746.625
2791.31335	17681.525
2793.87041	17684.425
2796.42589	17610.025
2798.97979	17621.825
2801.53212	17598.525
2804.08288	17566.725
2806.63206	17521.225
2809.17967	17541.625
2811.72571	17502.725
2814.27018	17503.525
2816.81308	17529.625
2819.35442	17514.925
2821.89419	17504.425
2824.43239	17520.225
2826.96904	17515.925
2829.50412	17481.825
2832.03763	17470.225
2834.56959	17459.825
2837.1	17422.925
2839.62884	17451.025
2842.15613	17462.925
2844.68186	17534.925
2847.20604	17566.425
2849.72867	17611.725
2852.24974	17586.525
2854.76927	17587.725
2857.28724	17558.325
2859.80367	17574.025
2862.31855	17529.325
2864.83189	17480.325
2867.34368	17501.325
2869.85393	17494.825
2872.36264	17483.925
2874.8698	17499.025
2877.37543	17560.525
2879.87952	17542.425
2882.38207	17548.025
2884.88308	17554.425
2887.38256	17576.425
2889.88051	17568.725
2892.37692	17577.525
2894.8718	17591.925
2897.36515	17610.925
2899.85698	17597.825
2902.34727	17649.425
2904.83604	17640.525
2907.32328	17701.225
2909.809	17690.625
2912.29319	17686.025
2914.77587	17682.725
2917.25702	17653.325
2919.73665	17629.225
2922.21476	17654.525
2924.69136	17606.025
2927.16644	17621.225
2929.64	17621.125
2932.11205	17561.125
2934.58258	17491.725
2937.05161	17501.525
2939.51912	17468.925
2941.98513	17461.525
2944.44962	17344.225
2946.91261	17289.425
2949.37409	17304.125
2951.83407	17272.525
2954.29254	17240.625
2956.74951	17226.325
2959.20498	17149.825
2961.65895	17127.825
2964.11142	17123.925
2966.56239	17071.225
2969.01186	17047.025
2971.45984	16943.225
2973.90632	16927.225
2976.35131	16864.325
2978.7948	16790.125
2981.23681	16769.025
2983.67732	16725.725
2986.11635	16641.325
2988.55388	16610.625
2990.98993	16581.725
2993.4245	16546.725
2995.85758	16515.325
2998.28917	16476.625
3000.71928	16462.825
3003.14791	16438.425
3005.57506	16409.925
3008.00073	16345.325
3010.42493	16332.025
3012.84764	16326.325
3015.26888	16276.725
3017.68865	16273.925
3020.10694	16211.125
3022.52376	16158.125
3024.9391	16132.525
3027.35298	16112.925
3029.76539	16079.825
3032.17632	16043.625
3034.5858	16067.025
3036.9938	16030.225
3039.40034	16005.525
3041.80542	16035.025
3044.20903	15985.625
3046.61118	15952.625
3049.01187	15921.725
3051.4111	15907.425
3053.80888	15869.325
3056.20519	15833.025
3058.60005	15765.325
3060.99345	15723.425
3063.3854	15701.925
3065.7759	15654.425
3068.16494	15646.925
3070.55254	15614.625
3072.93868	15545.625
3075.32338	15506.925
3077.70662	15477.725
3080.08842	15437.525
3082.46878	15428.225
3084.84769	15409.825
3087.22515	15364.425
3089.60118	15366.025
3091.97576	15371.125
3094.3489	15351.625
3096.72061	15349.725
3099.09087	15338.125
3101.4597	15261.925
3103.82709	15258.325
3106.19305	15210.925
3108.55757	15205.425
3110.92066	15147.125
3113.28232	15152.425
3115.64255	15078.025
3118.00134	15043.425
3120.35871	15057.825
3122.71466	15028.225
3125.06917	14977.625
3127.42226	14965.825
