Data from AgNPs_FTO_APTES_UA_2uM_CRN_0uM_R6G_10uM_NaF_0.1M_Addition_RamanShift__58__11-12-04-990.txt Node

Date: Wed Feb 02 11:12:04 GMT 2022
User: TCL
Spectrometer: QEP01345
Trigger mode: 4
Integration Time (sec): 7.000000E0
Scans to average: 10
Electric dark correction enabled: true
Nonlinearity correction enabled: false
Boxcar width: 0
XAxis mode: Raman Shifts
Number of Pixels in Spectrum: 1044
>>>>>Begin Spectral Data<<<<<
46.04893	0.2125
50.45542	0.8125
54.85868	-0.6875
59.25871	-0.1875
63.6555	45.5125
68.04907	48.7125
72.43941	51.0125
76.82654	58.1125
81.21044	54.7125
85.59113	62.3125
89.96862	64.3125
94.34289	64.1125
98.71396	65.2125
103.08183	71.7125
107.4465	70.6125
111.80798	72.3125
116.16626	75.6125
120.52136	77.8125
124.87327	78.8125
129.222	83.7125
133.56755	92.6125
137.90993	98.6125
142.24913	110.2125
146.58517	125.5125
150.91804	140.0125
155.24774	170.7125
159.57429	214.3125
163.89768	276.2125
168.21792	369.2125
172.53501	503.6125
176.84895	694.1125
181.15975	976.9125
185.46741	1366.4125
189.77193	1875.1125
194.07331	2494.2125
198.37157	3202.9125
202.6667	3935.2125
206.9587	4694.7125
211.24758	5426.6125
215.53334	6188.8125
219.81599	7060.2125
224.09553	8029.0125
228.37195	9131.6125
232.64527	10254.9125
236.91549	11394.7125
241.18261	12406.6125
245.44663	13232.3125
249.70755	13939.8125
253.96539	14541.9125
258.22014	15086.5125
262.4718	15588.9125
266.72039	15949.9125
270.96589	16183.1125
275.20832	16248.4125
279.44768	16152.6125
283.68397	16078.1125
287.91719	16023.5125
292.14735	16064.6125
296.37445	16297.2125
300.59849	16676.3125
304.81948	17222.4125
309.03742	17611.7125
313.25231	17567.1125
317.46415	16747.2125
321.67296	15488.6125
325.87872	14364.5125
330.08145	13811.9125
334.28114	13719.3125
338.47781	13870.3125
342.67145	14226.9125
346.86207	14813.9125
351.04966	15656.3125
355.23424	16615.6125
359.4158	17354.8125
363.59435	17651.6125
367.76989	17635.2125
371.94243	17523.6125
376.11196	17349.1125
380.27849	17182.3125
384.44203	16972.3125
388.60257	16796.6125
392.76012	16748.5125
396.91468	16977.9125
401.06626	17446.4125
405.21485	17842.2125
409.36047	17592.9125
413.50311	16784.0125
417.64277	15998.0125
421.77947	15615.9125
425.9132	15521.7125
430.04396	15534.7125
434.17176	15571.3125
438.2966	15758.5125
442.41849	16128.8125
446.53742	16708.0125
450.6534	17313.1125
454.76644	17594.8125
458.87653	17671.7125
462.98368	17558.0125
467.08789	17288.7125
471.18916	16951.3125
475.2875	16653.3125
479.38291	16409.3125
483.4754	16189.1125
487.56496	15921.0125
491.6516	15650.9125
495.73531	15510.0125
499.81612	15496.2125
503.89401	15597.1125
507.96899	15750.2125
512.04106	15794.3125
516.11023	15812.7125
520.1765	15779.1125
524.23987	15622.9125
528.30034	15319.7125
532.35792	14973.2125
536.41261	14575.8125
540.46441	14196.6125
544.51333	14068.6125
548.55936	14229.2125
552.60252	14739.2125
556.64279	15281.4125
560.6802	15647.8125
564.71473	16127.1125
568.7464	17049.4125
572.7752	17813.0125
576.80114	17505.0125
580.82422	16952.4125
584.84444	16725.8125
588.86181	16637.8125
592.87633	16737.9125
596.888	16912.8125
600.89682	17297.2125
604.9028	18925.3125
608.90594	23396.0125
612.90624	29098.2125
616.90371	27841.6125
620.89834	19594.6125
624.89015	15594.1125
628.87913	14862.9125
632.86528	14959.4125
636.84862	15077.9125
640.82913	14737.7125
644.80683	14001.7125
648.78172	13485.4125
652.75379	13499.0125
656.72306	14077.3125
660.68952	14829.2125
664.65319	14764.9125
668.61405	14060.7125
672.57211	13697.3125
676.52738	13634.7125
680.47986	13579.3125
684.42955	13439.8125
688.37646	13358.9125
692.32058	13430.6125
696.26192	13580.0125
700.20048	13912.3125
704.13626	14170.3125
708.06928	14223.9125
711.99952	14050.4125
715.927	13889.4125
719.85171	13850.7125
723.77365	13805.3125
727.69284	13560.2125
731.60928	13339.7125
735.52295	13311.4125
739.43388	13357.7125
743.34206	13479.5125
747.24749	13594.8125
751.15017	13806.7125
755.05012	14178.8125
758.94733	14937.7125
762.8418	16611.8125
766.73354	19536.8125
770.62254	22509.8125
774.50882	23596.2125
778.39237	22271.6125
782.27321	19354.1125
786.15132	16470.6125
790.02671	14716.4125
793.89938	13915.2125
797.76935	13548.8125
801.6366	13395.0125
805.50115	13288.3125
809.36299	13184.2125
813.22213	13081.6125
817.07857	13033.9125
820.93231	13015.3125
824.78336	13028.6125
828.63172	13132.4125
832.47738	13156.8125
836.32036	13172.3125
840.16066	13092.4125
843.99827	13004.8125
847.8332	12921.8125
851.66546	12864.1125
855.49504	12823.6125
859.32195	12772.5125
863.1462	12683.4125
866.96777	12596.3125
870.78668	12579.6125
874.60293	12567.7125
878.41652	12646.8125
882.22745	12704.2125
886.03573	12764.3125
889.84136	12785.3125
893.64433	12647.8125
897.44466	12623.8125
901.24235	12603.8125
905.0374	12561.8125
908.8298	12515.0125
912.61957	12533.7125
916.40671	12691.3125
920.19121	12919.7125
923.97308	13114.4125
927.75233	13268.1125
931.52895	13320.1125
935.30295	13057.1125
939.07433	12586.8125
942.84309	12202.1125
946.60924	11961.9125
950.37278	11826.9125
954.13371	11784.1125
957.89203	11734.9125
961.64774	11697.7125
965.40086	11679.4125
969.15137	11621.3125
972.89929	11582.5125
976.64461	11554.3125
980.38733	11573.1125
984.12747	11609.1125
987.86502	11688.2125
991.59999	11817.7125
995.33237	12001.4125
999.06217	12358.9125
1002.78939	12845.6125
1006.51404	13376.5125
1010.23611	13708.8125
1013.95561	13881.1125
1017.67255	13794.9125
1021.38692	13436.3125
1025.09872	13082.7125
1028.80796	12912.0125
1032.51465	12980.4125
1036.21877	13174.4125
1039.92035	13364.6125
1043.61937	13385.6125
1047.31584	13242.2125
1051.00976	13117.0125
1054.70114	13031.9125
1058.38998	13018.2125
1062.07627	13087.6125
1065.76003	13248.8125
1069.44126	13442.9125
1073.11995	13703.5125
1076.79611	13884.5125
1080.46974	14056.6125
1084.14085	14357.0125
1087.80943	14770.6125
1091.47549	15000.5125
1095.13903	14844.9125
1098.80005	14310.0125
1102.45857	13717.5125
1106.11456	13328.6125
1109.76805	13262.5125
1113.41903	13421.0125
1117.06751	13761.3125
1120.71348	14298.5125
1124.35696	14910.8125
1127.99793	15509.8125
1131.63641	15599.0125
1135.2724	15045.5125
1138.90589	14436.4125
1142.5369	14030.6125
1146.16542	13874.2125
1149.79145	13802.4125
1153.415	13885.4125
1157.03607	14098.9125
1160.65467	14513.3125
1164.27079	15219.9125
1167.88443	16236.1125
1171.49561	17862.9125
1175.10432	20385.9125
1178.71056	23586.1125
1182.31434	26096.3125
1185.91565	27059.2125
1189.51451	26766.1125
1193.11091	25548.9125
1196.70485	23690.9125
1200.29634	21943.7125
1203.88538	20455.5125
1207.47197	19012.7125
1211.05612	17849.5125
1214.63782	17280.3125
1218.21708	17166.4125
1221.79391	17326.7125
1225.36829	17482.5125
1228.94024	17529.4125
1232.50976	17516.2125
1236.07685	17403.0125
1239.6415	17174.1125
1243.20374	16960.6125
1246.76355	16803.6125
1250.32093	16942.3125
1253.8759	17318.7125
1257.42845	17924.7125
1260.97859	18676.2125
1264.52631	19437.0125
1268.07163	20217.3125
1271.61453	20961.8125
1275.15503	21594.8125
1278.69312	22060.4125
1282.22882	22432.4125
1285.76211	23078.2125
1289.29301	23984.4125
1292.82151	25070.5125
1296.34761	26162.7125
1299.87133	27597.8125
1303.39266	29681.9125
1306.9116	32668.2125
1310.42815	36400.5125
1313.94233	39330.8125
1317.45412	39903.0125
1320.96354	38697.2125
1324.47058	36665.7125
1327.97525	34669.6125
1331.47754	33055.2125
1334.97747	31947.5125
1338.47502	31365.9125
1341.97022	31105.5125
1345.46305	31001.7125
1348.95352	31292.1125
1352.44163	32139.6125
1355.92738	34036.8125
1359.41078	37630.8125
1362.89183	41769.4125
1366.37053	41870.8125
1369.84688	36879.3125
1373.32088	31050.2125
1376.79254	27218.1125
1380.26186	25398.9125
1383.72883	24556.3125
1387.19347	23948.0125
1390.65578	23317.8125
1394.11575	23016.9125
1397.57339	23077.9125
1401.0287	23584.5125
1404.48168	24163.4125
1407.93234	24461.5125
1411.38068	24298.4125
1414.82669	23599.9125
1418.27039	22487.1125
1421.71177	21341.8125
1425.15083	20380.2125
1428.58758	19791.0125
1432.02203	19665.6125
1435.45416	19866.7125
1438.88399	20140.9125
1442.31151	20348.0125
1445.73673	20649.3125
1449.15965	20976.7125
1452.58027	21132.4125
1455.9986	21265.6125
1459.41463	21371.1125
1462.82837	21722.4125
1466.23982	22138.8125
1469.64898	22531.1125
1473.05586	22674.5125
1476.46045	22702.7125
1479.86276	22756.5125
1483.26279	22821.4125
1486.66054	23145.7125
1490.05602	23577.8125
1493.44922	24279.1125
1496.84016	25237.1125
1500.22882	26827.7125
1503.61521	29086.9125
1506.99934	31827.9125
1510.38121	34815.9125
1513.76081	36906.8125
1517.13816	36370.3125
1520.51324	33226.4125
1523.88607	29511.5125
1527.25665	26760.1125
1530.62498	25215.3125
1533.99105	24241.7125
1537.35488	23635.0125
1540.71647	23228.1125
1544.07581	22769.3125
1547.4329	22306.6125
1550.78776	21904.9125
1554.14038	21630.9125
1557.49077	21713.5125
1560.83892	22041.5125
1564.18484	22524.4125
1567.52853	22952.3125
1570.86999	23273.7125
1574.20922	23642.3125
1577.54624	23711.8125
1580.88103	23092.1125
1584.2136	22165.4125
1587.54395	22004.0125
1590.87208	22902.6125
1594.19801	24560.0125
1597.52172	26381.0125
1600.84321	27088.5125
1604.16251	25932.5125
1607.47959	23576.9125
1610.79447	21117.8125
1614.10715	18861.1125
1617.41763	17101.3125
1620.7259	16020.5125
1624.03199	15460.2125
1627.33587	15467.1125
1630.63757	15998.1125
1633.93707	17089.4125
1637.23439	18896.6125
1640.52951	21405.6125
1643.82246	24460.3125
1647.11321	27379.1125
1650.40179	29070.2125
1653.68819	28153.7125
1656.97241	24392.7125
1660.25446	19963.0125
1663.53433	16547.2125
1666.81203	14394.5125
1670.08756	13141.6125
1673.36092	12405.3125
1676.63211	11900.5125
1679.90115	11577.8125
1683.16801	11349.2125
1686.43272	11167.5125
1689.69527	11061.9125
1692.95567	10956.9125
1696.2139	10917.2125
1699.46999	10879.9125
1702.72392	10801.5125
1705.97571	10803.9125
1709.22535	10756.9125
1712.47284	10759.4125
1715.71819	10761.7125
1718.96139	10741.6125
1722.20246	10715.2125
1725.44139	10689.1125
1728.67818	10619.3125
1731.91284	10477.5125
1735.14537	10387.6125
1738.37576	10332.3125
1741.60403	10264.9125
1744.83017	10233.6125
1748.05418	10187.2125
1751.27607	10147.0125
1754.49584	10146.0125
1757.71349	10147.9125
1760.92903	10118.6125
1764.14244	10090.3125
1767.35375	10094.3125
1770.56294	10071.8125
1773.77002	10030.7125
1776.97499	9988.1125
1780.17785	9940.2125
1783.37861	9926.0125
1786.57727	9910.2125
1789.77382	9879.5125
1792.96828	9880.8125
1796.16064	9858.7125
1799.3509	9848.9125
1802.53907	9836.7125
1805.72514	9824.5125
1808.90913	9769.4125
1812.09102	9753.7125
1815.27083	9745.4125
1818.44856	9743.2125
1821.6242	9713.0125
1824.79776	9688.9125
1827.96924	9672.8125
1831.13864	9674.1125
1834.30597	9667.4125
1837.47122	9649.9125
1840.6344	9660.5125
1843.7955	9671.2125
1846.95454	9660.6125
1850.11151	9670.7125
1853.26642	9649.5125
1856.41926	9666.2125
1859.57004	9719.5125
1862.71876	9705.8125
1865.86542	9702.0125
1869.01003	9712.8125
1872.15258	9735.7125
1875.29308	9770.3125
1878.43152	9780.3125
1881.56792	9785.9125
1884.70227	9812.0125
1887.83457	9813.5125
1890.96482	9838.9125
1894.09304	9870.1125
1897.21921	9898.4125
1900.34335	9914.3125
1903.46544	9926.2125
1906.58551	9971.0125
1909.70353	9995.9125
1912.81953	9996.0125
1915.93349	10003.2125
1919.04543	9995.6125
1922.15534	9987.8125
1925.26322	9948.1125
1928.36908	9879.9125
1931.47292	9810.7125
1934.57473	9723.2125
1937.67453	9630.2125
1940.77232	9579.8125
1943.86808	9493.3125
1946.96184	9413.8125
1950.05358	9355.2125
1953.14331	9316.4125
1956.23103	9241.9125
1959.31675	9221.0125
1962.40046	9159.5125
1965.48217	9130.7125
1968.56188	9090.9125
1971.63959	9072.4125
1974.7153	9036.3125
1977.78901	9002.4125
1980.86073	8958.2125
1983.93046	8943.0125
1986.99819	8893.7125
1990.06394	8857.1125
1993.1277	8842.5125
1996.18947	8801.8125
1999.24925	8792.9125
2002.30706	8747.4125
2005.36288	8707.2125
2008.41672	8698.0125
2011.46859	8669.5125
2014.51848	8635.7125
2017.56639	8602.4125
2020.61233	8586.4125
2023.6563	8567.8125
2026.6983	8544.1125
2029.73833	8530.9125
2032.7764	8497.2125
2035.8125	8500.1125
2038.84664	8500.7125
2041.87881	8464.9125
2044.90903	8449.9125
2047.93729	8449.0125
2050.96359	8431.6125
2053.98794	8408.0125
2057.01034	8415.8125
2060.03078	8386.1125
2063.04927	8358.8125
2066.06582	8392.1125
2069.08042	8365.1125
2072.09307	8361.6125
2075.10378	8351.4125
2078.11255	8343.0125
2081.11938	8368.0125
2084.12426	8343.2125
2087.12722	8360.5125
2090.12824	8331.7125
2093.12732	8340.7125
2096.12447	8336.9125
2099.11969	8376.1125
2102.11299	8354.9125
2105.10435	8352.0125
2108.09379	8319.4125
2111.08131	8328.5125
2114.0669	8355.5125
2117.05057	8341.8125
2120.03233	8352.0125
2123.01216	8337.9125
2125.99008	8344.6125
2128.96609	8344.8125
2131.94018	8376.8125
2134.91236	8362.6125
2137.88263	8390.6125
2140.851	8378.7125
2143.81746	8357.6125
2146.78201	8362.5125
2149.74466	8364.5125
2152.7054	8350.9125
2155.66425	8335.4125
2158.6212	8339.6125
2161.57625	8355.9125
2164.52941	8357.8125
2167.48067	8342.0125
2170.43004	8339.2125
2173.37752	8351.8125
2176.32311	8333.3125
2179.26681	8345.6125
2182.20863	8346.9125
2185.14856	8375.9125
2188.08661	8339.3125
2191.02278	8349.3125
2193.95707	8350.1125
2196.88948	8304.8125
2199.82001	8311.6125
2202.74867	8309.0125
2205.67545	8315.2125
2208.60037	8296.4125
2211.52341	8302.4125
2214.44458	8290.9125
2217.36388	8255.2125
2220.28132	8242.4125
2223.1969	8213.8125
2226.11061	8198.7125
2229.02246	8190.0125
2231.93245	8176.7125
2234.84058	8169.3125
2237.74686	8165.3125
2240.65128	8142.3125
2243.55385	8141.9125
2246.45456	8103.5125
2249.35343	8128.6125
2252.25044	8099.3125
2255.14561	8093.9125
2258.03893	8078.4125
2260.93041	8081.7125
2263.82004	8072.9125
2266.70783	8059.2125
2269.59378	8058.4125
2272.4779	8028.3125
2275.36017	7990.3125
2278.24061	7993.5125
2281.11922	7938.2125
2283.996	7957.5125
2286.87094	7942.9125
2289.74405	7920.1125
2292.61534	7894.2125
2295.4848	7900.9125
2298.35243	7910.9125
2301.21824	7868.0125
2304.08223	7857.9125
2306.94439	7876.8125
2309.80474	7883.3125
2312.66327	7884.2125
2315.51999	7877.8125
2318.37489	7877.8125
2321.22797	7869.2125
2324.07925	7859.3125
2326.92871	7835.2125
2329.77637	7871.4125
2332.62222	7845.5125
2335.46626	7837.3125
2338.3085	7823.9125
2341.14893	7833.1125
2343.98756	7839.1125
2346.8244	7840.2125
2349.65943	7856.5125
2352.49267	7825.2125
2355.32411	7854.6125
2358.15376	7849.3125
2360.98161	7860.1125
2363.80768	7880.6125
2366.63195	7881.8125
2369.45444	7878.7125
2372.27514	7896.5125
2375.09405	7854.0125
2377.91118	7852.7125
2380.72652	7813.3125
2383.54009	7787.9125
2386.35187	7761.8125
2389.16188	7731.5125
2391.97011	7711.7125
2394.77657	7669.5125
2397.58125	7679.3125
2400.38416	7659.4125
2403.18529	7629.2125
2405.98466	7631.1125
2408.78226	7601.4125
2411.57809	7596.8125
2414.37216	7590.0125
2417.16446	7592.4125
2419.955	7578.6125
2422.74378	7582.5125
2425.5308	7549.2125
2428.31606	7564.0125
2431.09956	7570.9125
2433.88131	7528.4125
2436.6613	7549.3125
2439.43954	7558.7125
2442.21603	7559.6125
2444.99077	7549.8125
2447.76377	7570.5125
2450.53501	7579.1125
2453.30451	7571.1125
2456.07226	7549.6125
2458.83827	7565.5125
2461.60254	7559.9125
2464.36507	7591.4125
2467.12586	7553.7125
2469.88492	7553.2125
2472.64224	7595.0125
2475.39782	7570.0125
2478.15167	7575.5125
2480.90379	7585.1125
2483.65417	7589.5125
2486.40283	7601.8125
2489.14976	7623.9125
2491.89497	7611.2125
2494.63845	7640.8125
2497.3802	7641.9125
2500.12024	7617.7125
2502.85855	7631.3125
2505.59514	7641.3125
2508.33002	7617.8125
2511.06318	7558.1125
2513.79462	7569.0125
2516.52435	7538.1125
2519.25237	7527.7125
2521.97867	7495.6125
2524.70327	7491.1125
2527.42616	7481.9125
2530.14734	7466.8125
2532.86681	7438.7125
2535.58458	7469.4125
2538.30065	7423.4125
2541.01501	7431.2125
2543.72768	7450.4125
2546.43864	7420.2125
2549.14791	7431.9125
2551.85548	7424.3125
2554.56136	7423.0125
2557.26554	7414.9125
2559.96803	7425.3125
2562.66883	7420.3125
2565.36794	7402.6125
2568.06536	7417.3125
2570.7611	7393.4125
2573.45514	7377.6125
2576.14751	7365.2125
2578.83819	7350.4125
2581.52719	7392.1125
2584.21451	7383.8125
2586.90015	7362.3125
2589.58411	7363.7125
2592.2664	7357.0125
2594.94701	7340.7125
2597.62594	7330.8125
2600.30321	7325.0125
2602.9788	7331.5125
2605.65273	7335.5125
2608.32498	7354.7125
2610.99557	7326.1125
2613.66449	7318.7125
2616.33175	7330.5125
2618.99734	7328.9125
2621.66128	7334.9125
2624.32355	7344.0125
2626.98416	7335.1125
2629.64311	7341.1125
2632.30041	7315.7125
2634.95605	7313.1125
2637.61004	7311.8125
2640.26238	7296.5125
2642.91306	7298.2125
2645.56209	7281.4125
2648.20948	7260.1125
2650.85521	7271.2125
2653.4993	7279.9125
2656.14175	7287.0125
2658.78255	7301.9125
2661.42171	7270.9125
2664.05923	7280.8125
2666.6951	7292.3125
2669.32934	7307.4125
2671.96194	7323.7125
2674.59291	7324.5125
2677.22224	7316.5125
2679.84993	7328.5125
2682.476	7327.0125
2685.10043	7318.8125
2687.72324	7314.3125
2690.34441	7302.3125
2692.96396	7297.1125
2695.58188	7314.8125
2698.19818	7305.1125
2700.81285	7313.3125
2703.4259	7309.4125
2706.03733	7340.3125
2708.64714	7330.6125
2711.25533	7334.0125
2713.86191	7338.0125
2716.46687	7366.7125
2719.07021	7351.9125
2721.67194	7385.3125
2724.27206	7368.3125
2726.87057	7360.4125
2729.46747	7348.0125
2732.06276	7375.1125
2734.65644	7349.3125
2737.24852	7356.7125
2739.83899	7357.4125
2742.42786	7346.0125
2745.01513	7334.5125
2747.60079	7333.1125
2750.18486	7339.0125
2752.76733	7340.4125
2755.3482	7336.6125
2757.92747	7335.7125
2760.50515	7338.6125
2763.08123	7319.6125
2765.65573	7322.6125
2768.22863	7318.1125
2770.79994	7311.8125
2773.36967	7319.4125
2775.9378	7322.4125
2778.50435	7324.1125
2781.06932	7317.3125
2783.6327	7350.3125
2786.1945	7333.9125
2788.75471	7322.6125
2791.31335	7314.3125
2793.87041	7323.3125
2796.42589	7298.0125
2798.97979	7308.1125
2801.53212	7307.6125
2804.08288	7279.8125
2806.63206	7294.0125
2809.17967	7310.5125
2811.72571	7296.0125
2814.27018	7322.0125
2816.81308	7318.0125
2819.35442	7329.2125
2821.89419	7332.3125
2824.43239	7355.4125
2826.96904	7338.0125
2829.50412	7347.3125
2832.03763	7332.7125
2834.56959	7334.0125
2837.1	7356.0125
2839.62884	7384.9125
2842.15613	7430.2125
2844.68186	7497.0125
2847.20604	7582.0125
2849.72867	7636.6125
2852.24974	7682.0125
2854.76927	7679.8125
2857.28724	7651.0125
2859.80367	7631.9125
2862.31855	7600.9125
2864.83189	7590.7125
2867.34368	7593.6125
2869.85393	7573.2125
2872.36264	7575.6125
2874.8698	7580.7125
2877.37543	7569.2125
2879.87952	7569.2125
2882.38207	7579.2125
2884.88308	7570.1125
2887.38256	7565.6125
2889.88051	7568.7125
2892.37692	7568.3125
2894.8718	7539.2125
2897.36515	7547.1125
2899.85698	7569.9125
2902.34727	7585.4125
2904.83604	7580.2125
2907.32328	7569.2125
2909.809	7562.4125
2912.29319	7571.6125
2914.77587	7550.0125
2917.25702	7567.2125
2919.73665	7552.0125
2922.21476	7540.2125
2924.69136	7544.5125
2927.16644	7524.4125
2929.64	7518.0125
2932.11205	7473.4125
2934.58258	7443.9125
2937.05161	7444.5125
2939.51912	7399.8125
2941.98513	7378.6125
2944.44962	7309.1125
2946.91261	7229.9125
2949.37409	7207.8125
2951.83407	7170.0125
2954.29254	7162.0125
2956.74951	7099.8125
2959.20498	7084.9125
2961.65895	7080.4125
2964.11142	7035.6125
2966.56239	7009.9125
2969.01186	7018.9125
2971.45984	6975.5125
2973.90632	6943.0125
2976.35131	6907.5125
2978.7948	6894.1125
2981.23681	6869.0125
2983.67732	6840.8125
2986.11635	6812.8125
2988.55388	6803.1125
2990.98993	6782.5125
2993.4245	6758.4125
2995.85758	6737.0125
2998.28917	6716.6125
3000.71928	6725.9125
3003.14791	6697.2125
3005.57506	6701.6125
3008.00073	6677.1125
3010.42493	6655.9125
3012.84764	6647.9125
3015.26888	6637.2125
3017.68865	6626.8125
3020.10694	6626.5125
3022.52376	6595.0125
3024.9391	6601.1125
3027.35298	6588.9125
3029.76539	6605.5125
3032.17632	6573.0125
3034.5858	6543.9125
3036.9938	6523.0125
3039.40034	6520.9125
3041.80542	6501.8125
3044.20903	6489.1125
3046.61118	6519.4125
3049.01187	6488.5125
3051.4111	6472.8125
3053.80888	6465.1125
3056.20519	6460.2125
3058.60005	6451.9125
3060.99345	6423.7125
3063.3854	6413.0125
3065.7759	6382.9125
3068.16494	6378.6125
3070.55254	6371.4125
3072.93868	6353.3125
3075.32338	6330.2125
3077.70662	6314.8125
