Data from AgNPs_FTO_APTES_UA_2uM_CRN_0uM_R6G_10uM_NaF_0.1M_Addition_RamanShift__13__10-19-34-928.txt Node

Date: Wed Feb 02 10:19:34 GMT 2022
User: TCL
Spectrometer: QEP01345
Trigger mode: 4
Integration Time (sec): 7.000000E0
Scans to average: 10
Electric dark correction enabled: true
Nonlinearity correction enabled: false
Boxcar width: 0
XAxis mode: Raman Shifts
Number of Pixels in Spectrum: 1044
>>>>>Begin Spectral Data<<<<<
46.04893	-0.025
50.45542	0.375
54.85868	0.275
59.25871	0.375
63.6555	25.175
68.04907	28.075
72.43941	26.275
76.82654	34.375
81.21044	32.775
85.59113	37.375
89.96862	40.875
94.34289	38.875
98.71396	40.775
103.08183	44.575
107.4465	41.375
111.80798	44.075
116.16626	42.075
120.52136	43.475
124.87327	45.775
129.222	45.475
133.56755	47.575
137.90993	49.475
142.24913	57.275
146.58517	60.475
150.91804	71.375
155.24774	82.775
159.57429	98.575
163.89768	122.875
168.21792	157.075
172.53501	212.975
176.84895	284.275
181.15975	399.075
185.46741	556.275
189.77193	765.675
194.07331	1038.675
198.37157	1350.275
202.6667	1670.075
206.9587	1996.875
211.24758	2323.575
215.53334	2647.275
219.81599	3000.175
224.09553	3398.075
228.37195	3828.975
232.64527	4268.975
236.91549	4742.175
241.18261	5179.175
245.44663	5546.875
249.70755	5851.175
253.96539	6062.775
258.22014	6275.175
262.4718	6420.175
266.72039	6503.875
270.96589	6533.175
275.20832	6483.975
279.44768	6382.275
283.68397	6202.475
287.91719	6056.475
292.14735	5975.575
296.37445	5976.975
300.59849	6076.275
304.81948	6219.075
309.03742	6347.375
313.25231	6377.175
317.46415	6231.475
321.67296	5986.375
325.87872	5744.375
330.08145	5623.575
334.28114	5589.675
338.47781	5613.275
342.67145	5701.175
346.86207	5798.975
351.04966	5969.275
355.23424	6181.875
359.4158	6367.075
363.59435	6434.375
367.76989	6472.175
371.94243	6454.575
376.11196	6470.875
380.27849	6465.975
384.44203	6421.975
388.60257	6388.175
392.76012	6379.475
396.91468	6375.775
401.06626	6461.875
405.21485	6512.675
409.36047	6419.875
413.50311	6181.375
417.64277	5954.475
421.77947	5811.475
425.9132	5768.575
430.04396	5774.375
434.17176	5794.075
438.2966	5861.975
442.41849	5976.675
446.53742	6126.375
450.6534	6271.075
454.76644	6344.075
458.87653	6292.675
462.98368	6182.875
467.08789	6113.475
471.18916	6012.575
475.2875	5907.675
479.38291	5808.375
483.4754	5766.475
487.56496	5722.275
491.6516	5721.075
495.73531	5714.375
499.81612	5764.775
503.89401	5805.275
507.96899	5886.575
512.04106	5983.175
516.11023	6041.275
520.1765	6095.775
524.23987	6122.975
528.30034	6060.975
532.35792	5993.575
536.41261	5905.475
540.46441	5778.975
544.51333	5698.775
548.55936	5686.275
552.60252	5758.275
556.64279	5909.275
560.6802	5985.375
564.71473	6003.575
568.7464	6081.075
572.7752	6169.175
576.80114	6061.075
580.82422	5921.175
584.84444	5897.075
588.86181	6015.075
592.87633	6286.975
596.888	6527.175
600.89682	6536.975
604.9028	6756.775
608.90594	7874.175
612.90624	9693.475
616.90371	9746.875
620.89834	7466.775
624.89015	6106.475
628.87913	5785.175
632.86528	5773.975
636.84862	5855.975
640.82913	5831.775
644.80683	5696.875
648.78172	5555.375
652.75379	5585.675
656.72306	5702.475
660.68952	5916.675
664.65319	5907.975
668.61405	5675.575
672.57211	5580.675
676.52738	5639.275
680.47986	5663.675
684.42955	5653.575
688.37646	5616.675
692.32058	5590.875
696.26192	5566.075
700.20048	5603.475
704.13626	5636.175
708.06928	5651.375
711.99952	5644.975
715.927	5647.075
719.85171	5667.575
723.77365	5683.375
727.69284	5656.675
731.60928	5615.075
735.52295	5616.875
739.43388	5625.975
743.34206	5623.075
747.24749	5634.875
751.15017	5642.775
755.05012	5669.175
758.94733	5789.175
762.8418	6156.575
766.73354	6891.075
770.62254	7776.775
774.50882	8309.875
778.39237	8023.375
782.27321	7212.675
786.15132	6396.275
790.02671	5881.475
793.89938	5677.175
797.76935	5563.575
801.6366	5518.775
805.50115	5485.975
809.36299	5458.775
813.22213	5425.075
817.07857	5413.275
820.93231	5387.575
824.78336	5365.075
828.63172	5369.375
832.47738	5379.975
836.32036	5349.075
840.16066	5344.275
843.99827	5342.475
847.8332	5321.075
851.66546	5333.475
855.49504	5334.975
859.32195	5335.475
863.1462	5323.475
866.96777	5293.975
870.78668	5318.575
874.60293	5337.175
878.41652	5334.775
882.22745	5381.175
886.03573	5420.875
889.84136	5427.975
893.64433	5450.975
897.44466	5451.575
901.24235	5457.275
905.0374	5492.575
908.8298	5507.175
912.61957	5572.875
916.40671	5654.975
920.19121	5768.275
923.97308	5892.175
927.75233	5982.775
931.52895	6017.975
935.30295	5938.275
939.07433	5765.575
942.84309	5599.575
946.60924	5460.575
950.37278	5374.175
954.13371	5296.575
957.89203	5222.275
961.64774	5150.175
965.40086	5096.075
969.15137	5058.175
972.89929	5037.275
976.64461	4990.575
980.38733	4952.575
984.12747	4930.375
987.86502	4944.775
991.59999	4976.075
995.33237	4969.075
999.06217	5043.175
1002.78939	5129.775
1006.51404	5204.975
1010.23611	5250.075
1013.95561	5330.975
1017.67255	5300.775
1021.38692	5249.875
1025.09872	5178.075
1028.80796	5092.175
1032.51465	5054.575
1036.21877	5065.275
1039.92035	5098.775
1043.61937	5127.475
1047.31584	5187.075
1051.00976	5225.175
1054.70114	5265.475
1058.38998	5280.175
1062.07627	5289.275
1065.76003	5285.875
1069.44126	5242.875
1073.11995	5227.875
1076.79611	5245.675
1080.46974	5282.975
1084.14085	5346.675
1087.80943	5451.875
1091.47549	5497.275
1095.13903	5421.775
1098.80005	5293.675
1102.45857	5184.975
1106.11456	5121.975
1109.76805	5138.575
1113.41903	5196.075
1117.06751	5313.075
1120.71348	5474.975
1124.35696	5637.675
1127.99793	5851.075
1131.63641	5909.175
1135.2724	5682.475
1138.90589	5401.875
1142.5369	5234.575
1146.16542	5153.875
1149.79145	5054.375
1153.415	5031.275
1157.03607	5032.975
1160.65467	5073.975
1164.27079	5201.675
1167.88443	5440.675
1171.49561	5847.175
1175.10432	6456.575
1178.71056	7331.475
1182.31434	8099.575
1185.91565	8342.075
1189.51451	8057.975
1193.11091	7556.075
1196.70485	7004.475
1200.29634	6585.875
1203.88538	6211.575
1207.47197	5839.875
1211.05612	5521.875
1214.63782	5336.875
1218.21708	5312.575
1221.79391	5380.475
1225.36829	5475.175
1228.94024	5545.875
1232.50976	5479.975
1236.07685	5404.875
1239.6415	5316.875
1243.20374	5276.475
1246.76355	5263.275
1250.32093	5280.875
1253.8759	5352.975
1257.42845	5419.375
1260.97859	5569.875
1264.52631	5754.175
1268.07163	5921.875
1271.61453	6074.075
1275.15503	6196.875
1278.69312	6239.075
1282.22882	6291.075
1285.76211	6401.075
1289.29301	6638.675
1292.82151	6925.775
1296.34761	7200.275
1299.87133	7544.775
1303.39266	8027.075
1306.9116	8747.275
1310.42815	9680.775
1313.94233	10292.375
1317.45412	10202.875
1320.96354	9439.375
1324.47058	8561.375
1327.97525	7773.675
1331.47754	7261.575
1334.97747	6983.475
1338.47502	6917.475
1341.97022	6991.275
1345.46305	7218.975
1348.95352	7683.075
1352.44163	8440.975
1355.92738	9467.075
1359.41078	10919.075
1362.89183	12475.775
1366.37053	12765.275
1369.84688	11111.675
1373.32088	9047.175
1376.79254	7680.975
1380.26186	7053.175
1383.72883	6803.275
1387.19347	6652.275
1390.65578	6475.875
1394.11575	6345.875
1397.57339	6278.475
1401.0287	6229.575
1404.48168	6226.375
1407.93234	6144.075
1411.38068	6065.375
1414.82669	5970.875
1418.27039	5944.375
1421.71177	5847.975
1425.15083	5775.975
1428.58758	5682.375
1432.02203	5651.375
1435.45416	5743.375
1438.88399	5808.875
1442.31151	5807.375
1445.73673	5777.675
1449.15965	5795.575
1452.58027	5768.275
1455.9986	5672.975
1459.41463	5595.675
1462.82837	5631.975
1466.23982	5676.275
1469.64898	5793.975
1473.05586	5847.675
1476.46045	5917.975
1479.86276	5955.075
1483.26279	6037.675
1486.66054	6103.775
1490.05602	6258.175
1493.44922	6472.475
1496.84016	6796.875
1500.22882	7408.575
1503.61521	8274.875
1506.99934	9351.375
1510.38121	10409.075
1513.76081	10938.575
1517.13816	10482.975
1520.51324	9235.775
1523.88607	7927.675
1527.25665	7030.375
1530.62498	6576.475
1533.99105	6300.675
1537.35488	6102.775
1540.71647	5927.375
1544.07581	5806.575
1547.4329	5730.275
1550.78776	5705.375
1554.14038	5707.375
1557.49077	5769.975
1560.83892	5874.175
1564.18484	6002.275
1567.52853	6181.975
1570.86999	6368.575
1574.20922	6522.175
1577.54624	6540.975
1580.88103	6277.575
1584.2136	5833.275
1587.54395	5563.975
1590.87208	5462.175
1594.19801	5663.675
1597.52172	6013.475
1600.84321	6301.575
1604.16251	6155.275
1607.47959	5814.675
1610.79447	5461.675
1614.10715	5119.875
1617.41763	4841.475
1620.7259	4658.075
1624.03199	4579.575
1627.33587	4559.075
1630.63757	4621.475
1633.93707	4757.675
1637.23439	5071.975
1640.52951	5560.075
1643.82246	6322.175
1647.11321	7233.675
1650.40179	7859.075
1653.68819	7699.075
1656.97241	6730.675
1660.25446	5598.775
1663.53433	4779.175
1666.81203	4304.675
1670.08756	4023.075
1673.36092	3842.775
1676.63211	3731.175
1679.90115	3653.475
1683.16801	3570.275
1686.43272	3521.275
1689.69527	3480.475
1692.95567	3426.675
1696.2139	3399.875
1699.46999	3376.775
1702.72392	3344.275
1705.97571	3355.075
1709.22535	3330.375
1712.47284	3327.575
1715.71819	3317.475
1718.96139	3296.375
1722.20246	3284.975
1725.44139	3264.575
1728.67818	3245.175
1731.91284	3197.275
1735.14537	3188.575
1738.37576	3170.375
1741.60403	3141.975
1744.83017	3135.975
1748.05418	3128.975
1751.27607	3132.475
1754.49584	3108.375
1757.71349	3094.475
1760.92903	3081.375
1764.14244	3065.175
1767.35375	3042.775
1770.56294	3037.075
1773.77002	2996.775
1776.97499	2996.075
1780.17785	2982.875
1783.37861	2983.375
1786.57727	2956.275
1789.77382	2960.975
1792.96828	2948.175
1796.16064	2932.375
1799.3509	2923.675
1802.53907	2902.275
1805.72514	2902.775
1808.90913	2878.975
1812.09102	2873.875
1815.27083	2861.275
1818.44856	2862.775
1821.6242	2850.975
1824.79776	2855.475
1827.96924	2823.775
1831.13864	2824.075
1834.30597	2821.675
1837.47122	2819.775
1840.6344	2808.375
1843.7955	2820.075
1846.95454	2812.975
1850.11151	2796.575
1853.26642	2794.175
1856.41926	2786.075
1859.57004	2783.275
1862.71876	2773.475
1865.86542	2780.975
1869.01003	2771.875
1872.15258	2759.275
1875.29308	2752.875
1878.43152	2748.175
1881.56792	2752.375
1884.70227	2743.375
1887.83457	2753.975
1890.96482	2726.575
1894.09304	2724.975
1897.21921	2719.275
1900.34335	2720.775
1903.46544	2723.175
1906.58551	2722.975
1909.70353	2709.575
1912.81953	2703.175
1915.93349	2695.775
1919.04543	2680.875
1922.15534	2678.575
1925.26322	2666.775
1928.36908	2664.275
1931.47292	2654.075
1934.57473	2636.975
1937.67453	2616.975
1940.77232	2618.975
1943.86808	2604.175
1946.96184	2598.075
1950.05358	2590.475
1953.14331	2578.475
1956.23103	2564.275
1959.31675	2550.775
1962.40046	2550.175
1965.48217	2548.775
1968.56188	2530.675
1971.63959	2527.475
1974.7153	2506.075
1977.78901	2505.975
1980.86073	2496.075
1983.93046	2493.175
1986.99819	2477.675
1990.06394	2480.175
1993.1277	2465.675
1996.18947	2446.375
1999.24925	2450.275
2002.30706	2430.075
2005.36288	2412.675
2008.41672	2405.375
2011.46859	2394.175
2014.51848	2394.975
2017.56639	2366.675
2020.61233	2369.475
2023.6563	2351.875
2026.6983	2369.675
2029.73833	2348.475
2032.7764	2341.775
2035.8125	2338.675
2038.84664	2326.475
2041.87881	2325.375
2044.90903	2314.875
2047.93729	2317.075
2050.96359	2313.475
2053.98794	2299.175
2057.01034	2290.575
2060.03078	2297.275
2063.04927	2302.875
2066.06582	2287.475
2069.08042	2284.875
2072.09307	2287.075
2075.10378	2285.175
2078.11255	2277.375
2081.11938	2283.975
2084.12426	2287.075
2087.12722	2275.275
2090.12824	2279.975
2093.12732	2276.875
2096.12447	2272.475
2099.11969	2267.175
2102.11299	2276.675
2105.10435	2277.575
2108.09379	2280.675
2111.08131	2282.175
2114.0669	2267.275
2117.05057	2278.775
2120.03233	2269.375
2123.01216	2269.575
2125.99008	2261.175
2128.96609	2264.675
2131.94018	2259.975
2134.91236	2260.775
2137.88263	2257.475
2140.851	2253.575
2143.81746	2248.075
2146.78201	2258.875
2149.74466	2241.975
2152.7054	2241.575
2155.66425	2228.275
2158.6212	2232.375
2161.57625	2239.375
2164.52941	2229.475
2167.48067	2219.475
2170.43004	2230.275
2173.37752	2223.875
2176.32311	2220.775
2179.26681	2214.475
2182.20863	2221.275
2185.14856	2221.875
2188.08661	2209.675
2191.02278	2204.775
2193.95707	2208.675
2196.88948	2204.775
2199.82001	2205.275
2202.74867	2208.975
2205.67545	2201.175
2208.60037	2191.475
2211.52341	2181.075
2214.44458	2185.375
2217.36388	2176.575
2220.28132	2178.775
2223.1969	2153.775
2226.11061	2139.875
2229.02246	2141.175
2231.93245	2136.575
2234.84058	2140.375
2237.74686	2134.675
2240.65128	2125.675
2243.55385	2120.275
2246.45456	2117.375
2249.35343	2109.475
2252.25044	2105.975
2255.14561	2110.975
2258.03893	2096.275
2260.93041	2090.475
2263.82004	2088.075
2266.70783	2095.975
2269.59378	2080.575
2272.4779	2074.175
2275.36017	2060.575
2278.24061	2059.575
2281.11922	2054.375
2283.996	2049.275
2286.87094	2051.675
2289.74405	2033.775
2292.61534	2027.475
2295.4848	2027.175
2298.35243	2023.375
2301.21824	2019.475
2304.08223	2012.675
2306.94439	2014.475
2309.80474	2011.675
2312.66327	2002.775
2315.51999	2002.575
2318.37489	1996.875
2321.22797	1991.075
2324.07925	1985.375
2326.92871	1980.275
2329.77637	1992.675
2332.62222	1979.975
2335.46626	1969.975
2338.3085	1967.475
2341.14893	1962.575
2343.98756	1958.175
2346.8244	1966.575
2349.65943	1974.475
2352.49267	1959.975
2355.32411	1961.675
2358.15376	1961.075
2360.98161	1963.175
2363.80768	1961.175
2366.63195	1961.975
2369.45444	1979.975
2372.27514	1973.475
2375.09405	1967.875
2377.91118	1951.075
2380.72652	1951.275
2383.54009	1940.175
2386.35187	1936.675
2389.16188	1918.975
2391.97011	1907.475
2394.77657	1905.475
2397.58125	1903.875
2400.38416	1901.675
2403.18529	1882.475
2405.98466	1888.875
2408.78226	1879.475
2411.57809	1878.275
2414.37216	1870.775
2417.16446	1873.475
2419.955	1860.375
2422.74378	1860.075
2425.5308	1862.675
2428.31606	1856.475
2431.09956	1865.675
2433.88131	1851.575
2436.6613	1849.575
2439.43954	1848.275
2442.21603	1848.275
2444.99077	1855.375
2447.76377	1839.175
2450.53501	1847.175
2453.30451	1848.975
2456.07226	1838.375
2458.83827	1839.075
2461.60254	1843.675
2464.36507	1831.675
2467.12586	1832.175
2469.88492	1823.275
2472.64224	1831.175
2475.39782	1830.175
2478.15167	1821.175
2480.90379	1818.475
2483.65417	1831.575
2486.40283	1822.075
2489.14976	1836.875
2491.89497	1834.475
2494.63845	1829.775
2497.3802	1820.175
2500.12024	1820.475
2502.85855	1826.175
2505.59514	1813.875
2508.33002	1814.775
2511.06318	1804.475
2513.79462	1793.175
2516.52435	1782.275
2519.25237	1774.375
2521.97867	1774.875
2524.70327	1763.375
2527.42616	1754.775
2530.14734	1749.675
2532.86681	1744.575
2535.58458	1743.175
2538.30065	1737.075
2541.01501	1737.875
2543.72768	1742.475
2546.43864	1727.375
2549.14791	1731.075
2551.85548	1725.975
2554.56136	1721.475
2557.26554	1721.575
2559.96803	1713.575
2562.66883	1714.775
2565.36794	1713.175
2568.06536	1718.275
2570.7611	1722.275
2573.45514	1705.875
2576.14751	1708.175
2578.83819	1690.975
2581.52719	1689.675
2584.21451	1690.075
2586.90015	1684.575
2589.58411	1670.575
2592.2664	1676.475
2594.94701	1675.675
2597.62594	1675.475
2600.30321	1662.375
2602.9788	1653.875
2605.65273	1656.275
2608.32498	1665.275
2610.99557	1659.375
2613.66449	1653.575
2616.33175	1647.775
2618.99734	1646.775
2621.66128	1651.975
2624.32355	1649.475
2626.98416	1646.575
2629.64311	1641.575
2632.30041	1640.675
2634.95605	1637.075
2637.61004	1628.275
2640.26238	1624.975
2642.91306	1631.075
2645.56209	1623.875
2648.20948	1616.975
2650.85521	1622.975
2653.4993	1623.475
2656.14175	1620.475
2658.78255	1622.875
2661.42171	1626.775
2664.05923	1619.575
2666.6951	1616.975
2669.32934	1624.075
2671.96194	1632.675
2674.59291	1631.075
2677.22224	1625.375
2679.84993	1635.875
2682.476	1633.475
2685.10043	1629.075
2687.72324	1630.875
2690.34441	1626.575
2692.96396	1621.475
2695.58188	1623.375
2698.19818	1624.175
2700.81285	1624.775
2703.4259	1612.875
2706.03733	1600.975
2708.64714	1625.975
2711.25533	1626.175
2713.86191	1632.675
2716.46687	1631.075
2719.07021	1634.875
2721.67194	1641.375
2724.27206	1644.075
2726.87057	1643.675
2729.46747	1641.675
2732.06276	1646.575
2734.65644	1646.175
2737.24852	1629.475
2739.83899	1644.175
2742.42786	1647.275
2745.01513	1634.075
2747.60079	1639.475
2750.18486	1635.175
2752.76733	1632.075
2755.3482	1638.375
2757.92747	1646.175
2760.50515	1642.775
2763.08123	1644.175
2765.65573	1631.275
2768.22863	1639.975
2770.79994	1629.675
2773.36967	1636.875
2775.9378	1636.375
2778.50435	1633.975
2781.06932	1639.875
2783.6327	1633.275
2786.1945	1637.375
2788.75471	1635.675
2791.31335	1637.675
2793.87041	1632.275
2796.42589	1623.875
2798.97979	1639.575
2801.53212	1633.875
2804.08288	1630.175
2806.63206	1620.775
2809.17967	1631.175
2811.72571	1632.475
2814.27018	1625.675
2816.81308	1632.475
2819.35442	1630.175
2821.89419	1629.475
2824.43239	1636.475
2826.96904	1631.375
2829.50412	1634.075
2832.03763	1629.975
2834.56959	1638.975
2837.1	1642.475
2839.62884	1666.875
2842.15613	1694.375
2844.68186	1736.675
2847.20604	1773.275
2849.72867	1799.275
2852.24974	1830.075
2854.76927	1827.575
2857.28724	1833.075
2859.80367	1847.875
2862.31855	1868.075
2864.83189	1862.575
2867.34368	1882.975
2869.85393	1899.675
2872.36264	1900.175
2874.8698	1926.675
2877.37543	1929.275
2879.87952	1944.275
2882.38207	1958.675
2884.88308	1959.875
2887.38256	1965.275
2889.88051	1974.875
2892.37692	1971.775
2894.8718	1975.775
2897.36515	1992.475
2899.85698	1987.175
2902.34727	2000.075
2904.83604	2001.375
2907.32328	2017.675
2909.809	2010.475
2912.29319	2009.075
2914.77587	2016.275
2917.25702	2020.575
2919.73665	2015.775
2922.21476	2016.275
2924.69136	2007.475
2927.16644	2007.975
2929.64	2008.975
2932.11205	2002.975
2934.58258	1989.275
2937.05161	1983.375
2939.51912	1971.375
2941.98513	1938.475
2944.44962	1913.675
2946.91261	1872.275
2949.37409	1845.875
2951.83407	1812.175
2954.29254	1795.675
2956.74951	1769.375
2959.20498	1740.675
2961.65895	1718.475
2964.11142	1698.375
2966.56239	1681.575
2969.01186	1659.775
2971.45984	1641.375
2973.90632	1623.975
2976.35131	1600.375
2978.7948	1591.075
2981.23681	1571.075
2983.67732	1550.575
2986.11635	1543.775
2988.55388	1527.275
2990.98993	1520.775
2993.4245	1510.075
2995.85758	1504.475
2998.28917	1490.875
3000.71928	1489.975
3003.14791	1492.275
3005.57506	1484.975
3008.00073	1469.975
3010.42493	1470.275
3012.84764	1474.275
3015.26888	1470.775
3017.68865	1460.975
3020.10694	1462.275
3022.52376	1453.175
3024.9391	1459.075
3027.35298	1454.175
3029.76539	1445.575
3032.17632	1447.675
3034.5858	1432.075
3036.9938	1441.275
3039.40034	1437.575
3041.80542	1428.075
3044.20903	1429.275
3046.61118	1434.275
3049.01187	1427.975
3051.4111	1426.175
3053.80888	1425.175
3056.20519	1415.575
3058.60005	1429.075
3060.99345	1428.075
3063.3854	1425.575
3065.7759	1419.975
3068.16494	1422.875
3070.55254	1420.375
3072.93868	1419.875
3075.32338	1412.075
3077.70662	1416.775
3080.08842	1412.275
3082.46878	1424.675
3084.84769	1423.975
3087.22515	1423.475
3089.60118	1428.075
3091.97576	1429.575
3094.3489	1427.775
3096.72061	1426.275
3099.09087	1433.875
3101.4597	1443.075
3103.82709	1442.975
3106.19305	1432.875
3108.55757	1442.275
3110.92066	1448.575
3113.28232	1439.975
3115.64255	1436.675
3118.00134	1442.375
3120.35871	1446.475
3122.71466	1447.575
3125.06917	1452.675
3127.42226	1458.375
3129.77393	1463.875
3132.12417	1467.375
3134.47299	1477.375
3136.82039	1477.175
3139.16636	1478.975
3141.51092	1485.575
3143.85406	1498.775
3146.19579	1499.675
3148.53609	1500.775
3150.87499	1504.575
3153.21246	1512.075
3155.54853	1526.175
3157.88318	1526.275
3160.21642	1530.375
3162.54826	1540.275
3164.87868	1535.575
3167.2077	1541.775
3169.5353	1543.875
3171.86151	1555.375
3174.18631	1551.375
3176.5097	1557.075
3178.83169	1561.075
3181.15228	1575.075
3183.47147	1569.075
3185.78926	1571.575
3188.10565	1575.675
3190.42065	1580.375
3192.73424	1588.575
3195.04645	1594.775
3197.35725	1587.775
3199.66667	1596.075
3201.97469	1599.175
3204.28132	1595.575
3206.58656	1610.175
3208.8904	1604.175
3211.19287	1615.175
3213.49394	1626.375
3215.79363	1624.475
3218.09193	1637.375
3220.38884	1630.775
3222.68438	1627.475
3224.97853	1633.675
3227.2713	1635.775
3229.56269	1633.975
3231.8527	1641.275
3234.14133	1640.375
3236.42858	1635.975
