Data from AgNPs_FTO_APTES_UA_2uM_CRN_200uM_R6G_10uM_NaF_0.1M_Addition_RamanShift__13__16-34-05-365.txt Node

Date: Wed Feb 02 16:34:05 GMT 2022
User: TCL
Spectrometer: QEP01345
Trigger mode: 4
Integration Time (sec): 7.000000E0
Scans to average: 10
Electric dark correction enabled: true
Nonlinearity correction enabled: false
Boxcar width: 0
XAxis mode: Raman Shifts
Number of Pixels in Spectrum: 1044
>>>>>Begin Spectral Data<<<<<
46.04893	-0.3875
50.45542	2.1125
54.85868	-0.6875
59.25871	-0.5875
63.6555	57.5125
68.04907	63.4125
72.43941	66.1125
76.82654	70.7125
81.21044	72.8125
85.59113	77.2125
89.96862	78.8125
94.34289	81.0125
98.71396	86.6125
103.08183	89.9125
107.4465	91.3125
111.80798	92.3125
116.16626	96.1125
120.52136	99.2125
124.87327	100.2125
129.222	105.3125
133.56755	109.6125
137.90993	116.1125
142.24913	128.3125
146.58517	142.7125
150.91804	164.3125
155.24774	192.4125
159.57429	239.1125
163.89768	301.3125
168.21792	394.3125
172.53501	536.8125
176.84895	740.3125
181.15975	1043.8125
185.46741	1462.5125
189.77193	2013.5125
194.07331	2695.6125
198.37157	3479.9125
202.6667	4327.8125
206.9587	5158.6125
211.24758	5945.4125
215.53334	6760.5125
219.81599	7603.8125
224.09553	8522.6125
228.37195	9511.9125
232.64527	10601.1125
236.91549	11747.1125
241.18261	12938.1125
245.44663	14072.0125
249.70755	15103.6125
253.96539	16000.6125
258.22014	16766.6125
262.4718	17357.9125
266.72039	17784.2125
270.96589	18002.9125
275.20832	18089.1125
279.44768	18067.9125
283.68397	18012.1125
287.91719	17941.4125
292.14735	17928.5125
296.37445	17949.1125
300.59849	17962.5125
304.81948	18007.9125
309.03742	17912.6125
313.25231	17699.1125
317.46415	17310.8125
321.67296	16843.6125
325.87872	16418.4125
330.08145	16221.0125
334.28114	16125.3125
338.47781	16202.2125
342.67145	16308.3125
346.86207	16451.6125
351.04966	16617.3125
355.23424	16731.9125
359.4158	16871.5125
363.59435	16957.0125
367.76989	17028.8125
371.94243	17075.8125
376.11196	17137.3125
380.27849	17136.9125
384.44203	17163.9125
388.60257	17279.1125
392.76012	17457.0125
396.91468	17727.4125
401.06626	18044.6125
405.21485	18270.8125
409.36047	18248.6125
413.50311	18127.3125
417.64277	17970.0125
421.77947	17969.1125
425.9132	17990.8125
430.04396	18136.5125
434.17176	18231.1125
438.2966	18347.1125
442.41849	18523.9125
446.53742	18885.8125
450.6534	19225.2125
454.76644	19490.6125
458.87653	19658.9125
462.98368	19748.9125
467.08789	19673.4125
471.18916	19591.7125
475.2875	19510.7125
479.38291	19440.3125
483.4754	19435.2125
487.56496	19315.4125
491.6516	19014.3125
495.73531	18676.1125
499.81612	18428.2125
503.89401	18390.6125
507.96899	18427.6125
512.04106	18431.3125
516.11023	18371.3125
520.1765	18226.5125
524.23987	17998.4125
528.30034	17779.9125
532.35792	17596.4125
536.41261	17458.3125
540.46441	17334.4125
544.51333	17425.1125
548.55936	17680.8125
552.60252	18026.4125
556.64279	18482.7125
560.6802	18830.5125
564.71473	19099.9125
568.7464	19486.3125
572.7752	20197.7125
576.80114	21092.7125
580.82422	21799.8125
584.84444	22197.6125
588.86181	22437.0125
592.87633	22505.9125
596.888	22289.0125
600.89682	21747.1125
604.9028	21485.7125
608.90594	21881.6125
612.90624	22303.4125
616.90371	21042.4125
620.89834	18726.4125
624.89015	17730.4125
628.87913	17704.8125
632.86528	17893.4125
636.84862	17947.2125
640.82913	17719.1125
644.80683	17340.6125
648.78172	17109.0125
652.75379	16965.9125
656.72306	17037.6125
660.68952	17206.5125
664.65319	17140.9125
668.61405	17029.1125
672.57211	16999.6125
676.52738	17056.1125
680.47986	17099.3125
684.42955	17046.6125
688.37646	17021.0125
692.32058	17053.9125
696.26192	17119.1125
700.20048	17325.4125
704.13626	17485.2125
708.06928	17643.5125
711.99952	17630.2125
715.927	17569.2125
719.85171	17429.8125
723.77365	17278.4125
727.69284	17049.0125
731.60928	16872.6125
735.52295	16731.7125
739.43388	16668.5125
743.34206	16667.8125
747.24749	16752.5125
751.15017	16962.8125
755.05012	17242.8125
758.94733	17728.0125
762.8418	18528.5125
766.73354	19630.4125
770.62254	20602.5125
774.50882	20604.0125
778.39237	19720.2125
782.27321	18569.4125
786.15132	17639.4125
790.02671	17018.4125
793.89938	16685.8125
797.76935	16482.8125
801.6366	16402.2125
805.50115	16369.7125
809.36299	16315.6125
813.22213	16244.4125
817.07857	16214.2125
820.93231	16235.0125
824.78336	16166.2125
828.63172	16131.2125
832.47738	16027.5125
836.32036	15999.2125
840.16066	15983.3125
843.99827	15927.1125
847.8332	15922.4125
851.66546	15899.2125
855.49504	15930.2125
859.32195	15929.1125
863.1462	15890.4125
866.96777	15844.9125
870.78668	15828.1125
874.60293	15804.0125
878.41652	15803.3125
882.22745	15838.6125
886.03573	15841.5125
889.84136	15866.5125
893.64433	15851.2125
897.44466	15834.0125
901.24235	15755.3125
905.0374	15807.0125
908.8298	15787.6125
912.61957	15845.7125
916.40671	16108.9125
920.19121	16393.2125
923.97308	16529.0125
927.75233	16413.5125
931.52895	16144.9125
935.30295	15858.5125
939.07433	15547.3125
942.84309	15334.8125
946.60924	15162.0125
950.37278	15034.2125
954.13371	15012.1125
957.89203	14993.1125
961.64774	15043.8125
965.40086	15052.4125
969.15137	14990.3125
972.89929	14886.6125
976.64461	14826.1125
980.38733	14758.7125
984.12747	14748.4125
987.86502	14764.7125
991.59999	14778.7125
995.33237	14862.7125
999.06217	14930.1125
1002.78939	15133.8125
1006.51404	15258.1125
1010.23611	15436.1125
1013.95561	15565.0125
1017.67255	15596.4125
1021.38692	15554.8125
1025.09872	15452.7125
1028.80796	15294.6125
1032.51465	15232.4125
1036.21877	15235.1125
1039.92035	15329.6125
1043.61937	15421.9125
1047.31584	15508.1125
1051.00976	15602.0125
1054.70114	15728.6125
1058.38998	15920.3125
1062.07627	16182.6125
1065.76003	16428.7125
1069.44126	16656.2125
1073.11995	16887.6125
1076.79611	17019.2125
1080.46974	17051.9125
1084.14085	17053.5125
1087.80943	17106.6125
1091.47549	17238.8125
1095.13903	17429.2125
1098.80005	17351.9125
1102.45857	16925.1125
1106.11456	16489.1125
1109.76805	16221.6125
1113.41903	16140.7125
1117.06751	16151.1125
1120.71348	16271.3125
1124.35696	16425.8125
1127.99793	16701.0125
1131.63641	16874.2125
1135.2724	16840.4125
1138.90589	16749.3125
1142.5369	16815.5125
1146.16542	16949.2125
1149.79145	17208.9125
1153.415	17464.2125
1157.03607	17795.9125
1160.65467	18222.1125
1164.27079	18848.8125
1167.88443	19620.6125
1171.49561	20544.0125
1175.10432	21529.7125
1178.71056	22752.6125
1182.31434	23963.3125
1185.91565	24795.0125
1189.51451	25133.1125
1193.11091	25064.3125
1196.70485	24597.5125
1200.29634	23806.9125
1203.88538	23132.0125
1207.47197	22769.3125
1211.05612	22667.3125
1214.63782	22357.0125
1218.21708	21783.3125
1221.79391	20977.1125
1225.36829	20262.8125
1228.94024	19788.3125
1232.50976	19529.2125
1236.07685	19400.1125
1239.6415	19386.1125
1243.20374	19418.6125
1246.76355	19568.8125
1250.32093	19765.7125
1253.8759	20115.0125
1257.42845	20614.0125
1260.97859	21139.5125
1264.52631	21664.3125
1268.07163	22126.8125
1271.61453	22680.3125
1275.15503	23226.6125
1278.69312	23888.3125
1282.22882	24543.7125
1285.76211	25301.1125
1289.29301	26176.7125
1292.82151	27286.0125
1296.34761	28600.0125
1299.87133	29992.0125
1303.39266	31257.5125
1306.9116	32308.7125
1310.42815	32914.9125
1313.94233	33178.5125
1317.45412	33128.7125
1320.96354	32986.8125
1324.47058	33062.4125
1327.97525	33344.7125
1331.47754	33595.5125
1334.97747	33824.7125
1338.47502	34039.0125
1341.97022	34248.2125
1345.46305	34321.0125
1348.95352	34128.2125
1352.44163	33519.7125
1355.92738	32948.3125
1359.41078	32646.6125
1362.89183	32465.1125
1366.37053	31739.3125
1369.84688	29976.7125
1373.32088	27822.0125
1376.79254	26202.6125
1380.26186	25577.4125
1383.72883	25592.8125
1387.19347	25797.1125
1390.65578	25759.3125
1394.11575	25710.4125
1397.57339	25780.3125
1401.0287	25890.5125
1404.48168	25935.1125
1407.93234	25621.2125
1411.38068	24953.3125
1414.82669	23966.6125
1418.27039	22829.6125
1421.71177	21837.7125
1425.15083	20998.1125
1428.58758	20522.0125
1432.02203	20563.1125
1435.45416	20897.5125
1438.88399	21355.3125
1442.31151	21794.6125
1445.73673	22170.4125
1449.15965	22599.6125
1452.58027	22983.5125
1455.9986	23332.4125
1459.41463	23661.1125
1462.82837	24000.6125
1466.23982	24358.3125
1469.64898	24623.1125
1473.05586	24845.3125
1476.46045	24859.3125
1479.86276	24764.6125
1483.26279	24587.1125
1486.66054	24525.1125
1490.05602	24648.5125
1493.44922	25000.7125
1496.84016	25481.3125
1500.22882	26256.1125
1503.61521	27063.3125
1506.99934	27911.1125
1510.38121	28517.6125
1513.76081	28721.5125
1517.13816	28508.8125
1520.51324	28136.9125
1523.88607	27941.6125
1527.25665	27879.0125
1530.62498	27816.0125
1533.99105	27511.7125
1537.35488	26991.9125
1540.71647	26192.0125
1544.07581	25355.2125
1547.4329	24483.4125
1550.78776	23791.4125
1554.14038	23308.7125
1557.49077	23080.9125
1560.83892	22967.3125
1564.18484	22996.3125
1567.52853	23096.0125
1570.86999	23270.6125
1574.20922	23645.2125
1577.54624	24008.9125
1580.88103	24166.3125
1584.2136	24329.4125
1587.54395	24693.2125
1590.87208	25375.7125
1594.19801	26253.2125
1597.52172	27134.7125
1600.84321	27214.7125
1604.16251	26212.5125
1607.47959	24612.3125
1610.79447	22936.9125
1614.10715	21361.1125
1617.41763	19935.9125
1620.7259	18899.2125
1624.03199	18217.2125
1627.33587	18005.3125
1630.63757	18281.1125
1633.93707	19134.5125
1637.23439	20634.1125
1640.52951	22833.1125
1643.82246	25615.9125
1647.11321	28281.8125
1650.40179	29564.4125
1653.68819	28829.0125
1656.97241	26272.3125
1660.25446	23069.0125
1663.53433	20132.6125
1666.81203	17899.3125
1670.08756	16382.2125
1673.36092	15369.1125
1676.63211	14719.1125
1679.90115	14288.8125
1683.16801	13967.2125
1686.43272	13756.4125
1689.69527	13587.4125
1692.95567	13450.0125
1696.2139	13394.2125
1699.46999	13338.9125
1702.72392	13219.4125
1705.97571	13142.8125
1709.22535	13075.1125
1712.47284	13003.3125
1715.71819	12976.5125
1718.96139	12918.9125
1722.20246	12857.3125
1725.44139	12822.8125
1728.67818	12751.8125
1731.91284	12674.5125
1735.14537	12576.0125
1738.37576	12520.9125
1741.60403	12449.1125
1744.83017	12431.7125
1748.05418	12378.2125
1751.27607	12394.9125
1754.49584	12392.2125
1757.71349	12353.0125
1760.92903	12348.6125
1764.14244	12337.9125
1767.35375	12324.5125
1770.56294	12270.2125
1773.77002	12241.1125
1776.97499	12165.4125
1780.17785	12131.5125
1783.37861	12103.9125
1786.57727	12066.4125
1789.77382	12013.4125
1792.96828	11986.5125
1796.16064	11934.3125
1799.3509	11901.7125
1802.53907	11858.8125
1805.72514	11804.5125
1808.90913	11799.7125
1812.09102	11753.4125
1815.27083	11742.0125
1818.44856	11706.8125
1821.6242	11682.4125
1824.79776	11673.8125
1827.96924	11670.0125
1831.13864	11636.1125
1834.30597	11642.0125
1837.47122	11619.6125
1840.6344	11598.8125
1843.7955	11637.8125
1846.95454	11594.6125
1850.11151	11594.8125
1853.26642	11590.0125
1856.41926	11559.2125
1859.57004	11534.9125
1862.71876	11515.8125
1865.86542	11497.9125
1869.01003	11484.5125
1872.15258	11444.3125
1875.29308	11451.5125
1878.43152	11416.7125
1881.56792	11378.2125
1884.70227	11348.9125
1887.83457	11338.4125
1890.96482	11332.4125
1894.09304	11304.1125
1897.21921	11271.8125
1900.34335	11271.9125
1903.46544	11228.2125
1906.58551	11231.5125
1909.70353	11221.5125
1912.81953	11182.6125
1915.93349	11170.1125
1919.04543	11107.6125
1922.15534	11094.3125
1925.26322	11062.4125
1928.36908	11062.0125
1931.47292	10989.5125
1934.57473	10974.5125
1937.67453	10934.3125
1940.77232	10893.8125
1943.86808	10892.0125
1946.96184	10857.3125
1950.05358	10806.1125
1953.14331	10758.5125
1956.23103	10756.3125
1959.31675	10701.0125
1962.40046	10672.8125
1965.48217	10644.4125
1968.56188	10602.3125
1971.63959	10549.9125
1974.7153	10528.7125
1977.78901	10493.6125
1980.86073	10440.8125
1983.93046	10396.7125
1986.99819	10349.9125
1990.06394	10357.7125
1993.1277	10323.5125
1996.18947	10250.8125
1999.24925	10265.6125
2002.30706	10184.6125
2005.36288	10155.6125
2008.41672	10130.8125
2011.46859	10095.9125
2014.51848	10058.4125
2017.56639	10000.1125
2020.61233	9976.6125
2023.6563	9966.8125
2026.6983	9949.1125
2029.73833	9895.3125
2032.7764	9874.3125
2035.8125	9868.9125
2038.84664	9815.3125
2041.87881	9836.7125
2044.90903	9787.7125
2047.93729	9776.8125
2050.96359	9735.9125
2053.98794	9713.6125
2057.01034	9734.6125
2060.03078	9715.5125
2063.04927	9686.4125
2066.06582	9674.5125
2069.08042	9675.4125
2072.09307	9644.5125
2075.10378	9647.7125
2078.11255	9627.1125
2081.11938	9622.0125
2084.12426	9618.6125
2087.12722	9634.3125
2090.12824	9617.4125
2093.12732	9602.5125
2096.12447	9619.8125
2099.11969	9614.2125
2102.11299	9617.1125
2105.10435	9617.0125
2108.09379	9597.2125
2111.08131	9597.9125
2114.0669	9592.6125
2117.05057	9605.3125
2120.03233	9605.1125
2123.01216	9622.2125
2125.99008	9613.0125
2128.96609	9592.9125
2131.94018	9607.7125
2134.91236	9603.6125
2137.88263	9571.7125
2140.851	9587.9125
2143.81746	9595.3125
2146.78201	9592.2125
2149.74466	9588.6125
2152.7054	9570.2125
2155.66425	9576.9125
2158.6212	9558.0125
2161.57625	9546.8125
2164.52941	9553.2125
2167.48067	9544.4125
2170.43004	9536.0125
2173.37752	9514.5125
2176.32311	9502.4125
2179.26681	9491.5125
2182.20863	9488.5125
2185.14856	9513.9125
2188.08661	9494.0125
2191.02278	9470.0125
2193.95707	9464.9125
2196.88948	9457.0125
2199.82001	9423.6125
2202.74867	9429.1125
2205.67545	9420.7125
2208.60037	9416.8125
2211.52341	9358.1125
2214.44458	9340.6125
2217.36388	9308.3125
2220.28132	9321.1125
2223.1969	9281.2125
2226.11061	9284.2125
2229.02246	9242.5125
2231.93245	9232.3125
2234.84058	9223.4125
2237.74686	9211.9125
2240.65128	9194.8125
2243.55385	9179.1125
2246.45456	9150.5125
2249.35343	9134.3125
2252.25044	9091.0125
2255.14561	9083.9125
2258.03893	9061.2125
2260.93041	9061.6125
2263.82004	9004.4125
2266.70783	9012.9125
2269.59378	8966.1125
2272.4779	8947.9125
2275.36017	8874.3125
2278.24061	8896.5125
2281.11922	8865.2125
2283.996	8831.5125
2286.87094	8826.7125
2289.74405	8783.3125
2292.61534	8790.0125
2295.4848	8762.2125
2298.35243	8758.1125
2301.21824	8754.4125
2304.08223	8753.8125
2306.94439	8720.9125
2309.80474	8711.3125
2312.66327	8717.7125
2315.51999	8708.7125
2318.37489	8684.1125
2321.22797	8660.4125
2324.07925	8652.6125
2326.92871	8656.8125
2329.77637	8606.2125
2332.62222	8607.7125
2335.46626	8608.6125
2338.3085	8579.6125
2341.14893	8554.9125
2343.98756	8541.6125
2346.8244	8535.5125
2349.65943	8545.9125
2352.49267	8522.2125
2355.32411	8525.8125
2358.15376	8530.2125
2360.98161	8537.0125
2363.80768	8515.8125
2366.63195	8490.2125
2369.45444	8483.3125
2372.27514	8495.5125
2375.09405	8483.4125
2377.91118	8455.7125
2380.72652	8453.1125
2383.54009	8425.9125
2386.35187	8414.1125
2389.16188	8371.0125
2391.97011	8349.7125
2394.77657	8311.7125
2397.58125	8303.4125
2400.38416	8306.3125
2403.18529	8272.9125
2405.98466	8267.8125
2408.78226	8251.5125
2411.57809	8256.7125
2414.37216	8229.7125
2417.16446	8240.5125
2419.955	8219.7125
2422.74378	8218.9125
2425.5308	8201.9125
2428.31606	8191.3125
2431.09956	8179.3125
2433.88131	8181.2125
2436.6613	8165.3125
2439.43954	8161.7125
2442.21603	8151.2125
2444.99077	8142.6125
2447.76377	8116.0125
2450.53501	8112.2125
2453.30451	8085.8125
2456.07226	8092.4125
2458.83827	8091.3125
2461.60254	8102.6125
2464.36507	8097.4125
2467.12586	8068.5125
2469.88492	8054.4125
2472.64224	8062.7125
2475.39782	8042.4125
2478.15167	8066.0125
2480.90379	8025.4125
2483.65417	8027.5125
2486.40283	8031.4125
2489.14976	8024.7125
2491.89497	8025.0125
2494.63845	8006.2125
2497.3802	7982.3125
2500.12024	7985.7125
2502.85855	7974.2125
2505.59514	7972.5125
2508.33002	7970.0125
2511.06318	7959.7125
2513.79462	7962.0125
2516.52435	7963.1125
2519.25237	7946.3125
2521.97867	7922.6125
2524.70327	7897.1125
2527.42616	7906.5125
2530.14734	7880.7125
2532.86681	7873.3125
2535.58458	7882.9125
2538.30065	7866.3125
2541.01501	7847.0125
2543.72768	7821.8125
2546.43864	7810.1125
2549.14791	7785.2125
2551.85548	7796.5125
2554.56136	7781.8125
2557.26554	7775.3125
2559.96803	7758.7125
2562.66883	7749.3125
2565.36794	7736.9125
2568.06536	7719.0125
2570.7611	7719.1125
2573.45514	7724.6125
2576.14751	7702.3125
2578.83819	7666.9125
2581.52719	7650.5125
2584.21451	7623.9125
2586.90015	7638.2125
2589.58411	7620.0125
2592.2664	7618.2125
2594.94701	7604.4125
2597.62594	7602.5125
2600.30321	7564.8125
2602.9788	7559.7125
2605.65273	7551.5125
2608.32498	7579.4125
2610.99557	7553.1125
2613.66449	7554.6125
2616.33175	7526.9125
2618.99734	7530.8125
2621.66128	7511.7125
2624.32355	7505.0125
2626.98416	7499.4125
2629.64311	7494.4125
2632.30041	7482.8125
2634.95605	7493.0125
2637.61004	7487.0125
2640.26238	7469.6125
2642.91306	7461.5125
2645.56209	7452.0125
2648.20948	7437.2125
2650.85521	7441.9125
2653.4993	7427.9125
2656.14175	7428.2125
2658.78255	7451.4125
2661.42171	7438.6125
2664.05923	7452.6125
2666.6951	7423.0125
2669.32934	7459.2125
2671.96194	7445.3125
2674.59291	7449.6125
2677.22224	7409.1125
2679.84993	7453.0125
2682.476	7430.3125
2685.10043	7418.6125
2687.72324	7429.5125
2690.34441	7424.4125
2692.96396	7418.9125
2695.58188	7432.8125
2698.19818	7398.6125
2700.81285	7407.5125
2703.4259	7436.5125
2706.03733	7442.2125
2708.64714	7436.3125
2711.25533	7446.3125
2713.86191	7405.2125
2716.46687	7408.4125
2719.07021	7425.3125
2721.67194	7420.1125
2724.27206	7427.8125
2726.87057	7394.9125
2729.46747	7421.6125
2732.06276	7437.3125
2734.65644	7404.3125
2737.24852	7428.4125
2739.83899	7373.1125
2742.42786	7366.7125
2745.01513	7354.0125
2747.60079	7355.6125
2750.18486	7361.8125
2752.76733	7352.0125
2755.3482	7343.3125
2757.92747	7352.8125
2760.50515	7337.2125
2763.08123	7335.8125
2765.65573	7338.0125
2768.22863	7331.2125
2770.79994	7315.4125
2773.36967	7307.7125
2775.9378	7294.8125
2778.50435	7298.7125
2781.06932	7293.9125
2783.6327	7273.5125
2786.1945	7263.6125
2788.75471	7268.4125
2791.31335	7254.7125
2793.87041	7230.6125
2796.42589	7228.9125
2798.97979	7223.8125
2801.53212	7215.0125
2804.08288	7191.2125
2806.63206	7187.6125
2809.17967	7164.9125
2811.72571	7139.3125
2814.27018	7125.1125
2816.81308	7127.1125
2819.35442	7100.0125
2821.89419	7086.0125
2824.43239	7066.1125
2826.96904	7081.2125
2829.50412	7095.2125
2832.03763	7057.9125
2834.56959	7054.2125
2837.1	7065.3125
2839.62884	7064.3125
2842.15613	7049.4125
2844.68186	7070.5125
2847.20604	7128.0125
2849.72867	7133.7125
2852.24974	7141.4125
2854.76927	7132.2125
2857.28724	7106.1125
2859.80367	7097.9125
2862.31855	7073.8125
2864.83189	7074.9125
2867.34368	7060.0125
2869.85393	7050.8125
2872.36264	7039.8125
2874.8698	7039.9125
2877.37543	7025.7125
2879.87952	7023.3125
2882.38207	7029.4125
2884.88308	7017.6125
2887.38256	7016.5125
2889.88051	6999.3125
2892.37692	7001.6125
2894.8718	6998.6125
2897.36515	6998.2125
2899.85698	7007.4125
2902.34727	7020.0125
2904.83604	7009.8125
2907.32328	7023.1125
2909.809	7008.7125
2912.29319	7000.2125
2914.77587	7020.4125
2917.25702	7004.8125
2919.73665	6993.8125
2922.21476	6998.3125
2924.69136	6988.2125
2927.16644	7017.7125
2929.64	7005.5125
2932.11205	6997.8125
2934.58258	6987.8125
2937.05161	6998.3125
2939.51912	6982.1125
2941.98513	6961.2125
2944.44962	6930.7125
2946.91261	6885.7125
2949.37409	6893.4125
2951.83407	6871.9125
2954.29254	6843.8125
2956.74951	6849.2125
2959.20498	6830.7125
2961.65895	6822.2125
2964.11142	6809.2125
2966.56239	6807.2125
2969.01186	6791.6125
2971.45984	6760.6125
2973.90632	6752.1125
2976.35131	6709.7125
2978.7948	6708.2125
2981.23681	6685.2125
2983.67732	6682.0125
2986.11635	6648.7125
2988.55388	6625.1125
2990.98993	6614.2125
2993.4245	6605.6125
2995.85758	6576.3125
2998.28917	6584.7125
3000.71928	6555.7125
3003.14791	6560.5125
3005.57506	6527.1125
3008.00073	6508.8125
3010.42493	6491.1125
3012.84764	6472.4125
3015.26888	6492.3125
3017.68865	6483.6125
3020.10694	6459.6125
3022.52376	6443.6125
3024.9391	6427.2125
3027.35298	6416.0125
3029.76539	6393.8125
3032.17632	6406.5125
3034.5858	6400.9125
3036.9938	6385.7125
3039.40034	6373.0125
3041.80542	6353.7125
3044.20903	6350.5125
3046.61118	6326.2125
3049.01187	6330.3125
3051.4111	6308.9125
3053.80888	6292.8125
3056.20519	6298.2125
3058.60005	6265.0125
3060.99345	6257.0125
3063.3854	6253.3125
3065.7759	6220.1125
3068.16494	6207.9125
