Data from AgNPs_FTO_APTES_UA_2uM_CRN_2uM_R6G_10uM_NaF_0.1M_Addition_RamanShift__23__12-25-35-075.txt Node

Date: Wed Feb 02 12:25:35 GMT 2022
User: TCL
Spectrometer: QEP01345
Trigger mode: 4
Integration Time (sec): 7.000000E0
Scans to average: 10
Electric dark correction enabled: true
Nonlinearity correction enabled: false
Boxcar width: 0
XAxis mode: Raman Shifts
Number of Pixels in Spectrum: 1044
>>>>>Begin Spectral Data<<<<<
46.04893	0.7125
50.45542	0.1125
54.85868	-0.4875
59.25871	-2.0875
63.6555	96.5125
68.04907	102.8125
72.43941	106.1125
76.82654	116.6125
81.21044	114.5125
85.59113	120.3125
89.96862	120.2125
94.34289	124.2125
98.71396	127.6125
103.08183	138.6125
107.4465	140.4125
111.80798	143.4125
116.16626	146.3125
120.52136	158.6125
124.87327	167.5125
129.222	175.9125
133.56755	190.8125
137.90993	208.3125
142.24913	231.9125
146.58517	268.3125
150.91804	321.1125
155.24774	384.8125
159.57429	486.4125
163.89768	626.9125
168.21792	854.4125
172.53501	1165.5125
176.84895	1642.9125
181.15975	2294.1125
185.46741	3238.2125
189.77193	4448.1125
194.07331	5979.7125
198.37157	7701.2125
202.6667	9494.1125
206.9587	11280.4125
211.24758	13027.5125
215.53334	14880.6125
219.81599	16855.9125
224.09553	19071.6125
228.37195	21522.6125
232.64527	24165.7125
236.91549	26928.9125
241.18261	29536.5125
245.44663	31851.8125
249.70755	33812.6125
253.96539	35549.9125
258.22014	37073.3125
262.4718	38417.4125
266.72039	39440.5125
270.96589	39988.1125
275.20832	40144.3125
279.44768	39957.3125
283.68397	39711.4125
287.91719	39505.5125
292.14735	39561.7125
296.37445	39837.5125
300.59849	40320.4125
304.81948	40934.3125
309.03742	41211.1125
313.25231	40793.2125
317.46415	39463.4125
321.67296	37499.1125
325.87872	35841.6125
330.08145	34944.1125
334.28114	34826.2125
338.47781	35102.5125
342.67145	35690.7125
346.86207	36551.5125
351.04966	37755.1125
355.23424	39147.6125
359.4158	40204.2125
363.59435	40819.0125
367.76989	41077.3125
371.94243	41180.3125
376.11196	41192.6125
380.27849	41127.4125
384.44203	41113.2125
388.60257	41189.7125
392.76012	41393.9125
396.91468	41965.6125
401.06626	42849.0125
405.21485	43477.4125
409.36047	43089.8125
413.50311	41865.1125
417.64277	40825.2125
421.77947	40476.4125
425.9132	40461.6125
430.04396	40683.9125
434.17176	40944.5125
438.2966	41391.6125
442.41849	42214.3125
446.53742	43548.9125
450.6534	45162.2125
454.76644	46306.4125
458.87653	46652.6125
462.98368	46266.9125
467.08789	45528.8125
471.18916	44513.9125
475.2875	43649.7125
479.38291	43135.7125
483.4754	42869.8125
487.56496	42291.6125
491.6516	41516.0125
495.73531	40816.9125
499.81612	40457.8125
503.89401	40580.2125
507.96899	40687.6125
512.04106	40689.5125
516.11023	40541.8125
520.1765	40273.8125
524.23987	40009.3125
528.30034	39483.0125
532.35792	38859.1125
536.41261	38151.6125
540.46441	37457.6125
544.51333	37303.0125
548.55936	37802.5125
552.60252	38941.2125
556.64279	40153.9125
560.6802	40910.2125
564.71473	41443.4125
568.7464	42582.8125
572.7752	43854.8125
576.80114	44291.4125
580.82422	44440.9125
584.84444	44881.9125
588.86181	45460.6125
592.87633	46354.7125
596.888	47106.5125
600.89682	47523.8125
604.9028	49795.1125
608.90594	56749.1125
612.90624	65055.4125
616.90371	61356.2125
620.89834	47368.2125
624.89015	40879.8125
628.87913	39941.6125
632.86528	40054.3125
636.84862	39938.8125
640.82913	38974.4125
644.80683	37421.3125
648.78172	36191.9125
652.75379	36047.2125
656.72306	36836.4125
660.68952	38036.2125
664.65319	37943.0125
668.61405	36806.4125
672.57211	36272.1125
676.52738	36209.1125
680.47986	36162.0125
684.42955	35918.4125
688.37646	35844.8125
692.32058	35951.0125
696.26192	36356.1125
700.20048	36968.3125
704.13626	37349.6125
708.06928	37218.0125
711.99952	36822.0125
715.927	36615.9125
719.85171	36636.8125
723.77365	36452.7125
727.69284	35980.5125
731.60928	35543.9125
735.52295	35456.6125
739.43388	35583.0125
743.34206	35782.2125
747.24749	36047.4125
751.15017	36504.9125
755.05012	37326.9125
758.94733	38962.3125
762.8418	41939.1125
766.73354	47029.7125
770.62254	52030.4125
774.50882	53508.8125
778.39237	50413.5125
782.27321	45018.5125
786.15132	40335.0125
790.02671	37610.5125
793.89938	36284.8125
797.76935	35797.2125
801.6366	35624.4125
805.50115	35417.9125
809.36299	35220.9125
813.22213	34925.1125
817.07857	34831.9125
820.93231	34809.2125
824.78336	34769.5125
828.63172	34682.2125
832.47738	34722.1125
836.32036	34800.0125
840.16066	34929.3125
843.99827	35007.0125
847.8332	34894.9125
851.66546	34610.3125
855.49504	34474.4125
859.32195	34398.9125
863.1462	34197.1125
866.96777	33884.3125
870.78668	33798.3125
874.60293	33754.1125
878.41652	33766.2125
882.22745	33972.6125
886.03573	34170.7125
889.84136	34100.3125
893.64433	33901.8125
897.44466	33689.1125
901.24235	33611.5125
905.0374	33524.5125
908.8298	33411.7125
912.61957	33491.5125
916.40671	33839.6125
920.19121	34486.9125
923.97308	35120.0125
927.75233	35468.6125
931.52895	35382.0125
935.30295	34834.7125
939.07433	33894.7125
942.84309	33057.5125
946.60924	32704.7125
950.37278	32515.1125
954.13371	32314.5125
957.89203	32060.5125
961.64774	31992.0125
965.40086	31916.9125
969.15137	31752.7125
972.89929	31561.4125
976.64461	31477.6125
980.38733	31545.8125
984.12747	31745.5125
987.86502	32039.6125
991.59999	32624.3125
995.33237	33535.3125
999.06217	34938.3125
1002.78939	36665.0125
1006.51404	37888.1125
1010.23611	38524.0125
1013.95561	38896.3125
1017.67255	38719.4125
1021.38692	38115.9125
1025.09872	37608.0125
1028.80796	37986.5125
1032.51465	39461.7125
1036.21877	40811.2125
1039.92035	41110.9125
1043.61937	40323.2125
1047.31584	38935.2125
1051.00976	37340.7125
1054.70114	36343.1125
1058.38998	36130.6125
1062.07627	36161.3125
1065.76003	36411.4125
1069.44126	36727.2125
1073.11995	37238.8125
1076.79611	37703.6125
1080.46974	38026.5125
1084.14085	38581.2125
1087.80943	39273.6125
1091.47549	39689.5125
1095.13903	39387.2125
1098.80005	38537.7125
1102.45857	37351.0125
1106.11456	36661.2125
1109.76805	36417.5125
1113.41903	36680.5125
1117.06751	37216.8125
1120.71348	37907.0125
1124.35696	38761.4125
1127.99793	39662.4125
1131.63641	39926.1125
1135.2724	39296.0125
1138.90589	38503.8125
1142.5369	38032.1125
1146.16542	37866.7125
1149.79145	37882.0125
1153.415	38228.2125
1157.03607	38781.7125
1160.65467	39836.2125
1164.27079	41612.4125
1167.88443	44316.0125
1171.49561	48100.8125
1175.10432	53428.7125
1178.71056	60243.0125
1182.31434	66188.0125
1185.91565	69171.2125
1189.51451	68882.7125
1193.11091	65999.4125
1196.70485	61853.3125
1200.29634	57868.1125
1203.88538	54792.4125
1207.47197	52331.6125
1211.05612	50459.7125
1214.63782	49340.5125
1218.21708	48985.7125
1221.79391	48988.8125
1225.36829	49054.1125
1228.94024	48594.4125
1232.50976	47807.7125
1236.07685	47127.3125
1239.6415	46627.4125
1243.20374	46302.9125
1246.76355	46421.9125
1250.32093	47058.6125
1253.8759	48388.8125
1257.42845	50135.5125
1260.97859	52014.1125
1264.52631	53691.8125
1268.07163	55413.9125
1271.61453	57422.3125
1275.15503	59564.7125
1278.69312	61566.4125
1282.22882	63365.8125
1285.76211	65178.3125
1289.29301	67259.7125
1292.82151	69802.9125
1296.34761	73008.1125
1299.87133	77189.0125
1303.39266	82619.0125
1306.9116	89431.8125
1310.42815	96871.8125
1313.94233	101869.7125
1317.45412	102536.6125
1320.96354	99895.5125
1324.47058	96020.4125
1327.97525	92321.5125
1331.47754	89568.4125
1334.97747	88226.5125
1338.47502	87779.9125
1341.97022	87393.9125
1345.46305	86418.0125
1348.95352	85213.9125
1352.44163	84941.5125
1355.92738	87257.0125
1359.41078	93220.4125
1362.89183	99740.3125
1366.37053	98923.2125
1369.84688	89143.8125
1373.32088	77292.9125
1376.79254	69043.9125
1380.26186	65454.6125
1383.72883	64399.4125
1387.19347	63814.2125
1390.65578	63005.3125
1394.11575	62994.9125
1397.57339	63864.6125
1401.0287	65609.0125
1404.48168	67315.4125
1407.93234	68168.0125
1411.38068	67915.0125
1414.82669	66356.0125
1418.27039	63509.4125
1421.71177	60338.8125
1425.15083	57622.2125
1428.58758	56131.2125
1432.02203	55936.5125
1435.45416	56820.3125
1438.88399	58116.0125
1442.31151	59174.4125
1445.73673	60202.5125
1449.15965	61253.6125
1452.58027	61781.0125
1455.9986	61961.8125
1459.41463	62341.9125
1462.82837	63257.5125
1466.23982	64618.2125
1469.64898	65851.6125
1473.05586	66585.0125
1476.46045	66737.0125
1479.86276	66569.6125
1483.26279	66331.5125
1486.66054	66292.4125
1490.05602	66884.9125
1493.44922	67828.0125
1496.84016	68933.3125
1500.22882	70672.8125
1503.61521	73461.0125
1506.99934	77262.0125
1510.38121	81483.9125
1513.76081	83814.9125
1517.13816	82124.5125
1520.51324	77114.8125
1523.88607	71828.0125
1527.25665	68099.1125
1530.62498	66052.2125
1533.99105	64804.2125
1537.35488	64076.7125
1540.71647	63238.6125
1544.07581	62149.5125
1547.4329	60928.7125
1550.78776	59745.3125
1554.14038	59049.7125
1557.49077	58909.2125
1560.83892	59013.7125
1564.18484	59301.0125
1567.52853	59507.4125
1570.86999	59755.2125
1574.20922	60321.6125
1577.54624	60856.5125
1580.88103	60475.9125
1584.2136	60278.5125
1587.54395	61692.9125
1590.87208	65178.7125
1594.19801	70071.8125
1597.52172	75247.3125
1600.84321	77226.1125
1604.16251	73716.2125
1607.47959	67082.7125
1610.79447	59882.3125
1614.10715	53569.2125
1617.41763	48726.8125
1620.7259	45541.7125
1624.03199	44037.4125
1627.33587	44243.7125
1630.63757	45933.4125
1633.93707	49326.7125
1637.23439	54453.5125
1640.52951	61424.2125
1643.82246	69147.2125
1647.11321	75252.1125
1650.40179	77105.4125
1653.68819	72348.3125
1656.97241	62493.4125
1660.25446	52093.9125
1663.53433	44268.8125
1666.81203	39261.9125
1670.08756	36289.8125
1673.36092	34375.5125
1676.63211	33161.2125
1679.90115	32327.6125
1683.16801	31657.3125
1686.43272	31248.0125
1689.69527	30953.8125
1692.95567	30693.5125
1696.2139	30537.9125
1699.46999	30403.9125
1702.72392	30274.8125
1705.97571	30182.9125
1709.22535	30108.6125
1712.47284	30068.0125
1715.71819	30050.3125
1718.96139	29900.8125
1722.20246	29855.0125
1725.44139	29680.4125
1728.67818	29545.3125
1731.91284	29303.1125
1735.14537	29143.9125
1738.37576	29019.1125
1741.60403	28921.4125
1744.83017	28776.2125
1748.05418	28704.8125
1751.27607	28675.7125
1754.49584	28617.2125
1757.71349	28572.6125
1760.92903	28593.9125
1764.14244	28519.4125
1767.35375	28527.3125
1770.56294	28425.7125
1773.77002	28367.4125
1776.97499	28332.6125
1780.17785	28297.0125
1783.37861	28240.3125
1786.57727	28157.1125
1789.77382	28137.5125
1792.96828	28089.0125
1796.16064	28041.3125
1799.3509	27975.0125
1802.53907	27922.6125
1805.72514	27867.6125
1808.90913	27748.5125
1812.09102	27735.0125
1815.27083	27673.9125
1818.44856	27678.4125
1821.6242	27601.1125
1824.79776	27591.0125
1827.96924	27603.8125
1831.13864	27611.7125
1834.30597	27611.2125
1837.47122	27569.7125
1840.6344	27567.0125
1843.7955	27593.9125
1846.95454	27589.4125
1850.11151	27581.9125
1853.26642	27625.3125
1856.41926	27585.4125
1859.57004	27611.8125
1862.71876	27614.0125
1865.86542	27681.8125
1869.01003	27716.7125
1872.15258	27702.9125
1875.29308	27736.7125
1878.43152	27765.9125
1881.56792	27817.0125
1884.70227	27805.4125
1887.83457	27888.9125
1890.96482	27902.6125
1894.09304	27887.9125
1897.21921	27857.4125
1900.34335	27923.9125
1903.46544	27926.4125
1906.58551	27932.1125
1909.70353	27942.5125
1912.81953	27890.6125
1915.93349	27839.0125
1919.04543	27783.2125
1922.15534	27724.0125
1925.26322	27618.8125
1928.36908	27537.9125
1931.47292	27395.5125
1934.57473	27222.1125
1937.67453	27078.9125
1940.77232	26996.5125
1943.86808	26810.3125
1946.96184	26725.6125
1950.05358	26594.7125
1953.14331	26464.6125
1956.23103	26355.9125
1959.31675	26262.1125
1962.40046	26209.8125
1965.48217	26088.6125
1968.56188	26043.7125
1971.63959	25964.1125
1974.7153	25900.3125
1977.78901	25782.6125
1980.86073	25681.0125
1983.93046	25568.8125
1986.99819	25456.1125
1990.06394	25401.0125
1993.1277	25338.5125
1996.18947	25254.9125
1999.24925	25212.2125
2002.30706	25119.2125
2005.36288	25030.8125
2008.41672	24949.8125
2011.46859	24893.8125
2014.51848	24868.7125
2017.56639	24800.4125
2020.61233	24710.9125
2023.6563	24648.6125
2026.6983	24657.1125
2029.73833	24607.5125
2032.7764	24554.2125
2035.8125	24519.2125
2038.84664	24488.2125
2041.87881	24520.7125
2044.90903	24446.9125
2047.93729	24427.3125
2050.96359	24403.5125
2053.98794	24321.6125
2057.01034	24312.4125
2060.03078	24266.3125
2063.04927	24247.3125
2066.06582	24201.4125
2069.08042	24187.2125
2072.09307	24150.5125
2075.10378	24133.4125
2078.11255	24134.0125
2081.11938	24120.6125
2084.12426	24072.3125
2087.12722	24050.1125
2090.12824	23998.0125
2093.12732	24031.9125
2096.12447	24023.5125
2099.11969	24010.3125
2102.11299	24038.1125
2105.10435	24071.9125
2108.09379	24024.3125
2111.08131	24069.3125
2114.0669	23999.3125
2117.05057	24054.3125
2120.03233	24086.9125
2123.01216	24096.7125
2125.99008	24102.3125
2128.96609	24116.0125
2131.94018	24158.3125
2134.91236	24195.8125
2137.88263	24121.9125
2140.851	24119.4125
2143.81746	24163.0125
2146.78201	24179.0125
2149.74466	24160.7125
2152.7054	24189.6125
2155.66425	24168.3125
2158.6212	24190.3125
2161.57625	24188.6125
2164.52941	24134.8125
2167.48067	24130.1125
2170.43004	24089.6125
2173.37752	24113.3125
2176.32311	24142.6125
2179.26681	24167.9125
2182.20863	24170.7125
2185.14856	24190.5125
2188.08661	24222.1125
2191.02278	24197.7125
2193.95707	24176.1125
2196.88948	24147.5125
2199.82001	24146.3125
2202.74867	24175.5125
2205.67545	24169.7125
2208.60037	24144.9125
2211.52341	24152.8125
2214.44458	24126.8125
2217.36388	24101.2125
2220.28132	24068.4125
2223.1969	24026.0125
2226.11061	24002.8125
2229.02246	23926.0125
2231.93245	23934.0125
2234.84058	23887.4125
2237.74686	23846.8125
2240.65128	23797.6125
2243.55385	23715.0125
2246.45456	23733.8125
2249.35343	23661.1125
2252.25044	23631.8125
2255.14561	23601.4125
2258.03893	23579.8125
2260.93041	23524.6125
2263.82004	23470.1125
2266.70783	23388.2125
2269.59378	23327.8125
2272.4779	23283.7125
2275.36017	23202.3125
2278.24061	23188.0125
2281.11922	23135.5125
2283.996	23119.9125
2286.87094	23124.7125
2289.74405	23042.2125
2292.61534	23038.6125
2295.4848	23033.8125
2298.35243	23017.3125
2301.21824	23025.4125
2304.08223	23021.2125
2306.94439	23115.5125
2309.80474	23150.6125
2312.66327	23158.4125
2315.51999	23147.7125
2318.37489	23170.2125
2321.22797	23144.2125
2324.07925	23134.3125
2326.92871	23090.4125
2329.77637	23126.6125
2332.62222	23120.8125
2335.46626	23069.4125
2338.3085	23084.5125
2341.14893	23114.2125
2343.98756	23143.2125
2346.8244	23156.2125
2349.65943	23174.5125
2352.49267	23205.1125
2355.32411	23193.7125
2358.15376	23196.4125
2360.98161	23196.1125
2363.80768	23136.0125
2366.63195	23131.0125
2369.45444	23053.0125
2372.27514	22996.9125
2375.09405	22906.0125
2377.91118	22830.3125
2380.72652	22797.8125
2383.54009	22729.5125
2386.35187	22713.8125
2389.16188	22634.0125
2391.97011	22619.2125
2394.77657	22595.4125
2397.58125	22548.7125
2400.38416	22494.1125
2403.18529	22437.2125
2405.98466	22423.4125
2408.78226	22342.2125
2411.57809	22290.7125
2414.37216	22296.6125
2417.16446	22304.9125
2419.955	22248.8125
2422.74378	22184.2125
2425.5308	22194.2125
2428.31606	22197.4125
2431.09956	22181.7125
2433.88131	22144.6125
2436.6613	22185.6125
2439.43954	22180.7125
2442.21603	22165.4125
2444.99077	22182.3125
2447.76377	22147.1125
2450.53501	22135.5125
2453.30451	22148.9125
2456.07226	22164.7125
2458.83827	22129.2125
2461.60254	22136.7125
2464.36507	22132.4125
2467.12586	22148.1125
2469.88492	22123.7125
2472.64224	22173.3125
2475.39782	22205.8125
2478.15167	22221.4125
2480.90379	22252.4125
2483.65417	22232.7125
2486.40283	22271.0125
2489.14976	22299.0125
2491.89497	22325.7125
2494.63845	22375.0125
2497.3802	22333.2125
2500.12024	22367.3125
2502.85855	22374.7125
2505.59514	22366.5125
2508.33002	22288.1125
2511.06318	22282.6125
2513.79462	22258.5125
2516.52435	22243.2125
2519.25237	22194.1125
2521.97867	22115.4125
2524.70327	22109.2125
2527.42616	22083.6125
2530.14734	22073.9125
2532.86681	22096.0125
2535.58458	22076.2125
2538.30065	22040.8125
2541.01501	22018.3125
2543.72768	22042.7125
2546.43864	22069.5125
2549.14791	21991.2125
2551.85548	21994.5125
2554.56136	22016.8125
2557.26554	22017.1125
2559.96803	21967.1125
2562.66883	21968.6125
2565.36794	21947.4125
2568.06536	21944.2125
2570.7611	21919.8125
2573.45514	21924.4125
2576.14751	21913.9125
2578.83819	21905.6125
2581.52719	21904.1125
2584.21451	21872.9125
2586.90015	21891.4125
2589.58411	21935.5125
2592.2664	21935.4125
2594.94701	21882.2125
2597.62594	21913.9125
2600.30321	21847.3125
2602.9788	21903.3125
2605.65273	21862.4125
2608.32498	21894.6125
2610.99557	21862.9125
2613.66449	21900.0125
2616.33175	21863.6125
2618.99734	21953.9125
2621.66128	21947.1125
2624.32355	21934.0125
2626.98416	21999.0125
2629.64311	21952.7125
2632.30041	21937.6125
2634.95605	21954.1125
2637.61004	21899.0125
2640.26238	21890.1125
2642.91306	21886.3125
2645.56209	21819.8125
2648.20948	21847.6125
2650.85521	21821.5125
2653.4993	21807.5125
2656.14175	21772.0125
2658.78255	21791.5125
2661.42171	21733.4125
2664.05923	21817.9125
2666.6951	21855.4125
2669.32934	21853.0125
2671.96194	21842.6125
2674.59291	21844.5125
2677.22224	21870.5125
2679.84993	21857.7125
2682.476	21825.5125
2685.10043	21848.3125
2687.72324	21814.4125
2690.34441	21809.1125
2692.96396	21809.8125
2695.58188	21828.4125
2698.19818	21779.5125
2700.81285	21739.9125
2703.4259	21740.9125
2706.03733	21779.3125
2708.64714	21719.5125
2711.25533	21767.8125
2713.86191	21810.8125
2716.46687	21853.5125
2719.07021	21826.6125
2721.67194	21850.1125
2724.27206	21838.5125
2726.87057	21865.2125
2729.46747	21856.9125
2732.06276	21916.2125
2734.65644	21843.5125
2737.24852	21878.8125
2739.83899	21868.7125
2742.42786	21866.6125
2745.01513	21809.5125
2747.60079	21824.7125
2750.18486	21840.1125
2752.76733	21833.0125
2755.3482	21798.7125
2757.92747	21786.4125
2760.50515	21779.5125
2763.08123	21802.3125
2765.65573	21768.6125
2768.22863	21757.4125
2770.79994	21756.6125
2773.36967	21731.8125
2775.9378	21780.8125
2778.50435	21754.6125
2781.06932	21739.2125
2783.6327	21761.4125
2786.1945	21758.5125
2788.75471	21713.8125
2791.31335	21657.1125
2793.87041	21652.7125
2796.42589	21614.1125
2798.97979	21662.1125
2801.53212	21610.0125
2804.08288	21536.1125
2806.63206	21505.2125
2809.17967	21479.9125
2811.72571	21441.1125
2814.27018	21395.8125
2816.81308	21378.6125
2819.35442	21400.3125
2821.89419	21403.4125
2824.43239	21363.9125
2826.96904	21405.0125
2829.50412	21376.5125
2832.03763	21335.5125
2834.56959	21386.9125
2837.1	21357.3125
2839.62884	21362.8125
2842.15613	21348.7125
2844.68186	21377.6125
2847.20604	21409.8125
2849.72867	21438.4125
2852.24974	21428.1125
2854.76927	21458.3125
2857.28724	21399.4125
2859.80367	21359.8125
2862.31855	21340.7125
2864.83189	21343.3125
2867.34368	21339.5125
2869.85393	21347.5125
2872.36264	21313.3125
2874.8698	21382.4125
2877.37543	21368.6125
2879.87952	21406.6125
2882.38207	21376.6125
2884.88308	21309.5125
2887.38256	21366.7125
2889.88051	21359.6125
2892.37692	21368.3125
2894.8718	21415.9125
2897.36515	21424.5125
2899.85698	21443.2125
2902.34727	21475.7125
2904.83604	21448.1125
2907.32328	21504.6125
2909.809	21500.3125
2912.29319	21531.2125
2914.77587	21503.7125
2917.25702	21485.3125
2919.73665	21472.3125
2922.21476	21488.1125
2924.69136	21461.0125
2927.16644	21418.8125
2929.64	21360.3125
2932.11205	21348.2125
2934.58258	21264.3125
2937.05161	21282.1125
2939.51912	21237.8125
2941.98513	21207.5125
2944.44962	21165.9125
2946.91261	21046.9125
2949.37409	21103.7125
2951.83407	21073.6125
2954.29254	21081.2125
2956.74951	21013.4125
2959.20498	20982.5125
2961.65895	20948.8125
2964.11142	20944.0125
2966.56239	20858.4125
2969.01186	20819.9125
2971.45984	20707.9125
2973.90632	20694.4125
2976.35131	20672.1125
2978.7948	20623.0125
2981.23681	20541.3125
2983.67732	20485.9125
2986.11635	20384.8125
2988.55388	20357.2125
2990.98993	20349.8125
2993.4245	20273.7125
2995.85758	20197.4125
2998.28917	20174.2125
3000.71928	20183.3125
3003.14791	20129.2125
3005.57506	20064.8125
3008.00073	20002.1125
3010.42493	20032.7125
3012.84764	19949.4125
3015.26888	19981.4125
3017.68865	19914.5125
3020.10694	19852.2125
3022.52376	19793.5125
