Data from AgNPs_FTO_APTES_UA_2uM_CRN_50uM_R6G_10uM_NaF_0.1M_Addition_RamanShift__32__15-13-35-271.txt Node

Date: Wed Feb 02 15:13:35 GMT 2022
User: TCL
Spectrometer: QEP01345
Trigger mode: 4
Integration Time (sec): 7.000000E0
Scans to average: 10
Electric dark correction enabled: true
Nonlinearity correction enabled: false
Boxcar width: 0
XAxis mode: Raman Shifts
Number of Pixels in Spectrum: 1044
>>>>>Begin Spectral Data<<<<<
46.04893	2.0875
50.45542	0.7875
54.85868	-1.3125
59.25871	0.1875
63.6555	52.7875
68.04907	55.4875
72.43941	61.0875
76.82654	69.5875
81.21044	70.1875
85.59113	72.8875
89.96862	76.8875
94.34289	79.3875
98.71396	82.4875
103.08183	88.4875
107.4465	84.8875
111.80798	87.6875
116.16626	90.3875
120.52136	89.7875
124.87327	93.4875
129.222	90.0875
133.56755	97.9875
137.90993	98.9875
142.24913	107.5875
146.58517	115.8875
150.91804	129.2875
155.24774	155.3875
159.57429	183.9875
163.89768	223.6875
168.21792	289.5875
172.53501	389.9875
176.84895	535.6875
181.15975	739.5875
185.46741	1017.8875
189.77193	1402.2875
194.07331	1860.9875
198.37157	2383.9875
202.6667	2939.4875
206.9587	3501.6875
211.24758	4049.7875
215.53334	4629.4875
219.81599	5306.2875
224.09553	6051.3875
228.37195	6900.6875
232.64527	7794.0875
236.91549	8660.9875
241.18261	9452.9875
245.44663	10044.7875
249.70755	10510.2875
253.96539	10864.4875
258.22014	11267.4875
262.4718	11644.3875
266.72039	11938.7875
270.96589	12131.8875
275.20832	12198.2875
279.44768	12169.3875
283.68397	12092.9875
287.91719	12090.4875
292.14735	12200.6875
296.37445	12520.2875
300.59849	12985.3875
304.81948	13563.0875
309.03742	13983.6875
313.25231	13868.8875
317.46415	13096.3875
321.67296	11908.0875
325.87872	10897.3875
330.08145	10378.9875
334.28114	10269.0875
338.47781	10434.7875
342.67145	10783.0875
346.86207	11294.8875
351.04966	12060.2875
355.23424	12960.2875
359.4158	13570.8875
363.59435	13839.8875
367.76989	13821.9875
371.94243	13730.1875
376.11196	13520.8875
380.27849	13372.8875
384.44203	13166.1875
388.60257	12921.5875
392.76012	12827.8875
396.91468	12958.4875
401.06626	13364.8875
405.21485	13686.6875
409.36047	13408.9875
413.50311	12555.7875
417.64277	11747.9875
421.77947	11290.9875
425.9132	11120.3875
430.04396	11042.2875
434.17176	11067.4875
438.2966	11196.4875
442.41849	11444.2875
446.53742	11767.1875
450.6534	12108.8875
454.76644	12361.5875
458.87653	12396.1875
462.98368	12304.5875
467.08789	12115.7875
471.18916	11896.0875
475.2875	11604.6875
479.38291	11388.2875
483.4754	11149.3875
487.56496	10955.0875
491.6516	10791.8875
495.73531	10750.3875
499.81612	10785.4875
503.89401	10953.9875
507.96899	11099.9875
512.04106	11224.1875
516.11023	11367.3875
520.1765	11477.0875
524.23987	11355.3875
528.30034	11040.1875
532.35792	10725.7875
536.41261	10431.9875
540.46441	10130.9875
544.51333	10031.2875
548.55936	10171.2875
552.60252	10532.2875
556.64279	10954.0875
560.6802	11210.5875
564.71473	11451.4875
568.7464	12076.7875
572.7752	12496.5875
576.80114	12139.7875
580.82422	11602.8875
584.84444	11345.7875
588.86181	11185.8875
592.87633	11078.6875
596.888	11165.1875
600.89682	11612.1875
604.9028	13291.7875
608.90594	17763.2875
612.90624	23595.6875
616.90371	22724.7875
620.89834	14881.7875
624.89015	11075.5875
628.87913	10386.5875
632.86528	10483.6875
636.84862	10752.4875
640.82913	10566.9875
644.80683	9964.1875
648.78172	9532.5875
652.75379	9587.5875
656.72306	10150.7875
660.68952	10830.6875
664.65319	10702.3875
668.61405	10013.2875
672.57211	9660.5875
676.52738	9608.5875
680.47986	9603.7875
684.42955	9500.6875
688.37646	9416.5875
692.32058	9459.9875
696.26192	9574.4875
700.20048	9781.2875
704.13626	9934.7875
708.06928	9974.6875
711.99952	9870.1875
715.927	9775.0875
719.85171	9796.3875
723.77365	9712.9875
727.69284	9584.2875
731.60928	9395.0875
735.52295	9354.2875
739.43388	9370.5875
743.34206	9397.3875
747.24749	9485.8875
751.15017	9614.9875
755.05012	9902.6875
758.94733	10583.6875
762.8418	12128.9875
766.73354	14815.8875
770.62254	17621.7875
774.50882	18804.3875
778.39237	17772.3875
782.27321	14928.4875
786.15132	12136.7875
790.02671	10541.9875
793.89938	9804.9875
797.76935	9511.2875
801.6366	9346.9875
805.50115	9251.5875
809.36299	9199.1875
813.22213	9147.4875
817.07857	9102.5875
820.93231	9100.3875
824.78336	9113.1875
828.63172	9196.5875
832.47738	9202.6875
836.32036	9157.9875
840.16066	9080.2875
843.99827	8965.6875
847.8332	8923.4875
851.66546	8868.2875
855.49504	8881.6875
859.32195	8842.8875
863.1462	8767.5875
866.96777	8736.1875
870.78668	8696.1875
874.60293	8683.2875
878.41652	8704.9875
882.22745	8788.6875
886.03573	8837.8875
889.84136	8833.4875
893.64433	8715.9875
897.44466	8702.7875
901.24235	8716.9875
905.0374	8703.9875
908.8298	8656.0875
912.61957	8668.2875
916.40671	8760.0875
920.19121	8906.8875
923.97308	9005.1875
927.75233	9108.6875
931.52895	9128.0875
935.30295	8976.2875
939.07433	8611.7875
942.84309	8308.6875
946.60924	8091.2875
950.37278	7969.7875
954.13371	7933.4875
957.89203	7915.3875
961.64774	7885.4875
965.40086	7887.8875
969.15137	7830.1875
972.89929	7777.6875
976.64461	7759.1875
980.38733	7761.5875
984.12747	7765.9875
987.86502	7793.2875
991.59999	7818.3875
995.33237	7911.7875
999.06217	8104.9875
1002.78939	8331.5875
1006.51404	8565.2875
1010.23611	8845.5875
1013.95561	9004.0875
1017.67255	8952.5875
1021.38692	8759.4875
1025.09872	8575.9875
1028.80796	8461.5875
1032.51465	8471.4875
1036.21877	8572.8875
1039.92035	8729.0875
1043.61937	8838.4875
1047.31584	8842.1875
1051.00976	8850.1875
1054.70114	8839.2875
1058.38998	8849.8875
1062.07627	8990.9875
1065.76003	9073.6875
1069.44126	9207.5875
1073.11995	9349.5875
1076.79611	9466.5875
1080.46974	9626.6875
1084.14085	9915.4875
1087.80943	10309.8875
1091.47549	10518.6875
1095.13903	10332.2875
1098.80005	9845.6875
1102.45857	9420.0875
1106.11456	9163.4875
1109.76805	9142.4875
1113.41903	9315.8875
1117.06751	9702.4875
1120.71348	10243.1875
1124.35696	10793.3875
1127.99793	11376.5875
1131.63641	11412.6875
1135.2724	10739.0875
1138.90589	10063.4875
1142.5369	9692.4875
1146.16542	9496.1875
1149.79145	9402.2875
1153.415	9409.7875
1157.03607	9584.6875
1160.65467	9901.8875
1164.27079	10406.1875
1167.88443	11147.1875
1171.49561	12375.5875
1175.10432	14381.2875
1178.71056	16963.5875
1182.31434	18667.2875
1185.91565	18903.5875
1189.51451	18250.2875
1193.11091	16981.9875
1196.70485	15480.9875
1200.29634	14365.8875
1203.88538	13512.6875
1207.47197	12517.8875
1211.05612	11618.0875
1214.63782	11127.3875
1218.21708	10902.0875
1221.79391	10889.1875
1225.36829	10939.2875
1228.94024	11021.3875
1232.50976	11099.2875
1236.07685	11135.2875
1239.6415	11143.8875
1243.20374	11139.9875
1246.76355	11200.0875
1250.32093	11379.7875
1253.8759	11679.4875
1257.42845	12098.6875
1260.97859	12575.2875
1264.52631	13055.4875
1268.07163	13524.8875
1271.61453	14025.9875
1275.15503	14351.7875
1278.69312	14451.6875
1282.22882	14492.3875
1285.76211	14841.0875
1289.29301	15429.4875
1292.82151	16068.9875
1296.34761	16755.4875
1299.87133	17681.2875
1303.39266	19310.8875
1306.9116	21718.5875
1310.42815	24658.5875
1313.94233	26697.2875
1317.45412	26541.8875
1320.96354	24940.1875
1324.47058	22862.2875
1327.97525	21108.1875
1331.47754	19939.7875
1334.97747	19454.0875
1338.47502	19355.3875
1341.97022	19588.3875
1345.46305	20097.5875
1348.95352	21057.6875
1352.44163	22495.4875
1355.92738	24797.7875
1359.41078	28527.1875
1362.89183	32760.9875
1366.37053	32384.0875
1369.84688	27242.3875
1373.32088	21785.2875
1376.79254	18381.5875
1380.26186	16753.8875
1383.72883	15956.3875
1387.19347	15439.3875
1390.65578	14785.9875
1394.11575	14287.7875
1397.57339	14045.9875
1401.0287	14098.1875
1404.48168	14346.8875
1407.93234	14472.8875
1411.38068	14508.5875
1414.82669	14291.6875
1418.27039	13870.1875
1421.71177	13386.7875
1425.15083	12916.9875
1428.58758	12537.4875
1432.02203	12433.4875
1435.45416	12543.7875
1438.88399	12702.6875
1442.31151	12816.8875
1445.73673	12946.4875
1449.15965	13153.8875
1452.58027	13231.9875
1455.9986	13221.6875
1459.41463	13261.1875
1462.82837	13479.1875
1466.23982	13752.7875
1469.64898	14108.5875
1473.05586	14413.3875
1476.46045	14570.8875
1479.86276	14772.2875
1483.26279	15128.1875
1486.66054	15496.7875
1490.05602	16029.7875
1493.44922	16810.8875
1496.84016	18082.9875
1500.22882	20105.4875
1503.61521	22891.1875
1506.99934	26106.0875
1510.38121	29348.3875
1513.76081	31270.5875
1517.13816	30235.7875
1520.51324	26545.1875
1523.88607	22474.7875
1527.25665	19594.8875
1530.62498	17820.1875
1533.99105	16832.7875
1537.35488	16095.0875
1540.71647	15649.2875
1544.07581	15312.1875
1547.4329	15058.0875
1550.78776	14861.8875
1554.14038	14812.4875
1557.49077	14966.9875
1560.83892	15357.3875
1564.18484	15982.1875
1567.52853	16596.1875
1570.86999	17078.4875
1574.20922	17414.1875
1577.54624	17328.6875
1580.88103	16415.5875
1584.2136	15130.4875
1587.54395	14433.6875
1590.87208	14557.7875
1594.19801	15400.0875
1597.52172	16536.4875
1600.84321	16947.8875
1604.16251	16149.9875
1607.47959	14866.3875
1610.79447	13560.8875
1614.10715	12334.5875
1617.41763	11326.3875
1620.7259	10673.7875
1624.03199	10315.1875
1627.33587	10308.6875
1630.63757	10547.0875
1633.93707	11138.2875
1637.23439	12138.0875
1640.52951	13636.5875
1643.82246	15749.0875
1647.11321	18319.7875
1650.40179	20406.4875
1653.68819	20276.9875
1656.97241	17545.2875
1660.25446	14016.1875
1663.53433	11378.1875
1666.81203	9770.1875
1670.08756	8851.4875
1673.36092	8281.2875
1676.63211	7910.9875
1679.90115	7693.8875
1683.16801	7510.1875
1686.43272	7377.1875
1689.69527	7275.4875
1692.95567	7203.2875
1696.2139	7174.5875
1699.46999	7141.4875
1702.72392	7097.1875
1705.97571	7079.6875
1709.22535	7040.6875
1712.47284	7019.0875
1715.71819	7002.7875
1718.96139	6996.2875
1722.20246	6983.5875
1725.44139	6942.5875
1728.67818	6886.5875
1731.91284	6813.0875
1735.14537	6731.3875
1738.37576	6668.8875
1741.60403	6634.1875
1744.83017	6610.5875
1748.05418	6598.4875
1751.27607	6571.5875
1754.49584	6542.0875
1757.71349	6554.6875
1760.92903	6536.6875
1764.14244	6510.4875
1767.35375	6464.2875
1770.56294	6442.9875
1773.77002	6410.5875
1776.97499	6376.7875
1780.17785	6337.7875
1783.37861	6310.1875
1786.57727	6276.0875
1789.77382	6264.7875
1792.96828	6259.8875
1796.16064	6248.3875
1799.3509	6230.5875
1802.53907	6198.6875
1805.72514	6180.3875
1808.90913	6137.0875
1812.09102	6131.4875
1815.27083	6119.5875
1818.44856	6098.1875
1821.6242	6085.8875
1824.79776	6079.9875
1827.96924	6064.5875
1831.13864	6043.5875
1834.30597	6048.6875
1837.47122	6040.6875
1840.6344	6037.9875
1843.7955	6025.4875
1846.95454	6036.7875
1850.11151	6002.6875
1853.26642	6024.3875
1856.41926	5992.8875
1859.57004	6013.5875
1862.71876	6003.9875
1865.86542	5999.4875
1869.01003	6013.2875
1872.15258	6007.9875
1875.29308	6017.7875
1878.43152	6008.2875
1881.56792	6033.1875
1884.70227	6020.5875
1887.83457	6018.5875
1890.96482	6029.1875
1894.09304	6028.6875
1897.21921	6053.0875
1900.34335	6031.8875
1903.46544	6036.8875
1906.58551	6033.0875
1909.70353	6044.5875
1912.81953	6038.5875
1915.93349	6050.3875
1919.04543	6055.2875
1922.15534	6036.6875
1925.26322	6012.8875
1928.36908	5986.0875
1931.47292	5955.9875
1934.57473	5902.8875
1937.67453	5848.8875
1940.77232	5798.1875
1943.86808	5795.1875
1946.96184	5748.3875
1950.05358	5717.8875
1953.14331	5691.9875
1956.23103	5660.8875
1959.31675	5643.0875
1962.40046	5619.8875
1965.48217	5600.8875
1968.56188	5584.2875
1971.63959	5566.7875
1974.7153	5540.0875
1977.78901	5541.9875
1980.86073	5495.2875
1983.93046	5494.1875
1986.99819	5440.8875
1990.06394	5446.3875
1993.1277	5418.0875
1996.18947	5363.7875
1999.24925	5358.7875
2002.30706	5358.6875
2005.36288	5327.6875
2008.41672	5320.8875
2011.46859	5290.4875
2014.51848	5270.1875
2017.56639	5237.8875
2020.61233	5239.1875
2023.6563	5207.4875
2026.6983	5214.9875
2029.73833	5212.7875
2032.7764	5171.6875
2035.8125	5149.2875
2038.84664	5151.5875
2041.87881	5150.1875
2044.90903	5113.5875
2047.93729	5112.4875
2050.96359	5113.2875
2053.98794	5106.1875
2057.01034	5089.2875
2060.03078	5092.7875
2063.04927	5077.0875
2066.06582	5066.4875
2069.08042	5059.3875
2072.09307	5065.2875
2075.10378	5061.5875
2078.11255	5025.6875
2081.11938	5055.7875
2084.12426	5037.3875
2087.12722	5026.1875
2090.12824	5017.1875
2093.12732	5015.6875
2096.12447	5028.7875
2099.11969	5020.4875
2102.11299	5013.5875
2105.10435	5041.3875
2108.09379	5029.1875
2111.08131	5027.2875
2114.0669	5024.4875
2117.05057	5035.0875
2120.03233	5037.0875
2123.01216	5033.2875
2125.99008	5029.8875
2128.96609	5040.3875
2131.94018	5035.3875
2134.91236	5023.9875
2137.88263	5032.6875
2140.851	5021.4875
2143.81746	5028.5875
2146.78201	5030.3875
2149.74466	5018.0875
2152.7054	5032.1875
2155.66425	5010.1875
2158.6212	5001.3875
2161.57625	5011.2875
2164.52941	4983.2875
2167.48067	4979.3875
2170.43004	4987.0875
2173.37752	4978.9875
2176.32311	4960.7875
2179.26681	4988.8875
2182.20863	4976.2875
2185.14856	4964.0875
2188.08661	4956.1875
2191.02278	4968.8875
2193.95707	4954.2875
2196.88948	4936.1875
2199.82001	4935.8875
2202.74867	4937.3875
2205.67545	4922.9875
2208.60037	4900.8875
2211.52341	4912.9875
2214.44458	4896.2875
2217.36388	4885.4875
2220.28132	4890.1875
2223.1969	4872.2875
2226.11061	4844.7875
2229.02246	4841.9875
2231.93245	4808.5875
2234.84058	4806.7875
2237.74686	4785.9875
2240.65128	4789.6875
2243.55385	4780.9875
2246.45456	4800.3875
2249.35343	4779.9875
2252.25044	4785.7875
2255.14561	4765.6875
2258.03893	4776.2875
2260.93041	4779.8875
2263.82004	4752.7875
2266.70783	4748.1875
2269.59378	4740.4875
2272.4779	4719.7875
2275.36017	4702.7875
2278.24061	4686.3875
2281.11922	4690.1875
2283.996	4677.0875
2286.87094	4664.8875
2289.74405	4649.4875
2292.61534	4638.1875
2295.4848	4606.0875
2298.35243	4599.0875
2301.21824	4603.4875
2304.08223	4612.8875
2306.94439	4620.4875
2309.80474	4592.2875
2312.66327	4604.4875
2315.51999	4591.0875
2318.37489	4582.3875
2321.22797	4571.2875
2324.07925	4581.0875
2326.92871	4573.6875
2329.77637	4563.7875
2332.62222	4564.9875
2335.46626	4551.2875
2338.3085	4557.2875
2341.14893	4546.4875
2343.98756	4557.8875
2346.8244	4544.7875
2349.65943	4554.8875
2352.49267	4575.2875
2355.32411	4575.1875
2358.15376	4593.5875
2360.98161	4594.6875
2363.80768	4614.4875
2366.63195	4610.9875
2369.45444	4607.6875
2372.27514	4629.1875
2375.09405	4608.4875
2377.91118	4577.6875
2380.72652	4561.8875
2383.54009	4537.5875
2386.35187	4525.6875
2389.16188	4494.0875
2391.97011	4481.4875
2394.77657	4452.9875
2397.58125	4435.9875
2400.38416	4428.8875
2403.18529	4415.3875
2405.98466	4409.0875
2408.78226	4393.5875
2411.57809	4382.0875
2414.37216	4372.7875
2417.16446	4376.5875
2419.955	4360.6875
2422.74378	4380.0875
2425.5308	4356.9875
2428.31606	4357.4875
2431.09956	4350.1875
2433.88131	4361.2875
2436.6613	4376.3875
2439.43954	4358.2875
2442.21603	4362.5875
2444.99077	4361.9875
2447.76377	4367.4875
2450.53501	4359.9875
2453.30451	4377.2875
2456.07226	4370.1875
2458.83827	4359.1875
2461.60254	4380.9875
2464.36507	4364.0875
2467.12586	4343.6875
2469.88492	4358.1875
2472.64224	4369.7875
2475.39782	4364.9875
2478.15167	4375.1875
2480.90379	4383.8875
2483.65417	4390.5875
2486.40283	4401.6875
2489.14976	4419.5875
2491.89497	4426.8875
2494.63845	4444.3875
2497.3802	4423.6875
2500.12024	4427.7875
2502.85855	4407.7875
2505.59514	4395.3875
2508.33002	4379.9875
2511.06318	4370.5875
2513.79462	4339.3875
2516.52435	4316.5875
2519.25237	4291.1875
2521.97867	4259.1875
2524.70327	4252.9875
2527.42616	4237.2875
2530.14734	4248.9875
2532.86681	4224.7875
2535.58458	4224.8875
2538.30065	4226.1875
2541.01501	4239.7875
2543.72768	4214.8875
2546.43864	4210.4875
2549.14791	4207.9875
2551.85548	4227.3875
2554.56136	4208.8875
2557.26554	4220.7875
2559.96803	4215.5875
2562.66883	4210.7875
2565.36794	4201.5875
2568.06536	4199.2875
2570.7611	4193.7875
2573.45514	4179.7875
2576.14751	4171.5875
2578.83819	4155.3875
2581.52719	4163.9875
2584.21451	4142.0875
2586.90015	4144.2875
2589.58411	4138.0875
2592.2664	4128.4875
2594.94701	4134.8875
2597.62594	4135.0875
2600.30321	4121.8875
2602.9788	4123.8875
2605.65273	4112.7875
2608.32498	4123.0875
2610.99557	4105.3875
2613.66449	4124.8875
2616.33175	4124.6875
2618.99734	4114.2875
2621.66128	4106.0875
2624.32355	4102.0875
2626.98416	4110.7875
2629.64311	4098.4875
2632.30041	4081.6875
2634.95605	4083.0875
2637.61004	4076.1875
2640.26238	4064.7875
2642.91306	4068.8875
2645.56209	4072.3875
2648.20948	4061.0875
2650.85521	4054.1875
2653.4993	4064.0875
2656.14175	4061.4875
2658.78255	4069.9875
2661.42171	4069.4875
2664.05923	4076.3875
2666.6951	4081.6875
2669.32934	4084.5875
2671.96194	4097.4875
2674.59291	4100.2875
2677.22224	4099.1875
2679.84993	4103.4875
2682.476	4100.1875
2685.10043	4100.5875
2687.72324	4087.0875
2690.34441	4077.2875
2692.96396	4087.6875
2695.58188	4084.0875
2698.19818	4090.6875
2700.81285	4089.9875
2703.4259	4097.3875
2706.03733	4126.2875
2708.64714	4098.1875
2711.25533	4120.9875
2713.86191	4103.8875
2716.46687	4115.5875
2719.07021	4116.4875
2721.67194	4132.2875
2724.27206	4128.3875
2726.87057	4138.2875
2729.46747	4110.0875
2732.06276	4120.3875
2734.65644	4090.8875
2737.24852	4097.1875
2739.83899	4092.2875
2742.42786	4084.9875
2745.01513	4060.4875
2747.60079	4066.6875
2750.18486	4037.5875
2752.76733	4055.5875
2755.3482	4055.0875
2757.92747	4045.9875
2760.50515	4045.8875
2763.08123	4054.2875
2765.65573	4036.7875
2768.22863	4018.2875
2770.79994	4018.8875
2773.36967	4015.3875
2775.9378	4013.7875
2778.50435	4005.1875
2781.06932	4019.1875
2783.6327	3997.7875
2786.1945	4008.9875
2788.75471	4009.7875
2791.31335	4004.9875
2793.87041	4006.7875
2796.42589	3997.1875
2798.97979	4004.8875
2801.53212	4004.9875
2804.08288	4007.4875
2806.63206	4011.0875
2809.17967	3991.7875
2811.72571	4007.2875
2814.27018	4011.8875
2816.81308	4016.2875
2819.35442	4007.4875
2821.89419	4027.1875
2824.43239	4023.9875
2826.96904	4037.0875
2829.50412	4040.2875
2832.03763	4039.5875
2834.56959	4058.3875
2837.1	4062.8875
2839.62884	4093.7875
2842.15613	4126.0875
2844.68186	4174.8875
2847.20604	4263.5875
2849.72867	4333.5875
2852.24974	4343.2875
2854.76927	4348.3875
2857.28724	4345.1875
2859.80367	4325.3875
2862.31855	4313.4875
2864.83189	4293.4875
2867.34368	4274.4875
2869.85393	4277.8875
2872.36264	4277.7875
2874.8698	4292.0875
2877.37543	4278.6875
2879.87952	4266.5875
2882.38207	4277.6875
2884.88308	4252.4875
2887.38256	4256.4875
2889.88051	4242.2875
2892.37692	4242.2875
2894.8718	4257.3875
2897.36515	4238.4875
2899.85698	4252.6875
2902.34727	4265.4875
2904.83604	4269.5875
2907.32328	4292.6875
2909.809	4264.2875
2912.29319	4267.9875
2914.77587	4273.7875
2917.25702	4265.9875
2919.73665	4266.6875
2922.21476	4265.8875
2924.69136	4251.0875
2927.16644	4252.0875
2929.64	4239.6875
2932.11205	4223.4875
2934.58258	4216.1875
2937.05161	4194.8875
2939.51912	4184.1875
2941.98513	4150.7875
2944.44962	4089.9875
2946.91261	4056.3875
2949.37409	4000.9875
2951.83407	3987.2875
2954.29254	3948.0875
2956.74951	3959.2875
2959.20498	3948.0875
2961.65895	3923.0875
2964.11142	3909.2875
2966.56239	3904.9875
2969.01186	3890.0875
2971.45984	3869.3875
2973.90632	3848.4875
2976.35131	3830.3875
2978.7948	3825.8875
2981.23681	3793.6875
2983.67732	3799.8875
2986.11635	3768.9875
2988.55388	3762.8875
2990.98993	3761.1875
2993.4245	3744.2875
2995.85758	3738.6875
2998.28917	3720.6875
3000.71928	3723.6875
3003.14791	3714.2875
3005.57506	3706.6875
3008.00073	3686.1875
3010.42493	3687.0875
3012.84764	3676.5875
3015.26888	3686.0875
3017.68865	3673.8875
3020.10694	3661.2875
3022.52376	3664.3875
3024.9391	3656.9875
3027.35298	3647.7875
3029.76539	3648.3875
3032.17632	3653.2875
3034.5858	3633.2875
3036.9938	3632.3875
3039.40034	3627.8875
3041.80542	3614.8875
3044.20903	3599.3875
3046.61118	3618.6875
3049.01187	3599.4875
3051.4111	3591.5875
3053.80888	3585.4875
3056.20519	3584.6875
3058.60005	3578.4875
3060.99345	3573.8875
3063.3854	3571.4875
3065.7759	3564.5875
3068.16494	3571.9875
3070.55254	3530.0875
3072.93868	3540.6875
3075.32338	3523.9875
3077.70662	3514.1875
3080.08842	3499.5875
3082.46878	3492.4875
3084.84769	3472.4875
3087.22515	3480.0875
3089.60118	3465.1875
3091.97576	3468.3875
3094.3489	3462.9875
