Data from AgNPs_FTO_APTES_UA_2uM_CRN_1uM_R6G_10uM_NaF_0.1M_Addition_RamanShift__17__11-38-55-021.txt Node

Date: Wed Feb 02 11:38:55 GMT 2022
User: TCL
Spectrometer: QEP01345
Trigger mode: 4
Integration Time (sec): 7.000000E0
Scans to average: 10
Electric dark correction enabled: true
Nonlinearity correction enabled: false
Boxcar width: 0
XAxis mode: Raman Shifts
Number of Pixels in Spectrum: 1044
>>>>>Begin Spectral Data<<<<<
46.04893	0.775
50.45542	-1.625
54.85868	-0.325
59.25871	-0.925
63.6555	89.075
68.04907	89.175
72.43941	94.375
76.82654	100.575
81.21044	106.075
85.59113	108.175
89.96862	110.675
94.34289	113.075
98.71396	116.875
103.08183	125.275
107.4465	131.275
111.80798	127.475
116.16626	131.975
120.52136	142.975
124.87327	142.075
129.222	153.775
133.56755	164.875
137.90993	178.075
142.24913	200.075
146.58517	229.075
150.91804	268.875
155.24774	325.275
159.57429	404.275
163.89768	518.575
168.21792	695.375
172.53501	954.275
176.84895	1324.375
181.15975	1874.375
185.46741	2616.675
189.77193	3593.275
194.07331	4799.675
198.37157	6175.475
202.6667	7584.275
206.9587	9024.575
211.24758	10430.775
215.53334	11870.575
219.81599	13417.075
224.09553	15173.575
228.37195	17115.275
232.64527	19182.575
236.91549	21361.175
241.18261	23434.575
245.44663	25296.275
249.70755	26897.075
253.96539	28290.975
258.22014	29495.575
262.4718	30517.775
266.72039	31236.975
270.96589	31665.275
275.20832	31692.975
279.44768	31529.275
283.68397	31256.775
287.91719	31145.675
292.14735	31124.275
296.37445	31311.375
300.59849	31551.875
304.81948	31862.075
309.03742	31881.675
313.25231	31510.175
317.46415	30468.775
321.67296	29135.675
325.87872	27940.375
330.08145	27242.475
334.28114	27018.575
338.47781	27123.975
342.67145	27450.175
346.86207	27997.575
351.04966	28724.675
355.23424	29461.975
359.4158	30095.475
363.59435	30447.175
367.76989	30716.775
371.94243	30795.875
376.11196	30835.075
380.27849	30890.575
384.44203	31025.075
388.60257	31224.875
392.76012	31545.875
396.91468	32050.075
401.06626	32630.675
405.21485	32963.975
409.36047	32616.375
413.50311	31840.875
417.64277	31211.575
421.77947	30928.775
425.9132	31022.175
430.04396	31103.375
434.17176	31247.875
438.2966	31425.775
442.41849	31910.475
446.53742	32822.075
450.6534	33836.775
454.76644	34634.675
458.87653	34865.875
462.98368	34749.775
467.08789	34474.475
471.18916	34033.375
475.2875	33760.875
479.38291	33753.275
483.4754	33803.975
487.56496	33524.375
491.6516	32920.375
495.73531	32176.375
499.81612	31652.175
503.89401	31612.075
507.96899	31612.975
512.04106	31493.875
516.11023	31142.475
520.1765	30745.875
524.23987	30319.375
528.30034	29905.475
532.35792	29466.575
536.41261	28932.375
540.46441	28456.275
544.51333	28352.075
548.55936	28867.475
552.60252	29872.175
556.64279	30929.775
560.6802	31636.475
564.71473	32151.975
568.7464	32980.575
572.7752	34147.675
576.80114	34988.075
580.82422	35527.875
584.84444	36085.175
588.86181	36549.575
592.87633	36817.075
596.888	36807.175
600.89682	36508.975
604.9028	37721.075
608.90594	42150.675
612.90624	46931.175
616.90371	43643.075
620.89834	34270.275
624.89015	29986.175
628.87913	29449.975
632.86528	29719.775
636.84862	29745.275
640.82913	29211.375
644.80683	28129.075
648.78172	27233.275
652.75379	26911.975
656.72306	27297.675
660.68952	27971.575
664.65319	27824.275
668.61405	27088.275
672.57211	26705.975
676.52738	26753.775
680.47986	26688.675
684.42955	26509.475
688.37646	26350.175
692.32058	26378.975
696.26192	26755.975
700.20048	27303.575
704.13626	27605.475
708.06928	27677.975
711.99952	27475.175
715.927	27352.475
719.85171	27426.875
723.77365	27324.675
727.69284	26899.075
731.60928	26497.475
735.52295	26328.275
739.43388	26343.975
743.34206	26439.075
747.24749	26607.575
751.15017	26971.775
755.05012	27689.575
758.94733	28867.675
762.8418	31046.375
766.73354	34584.175
770.62254	38022.975
774.50882	38795.575
778.39237	36413.675
782.27321	32711.875
786.15132	29707.375
790.02671	27857.375
793.89938	26958.175
797.76935	26560.875
801.6366	26407.475
805.50115	26301.975
809.36299	26071.675
813.22213	25819.175
817.07857	25647.275
820.93231	25609.775
824.78336	25361.175
828.63172	25253.375
832.47738	25128.875
836.32036	25145.675
840.16066	25169.475
843.99827	25273.475
847.8332	25176.875
851.66546	25027.975
855.49504	24923.775
859.32195	24929.175
863.1462	24780.975
866.96777	24695.175
870.78668	24549.675
874.60293	24537.475
878.41652	24624.475
882.22745	24714.675
886.03573	24890.275
889.84136	24907.575
893.64433	24880.875
897.44466	24801.775
901.24235	24715.175
905.0374	24559.075
908.8298	24395.775
912.61957	24412.175
916.40671	24688.275
920.19121	25166.275
923.97308	25624.375
927.75233	25875.675
931.52895	25706.475
935.30295	25208.775
939.07433	24400.975
942.84309	23758.875
946.60924	23411.675
950.37278	23301.175
954.13371	23236.875
957.89203	23147.975
961.64774	23145.675
965.40086	23098.175
969.15137	23014.875
972.89929	22844.275
976.64461	22697.575
980.38733	22622.475
984.12747	22687.475
987.86502	22854.875
991.59999	23178.575
995.33237	23716.175
999.06217	24593.475
1002.78939	25618.175
1006.51404	26318.375
1010.23611	26736.775
1013.95561	27055.075
1017.67255	27098.075
1021.38692	26671.575
1025.09872	26161.875
1028.80796	26133.675
1032.51465	26825.975
1036.21877	27551.475
1039.92035	27676.475
1043.61937	27321.475
1047.31584	26692.175
1051.00976	26013.275
1054.70114	25717.375
1058.38998	25728.675
1062.07627	25956.975
1065.76003	26243.775
1069.44126	26604.175
1073.11995	27134.475
1076.79611	27670.475
1080.46974	27927.575
1084.14085	28197.175
1087.80943	28679.675
1091.47549	29143.875
1095.13903	29276.575
1098.80005	28737.075
1102.45857	27735.975
1106.11456	26876.075
1109.76805	26394.075
1113.41903	26363.975
1117.06751	26565.675
1120.71348	26984.775
1124.35696	27485.975
1127.99793	28068.175
1131.63641	28450.275
1135.2724	28267.375
1138.90589	27974.275
1142.5369	27858.275
1146.16542	27937.575
1149.79145	28153.675
1153.415	28520.075
1157.03607	29158.275
1160.65467	30185.275
1164.27079	31910.575
1167.88443	34281.575
1171.49561	37351.375
1175.10432	41410.275
1178.71056	46529.375
1182.31434	51215.275
1185.91565	53739.475
1189.51451	53739.275
1193.11091	51861.375
1196.70485	48820.275
1200.29634	45656.775
1203.88538	43240.575
1207.47197	41540.575
1211.05612	40415.275
1214.63782	39369.275
1218.21708	38500.775
1221.79391	37847.775
1225.36829	37436.875
1228.94024	36992.775
1232.50976	36308.875
1236.07685	35612.775
1239.6415	35164.475
1243.20374	34817.175
1246.76355	34880.675
1250.32093	35331.075
1253.8759	36404.275
1257.42845	37874.675
1260.97859	39547.575
1264.52631	41234.275
1268.07163	42841.775
1271.61453	44613.375
1275.15503	46471.375
1278.69312	48297.075
1282.22882	49851.175
1285.76211	51453.775
1289.29301	53340.975
1292.82151	55760.475
1296.34761	58849.475
1299.87133	62622.175
1303.39266	67072.975
1306.9116	71907.275
1310.42815	76465.675
1313.94233	79671.175
1317.45412	80092.975
1320.96354	79022.075
1324.47058	77630.375
1327.97525	76196.475
1331.47754	74967.475
1334.97747	73816.975
1338.47502	72627.375
1341.97022	71255.575
1345.46305	69485.175
1348.95352	67588.675
1352.44163	66315.175
1355.92738	67032.575
1359.41078	70042.875
1362.89183	73763.775
1366.37053	73583.675
1369.84688	67621.875
1373.32088	59548.875
1376.79254	53548.275
1380.26186	50962.675
1383.72883	50505.675
1387.19347	50416.375
1390.65578	50080.875
1394.11575	50275.375
1397.57339	51117.275
1401.0287	52470.175
1404.48168	53506.075
1407.93234	53432.275
1411.38068	52125.175
1414.82669	49798.575
1418.27039	47010.875
1421.71177	44352.175
1425.15083	42216.575
1428.58758	41023.575
1432.02203	41086.675
1435.45416	42076.575
1438.88399	43552.375
1442.31151	44850.875
1445.73673	45948.475
1449.15965	47004.775
1452.58027	47916.375
1455.9986	48363.875
1459.41463	48852.875
1462.82837	49704.375
1466.23982	50658.175
1469.64898	51359.975
1473.05586	51621.575
1476.46045	51374.975
1479.86276	50635.975
1483.26279	49982.375
1486.66054	49631.975
1490.05602	49809.375
1493.44922	50465.075
1496.84016	51381.175
1500.22882	52874.875
1503.61521	55375.075
1506.99934	58244.375
1510.38121	60875.475
1513.76081	61898.675
1517.13816	60250.375
1520.51324	57013.275
1523.88607	53936.475
1527.25665	51966.875
1530.62498	51024.075
1533.99105	50433.975
1537.35488	49805.275
1540.71647	48855.775
1544.07581	47544.675
1547.4329	46154.675
1550.78776	44881.275
1554.14038	44196.575
1557.49077	44006.875
1560.83892	44062.775
1564.18484	44288.375
1567.52853	44590.775
1570.86999	45056.175
1574.20922	45977.275
1577.54624	46908.975
1580.88103	47199.575
1584.2136	47438.275
1587.54395	48899.075
1590.87208	51563.375
1594.19801	55002.875
1597.52172	58228.475
1600.84321	58798.275
1604.16251	55182.875
1607.47959	49701.675
1610.79447	44222.075
1614.10715	39448.475
1617.41763	35572.375
1620.7259	33023.975
1624.03199	31738.975
1627.33587	31732.275
1630.63757	33117.875
1633.93707	36018.475
1637.23439	40738.175
1640.52951	47353.575
1643.82246	54789.275
1647.11321	60623.175
1650.40179	62020.775
1653.68819	57651.375
1656.97241	49233.475
1660.25446	40382.475
1663.53433	33547.375
1666.81203	29031.675
1670.08756	26266.375
1673.36092	24532.175
1676.63211	23451.775
1679.90115	22723.875
1683.16801	22200.875
1686.43272	21789.375
1689.69527	21542.375
1692.95567	21301.675
1696.2139	21142.575
1699.46999	21019.175
1702.72392	20903.175
1705.97571	20830.475
1709.22535	20730.175
1712.47284	20652.875
1715.71819	20607.275
1718.96139	20509.375
1722.20246	20444.475
1725.44139	20300.175
1728.67818	20143.075
1731.91284	19956.275
1735.14537	19844.475
1738.37576	19732.675
1741.60403	19592.175
1744.83017	19510.675
1748.05418	19452.675
1751.27607	19404.075
1754.49584	19363.775
1757.71349	19330.375
1760.92903	19323.775
1764.14244	19265.175
1767.35375	19261.075
1770.56294	19189.975
1773.77002	19176.375
1776.97499	19093.175
1780.17785	19032.775
1783.37861	18980.775
1786.57727	18986.075
1789.77382	18886.375
1792.96828	18872.475
1796.16064	18863.775
1799.3509	18759.275
1802.53907	18737.875
1805.72514	18686.275
1808.90913	18633.375
1812.09102	18594.975
1815.27083	18546.675
1818.44856	18519.475
1821.6242	18523.575
1824.79776	18504.575
1827.96924	18494.675
1831.13864	18499.375
1834.30597	18522.075
1837.47122	18579.375
1840.6344	18612.175
1843.7955	18644.175
1846.95454	18649.375
1850.11151	18653.175
1853.26642	18659.675
1856.41926	18676.075
1859.57004	18706.875
1862.71876	18686.975
1865.86542	18661.175
1869.01003	18666.375
1872.15258	18660.075
1875.29308	18678.075
1878.43152	18648.175
1881.56792	18678.275
1884.70227	18680.675
1887.83457	18668.275
1890.96482	18674.375
1894.09304	18653.175
1897.21921	18640.975
1900.34335	18656.675
1903.46544	18622.275
1906.58551	18598.275
1909.70353	18534.975
1912.81953	18479.375
1915.93349	18436.775
1919.04543	18350.375
1922.15534	18292.775
1925.26322	18164.675
1928.36908	18057.675
1931.47292	17986.475
1934.57473	17851.575
1937.67453	17804.775
1940.77232	17690.075
1943.86808	17604.875
1946.96184	17522.775
1950.05358	17464.875
1953.14331	17381.075
1956.23103	17347.875
1959.31675	17245.175
1962.40046	17210.975
1965.48217	17149.075
1968.56188	17107.275
1971.63959	17033.675
1974.7153	16979.375
1977.78901	16921.975
1980.86073	16881.975
1983.93046	16800.875
1986.99819	16772.875
1990.06394	16684.275
1993.1277	16648.975
1996.18947	16550.475
1999.24925	16508.575
2002.30706	16453.375
2005.36288	16399.375
2008.41672	16376.375
2011.46859	16328.075
2014.51848	16274.475
2017.56639	16221.275
2020.61233	16188.875
2023.6563	16128.975
2026.6983	16087.375
2029.73833	16107.575
2032.7764	16067.275
2035.8125	16045.775
2038.84664	16033.175
2041.87881	15998.375
2044.90903	16026.375
2047.93729	15991.575
2050.96359	15975.875
2053.98794	15923.675
2057.01034	15897.375
2060.03078	15870.475
2063.04927	15852.875
2066.06582	15802.675
2069.08042	15807.575
2072.09307	15783.075
2075.10378	15793.975
2078.11255	15778.875
2081.11938	15799.975
2084.12426	15746.575
2087.12722	15743.975
2090.12824	15699.175
2093.12732	15740.975
2096.12447	15776.175
2099.11969	15747.575
2102.11299	15779.375
2105.10435	15768.075
2108.09379	15741.175
2111.08131	15753.775
2114.0669	15758.075
2117.05057	15771.575
2120.03233	15771.475
2123.01216	15797.775
2125.99008	15793.075
2128.96609	15780.975
2131.94018	15776.575
2134.91236	15816.575
2137.88263	15800.075
2140.851	15796.575
2143.81746	15802.375
2146.78201	15789.275
2149.74466	15804.175
2152.7054	15822.075
2155.66425	15791.075
2158.6212	15781.775
2161.57625	15796.875
2164.52941	15764.575
2167.48067	15769.175
2170.43004	15773.175
2173.37752	15737.975
2176.32311	15790.975
2179.26681	15774.075
2182.20863	15768.775
2185.14856	15804.975
2188.08661	15758.375
2191.02278	15737.475
2193.95707	15727.975
2196.88948	15733.975
2199.82001	15721.275
2202.74867	15735.375
2205.67545	15737.875
2208.60037	15736.675
2211.52341	15716.775
2214.44458	15705.075
2217.36388	15702.975
2220.28132	15663.275
2223.1969	15591.875
2226.11061	15595.175
2229.02246	15549.975
2231.93245	15533.875
2234.84058	15483.975
2237.74686	15461.775
2240.65128	15447.675
2243.55385	15428.775
2246.45456	15406.875
2249.35343	15379.475
2252.25044	15326.175
2255.14561	15315.975
2258.03893	15330.675
2260.93041	15279.575
2263.82004	15253.675
2266.70783	15192.975
2269.59378	15176.775
2272.4779	15136.175
2275.36017	15095.875
2278.24061	15063.575
2281.11922	15046.175
2283.996	15044.275
2286.87094	14992.675
2289.74405	14974.975
2292.61534	14911.275
2295.4848	14932.075
2298.35243	14949.575
2301.21824	14930.875
2304.08223	14939.175
2306.94439	14933.975
2309.80474	14952.775
2312.66327	14957.475
2315.51999	14954.475
2318.37489	14971.175
2321.22797	14958.775
2324.07925	14931.075
2326.92871	14908.075
2329.77637	14928.475
2332.62222	14945.575
2335.46626	14945.375
2338.3085	14891.775
2341.14893	14937.475
2343.98756	14968.575
2346.8244	14967.575
2349.65943	14940.475
2352.49267	14921.975
2355.32411	14957.175
2358.15376	14935.275
2360.98161	14971.875
2363.80768	14958.875
2366.63195	14931.075
2369.45444	14879.175
2372.27514	14893.875
2375.09405	14917.375
2377.91118	14824.575
2380.72652	14748.875
2383.54009	14720.775
2386.35187	14701.475
2389.16188	14620.075
2391.97011	14612.875
2394.77657	14596.175
2397.58125	14562.675
2400.38416	14599.975
2403.18529	14519.275
2405.98466	14492.175
2408.78226	14483.575
2411.57809	14465.775
2414.37216	14451.475
2417.16446	14411.275
2419.955	14399.475
2422.74378	14406.275
2425.5308	14427.275
2428.31606	14400.075
2431.09956	14391.475
2433.88131	14337.975
2436.6613	14369.175
2439.43954	14355.475
2442.21603	14395.475
2444.99077	14352.075
2447.76377	14394.175
2450.53501	14361.875
2453.30451	14384.375
2456.07226	14377.375
2458.83827	14396.675
2461.60254	14394.675
2464.36507	14420.875
2467.12586	14396.675
2469.88492	14397.475
2472.64224	14425.475
2475.39782	14410.875
2478.15167	14417.675
2480.90379	14420.475
2483.65417	14437.875
2486.40283	14468.075
2489.14976	14463.675
2491.89497	14477.575
2494.63845	14495.975
2497.3802	14480.275
2500.12024	14490.175
2502.85855	14475.275
2505.59514	14456.175
2508.33002	14409.975
2511.06318	14440.275
2513.79462	14396.975
2516.52435	14394.575
2519.25237	14362.475
2521.97867	14345.175
2524.70327	14358.375
2527.42616	14349.975
2530.14734	14319.275
2532.86681	14350.175
2535.58458	14357.675
2538.30065	14262.275
2541.01501	14280.675
2543.72768	14282.375
2546.43864	14279.775
2549.14791	14257.575
2551.85548	14270.075
2554.56136	14244.575
2557.26554	14232.975
2559.96803	14223.975
2562.66883	14231.575
2565.36794	14233.675
2568.06536	14226.375
2570.7611	14192.575
2573.45514	14213.975
2576.14751	14166.675
2578.83819	14211.075
2581.52719	14208.675
2584.21451	14208.475
2586.90015	14213.975
2589.58411	14197.475
2592.2664	14198.775
2594.94701	14169.575
2597.62594	14168.275
2600.30321	14147.775
2602.9788	14141.375
2605.65273	14160.475
2608.32498	14174.075
2610.99557	14141.775
2613.66449	14182.275
2616.33175	14183.175
2618.99734	14196.875
2621.66128	14199.175
2624.32355	14211.975
2626.98416	14196.875
2629.64311	14211.475
2632.30041	14198.675
2634.95605	14190.775
2637.61004	14195.475
2640.26238	14158.275
2642.91306	14167.575
2645.56209	14132.575
2648.20948	14133.675
2650.85521	14122.675
2653.4993	14117.375
2656.14175	14122.075
2658.78255	14154.475
2661.42171	14149.075
2664.05923	14182.675
2666.6951	14145.675
2669.32934	14192.275
2671.96194	14168.775
2674.59291	14187.175
2677.22224	14176.575
2679.84993	14161.575
2682.476	14148.675
2685.10043	14162.075
2687.72324	14111.675
2690.34441	14089.575
2692.96396	14106.775
2695.58188	14126.275
2698.19818	14084.875
2700.81285	14099.575
2703.4259	14122.875
2706.03733	14119.775
2708.64714	14120.475
2711.25533	14123.475
2713.86191	14119.475
2716.46687	14176.475
2719.07021	14146.375
2721.67194	14143.175
2724.27206	14156.275
2726.87057	14155.075
2729.46747	14147.275
2732.06276	14169.175
2734.65644	14168.975
2737.24852	14217.875
2739.83899	14177.075
2742.42786	14183.475
2745.01513	14155.675
2747.60079	14168.575
2750.18486	14175.675
2752.76733	14174.475
2755.3482	14149.275
2757.92747	14158.475
2760.50515	14132.075
2763.08123	14142.175
2765.65573	14119.975
2768.22863	14149.075
2770.79994	14128.975
2773.36967	14119.675
2775.9378	14126.375
2778.50435	14123.775
2781.06932	14139.775
2783.6327	14122.375
2786.1945	14110.475
2788.75471	14143.275
2791.31335	14089.775
2793.87041	14096.575
2796.42589	14051.175
2798.97979	14049.875
2801.53212	14005.275
2804.08288	13997.475
2806.63206	13995.275
2809.17967	13984.275
2811.72571	13965.175
2814.27018	13941.275
2816.81308	13939.775
2819.35442	13940.275
2821.89419	13914.375
2824.43239	13931.175
2826.96904	13897.375
2829.50412	13880.675
2832.03763	13858.675
2834.56959	13855.075
2837.1	13819.375
2839.62884	13808.175
2842.15613	13836.475
2844.68186	13923.975
2847.20604	13936.175
2849.72867	13961.775
2852.24974	13930.775
2854.76927	13949.275
2857.28724	13938.775
2859.80367	13939.675
2862.31855	13913.675
2864.83189	13889.275
2867.34368	13905.175
2869.85393	13908.175
2872.36264	13911.975
2874.8698	13925.675
2877.37543	13939.175
2879.87952	13963.775
2882.38207	13955.475
2884.88308	13976.775
2887.38256	13990.075
2889.88051	13985.375
2892.37692	13992.675
2894.8718	14008.675
2897.36515	14047.575
2899.85698	14023.175
2902.34727	14043.875
2904.83604	14049.075
2907.32328	14120.875
2909.809	14081.575
2912.29319	14096.275
2914.77587	14111.175
2917.25702	14123.175
2919.73665	14092.975
2922.21476	14097.175
2924.69136	14058.975
2927.16644	14098.375
2929.64	14076.975
2932.11205	14046.675
2934.58258	14012.975
2937.05161	14001.575
2939.51912	14014.775
2941.98513	13942.075
2944.44962	13900.875
2946.91261	13807.275
2949.37409	13849.675
2951.83407	13798.975
2954.29254	13782.875
2956.74951	13723.175
2959.20498	13708.775
2961.65895	13679.675
2964.11142	13664.775
2966.56239	13619.775
2969.01186	13608.475
2971.45984	13513.375
2973.90632	13528.275
2976.35131	13480.575
2978.7948	13419.275
2981.23681	13371.575
2983.67732	13342.775
2986.11635	13282.775
2988.55388	13265.275
2990.98993	13211.275
2993.4245	13159.175
2995.85758	13172.875
2998.28917	13112.775
3000.71928	13103.775
3003.14791	13073.675
3005.57506	13073.375
3008.00073	13013.875
3010.42493	13011.175
3012.84764	12977.675
3015.26888	12979.675
3017.68865	12951.875
3020.10694	12915.975
3022.52376	12875.375
3024.9391	12859.175
3027.35298	12862.175
3029.76539	12826.175
3032.17632	12814.875
3034.5858	12774.175
3036.9938	12767.175
3039.40034	12771.875
3041.80542	12793.275
3044.20903	12753.075
3046.61118	12709.175
3049.01187	12711.675
3051.4111	12676.875
3053.80888	12650.575
3056.20519	12633.975
3058.60005	12577.075
3060.99345	12578.575
3063.3854	12572.075
3065.7759	12494.075
3068.16494	12508.475
3070.55254	12442.675
3072.93868	12459.775
3075.32338	12411.275
3077.70662	12383.575
3080.08842	12332.575
3082.46878	12338.375
3084.84769	12312.375
3087.22515	12291.375
3089.60118	12297.775
3091.97576	12252.875
3094.3489	12257.975
3096.72061	12247.275
3099.09087	12244.475
3101.4597	12227.475
3103.82709	12219.575
3106.19305	12187.275
3108.55757	12165.175
3110.92066	12121.975
3113.28232	12098.375
3115.64255	12050.675
3118.00134	12048.775
3120.35871	12025.575
3122.71466	12017.275
3125.06917	11976.575
3127.42226	11974.175
