Data from AgNPs_FTO_APTES_UA_2uM_CRN_200uM_R6G_10uM_NaF_0.1M_Addition_RamanShift__25__16-48-05-381.txt Node

Date: Wed Feb 02 16:48:05 GMT 2022
User: TCL
Spectrometer: QEP01345
Trigger mode: 4
Integration Time (sec): 7.000000E0
Scans to average: 10
Electric dark correction enabled: true
Nonlinearity correction enabled: false
Boxcar width: 0
XAxis mode: Raman Shifts
Number of Pixels in Spectrum: 1044
>>>>>Begin Spectral Data<<<<<
46.04893	1.125
50.45542	0.425
54.85868	-0.775
59.25871	-0.575
63.6555	72.025
68.04907	78.025
72.43941	81.625
76.82654	86.925
81.21044	90.825
85.59113	95.325
89.96862	99.725
94.34289	99.925
98.71396	102.025
103.08183	111.225
107.4465	110.325
111.80798	111.625
116.16626	116.425
120.52136	120.525
124.87327	125.625
129.222	130.425
133.56755	139.425
137.90993	146.925
142.24913	165.325
146.58517	189.025
150.91804	211.325
155.24774	256.025
159.57429	317.325
163.89768	411.225
168.21792	548.825
172.53501	743.925
176.84895	1037.525
181.15975	1454.625
185.46741	2029.525
189.77193	2794.225
194.07331	3748.325
198.37157	4822.225
202.6667	5958.925
206.9587	7105.225
211.24758	8219.325
215.53334	9371.125
219.81599	10620.225
224.09553	11994.125
228.37195	13558.525
232.64527	15219.725
236.91549	16877.425
241.18261	18519.625
245.44663	19994.525
249.70755	21225.925
253.96539	22326.925
258.22014	23308.125
262.4718	24158.225
266.72039	24810.525
270.96589	25244.925
275.20832	25467.225
279.44768	25400.625
283.68397	25295.825
287.91719	25228.525
292.14735	25358.525
296.37445	25701.225
300.59849	26196.225
304.81948	26575.325
309.03742	26606.525
313.25231	26211.825
317.46415	25075.225
321.67296	23607.925
325.87872	22402.325
330.08145	21827.625
334.28114	21710.525
338.47781	21909.125
342.67145	22311.525
346.86207	22942.025
351.04966	23859.025
355.23424	24815.125
359.4158	25510.025
363.59435	25926.525
367.76989	26080.925
371.94243	26133.925
376.11196	26111.025
380.27849	26114.725
384.44203	26052.325
388.60257	26042.725
392.76012	26042.525
396.91468	26306.025
401.06626	26788.525
405.21485	27174.125
409.36047	26875.425
413.50311	25982.025
417.64277	25145.025
421.77947	24754.925
425.9132	24693.825
430.04396	24827.325
434.17176	25054.625
438.2966	25391.525
442.41849	25949.225
446.53742	26729.725
450.6534	27599.425
454.76644	28200.925
458.87653	28414.725
462.98368	28340.625
467.08789	28084.125
471.18916	27832.725
475.2875	27635.125
479.38291	27562.925
483.4754	27324.925
487.56496	26827.825
491.6516	26178.025
495.73531	25578.825
499.81612	25256.625
503.89401	25297.925
507.96899	25374.725
512.04106	25382.025
516.11023	25405.225
520.1765	25318.525
524.23987	25078.125
528.30034	24723.625
532.35792	24393.025
536.41261	24029.625
540.46441	23678.125
544.51333	23677.325
548.55936	24043.025
552.60252	24705.925
556.64279	25503.025
560.6802	26088.925
564.71473	26613.825
568.7464	27504.625
572.7752	28341.225
576.80114	28153.425
580.82422	27567.025
584.84444	27190.425
588.86181	27237.425
592.87633	27515.125
596.888	27828.125
600.89682	28164.225
604.9028	29766.225
608.90594	34360.925
612.90624	40335.425
616.90371	38519.125
620.89834	29343.125
624.89015	25011.225
628.87913	24289.325
632.86528	24420.725
636.84862	24586.525
640.82913	24181.525
644.80683	23266.925
648.78172	22581.525
652.75379	22456.625
656.72306	22943.425
660.68952	23677.225
664.65319	23605.325
668.61405	22911.425
672.57211	22567.625
676.52738	22559.025
680.47986	22621.525
684.42955	22491.325
688.37646	22416.125
692.32058	22473.525
696.26192	22669.825
700.20048	22958.325
704.13626	23176.925
708.06928	23173.725
711.99952	23008.625
715.927	22896.125
719.85171	22892.825
723.77365	22847.025
727.69284	22612.425
731.60928	22429.825
735.52295	22367.825
739.43388	22380.125
743.34206	22418.225
747.24749	22526.225
751.15017	22744.725
755.05012	23211.925
758.94733	24204.725
762.8418	26141.825
766.73354	29310.525
770.62254	32616.425
774.50882	33848.325
778.39237	32115.425
782.27321	28493.625
786.15132	25270.325
790.02671	23407.425
793.89938	22542.325
797.76935	22195.625
801.6366	22035.025
805.50115	21956.425
809.36299	21895.825
813.22213	21797.925
817.07857	21815.225
820.93231	21815.125
824.78336	21825.725
828.63172	21801.025
832.47738	21751.025
836.32036	21720.625
840.16066	21665.425
843.99827	21556.925
847.8332	21463.025
851.66546	21383.625
855.49504	21358.425
859.32195	21293.125
863.1462	21216.125
866.96777	21165.425
870.78668	21103.625
874.60293	21121.625
878.41652	21137.125
882.22745	21204.925
886.03573	21218.325
889.84136	21218.925
893.64433	21134.025
897.44466	21041.325
901.24235	21013.025
905.0374	20930.825
908.8298	20884.625
912.61957	20893.725
916.40671	21111.725
920.19121	21372.825
923.97308	21557.925
927.75233	21614.825
931.52895	21581.425
935.30295	21328.425
939.07433	20841.525
942.84309	20376.225
946.60924	20098.025
950.37278	19953.025
954.13371	19910.025
957.89203	19856.125
961.64774	19867.825
965.40086	19876.425
969.15137	19762.325
972.89929	19625.625
976.64461	19524.025
980.38733	19487.625
984.12747	19527.725
987.86502	19631.125
991.59999	19831.325
995.33237	20057.825
999.06217	20561.825
1002.78939	21180.225
1006.51404	21694.625
1010.23611	22009.425
1013.95561	22294.525
1017.67255	22181.025
1021.38692	21926.625
1025.09872	21595.425
1028.80796	21476.125
1032.51465	21587.025
1036.21877	21850.825
1039.92035	21981.425
1043.61937	21913.625
1047.31584	21756.925
1051.00976	21518.225
1054.70114	21457.625
1058.38998	21563.025
1062.07627	21765.025
1065.76003	22021.825
1069.44126	22169.325
1073.11995	22312.725
1076.79611	22512.925
1080.46974	22660.225
1084.14085	22983.025
1087.80943	23429.925
1091.47549	23710.525
1095.13903	23633.725
1098.80005	23144.625
1102.45857	22553.425
1106.11456	22204.925
1109.76805	22142.325
1113.41903	22408.925
1117.06751	22867.325
1120.71348	23451.025
1124.35696	24038.025
1127.99793	24606.725
1131.63641	24726.525
1135.2724	24087.325
1138.90589	23440.025
1142.5369	23082.325
1146.16542	23052.525
1149.79145	23141.925
1153.415	23385.325
1157.03607	23726.125
1160.65467	24367.725
1164.27079	25327.025
1167.88443	26763.925
1171.49561	28729.825
1175.10432	31690.225
1178.71056	35453.125
1182.31434	38638.025
1185.91565	39896.525
1189.51451	39600.425
1193.11091	38265.025
1196.70485	36439.825
1200.29634	34727.325
1203.88538	33280.225
1207.47197	31887.325
1211.05612	30647.225
1214.63782	29840.325
1218.21708	29253.525
1221.79391	28836.525
1225.36829	28556.125
1228.94024	28145.525
1232.50976	27739.125
1236.07685	27511.325
1239.6415	27409.225
1243.20374	27446.325
1246.76355	27653.125
1250.32093	28041.225
1253.8759	28684.725
1257.42845	29561.425
1260.97859	30402.325
1264.52631	31203.025
1268.07163	31985.025
1271.61453	32832.025
1275.15503	33714.125
1278.69312	34315.725
1282.22882	34948.025
1285.76211	35722.625
1289.29301	36984.625
1292.82151	38651.825
1296.34761	40731.025
1299.87133	43148.725
1303.39266	46178.725
1306.9116	50022.025
1310.42815	54172.325
1313.94233	57137.525
1317.45412	57533.325
1320.96354	56286.125
1324.47058	54475.525
1327.97525	52752.325
1331.47754	51525.125
1334.97747	50977.425
1338.47502	51036.825
1341.97022	51229.625
1345.46305	50955.625
1348.95352	50452.125
1352.44163	50237.125
1355.92738	51306.325
1359.41078	54547.925
1362.89183	58415.325
1366.37053	57510.325
1369.84688	51138.325
1373.32088	44231.225
1376.79254	39895.625
1380.26186	38190.625
1383.72883	37906.025
1387.19347	38025.225
1390.65578	38051.625
1394.11575	38314.625
1397.57339	39101.825
1401.0287	40209.625
1404.48168	41308.825
1407.93234	41908.625
1411.38068	41572.025
1414.82669	40249.525
1418.27039	38238.025
1421.71177	35992.125
1425.15083	34140.525
1428.58758	32933.725
1432.02203	32576.325
1435.45416	32980.125
1438.88399	33602.625
1442.31151	34303.625
1445.73673	35031.125
1449.15965	35916.725
1452.58027	36659.025
1455.9986	37114.525
1459.41463	37640.025
1462.82837	38312.025
1466.23982	38977.625
1469.64898	39554.125
1473.05586	39675.625
1476.46045	39474.925
1479.86276	39035.825
1483.26279	38737.825
1486.66054	38490.725
1490.05602	38650.625
1493.44922	38973.525
1496.84016	39537.825
1500.22882	40819.725
1503.61521	43018.625
1506.99934	45977.425
1510.38121	49226.925
1513.76081	51306.425
1517.13816	50244.525
1520.51324	46750.925
1523.88607	42931.225
1527.25665	40301.225
1530.62498	38989.125
1533.99105	38270.825
1537.35488	37846.325
1540.71647	37445.225
1544.07581	36970.125
1547.4329	36400.925
1550.78776	35812.625
1554.14038	35473.425
1557.49077	35468.925
1560.83892	35756.225
1564.18484	36207.425
1567.52853	36577.425
1570.86999	36855.625
1574.20922	37263.125
1577.54624	37609.725
1580.88103	37293.925
1584.2136	36914.625
1587.54395	37470.625
1590.87208	38959.525
1594.19801	41191.825
1597.52172	43609.625
1600.84321	44518.225
1604.16251	42770.525
1607.47959	39474.225
1610.79447	35826.525
1614.10715	32396.725
1617.41763	29566.725
1620.7259	27667.725
1624.03199	26631.825
1627.33587	26486.125
1630.63757	27166.525
1633.93707	28725.525
1637.23439	31367.025
1640.52951	34992.825
1643.82246	39401.125
1647.11321	43645.125
1650.40179	45829.125
1653.68819	44077.125
1656.97241	38519.925
1660.25446	32344.925
1663.53433	27520.725
1666.81203	24451.525
1670.08756	22513.925
1673.36092	21352.125
1676.63211	20578.925
1679.90115	20047.925
1683.16801	19695.725
1686.43272	19377.825
1689.69527	19196.525
1692.95567	19038.325
1696.2139	18930.525
1699.46999	18859.725
1702.72392	18782.625
1705.97571	18681.025
1709.22535	18599.425
1712.47284	18565.425
1715.71819	18553.225
1718.96139	18491.925
1722.20246	18470.425
1725.44139	18373.725
1728.67818	18271.825
1731.91284	18186.225
1735.14537	18056.025
1738.37576	17982.525
1741.60403	17895.925
1744.83017	17842.725
1748.05418	17844.925
1751.27607	17784.725
1754.49584	17753.625
1757.71349	17748.025
1760.92903	17714.425
1764.14244	17679.525
1767.35375	17659.525
1770.56294	17612.125
1773.77002	17566.425
1776.97499	17490.325
1780.17785	17468.925
1783.37861	17425.225
1786.57727	17379.125
1789.77382	17371.125
1792.96828	17312.125
1796.16064	17291.125
1799.3509	17272.125
1802.53907	17229.425
1805.72514	17179.825
1808.90913	17147.325
1812.09102	17122.325
1815.27083	17067.525
1818.44856	17050.525
1821.6242	17001.425
1824.79776	17009.725
1827.96924	16983.325
1831.13864	16956.725
1834.30597	16949.925
1837.47122	16923.825
1840.6344	16966.425
1843.7955	16945.925
1846.95454	16940.225
1850.11151	16932.325
1853.26642	16942.525
1856.41926	16936.525
1859.57004	16922.125
1862.71876	16944.325
1865.86542	16931.225
1869.01003	16901.425
1872.15258	16886.125
1875.29308	16911.925
1878.43152	16900.025
1881.56792	16866.125
1884.70227	16892.125
1887.83457	16872.125
1890.96482	16880.125
1894.09304	16867.225
1897.21921	16896.425
1900.34335	16888.025
1903.46544	16890.925
1906.58551	16912.725
1909.70353	16893.725
1912.81953	16877.525
1915.93349	16845.025
1919.04543	16799.725
1922.15534	16753.525
1925.26322	16723.125
1928.36908	16680.725
1931.47292	16645.025
1934.57473	16578.025
1937.67453	16524.625
1940.77232	16466.125
1943.86808	16397.025
1946.96184	16355.725
1950.05358	16279.425
1953.14331	16205.925
1956.23103	16161.625
1959.31675	16112.325
1962.40046	16043.725
1965.48217	16014.925
1968.56188	15951.425
1971.63959	15904.925
1974.7153	15854.125
1977.78901	15832.125
1980.86073	15734.125
1983.93046	15665.625
1986.99819	15632.625
1990.06394	15581.325
1993.1277	15571.725
1996.18947	15488.825
1999.24925	15444.925
2002.30706	15382.025
2005.36288	15344.325
2008.41672	15328.425
2011.46859	15271.125
2014.51848	15244.525
2017.56639	15147.225
2020.61233	15145.425
2023.6563	15110.625
2026.6983	15080.725
2029.73833	15045.925
2032.7764	15035.825
2035.8125	15003.825
2038.84664	14968.925
2041.87881	14964.225
2044.90903	14915.525
2047.93729	14911.025
2050.96359	14885.225
2053.98794	14875.825
2057.01034	14850.325
2060.03078	14826.525
2063.04927	14795.925
2066.06582	14815.525
2069.08042	14816.825
2072.09307	14770.125
2075.10378	14739.625
2078.11255	14744.825
2081.11938	14724.525
2084.12426	14699.725
2087.12722	14683.925
2090.12824	14698.825
2093.12732	14712.225
2096.12447	14688.425
2099.11969	14713.425
2102.11299	14723.525
2105.10435	14718.525
2108.09379	14687.025
2111.08131	14732.325
2114.0669	14725.825
2117.05057	14707.825
2120.03233	14757.325
2123.01216	14755.425
2125.99008	14768.025
2128.96609	14757.025
2131.94018	14768.225
2134.91236	14764.125
2137.88263	14753.125
2140.851	14768.825
2143.81746	14794.725
2146.78201	14771.425
2149.74466	14793.325
2152.7054	14794.825
2155.66425	14772.425
2158.6212	14775.525
2161.57625	14768.325
2164.52941	14738.925
2167.48067	14766.825
2170.43004	14732.425
2173.37752	14727.325
2176.32311	14731.325
2179.26681	14737.825
2182.20863	14709.025
2185.14856	14740.125
2188.08661	14712.825
2191.02278	14717.425
2193.95707	14718.725
2196.88948	14678.225
2199.82001	14699.525
2202.74867	14657.025
2205.67545	14661.725
2208.60037	14648.525
2211.52341	14600.325
2214.44458	14604.425
2217.36388	14564.925
2220.28132	14565.525
2223.1969	14539.125
2226.11061	14506.225
2229.02246	14483.925
2231.93245	14468.725
2234.84058	14391.825
2237.74686	14384.825
2240.65128	14389.725
2243.55385	14359.825
2246.45456	14345.025
2249.35343	14340.925
2252.25044	14307.425
2255.14561	14282.225
2258.03893	14289.825
2260.93041	14252.425
2263.82004	14206.525
2266.70783	14189.625
2269.59378	14116.925
2272.4779	14134.225
2275.36017	14056.425
2278.24061	14029.125
2281.11922	14012.025
2283.996	13980.425
2286.87094	13970.825
2289.74405	13907.325
2292.61534	13903.725
2295.4848	13881.925
2298.35243	13890.025
2301.21824	13878.225
2304.08223	13881.525
2306.94439	13870.325
2309.80474	13908.525
2312.66327	13866.825
2315.51999	13858.725
2318.37489	13850.825
2321.22797	13849.525
2324.07925	13849.525
2326.92871	13825.625
2329.77637	13808.025
2332.62222	13814.425
2335.46626	13759.725
2338.3085	13783.125
2341.14893	13765.625
2343.98756	13795.125
2346.8244	13767.525
2349.65943	13795.625
2352.49267	13775.525
2355.32411	13789.725
2358.15376	13791.825
2360.98161	13771.925
2363.80768	13779.325
2366.63195	13770.425
2369.45444	13773.625
2372.27514	13763.025
2375.09405	13717.625
2377.91118	13703.425
2380.72652	13665.525
2383.54009	13626.825
2386.35187	13616.025
2389.16188	13575.325
2391.97011	13513.125
2394.77657	13478.625
2397.58125	13476.825
2400.38416	13426.025
2403.18529	13421.025
2405.98466	13378.725
2408.78226	13343.325
2411.57809	13366.225
2414.37216	13331.525
2417.16446	13329.625
2419.955	13295.225
2422.74378	13326.125
2425.5308	13307.325
2428.31606	13310.325
2431.09956	13300.525
2433.88131	13246.325
2436.6613	13267.225
2439.43954	13250.625
2442.21603	13263.025
2444.99077	13227.625
2447.76377	13226.925
2450.53501	13260.425
2453.30451	13228.225
2456.07226	13216.325
2458.83827	13227.725
2461.60254	13238.225
2464.36507	13237.625
2467.12586	13233.325
2469.88492	13214.425
2472.64224	13207.425
2475.39782	13215.525
2478.15167	13240.025
2480.90379	13218.125
2483.65417	13269.825
2486.40283	13269.625
2489.14976	13298.925
2491.89497	13281.325
2494.63845	13312.425
2497.3802	13275.325
2500.12024	13273.125
2502.85855	13238.825
2505.59514	13241.925
2508.33002	13237.325
2511.06318	13221.525
2513.79462	13189.225
2516.52435	13195.425
2519.25237	13161.125
2521.97867	13126.125
2524.70327	13116.625
2527.42616	13083.025
2530.14734	13122.625
2532.86681	13077.625
2535.58458	13089.725
2538.30065	13061.525
2541.01501	13043.125
2543.72768	13027.925
2546.43864	13037.525
2549.14791	13003.425
2551.85548	13005.125
2554.56136	12998.825
2557.26554	13023.725
2559.96803	12963.025
2562.66883	12969.025
2565.36794	12990.125
2568.06536	12977.625
2570.7611	12951.825
2573.45514	12933.125
2576.14751	12923.525
2578.83819	12898.725
2581.52719	12885.325
2584.21451	12879.225
2586.90015	12888.425
2589.58411	12887.625
2592.2664	12862.525
2594.94701	12862.125
2597.62594	12863.525
2600.30321	12840.325
2602.9788	12868.425
2605.65273	12802.325
2608.32498	12860.825
2610.99557	12822.425
2613.66449	12841.225
2616.33175	12821.625
2618.99734	12857.825
2621.66128	12835.725
2624.32355	12816.225
2626.98416	12832.025
2629.64311	12821.025
2632.30041	12834.225
2634.95605	12834.025
2637.61004	12799.125
2640.26238	12782.625
2642.91306	12788.725
2645.56209	12771.825
2648.20948	12765.525
2650.85521	12787.325
2653.4993	12752.225
2656.14175	12760.825
2658.78255	12802.325
2661.42171	12776.525
2664.05923	12799.925
2666.6951	12831.225
2669.32934	12808.525
2671.96194	12832.925
2674.59291	12817.525
2677.22224	12810.325
2679.84993	12844.425
2682.476	12799.725
2685.10043	12822.425
2687.72324	12784.025
2690.34441	12778.725
2692.96396	12774.725
2695.58188	12779.825
2698.19818	12776.725
2700.81285	12783.725
2703.4259	12794.325
2706.03733	12861.825
2708.64714	12833.525
2711.25533	12833.025
2713.86191	12808.325
2716.46687	12842.225
2719.07021	12848.725
2721.67194	12859.825
2724.27206	12861.825
2726.87057	12881.025
2729.46747	12875.825
2732.06276	12899.125
2734.65644	12848.325
2737.24852	12871.025
2739.83899	12848.725
2742.42786	12852.325
2745.01513	12831.325
2747.60079	12819.325
2750.18486	12812.125
2752.76733	12819.625
2755.3482	12835.925
2757.92747	12814.725
2760.50515	12852.825
2763.08123	12829.125
2765.65573	12821.125
2768.22863	12813.125
2770.79994	12783.725
2773.36967	12793.025
2775.9378	12820.525
2778.50435	12765.625
2781.06932	12777.425
2783.6327	12769.225
2786.1945	12772.725
2788.75471	12765.625
2791.31335	12735.425
2793.87041	12743.225
2796.42589	12719.225
2798.97979	12716.925
2801.53212	12687.125
2804.08288	12678.525
2806.63206	12649.125
2809.17967	12646.325
2811.72571	12603.425
2814.27018	12649.025
2816.81308	12560.525
2819.35442	12569.825
2821.89419	12576.325
2824.43239	12540.525
2826.96904	12549.425
2829.50412	12574.325
2832.03763	12531.325
2834.56959	12525.325
2837.1	12531.525
2839.62884	12529.325
2842.15613	12530.725
2844.68186	12599.425
2847.20604	12592.025
2849.72867	12608.325
2852.24974	12643.525
2854.76927	12637.025
2857.28724	12613.425
2859.80367	12585.925
2862.31855	12555.625
2864.83189	12571.125
2867.34368	12557.025
2869.85393	12562.125
2872.36264	12539.125
2874.8698	12561.825
2877.37543	12545.525
2879.87952	12539.325
2882.38207	12579.325
2884.88308	12556.125
2887.38256	12558.025
2889.88051	12543.525
2892.37692	12551.625
2894.8718	12559.425
2897.36515	12567.925
2899.85698	12558.925
2902.34727	12584.625
2904.83604	12593.225
2907.32328	12627.925
2909.809	12624.525
2912.29319	12599.025
2914.77587	12584.625
2917.25702	12601.425
2919.73665	12585.525
2922.21476	12587.225
2924.69136	12578.025
2927.16644	12567.125
2929.64	12599.925
2932.11205	12562.725
2934.58258	12521.825
2937.05161	12535.325
2939.51912	12511.525
2941.98513	12489.425
2944.44962	12400.625
2946.91261	12356.525
2949.37409	12360.925
2951.83407	12344.925
2954.29254	12314.425
2956.74951	12300.025
2959.20498	12277.325
2961.65895	12256.725
2964.11142	12213.025
2966.56239	12200.325
2969.01186	12171.925
2971.45984	12129.225
2973.90632	12143.025
2976.35131	12108.625
2978.7948	12033.625
2981.23681	12026.925
2983.67732	11998.125
2986.11635	11975.825
2988.55388	11938.525
2990.98993	11948.525
2993.4245	11898.525
2995.85758	11906.425
2998.28917	11856.725
3000.71928	11850.025
3003.14791	11827.825
3005.57506	11810.825
3008.00073	11764.125
3010.42493	11750.425
3012.84764	11722.525
3015.26888	11714.025
3017.68865	11695.325
3020.10694	11686.025
3022.52376	11645.625
3024.9391	11625.225
3027.35298	11632.825
3029.76539	11600.325
3032.17632	11580.225
3034.5858	11567.925
3036.9938	11601.725
3039.40034	11535.625
3041.80542	11531.325
3044.20903	11496.525
3046.61118	11502.525
3049.01187	11472.825
3051.4111	11442.125
3053.80888	11391.925
3056.20519	11365.825
3058.60005	11352.825
3060.99345	11312.225
3063.3854	11309.925
3065.7759	11282.825
3068.16494	11228.325
3070.55254	11191.125
3072.93868	11170.425
3075.32338	11153.925
3077.70662	11108.625
3080.08842	11059.625
3082.46878	11058.225
3084.84769	11021.825
3087.22515	11032.525
3089.60118	11043.325
3091.97576	11031.825
3094.3489	11013.025
3096.72061	10994.125
3099.09087	11012.225
3101.4597	10972.225
3103.82709	10944.125
3106.19305	10941.425
3108.55757	10929.325
3110.92066	10887.725
3113.28232	10848.825
3115.64255	10801.725
3118.00134	10805.625
3120.35871	10781.325
3122.71466	10744.725
3125.06917	10739.125
3127.42226	10716.925
