Data from AgNPs_FTO_APTES_UA_2uM_CRN_50uM_R6G_10uM_NaF_0.1M_Addition_RamanShift__0__14-36-15-227.txt Node

Date: Wed Feb 02 14:36:15 GMT 2022
User: TCL
Spectrometer: QEP01345
Trigger mode: 4
Integration Time (sec): 7.000000E0
Scans to average: 10
Electric dark correction enabled: true
Nonlinearity correction enabled: false
Boxcar width: 0
XAxis mode: Raman Shifts
Number of Pixels in Spectrum: 1044
>>>>>Begin Spectral Data<<<<<
46.04893	0.4875
50.45542	0.2875
54.85868	-1.4125
59.25871	-0.7125
63.6555	84.3875
68.04907	90.2875
72.43941	92.0875
76.82654	99.6875
81.21044	102.5875
85.59113	108.2875
89.96862	109.8875
94.34289	116.2875
98.71396	116.5875
103.08183	122.6875
107.4465	125.0875
111.80798	127.9875
116.16626	128.0875
120.52136	132.4875
124.87327	138.8875
129.222	146.3875
133.56755	156.2875
137.90993	162.0875
142.24913	181.2875
146.58517	205.3875
150.91804	235.2875
155.24774	281.7875
159.57429	340.1875
163.89768	443.0875
168.21792	582.9875
172.53501	792.5875
176.84895	1101.2875
181.15975	1538.9875
185.46741	2168.8875
189.77193	2991.7875
194.07331	4009.2875
198.37157	5157.7875
202.6667	6375.2875
206.9587	7576.8875
211.24758	8759.3875
215.53334	9994.5875
219.81599	11259.6875
224.09553	12724.8875
228.37195	14325.2875
232.64527	15989.5875
236.91549	17746.6875
241.18261	19479.3875
245.44663	21037.5875
249.70755	22416.3875
253.96539	23656.8875
258.22014	24661.6875
262.4718	25580.8875
266.72039	26184.3875
270.96589	26560.1875
275.20832	26545.5875
279.44768	26386.5875
283.68397	26085.3875
287.91719	25909.4875
292.14735	25765.1875
296.37445	25835.8875
300.59849	26091.9875
304.81948	26377.2875
309.03742	26567.4875
313.25231	26445.9875
317.46415	25895.4875
321.67296	25079.3875
325.87872	24395.2875
330.08145	24072.4875
334.28114	23955.7875
338.47781	24153.2875
342.67145	24448.9875
346.86207	24900.7875
351.04966	25489.3875
355.23424	26070.7875
359.4158	26606.0875
363.59435	26992.3875
367.76989	27189.3875
371.94243	27276.0875
376.11196	27357.1875
380.27849	27404.9875
384.44203	27506.0875
388.60257	27612.6875
392.76012	27829.3875
396.91468	28152.9875
401.06626	28618.1875
405.21485	28994.4875
409.36047	28849.0875
413.50311	28347.2875
417.64277	27950.3875
421.77947	27838.4875
425.9132	27820.9875
430.04396	27934.9875
434.17176	28095.1875
438.2966	28343.2875
442.41849	28929.2875
446.53742	29815.1875
450.6534	30845.8875
454.76644	31576.3875
458.87653	31741.7875
462.98368	31435.5875
467.08789	30984.5875
471.18916	30426.7875
475.2875	30045.5875
479.38291	29775.5875
483.4754	29613.0875
487.56496	29293.6875
491.6516	28848.8875
495.73531	28313.3875
499.81612	28022.8875
503.89401	28029.9875
507.96899	28072.3875
512.04106	27994.2875
516.11023	27857.6875
520.1765	27686.4875
524.23987	27505.8875
528.30034	27301.6875
532.35792	27067.1875
536.41261	26769.1875
540.46441	26398.8875
544.51333	26341.2875
548.55936	26582.6875
552.60252	27128.6875
556.64279	27904.2875
560.6802	28534.0875
564.71473	28936.8875
568.7464	29539.5875
572.7752	30407.6875
576.80114	30883.5875
580.82422	31216.0875
584.84444	31962.6875
588.86181	33138.7875
592.87633	34264.5875
596.888	34330.2875
600.89682	33365.9875
604.9028	33603.8875
608.90594	36571.9875
612.90624	40123.4875
616.90371	37942.9875
620.89834	31284.0875
624.89015	28158.4875
628.87913	27675.9875
632.86528	27738.4875
636.84862	27610.9875
640.82913	27109.9875
644.80683	26355.8875
648.78172	25872.3875
652.75379	25861.1875
656.72306	26301.5875
660.68952	26888.6875
664.65319	26715.0875
668.61405	26122.0875
672.57211	25953.2875
676.52738	26081.5875
680.47986	26024.2875
684.42955	25808.8875
688.37646	25713.5875
692.32058	25885.6875
696.26192	26292.0875
700.20048	26743.5875
704.13626	26973.8875
708.06928	26937.9875
711.99952	26750.4875
715.927	26726.4875
719.85171	26907.0875
723.77365	26801.6875
727.69284	26432.2875
731.60928	26074.4875
735.52295	25956.4875
739.43388	25936.2875
743.34206	26029.5875
747.24749	26212.5875
751.15017	26469.0875
755.05012	26910.2875
758.94733	27796.2875
762.8418	29299.3875
766.73354	31651.7875
770.62254	33840.1875
774.50882	34305.7875
778.39237	32888.4875
782.27321	30457.2875
786.15132	28330.7875
790.02671	27057.7875
793.89938	26433.5875
797.76935	26143.8875
801.6366	26084.6875
805.50115	26050.0875
809.36299	25894.2875
813.22213	25776.9875
817.07857	25640.9875
820.93231	25569.9875
824.78336	25517.4875
828.63172	25544.2875
832.47738	25539.7875
836.32036	25632.9875
840.16066	25715.8875
843.99827	25805.2875
847.8332	25682.6875
851.66546	25552.9875
855.49504	25528.0875
859.32195	25522.0875
863.1462	25415.8875
866.96777	25285.8875
870.78668	25239.7875
874.60293	25192.3875
878.41652	25239.6875
882.22745	25352.4875
886.03573	25452.3875
889.84136	25410.8875
893.64433	25244.6875
897.44466	25157.4875
901.24235	25083.5875
905.0374	25015.3875
908.8298	25033.0875
912.61957	25065.9875
916.40671	25287.8875
920.19121	25699.5875
923.97308	26022.7875
927.75233	26242.9875
931.52895	26154.1875
935.30295	25773.3875
939.07433	25239.6875
942.84309	24867.4875
946.60924	24619.5875
950.37278	24550.1875
954.13371	24488.5875
957.89203	24460.2875
961.64774	24405.7875
965.40086	24438.2875
969.15137	24366.7875
972.89929	24340.7875
976.64461	24292.1875
980.38733	24376.5875
984.12747	24498.2875
987.86502	24674.1875
991.59999	24979.1875
995.33237	25425.2875
999.06217	26072.1875
1002.78939	26886.0875
1006.51404	27365.9875
1010.23611	27669.2875
1013.95561	27841.8875
1017.67255	27840.3875
1021.38692	27623.0875
1025.09872	27230.2875
1028.80796	27406.2875
1032.51465	28182.6875
1036.21877	28996.4875
1039.92035	29234.4875
1043.61937	28874.2875
1047.31584	28290.9875
1051.00976	27550.2875
1054.70114	27114.2875
1058.38998	26999.4875
1062.07627	27007.7875
1065.76003	27139.9875
1069.44126	27364.3875
1073.11995	27733.1875
1076.79611	28133.3875
1080.46974	28376.7875
1084.14085	28728.0875
1087.80943	29065.4875
1091.47549	29271.4875
1095.13903	29222.1875
1098.80005	28790.8875
1102.45857	28189.7875
1106.11456	27691.3875
1109.76805	27568.9875
1113.41903	27635.7875
1117.06751	27830.5875
1120.71348	28214.6875
1124.35696	28560.4875
1127.99793	29025.1875
1131.63641	29176.6875
1135.2724	28847.5875
1138.90589	28609.3875
1142.5369	28518.8875
1146.16542	28651.2875
1149.79145	28872.8875
1153.415	29234.7875
1157.03607	29676.3875
1160.65467	30510.5875
1164.27079	31883.2875
1167.88443	33515.2875
1171.49561	35471.0875
1175.10432	37985.6875
1178.71056	41357.8875
1182.31434	44312.8875
1185.91565	45544.6875
1189.51451	44919.6875
1193.11091	43479.0875
1196.70485	41722.7875
1200.29634	40177.0875
1203.88538	39106.3875
1207.47197	38350.9875
1211.05612	37597.0875
1214.63782	36822.4875
1218.21708	36090.4875
1221.79391	35607.6875
1225.36829	35219.2875
1228.94024	34679.9875
1232.50976	34024.2875
1236.07685	33429.5875
1239.6415	33154.5875
1243.20374	33219.7875
1246.76355	33562.3875
1250.32093	34097.9875
1253.8759	34865.8875
1257.42845	35827.5875
1260.97859	36854.0875
1264.52631	37879.8875
1268.07163	38975.3875
1271.61453	40129.2875
1275.15503	41284.1875
1278.69312	42513.2875
1282.22882	43615.9875
1285.76211	45046.6875
1289.29301	46833.9875
1292.82151	48977.0875
1296.34761	51680.1875
1299.87133	54847.5875
1303.39266	58451.0875
1306.9116	61997.8875
1310.42815	64959.8875
1313.94233	66418.9875
1317.45412	65787.2875
1320.96354	63901.6875
1324.47058	61926.0875
1327.97525	60262.5875
1331.47754	58930.2875
1334.97747	58182.5875
1338.47502	57343.5875
1341.97022	56192.3875
1345.46305	55144.3875
1348.95352	54746.7875
1352.44163	55325.5875
1355.92738	57405.6875
1359.41078	60899.4875
1362.89183	64043.4875
1366.37053	63361.2875
1369.84688	57925.5875
1373.32088	51030.5875
1376.79254	46483.9875
1380.26186	44913.0875
1383.72883	44922.1875
1387.19347	44906.6875
1390.65578	44389.0875
1394.11575	44141.2875
1397.57339	44579.7875
1401.0287	45386.4875
1404.48168	46030.0875
1407.93234	45884.0875
1411.38068	45073.2875
1414.82669	43565.4875
1418.27039	41928.9875
1421.71177	40170.9875
1425.15083	38714.0875
1428.58758	37958.9875
1432.02203	38244.8875
1435.45416	39212.0875
1438.88399	40342.2875
1442.31151	41229.1875
1445.73673	41846.8875
1449.15965	42313.8875
1452.58027	42395.0875
1455.9986	42178.7875
1459.41463	42051.4875
1462.82837	42396.5875
1466.23982	43092.5875
1469.64898	43829.2875
1473.05586	44359.9875
1476.46045	44633.5875
1479.86276	44566.0875
1483.26279	44363.4875
1486.66054	44209.5875
1490.05602	44457.9875
1493.44922	44948.6875
1496.84016	45570.3875
1500.22882	46507.5875
1503.61521	47945.5875
1506.99934	49740.0875
1510.38121	51483.4875
1513.76081	52361.1875
1517.13816	51441.4875
1520.51324	49262.2875
1523.88607	47224.3875
1527.25665	46171.0875
1530.62498	45655.6875
1533.99105	45320.8875
1537.35488	44661.5875
1540.71647	43691.0875
1544.07581	42569.3875
1547.4329	41420.2875
1550.78776	40519.0875
1554.14038	39903.6875
1557.49077	39672.7875
1560.83892	39567.9875
1564.18484	39673.5875
1567.52853	39942.6875
1570.86999	40417.8875
1574.20922	41181.9875
1577.54624	41889.2875
1580.88103	42068.2875
1584.2136	42436.7875
1587.54395	43840.8875
1590.87208	46157.3875
1594.19801	49069.8875
1597.52172	51524.0875
1600.84321	51956.5875
1604.16251	49295.1875
1607.47959	45076.7875
1610.79447	40730.9875
1614.10715	37016.7875
1617.41763	34386.1875
1620.7259	32762.7875
1624.03199	32143.5875
1627.33587	32347.4875
1630.63757	33463.3875
1633.93707	35647.8875
1637.23439	38977.1875
1640.52951	43816.5875
1643.82246	49725.0875
1647.11321	54617.1875
1650.40179	55813.9875
1653.68819	51974.9875
1656.97241	44845.8875
1660.25446	37942.0875
1663.53433	32966.3875
1666.81203	29897.8875
1670.08756	28055.7875
1673.36092	26931.3875
1676.63211	26191.4875
1679.90115	25652.4875
1683.16801	25296.2875
1686.43272	25001.3875
1689.69527	24812.0875
1692.95567	24633.1875
1696.2139	24592.1875
1699.46999	24500.8875
1702.72392	24406.0875
1705.97571	24369.1875
1709.22535	24286.5875
1712.47284	24259.9875
1715.71819	24225.4875
1718.96139	24156.3875
1722.20246	24108.0875
1725.44139	24013.3875
1728.67818	23920.7875
1731.91284	23771.6875
1735.14537	23657.1875
1738.37576	23592.8875
1741.60403	23500.7875
1744.83017	23445.8875
1748.05418	23415.7875
1751.27607	23382.5875
1754.49584	23308.5875
1757.71349	23276.9875
1760.92903	23292.8875
1764.14244	23328.6875
1767.35375	23278.9875
1770.56294	23235.9875
1773.77002	23206.0875
1776.97499	23155.5875
1780.17785	23132.5875
1783.37861	23113.1875
1786.57727	23121.1875
1789.77382	23021.3875
1792.96828	23010.4875
1796.16064	22997.4875
1799.3509	22981.9875
1802.53907	22928.9875
1805.72514	22804.2875
1808.90913	22782.1875
1812.09102	22781.6875
1815.27083	22741.1875
1818.44856	22738.4875
1821.6242	22661.2875
1824.79776	22689.5875
1827.96924	22649.4875
1831.13864	22601.9875
1834.30597	22621.4875
1837.47122	22651.4875
1840.6344	22614.2875
1843.7955	22688.8875
1846.95454	22632.9875
1850.11151	22651.2875
1853.26642	22609.9875
1856.41926	22614.7875
1859.57004	22585.5875
1862.71876	22569.1875
1865.86542	22548.3875
1869.01003	22596.7875
1872.15258	22549.2875
1875.29308	22533.0875
1878.43152	22561.1875
1881.56792	22555.3875
1884.70227	22502.5875
1887.83457	22509.8875
1890.96482	22491.9875
1894.09304	22468.0875
1897.21921	22462.7875
1900.34335	22439.7875
1903.46544	22432.0875
1906.58551	22416.1875
1909.70353	22419.8875
1912.81953	22388.4875
1915.93349	22369.9875
1919.04543	22301.9875
1922.15534	22297.1875
1925.26322	22229.0875
1928.36908	22168.0875
1931.47292	22166.8875
1934.57473	22123.3875
1937.67453	22055.5875
1940.77232	21979.0875
1943.86808	21946.8875
1946.96184	21941.6875
1950.05358	21823.7875
1953.14331	21784.4875
1956.23103	21757.7875
1959.31675	21683.2875
1962.40046	21647.9875
1965.48217	21606.0875
1968.56188	21537.9875
1971.63959	21442.5875
1974.7153	21435.3875
1977.78901	21381.0875
1980.86073	21311.5875
1983.93046	21271.3875
1986.99819	21181.4875
1990.06394	21152.5875
1993.1277	21079.1875
1996.18947	20955.2875
1999.24925	20982.4875
2002.30706	20912.8875
2005.36288	20906.1875
2008.41672	20861.4875
2011.46859	20796.6875
2014.51848	20686.7875
2017.56639	20656.0875
2020.61233	20620.4875
2023.6563	20614.8875
2026.6983	20569.1875
2029.73833	20516.4875
2032.7764	20517.8875
2035.8125	20469.5875
2038.84664	20403.1875
2041.87881	20447.6875
2044.90903	20399.3875
2047.93729	20388.8875
2050.96359	20355.7875
2053.98794	20307.1875
2057.01034	20337.2875
2060.03078	20288.3875
2063.04927	20302.6875
2066.06582	20276.1875
2069.08042	20301.7875
2072.09307	20285.0875
2075.10378	20237.7875
2078.11255	20227.2875
2081.11938	20229.9875
2084.12426	20198.0875
2087.12722	20203.5875
2090.12824	20243.1875
2093.12732	20220.3875
2096.12447	20274.0875
2099.11969	20289.4875
2102.11299	20306.9875
2105.10435	20362.2875
2108.09379	20327.8875
2111.08131	20352.2875
2114.0669	20373.4875
2117.05057	20384.3875
2120.03233	20413.0875
2123.01216	20407.3875
2125.99008	20444.2875
2128.96609	20466.2875
2131.94018	20476.0875
2134.91236	20491.8875
2137.88263	20508.5875
2140.851	20503.5875
2143.81746	20583.2875
2146.78201	20595.8875
2149.74466	20587.7875
2152.7054	20583.4875
2155.66425	20609.5875
2158.6212	20593.4875
2161.57625	20595.8875
2164.52941	20581.9875
2167.48067	20575.4875
2170.43004	20540.1875
2173.37752	20574.6875
2176.32311	20567.4875
2179.26681	20581.3875
2182.20863	20563.9875
2185.14856	20595.5875
2188.08661	20601.7875
2191.02278	20594.2875
2193.95707	20630.5875
2196.88948	20602.3875
2199.82001	20614.5875
2202.74867	20603.5875
2205.67545	20584.2875
2208.60037	20611.2875
2211.52341	20530.5875
2214.44458	20539.9875
2217.36388	20531.7875
2220.28132	20528.8875
2223.1969	20460.5875
2226.11061	20445.2875
2229.02246	20403.4875
2231.93245	20391.0875
2234.84058	20338.4875
2237.74686	20310.9875
2240.65128	20318.1875
2243.55385	20314.1875
2246.45456	20304.4875
2249.35343	20250.4875
2252.25044	20222.5875
2255.14561	20226.9875
2258.03893	20250.1875
2260.93041	20158.6875
2263.82004	20120.6875
2266.70783	20075.8875
2269.59378	20039.4875
2272.4779	19959.3875
2275.36017	19934.6875
2278.24061	19923.5875
2281.11922	19895.5875
2283.996	19859.9875
2286.87094	19863.0875
2289.74405	19854.7875
2292.61534	19825.2875
2295.4848	19830.1875
2298.35243	19838.4875
2301.21824	19842.0875
2304.08223	19850.0875
2306.94439	19880.6875
2309.80474	19893.3875
2312.66327	19893.9875
2315.51999	19893.0875
2318.37489	19873.8875
2321.22797	19837.0875
2324.07925	19843.4875
2326.92871	19820.2875
2329.77637	19826.8875
2332.62222	19823.6875
2335.46626	19807.2875
2338.3085	19810.8875
2341.14893	19810.0875
2343.98756	19825.6875
2346.8244	19758.0875
2349.65943	19782.2875
2352.49267	19795.7875
2355.32411	19748.7875
2358.15376	19739.0875
2360.98161	19740.7875
2363.80768	19727.5875
2366.63195	19718.5875
2369.45444	19690.3875
2372.27514	19675.5875
2375.09405	19645.5875
2377.91118	19612.2875
2380.72652	19610.5875
2383.54009	19582.2875
2386.35187	19596.9875
2389.16188	19525.5875
2391.97011	19493.1875
2394.77657	19476.8875
2397.58125	19485.3875
2400.38416	19474.1875
2403.18529	19409.9875
2405.98466	19407.2875
2408.78226	19353.1875
2411.57809	19361.6875
2414.37216	19312.9875
2417.16446	19321.2875
2419.955	19277.3875
2422.74378	19317.4875
2425.5308	19275.7875
2428.31606	19250.4875
2431.09956	19250.5875
2433.88131	19257.5875
2436.6613	19233.5875
2439.43954	19252.1875
2442.21603	19232.4875
2444.99077	19193.5875
2447.76377	19241.4875
2450.53501	19234.7875
2453.30451	19203.4875
2456.07226	19193.3875
2458.83827	19244.8875
2461.60254	19228.7875
2464.36507	19259.9875
2467.12586	19257.4875
2469.88492	19251.3875
2472.64224	19242.8875
2475.39782	19231.3875
2478.15167	19280.2875
2480.90379	19267.5875
2483.65417	19290.1875
2486.40283	19286.0875
2489.14976	19297.6875
2491.89497	19313.3875
2494.63845	19293.1875
2497.3802	19313.7875
2500.12024	19302.8875
2502.85855	19307.6875
2505.59514	19318.4875
2508.33002	19306.6875
2511.06318	19313.7875
2513.79462	19280.4875
2516.52435	19267.1875
2519.25237	19218.7875
2521.97867	19189.1875
2524.70327	19195.8875
2527.42616	19184.0875
2530.14734	19184.4875
2532.86681	19171.5875
2535.58458	19174.1875
2538.30065	19159.6875
2541.01501	19183.6875
2543.72768	19114.9875
2546.43864	19116.7875
2549.14791	19099.2875
2551.85548	19082.1875
2554.56136	19089.5875
2557.26554	19120.1875
2559.96803	19088.8875
2562.66883	19071.0875
2565.36794	19084.7875
2568.06536	19071.3875
2570.7611	19089.4875
2573.45514	19078.8875
2576.14751	19057.4875
2578.83819	19024.3875
2581.52719	19034.6875
2584.21451	19049.1875
2586.90015	19038.5875
2589.58411	19027.4875
2592.2664	18957.6875
2594.94701	18939.4875
2597.62594	18914.0875
2600.30321	18922.8875
2602.9788	18888.8875
2605.65273	18892.3875
2608.32498	18900.9875
2610.99557	18919.5875
2613.66449	18919.9875
2616.33175	18909.5875
2618.99734	18916.1875
2621.66128	18928.2875
2624.32355	18896.3875
2626.98416	18874.1875
2629.64311	18891.8875
2632.30041	18898.4875
2634.95605	18882.0875
2637.61004	18884.8875
2640.26238	18818.3875
2642.91306	18854.0875
2645.56209	18795.4875
2648.20948	18822.7875
2650.85521	18810.3875
2653.4993	18770.0875
2656.14175	18793.0875
2658.78255	18827.6875
2661.42171	18839.7875
2664.05923	18858.8875
2666.6951	18903.6875
2669.32934	18906.0875
2671.96194	18906.1875
2674.59291	18907.0875
2677.22224	18883.2875
2679.84993	18897.0875
2682.476	18865.5875
2685.10043	18893.9875
2687.72324	18851.4875
2690.34441	18866.2875
2692.96396	18869.5875
2695.58188	18877.7875
2698.19818	18834.7875
2700.81285	18905.8875
2703.4259	18910.9875
2706.03733	18952.8875
2708.64714	18973.8875
2711.25533	18959.0875
2713.86191	18926.5875
2716.46687	19012.4875
2719.07021	18993.1875
2721.67194	19068.0875
2724.27206	19033.8875
2726.87057	19114.9875
2729.46747	19064.5875
2732.06276	19055.3875
2734.65644	19049.1875
2737.24852	19055.0875
2739.83899	19016.1875
2742.42786	19004.5875
2745.01513	18956.2875
2747.60079	18959.0875
2750.18486	18933.5875
2752.76733	18935.9875
2755.3482	18972.5875
2757.92747	18999.3875
2760.50515	19018.9875
2763.08123	19032.9875
2765.65573	18978.1875
2768.22863	18985.2875
2770.79994	18937.4875
2773.36967	18974.1875
2775.9378	18930.2875
2778.50435	18971.3875
2781.06932	18902.2875
2783.6327	18949.5875
2786.1945	18950.2875
2788.75471	18910.9875
2791.31335	18879.3875
2793.87041	18874.5875
2796.42589	18845.7875
2798.97979	18833.4875
2801.53212	18807.4875
2804.08288	18767.3875
2806.63206	18740.1875
2809.17967	18714.4875
2811.72571	18697.0875
2814.27018	18678.7875
2816.81308	18648.9875
2819.35442	18612.7875
2821.89419	18588.0875
2824.43239	18608.8875
2826.96904	18579.0875
2829.50412	18570.6875
2832.03763	18549.7875
2834.56959	18585.3875
2837.1	18565.8875
2839.62884	18540.2875
2842.15613	18542.6875
2844.68186	18583.7875
2847.20604	18599.4875
2849.72867	18592.8875
2852.24974	18604.2875
2854.76927	18578.2875
2857.28724	18565.9875
2859.80367	18545.4875
2862.31855	18545.9875
2864.83189	18525.2875
2867.34368	18498.0875
2869.85393	18520.9875
2872.36264	18498.3875
2874.8698	18520.1875
2877.37543	18555.1875
2879.87952	18533.4875
2882.38207	18518.8875
2884.88308	18521.1875
2887.38256	18570.5875
2889.88051	18508.9875
2892.37692	18557.3875
2894.8718	18542.0875
2897.36515	18593.2875
2899.85698	18582.7875
2902.34727	18656.1875
2904.83604	18591.1875
2907.32328	18665.8875
2909.809	18643.3875
2912.29319	18636.6875
2914.77587	18631.2875
2917.25702	18615.6875
2919.73665	18629.5875
2922.21476	18641.1875
2924.69136	18623.5875
2927.16644	18623.5875
2929.64	18654.2875
2932.11205	18629.0875
2934.58258	18572.5875
2937.05161	18617.5875
2939.51912	18673.4875
2941.98513	18576.9875
2944.44962	18526.7875
2946.91261	18441.3875
2949.37409	18504.0875
2951.83407	18477.0875
2954.29254	18444.2875
2956.74951	18425.6875
2959.20498	18446.5875
2961.65895	18450.4875
2964.11142	18439.1875
2966.56239	18388.2875
2969.01186	18383.7875
2971.45984	18368.9875
2973.90632	18357.1875
2976.35131	18287.4875
2978.7948	18239.0875
2981.23681	18229.1875
2983.67732	18183.0875
2986.11635	18164.0875
2988.55388	18121.7875
2990.98993	18102.6875
2993.4245	18088.9875
2995.85758	18026.7875
2998.28917	18007.8875
3000.71928	17990.7875
3003.14791	17970.2875
3005.57506	17956.0875
3008.00073	17878.9875
3010.42493	17866.0875
3012.84764	17858.8875
3015.26888	17910.1875
3017.68865	17810.4875
3020.10694	17793.9875
3022.52376	17771.7875
