Data from AgNPs_FTO_APTES_UA_2uM_CRN_1uM_R6G_10uM_NaF_0.1M_Addition_RamanShift__14__11-35-25-016.txt Node

Date: Wed Feb 02 11:35:25 GMT 2022
User: TCL
Spectrometer: QEP01345
Trigger mode: 4
Integration Time (sec): 7.000000E0
Scans to average: 10
Electric dark correction enabled: true
Nonlinearity correction enabled: false
Boxcar width: 0
XAxis mode: Raman Shifts
Number of Pixels in Spectrum: 1044
>>>>>Begin Spectral Data<<<<<
46.04893	0.25
50.45542	0.05
54.85868	-1.25
59.25871	0.05
63.6555	90.85
68.04907	91.95
72.43941	98.65
76.82654	103.85
81.21044	105.55
85.59113	112.85
89.96862	113.65
94.34289	118.65
98.71396	123.25
103.08183	129.55
107.4465	135.85
111.80798	135.75
116.16626	138.95
120.52136	145.35
124.87327	152.05
129.222	158.45
133.56755	169.75
137.90993	186.85
142.24913	213.25
146.58517	242.75
150.91804	281.45
155.24774	342.45
159.57429	428.65
163.89768	555.05
168.21792	737.35
172.53501	1013.75
176.84895	1421.65
181.15975	2004.95
185.46741	2805.45
189.77193	3888.25
194.07331	5228.65
198.37157	6746.75
202.6667	8362.05
206.9587	9987.35
211.24758	11538.05
215.53334	13139.25
219.81599	14804.35
224.09553	16630.15
228.37195	18662.85
232.64527	20834.25
236.91549	23234.75
241.18261	25622.85
245.44663	27872.95
249.70755	29893.85
253.96539	31678.75
258.22014	33135.25
262.4718	34189.65
266.72039	34861.05
270.96589	35144.85
275.20832	35013.75
279.44768	34653.65
283.68397	34166.35
287.91719	33769.25
292.14735	33382.15
296.37445	33186.25
300.59849	33080.35
304.81948	33110.65
309.03742	33071.65
313.25231	32871.85
317.46415	32355.05
321.67296	31575.35
325.87872	30925.65
330.08145	30597.35
334.28114	30476.75
338.47781	30599.15
342.67145	30847.65
346.86207	31216.95
351.04966	31663.85
355.23424	32141.95
359.4158	32582.75
363.59435	32934.15
367.76989	33123.35
371.94243	33221.45
376.11196	33224.55
380.27849	33177.15
384.44203	33191.75
388.60257	33348.45
392.76012	33712.95
396.91468	34217.55
401.06626	34821.65
405.21485	35111.65
409.36047	35013.35
413.50311	34508.05
417.64277	34114.75
421.77947	34114.25
425.9132	34315.85
430.04396	34494.85
434.17176	34594.35
438.2966	34712.15
442.41849	35007.75
446.53742	35530.75
450.6534	36154.45
454.76644	36557.15
458.87653	36785.25
462.98368	36788.55
467.08789	36734.45
471.18916	36540.85
475.2875	36224.45
479.38291	36144.15
483.4754	36070.05
487.56496	36015.95
491.6516	35712.95
495.73531	35217.55
499.81612	34837.25
503.89401	34854.65
507.96899	34990.05
512.04106	35017.25
516.11023	34937.55
520.1765	34617.05
524.23987	34310.95
528.30034	33988.35
532.35792	33709.85
536.41261	33365.35
540.46441	33071.65
544.51333	33103.95
548.55936	33441.15
552.60252	34100.15
556.64279	34811.95
560.6802	35320.75
564.71473	35729.45
568.7464	36499.65
572.7752	37649.95
576.80114	38966.35
580.82422	40217.55
584.84444	41367.05
588.86181	42541.25
592.87633	43753.75
596.888	43556.25
600.89682	41812.15
604.9028	40932.65
608.90594	42748.95
612.90624	45026.05
616.90371	42714.95
620.89834	37224.15
624.89015	34721.75
628.87913	34480.75
632.86528	34772.85
636.84862	34756.65
640.82913	34111.55
644.80683	33156.55
648.78172	32487.25
652.75379	32354.25
656.72306	32601.15
660.68952	33048.05
664.65319	32960.95
668.61405	32551.05
672.57211	32425.95
676.52738	32510.85
680.47986	32479.35
684.42955	32319.45
688.37646	32183.65
692.32058	32245.95
696.26192	32548.15
700.20048	32983.35
704.13626	33323.65
708.06928	33544.75
711.99952	33504.25
715.927	33403.05
719.85171	33274.15
723.77365	32966.55
727.69284	32486.25
731.60928	32008.25
735.52295	31850.65
739.43388	31811.15
743.34206	31863.65
747.24749	32018.95
751.15017	32435.05
755.05012	32983.25
758.94733	33788.25
762.8418	35216.75
766.73354	37428.95
770.62254	39451.15
774.50882	39699.05
778.39237	38116.55
782.27321	35991.65
786.15132	34188.35
790.02671	32983.25
793.89938	32312.05
797.76935	31935.65
801.6366	31757.45
805.50115	31604.95
809.36299	31435.55
813.22213	31265.45
817.07857	31330.95
820.93231	31280.15
824.78336	31226.45
828.63172	31075.25
832.47738	31037.75
836.32036	30941.05
840.16066	30851.15
843.99827	30840.65
847.8332	30813.95
851.66546	30862.95
855.49504	30952.55
859.32195	30947.35
863.1462	30885.05
866.96777	30912.85
870.78668	30860.45
874.60293	30936.95
878.41652	30947.95
882.22745	31125.45
886.03573	31275.75
889.84136	31382.85
893.64433	31378.25
897.44466	31401.95
901.24235	31530.95
905.0374	31572.15
908.8298	31622.55
912.61957	31723.65
916.40671	32004.85
920.19121	32459.35
923.97308	32802.05
927.75233	32820.35
931.52895	32463.15
935.30295	31793.25
939.07433	31133.55
942.84309	30587.15
946.60924	30227.15
950.37278	30028.85
954.13371	29933.15
957.89203	29829.25
961.64774	29797.25
965.40086	29721.05
969.15137	29578.65
972.89929	29407.55
976.64461	29235.15
980.38733	29107.35
984.12747	29099.95
987.86502	29044.15
991.59999	29102.65
995.33237	29310.85
999.06217	29548.85
1002.78939	29957.95
1006.51404	30382.85
1010.23611	30881.75
1013.95561	31194.35
1017.67255	31250.25
1021.38692	31041.75
1025.09872	30604.65
1028.80796	30265.15
1032.51465	30147.45
1036.21877	30174.35
1039.92035	30344.55
1043.61937	30525.35
1047.31584	30653.45
1051.00976	30761.65
1054.70114	30985.85
1058.38998	31074.15
1062.07627	31352.15
1065.76003	31695.75
1069.44126	32163.15
1073.11995	32689.95
1076.79611	33180.15
1080.46974	33314.25
1084.14085	33368.35
1087.80943	33553.15
1091.47549	33863.55
1095.13903	34129.45
1098.80005	33767.15
1102.45857	33006.95
1106.11456	32225.55
1109.76805	31693.25
1113.41903	31408.15
1117.06751	31403.05
1120.71348	31675.45
1124.35696	31948.95
1127.99793	32396.15
1131.63641	32627.85
1135.2724	32621.05
1138.90589	32499.35
1142.5369	32559.35
1146.16542	32704.55
1149.79145	33015.45
1153.415	33381.45
1157.03607	33815.85
1160.65467	34596.35
1164.27079	35821.85
1167.88443	37383.75
1171.49561	39202.35
1175.10432	41365.75
1178.71056	44242.85
1182.31434	46759.85
1185.91565	48199.95
1189.51451	48410.35
1193.11091	47753.45
1196.70485	46200.85
1200.29634	44429.15
1203.88538	43018.75
1207.47197	42289.85
1211.05612	41871.35
1214.63782	41297.05
1218.21708	40330.25
1221.79391	39071.55
1225.36829	38064.35
1228.94024	37515.85
1232.50976	37240.95
1236.07685	37001.85
1239.6415	36843.15
1243.20374	36729.45
1246.76355	36807.75
1250.32093	37123.25
1253.8759	37782.55
1257.42845	38768.85
1260.97859	39935.05
1264.52631	41131.95
1268.07163	42262.15
1271.61453	43386.65
1275.15503	44621.35
1278.69312	45955.25
1282.22882	47483.85
1285.76211	49130.65
1289.29301	50856.05
1292.82151	52848.45
1296.34761	55033.55
1299.87133	57513.75
1303.39266	59902.95
1306.9116	61836.85
1310.42815	63289.45
1313.94233	63893.75
1317.45412	63623.45
1320.96354	63225.75
1324.47058	63110.45
1327.97525	63124.75
1331.47754	62968.35
1334.97747	62560.05
1338.47502	62026.95
1341.97022	61542.65
1345.46305	61149.95
1348.95352	60637.75
1352.44163	60197.45
1355.92738	60357.05
1359.41078	61400.85
1362.89183	62732.55
1366.37053	62363.85
1369.84688	58928.65
1373.32088	53824.85
1376.79254	49824.85
1380.26186	48048.85
1383.72883	47587.65
1387.19347	47328.15
1390.65578	46772.25
1394.11575	46500.25
1397.57339	46533.65
1401.0287	46870.05
1404.48168	46957.85
1407.93234	46489.05
1411.38068	45265.25
1414.82669	43708.55
1418.27039	42037.75
1421.71177	40592.45
1425.15083	39512.55
1428.58758	38979.75
1432.02203	39206.05
1435.45416	39967.55
1438.88399	40715.65
1442.31151	41385.15
1445.73673	41871.05
1449.15965	42434.15
1452.58027	42860.75
1455.9986	43153.95
1459.41463	43606.15
1462.82837	44053.25
1466.23982	44668.45
1469.64898	45112.65
1473.05586	45274.35
1476.46045	45273.45
1479.86276	45112.25
1483.26279	45167.35
1486.66054	45359.55
1490.05602	45985.15
1493.44922	47025.25
1496.84016	48441.65
1500.22882	50009.95
1503.61521	51740.55
1506.99934	53283.95
1510.38121	54417.15
1513.76081	54642.35
1517.13816	53896.55
1520.51324	52766.65
1523.88607	51842.05
1527.25665	51260.65
1530.62498	50718.15
1533.99105	49826.65
1537.35488	48559.75
1540.71647	46895.15
1544.07581	45247.15
1547.4329	43772.65
1550.78776	42640.75
1554.14038	42062.85
1557.49077	41893.15
1560.83892	42080.15
1564.18484	42293.55
1567.52853	42570.05
1570.86999	43013.05
1574.20922	43847.75
1577.54624	44586.55
1580.88103	45030.45
1584.2136	45272.25
1587.54395	46074.15
1590.87208	47460.95
1594.19801	49135.75
1597.52172	50375.85
1600.84321	49920.55
1604.16251	47327.95
1607.47959	43985.35
1610.79447	40838.05
1614.10715	37947.35
1617.41763	35553.55
1620.7259	34039.35
1624.03199	33188.35
1627.33587	33230.65
1630.63757	34240.95
1633.93707	36360.25
1637.23439	39853.25
1640.52951	45021.95
1643.82246	51201.35
1647.11321	56228.95
1650.40179	57587.75
1653.68819	54217.85
1656.97241	47675.65
1660.25446	40912.35
1663.53433	35560.65
1666.81203	32033.15
1670.08756	29891.95
1673.36092	28491.35
1676.63211	27670.95
1679.90115	27030.15
1683.16801	26605.45
1686.43272	26229.35
1689.69527	26013.35
1692.95567	25813.95
1696.2139	25708.15
1699.46999	25589.05
1702.72392	25429.15
1705.97571	25343.75
1709.22535	25294.55
1712.47284	25228.15
1715.71819	25153.95
1718.96139	25096.15
1722.20246	24973.65
1725.44139	24911.05
1728.67818	24743.95
1731.91284	24550.45
1735.14537	24407.55
1738.37576	24331.15
1741.60403	24192.45
1744.83017	24134.25
1748.05418	24065.55
1751.27607	23992.95
1754.49584	23968.65
1757.71349	23964.95
1760.92903	23949.95
1764.14244	23878.35
1767.35375	23873.45
1770.56294	23787.55
1773.77002	23748.05
1776.97499	23670.45
1780.17785	23593.55
1783.37861	23595.05
1786.57727	23518.45
1789.77382	23465.45
1792.96828	23428.95
1796.16064	23401.45
1799.3509	23308.45
1802.53907	23299.15
1805.72514	23226.25
1808.90913	23126.65
1812.09102	23125.45
1815.27083	23063.35
1818.44856	23044.35
1821.6242	23010.05
1824.79776	22994.75
1827.96924	22988.85
1831.13864	22965.05
1834.30597	22995.95
1837.47122	22982.75
1840.6344	23009.75
1843.7955	23032.75
1846.95454	23004.25
1850.11151	23030.15
1853.26642	23014.75
1856.41926	23025.15
1859.57004	23015.95
1862.71876	22957.95
1865.86542	22932.35
1869.01003	22855.65
1872.15258	22824.85
1875.29308	22795.75
1878.43152	22729.05
1881.56792	22673.25
1884.70227	22601.55
1887.83457	22572.05
1890.96482	22485.95
1894.09304	22443.55
1897.21921	22422.65
1900.34335	22364.35
1903.46544	22300.05
1906.58551	22291.45
1909.70353	22237.15
1912.81953	22154.05
1915.93349	22095.55
1919.04543	22073.95
1922.15534	21999.55
1925.26322	21956.25
1928.36908	21841.15
1931.47292	21758.75
1934.57473	21671.55
1937.67453	21573.35
1940.77232	21558.55
1943.86808	21481.35
1946.96184	21393.85
1950.05358	21366.65
1953.14331	21282.05
1956.23103	21247.75
1959.31675	21129.75
1962.40046	21099.95
1965.48217	21008.25
1968.56188	20928.95
1971.63959	20809.35
1974.7153	20740.05
1977.78901	20684.75
1980.86073	20621.25
1983.93046	20562.25
1986.99819	20422.15
1990.06394	20395.55
1993.1277	20325.15
1996.18947	20212.55
1999.24925	20129.45
2002.30706	20083.85
2005.36288	20051.05
2008.41672	19953.05
2011.46859	19919.05
2014.51848	19829.75
2017.56639	19734.25
2020.61233	19694.05
2023.6563	19622.75
2026.6983	19621.05
2029.73833	19541.65
2032.7764	19507.05
2035.8125	19456.15
2038.84664	19411.25
2041.87881	19384.65
2044.90903	19375.95
2047.93729	19352.15
2050.96359	19365.95
2053.98794	19269.05
2057.01034	19240.85
2060.03078	19221.35
2063.04927	19199.55
2066.06582	19188.25
2069.08042	19190.25
2072.09307	19197.05
2075.10378	19188.85
2078.11255	19199.55
2081.11938	19243.75
2084.12426	19243.85
2087.12722	19132.15
2090.12824	19127.55
2093.12732	19174.85
2096.12447	19202.15
2099.11969	19182.15
2102.11299	19168.55
2105.10435	19163.35
2108.09379	19124.95
2111.08131	19128.55
2114.0669	19116.75
2117.05057	19110.85
2120.03233	19137.25
2123.01216	19107.35
2125.99008	19080.55
2128.96609	19046.15
2131.94018	19061.25
2134.91236	19010.95
2137.88263	18985.45
2140.851	18967.95
2143.81746	18984.25
2146.78201	18922.25
2149.74466	18917.75
2152.7054	18919.75
2155.66425	18929.25
2158.6212	18901.65
2161.57625	18884.45
2164.52941	18880.55
2167.48067	18828.55
2170.43004	18861.95
2173.37752	18806.65
2176.32311	18806.75
2179.26681	18818.95
2182.20863	18800.35
2185.14856	18811.75
2188.08661	18768.65
2191.02278	18726.65
2193.95707	18731.05
2196.88948	18693.75
2199.82001	18680.55
2202.74867	18656.85
2205.67545	18650.15
2208.60037	18637.85
2211.52341	18570.15
2214.44458	18542.55
2217.36388	18460.45
2220.28132	18464.75
2223.1969	18429.55
2226.11061	18376.15
2229.02246	18332.65
2231.93245	18341.45
2234.84058	18320.25
2237.74686	18271.05
2240.65128	18295.65
2243.55385	18241.95
2246.45456	18181.55
2249.35343	18132.55
2252.25044	18048.95
2255.14561	18059.95
2258.03893	18044.55
2260.93041	17972.15
2263.82004	17941.45
2266.70783	17875.35
2269.59378	17823.65
2272.4779	17800.75
2275.36017	17719.85
2278.24061	17683.85
2281.11922	17645.85
2283.996	17621.65
2286.87094	17556.35
2289.74405	17514.55
2292.61534	17433.55
2295.4848	17380.15
2298.35243	17424.75
2301.21824	17386.65
2304.08223	17366.05
2306.94439	17339.15
2309.80474	17357.55
2312.66327	17321.95
2315.51999	17291.65
2318.37489	17297.95
2321.22797	17227.25
2324.07925	17205.95
2326.92871	17184.35
2329.77637	17179.15
2332.62222	17187.85
2335.46626	17138.85
2338.3085	17065.75
2341.14893	17075.25
2343.98756	17073.25
2346.8244	17036.95
2349.65943	17022.85
2352.49267	16965.35
2355.32411	17000.75
2358.15376	16993.25
2360.98161	16988.65
2363.80768	16962.35
2366.63195	16953.55
2369.45444	16943.75
2372.27514	16907.45
2375.09405	16880.15
2377.91118	16868.05
2380.72652	16799.05
2383.54009	16754.95
2386.35187	16709.05
2389.16188	16626.25
2391.97011	16601.85
2394.77657	16617.45
2397.58125	16572.45
2400.38416	16544.05
2403.18529	16497.65
2405.98466	16462.35
2408.78226	16428.95
2411.57809	16406.55
2414.37216	16400.25
2417.16446	16384.65
2419.955	16359.55
2422.74378	16360.35
2425.5308	16313.95
2428.31606	16344.85
2431.09956	16342.05
2433.88131	16261.95
2436.6613	16250.45
2439.43954	16241.85
2442.21603	16244.95
2444.99077	16172.85
2447.76377	16223.95
2450.53501	16172.15
2453.30451	16182.55
2456.07226	16178.65
2458.83827	16139.95
2461.60254	16130.35
2464.36507	16108.45
2467.12586	16094.15
2469.88492	16054.05
2472.64224	16062.05
2475.39782	16051.05
2478.15167	16017.15
2480.90379	15993.05
2483.65417	15956.15
2486.40283	15983.25
2489.14976	15998.15
2491.89497	15990.45
2494.63845	15934.95
2497.3802	15938.25
2500.12024	15922.15
2502.85855	15887.85
2505.59514	15890.05
2508.33002	15868.85
2511.06318	15837.15
2513.79462	15815.35
2516.52435	15783.15
2519.25237	15800.65
2521.97867	15752.65
2524.70327	15732.75
2527.42616	15709.75
2530.14734	15700.15
2532.86681	15622.55
2535.58458	15660.05
2538.30065	15591.15
2541.01501	15595.35
2543.72768	15578.25
2546.43864	15543.55
2549.14791	15507.55
2551.85548	15508.05
2554.56136	15472.35
2557.26554	15447.55
2559.96803	15407.85
2562.66883	15385.85
2565.36794	15398.75
2568.06536	15381.45
2570.7611	15374.15
2573.45514	15333.05
2576.14751	15299.75
2578.83819	15260.25
2581.52719	15254.85
2584.21451	15235.75
2586.90015	15199.95
2589.58411	15162.85
2592.2664	15159.95
2594.94701	15100.55
2597.62594	15101.15
2600.30321	15059.15
2602.9788	15032.25
2605.65273	15042.65
2608.32498	15040.75
2610.99557	15025.95
2613.66449	15019.05
2616.33175	14997.25
2618.99734	14976.65
2621.66128	14961.15
2624.32355	14934.95
2626.98416	14941.85
2629.64311	14927.05
2632.30041	14863.35
2634.95605	14878.15
2637.61004	14856.95
2640.26238	14855.95
2642.91306	14812.35
2645.56209	14794.05
2648.20948	14802.05
2650.85521	14826.95
2653.4993	14785.45
2656.14175	14782.45
2658.78255	14782.75
2661.42171	14792.25
2664.05923	14780.25
2666.6951	14727.15
2669.32934	14760.85
2671.96194	14774.25
2674.59291	14784.05
2677.22224	14751.25
2679.84993	14756.45
2682.476	14778.35
2685.10043	14807.35
2687.72324	14717.55
2690.34441	14698.75
2692.96396	14705.55
2695.58188	14743.75
2698.19818	14729.95
2700.81285	14696.05
2703.4259	14698.35
2706.03733	14729.45
2708.64714	14676.55
2711.25533	14703.45
2713.86191	14690.85
2716.46687	14731.95
2719.07021	14653.75
2721.67194	14672.35
2724.27206	14655.25
2726.87057	14650.35
2729.46747	14635.95
2732.06276	14655.25
2734.65644	14666.85
2737.24852	14648.75
2739.83899	14650.45
2742.42786	14658.15
2745.01513	14597.05
2747.60079	14586.25
2750.18486	14572.75
2752.76733	14554.75
2755.3482	14541.75
2757.92747	14520.35
2760.50515	14491.35
2763.08123	14531.45
2765.65573	14465.05
2768.22863	14468.55
2770.79994	14435.35
2773.36967	14444.05
2775.9378	14424.35
2778.50435	14401.85
2781.06932	14361.05
2783.6327	14355.05
2786.1945	14326.75
2788.75471	14314.45
2791.31335	14302.15
2793.87041	14252.35
2796.42589	14198.35
2798.97979	14175.55
2801.53212	14191.65
2804.08288	14168.95
2806.63206	14098.75
2809.17967	14123.65
2811.72571	14074.95
2814.27018	14044.85
2816.81308	14057.65
2819.35442	14013.95
2821.89419	14013.95
2824.43239	14003.15
2826.96904	13986.45
2829.50412	13952.85
2832.03763	13897.65
2834.56959	13891.15
2837.1	13881.85
2839.62884	13859.85
2842.15613	13882.75
2844.68186	13911.25
2847.20604	13938.25
2849.72867	13927.55
2852.24974	13913.65
2854.76927	13867.15
2857.28724	13858.35
2859.80367	13856.05
2862.31855	13836.35
2864.83189	13790.65
2867.34368	13759.85
2869.85393	13750.35
2872.36264	13735.75
2874.8698	13729.85
2877.37543	13764.65
2879.87952	13764.35
2882.38207	13769.25
2884.88308	13771.45
2887.38256	13773.55
2889.88051	13756.35
2892.37692	13730.05
2894.8718	13715.65
2897.36515	13756.75
2899.85698	13756.95
2902.34727	13770.65
2904.83604	13792.75
2907.32328	13778.65
2909.809	13747.85
2912.29319	13764.95
2914.77587	13753.85
2917.25702	13762.05
2919.73665	13761.85
2922.21476	13719.55
2924.69136	13730.55
2927.16644	13720.35
2929.64	13712.75
2932.11205	13706.15
2934.58258	13661.35
2937.05161	13656.35
2939.51912	13646.25
2941.98513	13615.85
2944.44962	13579.85
2946.91261	13510.95
2949.37409	13514.75
2951.83407	13500.95
2954.29254	13493.55
2956.74951	13432.85
2959.20498	13415.15
2961.65895	13379.25
2964.11142	13360.65
2966.56239	13357.15
2969.01186	13345.25
2971.45984	13303.85
2973.90632	13261.25
2976.35131	13229.45
2978.7948	13169.65
2981.23681	13140.85
2983.67732	13097.55
2986.11635	13058.65
2988.55388	13020.45
2990.98993	13005.85
2993.4245	12935.15
2995.85758	12930.55
2998.28917	12886.15
3000.71928	12870.15
3003.14791	12857.05
3005.57506	12824.25
3008.00073	12764.05
3010.42493	12770.85
3012.84764	12721.95
3015.26888	12715.95
3017.68865	12676.05
3020.10694	12630.75
3022.52376	12603.15
3024.9391	12584.25
3027.35298	12556.65
3029.76539	12534.15
3032.17632	12496.15
3034.5858	12471.05
3036.9938	12475.95
3039.40034	12474.15
3041.80542	12438.65
3044.20903	12410.25
3046.61118	12377.45
3049.01187	12346.75
3051.4111	12348.05
3053.80888	12277.15
3056.20519	12252.95
3058.60005	12215.65
3060.99345	12198.85
3063.3854	12176.45
3065.7759	12151.15
3068.16494	12117.15
3070.55254	12096.85
3072.93868	12071.15
3075.32338	12019.95
3077.70662	11988.55
3080.08842	11941.45
3082.46878	11979.15
3084.84769	11933.55
3087.22515	11906.15
3089.60118	11903.15
3091.97576	11885.35
3094.3489	11893.75
3096.72061	11887.35
3099.09087	11881.45
3101.4597	11845.35
3103.82709	11816.15
3106.19305	11774.65
3108.55757	11790.65
3110.92066	11719.35
3113.28232	11713.05
3115.64255	11639.25
3118.00134	11655.55
3120.35871	11624.35
3122.71466	11586.65
3125.06917	11568.05
3127.42226	11532.65
3129.77393	11548.05
3132.12417	11538.95
3134.47299	11541.95
3136.82039	11520.15
3139.16636	11512.95
3141.51092	11497.15
3143.85406	11502.25
3146.19579	11517.25
3148.53609	11495.55
3150.87499	11483.45
3153.21246	11473.55
3155.54853	11500.85
3157.88318	11458.65
3160.21642	11475.85
3162.54826	11478.25
3164.87868	11442.75
3167.2077	11437.55
3169.5353	11440.65
3171.86151	11436.15
3174.18631	11401.95
3176.5097	11397.15
3178.83169	11390.15
3181.15228	11381.15
3183.47147	11306.25
3185.78926	11302.75
3188.10565	11313.55
3190.42065	11304.75
3192.73424	11290.45
3195.04645	11270.25
3197.35725	11269.95
3199.66667	11218.55
3201.97469	11268.95
3204.28132	11226.25
3206.58656	11236.35
3208.8904	11236.85
3211.19287	11240.25
3213.49394	11225.75
3215.79363	11208.05
3218.09193	11232.15
3220.38884	11231.65
3222.68438	11220.15
3224.97853	11180.05
3227.2713	11179.05
3229.56269	11164.55
3231.8527	11159.55
3234.14133	11149.35
3236.42858	11082.85
3238.71446	11093.15
