Data from AgNPs_FTO_APTES_UA_2uM_CRN_20uM_R6G_10uM_NaF_0.1M_Addition_RamanShift__15__14-15-15-203.txt Node

Date: Wed Feb 02 14:15:15 GMT 2022
User: TCL
Spectrometer: QEP01345
Trigger mode: 4
Integration Time (sec): 7.000000E0
Scans to average: 10
Electric dark correction enabled: true
Nonlinearity correction enabled: false
Boxcar width: 0
XAxis mode: Raman Shifts
Number of Pixels in Spectrum: 1044
>>>>>Begin Spectral Data<<<<<
46.04893	-0.3
50.45542	0.2
54.85868	-1.4
59.25871	-0.8
63.6555	95.1
68.04907	100.4
72.43941	105.8
76.82654	112.1
81.21044	116.3
85.59113	121.6
89.96862	127.8
94.34289	129.7
98.71396	133.6
103.08183	143.1
107.4465	142.9
111.80798	146.8
116.16626	151.1
120.52136	156.7
124.87327	159.7
129.222	168.9
133.56755	184.1
137.90993	193.2
142.24913	216.4
146.58517	242
150.91804	280.6
155.24774	331.5
159.57429	412.4
163.89768	532.9
168.21792	696.8
172.53501	952.8
176.84895	1334.1
181.15975	1868
185.46741	2616.4
189.77193	3598.8
194.07331	4823.4
198.37157	6206.8
202.6667	7676.5
206.9587	9091.6
211.24758	10506.2
215.53334	11909.5
219.81599	13428.3
224.09553	15082.3
228.37195	16925.1
232.64527	18940
236.91549	21058.1
241.18261	23150.4
245.44663	25075.8
249.70755	26830
253.96539	28351.8
258.22014	29691.9
262.4718	30813.5
266.72039	31615.9
270.96589	32127.1
275.20832	32318.3
279.44768	32263.8
283.68397	32136.4
287.91719	32028.3
292.14735	32056.9
296.37445	32146.9
300.59849	32262.5
304.81948	32277.8
309.03742	32077.2
313.25231	31625.6
317.46415	30720.3
321.67296	29624.9
325.87872	28737.4
330.08145	28269.8
334.28114	28139.2
338.47781	28276.5
342.67145	28586.7
346.86207	29010.5
351.04966	29545.2
355.23424	30120.3
359.4158	30559.5
363.59435	30920.1
367.76989	31158.5
371.94243	31277.4
376.11196	31396.9
380.27849	31516.6
384.44203	31743.4
388.60257	31959.6
392.76012	32334.5
396.91468	32798.3
401.06626	33287.2
405.21485	33573.6
409.36047	33409.5
413.50311	32838.7
417.64277	32450.1
421.77947	32355.6
425.9132	32456.2
430.04396	32609
434.17176	32797.4
438.2966	32955.9
442.41849	33447.8
446.53742	34246.1
450.6534	35195.1
454.76644	35919.5
458.87653	36277.7
462.98368	36288.4
467.08789	36106
471.18916	35724.8
475.2875	35481
479.38291	35459.5
483.4754	35360.6
487.56496	34926.3
491.6516	34195.7
495.73531	33483.6
499.81612	33153
503.89401	33217
507.96899	33313.6
512.04106	33213.8
516.11023	32896.6
520.1765	32428.3
524.23987	32036.6
528.30034	31625.4
532.35792	31224.2
536.41261	30887.7
540.46441	30656.9
544.51333	30759.4
548.55936	31307.1
552.60252	32144.7
556.64279	33021.3
560.6802	33658.1
564.71473	34059
568.7464	34665.5
572.7752	35658.4
576.80114	36510.2
580.82422	37108.7
584.84444	37596
588.86181	37828.9
592.87633	37857.7
596.888	37809
600.89682	37715.3
604.9028	38797.9
608.90594	41764.8
612.90624	44534.8
616.90371	41472.3
620.89834	34752.4
624.89015	31823.4
628.87913	31569.1
632.86528	31783.3
636.84862	31798.7
640.82913	31337.2
644.80683	30452.6
648.78172	29735.7
652.75379	29541.4
656.72306	29707.4
660.68952	30214.6
664.65319	29963.1
668.61405	29468.1
672.57211	29376
676.52738	29426.4
680.47986	29407.1
684.42955	29308.2
688.37646	29204.3
692.32058	29277.8
696.26192	29609.4
700.20048	29923.5
704.13626	30233.1
708.06928	30248.3
711.99952	30045.4
715.927	29930.2
719.85171	29997.6
723.77365	29880.4
727.69284	29436.2
731.60928	29095.4
735.52295	28953
739.43388	28868
743.34206	28952.8
747.24749	29133.8
751.15017	29475.1
755.05012	30067.4
758.94733	31134.5
762.8418	32909.7
766.73354	35513.7
770.62254	37907
774.50882	38300.5
778.39237	36299
782.27321	33452.4
786.15132	31252.2
790.02671	29891.4
793.89938	29142.3
797.76935	28866.9
801.6366	28780
805.50115	28766.9
809.36299	28511.1
813.22213	28247.2
817.07857	28137
820.93231	28046.2
824.78336	27892.2
828.63172	27711.9
832.47738	27607.1
836.32036	27573.3
840.16066	27622.9
843.99827	27705.1
847.8332	27646.1
851.66546	27506.2
855.49504	27473.5
859.32195	27452.9
863.1462	27386.6
866.96777	27308.4
870.78668	27186.6
874.60293	27187.3
878.41652	27198.5
882.22745	27223.4
886.03573	27364.6
889.84136	27333.4
893.64433	27269.5
897.44466	27140.3
901.24235	27065
905.0374	26953.3
908.8298	26810.7
912.61957	26905.9
916.40671	27232.8
920.19121	27654.2
923.97308	27938.1
927.75233	27908.9
931.52895	27623.1
935.30295	27233.6
939.07433	26646.3
942.84309	26173
946.60924	25979.6
950.37278	25911.4
954.13371	25877.4
957.89203	25828
961.64774	25821.9
965.40086	25813.4
969.15137	25697.1
972.89929	25556.5
976.64461	25445.1
980.38733	25357.7
984.12747	25423.7
987.86502	25676.9
991.59999	25994
995.33237	26372.2
999.06217	27049.6
1002.78939	27821
1006.51404	28349.2
1010.23611	28642.2
1013.95561	28914.2
1017.67255	28976.7
1021.38692	28673
1025.09872	28342.9
1028.80796	28274.1
1032.51465	28764.1
1036.21877	29301
1039.92035	29467.3
1043.61937	29254.1
1047.31584	28803.2
1051.00976	28328.3
1054.70114	28114.7
1058.38998	28290.7
1062.07627	28618.5
1065.76003	28932.8
1069.44126	29307.5
1073.11995	29645.1
1076.79611	30021.5
1080.46974	30201.5
1084.14085	30464.3
1087.80943	30839.9
1091.47549	31201.4
1095.13903	31295.3
1098.80005	31038.6
1102.45857	30296.6
1106.11456	29584.3
1109.76805	29203.3
1113.41903	29200.4
1117.06751	29344.3
1120.71348	29738.8
1124.35696	30050
1127.99793	30435
1131.63641	30684.2
1135.2724	30617.6
1138.90589	30488.7
1142.5369	30485.1
1146.16542	30671.7
1149.79145	30950.1
1153.415	31397.6
1157.03607	32018.3
1160.65467	33087.3
1164.27079	34665.5
1167.88443	36761.3
1171.49561	39273.6
1175.10432	42327.7
1178.71056	46228.2
1182.31434	49821
1185.91565	51995.1
1189.51451	52498.6
1193.11091	51539.3
1196.70485	49615.2
1200.29634	47229.9
1203.88538	45268.3
1207.47197	43895.4
1211.05612	43022.5
1214.63782	42090.8
1218.21708	41161.8
1221.79391	40236.5
1225.36829	39500
1228.94024	38904.1
1232.50976	38216.8
1236.07685	37718.1
1239.6415	37433.6
1243.20374	37411.5
1246.76355	37659.8
1250.32093	38192.8
1253.8759	39112.4
1257.42845	40339.2
1260.97859	41647.1
1264.52631	42958.3
1268.07163	44212.1
1271.61453	45645.3
1275.15503	47097.5
1278.69312	48660.8
1282.22882	50019.8
1285.76211	51461.5
1289.29301	53147.4
1292.82151	55447.9
1296.34761	58370.1
1299.87133	61811
1303.39266	65618.8
1306.9116	69337.3
1310.42815	72476.3
1313.94233	74462.9
1317.45412	74669.8
1320.96354	74039.7
1324.47058	73605.4
1327.97525	73261.5
1331.47754	73131.1
1334.97747	72934.7
1338.47502	72786.8
1341.97022	72565.3
1345.46305	71573.6
1348.95352	69970.6
1352.44163	68164.3
1355.92738	67358.9
1359.41078	68163.5
1362.89183	69295.3
1366.37053	67946.8
1369.84688	63059.3
1373.32088	57220.9
1376.79254	53113
1380.26186	51607.4
1383.72883	51616.2
1387.19347	51974
1390.65578	51915.7
1394.11575	52094.1
1397.57339	52797.1
1401.0287	53803.8
1404.48168	54597
1407.93234	54629.8
1411.38068	53454.9
1414.82669	51366.1
1418.27039	48805.4
1421.71177	46325.8
1425.15083	44290.6
1428.58758	43305.3
1432.02203	43379.7
1435.45416	44386.1
1438.88399	45913.4
1442.31151	47288.6
1445.73673	48280.8
1449.15965	49294.4
1452.58027	50122.3
1455.9986	50641.5
1459.41463	51205.3
1462.82837	51927.9
1466.23982	52807.7
1469.64898	53271.1
1473.05586	53547.6
1476.46045	53197.7
1479.86276	52515.8
1483.26279	51701.4
1486.66054	51164.7
1490.05602	51048.5
1493.44922	51369.4
1496.84016	51912.4
1500.22882	52941.3
1503.61521	54603.2
1506.99934	56572.8
1510.38121	58266.9
1513.76081	58749.6
1517.13816	57767.1
1520.51324	55885.6
1523.88607	54256.2
1527.25665	53412.9
1530.62498	53091.5
1533.99105	52882.7
1537.35488	52604.5
1540.71647	51776.2
1544.07581	50592.4
1547.4329	49297.6
1550.78776	48205.7
1554.14038	47423.6
1557.49077	47025.9
1560.83892	46895.3
1564.18484	46853.7
1567.52853	46920.4
1570.86999	47237.7
1574.20922	47942.6
1577.54624	48776.3
1580.88103	49288.9
1584.2136	49831.9
1587.54395	51232.1
1590.87208	53577.1
1594.19801	56423.1
1597.52172	59167.9
1600.84321	59683.4
1604.16251	57018.7
1607.47959	52660.6
1610.79447	47999.7
1614.10715	43635.5
1617.41763	39945.2
1620.7259	37226.5
1624.03199	35812.5
1627.33587	35571.2
1630.63757	36631.2
1633.93707	39156.4
1637.23439	43335.9
1640.52951	49168.3
1643.82246	55472.8
1647.11321	60026.9
1650.40179	60614.4
1653.68819	56558.6
1656.97241	49283.8
1660.25446	41775.6
1663.53433	35952.1
1666.81203	32025
1670.08756	29479.4
1673.36092	27852.4
1676.63211	26853.3
1679.90115	26083.8
1683.16801	25527.4
1686.43272	25117.2
1689.69527	24775.7
1692.95567	24558.6
1696.2139	24403.6
1699.46999	24245.1
1702.72392	24181.9
1705.97571	24045.7
1709.22535	23953.6
1712.47284	23861.9
1715.71819	23818.8
1718.96139	23740.5
1722.20246	23581.2
1725.44139	23444.8
1728.67818	23306
1731.91284	23179.1
1735.14537	22999.5
1738.37576	22908.3
1741.60403	22794.4
1744.83017	22729.9
1748.05418	22692.4
1751.27607	22635.8
1754.49584	22597.2
1757.71349	22588.7
1760.92903	22534.8
1764.14244	22496.2
1767.35375	22443.8
1770.56294	22389.7
1773.77002	22337.2
1776.97499	22288.2
1780.17785	22212.3
1783.37861	22145.6
1786.57727	22082
1789.77382	22062.4
1792.96828	22007.1
1796.16064	21976.4
1799.3509	21915
1802.53907	21887.8
1805.72514	21777.6
1808.90913	21711
1812.09102	21683.1
1815.27083	21654.3
1818.44856	21638.4
1821.6242	21568.5
1824.79776	21572.4
1827.96924	21570.2
1831.13864	21546.8
1834.30597	21549.5
1837.47122	21565.1
1840.6344	21604.9
1843.7955	21617.7
1846.95454	21619.9
1850.11151	21609.8
1853.26642	21600.3
1856.41926	21564.8
1859.57004	21560.4
1862.71876	21575.3
1865.86542	21524.2
1869.01003	21512.2
1872.15258	21468.3
1875.29308	21437
1878.43152	21424.7
1881.56792	21425.5
1884.70227	21441
1887.83457	21412.9
1890.96482	21358.7
1894.09304	21338.5
1897.21921	21331.5
1900.34335	21261.5
1903.46544	21234.1
1906.58551	21226.5
1909.70353	21156
1912.81953	21101.9
1915.93349	21092.1
1919.04543	21018.9
1922.15534	21011.3
1925.26322	20912.2
1928.36908	20826
1931.47292	20796
1934.57473	20713.7
1937.67453	20599.7
1940.77232	20584.1
1943.86808	20522
1946.96184	20438.9
1950.05358	20357.4
1953.14331	20312.9
1956.23103	20237.2
1959.31675	20188.7
1962.40046	20148
1965.48217	20081.1
1968.56188	20014.7
1971.63959	19970.9
1974.7153	19896.4
1977.78901	19837.5
1980.86073	19747.8
1983.93046	19681.7
1986.99819	19629.8
1990.06394	19619.5
1993.1277	19524.4
1996.18947	19447
1999.24925	19388.7
2002.30706	19354.5
2005.36288	19263
2008.41672	19196.2
2011.46859	19139
2014.51848	19089.1
2017.56639	19042.4
2020.61233	19037.8
2023.6563	18977.7
2026.6983	18928.4
2029.73833	18925.4
2032.7764	18834.6
2035.8125	18811.6
2038.84664	18780.9
2041.87881	18759.6
2044.90903	18717.7
2047.93729	18660.4
2050.96359	18696.4
2053.98794	18640
2057.01034	18665.1
2060.03078	18653.5
2063.04927	18594.2
2066.06582	18607.4
2069.08042	18569.1
2072.09307	18575.8
2075.10378	18542.7
2078.11255	18544.2
2081.11938	18545.3
2084.12426	18491.6
2087.12722	18482.1
2090.12824	18491.9
2093.12732	18467.2
2096.12447	18493.7
2099.11969	18526.9
2102.11299	18464.8
2105.10435	18452.6
2108.09379	18487.7
2111.08131	18491.9
2114.0669	18526.4
2117.05057	18534.4
2120.03233	18518.6
2123.01216	18554.5
2125.99008	18547.1
2128.96609	18587.6
2131.94018	18568.6
2134.91236	18597.5
2137.88263	18598.7
2140.851	18573.1
2143.81746	18619.5
2146.78201	18633.2
2149.74466	18634.1
2152.7054	18585.7
2155.66425	18575.9
2158.6212	18588.1
2161.57625	18574.9
2164.52941	18593
2167.48067	18568.4
2170.43004	18567.7
2173.37752	18563.1
2176.32311	18527
2179.26681	18542.2
2182.20863	18521
2185.14856	18562.6
2188.08661	18517
2191.02278	18562.3
2193.95707	18536.1
2196.88948	18508.2
2199.82001	18489.3
2202.74867	18473.8
2205.67545	18490.1
2208.60037	18473.3
2211.52341	18443.8
2214.44458	18433.5
2217.36388	18374.2
2220.28132	18359.5
2223.1969	18307.2
2226.11061	18320.9
2229.02246	18267.7
2231.93245	18223.6
2234.84058	18208.4
2237.74686	18146.5
2240.65128	18127.6
2243.55385	18058.3
2246.45456	18059.7
2249.35343	18028.5
2252.25044	18037.1
2255.14561	17975.3
2258.03893	17971.4
2260.93041	17943.5
2263.82004	17863
2266.70783	17838.1
2269.59378	17773.5
2272.4779	17707.6
2275.36017	17707.8
2278.24061	17685
2281.11922	17618.2
2283.996	17586.4
2286.87094	17577
2289.74405	17556.3
2292.61534	17510.7
2295.4848	17509.8
2298.35243	17537.6
2301.21824	17530.8
2304.08223	17499.3
2306.94439	17532.5
2309.80474	17524.2
2312.66327	17514.4
2315.51999	17497.4
2318.37489	17507.4
2321.22797	17467.7
2324.07925	17481.7
2326.92871	17452.6
2329.77637	17450.8
2332.62222	17411.3
2335.46626	17400.6
2338.3085	17389.2
2341.14893	17391.7
2343.98756	17389.6
2346.8244	17408.5
2349.65943	17431
2352.49267	17410.1
2355.32411	17451
2358.15376	17410.6
2360.98161	17415.1
2363.80768	17381.3
2366.63195	17348.3
2369.45444	17313.2
2372.27514	17312.4
2375.09405	17278
2377.91118	17233.9
2380.72652	17208.7
2383.54009	17195.9
2386.35187	17158.8
2389.16188	17093.7
2391.97011	17094
2394.77657	17040.1
2397.58125	17008.4
2400.38416	16988.7
2403.18529	16948
2405.98466	16975.1
2408.78226	16920.1
2411.57809	16925.9
2414.37216	16883.1
2417.16446	16859.8
2419.955	16854.2
2422.74378	16864.3
2425.5308	16856.9
2428.31606	16832.4
2431.09956	16800.6
2433.88131	16767.8
2436.6613	16794.9
2439.43954	16764.8
2442.21603	16774.8
2444.99077	16761.4
2447.76377	16744.5
2450.53501	16720.8
2453.30451	16770.6
2456.07226	16731.3
2458.83827	16751.6
2461.60254	16716.5
2464.36507	16762.9
2467.12586	16728.2
2469.88492	16748.4
2472.64224	16736.6
2475.39782	16757.4
2478.15167	16761.6
2480.90379	16771.1
2483.65417	16788.1
2486.40283	16792.1
2489.14976	16808.2
2491.89497	16805.2
2494.63845	16826.9
2497.3802	16788.2
2500.12024	16793.6
2502.85855	16786.6
2505.59514	16790.9
2508.33002	16755.1
2511.06318	16778.6
2513.79462	16761.6
2516.52435	16698.6
2519.25237	16724.6
2521.97867	16750.7
2524.70327	16736.5
2527.42616	16702.6
2530.14734	16680.3
2532.86681	16683.7
2535.58458	16678.4
2538.30065	16642.9
2541.01501	16641.6
2543.72768	16624.1
2546.43864	16607.4
2549.14791	16597.4
2551.85548	16562
2554.56136	16569.5
2557.26554	16588.4
2559.96803	16576.5
2562.66883	16574.3
2565.36794	16512.8
2568.06536	16546.3
2570.7611	16499.3
2573.45514	16494.9
2576.14751	16486
2578.83819	16480.2
2581.52719	16467.6
2584.21451	16451.1
2586.90015	16457.9
2589.58411	16438.8
2592.2664	16428.7
2594.94701	16408.8
2597.62594	16437.4
2600.30321	16370
2602.9788	16397.7
2605.65273	16367.3
2608.32498	16393.3
2610.99557	16373.7
2613.66449	16390.1
2616.33175	16389.9
2618.99734	16405.2
2621.66128	16397.9
2624.32355	16385.2
2626.98416	16409.3
2629.64311	16411.8
2632.30041	16404.3
2634.95605	16381.9
2637.61004	16369.1
2640.26238	16364
2642.91306	16338.5
2645.56209	16327.6
2648.20948	16310.2
2650.85521	16340.4
2653.4993	16323.2
2656.14175	16328.3
2658.78255	16336.4
2661.42171	16357.8
2664.05923	16389.2
2666.6951	16401.2
2669.32934	16411.8
2671.96194	16409.6
2674.59291	16400
2677.22224	16413.7
2679.84993	16407.4
2682.476	16366.6
2685.10043	16385.9
2687.72324	16345.9
2690.34441	16376.1
2692.96396	16377
2695.58188	16358.4
2698.19818	16332.7
2700.81285	16326
2703.4259	16361.3
2706.03733	16408.9
2708.64714	16422.2
2711.25533	16390
2713.86191	16375
2716.46687	16377.7
2719.07021	16382.7
2721.67194	16426.4
2724.27206	16390.6
2726.87057	16397.4
2729.46747	16392.5
2732.06276	16430.9
2734.65644	16391.4
2737.24852	16394.1
2739.83899	16353.4
2742.42786	16373.5
2745.01513	16363.4
2747.60079	16396.1
2750.18486	16363.7
2752.76733	16407
2755.3482	16403.2
2757.92747	16425
2760.50515	16406
2763.08123	16395.8
2765.65573	16398.4
2768.22863	16388.4
2770.79994	16368.1
2773.36967	16372.4
2775.9378	16367.4
2778.50435	16378.9
2781.06932	16351
2783.6327	16383.1
2786.1945	16374.1
2788.75471	16326.2
2791.31335	16264.8
2793.87041	16296
2796.42589	16208.6
2798.97979	16216.9
2801.53212	16194.4
2804.08288	16181.5
2806.63206	16174.5
2809.17967	16149.7
2811.72571	16103.4
2814.27018	16072
2816.81308	16094.1
2819.35442	16039.6
2821.89419	16005
2824.43239	15992.2
2826.96904	16003.6
2829.50412	15994
2832.03763	15973.6
2834.56959	15944.2
2837.1	15918
2839.62884	15940.8
2842.15613	15955.3
2844.68186	15958
2847.20604	15967.8
2849.72867	15993.8
2852.24974	15982.5
2854.76927	15988.2
2857.28724	15949
2859.80367	15963.5
2862.31855	15932.8
2864.83189	15910.6
2867.34368	15823.3
2869.85393	15848.6
2872.36264	15825.4
2874.8698	15868.8
2877.37543	15853.9
2879.87952	15865.9
2882.38207	15865
2884.88308	15843.4
2887.38256	15895.7
2889.88051	15875.7
2892.37692	15891.8
2894.8718	15874.7
2897.36515	15890.1
2899.85698	15887.3
2902.34727	15943.7
2904.83604	15949.9
2907.32328	15978.6
2909.809	15963.8
2912.29319	15965.2
2914.77587	15939.2
2917.25702	15930.1
2919.73665	15903.3
2922.21476	15945.6
2924.69136	15951.8
2927.16644	15953.3
2929.64	15931.9
2932.11205	15943.2
2934.58258	15872.1
2937.05161	15908.8
2939.51912	15930.1
2941.98513	15876.3
2944.44962	15849.8
2946.91261	15748.6
2949.37409	15763.8
2951.83407	15765.2
2954.29254	15756.1
2956.74951	15714.8
2959.20498	15697.2
2961.65895	15666.9
2964.11142	15680.2
2966.56239	15606.9
2969.01186	15614.2
2971.45984	15584
2973.90632	15541.6
2976.35131	15495
2978.7948	15471.1
2981.23681	15420.2
2983.67732	15383.6
2986.11635	15353.1
2988.55388	15318.1
2990.98993	15314.9
2993.4245	15242.7
2995.85758	15220.1
2998.28917	15174.6
3000.71928	15167.8
3003.14791	15102.4
3005.57506	15142
3008.00073	15074.4
3010.42493	15047.5
3012.84764	15010.5
3015.26888	14992.2
3017.68865	14970.7
3020.10694	14946.1
3022.52376	14910.4
3024.9391	14858.7
3027.35298	14869.8
3029.76539	14809.5
3032.17632	14813.7
3034.5858	14813.2
3036.9938	14832.8
3039.40034	14797.4
3041.80542	14787.9
3044.20903	14762.1
3046.61118	14729.6
3049.01187	14700.5
3051.4111	14704.9
3053.80888	14641.4
3056.20519	14652.5
3058.60005	14606.8
3060.99345	14586.5
3063.3854	14554.2
3065.7759	14491.7
3068.16494	14480.1
3070.55254	14392.6
3072.93868	14380
3075.32338	14336.1
3077.70662	14323
3080.08842	14253.5
3082.46878	14280.3
3084.84769	14255.9
3087.22515	14253.9
3089.60118	14236.7
3091.97576	14227.1
3094.3489	14176.7
3096.72061	14156.1
3099.09087	14168.9
3101.4597	14147.4
3103.82709	14137
3106.19305	14126.8
3108.55757	14118.2
3110.92066	14072
3113.28232	14048.6
3115.64255	13999.1
3118.00134	13965
3120.35871	13940.5
3122.71466	13913.3
3125.06917	13873.4
3127.42226	13861.5
3129.77393	13847.4
3132.12417	13806.5
3134.47299	13827.3
3136.82039	13847.5
3139.16636	13806.9
3141.51092	13830.4
3143.85406	13826.2
3146.19579	13826.2
3148.53609	13798.5
3150.87499	13788.5
3153.21246	13776.5
3155.54853	13794.8
3157.88318	13772.3
3160.21642	13792.8
3162.54826	13790.5
3164.87868	13778.5
3167.2077	13778.2
3169.5353	13745.7
3171.86151	13752.4
3174.18631	13727.6
3176.5097	13736.8
3178.83169	13732.1
3181.15228	13709.8
3183.47147	13683.2
3185.78926	13715
3188.10565	13715.4
3190.42065	13699.3
3192.73424	13692.4
3195.04645	13674.9
3197.35725	13667.4
3199.66667	13619.7
3201.97469	13663.8
3204.28132	13626.5
3206.58656	13681.7
3208.8904	13667.3
3211.19287	13666.3
3213.49394	13701.7
3215.79363	13648
3218.09193	13652.4
3220.38884	13645.9
3222.68438	13659
3224.97853	13616.4
3227.2713	13640.3
3229.56269	13611.7
3231.8527	13584.5
3234.14133	13571.3
3236.42858	13529.8
3238.71446	13523.9
3240.99896	13507.1
3243.28209	13486.4
3245.56384	13474
3247.84423	13479.5
3250.12324	13476.6
3252.40088	13461.8
3254.67715	13441.2
3256.95205	13402.8
3259.22558	13402.5
3261.49775	13379.6
3263.76855	13331.5
3266.03799	13317.3
3268.30606	13283.1
3270.57277	13273.9
3272.83812	13250.7
3275.10211	13238.8
3277.36474	13225.5
3279.62601	13260.6
3281.88593	13185.7
3284.14448	13197
3286.40168	13194.9
3288.65753	13182.5
3290.91202	13167.2
3293.16516	13118.1
3295.41695	13109.4
3297.66738	13029.2
3299.91647	12985.4
3302.16421	12910
3304.4106	12854.1
3306.65564	12779.8
3308.89933	12713.6
3311.14169	12599.7
3313.38269	12517.6
3315.62236	12444.5
3317.86068	12357.6
3320.09766	12193.8
3322.3333	12095.8
3324.5676	12078.5
3326.80056	11898.9
3329.03219	11850.5
3331.26248	2.7
3333.49143	-0.4
3335.71905	-0.9
