Data from AgNPs_FTO_APTES_UA_2uM_CRN_50uM_R6G_10uM_NaF_0.1M_Addition_RamanShift__39__15-21-45-281.txt Node

Date: Wed Feb 02 15:21:45 GMT 2022
User: TCL
Spectrometer: QEP01345
Trigger mode: 4
Integration Time (sec): 7.000000E0
Scans to average: 10
Electric dark correction enabled: true
Nonlinearity correction enabled: false
Boxcar width: 0
XAxis mode: Raman Shifts
Number of Pixels in Spectrum: 1044
>>>>>Begin Spectral Data<<<<<
46.04893	-0.125
50.45542	0.275
54.85868	-0.325
59.25871	0.175
63.6555	83.375
68.04907	91.675
72.43941	88.875
76.82654	101.375
81.21044	100.375
85.59113	108.175
89.96862	109.475
94.34289	112.475
98.71396	120.875
103.08183	125.475
107.4465	125.175
111.80798	130.175
116.16626	128.875
120.52136	132.175
124.87327	138.875
129.222	147.175
133.56755	158.575
137.90993	168.175
142.24913	187.175
146.58517	209.375
150.91804	240.375
155.24774	294.175
159.57429	358.975
163.89768	457.875
168.21792	598.375
172.53501	825.275
176.84895	1147.975
181.15975	1608.675
185.46741	2244.775
189.77193	3096.675
194.07331	4133.775
198.37157	5329.875
202.6667	6596.575
206.9587	7815.075
211.24758	8991.675
215.53334	10223.375
219.81599	11539.075
224.09553	12954.675
228.37195	14447.275
232.64527	16143.975
236.91549	17870.375
241.18261	19611.675
245.44663	21251.875
249.70755	22757.275
253.96539	24062.975
258.22014	25179.675
262.4718	26154.375
266.72039	26826.275
270.96589	27147.175
275.20832	27247.575
279.44768	27149.175
283.68397	27005.875
287.91719	26873.275
292.14735	26829.975
296.37445	26885.075
300.59849	27050.275
304.81948	27141.675
309.03742	27023.575
313.25231	26744.875
317.46415	26205.075
321.67296	25521.775
325.87872	24973.875
330.08145	24610.075
334.28114	24461.575
338.47781	24570.575
342.67145	24751.775
346.86207	25127.775
351.04966	25404.275
355.23424	25785.275
359.4158	26128.975
363.59435	26419.575
367.76989	26567.775
371.94243	26684.675
376.11196	26735.175
380.27849	26699.475
384.44203	26812.175
388.60257	27045.275
392.76012	27409.975
396.91468	27843.675
401.06626	28329.475
405.21485	28587.175
409.36047	28479.075
413.50311	28214.875
417.64277	28152.975
421.77947	28244.875
425.9132	28409.975
430.04396	28576.175
434.17176	28740.675
438.2966	28860.075
442.41849	29290.075
446.53742	30113.975
450.6534	31005.575
454.76644	31663.275
458.87653	31927.375
462.98368	31814.075
467.08789	31471.875
471.18916	31125.775
475.2875	30895.375
479.38291	30941.675
483.4754	30916.675
487.56496	30542.475
491.6516	29795.475
495.73531	28976.175
499.81612	28403.475
503.89401	28372.775
507.96899	28466.175
512.04106	28424.975
516.11023	28107.875
520.1765	27624.075
524.23987	27162.775
528.30034	26749.675
532.35792	26423.575
536.41261	26128.375
540.46441	25878.675
544.51333	25991.975
548.55936	26352.175
552.60252	27054.175
556.64279	27851.275
560.6802	28532.575
564.71473	29161.975
568.7464	29977.675
572.7752	31348.375
576.80114	32813.575
580.82422	34144.075
584.84444	35415.275
588.86181	37052.575
592.87633	38215.675
596.888	37440.575
600.89682	35249.075
604.9028	34010.975
608.90594	34702.975
612.90624	35597.175
616.90371	33031.775
620.89834	28407.575
624.89015	26436.375
628.87913	26360.275
632.86528	26576.575
636.84862	26479.075
640.82913	25967.575
644.80683	25326.875
648.78172	24949.075
652.75379	24897.375
656.72306	25086.575
660.68952	25344.675
664.65319	25106.075
668.61405	24720.175
672.57211	24621.575
676.52738	24717.775
680.47986	24758.175
684.42955	24626.675
688.37646	24501.475
692.32058	24645.075
696.26192	24999.675
700.20048	25445.375
704.13626	25692.475
708.06928	25862.075
711.99952	25885.975
715.927	25872.775
719.85171	25875.575
723.77365	25655.575
727.69284	25173.175
731.60928	24779.375
735.52295	24551.175
739.43388	24491.075
743.34206	24555.975
747.24749	24741.675
751.15017	25164.775
755.05012	25761.075
758.94733	26666.875
762.8418	27996.875
766.73354	29825.975
770.62254	31228.675
774.50882	30978.275
778.39237	29354.375
782.27321	27353.075
786.15132	25855.975
790.02671	24963.775
793.89938	24420.475
797.76935	24250.375
801.6366	24180.275
805.50115	24207.875
809.36299	24041.675
813.22213	23869.275
817.07857	23798.775
820.93231	23748.775
824.78336	23520.775
828.63172	23284.975
832.47738	23115.875
836.32036	23117.875
840.16066	23110.075
843.99827	23115.675
847.8332	23043.675
851.66546	23048.675
855.49504	23083.375
859.32195	23067.875
863.1462	22972.375
866.96777	22834.575
870.78668	22783.175
874.60293	22783.375
878.41652	22749.075
882.22745	22807.775
886.03573	22853.675
889.84136	22881.175
893.64433	22771.675
897.44466	22702.675
901.24235	22628.775
905.0374	22604.475
908.8298	22547.875
912.61957	22693.175
916.40671	23031.875
920.19121	23551.575
923.97308	23915.175
927.75233	23776.375
931.52895	23330.575
935.30295	22747.075
939.07433	22225.775
942.84309	21876.275
946.60924	21631.775
950.37278	21547.875
954.13371	21614.275
957.89203	21649.375
961.64774	21729.775
965.40086	21740.075
969.15137	21619.975
972.89929	21409.375
976.64461	21255.275
980.38733	21170.775
984.12747	21177.575
987.86502	21243.575
991.59999	21340.175
995.33237	21496.375
999.06217	21848.275
1002.78939	22286.775
1006.51404	22699.875
1010.23611	23096.875
1013.95561	23437.475
1017.67255	23489.675
1021.38692	23264.575
1025.09872	22879.375
1028.80796	22545.475
1032.51465	22519.675
1036.21877	22680.175
1039.92035	22860.475
1043.61937	22913.875
1047.31584	22937.175
1051.00976	22892.475
1054.70114	22987.775
1058.38998	23211.975
1062.07627	23600.275
1065.76003	23944.875
1069.44126	24335.375
1073.11995	24763.575
1076.79611	25096.275
1080.46974	25215.675
1084.14085	25326.475
1087.80943	25605.775
1091.47549	25936.775
1095.13903	26119.675
1098.80005	25786.875
1102.45857	25036.075
1106.11456	24283.575
1109.76805	23937.075
1113.41903	23906.175
1117.06751	24045.275
1120.71348	24343.375
1124.35696	24606.475
1127.99793	24967.475
1131.63641	25236.375
1135.2724	25250.475
1138.90589	25322.475
1142.5369	25578.775
1146.16542	26015.275
1149.79145	26547.275
1153.415	27089.975
1157.03607	27828.475
1160.65467	29012.075
1164.27079	30881.475
1167.88443	32888.875
1171.49561	34770.075
1175.10432	36828.175
1178.71056	39395.875
1182.31434	41823.975
1185.91565	42853.575
1189.51451	42468.775
1193.11091	41593.275
1196.70485	40502.075
1200.29634	39281.675
1203.88538	38595.575
1207.47197	38615.375
1211.05612	38757.775
1214.63782	38097.675
1218.21708	36584.775
1221.79391	34738.475
1225.36829	33359.375
1228.94024	32454.475
1232.50976	31824.775
1236.07685	31389.375
1239.6415	31134.375
1243.20374	31289.675
1246.76355	31593.575
1250.32093	32159.875
1253.8759	32886.775
1257.42845	33850.775
1260.97859	34959.975
1264.52631	36025.075
1268.07163	37095.975
1271.61453	38206.875
1275.15503	39442.575
1278.69312	41065.975
1282.22882	42820.275
1285.76211	45067.175
1289.29301	47669.275
1292.82151	50795.475
1296.34761	54483.775
1299.87133	58458.775
1303.39266	62026.275
1306.9116	64473.175
1310.42815	65755.375
1313.94233	66124.375
1317.45412	65671.375
1320.96354	65042.175
1324.47058	64855.475
1327.97525	65020.375
1331.47754	65131.575
1334.97747	64886.975
1338.47502	64123.275
1341.97022	62695.875
1345.46305	60900.875
1348.95352	59286.075
1352.44163	58168.175
1355.92738	58320.975
1359.41078	59577.675
1362.89183	60624.675
1366.37053	59611.575
1369.84688	55552.575
1373.32088	49983.375
1376.79254	46133.675
1380.26186	45336.775
1383.72883	46244.575
1387.19347	47088.675
1390.65578	47165.675
1394.11575	47305.175
1397.57339	48118.375
1401.0287	49263.675
1404.48168	50055.875
1407.93234	49586.675
1411.38068	47853.675
1414.82669	45230.875
1418.27039	42377.175
1421.71177	39829.675
1425.15083	37777.875
1428.58758	36884.675
1432.02203	37263.475
1435.45416	38587.075
1438.88399	40352.675
1442.31151	41695.075
1445.73673	42601.075
1449.15965	43334.775
1452.58027	43735.175
1455.9986	43827.375
1459.41463	43903.175
1462.82837	44365.075
1466.23982	45049.975
1469.64898	45642.375
1473.05586	45967.975
1476.46045	45894.975
1479.86276	45302.975
1483.26279	44561.075
1486.66054	44021.575
1490.05602	43933.975
1493.44922	44230.275
1496.84016	44641.775
1500.22882	45011.175
1503.61521	45689.975
1506.99934	46490.875
1510.38121	47203.375
1513.76081	47463.075
1517.13816	47254.875
1520.51324	46937.175
1523.88607	47128.575
1527.25665	47810.875
1530.62498	48282.375
1533.99105	48276.175
1537.35488	47483.275
1540.71647	45996.375
1544.07581	44104.975
1547.4329	42193.475
1550.78776	40602.275
1554.14038	39575.175
1557.49077	38901.875
1560.83892	38540.775
1564.18484	38378.775
1567.52853	38493.175
1570.86999	39021.175
1574.20922	40239.875
1577.54624	41623.775
1580.88103	42731.275
1584.2136	44123.175
1587.54395	46201.475
1590.87208	48919.375
1594.19801	51884.775
1597.52172	54050.775
1600.84321	53792.175
1604.16251	50273.875
1607.47959	45245.075
1610.79447	40332.975
1614.10715	36193.875
1617.41763	33065.075
1620.7259	31069.175
1624.03199	30080.575
1627.33587	30246.475
1630.63757	31562.475
1633.93707	34346.575
1637.23439	38869.075
1640.52951	45262.775
1643.82246	52722.275
1647.11321	58521.475
1650.40179	59205.575
1653.68819	54012.175
1656.97241	45695.275
1660.25446	37581.075
1663.53433	31530.675
1666.81203	27564.475
1670.08756	25102.675
1673.36092	23527.375
1676.63211	22498.575
1679.90115	21816.775
1683.16801	21326.075
1686.43272	20931.675
1689.69527	20648.075
1692.95567	20462.975
1696.2139	20331.975
1699.46999	20140.375
1702.72392	20042.075
1705.97571	19922.175
1709.22535	19827.275
1712.47284	19727.375
1715.71819	19681.175
1718.96139	19579.875
1722.20246	19466.675
1725.44139	19385.875
1728.67818	19244.275
1731.91284	19093.175
1735.14537	18980.875
1738.37576	18854.375
1741.60403	18745.875
1744.83017	18699.875
1748.05418	18635.975
1751.27607	18587.475
1754.49584	18552.875
1757.71349	18521.775
1760.92903	18522.875
1764.14244	18506.375
1767.35375	18446.375
1770.56294	18397.375
1773.77002	18304.975
1776.97499	18299.275
1780.17785	18267.575
1783.37861	18193.375
1786.57727	18144.375
1789.77382	18121.775
1792.96828	18071.075
1796.16064	17997.775
1799.3509	17922.975
1802.53907	17901.475
1805.72514	17840.775
1808.90913	17775.875
1812.09102	17759.275
1815.27083	17732.475
1818.44856	17688.775
1821.6242	17649.675
1824.79776	17638.875
1827.96924	17590.475
1831.13864	17558.975
1834.30597	17593.775
1837.47122	17596.275
1840.6344	17584.275
1843.7955	17587.175
1846.95454	17581.575
1850.11151	17547.775
1853.26642	17521.575
1856.41926	17495.875
1859.57004	17509.475
1862.71876	17441.475
1865.86542	17435.075
1869.01003	17374.275
1872.15258	17365.775
1875.29308	17363.775
1878.43152	17330.775
1881.56792	17323.575
1884.70227	17263.775
1887.83457	17296.675
1890.96482	17223.575
1894.09304	17211.075
1897.21921	17204.875
1900.34335	17185.975
1903.46544	17145.375
1906.58551	17127.175
1909.70353	17058.875
1912.81953	17034.675
1915.93349	16958.175
1919.04543	16935.175
1922.15534	16943.375
1925.26322	16855.475
1928.36908	16833.475
1931.47292	16784.675
1934.57473	16712.975
1937.67453	16661.875
1940.77232	16594.675
1943.86808	16585.075
1946.96184	16563.175
1950.05358	16501.175
1953.14331	16449.475
1956.23103	16393.475
1959.31675	16349.375
1962.40046	16315.075
1965.48217	16234.375
1968.56188	16184.375
1971.63959	16103.975
1974.7153	16064.575
1977.78901	16044.375
1980.86073	15970.275
1983.93046	15915.075
1986.99819	15846.875
1990.06394	15792.575
1993.1277	15761.175
1996.18947	15692.975
1999.24925	15650.275
2002.30706	15593.575
2005.36288	15564.175
2008.41672	15537.775
2011.46859	15468.775
2014.51848	15419.575
2017.56639	15364.875
2020.61233	15308.375
2023.6563	15300.475
2026.6983	15255.375
2029.73833	15221.575
2032.7764	15207.175
2035.8125	15175.175
2038.84664	15130.675
2041.87881	15115.275
2044.90903	15094.875
2047.93729	15074.675
2050.96359	15035.475
2053.98794	15012.675
2057.01034	15022.575
2060.03078	14981.175
2063.04927	14969.275
2066.06582	14928.375
2069.08042	14952.375
2072.09307	14934.475
2075.10378	14918.775
2078.11255	14876.075
2081.11938	14871.775
2084.12426	14870.075
2087.12722	14856.775
2090.12824	14847.775
2093.12732	14852.475
2096.12447	14882.175
2099.11969	14858.475
2102.11299	14859.675
2105.10435	14870.475
2108.09379	14846.775
2111.08131	14852.575
2114.0669	14882.975
2117.05057	14864.275
2120.03233	14907.975
2123.01216	14889.575
2125.99008	14875.675
2128.96609	14864.775
2131.94018	14860.675
2134.91236	14848.375
2137.88263	14853.375
2140.851	14848.875
2143.81746	14871.275
2146.78201	14871.675
2149.74466	14863.575
2152.7054	14855.775
2155.66425	14810.775
2158.6212	14830.875
2161.57625	14822.575
2164.52941	14822.275
2167.48067	14806.675
2170.43004	14764.275
2173.37752	14775.975
2176.32311	14748.675
2179.26681	14790.175
2182.20863	14783.175
2185.14856	14787.675
2188.08661	14756.075
2191.02278	14710.075
2193.95707	14744.475
2196.88948	14692.175
2199.82001	14697.175
2202.74867	14669.375
2205.67545	14654.375
2208.60037	14593.475
2211.52341	14579.075
2214.44458	14574.675
2217.36388	14563.475
2220.28132	14534.575
2223.1969	14508.875
2226.11061	14488.575
2229.02246	14472.175
2231.93245	14452.575
2234.84058	14413.475
2237.74686	14377.275
2240.65128	14398.375
2243.55385	14383.175
2246.45456	14356.775
2249.35343	14290.975
2252.25044	14254.875
2255.14561	14217.075
2258.03893	14187.575
2260.93041	14136.075
2263.82004	14091.875
2266.70783	14041.775
2269.59378	14013.675
2272.4779	13947.075
2275.36017	13927.775
2278.24061	13928.075
2281.11922	13884.175
2283.996	13872.975
2286.87094	13822.875
2289.74405	13806.075
2292.61534	13770.575
2295.4848	13770.275
2298.35243	13775.075
2301.21824	13761.775
2304.08223	13760.475
2306.94439	13760.875
2309.80474	13759.675
2312.66327	13722.675
2315.51999	13709.275
2318.37489	13701.175
2321.22797	13679.675
2324.07925	13636.175
2326.92871	13607.575
2329.77637	13639.575
2332.62222	13607.775
2335.46626	13566.575
2338.3085	13570.975
2341.14893	13545.075
2343.98756	13552.275
2346.8244	13566.475
2349.65943	13571.975
2352.49267	13551.175
2355.32411	13559.275
2358.15376	13511.575
2360.98161	13518.275
2363.80768	13528.675
2366.63195	13506.175
2369.45444	13509.375
2372.27514	13473.375
2375.09405	13448.275
2377.91118	13420.175
2380.72652	13370.675
2383.54009	13385.275
2386.35187	13392.975
2389.16188	13341.875
2391.97011	13288.275
2394.77657	13277.975
2397.58125	13246.575
2400.38416	13239.275
2403.18529	13220.175
2405.98466	13186.575
2408.78226	13197.575
2411.57809	13206.175
2414.37216	13145.875
2417.16446	13177.675
2419.955	13122.675
2422.74378	13139.275
2425.5308	13114.875
2428.31606	13123.475
2431.09956	13103.475
2433.88131	13091.575
2436.6613	13057.275
2439.43954	13076.575
2442.21603	13054.675
2444.99077	13053.875
2447.76377	13033.575
2450.53501	13019.375
2453.30451	13039.075
2456.07226	13028.275
2458.83827	13023.575
2461.60254	13013.175
2464.36507	13011.375
2467.12586	13010.675
2469.88492	12997.475
2472.64224	13019.575
2475.39782	12996.675
2478.15167	13002.775
2480.90379	12989.375
2483.65417	13004.275
2486.40283	13011.275
2489.14976	13006.175
2491.89497	12987.175
2494.63845	13003.875
2497.3802	12982.275
2500.12024	13003.375
2502.85855	13003.975
2505.59514	13002.175
2508.33002	12982.175
2511.06318	12992.575
2513.79462	12956.875
2516.52435	12943.875
2519.25237	12956.775
2521.97867	12937.675
2524.70327	12921.375
2527.42616	12917.675
2530.14734	12929.075
2532.86681	12897.075
2535.58458	12894.375
2538.30065	12920.775
2541.01501	12870.075
2543.72768	12847.275
2546.43864	12824.775
2549.14791	12828.375
2551.85548	12815.475
2554.56136	12813.775
2557.26554	12802.475
2559.96803	12809.175
2562.66883	12791.175
2565.36794	12794.375
2568.06536	12798.875
2570.7611	12798.875
2573.45514	12791.275
2576.14751	12765.875
2578.83819	12733.075
2581.52719	12730.775
2584.21451	12686.075
2586.90015	12727.575
2589.58411	12706.275
2592.2664	12694.875
2594.94701	12701.775
2597.62594	12715.975
2600.30321	12684.375
2602.9788	12699.475
2605.65273	12667.775
2608.32498	12678.175
2610.99557	12691.175
2613.66449	12688.275
2616.33175	12660.875
2618.99734	12687.275
2621.66128	12673.275
2624.32355	12661.075
2626.98416	12675.075
2629.64311	12647.775
2632.30041	12647.975
2634.95605	12664.175
2637.61004	12604.775
2640.26238	12609.275
2642.91306	12630.475
2645.56209	12627.975
2648.20948	12624.275
2650.85521	12594.675
2653.4993	12663.075
2656.14175	12614.875
2658.78255	12637.275
2661.42171	12659.775
2664.05923	12677.875
2666.6951	12669.075
2669.32934	12679.775
2671.96194	12695.275
2674.59291	12677.575
2677.22224	12691.675
2679.84993	12654.975
2682.476	12653.475
2685.10043	12668.475
2687.72324	12672.975
2690.34441	12674.675
2692.96396	12658.375
2695.58188	12670.875
2698.19818	12670.575
2700.81285	12684.575
2703.4259	12672.575
2706.03733	12718.775
2708.64714	12702.075
2711.25533	12700.175
2713.86191	12686.775
2716.46687	12713.075
2719.07021	12709.475
2721.67194	12761.975
2724.27206	12762.075
2726.87057	12764.375
2729.46747	12780.375
2732.06276	12797.275
2734.65644	12741.875
2737.24852	12739.075
2739.83899	12710.175
2742.42786	12744.175
2745.01513	12713.175
2747.60079	12727.275
2750.18486	12691.975
2752.76733	12717.675
2755.3482	12733.675
2757.92747	12747.275
2760.50515	12751.875
2763.08123	12753.375
2765.65573	12704.075
2768.22863	12726.175
2770.79994	12706.775
2773.36967	12689.575
2775.9378	12691.475
2778.50435	12706.475
2781.06932	12677.975
2783.6327	12690.675
2786.1945	12700.675
2788.75471	12692.275
2791.31335	12660.275
2793.87041	12673.075
2796.42589	12638.975
2798.97979	12616.875
2801.53212	12614.575
2804.08288	12606.575
2806.63206	12587.575
2809.17967	12553.175
2811.72571	12534.275
2814.27018	12537.975
2816.81308	12506.375
2819.35442	12457.375
2821.89419	12437.175
2824.43239	12421.575
2826.96904	12437.775
2829.50412	12415.275
2832.03763	12385.975
2834.56959	12393.675
2837.1	12390.175
2839.62884	12389.775
2842.15613	12373.475
2844.68186	12438.875
2847.20604	12438.775
2849.72867	12451.575
2852.24974	12469.975
2854.76927	12436.075
2857.28724	12421.975
2859.80367	12413.875
2862.31855	12385.475
2864.83189	12340.075
2867.34368	12351.775
2869.85393	12345.775
2872.36264	12341.775
2874.8698	12338.575
2877.37543	12310.575
2879.87952	12290.675
2882.38207	12274.075
2884.88308	12291.675
2887.38256	12302.575
2889.88051	12281.075
2892.37692	12296.875
2894.8718	12296.375
2897.36515	12337.475
2899.85698	12315.075
2902.34727	12345.675
2904.83604	12335.375
2907.32328	12349.975
2909.809	12352.775
2912.29319	12351.275
2914.77587	12338.175
2917.25702	12354.775
2919.73665	12312.775
2922.21476	12307.075
2924.69136	12335.675
2927.16644	12370.275
2929.64	12342.175
2932.11205	12362.775
2934.58258	12322.575
2937.05161	12347.375
2939.51912	12325.975
2941.98513	12307.875
2944.44962	12235.375
2946.91261	12169.975
2949.37409	12216.275
2951.83407	12173.375
2954.29254	12163.475
2956.74951	12135.775
2959.20498	12128.875
2961.65895	12107.875
2964.11142	12085.375
2966.56239	12063.575
2969.01186	12036.575
2971.45984	12037.075
2973.90632	12002.875
2976.35131	11955.275
2978.7948	11909.275
2981.23681	11912.575
2983.67732	11876.875
2986.11635	11842.675
2988.55388	11805.475
2990.98993	11793.175
2993.4245	11747.275
2995.85758	11703.675
2998.28917	11690.975
3000.71928	11659.575
3003.14791	11626.475
3005.57506	11604.975
3008.00073	11565.175
3010.42493	11515.575
3012.84764	11527.975
3015.26888	11518.575
3017.68865	11480.675
3020.10694	11436.675
3022.52376	11429.775
3024.9391	11423.775
3027.35298	11398.775
3029.76539	11394.775
3032.17632	11406.075
3034.5858	11355.975
3036.9938	11370.475
3039.40034	11353.375
3041.80542	11318.075
3044.20903	11320.175
3046.61118	11283.575
3049.01187	11277.475
3051.4111	11256.175
3053.80888	11198.875
3056.20519	11181.375
3058.60005	11166.275
3060.99345	11146.475
3063.3854	11117.875
3065.7759	11058.075
3068.16494	11029.975
3070.55254	10978.275
3072.93868	10946.675
3075.32338	10924.075
3077.70662	10906.575
3080.08842	10871.475
3082.46878	10827.775
3084.84769	10815.275
3087.22515	10833.575
3089.60118	10820.775
3091.97576	10794.875
3094.3489	10797.375
3096.72061	10771.175
3099.09087	10764.775
3101.4597	10726.375
3103.82709	10750.075
3106.19305	10716.975
3108.55757	10716.075
3110.92066	10667.575
3113.28232	10636.575
3115.64255	10608.275
3118.00134	10570.775
3120.35871	10536.475
3122.71466	10520.675
3125.06917	10544.275
3127.42226	10499.775
