Data from AgNPs_FTO_APTES_UA_2uM_CRN_100uM_R6G_10uM_NaF_0.1M_Addition_RamanShift__26__16-08-25-334.txt Node

Date: Wed Feb 02 16:08:25 GMT 2022
User: TCL
Spectrometer: QEP01345
Trigger mode: 4
Integration Time (sec): 7.000000E0
Scans to average: 10
Electric dark correction enabled: true
Nonlinearity correction enabled: false
Boxcar width: 0
XAxis mode: Raman Shifts
Number of Pixels in Spectrum: 1044
>>>>>Begin Spectral Data<<<<<
46.04893	0.075
50.45542	-0.025
54.85868	-0.925
59.25871	-0.325
63.6555	77.575
68.04907	80.675
72.43941	81.675
76.82654	91.675
81.21044	94.975
85.59113	98.275
89.96862	100.575
94.34289	102.875
98.71396	105.275
103.08183	111.575
107.4465	116.675
111.80798	116.375
116.16626	116.275
120.52136	124.975
124.87327	127.775
129.222	133.175
133.56755	144.375
137.90993	152.575
142.24913	169.475
146.58517	187.275
150.91804	214.675
155.24774	252.775
159.57429	316.575
163.89768	402.975
168.21792	529.775
172.53501	722.775
176.84895	1005.075
181.15975	1404.075
185.46741	1952.475
189.77193	2693.375
194.07331	3605.875
198.37157	4638.175
202.6667	5741.375
206.9587	6826.175
211.24758	7919.075
215.53334	9039.675
219.81599	10234.875
224.09553	11560.775
228.37195	13075.075
232.64527	14653.775
236.91549	16317.275
241.18261	17894.975
245.44663	19310.475
249.70755	20496.575
253.96539	21554.475
258.22014	22470.175
262.4718	23284.475
266.72039	23930.275
270.96589	24366.175
275.20832	24530.275
279.44768	24522.975
283.68397	24428.975
287.91719	24365.075
292.14735	24503.775
296.37445	24848.975
300.59849	25318.475
304.81948	25707.375
309.03742	25754.175
313.25231	25331.675
317.46415	24272.075
321.67296	22790.575
325.87872	21590.875
330.08145	20968.875
334.28114	20874.175
338.47781	21069.375
342.67145	21476.775
346.86207	22113.475
351.04966	22950.875
355.23424	23924.075
359.4158	24627.975
363.59435	24990.175
367.76989	25130.875
371.94243	25160.675
376.11196	25155.275
380.27849	25128.075
384.44203	25096.875
388.60257	25003.675
392.76012	25049.475
396.91468	25282.775
401.06626	25770.675
405.21485	26193.175
409.36047	25884.475
413.50311	24979.775
417.64277	24053.875
421.77947	23676.975
425.9132	23595.575
430.04396	23693.475
434.17176	23953.875
438.2966	24216.775
442.41849	24715.375
446.53742	25485.075
450.6534	26282.975
454.76644	26921.275
458.87653	27105.975
462.98368	27037.275
467.08789	26804.175
471.18916	26561.275
475.2875	26371.475
479.38291	26299.975
483.4754	26082.675
487.56496	25517.675
491.6516	24895.075
495.73531	24353.075
499.81612	24091.475
503.89401	24105.475
507.96899	24185.675
512.04106	24246.575
516.11023	24215.675
520.1765	24107.975
524.23987	23904.875
528.30034	23508.475
532.35792	23178.075
536.41261	22799.775
540.46441	22507.175
544.51333	22464.075
548.55936	22825.075
552.60252	23464.175
556.64279	24267.675
560.6802	24821.975
564.71473	25272.775
568.7464	26125.675
572.7752	26948.575
576.80114	26772.675
580.82422	26203.675
584.84444	25970.775
588.86181	26018.475
592.87633	26343.175
596.888	26630.475
600.89682	27033.075
604.9028	28628.475
608.90594	33279.575
612.90624	39201.175
616.90371	37274.475
620.89834	28121.475
624.89015	23775.775
628.87913	23052.075
632.86528	23185.875
636.84862	23384.475
640.82913	22945.775
644.80683	22058.675
648.78172	21375.275
652.75379	21240.675
656.72306	21748.975
660.68952	22504.475
664.65319	22420.675
668.61405	21662.775
672.57211	21345.375
676.52738	21338.575
680.47986	21347.275
684.42955	21244.075
688.37646	21152.875
692.32058	21206.375
696.26192	21396.675
700.20048	21709.175
704.13626	21888.975
708.06928	21889.375
711.99952	21738.375
715.927	21611.575
719.85171	21612.275
723.77365	21546.075
727.69284	21386.375
731.60928	21185.375
735.52295	21104.775
739.43388	21106.775
743.34206	21151.375
747.24749	21277.075
751.15017	21472.375
755.05012	21968.675
758.94733	22936.175
762.8418	24891.175
766.73354	28118.275
770.62254	31343.675
774.50882	32641.375
778.39237	30856.975
782.27321	27245.375
786.15132	24025.175
790.02671	22149.075
793.89938	21264.875
797.76935	20870.875
801.6366	20760.275
805.50115	20678.775
809.36299	20609.775
813.22213	20549.175
817.07857	20524.675
820.93231	20522.575
824.78336	20509.975
828.63172	20506.275
832.47738	20463.575
836.32036	20395.175
840.16066	20360.575
843.99827	20309.475
847.8332	20205.475
851.66546	20116.175
855.49504	20082.875
859.32195	20022.175
863.1462	19920.675
866.96777	19836.575
870.78668	19807.275
874.60293	19817.575
878.41652	19866.075
882.22745	19937.075
886.03573	19980.075
889.84136	19975.375
893.64433	19814.575
897.44466	19728.875
901.24235	19683.375
905.0374	19653.975
908.8298	19607.975
912.61957	19668.375
916.40671	19856.775
920.19121	20135.275
923.97308	20294.575
927.75233	20386.975
931.52895	20351.575
935.30295	20127.975
939.07433	19633.575
942.84309	19172.675
946.60924	18836.975
950.37278	18743.475
954.13371	18673.575
957.89203	18647.775
961.64774	18646.775
965.40086	18637.275
969.15137	18529.175
972.89929	18410.775
976.64461	18300.975
980.38733	18290.375
984.12747	18318.875
987.86502	18442.375
991.59999	18605.675
995.33237	18868.075
999.06217	19335.875
1002.78939	19927.075
1006.51404	20427.975
1010.23611	20790.275
1013.95561	21010.175
1017.67255	20952.075
1021.38692	20659.175
1025.09872	20386.075
1028.80796	20227.875
1032.51465	20386.375
1036.21877	20660.075
1039.92035	20766.775
1043.61937	20718.075
1047.31584	20555.475
1051.00976	20321.775
1054.70114	20275.975
1058.38998	20320.775
1062.07627	20566.075
1065.76003	20775.575
1069.44126	20977.775
1073.11995	21175.875
1076.79611	21327.575
1080.46974	21506.175
1084.14085	21817.875
1087.80943	22239.675
1091.47549	22505.275
1095.13903	22382.475
1098.80005	21921.075
1102.45857	21330.375
1106.11456	20947.475
1109.76805	20887.075
1113.41903	21171.175
1117.06751	21619.575
1120.71348	22187.775
1124.35696	22754.175
1127.99793	23355.575
1131.63641	23474.375
1135.2724	22838.275
1138.90589	22190.575
1142.5369	21890.875
1146.16542	21811.275
1149.79145	21867.175
1153.415	22116.175
1157.03607	22459.775
1160.65467	23096.075
1164.27079	24063.775
1167.88443	25434.875
1171.49561	27416.675
1175.10432	30347.275
1178.71056	34152.075
1182.31434	37194.175
1185.91565	38402.075
1189.51451	38066.475
1193.11091	36684.475
1196.70485	34849.375
1200.29634	33072.275
1203.88538	31607.075
1207.47197	30186.475
1211.05612	29030.275
1214.63782	28119.975
1218.21708	27572.675
1221.79391	27252.675
1225.36829	26945.275
1228.94024	26593.875
1232.50976	26284.975
1236.07685	26004.875
1239.6415	25946.175
1243.20374	26024.175
1246.76355	26174.775
1250.32093	26540.875
1253.8759	27191.375
1257.42845	28008.175
1260.97859	28880.875
1264.52631	29630.075
1268.07163	30395.675
1271.61453	31241.475
1275.15503	32026.175
1278.69312	32743.275
1282.22882	33308.675
1285.76211	34168.475
1289.29301	35389.675
1292.82151	37079.375
1296.34761	39001.075
1299.87133	41417.575
1303.39266	44397.475
1306.9116	48149.175
1310.42815	52161.175
1313.94233	55055.875
1317.45412	55470.375
1320.96354	54179.175
1324.47058	52453.275
1327.97525	50806.575
1331.47754	49548.275
1334.97747	49036.975
1338.47502	49067.675
1341.97022	49181.475
1345.46305	48898.775
1348.95352	48471.975
1352.44163	48358.975
1355.92738	49554.075
1359.41078	52908.775
1362.89183	56788.575
1366.37053	55929.975
1369.84688	49629.075
1373.32088	42766.475
1376.79254	38445.375
1380.26186	36698.175
1383.72883	36358.675
1387.19347	36440.375
1390.65578	36424.175
1394.11575	36622.175
1397.57339	37304.275
1401.0287	38406.475
1404.48168	39461.975
1407.93234	39955.275
1411.38068	39592.475
1414.82669	38332.375
1418.27039	36387.075
1421.71177	34262.175
1425.15083	32468.575
1428.58758	31290.375
1432.02203	30993.675
1435.45416	31327.075
1438.88399	31959.175
1442.31151	32675.675
1445.73673	33355.775
1449.15965	34213.175
1452.58027	34927.975
1455.9986	35430.475
1459.41463	35974.775
1462.82837	36654.875
1466.23982	37344.375
1469.64898	37857.975
1473.05586	38090.575
1476.46045	37792.975
1479.86276	37465.775
1483.26279	37135.475
1486.66054	36974.975
1490.05602	37101.775
1493.44922	37485.175
1496.84016	38182.175
1500.22882	39567.775
1503.61521	41866.875
1506.99934	44910.975
1510.38121	48185.375
1513.76081	50132.875
1517.13816	49185.675
1520.51324	45497.275
1523.88607	41602.675
1527.25665	38918.975
1530.62498	37447.975
1533.99105	36797.775
1537.35488	36354.775
1540.71647	35956.975
1544.07581	35479.575
1547.4329	34840.975
1550.78776	34250.875
1554.14038	33950.475
1557.49077	33944.575
1560.83892	34293.975
1564.18484	34690.475
1567.52853	35094.175
1570.86999	35423.375
1574.20922	35850.375
1577.54624	36119.775
1580.88103	35784.675
1584.2136	35286.875
1587.54395	35682.875
1590.87208	37115.575
1594.19801	39293.475
1597.52172	41614.375
1600.84321	42484.175
1604.16251	40715.975
1607.47959	37573.175
1610.79447	34071.675
1614.10715	30776.675
1617.41763	28124.975
1620.7259	26258.875
1624.03199	25315.875
1627.33587	25147.975
1630.63757	25823.175
1633.93707	27430.575
1637.23439	29947.075
1640.52951	33548.675
1643.82246	37905.575
1647.11321	42123.375
1650.40179	44312.975
1653.68819	42596.375
1656.97241	37238.475
1660.25446	31098.775
1663.53433	26390.375
1666.81203	23239.175
1670.08756	21347.275
1673.36092	20202.075
1676.63211	19432.675
1679.90115	18925.775
1683.16801	18552.875
1686.43272	18249.775
1689.69527	18059.075
1692.95567	17877.475
1696.2139	17805.775
1699.46999	17713.975
1702.72392	17656.875
1705.97571	17555.275
1709.22535	17472.475
1712.47284	17440.675
1715.71819	17432.975
1718.96139	17373.275
1722.20246	17327.275
1725.44139	17253.475
1728.67818	17184.575
1731.91284	17028.675
1735.14537	16938.275
1738.37576	16876.475
1741.60403	16784.775
1744.83017	16736.475
1748.05418	16739.175
1751.27607	16694.475
1754.49584	16666.275
1757.71349	16627.675
1760.92903	16618.575
1764.14244	16596.975
1767.35375	16562.475
1770.56294	16510.975
1773.77002	16455.575
1776.97499	16407.575
1780.17785	16372.475
1783.37861	16337.775
1786.57727	16307.075
1789.77382	16257.275
1792.96828	16234.575
1796.16064	16191.075
1799.3509	16161.775
1802.53907	16152.075
1805.72514	16081.075
1808.90913	16084.375
1812.09102	16029.375
1815.27083	15989.875
1818.44856	15988.575
1821.6242	15893.075
1824.79776	15935.075
1827.96924	15931.775
1831.13864	15869.275
1834.30597	15875.475
1837.47122	15847.375
1840.6344	15858.275
1843.7955	15876.675
1846.95454	15882.875
1850.11151	15857.975
1853.26642	15870.075
1856.41926	15837.175
1859.57004	15870.075
1862.71876	15842.175
1865.86542	15840.775
1869.01003	15826.875
1872.15258	15819.475
1875.29308	15809.075
1878.43152	15829.775
1881.56792	15820.475
1884.70227	15850.875
1887.83457	15830.275
1890.96482	15813.775
1894.09304	15829.275
1897.21921	15831.875
1900.34335	15830.975
1903.46544	15801.475
1906.58551	15820.475
1909.70353	15774.175
1912.81953	15777.475
1915.93349	15764.675
1919.04543	15728.175
1922.15534	15697.775
1925.26322	15670.675
1928.36908	15627.075
1931.47292	15577.175
1934.57473	15523.175
1937.67453	15468.375
1940.77232	15387.875
1943.86808	15332.875
1946.96184	15286.775
1950.05358	15192.975
1953.14331	15181.375
1956.23103	15128.575
1959.31675	15074.875
1962.40046	15042.175
1965.48217	14994.375
1968.56188	14969.275
1971.63959	14880.875
1974.7153	14835.775
1977.78901	14823.175
1980.86073	14737.775
1983.93046	14670.275
1986.99819	14626.375
1990.06394	14589.275
1993.1277	14544.975
1996.18947	14471.175
1999.24925	14450.675
2002.30706	14372.675
2005.36288	14346.575
2008.41672	14315.775
2011.46859	14273.875
2014.51848	14215.475
2017.56639	14194.175
2020.61233	14164.575
2023.6563	14165.475
2026.6983	14093.675
2029.73833	14077.975
2032.7764	14017.175
2035.8125	14031.075
2038.84664	13992.575
2041.87881	13999.775
2044.90903	13952.975
2047.93729	13950.075
2050.96359	13944.475
2053.98794	13893.475
2057.01034	13876.875
2060.03078	13866.075
2063.04927	13856.975
2066.06582	13830.975
2069.08042	13835.575
2072.09307	13837.275
2075.10378	13791.975
2078.11255	13768.475
2081.11938	13758.375
2084.12426	13764.575
2087.12722	13750.075
2090.12824	13753.875
2093.12732	13739.775
2096.12447	13756.175
2099.11969	13751.675
2102.11299	13778.875
2105.10435	13770.775
2108.09379	13759.775
2111.08131	13728.075
2114.0669	13718.375
2117.05057	13746.775
2120.03233	13769.875
2123.01216	13804.475
2125.99008	13792.375
2128.96609	13786.075
2131.94018	13785.675
2134.91236	13781.575
2137.88263	13813.975
2140.851	13796.175
2143.81746	13833.275
2146.78201	13847.075
2149.74466	13820.275
2152.7054	13815.675
2155.66425	13811.275
2158.6212	13816.375
2161.57625	13768.975
2164.52941	13789.875
2167.48067	13756.875
2170.43004	13771.975
2173.37752	13736.675
2176.32311	13724.175
2179.26681	13748.175
2182.20863	13755.275
2185.14856	13778.975
2188.08661	13748.875
2191.02278	13751.975
2193.95707	13729.275
2196.88948	13699.275
2199.82001	13715.575
2202.74867	13685.575
2205.67545	13694.575
2208.60037	13680.875
2211.52341	13654.075
2214.44458	13638.175
2217.36388	13612.775
2220.28132	13623.775
2223.1969	13551.075
2226.11061	13518.575
2229.02246	13523.075
2231.93245	13481.075
2234.84058	13446.575
2237.74686	13431.575
2240.65128	13397.775
2243.55385	13505.675
2246.45456	13413.175
2249.35343	13386.375
2252.25044	13449.275
2255.14561	13342.575
2258.03893	13346.475
2260.93041	13297.275
2263.82004	13284.375
2266.70783	13239.675
2269.59378	13216.175
2272.4779	13164.475
2275.36017	13157.675
2278.24061	13087.075
2281.11922	13063.075
2283.996	13058.375
2286.87094	13029.475
2289.74405	13024.075
2292.61534	12992.475
2295.4848	12964.575
2298.35243	12982.475
2301.21824	12947.675
2304.08223	12959.375
2306.94439	12943.075
2309.80474	12936.875
2312.66327	12966.475
2315.51999	12958.875
2318.37489	12946.175
2321.22797	12916.675
2324.07925	12917.675
2326.92871	12877.575
2329.77637	12897.975
2332.62222	12890.675
2335.46626	12859.475
2338.3085	12858.775
2341.14893	12862.675
2343.98756	12879.875
2346.8244	12893.175
2349.65943	12868.775
2352.49267	12875.675
2355.32411	12892.475
2358.15376	12902.275
2360.98161	12886.075
2363.80768	12852.875
2366.63195	12860.875
2369.45444	12832.775
2372.27514	12848.675
2375.09405	12830.875
2377.91118	12801.475
2380.72652	12757.175
2383.54009	12731.475
2386.35187	12718.175
2389.16188	12634.475
2391.97011	12648.075
2394.77657	12603.275
2397.58125	12603.575
2400.38416	12542.475
2403.18529	12524.475
2405.98466	12515.675
2408.78226	12492.675
2411.57809	12478.575
2414.37216	12487.575
2417.16446	12450.375
2419.955	12426.975
2422.74378	12450.475
2425.5308	12427.475
2428.31606	12392.875
2431.09956	12416.775
2433.88131	12379.075
2436.6613	12382.175
2439.43954	12408.175
2442.21603	12369.775
2444.99077	12385.875
2447.76377	12387.775
2450.53501	12391.975
2453.30451	12381.975
2456.07226	12380.675
2458.83827	12371.475
2461.60254	12363.475
2464.36507	12372.175
2467.12586	12380.575
2469.88492	12337.875
2472.64224	12357.875
2475.39782	12367.375
2478.15167	12367.575
2480.90379	12354.475
2483.65417	12378.475
2486.40283	12397.975
2489.14976	12428.475
2491.89497	12422.775
2494.63845	12457.375
2497.3802	12461.575
2500.12024	12415.775
2502.85855	12422.875
2505.59514	12411.475
2508.33002	12379.675
2511.06318	12376.775
2513.79462	12350.275
2516.52435	12321.175
2519.25237	12294.275
2521.97867	12301.375
2524.70327	12286.175
2527.42616	12252.475
2530.14734	12238.375
2532.86681	12240.675
2535.58458	12214.675
2538.30065	12223.375
2541.01501	12208.575
2543.72768	12189.775
2546.43864	12180.775
2549.14791	12153.475
2551.85548	12139.875
2554.56136	12133.275
2557.26554	12168.675
2559.96803	12131.675
2562.66883	12120.675
2565.36794	12138.675
2568.06536	12118.875
2570.7611	12098.575
2573.45514	12097.175
2576.14751	12090.075
2578.83819	12060.475
2581.52719	12039.775
2584.21451	12050.975
2586.90015	12052.875
2589.58411	12058.775
2592.2664	12065.175
2594.94701	12045.475
2597.62594	12047.475
2600.30321	12003.675
2602.9788	11996.675
2605.65273	12011.075
2608.32498	12015.675
2610.99557	12025.175
2613.66449	12031.375
2616.33175	12027.775
2618.99734	12062.475
2621.66128	12024.475
2624.32355	12023.975
2626.98416	12028.075
2629.64311	12040.275
2632.30041	12029.675
2634.95605	12019.975
2637.61004	12002.775
2640.26238	11979.475
2642.91306	11980.575
2645.56209	11940.875
2648.20948	11981.975
2650.85521	11939.175
2653.4993	11948.975
2656.14175	11949.975
2658.78255	11971.475
2661.42171	11987.275
2664.05923	11997.475
2666.6951	12014.275
2669.32934	12010.175
2671.96194	11996.575
2674.59291	12030.375
2677.22224	12004.175
2679.84993	12026.975
2682.476	12021.375
2685.10043	12019.375
2687.72324	11995.075
2690.34441	11999.475
2692.96396	11978.975
2695.58188	11981.575
2698.19818	11968.075
2700.81285	11983.475
2703.4259	11998.175
2706.03733	12033.975
2708.64714	12011.675
2711.25533	12002.775
2713.86191	12007.875
2716.46687	12029.775
2719.07021	12044.375
2721.67194	12044.175
2724.27206	12057.075
2726.87057	12066.075
2729.46747	12063.175
2732.06276	12063.675
2734.65644	12064.975
2737.24852	12054.875
2739.83899	12046.475
2742.42786	12052.775
2745.01513	12023.675
2747.60079	12009.175
2750.18486	11988.175
2752.76733	11975.875
2755.3482	12021.675
2757.92747	12017.075
2760.50515	11995.275
2763.08123	12044.875
2765.65573	12000.675
2768.22863	12000.675
2770.79994	11985.675
2773.36967	11975.875
2775.9378	11950.675
2778.50435	11980.875
2781.06932	11965.575
2783.6327	11967.775
2786.1945	11967.775
2788.75471	11955.375
2791.31335	11940.675
2793.87041	11950.475
2796.42589	11905.975
2798.97979	11908.075
2801.53212	11884.875
2804.08288	11868.075
2806.63206	11871.475
2809.17967	11853.975
2811.72571	11801.875
2814.27018	11805.575
2816.81308	11799.175
2819.35442	11783.475
2821.89419	11751.275
2824.43239	11768.475
2826.96904	11742.675
2829.50412	11761.975
2832.03763	11753.675
2834.56959	11712.875
2837.1	11738.375
2839.62884	11730.975
2842.15613	11731.275
2844.68186	11778.975
2847.20604	11837.675
2849.72867	11873.675
2852.24974	11870.275
2854.76927	11850.975
2857.28724	11832.875
2859.80367	11818.775
2862.31855	11824.075
2864.83189	11806.075
2867.34368	11760.975
2869.85393	11795.575
2872.36264	11793.975
2874.8698	11789.275
2877.37543	11828.675
2879.87952	11815.675
2882.38207	11793.075
2884.88308	11779.275
2887.38256	11797.875
2889.88051	11771.875
2892.37692	11780.175
2894.8718	11772.175
2897.36515	11798.075
2899.85698	11778.075
2902.34727	11814.975
2904.83604	11808.675
2907.32328	11855.475
2909.809	11839.075
2912.29319	11806.475
2914.77587	11851.175
2917.25702	11846.075
2919.73665	11805.675
2922.21476	11815.175
2924.69136	11797.575
2927.16644	11834.375
2929.64	11810.775
2932.11205	11772.875
2934.58258	11772.475
2937.05161	11768.275
2939.51912	11758.675
2941.98513	11711.875
2944.44962	11668.675
2946.91261	11576.775
2949.37409	11596.475
2951.83407	11550.575
2954.29254	11572.775
2956.74951	11525.075
2959.20498	11508.675
2961.65895	11490.575
2964.11142	11492.875
2966.56239	11455.975
2969.01186	11421.175
2971.45984	11399.375
2973.90632	11364.975
2976.35131	11335.075
2978.7948	11333.175
2981.23681	11276.775
2983.67732	11241.275
2986.11635	11228.375
2988.55388	11209.375
2990.98993	11177.175
2993.4245	11183.975
2995.85758	11160.775
2998.28917	11117.375
3000.71928	11088.975
3003.14791	11089.275
3005.57506	11041.475
3008.00073	11023.775
3010.42493	11004.775
3012.84764	11005.975
3015.26888	10996.575
3017.68865	10959.775
3020.10694	10950.075
3022.52376	10917.875
3024.9391	10876.575
3027.35298	10863.675
3029.76539	10871.175
3032.17632	10854.075
3034.5858	10835.075
3036.9938	10845.475
3039.40034	10826.075
3041.80542	10817.175
3044.20903	10778.275
3046.61118	10770.475
3049.01187	10737.075
3051.4111	10726.575
3053.80888	10705.075
3056.20519	10661.975
3058.60005	10635.975
3060.99345	10648.275
3063.3854	10592.975
3065.7759	10568.675
3068.16494	10551.475
3070.55254	10480.975
3072.93868	10452.575
3075.32338	10442.275
3077.70662	10421.775
3080.08842	10376.675
3082.46878	10351.675
3084.84769	10348.075
3087.22515	10320.675
3089.60118	10340.375
3091.97576	10338.475
3094.3489	10329.875
3096.72061	10305.675
3099.09087	10298.175
3101.4597	10303.375
3103.82709	10274.275
3106.19305	10263.075
3108.55757	10250.175
3110.92066	10213.075
3113.28232	10189.775
3115.64255	10123.275
3118.00134	10114.575
3120.35871	10097.175
3122.71466	10077.675
3125.06917	10060.475
3127.42226	10064.675
