Data from AgNPs_FTO_APTES_UA_2uM_CRN_50uM_R6G_10uM_NaF_0.1M_Addition_RamanShift__42__15-25-15-284.txt Node

Date: Wed Feb 02 15:25:15 GMT 2022
User: TCL
Spectrometer: QEP01345
Trigger mode: 4
Integration Time (sec): 7.000000E0
Scans to average: 10
Electric dark correction enabled: true
Nonlinearity correction enabled: false
Boxcar width: 0
XAxis mode: Raman Shifts
Number of Pixels in Spectrum: 1044
>>>>>Begin Spectral Data<<<<<
46.04893	0.375
50.45542	0.375
54.85868	-1.625
59.25871	-0.625
63.6555	79.875
68.04907	88.375
72.43941	85.775
76.82654	96.375
81.21044	102.875
85.59113	108.575
89.96862	106.175
94.34289	111.575
98.71396	114.575
103.08183	122.275
107.4465	123.875
111.80798	125.375
116.16626	126.475
120.52136	132.375
124.87327	141.175
129.222	143.375
133.56755	154.875
137.90993	164.675
142.24913	181.075
146.58517	203.175
150.91804	234.275
155.24774	279.375
159.57429	345.875
163.89768	441.075
168.21792	582.275
172.53501	792.975
176.84895	1099.675
181.15975	1546.475
185.46741	2155.975
189.77193	2963.475
194.07331	3980.175
198.37157	5114.975
202.6667	6311.375
206.9587	7489.675
211.24758	8656.275
215.53334	9819.475
219.81599	11033.175
224.09553	12404.275
228.37195	13887.575
232.64527	15463.575
236.91549	17120.875
241.18261	18779.375
245.44663	20383.275
249.70755	21796.375
253.96539	23026.575
258.22014	24138.675
262.4718	25058.975
266.72039	25683.275
270.96589	26046.575
275.20832	26153.975
279.44768	26093.175
283.68397	25977.875
287.91719	25967.475
292.14735	25894.275
296.37445	26005.675
300.59849	26152.075
304.81948	26255.175
309.03742	26167.275
313.25231	25845.975
317.46415	25259.575
321.67296	24545.675
325.87872	23942.475
330.08145	23583.975
334.28114	23407.875
338.47781	23513.875
342.67145	23724.075
346.86207	23975.675
351.04966	24280.075
355.23424	24576.275
359.4158	24867.875
363.59435	25098.875
367.76989	25276.775
371.94243	25358.675
376.11196	25391.975
380.27849	25430.475
384.44203	25441.475
388.60257	25655.075
392.76012	25997.175
396.91468	26434.875
401.06626	26903.275
405.21485	27130.675
409.36047	27047.075
413.50311	26742.275
417.64277	26632.375
421.77947	26737.575
425.9132	26850.475
430.04396	27011.275
434.17176	27164.075
438.2966	27250.375
442.41849	27639.475
446.53742	28279.575
450.6534	29106.775
454.76644	29715.575
458.87653	29940.775
462.98368	29980.075
467.08789	29750.075
471.18916	29484.675
475.2875	29341.975
479.38291	29441.975
483.4754	29458.875
487.56496	29109.475
491.6516	28367.175
495.73531	27550.675
499.81612	27026.875
503.89401	26952.275
507.96899	27014.775
512.04106	26998.875
516.11023	26767.875
520.1765	26328.875
524.23987	25826.675
528.30034	25382.175
532.35792	25093.575
536.41261	24833.375
540.46441	24612.875
544.51333	24744.375
548.55936	25158.475
552.60252	25866.675
556.64279	26616.275
560.6802	27289.375
564.71473	27804.975
568.7464	28606.275
572.7752	29962.175
576.80114	31484.375
580.82422	32682.875
584.84444	33692.875
588.86181	34851.075
592.87633	35744.275
596.888	34955.275
600.89682	33131.375
604.9028	32203.375
608.90594	32867.675
612.90624	33688.675
616.90371	31242.975
620.89834	26879.775
624.89015	25081.975
628.87913	24984.175
632.86528	25270.175
636.84862	25252.375
640.82913	24826.875
644.80683	24183.675
648.78172	23739.775
652.75379	23646.275
656.72306	23818.875
660.68952	24027.475
664.65319	23925.375
668.61405	23603.975
672.57211	23437.375
676.52738	23579.475
680.47986	23563.175
684.42955	23430.275
688.37646	23364.075
692.32058	23457.875
696.26192	23763.675
700.20048	24109.275
704.13626	24374.375
708.06928	24561.675
711.99952	24602.075
715.927	24584.275
719.85171	24518.575
723.77365	24251.375
727.69284	23828.475
731.60928	23450.775
735.52295	23223.875
739.43388	23164.875
743.34206	23236.075
747.24749	23426.475
751.15017	23793.375
755.05012	24389.775
758.94733	25256.475
762.8418	26573.575
766.73354	28374.375
770.62254	29763.775
774.50882	29577.775
778.39237	27928.075
782.27321	26035.475
786.15132	24543.875
790.02671	23666.575
793.89938	23182.975
797.76935	22965.075
801.6366	22876.175
805.50115	22844.975
809.36299	22727.375
813.22213	22629.175
817.07857	22577.075
820.93231	22514.075
824.78336	22323.975
828.63172	22130.475
832.47738	21912.075
836.32036	21863.475
840.16066	21849.575
843.99827	21825.175
847.8332	21810.075
851.66546	21805.975
855.49504	21872.475
859.32195	21827.275
863.1462	21759.375
866.96777	21662.375
870.78668	21589.375
874.60293	21550.375
878.41652	21527.275
882.22745	21594.975
886.03573	21625.875
889.84136	21646.275
893.64433	21572.875
897.44466	21484.475
901.24235	21445.975
905.0374	21415.375
908.8298	21389.875
912.61957	21558.975
916.40671	21878.975
920.19121	22385.675
923.97308	22667.575
927.75233	22505.775
931.52895	22088.375
935.30295	21519.575
939.07433	21021.875
942.84309	20631.875
946.60924	20411.275
950.37278	20350.075
954.13371	20378.975
957.89203	20449.575
961.64774	20517.975
965.40086	20495.675
969.15137	20435.175
972.89929	20182.075
976.64461	20035.775
980.38733	19949.275
984.12747	19935.975
987.86502	20039.775
991.59999	20099.875
995.33237	20230.575
999.06217	20489.375
1002.78939	20888.775
1006.51404	21244.675
1010.23611	21592.675
1013.95561	21871.775
1017.67255	21966.575
1021.38692	21770.675
1025.09872	21434.875
1028.80796	21142.375
1032.51465	21127.075
1036.21877	21202.775
1039.92035	21382.375
1043.61937	21479.375
1047.31584	21531.475
1051.00976	21564.475
1054.70114	21673.375
1058.38998	21977.575
1062.07627	22335.975
1065.76003	22735.375
1069.44126	23113.975
1073.11995	23533.975
1076.79611	23820.375
1080.46974	23885.575
1084.14085	23968.175
1087.80943	24220.975
1091.47549	24540.275
1095.13903	24687.975
1098.80005	24418.875
1102.45857	23682.075
1106.11456	22952.475
1109.76805	22606.575
1113.41903	22521.575
1117.06751	22631.575
1120.71348	22882.675
1124.35696	23206.875
1127.99793	23536.575
1131.63641	23814.875
1135.2724	23808.275
1138.90589	23857.575
1142.5369	24105.575
1146.16542	24538.675
1149.79145	25031.975
1153.415	25560.675
1157.03607	26239.075
1160.65467	27298.675
1164.27079	28967.775
1167.88443	30839.175
1171.49561	32645.375
1175.10432	34622.175
1178.71056	37018.475
1182.31434	39287.375
1185.91565	40376.275
1189.51451	40271.875
1193.11091	39618.575
1196.70485	38531.475
1200.29634	37281.675
1203.88538	36456.275
1207.47197	36423.575
1211.05612	36568.475
1214.63782	35932.675
1218.21708	34512.075
1221.79391	32731.175
1225.36829	31342.075
1228.94024	30478.175
1232.50976	29859.675
1236.07685	29542.975
1239.6415	29351.875
1243.20374	29536.875
1246.76355	29806.075
1250.32093	30255.875
1253.8759	30985.575
1257.42845	31938.375
1260.97859	33010.075
1264.52631	34003.675
1268.07163	34980.075
1271.61453	36046.575
1275.15503	37197.875
1278.69312	38661.475
1282.22882	40253.275
1285.76211	42274.375
1289.29301	44690.375
1292.82151	47571.375
1296.34761	51013.675
1299.87133	54548.475
1303.39266	57687.275
1306.9116	59840.675
1310.42815	60986.175
1313.94233	61196.575
1317.45412	60862.175
1320.96354	60483.475
1324.47058	60521.175
1327.97525	60973.275
1331.47754	61153.075
1334.97747	61089.575
1338.47502	60507.675
1341.97022	59491.875
1345.46305	58169.575
1348.95352	56717.775
1352.44163	55540.175
1355.92738	55066.475
1359.41078	55744.375
1362.89183	56299.875
1366.37053	55236.375
1369.84688	51636.275
1373.32088	46787.575
1376.79254	43447.875
1380.26186	42644.275
1383.72883	43398.275
1387.19347	44204.975
1390.65578	44345.075
1394.11575	44483.875
1397.57339	45045.375
1401.0287	45823.375
1404.48168	46330.175
1407.93234	45744.275
1411.38068	44002.175
1414.82669	41599.175
1418.27039	39034.075
1421.71177	36643.475
1425.15083	34928.975
1428.58758	34133.375
1432.02203	34440.475
1435.45416	35672.375
1438.88399	37192.775
1442.31151	38421.775
1445.73673	39272.975
1449.15965	40000.975
1452.58027	40563.675
1455.9986	40799.875
1459.41463	41039.975
1462.82837	41419.775
1466.23982	41925.975
1469.64898	42431.375
1473.05586	42600.375
1476.46045	42400.775
1479.86276	41857.375
1483.26279	41126.775
1486.66054	40731.375
1490.05602	40780.675
1493.44922	41165.875
1496.84016	41650.975
1500.22882	42326.475
1503.61521	43213.875
1506.99934	44232.775
1510.38121	44983.575
1513.76081	45337.075
1517.13816	45184.475
1520.51324	44848.775
1523.88607	44999.975
1527.25665	45559.775
1530.62498	45979.875
1533.99105	45866.475
1537.35488	45013.975
1540.71647	43609.975
1544.07581	41739.875
1547.4329	39889.075
1550.78776	38427.575
1554.14038	37444.375
1557.49077	36947.975
1560.83892	36574.675
1564.18484	36439.375
1567.52853	36578.875
1570.86999	37119.875
1574.20922	38277.075
1577.54624	39522.975
1580.88103	40585.975
1584.2136	41720.075
1587.54395	43388.175
1590.87208	45594.675
1594.19801	47907.975
1597.52172	49653.075
1600.84321	49306.275
1604.16251	46294.775
1607.47959	41873.575
1610.79447	37669.975
1614.10715	34022.975
1617.41763	31103.675
1620.7259	29192.375
1624.03199	28211.075
1627.33587	28281.775
1630.63757	29455.275
1633.93707	31928.475
1637.23439	35992.075
1640.52951	41746.075
1643.82246	48409.875
1647.11321	53657.675
1650.40179	54487.675
1653.68819	50087.975
1656.97241	42701.575
1660.25446	35392.175
1663.53433	29774.875
1666.81203	25932.975
1670.08756	23530.475
1673.36092	22017.475
1676.63211	21008.475
1679.90115	20339.875
1683.16801	19871.975
1686.43272	19531.975
1689.69527	19233.375
1692.95567	19025.975
1696.2139	18917.075
1699.46999	18792.275
1702.72392	18649.175
1705.97571	18529.475
1709.22535	18439.575
1712.47284	18341.875
1715.71819	18264.775
1718.96139	18204.075
1722.20246	18111.175
1725.44139	17998.175
1728.67818	17872.075
1731.91284	17729.275
1735.14537	17637.975
1738.37576	17485.275
1741.60403	17415.375
1744.83017	17349.275
1748.05418	17320.175
1751.27607	17256.375
1754.49584	17250.075
1757.71349	17197.775
1760.92903	17156.175
1764.14244	17173.475
1767.35375	17131.075
1770.56294	17041.475
1773.77002	16984.675
1776.97499	16933.175
1780.17785	16898.375
1783.37861	16814.275
1786.57727	16787.875
1789.77382	16750.975
1792.96828	16713.475
1796.16064	16657.575
1799.3509	16596.075
1802.53907	16572.475
1805.72514	16508.875
1808.90913	16465.875
1812.09102	16404.575
1815.27083	16384.275
1818.44856	16370.875
1821.6242	16316.775
1824.79776	16298.475
1827.96924	16293.575
1831.13864	16256.775
1834.30597	16270.875
1837.47122	16278.075
1840.6344	16278.175
1843.7955	16287.475
1846.95454	16239.775
1850.11151	16246.875
1853.26642	16228.675
1856.41926	16200.575
1859.57004	16163.675
1862.71876	16119.575
1865.86542	16084.475
1869.01003	16096.975
1872.15258	16088.475
1875.29308	16027.675
1878.43152	16019.775
1881.56792	15995.675
1884.70227	15938.975
1887.83457	15923.075
1890.96482	15888.775
1894.09304	15891.575
1897.21921	15875.675
1900.34335	15830.675
1903.46544	15785.575
1906.58551	15762.675
1909.70353	15726.175
1912.81953	15704.375
1915.93349	15635.575
1919.04543	15606.375
1922.15534	15562.575
1925.26322	15540.575
1928.36908	15491.875
1931.47292	15448.675
1934.57473	15396.375
1937.67453	15349.075
1940.77232	15323.475
1943.86808	15269.575
1946.96184	15243.275
1950.05358	15188.075
1953.14331	15139.975
1956.23103	15107.575
1959.31675	15046.175
1962.40046	14975.275
1965.48217	14941.175
1968.56188	14885.075
1971.63959	14832.875
1974.7153	14801.775
1977.78901	14743.575
1980.86073	14653.775
1983.93046	14619.975
1986.99819	14572.075
1990.06394	14545.175
1993.1277	14498.375
1996.18947	14425.475
1999.24925	14392.175
2002.30706	14324.275
2005.36288	14298.175
2008.41672	14251.275
2011.46859	14212.675
2014.51848	14156.775
2017.56639	14110.875
2020.61233	14054.675
2023.6563	14047.375
2026.6983	14016.975
2029.73833	13994.075
2032.7764	13953.475
2035.8125	13928.475
2038.84664	13901.175
2041.87881	13893.675
2044.90903	13861.275
2047.93729	13805.675
2050.96359	13799.575
2053.98794	13770.675
2057.01034	13772.475
2060.03078	13771.075
2063.04927	13715.075
2066.06582	13723.775
2069.08042	13708.875
2072.09307	13688.775
2075.10378	13679.675
2078.11255	13634.175
2081.11938	13646.575
2084.12426	13615.275
2087.12722	13620.275
2090.12824	13608.475
2093.12732	13606.975
2096.12447	13619.875
2099.11969	13603.375
2102.11299	13615.175
2105.10435	13612.375
2108.09379	13628.775
2111.08131	13623.575
2114.0669	13612.375
2117.05057	13638.575
2120.03233	13650.975
2123.01216	13615.375
2125.99008	13631.975
2128.96609	13622.175
2131.94018	13617.675
2134.91236	13592.575
2137.88263	13591.975
2140.851	13587.675
2143.81746	13617.975
2146.78201	13626.575
2149.74466	13599.975
2152.7054	13587.375
2155.66425	13554.175
2158.6212	13594.075
2161.57625	13548.275
2164.52941	13568.275
2167.48067	13539.475
2170.43004	13510.475
2173.37752	13529.675
2176.32311	13503.975
2179.26681	13501.675
2182.20863	13502.275
2185.14856	13497.375
2188.08661	13478.375
2191.02278	13476.275
2193.95707	13463.575
2196.88948	13461.475
2199.82001	13420.675
2202.74867	13408.475
2205.67545	13390.475
2208.60037	13347.975
2211.52341	13331.075
2214.44458	13283.375
2217.36388	13294.675
2220.28132	13264.075
2223.1969	13230.675
2226.11061	13223.075
2229.02246	13186.375
2231.93245	13181.675
2234.84058	13158.575
2237.74686	13096.675
2240.65128	13119.875
2243.55385	13110.875
2246.45456	13061.775
2249.35343	13036.775
2252.25044	12992.475
2255.14561	12962.775
2258.03893	12949.875
2260.93041	12916.275
2263.82004	12858.575
2266.70783	12822.975
2269.59378	12773.175
2272.4779	12727.475
2275.36017	12697.275
2278.24061	12667.275
2281.11922	12650.575
2283.996	12636.575
2286.87094	12585.075
2289.74405	12559.375
2292.61534	12562.475
2295.4848	12504.075
2298.35243	12558.575
2301.21824	12523.375
2304.08223	12514.675
2306.94439	12534.675
2309.80474	12498.975
2312.66327	12503.375
2315.51999	12481.975
2318.37489	12472.775
2321.22797	12434.275
2324.07925	12419.175
2326.92871	12399.675
2329.77637	12398.575
2332.62222	12351.475
2335.46626	12360.575
2338.3085	12363.375
2341.14893	12351.275
2343.98756	12335.875
2346.8244	12328.875
2349.65943	12335.775
2352.49267	12308.675
2355.32411	12296.675
2358.15376	12307.575
2360.98161	12305.575
2363.80768	12289.975
2366.63195	12291.475
2369.45444	12272.875
2372.27514	12252.475
2375.09405	12236.875
2377.91118	12209.075
2380.72652	12192.375
2383.54009	12171.175
2386.35187	12152.075
2389.16188	12108.575
2391.97011	12077.675
2394.77657	12050.875
2397.58125	12046.375
2400.38416	12012.775
2403.18529	11999.975
2405.98466	12009.375
2408.78226	11972.575
2411.57809	11960.475
2414.37216	11946.575
2417.16446	11941.075
2419.955	11917.075
2422.74378	11905.775
2425.5308	11897.175
2428.31606	11914.075
2431.09956	11877.675
2433.88131	11852.775
2436.6613	11855.075
2439.43954	11865.875
2442.21603	11838.675
2444.99077	11817.775
2447.76377	11839.175
2450.53501	11831.975
2453.30451	11831.475
2456.07226	11824.175
2458.83827	11816.775
2461.60254	11796.075
2464.36507	11822.175
2467.12586	11790.875
2469.88492	11784.675
2472.64224	11794.075
2475.39782	11777.175
2478.15167	11772.575
2480.90379	11782.475
2483.65417	11770.575
2486.40283	11778.375
2489.14976	11765.875
2491.89497	11786.175
2494.63845	11781.875
2497.3802	11762.975
2500.12024	11753.975
2502.85855	11761.375
2505.59514	11781.075
2508.33002	11770.675
2511.06318	11771.875
2513.79462	11757.575
2516.52435	11750.975
2519.25237	11718.275
2521.97867	11684.475
2524.70327	11678.875
2527.42616	11700.275
2530.14734	11727.775
2532.86681	11683.375
2535.58458	11700.575
2538.30065	11667.475
2541.01501	11632.275
2543.72768	11624.675
2546.43864	11618.275
2549.14791	11583.575
2551.85548	11609.575
2554.56136	11564.875
2557.26554	11604.475
2559.96803	11574.775
2562.66883	11556.975
2565.36794	11572.575
2568.06536	11552.475
2570.7611	11527.375
2573.45514	11531.475
2576.14751	11540.175
2578.83819	11477.075
2581.52719	11495.575
2584.21451	11471.475
2586.90015	11497.275
2589.58411	11473.275
2592.2664	11468.575
2594.94701	11451.975
2597.62594	11435.475
2600.30321	11454.075
2602.9788	11455.875
2605.65273	11429.975
2608.32498	11415.075
2610.99557	11433.775
2613.66449	11453.175
2616.33175	11451.075
2618.99734	11462.275
2621.66128	11431.475
2624.32355	11406.575
2626.98416	11392.475
2629.64311	11412.575
2632.30041	11419.075
2634.95605	11395.375
2637.61004	11400.975
2640.26238	11365.375
2642.91306	11393.975
2645.56209	11395.775
2648.20948	11393.375
2650.85521	11398.075
2653.4993	11372.575
2656.14175	11384.075
2658.78255	11428.975
2661.42171	11425.175
2664.05923	11428.075
2666.6951	11419.775
2669.32934	11442.075
2671.96194	11441.475
2674.59291	11434.575
2677.22224	11409.875
2679.84993	11453.175
2682.476	11406.075
2685.10043	11405.375
2687.72324	11410.575
2690.34441	11420.575
2692.96396	11388.975
2695.58188	11434.675
2698.19818	11387.575
2700.81285	11419.275
2703.4259	11444.075
2706.03733	11456.375
2708.64714	11441.875
2711.25533	11463.875
2713.86191	11415.675
2716.46687	11449.375
2719.07021	11487.175
2721.67194	11487.775
2724.27206	11478.775
2726.87057	11500.675
2729.46747	11516.075
2732.06276	11483.675
2734.65644	11461.875
2737.24852	11497.475
2739.83899	11466.175
2742.42786	11478.675
2745.01513	11460.375
2747.60079	11430.275
2750.18486	11422.175
2752.76733	11473.575
2755.3482	11449.375
2757.92747	11482.375
2760.50515	11480.175
2763.08123	11461.175
2765.65573	11452.775
2768.22863	11433.675
2770.79994	11426.475
2773.36967	11420.475
2775.9378	11426.875
2778.50435	11416.675
2781.06932	11395.075
2783.6327	11413.775
2786.1945	11407.275
2788.75471	11408.275
2791.31335	11374.675
2793.87041	11377.675
2796.42589	11356.875
2798.97979	11357.475
2801.53212	11334.975
2804.08288	11326.075
2806.63206	11313.175
2809.17967	11280.975
2811.72571	11251.975
2814.27018	11246.075
2816.81308	11206.075
2819.35442	11197.375
2821.89419	11193.375
2824.43239	11146.575
2826.96904	11153.075
2829.50412	11153.675
2832.03763	11148.675
2834.56959	11126.375
2837.1	11128.775
2839.62884	11126.275
2842.15613	11111.175
2844.68186	11179.075
2847.20604	11196.175
2849.72867	11198.575
2852.24974	11192.475
2854.76927	11184.675
2857.28724	11178.875
2859.80367	11149.975
2862.31855	11144.775
2864.83189	11091.975
2867.34368	11107.275
2869.85393	11095.875
2872.36264	11088.675
2874.8698	11067.375
2877.37543	11076.375
2879.87952	11055.775
2882.38207	11033.975
2884.88308	11074.475
2887.38256	11058.475
2889.88051	11033.575
2892.37692	11038.075
2894.8718	11046.675
2897.36515	11069.075
2899.85698	11062.175
2902.34727	11087.575
2904.83604	11080.375
2907.32328	11060.875
2909.809	11126.975
2912.29319	11087.275
2914.77587	11098.075
2917.25702	11090.975
2919.73665	11082.575
2922.21476	11069.975
2924.69136	11063.475
2927.16644	11073.275
2929.64	11094.475
2932.11205	11099.075
2934.58258	11062.575
2937.05161	11085.875
2939.51912	11076.575
2941.98513	11048.475
2944.44962	10989.175
2946.91261	10931.675
2949.37409	10927.275
2951.83407	10931.675
2954.29254	10886.675
2956.74951	10881.175
2959.20498	10845.675
2961.65895	10825.175
2964.11142	10826.975
2966.56239	10821.975
2969.01186	10795.675
2971.45984	10761.675
2973.90632	10746.875
2976.35131	10706.075
2978.7948	10684.875
2981.23681	10617.975
2983.67732	10608.875
2986.11635	10614.575
2988.55388	10553.475
2990.98993	10561.475
2993.4245	10524.975
2995.85758	10500.675
2998.28917	10480.075
3000.71928	10446.975
3003.14791	10413.175
3005.57506	10384.975
3008.00073	10343.875
3010.42493	10311.775
3012.84764	10295.075
3015.26888	10309.475
3017.68865	10264.775
3020.10694	10239.875
3022.52376	10230.075
3024.9391	10223.175
3027.35298	10205.375
3029.76539	10171.475
3032.17632	10176.475
3034.5858	10165.475
3036.9938	10164.375
3039.40034	10129.275
3041.80542	10135.675
3044.20903	10107.875
3046.61118	10082.175
3049.01187	10079.775
3051.4111	10035.575
3053.80888	10019.675
3056.20519	10002.375
3058.60005	9970.975
3060.99345	9955.275
3063.3854	9935.375
3065.7759	9893.475
3068.16494	9868.975
3070.55254	9788.175
3072.93868	9776.975
3075.32338	9755.975
3077.70662	9737.575
3080.08842	9681.175
3082.46878	9680.775
3084.84769	9675.575
3087.22515	9660.175
3089.60118	9656.075
3091.97576	9650.175
3094.3489	9642.875
3096.72061	9625.675
3099.09087	9615.275
3101.4597	9577.775
3103.82709	9607.475
3106.19305	9551.975
3108.55757	9544.875
3110.92066	9542.175
3113.28232	9524.875
3115.64255	9468.775
3118.00134	9439.275
3120.35871	9435.575
3122.71466	9393.275
3125.06917	9371.075
3127.42226	9367.775
3129.77393	9379.175
