Data from AgNPs_FTO_APTES_UA_2uM_CRN_2uM_R6G_10uM_NaF_0.1M_Addition_RamanShift__10__12-10-25-057.txt Node

Date: Wed Feb 02 12:10:25 GMT 2022
User: TCL
Spectrometer: QEP01345
Trigger mode: 4
Integration Time (sec): 7.000000E0
Scans to average: 10
Electric dark correction enabled: true
Nonlinearity correction enabled: false
Boxcar width: 0
XAxis mode: Raman Shifts
Number of Pixels in Spectrum: 1044
>>>>>Begin Spectral Data<<<<<
46.04893	0.8
50.45542	-0.4
54.85868	-1.6
59.25871	-0.4
63.6555	106.6
68.04907	117.5
72.43941	113.7
76.82654	125.4
81.21044	127.3
85.59113	132.2
89.96862	136.3
94.34289	142.9
98.71396	146.3
103.08183	153.1
107.4465	158.1
111.80798	162.9
116.16626	164
120.52136	174.4
124.87327	178.1
129.222	192.8
133.56755	213.7
137.90993	224.8
142.24913	248.9
146.58517	291.8
150.91804	336.1
155.24774	407.7
159.57429	514.1
163.89768	655.9
168.21792	878.7
172.53501	1211.2
176.84895	1688.1
181.15975	2385.1
185.46741	3337.4
189.77193	4595.2
194.07331	6120.7
198.37157	7934.8
202.6667	9776.3
206.9587	11603.8
211.24758	13402.3
215.53334	15222.9
219.81599	17140.4
224.09553	19225.5
228.37195	21589.8
232.64527	24139.9
236.91549	26836.8
241.18261	29495.2
245.44663	32054.3
249.70755	34297.9
253.96539	36271.6
258.22014	37946.6
262.4718	39277.4
266.72039	40129.2
270.96589	40550.9
275.20832	40514.8
279.44768	40277.3
283.68397	39861.3
287.91719	39559.3
292.14735	39319.9
296.37445	39228.2
300.59849	39251.5
304.81948	39420.8
309.03742	39522.7
313.25231	39322.5
317.46415	38782.7
321.67296	38076
325.87872	37374.7
330.08145	36964.8
334.28114	36875.7
338.47781	36976
342.67145	37315.1
346.86207	37814.9
351.04966	38436.5
355.23424	39017.2
359.4158	39587.1
363.59435	40050.2
367.76989	40312
371.94243	40403.3
376.11196	40436.2
380.27849	40371.5
384.44203	40491.4
388.60257	40813.5
392.76012	41309.8
396.91468	41967.4
401.06626	42797.4
405.21485	43172.5
409.36047	43041.2
413.50311	42597.4
417.64277	42471.8
421.77947	42817.5
425.9132	43116.9
430.04396	43310.8
434.17176	43466.2
438.2966	43549.1
442.41849	43952.7
446.53742	44889.6
450.6534	45904.9
454.76644	46646.1
458.87653	46904.8
462.98368	46786.1
467.08789	46356.7
471.18916	45759.5
475.2875	45087.6
479.38291	44803.9
483.4754	44758
487.56496	44426.2
491.6516	43725.4
495.73531	43125.3
499.81612	42712.7
503.89401	42830.7
507.96899	43012.5
512.04106	43049.2
516.11023	42740.2
520.1765	42140.7
524.23987	41575.7
528.30034	41038
532.35792	40574.2
536.41261	40121.1
540.46441	39784.7
544.51333	39744.8
548.55936	40158.2
552.60252	40983.1
556.64279	42005.5
560.6802	42831.1
564.71473	43427.9
568.7464	44417.5
572.7752	46038.3
576.80114	48165.2
580.82422	50428.1
584.84444	52932
588.86181	55966.6
592.87633	58690.2
596.888	58039.8
600.89682	54126.5
604.9028	51795.1
608.90594	53147.3
612.90624	54932.2
616.90371	51364.2
620.89834	44488.3
624.89015	41486.8
628.87913	41423.7
632.86528	41870.5
636.84862	41750.7
640.82913	40763.6
644.80683	39667.1
648.78172	39031.5
652.75379	39046.7
656.72306	39455.4
660.68952	39924.5
664.65319	39628.8
668.61405	38951.6
672.57211	38895.4
676.52738	39132.3
680.47986	39045.9
684.42955	38798.9
688.37646	38627.3
692.32058	38911.2
696.26192	39488.6
700.20048	40144.2
704.13626	40492.3
708.06928	40690.1
711.99952	40723.8
715.927	40599.8
719.85171	40661.1
723.77365	40364.5
727.69284	39543.1
731.60928	38797.4
735.52295	38558.1
739.43388	38474.3
743.34206	38599.9
747.24749	38980
751.15017	39470.7
755.05012	40280.1
758.94733	41471.1
762.8418	43436.4
766.73354	46065.2
770.62254	48186.3
774.50882	48109.5
778.39237	45858.2
782.27321	43147.1
786.15132	41001.4
790.02671	39653.5
793.89938	38910.7
797.76935	38537.1
801.6366	38387.3
805.50115	38279.8
809.36299	38147.1
813.22213	37919.5
817.07857	37741.5
820.93231	37597.8
824.78336	37314.4
828.63172	37080.4
832.47738	36862.2
836.32036	36884.7
840.16066	36899.6
843.99827	36914.3
847.8332	36858.6
851.66546	36872.8
855.49504	36973.1
859.32195	37033.5
863.1462	36889
866.96777	36743.5
870.78668	36691.4
874.60293	36763.5
878.41652	36781.3
882.22745	36947.3
886.03573	37117.1
889.84136	37127.4
893.64433	37052.7
897.44466	36888.9
901.24235	36798.8
905.0374	36813.2
908.8298	36753.5
912.61957	36900.6
916.40671	37249.5
920.19121	37920.8
923.97308	38466
927.75233	38425.1
931.52895	37939.4
935.30295	37083.9
939.07433	36262.5
942.84309	35649.2
946.60924	35316.5
950.37278	35181.7
954.13371	35271.3
957.89203	35260.6
961.64774	35310.8
965.40086	35346.4
969.15137	35211.3
972.89929	34917.3
976.64461	34719.5
980.38733	34594.9
984.12747	34623.5
987.86502	34728.1
991.59999	34885.7
995.33237	35155.2
999.06217	35654.3
1002.78939	36362.8
1006.51404	37171.8
1010.23611	37948.5
1013.95561	38494.1
1017.67255	38534.9
1021.38692	38103.9
1025.09872	37352.7
1028.80796	36817.2
1032.51465	36656.7
1036.21877	36781.1
1039.92035	36999.2
1043.61937	37131.5
1047.31584	37178.2
1051.00976	37171
1054.70114	37287.5
1058.38998	37554
1062.07627	37990.8
1065.76003	38562.1
1069.44126	39215.2
1073.11995	40049.3
1076.79611	40687.1
1080.46974	41000.6
1084.14085	41241.3
1087.80943	41697.2
1091.47549	42182.3
1095.13903	42390.8
1098.80005	41839.5
1102.45857	40639.9
1106.11456	39567.5
1109.76805	38970.3
1113.41903	38715.8
1117.06751	38753.4
1120.71348	39047
1124.35696	39493.7
1127.99793	39918.5
1131.63641	40270.2
1135.2724	40316.5
1138.90589	40343.5
1142.5369	40573.3
1146.16542	41098.8
1149.79145	41658.5
1153.415	42134.7
1157.03607	42985.3
1160.65467	44283.7
1164.27079	46532.8
1167.88443	49137.5
1171.49561	51735.2
1175.10432	54586.6
1178.71056	58229.7
1182.31434	61634
1185.91565	63300.8
1189.51451	63201.7
1193.11091	62124.1
1196.70485	60322.7
1200.29634	58171.2
1203.88538	56831.8
1207.47197	56511.6
1211.05612	56501.9
1214.63782	55899.1
1218.21708	54225.3
1221.79391	52079.3
1225.36829	50387.8
1228.94024	49352.8
1232.50976	48760.2
1236.07685	48097.9
1239.6415	47607.5
1243.20374	47521
1246.76355	47861.2
1250.32093	48572.4
1253.8759	49691.7
1257.42845	51115.3
1260.97859	52825.5
1264.52631	54535.9
1268.07163	56231.1
1271.61453	57940.2
1275.15503	59689.4
1278.69312	61748.1
1282.22882	64068.9
1285.76211	66968.2
1289.29301	70043.3
1292.82151	73615.4
1296.34761	77612
1299.87133	82276.2
1303.39266	86633.6
1306.9116	90024
1310.42815	92026.9
1313.94233	92469.7
1317.45412	91553.2
1320.96354	90415.2
1324.47058	89843.7
1327.97525	89769.8
1331.47754	89771.7
1334.97747	89268.4
1338.47502	88101.5
1341.97022	86515
1345.46305	84877.9
1348.95352	83333.4
1352.44163	82410.6
1355.92738	83011.7
1359.41078	85412.2
1362.89183	87688.8
1366.37053	87183.9
1369.84688	82062.9
1373.32088	73955.1
1376.79254	67627.2
1380.26186	65489
1383.72883	65822.3
1387.19347	66164.1
1390.65578	65709.6
1394.11575	65444.4
1397.57339	66219
1401.0287	67453.6
1404.48168	68531.4
1407.93234	68027.1
1411.38068	66180.7
1414.82669	63464.2
1418.27039	60506.2
1421.71177	57621.1
1425.15083	55513.2
1428.58758	54692.5
1432.02203	55437.8
1435.45416	57205.1
1438.88399	59307.5
1442.31151	60610.1
1445.73673	61316.9
1449.15965	61778.7
1452.58027	61789.3
1455.9986	61684.9
1459.41463	61992.8
1462.82837	62931
1466.23982	64129.9
1469.64898	65026.4
1473.05586	65421.3
1476.46045	65405.7
1479.86276	64940.5
1483.26279	64277.6
1486.66054	63909.6
1490.05602	64285.2
1493.44922	65142.9
1496.84016	66125.7
1500.22882	67118.2
1503.61521	68230.9
1506.99934	69349.4
1510.38121	70201.5
1513.76081	70392.3
1517.13816	69870.2
1520.51324	69215.2
1523.88607	69075.8
1527.25665	69571.2
1530.62498	69935.6
1533.99105	69471.8
1537.35488	67983.2
1540.71647	65831.5
1544.07581	63313.6
1547.4329	60996
1550.78776	59090
1554.14038	57829.8
1557.49077	57176.4
1560.83892	56791.1
1564.18484	56533.9
1567.52853	56501.3
1570.86999	56984.2
1574.20922	58288.7
1577.54624	59687.4
1580.88103	60651.2
1584.2136	62032.9
1587.54395	64636.3
1590.87208	68361.6
1594.19801	72462
1597.52172	75698
1600.84321	75660.3
1604.16251	71157.5
1607.47959	64551.6
1610.79447	58296.9
1614.10715	52946.5
1617.41763	48790.5
1620.7259	46032.1
1624.03199	44708.8
1627.33587	44884
1630.63757	46602.4
1633.93707	50204.3
1637.23439	56335.4
1640.52951	65253.9
1643.82246	75884.7
1647.11321	83945.4
1650.40179	84766.5
1653.68819	77370.2
1656.97241	65650.9
1660.25446	54773.4
1663.53433	46844.1
1666.81203	41743.6
1670.08756	38665.8
1673.36092	36729.2
1676.63211	35472.3
1679.90115	34650.8
1683.16801	33964.1
1686.43272	33471.6
1689.69527	33125.9
1692.95567	32824.2
1696.2139	32634.6
1699.46999	32450.8
1702.72392	32320.9
1705.97571	32212.8
1709.22535	32070.5
1712.47284	32042.1
1715.71819	31979.5
1718.96139	31837.1
1722.20246	31709.5
1725.44139	31528.3
1728.67818	31377.3
1731.91284	31165.7
1735.14537	30959.5
1738.37576	30775
1741.60403	30693
1744.83017	30537.8
1748.05418	30453.4
1751.27607	30386
1754.49584	30356.8
1757.71349	30327.5
1760.92903	30254.1
1764.14244	30242.2
1767.35375	30191.4
1770.56294	30115.9
1773.77002	30008.2
1776.97499	29987.1
1780.17785	29880.1
1783.37861	29830.5
1786.57727	29755.5
1789.77382	29722.4
1792.96828	29708.3
1796.16064	29556
1799.3509	29533.5
1802.53907	29432
1805.72514	29339.4
1808.90913	29260
1812.09102	29216.7
1815.27083	29178.1
1818.44856	29185.3
1821.6242	29137.9
1824.79776	29170.1
1827.96924	29104.4
1831.13864	29078.8
1834.30597	29138.9
1837.47122	29062.2
1840.6344	29069.5
1843.7955	29119.8
1846.95454	29043.1
1850.11151	29029.7
1853.26642	29011.3
1856.41926	28944.5
1859.57004	28934.6
1862.71876	28906.2
1865.86542	28859.3
1869.01003	28793.5
1872.15258	28719.4
1875.29308	28687.2
1878.43152	28602.8
1881.56792	28591.2
1884.70227	28526.5
1887.83457	28515
1890.96482	28480.2
1894.09304	28455.9
1897.21921	28399.8
1900.34335	28367.3
1903.46544	28272.3
1906.58551	28260.6
1909.70353	28161.5
1912.81953	28100.7
1915.93349	27981.4
1919.04543	27926.7
1922.15534	27903.2
1925.26322	27824.5
1928.36908	27719.7
1931.47292	27633.4
1934.57473	27570.2
1937.67453	27438
1940.77232	27398.3
1943.86808	27338.3
1946.96184	27297.1
1950.05358	27203.1
1953.14331	27103.4
1956.23103	27036.9
1959.31675	26927.5
1962.40046	26900.6
1965.48217	26799.9
1968.56188	26654.9
1971.63959	26568.2
1974.7153	26527.5
1977.78901	26394.7
1980.86073	26353.1
1983.93046	26196.8
1986.99819	26119.6
1990.06394	26083.1
1993.1277	25994.8
1996.18947	25889.9
1999.24925	25831.3
2002.30706	25745.5
2005.36288	25685
2008.41672	25576.3
2011.46859	25504.4
2014.51848	25461.5
2017.56639	25376.3
2020.61233	25306.5
2023.6563	25280.6
2026.6983	25255
2029.73833	25157.4
2032.7764	25089.5
2035.8125	25058.5
2038.84664	24976.9
2041.87881	24984.2
2044.90903	24912.9
2047.93729	24818.3
2050.96359	24784.4
2053.98794	24777
2057.01034	24767
2060.03078	24757.8
2063.04927	24711.1
2066.06582	24686.8
2069.08042	24665.4
2072.09307	24623
2075.10378	24598.3
2078.11255	24638
2081.11938	24608.9
2084.12426	24575.5
2087.12722	24564.6
2090.12824	24537.8
2093.12732	24512.7
2096.12447	24563.2
2099.11969	24519.9
2102.11299	24576.5
2105.10435	24586.1
2108.09379	24526.6
2111.08131	24601.4
2114.0669	24542.4
2117.05057	24571.4
2120.03233	24598.5
2123.01216	24603.9
2125.99008	24592.9
2128.96609	24610.3
2131.94018	24598.2
2134.91236	24592.9
2137.88263	24534
2140.851	24497.5
2143.81746	24540.6
2146.78201	24530.7
2149.74466	24526.9
2152.7054	24521.2
2155.66425	24558.1
2158.6212	24544.9
2161.57625	24525.3
2164.52941	24506.4
2167.48067	24485.4
2170.43004	24457
2173.37752	24451
2176.32311	24449.4
2179.26681	24491.8
2182.20863	24461.1
2185.14856	24533.7
2188.08661	24500.8
2191.02278	24474.7
2193.95707	24459.8
2196.88948	24399.3
2199.82001	24380.9
2202.74867	24353.2
2205.67545	24310.6
2208.60037	24278.1
2211.52341	24229.2
2214.44458	24156.4
2217.36388	24137.1
2220.28132	24094.4
2223.1969	24026.7
2226.11061	24002.1
2229.02246	23973.1
2231.93245	23982.7
2234.84058	23954.7
2237.74686	23912.1
2240.65128	23899.8
2243.55385	23826.8
2246.45456	23786.2
2249.35343	23680.7
2252.25044	23660.6
2255.14561	23552.5
2258.03893	23522.1
2260.93041	23465.3
2263.82004	23418.4
2266.70783	23320.4
2269.59378	23245.2
2272.4779	23204.5
2275.36017	23139.4
2278.24061	23092.8
2281.11922	23039.4
2283.996	23010.4
2286.87094	22973.7
2289.74405	22949.1
2292.61534	22936.1
2295.4848	22855.1
2298.35243	22810.5
2301.21824	22758.7
2304.08223	22769.5
2306.94439	22793.1
2309.80474	22797
2312.66327	22760.9
2315.51999	22734.1
2318.37489	22734.5
2321.22797	22700.8
2324.07925	22637.5
2326.92871	22615.6
2329.77637	22633.7
2332.62222	22593.9
2335.46626	22540.1
2338.3085	22485.5
2341.14893	22492.5
2343.98756	22459.2
2346.8244	22442.6
2349.65943	22492.4
2352.49267	22467.7
2355.32411	22471.7
2358.15376	22480.8
2360.98161	22460.7
2363.80768	22428.7
2366.63195	22404.2
2369.45444	22356.5
2372.27514	22304.2
2375.09405	22303.4
2377.91118	22228.8
2380.72652	22154.8
2383.54009	22154
2386.35187	22123.9
2389.16188	22040.5
2391.97011	22046
2394.77657	21992.1
2397.58125	21882
2400.38416	21895.6
2403.18529	21832.7
2405.98466	21820.6
2408.78226	21785.8
2411.57809	21785.6
2414.37216	21780.3
2417.16446	21799.3
2419.955	21734.7
2422.74378	21689.4
2425.5308	21672.4
2428.31606	21663.7
2431.09956	21663.7
2433.88131	21659.9
2436.6613	21629.8
2439.43954	21653.2
2442.21603	21617.5
2444.99077	21594.4
2447.76377	21591.4
2450.53501	21541.2
2453.30451	21568.1
2456.07226	21547.8
2458.83827	21575.5
2461.60254	21517.5
2464.36507	21531.9
2467.12586	21477
2469.88492	21497.4
2472.64224	21477.2
2475.39782	21465.8
2478.15167	21450.5
2480.90379	21443.7
2483.65417	21441.9
2486.40283	21408.6
2489.14976	21401.8
2491.89497	21353.2
2494.63845	21417.1
2497.3802	21354.2
2500.12024	21360.9
2502.85855	21366.6
2505.59514	21390.2
2508.33002	21373
2511.06318	21322.3
2513.79462	21308.3
2516.52435	21273.8
2519.25237	21262.6
2521.97867	21229.1
2524.70327	21168.5
2527.42616	21187.6
2530.14734	21216.7
2532.86681	21153.5
2535.58458	21127.1
2538.30065	21067
2541.01501	21071.9
2543.72768	21081.5
2546.43864	21059.7
2549.14791	21013.1
2551.85548	20967.5
2554.56136	20996.2
2557.26554	20972.2
2559.96803	20934.2
2562.66883	20920.6
2565.36794	20872.9
2568.06536	20884.2
2570.7611	20859.4
2573.45514	20847.3
2576.14751	20799.2
2578.83819	20757.6
2581.52719	20749.6
2584.21451	20747
2586.90015	20720.4
2589.58411	20715.6
2592.2664	20659.3
2594.94701	20606
2597.62594	20641
2600.30321	20602.3
2602.9788	20580.7
2605.65273	20550.6
2608.32498	20570.7
2610.99557	20554
2613.66449	20572.6
2616.33175	20559.2
2618.99734	20519.5
2621.66128	20509.7
2624.32355	20492
2626.98416	20462.4
2629.64311	20415.2
2632.30041	20435.1
2634.95605	20412.7
2637.61004	20378
2640.26238	20369.5
2642.91306	20380
2645.56209	20360.7
2648.20948	20352.3
2650.85521	20380.5
2653.4993	20377.3
2656.14175	20352.5
2658.78255	20352.1
2661.42171	20355.2
2664.05923	20390.1
2666.6951	20385.7
2669.32934	20392.6
2671.96194	20397.4
2674.59291	20409.4
2677.22224	20358.2
2679.84993	20391.8
2682.476	20353.7
2685.10043	20370.7
2687.72324	20384.6
2690.34441	20412.3
2692.96396	20380
2695.58188	20393.7
2698.19818	20346.8
2700.81285	20364
2703.4259	20378
2706.03733	20370.8
2708.64714	20351.8
2711.25533	20371.2
2713.86191	20394.9
2716.46687	20409.4
2719.07021	20427.6
2721.67194	20464.3
2724.27206	20424.8
2726.87057	20422.4
2729.46747	20440.4
2732.06276	20482.9
2734.65644	20443.8
2737.24852	20454.7
2739.83899	20441.3
2742.42786	20433.6
2745.01513	20397.1
2747.60079	20365
2750.18486	20353.2
2752.76733	20362.4
2755.3482	20303.1
2757.92747	20271.4
2760.50515	20264.5
2763.08123	20281
2765.65573	20274.3
2768.22863	20290.5
2770.79994	20233.5
2773.36967	20226.1
2775.9378	20219.5
2778.50435	20212.8
2781.06932	20184.1
2783.6327	20170.9
2786.1945	20096.7
2788.75471	20098
2791.31335	20076.2
2793.87041	20059.8
2796.42589	20033.9
2798.97979	20046.1
2801.53212	19985
2804.08288	19999.7
2806.63206	19896.3
2809.17967	19851.6
2811.72571	19772.9
2814.27018	19785
2816.81308	19708.3
2819.35442	19718
2821.89419	19660.2
2824.43239	19640.9
2826.96904	19626.6
2829.50412	19603.5
2832.03763	19577.8
2834.56959	19604.2
2837.1	19590.1
2839.62884	19549.8
2842.15613	19565.6
2844.68186	19589.3
2847.20604	19615.4
2849.72867	19631.4
2852.24974	19586.7
2854.76927	19553.8
2857.28724	19572.3
2859.80367	19504.8
2862.31855	19471.7
2864.83189	19466.8
2867.34368	19426.8
2869.85393	19453.1
2872.36264	19411.6
2874.8698	19400.2
2877.37543	19425.4
2879.87952	19412.8
2882.38207	19406.5
2884.88308	19358.4
2887.38256	19401.6
2889.88051	19373.3
2892.37692	19434.8
2894.8718	19443.9
2897.36515	19453.6
2899.85698	19429
2902.34727	19444.9
2904.83604	19447.8
2907.32328	19456.9
2909.809	19422.3
2912.29319	19446.5
2914.77587	19438.8
2917.25702	19447.6
2919.73665	19401.5
2922.21476	19437.5
2924.69136	19402
2927.16644	19419.5
2929.64	19402.8
2932.11205	19334.5
2934.58258	19252.7
2937.05161	19325.8
2939.51912	19275.7
2941.98513	19228
2944.44962	19193.7
2946.91261	19112.7
2949.37409	19148.9
2951.83407	19131.3
2954.29254	19101.6
2956.74951	19066.9
2959.20498	19055.9
2961.65895	18998.1
2964.11142	18998.4
2966.56239	18940.2
2969.01186	18885.4
2971.45984	18856.9
2973.90632	18839.4
2976.35131	18787.2
2978.7948	18781.8
2981.23681	18689.5
2983.67732	18592.8
2986.11635	18540.3
2988.55388	18496
2990.98993	18448.1
2993.4245	18396.3
2995.85758	18347.3
2998.28917	18343.2
3000.71928	18306.1
3003.14791	18263.1
3005.57506	18189.6
3008.00073	18151.1
3010.42493	18130.1
3012.84764	18101
3015.26888	18077
3017.68865	18015
3020.10694	17995
3022.52376	17958.7
3024.9391	17901.3
3027.35298	17909.6
3029.76539	17862.3
3032.17632	17857.3
3034.5858	17796.5
3036.9938	17782.6
3039.40034	17758.2
3041.80542	17752.2
3044.20903	17730.8
3046.61118	17694.3
3049.01187	17631.2
3051.4111	17624
3053.80888	17562.3
3056.20519	17516.8
3058.60005	17495.3
3060.99345	17422.1
3063.3854	17362.6
3065.7759	17323.7
3068.16494	17275.7
3070.55254	17185.9
3072.93868	17166.3
3075.32338	17100.6
3077.70662	17103.5
3080.08842	17001.9
3082.46878	17007.4
3084.84769	16964.1
3087.22515	16924.6
3089.60118	16930.3
3091.97576	16917
3094.3489	16883
3096.72061	16895
3099.09087	16889.9
3101.4597	16826.1
3103.82709	16775.5
3106.19305	16731.3
3108.55757	16718.8
3110.92066	16647.3
3113.28232	16652
3115.64255	16586
3118.00134	16538.7
3120.35871	16491.5
3122.71466	16512.2
3125.06917	16445.8
3127.42226	16365.6
3129.77393	16393.4
3132.12417	16386.8
3134.47299	16373.5
3136.82039	16323.1
3139.16636	16357.6
3141.51092	16310.6
3143.85406	16341.2
3146.19579	16317.2
3148.53609	16308.6
3150.87499	16304
3153.21246	16279.5
3155.54853	16286.8
3157.88318	16272.1
3160.21642	16267
3162.54826	16255.3
3164.87868	16226.7
3167.2077	16196.3
3169.5353	16163.6
3171.86151	16151.2
3174.18631	16158.8
3176.5097	16097.4
3178.83169	16103
3181.15228	16089.2
3183.47147	16020.2
3185.78926	16001.4
3188.10565	15997.8
3190.42065	15960.1
3192.73424	15984.5
3195.04645	15952
3197.35725	15929.9
3199.66667	15905.3
3201.97469	15932.9
3204.28132	15871.7
3206.58656	15875.8
3208.8904	15845.7
3211.19287	15868.5
3213.49394	15897
3215.79363	15838.9
3218.09193	15844.4
3220.38884	15838.1
3222.68438	15821.2
3224.97853	15780.7
3227.2713	15764.8
3229.56269	15750.8
3231.8527	15705.4
3234.14133	15685.6
3236.42858	15707.5
3238.71446	15677.5
3240.99896	15661.4
3243.28209	15605.4
3245.56384	15576.1
3247.84423	15601
3250.12324	15544.2
3252.40088	15510.9
3254.67715	15503.5
3256.95205	15424.7
3259.22558	15409.3
3261.49775	15394.4
3263.76855	15348.7
3266.03799	15304.8
3268.30606	15275.5
3270.57277	15268.3
3272.83812	15227.9
3275.10211	15184.7
3277.36474	15147.6
3279.62601	15152.8
3281.88593	15192.6
3284.14448	15208.4
3286.40168	15213.2
3288.65753	15170.3
3290.91202	15133.4
3293.16516	15072.3
3295.41695	15012.3
3297.66738	14919.2
3299.91647	14883.9
3302.16421	14778
3304.4106	14687.7
3306.65564	14602.8
3308.89933	14503
3311.14169	14421.2
3313.38269	14282
3315.62236	14195.7
3317.86068	14074.1
3320.09766	13901.4
3322.3333	13799.9
3324.5676	13768.7
3326.80056	13551.3
3329.03219	13494.3
3331.26248	2.2
3333.49143	0.1
3335.71905	-0.5
