Data from AgNPs_FTO_APTES_UA_2uM_CRN_500uM_R6G_10uM_NaF_0.1M_Addition_RamanShift__8__17-07-55-405.txt Node

Date: Wed Feb 02 17:07:55 GMT 2022
User: TCL
Spectrometer: QEP01345
Trigger mode: 4
Integration Time (sec): 7.000000E0
Scans to average: 10
Electric dark correction enabled: true
Nonlinearity correction enabled: false
Boxcar width: 0
XAxis mode: Raman Shifts
Number of Pixels in Spectrum: 1044
>>>>>Begin Spectral Data<<<<<
46.04893	0.8
50.45542	0.9
54.85868	-0.4
59.25871	0.3
63.6555	62.6
68.04907	67
72.43941	72.1
76.82654	76.4
81.21044	81.4
85.59113	83.5
89.96862	85
94.34289	87.8
98.71396	91.5
103.08183	97.7
107.4465	97.9
111.80798	99.8
116.16626	101.1
120.52136	103.3
124.87327	105.7
129.222	113.7
133.56755	120.2
137.90993	127.9
142.24913	139.2
146.58517	162.3
150.91804	183.9
155.24774	218.5
159.57429	273.4
163.89768	338.8
168.21792	454
172.53501	621.5
176.84895	857.5
181.15975	1206.3
185.46741	1690.5
189.77193	2318
194.07331	3099.8
198.37157	3972.6
202.6667	4909.2
206.9587	5849.9
211.24758	6762.4
215.53334	7671.9
219.81599	8635.9
224.09553	9700
228.37195	10856.6
232.64527	12068.1
236.91549	13392.7
241.18261	14674.5
245.44663	15908.8
249.70755	17031.6
253.96539	18066.5
258.22014	18923.3
262.4718	19528.2
266.72039	20046.9
270.96589	20314.7
275.20832	20380.4
279.44768	20349.7
283.68397	20266.6
287.91719	20181.1
292.14735	20178.5
296.37445	20247.9
300.59849	20372.1
304.81948	20479.7
309.03742	20371.4
313.25231	20118.5
317.46415	19628.2
321.67296	19082.6
325.87872	18564.9
330.08145	18276.3
334.28114	18167.6
338.47781	18167.8
342.67145	18265.9
346.86207	18484.1
351.04966	18728.6
355.23424	19022.1
359.4158	19273.2
363.59435	19396
367.76989	19548.5
371.94243	19610.7
376.11196	19657.7
380.27849	19659.5
384.44203	19745.8
388.60257	19962.5
392.76012	20245.6
396.91468	20551.7
401.06626	20909.5
405.21485	21103.4
409.36047	21026.4
413.50311	20823.9
417.64277	20754.2
421.77947	20808.4
425.9132	20949.5
430.04396	21154.3
434.17176	21270.5
438.2966	21360.8
442.41849	21725.1
446.53742	22313.9
450.6534	22964.3
454.76644	23474.3
458.87653	23643.3
462.98368	23625.8
467.08789	23421.4
471.18916	23278.2
475.2875	23205.4
479.38291	23313.9
483.4754	23401.1
487.56496	23039
491.6516	22350.7
495.73531	21561.7
499.81612	21074.7
503.89401	20974.9
507.96899	21032.3
512.04106	20945
516.11023	20750.3
520.1765	20375.4
524.23987	20029.3
528.30034	19740.5
532.35792	19516.2
536.41261	19317.2
540.46441	19168.7
544.51333	19247.1
548.55936	19565
552.60252	20149.7
556.64279	20845.1
560.6802	21429.9
564.71473	21901.6
568.7464	22598.1
572.7752	23662.3
576.80114	24800.7
580.82422	25701
584.84444	26575.1
588.86181	27747
592.87633	28503.2
596.888	27835.2
600.89682	25993.7
604.9028	24914.7
608.90594	25357.8
612.90624	25940.1
616.90371	24096.4
620.89834	20789.7
624.89015	19332.1
628.87913	19212.6
632.86528	19443.1
636.84862	19444.8
640.82913	19113.3
644.80683	18683.3
648.78172	18381.5
652.75379	18312.1
656.72306	18401
660.68952	18561.3
664.65319	18390.1
668.61405	18164.9
672.57211	18113.8
676.52738	18234.2
680.47986	18235.3
684.42955	18207.9
688.37646	18127.6
692.32058	18159.5
696.26192	18398.6
700.20048	18701.5
704.13626	18893.6
708.06928	18998.9
711.99952	19059
715.927	19063.1
719.85171	18997.3
723.77365	18863.6
727.69284	18552.1
731.60928	18278.6
735.52295	18150.8
739.43388	18109.3
743.34206	18151.5
747.24749	18305.9
751.15017	18553.4
755.05012	18993.5
758.94733	19653.5
762.8418	20657.2
766.73354	21981.8
770.62254	23029
774.50882	22928.7
778.39237	21709.6
782.27321	20211.8
786.15132	19039.2
790.02671	18369.3
793.89938	18013.7
797.76935	17879.2
801.6366	17820.9
805.50115	17801.9
809.36299	17726.4
813.22213	17621.9
817.07857	17611.5
820.93231	17567.4
824.78336	17385.7
828.63172	17175.7
832.47738	17031.5
836.32036	16979.3
840.16066	16991.5
843.99827	16961.7
847.8332	16921.8
851.66546	16916.4
855.49504	16955.3
859.32195	16902.2
863.1462	16856.8
866.96777	16794.2
870.78668	16756.2
874.60293	16763.5
878.41652	16768.3
882.22745	16786.2
886.03573	16821.4
889.84136	16822.2
893.64433	16765.7
897.44466	16734
901.24235	16664.6
905.0374	16614.2
908.8298	16570
912.61957	16696.2
916.40671	16988.5
920.19121	17360.1
923.97308	17535.8
927.75233	17365.3
931.52895	17017.3
935.30295	16622.7
939.07433	16230.2
942.84309	15941.2
946.60924	15786.6
950.37278	15742.1
954.13371	15799.1
957.89203	15817.8
961.64774	15877.9
965.40086	15875.6
969.15137	15759.1
972.89929	15585.7
976.64461	15385.7
980.38733	15315
984.12747	15287.1
987.86502	15325.9
991.59999	15380.5
995.33237	15496.4
999.06217	15670.9
1002.78939	15969.3
1006.51404	16246.5
1010.23611	16562.1
1013.95561	16802.4
1017.67255	16917.5
1021.38692	16753.5
1025.09872	16441.9
1028.80796	16186.9
1032.51465	16049.6
1036.21877	16033.4
1039.92035	16173.4
1043.61937	16255
1047.31584	16351.7
1051.00976	16468.1
1054.70114	16613.7
1058.38998	16810.4
1062.07627	17064.4
1065.76003	17365.5
1069.44126	17633.2
1073.11995	17896.9
1076.79611	18088.6
1080.46974	18132.7
1084.14085	18190.1
1087.80943	18324.8
1091.47549	18557.7
1095.13903	18775.7
1098.80005	18583.6
1102.45857	18072.4
1106.11456	17583.8
1109.76805	17271
1113.41903	17233.3
1117.06751	17348.3
1120.71348	17543.5
1124.35696	17829.2
1127.99793	18114.1
1131.63641	18357.9
1135.2724	18365.5
1138.90589	18366.5
1142.5369	18596.5
1146.16542	18956.5
1149.79145	19380.2
1153.415	19870.3
1157.03607	20360.1
1160.65467	21228.6
1164.27079	22593.1
1167.88443	24073.3
1171.49561	25544.3
1175.10432	27181.8
1178.71056	29145.4
1182.31434	30915.4
1185.91565	31733.3
1189.51451	31409
1193.11091	30709.1
1196.70485	29854.4
1200.29634	28840.9
1203.88538	28380.2
1207.47197	28443.6
1211.05612	28577.9
1214.63782	28025.4
1218.21708	26857.9
1221.79391	25442.5
1225.36829	24428.7
1228.94024	23755.3
1232.50976	23302.6
1236.07685	22917
1239.6415	22723.6
1243.20374	22733.9
1246.76355	22983.9
1250.32093	23304.3
1253.8759	23850.6
1257.42845	24560.3
1260.97859	25296.6
1264.52631	26111.3
1268.07163	26886
1271.61453	27703.8
1275.15503	28654.7
1278.69312	29830
1282.22882	31220.2
1285.76211	32905.6
1289.29301	35029.1
1292.82151	37534.2
1296.34761	40475.7
1299.87133	43500.9
1303.39266	46110.7
1306.9116	47785
1310.42815	48853.7
1313.94233	49184.7
1317.45412	48960.3
1320.96354	48512.3
1324.47058	48359.8
1327.97525	48419
1331.47754	48366.9
1334.97747	48110.5
1338.47502	47325.4
1341.97022	46129.2
1345.46305	44770.8
1348.95352	43543.8
1352.44163	42847.8
1355.92738	43047.4
1359.41078	43987.9
1362.89183	44614.8
1366.37053	43679
1369.84688	40713.6
1373.32088	36659.6
1376.79254	33996.9
1380.26186	33473.4
1383.72883	34201
1387.19347	34853.1
1390.65578	35022.5
1394.11575	35276.5
1397.57339	35994.2
1401.0287	36810
1404.48168	37176.2
1407.93234	36664.1
1411.38068	35205.6
1414.82669	33103.7
1418.27039	30900
1421.71177	28910.6
1425.15083	27355.8
1428.58758	26625.4
1432.02203	26854.8
1435.45416	27891.2
1438.88399	29192.1
1442.31151	30186.5
1445.73673	30941.9
1449.15965	31536.9
1452.58027	31915
1455.9986	32051.2
1459.41463	32242.4
1462.82837	32588.2
1466.23982	32940.1
1469.64898	33356.4
1473.05586	33389.1
1476.46045	33236.9
1479.86276	32799.5
1483.26279	32099.4
1486.66054	31662.9
1490.05602	31541.9
1493.44922	31682.7
1496.84016	31970.7
1500.22882	32333.1
1503.61521	32911.3
1506.99934	33630.3
1510.38121	34210.7
1513.76081	34522.3
1517.13816	34434.8
1520.51324	34306.5
1523.88607	34495.5
1527.25665	34952.4
1530.62498	35439.4
1533.99105	35424.8
1537.35488	34788.2
1540.71647	33643.7
1544.07581	32230.1
1547.4329	30775.6
1550.78776	29528.6
1554.14038	28661.2
1557.49077	28143.2
1560.83892	27886.1
1564.18484	27803.6
1567.52853	27934.3
1570.86999	28425.3
1574.20922	29440.7
1577.54624	30568.7
1580.88103	31508.1
1584.2136	32525.1
1587.54395	33977.5
1590.87208	35818.3
1594.19801	37784.5
1597.52172	39301
1600.84321	39209.4
1604.16251	36770.3
1607.47959	33096.9
1610.79447	29344.2
1614.10715	26222.8
1617.41763	23878.5
1620.7259	22346.8
1624.03199	21656.1
1627.33587	21814.4
1630.63757	22822.8
1633.93707	24879.4
1637.23439	28179.3
1640.52951	32998.9
1643.82246	38525.4
1647.11321	42907.7
1650.40179	43451.4
1653.68819	39538.5
1656.97241	33267.5
1660.25446	27252.5
1663.53433	22752.5
1666.81203	19818.1
1670.08756	17928.7
1673.36092	16769.1
1676.63211	16011.6
1679.90115	15509.1
1683.16801	15118.8
1686.43272	14840.9
1689.69527	14602.3
1692.95567	14456.1
1696.2139	14335.9
1699.46999	14253.4
1702.72392	14156
1705.97571	14079.9
1709.22535	13961.2
1712.47284	13927.6
1715.71819	13865.4
1718.96139	13794.4
1722.20246	13728
1725.44139	13594.8
1728.67818	13494.6
1731.91284	13410.6
1735.14537	13333.5
1738.37576	13252.6
1741.60403	13191
1744.83017	13130.5
1748.05418	13091
1751.27607	13077.3
1754.49584	13090.2
1757.71349	13090.4
1760.92903	13043.2
1764.14244	13022.7
1767.35375	12996
1770.56294	12954.4
1773.77002	12903.6
1776.97499	12861.9
1780.17785	12771.9
1783.37861	12753.1
1786.57727	12701
1789.77382	12689.5
1792.96828	12622.4
1796.16064	12594.4
1799.3509	12581.8
1802.53907	12511.8
1805.72514	12483.4
1808.90913	12420.2
1812.09102	12417.7
1815.27083	12389.9
1818.44856	12336.5
1821.6242	12311.5
1824.79776	12294.3
1827.96924	12255.8
1831.13864	12234.9
1834.30597	12287.1
1837.47122	12286
1840.6344	12257.8
1843.7955	12257.9
1846.95454	12213.6
1850.11151	12223.8
1853.26642	12213.4
1856.41926	12200.6
1859.57004	12179.4
1862.71876	12132.4
1865.86542	12140.7
1869.01003	12100.2
1872.15258	12078.4
1875.29308	12064.6
1878.43152	12040.4
1881.56792	12057.6
1884.70227	11987.9
1887.83457	11985.9
1890.96482	11945.2
1894.09304	11940.6
1897.21921	11941.8
1900.34335	11902.3
1903.46544	11867.4
1906.58551	11880.2
1909.70353	11860.4
1912.81953	11807.5
1915.93349	11793.1
1919.04543	11750.7
1922.15534	11703.1
1925.26322	11693.4
1928.36908	11646
1931.47292	11601.2
1934.57473	11587.5
1937.67453	11552.2
1940.77232	11506.6
1943.86808	11457.9
1946.96184	11437.5
1950.05358	11417.8
1953.14331	11369.5
1956.23103	11341.3
1959.31675	11301.7
1962.40046	11245.4
1965.48217	11210.2
1968.56188	11177.4
1971.63959	11137.9
1974.7153	11092.9
1977.78901	11081.3
1980.86073	11033
1983.93046	11000.6
1986.99819	10953.3
1990.06394	10932
1993.1277	10887.5
1996.18947	10835.7
1999.24925	10807
2002.30706	10755.8
2005.36288	10722.1
2008.41672	10667.2
2011.46859	10639.7
2014.51848	10590.3
2017.56639	10552.5
2020.61233	10569.2
2023.6563	10522.4
2026.6983	10519.6
2029.73833	10500
2032.7764	10483.3
2035.8125	10452.6
2038.84664	10399.3
2041.87881	10400.1
2044.90903	10335
2047.93729	10326.1
2050.96359	10327.3
2053.98794	10307.7
2057.01034	10289.6
2060.03078	10303
2063.04927	10287
2066.06582	10263.8
2069.08042	10263
2072.09307	10251.7
2075.10378	10234.1
2078.11255	10228
2081.11938	10200.4
2084.12426	10212.5
2087.12722	10207.1
2090.12824	10181.4
2093.12732	10177.7
2096.12447	10194.4
2099.11969	10214.6
2102.11299	10204.9
2105.10435	10150.9
2108.09379	10183.2
2111.08131	10164.3
2114.0669	10179.7
2117.05057	10186.3
2120.03233	10182
2123.01216	10190.8
2125.99008	10170.8
2128.96609	10173.7
2131.94018	10154.5
2134.91236	10162
2137.88263	10156.7
2140.851	10155.6
2143.81746	10152.7
2146.78201	10123.6
2149.74466	10123
2152.7054	10129.5
2155.66425	10124.3
2158.6212	10115.4
2161.57625	10090.6
2164.52941	10064.9
2167.48067	10049.4
2170.43004	10054.7
2173.37752	10053.9
2176.32311	10041.8
2179.26681	10058.3
2182.20863	10066
2185.14856	10059.1
2188.08661	10050.6
2191.02278	10020.8
2193.95707	10022.4
2196.88948	9994.4
2199.82001	9975
2202.74867	9948.7
2205.67545	9940.9
2208.60037	9910.1
2211.52341	9908.8
2214.44458	9896.1
2217.36388	9860.9
2220.28132	9863.9
2223.1969	9837.6
2226.11061	9842.8
2229.02246	9807.3
2231.93245	9791.9
2234.84058	9766.1
2237.74686	9762
2240.65128	9741.3
2243.55385	9695.2
2246.45456	9719.2
2249.35343	9661.3
2252.25044	9603.6
2255.14561	9576.1
2258.03893	9548.8
2260.93041	9557.8
2263.82004	9506.7
2266.70783	9477.7
2269.59378	9444.5
2272.4779	9416.1
2275.36017	9393.7
2278.24061	9389.2
2281.11922	9361.2
2283.996	9345.4
2286.87094	9308.5
2289.74405	9303
2292.61534	9289.2
2295.4848	9286.8
2298.35243	9264.1
2301.21824	9254.2
2304.08223	9217.9
2306.94439	9217.7
2309.80474	9222
2312.66327	9217.7
2315.51999	9207.6
2318.37489	9199.5
2321.22797	9180.5
2324.07925	9153.9
2326.92871	9155.1
2329.77637	9141.7
2332.62222	9131.2
2335.46626	9093.2
2338.3085	9086.8
2341.14893	9084.3
2343.98756	9086.5
2346.8244	9081.9
2349.65943	9073.3
2352.49267	9057
2355.32411	9101.9
2358.15376	9070
2360.98161	9047.8
2363.80768	9053.4
2366.63195	9024.5
2369.45444	9035.6
2372.27514	9022.3
2375.09405	8994.4
2377.91118	8961.1
2380.72652	8976.5
2383.54009	8945.5
2386.35187	8920.7
2389.16188	8896.5
2391.97011	8874.1
2394.77657	8841.2
2397.58125	8846.1
2400.38416	8836.3
2403.18529	8812
2405.98466	8809.4
2408.78226	8794.7
2411.57809	8793.1
2414.37216	8771.4
2417.16446	8783.5
2419.955	8745.7
2422.74378	8764.2
2425.5308	8749.8
2428.31606	8742.8
2431.09956	8719.8
2433.88131	8718.3
2436.6613	8712.4
2439.43954	8676.5
2442.21603	8683.3
2444.99077	8668.7
2447.76377	8673.6
2450.53501	8668.1
2453.30451	8664.6
2456.07226	8669
2458.83827	8661.2
2461.60254	8663.3
2464.36507	8621.8
2467.12586	8649
2469.88492	8654.1
2472.64224	8615.3
2475.39782	8613.8
2478.15167	8653.7
2480.90379	8640.2
2483.65417	8620.2
2486.40283	8617.5
2489.14976	8632.1
2491.89497	8620.7
2494.63845	8623.2
2497.3802	8610.7
2500.12024	8595.6
2502.85855	8622
2505.59514	8629.2
2508.33002	8604.5
2511.06318	8587.4
2513.79462	8572.7
2516.52435	8576.1
2519.25237	8557.3
2521.97867	8544.3
2524.70327	8548.2
2527.42616	8546.8
2530.14734	8517
2532.86681	8513.3
2535.58458	8496.4
2538.30065	8477.7
2541.01501	8472.2
2543.72768	8469.9
2546.43864	8467.9
2549.14791	8451.2
2551.85548	8432.6
2554.56136	8429.9
2557.26554	8428.4
2559.96803	8418.8
2562.66883	8415
2565.36794	8423.2
2568.06536	8429.1
2570.7611	8409.3
2573.45514	8399.4
2576.14751	8400.2
2578.83819	8380.7
2581.52719	8377.4
2584.21451	8351.3
2586.90015	8366.1
2589.58411	8342
2592.2664	8370.5
2594.94701	8326.8
2597.62594	8343.4
2600.30321	8330.6
2602.9788	8349.7
2605.65273	8323.7
2608.32498	8349.9
2610.99557	8333.5
2613.66449	8342.2
2616.33175	8329.7
2618.99734	8330.9
2621.66128	8341.4
2624.32355	8322
2626.98416	8329.6
2629.64311	8318.5
2632.30041	8311.9
2634.95605	8278.8
2637.61004	8277
2640.26238	8285.2
2642.91306	8296.7
2645.56209	8263.2
2648.20948	8285.3
2650.85521	8272.5
2653.4993	8284.9
2656.14175	8292.4
2658.78255	8302
2661.42171	8302.3
2664.05923	8314.5
2666.6951	8321.7
2669.32934	8295.6
2671.96194	8292.8
2674.59291	8291.8
2677.22224	8285.2
2679.84993	8282.3
2682.476	8291.1
2685.10043	8315
2687.72324	8294.3
2690.34441	8287.7
2692.96396	8297.1
2695.58188	8301.6
2698.19818	8278
2700.81285	8295.3
2703.4259	8307.9
2706.03733	8340.3
2708.64714	8324.3
2711.25533	8329.7
2713.86191	8317.8
2716.46687	8329.6
2719.07021	8322
2721.67194	8330.4
2724.27206	8316.8
2726.87057	8311.6
2729.46747	8351.7
2732.06276	8325.8
2734.65644	8336.3
2737.24852	8360.5
2739.83899	8298.2
2742.42786	8340.6
2745.01513	8319
2747.60079	8305.7
2750.18486	8298.7
2752.76733	8315.4
2755.3482	8290.8
2757.92747	8342.9
2760.50515	8312
2763.08123	8322
2765.65573	8322.8
2768.22863	8314.6
2770.79994	8310.8
2773.36967	8306.9
2775.9378	8302.2
2778.50435	8306.3
2781.06932	8299.8
2783.6327	8294.2
2786.1945	8312.6
2788.75471	8281.9
2791.31335	8300.3
2793.87041	8253.1
2796.42589	8219.8
2798.97979	8248.5
2801.53212	8218.4
2804.08288	8209.6
2806.63206	8198.9
2809.17967	8186.4
2811.72571	8171.6
2814.27018	8168.1
2816.81308	8131.6
2819.35442	8129.2
2821.89419	8121.4
2824.43239	8120.7
2826.96904	8102.2
2829.50412	8101.2
2832.03763	8110.5
2834.56959	8101.6
2837.1	8099
2839.62884	8127.9
2842.15613	8110.4
2844.68186	8174
2847.20604	8204
2849.72867	8211.9
2852.24974	8221.4
2854.76927	8196
2857.28724	8186.6
2859.80367	8159.7
2862.31855	8138.1
2864.83189	8122
2867.34368	8120.9
2869.85393	8114.6
2872.36264	8095.3
2874.8698	8086.9
2877.37543	8082.1
2879.87952	8106.3
2882.38207	8070.2
2884.88308	8065.1
2887.38256	8063.1
2889.88051	8042.2
2892.37692	8069.8
2894.8718	8077.7
2897.36515	8112.4
2899.85698	8087.7
2902.34727	8112.7
2904.83604	8110.8
2907.32328	8126
2909.809	8114.3
2912.29319	8117.3
2914.77587	8121.3
2917.25702	8109.1
2919.73665	8110.3
2922.21476	8103.4
2924.69136	8108.6
2927.16644	8108.3
2929.64	8097
2932.11205	8077.2
2934.58258	8083.5
2937.05161	8071.9
2939.51912	8075.2
2941.98513	8042.5
2944.44962	8013.5
2946.91261	7981.3
2949.37409	7973.6
2951.83407	7953.1
2954.29254	7929
2956.74951	7918.9
2959.20498	7893.7
2961.65895	7883.7
2964.11142	7861.2
2966.56239	7845.7
2969.01186	7814.2
2971.45984	7786.8
2973.90632	7774.6
2976.35131	7738
2978.7948	7711.4
2981.23681	7706.1
2983.67732	7700.1
2986.11635	7667.2
2988.55388	7608.8
2990.98993	7582.9
2993.4245	7569.1
2995.85758	7565.2
2998.28917	7531.5
3000.71928	7505.8
3003.14791	7508.9
3005.57506	7486.3
3008.00073	7447.3
3010.42493	7463.8
3012.84764	7422.5
3015.26888	7421.5
3017.68865	7386.8
3020.10694	7395.2
3022.52376	7368.4
3024.9391	7357.6
3027.35298	7342.5
3029.76539	7317.6
3032.17632	7313.9
3034.5858	7284
3036.9938	7292
3039.40034	7300.3
3041.80542	7268.9
3044.20903	7241.4
3046.61118	7257.6
3049.01187	7234.5
3051.4111	7225.1
3053.80888	7216.5
3056.20519	7193.9
3058.60005	7175.6
3060.99345	7163.4
3063.3854	7138.4
3065.7759	7106.7
3068.16494	7094.7
3070.55254	7027.3
3072.93868	7039.4
3075.32338	6988.3
3077.70662	6997.5
3080.08842	6968.8
3082.46878	6958.4
3084.84769	6965
3087.22515	6947.6
3089.60118	6928.4
3091.97576	6918.8
3094.3489	6923.8
3096.72061	6893.1
3099.09087	6889.6
3101.4597	6877.4
3103.82709	6896
3106.19305	6921.2
3108.55757	6870.6
3110.92066	6814.6
3113.28232	6813.9
3115.64255	6793.4
3118.00134	6793.5
3120.35871	6772.7
3122.71466	6743.1
3125.06917	6731.7
3127.42226	6735.3
3129.77393	6734.8
3132.12417	6707.1
3134.47299	6716.2
3136.82039	6704.5
3139.16636	6703.6
3141.51092	6701.5
3143.85406	6713.7
3146.19579	6704.7
3148.53609	6686
3150.87499	6704.9
3153.21246	6695.4
3155.54853	6686.9
3157.88318	6691.8
3160.21642	6683.3
3162.54826	6679.3
3164.87868	6695.7
3167.2077	6677.7
3169.5353	6666.9
3171.86151	6670.6
3174.18631	6669.1
3176.5097	6655.7
3178.83169	6654.6
3181.15228	6643.8
3183.47147	6618.4
3185.78926	6634.6
3188.10565	6632.7
3190.42065	6613.5
3192.73424	6597.6
3195.04645	6614.2
3197.35725	6601.2
3199.66667	6584.5
3201.97469	6601.8
3204.28132	6592.2
3206.58656	6585.1
3208.8904	6603
3211.19287	6581.3
3213.49394	6569.7
3215.79363	6576.3
3218.09193	6556.1
3220.38884	6549.7
3222.68438	6572.1
3224.97853	6545.6
3227.2713	6570.9
3229.56269	6559.3
3231.8527	6523.7
3234.14133	6535.2
3236.42858	6513.9
3238.71446	6531.2
3240.99896	6503.8
3243.28209	6482.5
3245.56384	6476.2
3247.84423	6500.1
3250.12324	6452.5
3252.40088	6451
3254.67715	6450.1
3256.95205	6432.2
3259.22558	6403.4
3261.49775	6377.1
3263.76855	6377
3266.03799	6349.7
3268.30606	6343.6
3270.57277	6313.9
3272.83812	6314.5
3275.10211	6307.2
3277.36474	6281.3
3279.62601	6297.5
3281.88593	6269.7
3284.14448	6296.1
3286.40168	6277.3
3288.65753	6279.9
3290.91202	6289.7
3293.16516	6270.8
3295.41695	6242.5
3297.66738	6195.6
3299.91647	6174.9
3302.16421	6110.1
3304.4106	6096.5
3306.65564	6042.7
3308.89933	6014.9
3311.14169	5975
3313.38269	5908.6
3315.62236	5858.1
3317.86068	5818.9
3320.09766	5743.8
3322.3333	5687.8
3324.5676	5697.9
3326.80056	5606.9
3329.03219	5557.3
3331.26248	2
3333.49143	-1.1
3335.71905	-1.5
