Data from AgNPs_FTO_APTES_UA_2uM_CRN_5uM_R6G_10uM_NaF_0.1M_Addition_RamanShift__32__13-15-45-133.txt Node

Date: Wed Feb 02 13:15:45 GMT 2022
User: TCL
Spectrometer: QEP01345
Trigger mode: 4
Integration Time (sec): 7.000000E0
Scans to average: 10
Electric dark correction enabled: true
Nonlinearity correction enabled: false
Boxcar width: 0
XAxis mode: Raman Shifts
Number of Pixels in Spectrum: 1044
>>>>>Begin Spectral Data<<<<<
46.04893	1.5125
50.45542	1.5125
54.85868	-0.0875
59.25871	0.1125
63.6555	35.1125
68.04907	38.6125
72.43941	38.5125
76.82654	44.0125
81.21044	43.4125
85.59113	45.3125
89.96862	47.8125
94.34289	48.7125
98.71396	50.5125
103.08183	57.6125
107.4465	57.2125
111.80798	60.1125
116.16626	60.1125
120.52136	58.0125
124.87327	63.0125
129.222	65.6125
133.56755	71.5125
137.90993	70.4125
142.24913	85.0125
146.58517	92.1125
150.91804	109.6125
155.24774	130.6125
159.57429	158.7125
163.89768	205.8125
168.21792	273.1125
172.53501	369.4125
176.84895	513.8125
181.15975	722.0125
185.46741	1003.6125
189.77193	1370.6125
194.07331	1847.5125
198.37157	2364.4125
202.6667	2934.1125
206.9587	3471.2125
211.24758	4037.3125
215.53334	4634.2125
219.81599	5293.9125
224.09553	6082.7125
228.37195	6950.1125
232.64527	7896.6125
236.91549	8780.1125
241.18261	9543.5125
245.44663	10111.3125
249.70755	10500.7125
253.96539	10842.4125
258.22014	11183.6125
262.4718	11528.4125
266.72039	11813.3125
270.96589	12002.5125
275.20832	12011.6125
279.44768	11900.7125
283.68397	11764.5125
287.91719	11710.0125
292.14735	11790.1125
296.37445	12197.1125
300.59849	12736.8125
304.81948	13466.4125
309.03742	14075.3125
313.25231	14048.7125
317.46415	13259.1125
321.67296	11947.1125
325.87872	10818.4125
330.08145	10248.7125
334.28114	10152.6125
338.47781	10347.3125
342.67145	10704.6125
346.86207	11303.4125
351.04966	12223.3125
355.23424	13211.3125
359.4158	14012.9125
363.59435	14305.5125
367.76989	14345.5125
371.94243	14212.2125
376.11196	13994.8125
380.27849	13793.2125
384.44203	13551.1125
388.60257	13267.5125
392.76012	13130.8125
396.91468	13243.7125
401.06626	13649.1125
405.21485	14003.0125
409.36047	13663.5125
413.50311	12692.7125
417.64277	11787.2125
421.77947	11248.0125
425.9132	11024.2125
430.04396	10970.3125
434.17176	10961.4125
438.2966	11122.4125
442.41849	11391.7125
446.53742	11747.6125
450.6534	12127.6125
454.76644	12371.0125
458.87653	12378.7125
462.98368	12249.3125
467.08789	12005.8125
471.18916	11659.8125
475.2875	11298.1125
479.38291	10996.4125
483.4754	10753.9125
487.56496	10592.5125
491.6516	10483.1125
495.73531	10481.8125
499.81612	10519.6125
503.89401	10702.2125
507.96899	10920.9125
512.04106	11089.8125
516.11023	11328.3125
520.1765	11489.6125
524.23987	11399.4125
528.30034	11077.7125
532.35792	10751.2125
536.41261	10402.7125
540.46441	10020.2125
544.51333	9879.6125
548.55936	9964.8125
552.60252	10309.4125
556.64279	10702.3125
560.6802	10923.6125
564.71473	11200.9125
568.7464	11876.0125
572.7752	12308.5125
576.80114	11871.4125
580.82422	11278.7125
584.84444	11028.8125
588.86181	10859.7125
592.87633	10788.2125
596.888	10910.9125
600.89682	11463.3125
604.9028	13377.9125
608.90594	18477.4125
612.90624	25167.4125
616.90371	24209.7125
620.89834	15416.9125
624.89015	11169.7125
628.87913	10398.3125
632.86528	10481.6125
636.84862	10768.7125
640.82913	10588.5125
644.80683	9919.2125
648.78172	9486.6125
652.75379	9592.2125
656.72306	10233.2125
660.68952	11017.8125
664.65319	10864.2125
668.61405	10021.3125
672.57211	9595.7125
676.52738	9558.6125
680.47986	9551.3125
684.42955	9385.0125
688.37646	9335.0125
692.32058	9354.5125
696.26192	9497.4125
700.20048	9694.7125
704.13626	9854.2125
708.06928	9857.9125
711.99952	9744.3125
715.927	9671.9125
719.85171	9694.9125
723.77365	9670.9125
727.69284	9493.1125
731.60928	9366.5125
735.52295	9350.7125
739.43388	9385.9125
743.34206	9455.6125
747.24749	9514.5125
751.15017	9662.9125
755.05012	9958.3125
758.94733	10643.9125
762.8418	12289.5125
766.73354	15164.2125
770.62254	18185.1125
774.50882	19670.0125
778.39237	18643.5125
782.27321	15598.9125
786.15132	12543.1125
790.02671	10771.1125
793.89938	9958.7125
797.76935	9620.5125
801.6366	9466.0125
805.50115	9353.3125
809.36299	9279.3125
813.22213	9223.0125
817.07857	9181.9125
820.93231	9194.9125
824.78336	9204.7125
828.63172	9274.6125
832.47738	9296.8125
836.32036	9277.8125
840.16066	9198.8125
843.99827	9085.5125
847.8332	9037.1125
851.66546	9031.2125
855.49504	9024.1125
859.32195	8991.1125
863.1462	8898.7125
866.96777	8840.9125
870.78668	8836.9125
874.60293	8862.2125
878.41652	8873.1125
882.22745	8950.7125
886.03573	9036.6125
889.84136	9003.2125
893.64433	8943.1125
897.44466	8898.4125
901.24235	8893.3125
905.0374	8861.5125
908.8298	8831.0125
912.61957	8832.1125
916.40671	8875.5125
920.19121	9012.3125
923.97308	9142.6125
927.75233	9264.2125
931.52895	9403.9125
935.30295	9254.4125
939.07433	8858.2125
942.84309	8534.8125
946.60924	8287.6125
950.37278	8191.1125
954.13371	8122.0125
957.89203	8069.1125
961.64774	8074.7125
965.40086	8044.0125
969.15137	8006.2125
972.89929	7975.2125
976.64461	7954.2125
980.38733	7967.9125
984.12747	7977.7125
987.86502	8013.6125
991.59999	8068.4125
995.33237	8195.1125
999.06217	8371.8125
1002.78939	8622.1125
1006.51404	8919.3125
1010.23611	9212.2125
1013.95561	9408.3125
1017.67255	9331.9125
1021.38692	9145.3125
1025.09872	8927.1125
1028.80796	8777.1125
1032.51465	8782.6125
1036.21877	8937.5125
1039.92035	9110.0125
1043.61937	9186.9125
1047.31584	9175.9125
1051.00976	9136.6125
1054.70114	9063.3125
1058.38998	9047.9125
1062.07627	9070.1125
1065.76003	9170.7125
1069.44126	9277.4125
1073.11995	9414.2125
1076.79611	9585.2125
1080.46974	9821.2125
1084.14085	10163.4125
1087.80943	10621.8125
1091.47549	10815.2125
1095.13903	10552.2125
1098.80005	10050.0125
1102.45857	9612.0125
1106.11456	9388.4125
1109.76805	9404.6125
1113.41903	9642.4125
1117.06751	10047.8125
1120.71348	10647.4125
1124.35696	11294.7125
1127.99793	11966.2125
1131.63641	11965.5125
1135.2724	11217.0125
1138.90589	10422.9125
1142.5369	9995.5125
1146.16542	9733.3125
1149.79145	9590.0125
1153.415	9580.7125
1157.03607	9750.1125
1160.65467	10031.7125
1164.27079	10537.2125
1167.88443	11303.7125
1171.49561	12564.4125
1175.10432	14678.0125
1178.71056	17507.7125
1182.31434	19457.6125
1185.91565	19866.6125
1189.51451	19145.5125
1193.11091	17603.2125
1196.70485	15831.3125
1200.29634	14522.3125
1203.88538	13576.8125
1207.47197	12503.3125
1211.05612	11576.2125
1214.63782	11051.9125
1218.21708	10858.7125
1221.79391	10882.1125
1225.36829	11014.6125
1228.94024	11141.0125
1232.50976	11281.0125
1236.07685	11391.0125
1239.6415	11402.4125
1243.20374	11338.4125
1246.76355	11350.3125
1250.32093	11483.8125
1253.8759	11763.3125
1257.42845	12210.1125
1260.97859	12725.5125
1264.52631	13267.5125
1268.07163	13817.1125
1271.61453	14306.6125
1275.15503	14704.9125
1278.69312	14766.7125
1282.22882	14846.5125
1285.76211	15220.7125
1289.29301	15826.3125
1292.82151	16464.6125
1296.34761	17022.2125
1299.87133	17912.6125
1303.39266	19548.4125
1306.9116	22211.2125
1310.42815	25498.6125
1313.94233	27751.2125
1317.45412	27575.1125
1320.96354	25634.1125
1324.47058	23182.4125
1327.97525	21079.2125
1331.47754	19677.3125
1334.97747	19059.8125
1338.47502	18946.5125
1341.97022	19178.5125
1345.46305	19860.3125
1348.95352	21129.5125
1352.44163	22965.8125
1355.92738	25747.7125
1359.41078	30134.8125
1362.89183	34830.0125
1366.37053	34548.5125
1369.84688	28782.9125
1373.32088	22702.5125
1376.79254	18882.0125
1380.26186	17024.3125
1383.72883	16126.8125
1387.19347	15384.5125
1390.65578	14494.2125
1394.11575	13781.5125
1397.57339	13491.3125
1401.0287	13521.1125
1404.48168	13756.6125
1407.93234	13989.3125
1411.38068	14137.4125
1414.82669	14108.9125
1418.27039	13837.7125
1421.71177	13520.3125
1425.15083	13170.1125
1428.58758	12891.9125
1432.02203	12819.5125
1435.45416	12936.5125
1438.88399	13038.4125
1442.31151	13044.6125
1445.73673	13156.4125
1449.15965	13286.6125
1452.58027	13276.6125
1455.9986	13140.7125
1459.41463	13081.2125
1462.82837	13218.9125
1466.23982	13507.8125
1469.64898	13904.4125
1473.05586	14219.4125
1476.46045	14428.8125
1479.86276	14714.5125
1483.26279	15106.0125
1486.66054	15572.7125
1490.05602	16242.5125
1493.44922	17158.7125
1496.84016	18580.0125
1500.22882	20819.6125
1503.61521	23851.7125
1506.99934	27454.5125
1510.38121	30988.7125
1513.76081	33128.6125
1517.13816	31928.1125
1520.51324	27811.0125
1523.88607	23250.9125
1527.25665	19901.9125
1530.62498	17920.9125
1533.99105	16720.2125
1537.35488	15931.5125
1540.71647	15456.6125
1544.07581	15162.1125
1547.4329	14958.2125
1550.78776	14821.5125
1554.14038	14786.4125
1557.49077	14990.8125
1560.83892	15416.6125
1564.18484	16011.0125
1567.52853	16697.3125
1570.86999	17282.6125
1574.20922	17639.1125
1577.54624	17596.2125
1580.88103	16638.3125
1584.2136	15171.2125
1587.54395	14349.5125
1590.87208	14540.0125
1594.19801	15366.1125
1597.52172	16620.5125
1600.84321	17098.7125
1604.16251	16354.5125
1607.47959	15087.4125
1610.79447	13734.1125
1614.10715	12496.9125
1617.41763	11489.4125
1620.7259	10798.3125
1624.03199	10513.4125
1627.33587	10530.0125
1630.63757	10833.4125
1633.93707	11448.9125
1637.23439	12528.2125
1640.52951	14055.8125
1643.82246	16148.4125
1647.11321	18724.5125
1650.40179	20922.1125
1653.68819	20814.4125
1656.97241	17969.5125
1660.25446	14360.4125
1663.53433	11648.2125
1666.81203	10034.0125
1670.08756	9101.6125
1673.36092	8546.1125
1676.63211	8217.9125
1679.90115	7981.5125
1683.16801	7808.6125
1686.43272	7697.9125
1689.69527	7610.9125
1692.95567	7530.7125
1696.2139	7503.1125
1699.46999	7486.2125
1702.72392	7445.4125
1705.97571	7392.5125
1709.22535	7378.5125
1712.47284	7376.3125
1715.71819	7394.5125
1718.96139	7384.3125
1722.20246	7395.5125
1725.44139	7335.2125
1728.67818	7275.9125
1731.91284	7179.6125
1735.14537	7119.5125
1738.37576	7057.2125
1741.60403	7001.4125
1744.83017	6965.7125
1748.05418	6958.7125
1751.27607	6919.3125
1754.49584	6907.1125
1757.71349	6895.1125
1760.92903	6866.5125
1764.14244	6885.4125
1767.35375	6860.3125
1770.56294	6835.3125
1773.77002	6786.3125
1776.97499	6735.3125
1780.17785	6704.9125
1783.37861	6673.0125
1786.57727	6678.2125
1789.77382	6655.2125
1792.96828	6601.7125
1796.16064	6600.4125
1799.3509	6585.7125
1802.53907	6575.3125
1805.72514	6555.7125
1808.90913	6540.9125
1812.09102	6500.3125
1815.27083	6484.7125
1818.44856	6472.8125
1821.6242	6460.6125
1824.79776	6472.5125
1827.96924	6453.5125
1831.13864	6449.9125
1834.30597	6439.5125
1837.47122	6427.3125
1840.6344	6411.0125
1843.7955	6422.7125
1846.95454	6399.5125
1850.11151	6411.4125
1853.26642	6407.8125
1856.41926	6406.1125
1859.57004	6393.1125
1862.71876	6425.7125
1865.86542	6429.1125
1869.01003	6431.2125
1872.15258	6426.7125
1875.29308	6444.7125
1878.43152	6454.3125
1881.56792	6481.2125
1884.70227	6477.3125
1887.83457	6525.3125
1890.96482	6517.0125
1894.09304	6501.9125
1897.21921	6518.7125
1900.34335	6525.6125
1903.46544	6522.7125
1906.58551	6533.9125
1909.70353	6538.7125
1912.81953	6538.2125
1915.93349	6516.0125
1919.04543	6516.7125
1922.15534	6506.9125
1925.26322	6480.4125
1928.36908	6445.0125
1931.47292	6421.0125
1934.57473	6369.2125
1937.67453	6286.2125
1940.77232	6239.7125
1943.86808	6185.2125
1946.96184	6168.4125
1950.05358	6119.8125
1953.14331	6072.7125
1956.23103	6059.5125
1959.31675	6037.3125
1962.40046	6022.0125
1965.48217	5982.8125
1968.56188	5969.7125
1971.63959	5957.2125
1974.7153	5940.1125
1977.78901	5923.3125
1980.86073	5897.3125
1983.93046	5867.9125
1986.99819	5837.8125
1990.06394	5792.7125
1993.1277	5789.6125
1996.18947	5759.7125
1999.24925	5751.0125
2002.30706	5726.9125
2005.36288	5709.9125
2008.41672	5674.6125
2011.46859	5676.7125
2014.51848	5663.7125
2017.56639	5636.9125
2020.61233	5615.0125
2023.6563	5596.3125
2026.6983	5602.1125
2029.73833	5563.0125
2032.7764	5547.6125
2035.8125	5533.7125
2038.84664	5540.7125
2041.87881	5531.5125
2044.90903	5513.6125
2047.93729	5494.4125
2050.96359	5495.4125
2053.98794	5470.8125
2057.01034	5473.7125
2060.03078	5464.9125
2063.04927	5439.0125
2066.06582	5445.4125
2069.08042	5433.1125
2072.09307	5430.5125
2075.10378	5432.4125
2078.11255	5403.3125
2081.11938	5416.8125
2084.12426	5412.2125
2087.12722	5411.9125
2090.12824	5400.0125
2093.12732	5404.1125
2096.12447	5400.7125
2099.11969	5407.6125
2102.11299	5401.1125
2105.10435	5410.5125
2108.09379	5414.9125
2111.08131	5422.7125
2114.0669	5399.5125
2117.05057	5396.3125
2120.03233	5409.8125
2123.01216	5415.2125
2125.99008	5410.5125
2128.96609	5407.9125
2131.94018	5412.5125
2134.91236	5423.7125
2137.88263	5407.7125
2140.851	5407.2125
2143.81746	5394.6125
2146.78201	5396.7125
2149.74466	5386.9125
2152.7054	5393.4125
2155.66425	5370.1125
2158.6212	5384.0125
2161.57625	5382.2125
2164.52941	5371.6125
2167.48067	5378.9125
2170.43004	5353.0125
2173.37752	5368.7125
2176.32311	5367.7125
2179.26681	5346.8125
2182.20863	5349.7125
2185.14856	5365.4125
2188.08661	5348.4125
2191.02278	5356.2125
2193.95707	5322.8125
2196.88948	5327.5125
2199.82001	5317.5125
2202.74867	5317.9125
2205.67545	5326.9125
2208.60037	5293.7125
2211.52341	5304.8125
2214.44458	5299.3125
2217.36388	5283.0125
2220.28132	5256.5125
2223.1969	5241.6125
2226.11061	5239.1125
2229.02246	5205.3125
2231.93245	5220.4125
2234.84058	5196.9125
2237.74686	5192.6125
2240.65128	5200.4125
2243.55385	5174.2125
2246.45456	5175.3125
2249.35343	5176.8125
2252.25044	5175.0125
2255.14561	5159.5125
2258.03893	5151.7125
2260.93041	5150.5125
2263.82004	5144.8125
2266.70783	5133.2125
2269.59378	5114.4125
2272.4779	5107.3125
2275.36017	5103.7125
2278.24061	5082.8125
2281.11922	5056.0125
2283.996	5061.1125
2286.87094	5045.3125
2289.74405	5016.6125
2292.61534	5007.0125
2295.4848	5004.2125
2298.35243	4984.1125
2301.21824	4989.1125
2304.08223	4966.6125
2306.94439	4970.6125
2309.80474	4970.9125
2312.66327	4975.5125
2315.51999	4984.0125
2318.37489	4970.9125
2321.22797	4966.5125
2324.07925	4939.7125
2326.92871	4951.0125
2329.77637	4960.7125
2332.62222	4941.4125
2335.46626	4951.9125
2338.3085	4930.3125
2341.14893	4931.2125
2343.98756	4921.1125
2346.8244	4929.4125
2349.65943	4939.3125
2352.49267	4962.5125
2355.32411	4959.9125
2358.15376	4975.5125
2360.98161	4969.1125
2363.80768	4997.0125
2366.63195	4997.5125
2369.45444	4996.8125
2372.27514	4987.2125
2375.09405	4987.8125
2377.91118	4972.6125
2380.72652	4943.3125
2383.54009	4912.7125
2386.35187	4893.2125
2389.16188	4869.5125
2391.97011	4850.3125
2394.77657	4816.2125
2397.58125	4805.7125
2400.38416	4797.0125
2403.18529	4781.8125
2405.98466	4782.9125
2408.78226	4750.5125
2411.57809	4763.6125
2414.37216	4741.0125
2417.16446	4743.4125
2419.955	4729.3125
2422.74378	4735.7125
2425.5308	4730.5125
2428.31606	4733.8125
2431.09956	4713.9125
2433.88131	4729.2125
2436.6613	4732.6125
2439.43954	4699.0125
2442.21603	4732.6125
2444.99077	4737.1125
2447.76377	4725.1125
2450.53501	4735.2125
2453.30451	4732.3125
2456.07226	4732.3125
2458.83827	4719.7125
2461.60254	4729.4125
2464.36507	4730.8125
2467.12586	4716.9125
2469.88492	4710.8125
2472.64224	4721.2125
2475.39782	4729.1125
2478.15167	4720.3125
2480.90379	4746.6125
2483.65417	4741.7125
2486.40283	4768.1125
2489.14976	4768.7125
2491.89497	4780.1125
2494.63845	4792.4125
2497.3802	4776.5125
2500.12024	4792.6125
2502.85855	4778.6125
2505.59514	4757.4125
2508.33002	4736.0125
2511.06318	4710.9125
2513.79462	4684.2125
2516.52435	4676.1125
2519.25237	4659.2125
2521.97867	4620.5125
2524.70327	4616.3125
2527.42616	4587.4125
2530.14734	4590.7125
2532.86681	4570.8125
2535.58458	4576.4125
2538.30065	4590.9125
2541.01501	4593.2125
2543.72768	4580.5125
2546.43864	4585.6125
2549.14791	4578.9125
2551.85548	4579.8125
2554.56136	4566.3125
2557.26554	4570.2125
2559.96803	4573.6125
2562.66883	4560.3125
2565.36794	4541.1125
2568.06536	4549.3125
2570.7611	4541.1125
2573.45514	4531.4125
2576.14751	4530.9125
2578.83819	4504.1125
2581.52719	4498.0125
2584.21451	4502.1125
2586.90015	4487.0125
2589.58411	4495.9125
2592.2664	4484.8125
2594.94701	4482.1125
2597.62594	4470.0125
2600.30321	4474.1125
2602.9788	4472.0125
2605.65273	4461.9125
2608.32498	4460.5125
2610.99557	4463.2125
2613.66449	4453.2125
2616.33175	4461.4125
2618.99734	4442.0125
2621.66128	4469.4125
2624.32355	4452.5125
2626.98416	4460.4125
2629.64311	4432.1125
2632.30041	4451.5125
2634.95605	4428.6125
2637.61004	4416.6125
2640.26238	4391.9125
2642.91306	4412.7125
2645.56209	4394.9125
2648.20948	4389.3125
2650.85521	4390.2125
2653.4993	4393.3125
2656.14175	4381.0125
2658.78255	4392.6125
2661.42171	4389.3125
2664.05923	4406.8125
2666.6951	4397.9125
2669.32934	4397.6125
2671.96194	4431.8125
2674.59291	4420.9125
2677.22224	4430.9125
2679.84993	4419.5125
2682.476	4425.8125
2685.10043	4419.8125
2687.72324	4414.5125
2690.34441	4435.3125
2692.96396	4441.5125
2695.58188	4433.2125
2698.19818	4430.5125
2700.81285	4444.7125
2703.4259	4423.1125
2706.03733	4440.2125
2708.64714	4436.6125
2711.25533	4421.5125
2713.86191	4439.5125
2716.46687	4463.1125
2719.07021	4430.6125
2721.67194	4463.1125
2724.27206	4451.9125
2726.87057	4438.8125
2729.46747	4453.5125
2732.06276	4455.1125
2734.65644	4440.4125
2737.24852	4438.1125
2739.83899	4431.9125
2742.42786	4419.2125
2745.01513	4406.0125
2747.60079	4384.5125
2750.18486	4399.7125
2752.76733	4386.7125
2755.3482	4374.5125
2757.92747	4366.4125
2760.50515	4374.3125
2763.08123	4361.8125
2765.65573	4346.2125
2768.22863	4361.2125
2770.79994	4348.8125
2773.36967	4339.9125
2775.9378	4353.4125
2778.50435	4344.1125
2781.06932	4348.6125
2783.6327	4329.9125
2786.1945	4342.3125
2788.75471	4339.2125
2791.31335	4325.9125
2793.87041	4331.2125
2796.42589	4315.4125
2798.97979	4328.8125
2801.53212	4330.9125
2804.08288	4337.4125
2806.63206	4316.5125
2809.17967	4330.7125
2811.72571	4313.9125
2814.27018	4352.5125
2816.81308	4343.1125
2819.35442	4335.6125
2821.89419	4364.9125
2824.43239	4356.9125
2826.96904	4380.9125
2829.50412	4364.6125
2832.03763	4377.3125
2834.56959	4395.3125
2837.1	4394.0125
2839.62884	4416.0125
2842.15613	4443.3125
2844.68186	4513.1125
2847.20604	4585.1125
2849.72867	4638.2125
2852.24974	4649.6125
2854.76927	4667.1125
2857.28724	4657.9125
2859.80367	4638.2125
2862.31855	4636.5125
2864.83189	4608.8125
2867.34368	4607.4125
2869.85393	4593.5125
2872.36264	4590.2125
2874.8698	4603.5125
2877.37543	4590.3125
2879.87952	4577.9125
2882.38207	4574.4125
2884.88308	4562.7125
2887.38256	4557.9125
2889.88051	4568.6125
2892.37692	4573.8125
2894.8718	4570.4125
2897.36515	4569.4125
2899.85698	4569.0125
2902.34727	4583.6125
2904.83604	4574.1125
2907.32328	4580.7125
2909.809	4580.4125
2912.29319	4566.6125
2914.77587	4573.3125
2917.25702	4574.0125
2919.73665	4572.6125
2922.21476	4562.9125
2924.69136	4552.5125
2927.16644	4552.4125
2929.64	4522.4125
2932.11205	4520.9125
2934.58258	4492.7125
2937.05161	4465.9125
2939.51912	4466.7125
2941.98513	4424.8125
2944.44962	4379.2125
2946.91261	4322.5125
2949.37409	4314.0125
2951.83407	4279.6125
2954.29254	4270.7125
2956.74951	4226.3125
2959.20498	4251.0125
2961.65895	4227.8125
2964.11142	4200.8125
2966.56239	4196.1125
2969.01186	4180.0125
2971.45984	4155.6125
2973.90632	4137.0125
2976.35131	4123.2125
2978.7948	4110.8125
2981.23681	4103.4125
2983.67732	4080.2125
2986.11635	4057.1125
2988.55388	4041.0125
2990.98993	4047.5125
2993.4245	4015.4125
2995.85758	3997.6125
2998.28917	3983.4125
3000.71928	3975.8125
3003.14791	3974.5125
3005.57506	3971.8125
3008.00073	3964.8125
3010.42493	3963.9125
3012.84764	3948.4125
3015.26888	3938.1125
3017.68865	3952.2125
3020.10694	3941.7125
3022.52376	3937.9125
3024.9391	3916.2125
3027.35298	3914.9125
3029.76539	3913.5125
3032.17632	3904.1125
3034.5858	3887.9125
3036.9938	3885.8125
3039.40034	3886.5125
3041.80542	3872.9125
3044.20903	3865.3125
3046.61118	3851.0125
3049.01187	3853.5125
3051.4111	3847.4125
3053.80888	3835.5125
3056.20519	3824.3125
3058.60005	3816.9125
3060.99345	3809.6125
3063.3854	3823.7125
3065.7759	3792.3125
3068.16494	3798.9125
3070.55254	3767.0125
3072.93868	3767.9125
3075.32338	3765.7125
3077.70662	3747.8125
3080.08842	3729.7125
3082.46878	3719.6125
3084.84769	3706.9125
3087.22515	3691.1125
3089.60118	3689.2125
3091.97576	3700.2125
3094.3489	3683.4125
