Data from AgNPs_FTO_APTES_UA_2uM_CRN_5uM_R6G_10uM_NaF_0.1M_Addition_RamanShift__29__13-12-15-132.txt Node

Date: Wed Feb 02 13:12:15 GMT 2022
User: TCL
Spectrometer: QEP01345
Trigger mode: 4
Integration Time (sec): 7.000000E0
Scans to average: 10
Electric dark correction enabled: true
Nonlinearity correction enabled: false
Boxcar width: 0
XAxis mode: Raman Shifts
Number of Pixels in Spectrum: 1044
>>>>>Begin Spectral Data<<<<<
46.04893	0.1125
50.45542	1.5125
54.85868	-0.0875
59.25871	1.4125
63.6555	34.7125
68.04907	42.1125
72.43941	41.3125
76.82654	48.5125
81.21044	47.6125
85.59113	52.5125
89.96862	49.4125
94.34289	54.8125
98.71396	54.8125
103.08183	61.6125
107.4465	60.1125
111.80798	62.4125
116.16626	64.5125
120.52136	64.9125
124.87327	65.1125
129.222	68.8125
133.56755	73.2125
137.90993	81.4125
142.24913	87.2125
146.58517	98.9125
150.91804	114.4125
155.24774	135.6125
159.57429	168.6125
163.89768	215.6125
168.21792	282.5125
172.53501	385.3125
176.84895	531.7125
181.15975	741.1125
185.46741	1043.1125
189.77193	1421.2125
194.07331	1899.1125
198.37157	2454.2125
202.6667	3013.6125
206.9587	3579.8125
211.24758	4166.2125
215.53334	4768.0125
219.81599	5424.5125
224.09553	6182.5125
228.37195	7016.9125
232.64527	7937.0125
236.91549	8860.1125
241.18261	9661.6125
245.44663	10313.4125
249.70755	10824.3125
253.96539	11280.6125
258.22014	11694.8125
262.4718	12129.5125
266.72039	12424.6125
270.96589	12614.2125
275.20832	12681.5125
279.44768	12628.3125
283.68397	12572.5125
287.91719	12555.8125
292.14735	12636.2125
296.37445	12886.2125
300.59849	13239.7125
304.81948	13736.6125
309.03742	14085.4125
313.25231	14022.3125
317.46415	13339.9125
321.67296	12269.5125
325.87872	11385.3125
330.08145	10977.4125
334.28114	10901.2125
338.47781	11042.2125
342.67145	11357.9125
346.86207	11842.1125
351.04966	12584.2125
355.23424	13392.1125
359.4158	13987.4125
363.59435	14256.9125
367.76989	14303.9125
371.94243	14172.3125
376.11196	13994.4125
380.27849	13841.0125
384.44203	13658.9125
388.60257	13461.3125
392.76012	13434.3125
396.91468	13637.6125
401.06626	14067.3125
405.21485	14394.7125
409.36047	14152.8125
413.50311	13443.1125
417.64277	12742.1125
421.77947	12378.7125
425.9132	12231.6125
430.04396	12196.3125
434.17176	12259.0125
438.2966	12351.3125
442.41849	12606.0125
446.53742	12946.4125
450.6534	13301.9125
454.76644	13525.2125
458.87653	13597.8125
462.98368	13511.3125
467.08789	13294.4125
471.18916	13001.7125
475.2875	12645.4125
479.38291	12395.8125
483.4754	12203.0125
487.56496	12054.4125
491.6516	11951.5125
495.73531	11950.0125
499.81612	11984.6125
503.89401	12130.1125
507.96899	12290.2125
512.04106	12399.4125
516.11023	12509.4125
520.1765	12547.0125
524.23987	12443.7125
528.30034	12192.6125
532.35792	11912.5125
536.41261	11644.5125
540.46441	11342.6125
544.51333	11279.1125
548.55936	11418.4125
552.60252	11734.2125
556.64279	12067.4125
560.6802	12251.4125
564.71473	12467.8125
568.7464	12991.7125
572.7752	13412.5125
576.80114	13193.7125
580.82422	12890.2125
584.84444	12764.0125
588.86181	12595.3125
592.87633	12464.6125
596.888	12532.9125
600.89682	13010.7125
604.9028	14663.1125
608.90594	18737.1125
612.90624	23911.1125
616.90371	22865.7125
620.89834	15876.5125
624.89015	12520.7125
628.87913	11883.1125
632.86528	11993.0125
636.84862	12152.5125
640.82913	11993.8125
644.80683	11434.3125
648.78172	11036.3125
652.75379	11134.6125
656.72306	11668.2125
660.68952	12340.9125
664.65319	12237.6125
668.61405	11566.2125
672.57211	11249.5125
676.52738	11202.9125
680.47986	11161.3125
684.42955	11055.5125
688.37646	10993.0125
692.32058	11072.0125
696.26192	11218.9125
700.20048	11424.2125
704.13626	11618.2125
708.06928	11642.5125
711.99952	11510.6125
715.927	11381.1125
719.85171	11348.8125
723.77365	11284.1125
727.69284	11131.3125
731.60928	10990.0125
735.52295	10924.4125
739.43388	10974.7125
743.34206	11085.2125
747.24749	11172.3125
751.15017	11334.0125
755.05012	11631.6125
758.94733	12309.1125
762.8418	13736.4125
766.73354	16177.6125
770.62254	18676.3125
774.50882	19662.3125
778.39237	18551.7125
782.27321	16048.6125
786.15132	13553.5125
790.02671	12140.0125
793.89938	11467.5125
797.76935	11180.5125
801.6366	11022.6125
805.50115	10951.3125
809.36299	10869.7125
813.22213	10810.8125
817.07857	10781.4125
820.93231	10781.9125
824.78336	10798.2125
828.63172	10856.4125
832.47738	10852.2125
836.32036	10888.8125
840.16066	10787.8125
843.99827	10724.4125
847.8332	10657.6125
851.66546	10639.5125
855.49504	10647.3125
859.32195	10604.4125
863.1462	10525.1125
866.96777	10494.1125
870.78668	10488.0125
874.60293	10491.9125
878.41652	10480.2125
882.22745	10599.8125
886.03573	10633.1125
889.84136	10638.1125
893.64433	10564.3125
897.44466	10519.5125
901.24235	10523.5125
905.0374	10496.2125
908.8298	10476.3125
912.61957	10497.2125
916.40671	10605.5125
920.19121	10748.9125
923.97308	10872.8125
927.75233	10964.5125
931.52895	10997.0125
935.30295	10830.5125
939.07433	10474.0125
942.84309	10169.2125
946.60924	10021.6125
950.37278	9914.0125
954.13371	9822.3125
957.89203	9802.8125
961.64774	9779.8125
965.40086	9735.8125
969.15137	9714.8125
972.89929	9676.0125
976.64461	9647.3125
980.38733	9628.5125
984.12747	9674.1125
987.86502	9720.8125
991.59999	9806.0125
995.33237	9920.8125
999.06217	10153.7125
1002.78939	10476.6125
1006.51404	10800.1125
1010.23611	11073.3125
1013.95561	11233.8125
1017.67255	11191.3125
1021.38692	10994.8125
1025.09872	10772.5125
1028.80796	10655.1125
1032.51465	10713.1125
1036.21877	10897.0125
1039.92035	11052.1125
1043.61937	11117.4125
1047.31584	11055.3125
1051.00976	10968.6125
1054.70114	10938.9125
1058.38998	10960.2125
1062.07627	11026.4125
1065.76003	11155.3125
1069.44126	11315.2125
1073.11995	11456.0125
1076.79611	11578.4125
1080.46974	11706.3125
1084.14085	11992.8125
1087.80943	12331.7125
1091.47549	12509.6125
1095.13903	12317.8125
1098.80005	11862.1125
1102.45857	11413.1125
1106.11456	11147.1125
1109.76805	11123.5125
1113.41903	11238.8125
1117.06751	11575.7125
1120.71348	12046.2125
1124.35696	12594.0125
1127.99793	13094.5125
1131.63641	13113.1125
1135.2724	12534.6125
1138.90589	11957.2125
1142.5369	11625.1125
1146.16542	11411.1125
1149.79145	11324.8125
1153.415	11341.8125
1157.03607	11509.1125
1160.65467	11806.8125
1164.27079	12295.5125
1167.88443	13013.1125
1171.49561	14126.4125
1175.10432	15993.4125
1178.71056	18409.7125
1182.31434	20110.4125
1185.91565	20519.4125
1189.51451	20064.6125
1193.11091	18912.2125
1196.70485	17394.2125
1200.29634	16171.0125
1203.88538	15279.7125
1207.47197	14306.1125
1211.05612	13429.0125
1214.63782	12995.5125
1218.21708	12868.1125
1221.79391	12908.3125
1225.36829	13107.4125
1228.94024	13352.3125
1232.50976	13569.7125
1236.07685	13702.2125
1239.6415	13662.9125
1243.20374	13544.5125
1246.76355	13530.7125
1250.32093	13655.2125
1253.8759	13926.0125
1257.42845	14348.2125
1260.97859	14831.7125
1264.52631	15328.8125
1268.07163	15835.1125
1271.61453	16284.2125
1275.15503	16721.5125
1278.69312	16922.7125
1282.22882	17101.1125
1285.76211	17527.5125
1289.29301	18135.8125
1292.82151	18703.0125
1296.34761	19225.4125
1299.87133	19983.7125
1303.39266	21378.5125
1306.9116	23664.3125
1310.42815	26404.2125
1313.94233	28380.5125
1317.45412	28355.3125
1320.96354	27028.7125
1324.47058	25261.9125
1327.97525	23644.4125
1331.47754	22642.4125
1334.97747	22144.2125
1338.47502	22041.5125
1341.97022	22244.4125
1345.46305	22611.9125
1348.95352	23345.5125
1352.44163	24524.7125
1355.92738	26484.1125
1359.41078	29807.2125
1362.89183	33289.2125
1366.37053	32841.8125
1369.84688	28312.6125
1373.32088	23594.3125
1376.79254	20557.1125
1380.26186	19026.5125
1383.72883	18293.9125
1387.19347	17561.9125
1390.65578	16793.8125
1394.11575	16211.0125
1397.57339	15978.8125
1401.0287	16021.9125
1404.48168	16298.0125
1407.93234	16629.4125
1411.38068	16811.0125
1414.82669	16722.1125
1418.27039	16388.5125
1421.71177	15912.0125
1425.15083	15532.4125
1428.58758	15264.7125
1432.02203	15150.2125
1435.45416	15230.8125
1438.88399	15260.7125
1442.31151	15268.3125
1445.73673	15380.8125
1449.15965	15477.8125
1452.58027	15445.1125
1455.9986	15300.8125
1459.41463	15263.4125
1462.82837	15452.4125
1466.23982	15748.0125
1469.64898	16108.3125
1473.05586	16438.4125
1476.46045	16688.3125
1479.86276	16981.1125
1483.26279	17351.7125
1486.66054	17797.2125
1490.05602	18385.2125
1493.44922	19261.2125
1496.84016	20523.7125
1500.22882	22358.8125
1503.61521	24729.0125
1506.99934	27397.8125
1510.38121	30044.3125
1513.76081	31518.7125
1517.13816	30558.5125
1520.51324	27446.6125
1523.88607	23933.0125
1527.25665	21456.3125
1530.62498	19895.8125
1533.99105	18907.0125
1537.35488	18258.1125
1540.71647	17826.4125
1544.07581	17521.9125
1547.4329	17317.0125
1550.78776	17074.7125
1554.14038	16992.6125
1557.49077	17141.9125
1560.83892	17476.1125
1564.18484	17969.2125
1567.52853	18455.7125
1570.86999	18826.3125
1574.20922	19001.2125
1577.54624	18917.8125
1580.88103	18107.9125
1584.2136	17056.4125
1587.54395	16582.3125
1590.87208	16971.5125
1594.19801	17936.1125
1597.52172	19084.3125
1600.84321	19506.3125
1604.16251	18682.3125
1607.47959	17336.2125
1610.79447	15966.2125
1614.10715	14683.4125
1617.41763	13670.2125
1620.7259	13009.2125
1624.03199	12720.5125
1627.33587	12769.3125
1630.63757	13091.7125
1633.93707	13788.6125
1637.23439	14928.3125
1640.52951	16400.9125
1643.82246	18213.2125
1647.11321	20157.5125
1650.40179	21581.7125
1653.68819	21185.9125
1656.97241	18667.8125
1660.25446	15559.3125
1663.53433	13214.2125
1666.81203	11780.3125
1670.08756	10928.1125
1673.36092	10405.5125
1676.63211	10064.2125
1679.90115	9831.1125
1683.16801	9652.3125
1686.43272	9527.6125
1689.69527	9437.6125
1692.95567	9366.1125
1696.2139	9349.0125
1699.46999	9316.6125
1702.72392	9270.2125
1705.97571	9250.6125
1709.22535	9207.1125
1712.47284	9185.5125
1715.71819	9224.1125
1718.96139	9197.7125
1722.20246	9209.2125
1725.44139	9159.9125
1728.67818	9113.8125
1731.91284	9003.3125
1735.14537	8928.7125
1738.37576	8879.8125
1741.60403	8833.1125
1744.83017	8776.7125
1748.05418	8746.8125
1751.27607	8753.7125
1754.49584	8736.3125
1757.71349	8738.2125
1760.92903	8708.8125
1764.14244	8714.8125
1767.35375	8681.7125
1770.56294	8652.7125
1773.77002	8613.1125
1776.97499	8584.9125
1780.17785	8550.3125
1783.37861	8518.0125
1786.57727	8515.5125
1789.77382	8479.4125
1792.96828	8489.8125
1796.16064	8466.9125
1799.3509	8438.9125
1802.53907	8427.6125
1805.72514	8390.9125
1808.90913	8381.6125
1812.09102	8349.3125
1815.27083	8312.8125
1818.44856	8316.6125
1821.6242	8316.2125
1824.79776	8309.7125
1827.96924	8309.1125
1831.13864	8307.8125
1834.30597	8279.9125
1837.47122	8304.1125
1840.6344	8266.6125
1843.7955	8256.2125
1846.95454	8278.4125
1850.11151	8276.7125
1853.26642	8261.3125
1856.41926	8271.5125
1859.57004	8279.8125
1862.71876	8299.2125
1865.86542	8310.6125
1869.01003	8325.9125
1872.15258	8330.9125
1875.29308	8348.9125
1878.43152	8361.9125
1881.56792	8375.8125
1884.70227	8395.3125
1887.83457	8434.9125
1890.96482	8445.1125
1894.09304	8435.8125
1897.21921	8458.0125
1900.34335	8460.4125
1903.46544	8453.3125
1906.58551	8444.5125
1909.70353	8465.8125
1912.81953	8462.3125
1915.93349	8471.7125
1919.04543	8465.9125
1922.15534	8454.5125
1925.26322	8448.6125
1928.36908	8400.7125
1931.47292	8337.7125
1934.57473	8261.1125
1937.67453	8197.4125
1940.77232	8112.6125
1943.86808	8054.7125
1946.96184	8016.5125
1950.05358	7956.3125
1953.14331	7917.5125
1956.23103	7856.0125
1959.31675	7833.0125
1962.40046	7805.2125
1965.48217	7767.3125
1968.56188	7742.4125
1971.63959	7714.5125
1974.7153	7700.3125
1977.78901	7688.5125
1980.86073	7639.7125
1983.93046	7622.3125
1986.99819	7573.3125
1990.06394	7550.8125
1993.1277	7518.7125
1996.18947	7470.9125
1999.24925	7499.1125
2002.30706	7453.2125
2005.36288	7428.2125
2008.41672	7392.3125
2011.46859	7372.7125
2014.51848	7351.9125
2017.56639	7334.8125
2020.61233	7324.7125
2023.6563	7297.2125
2026.6983	7275.3125
2029.73833	7267.7125
2032.7764	7229.4125
2035.8125	7211.6125
2038.84664	7200.8125
2041.87881	7194.6125
2044.90903	7162.7125
2047.93729	7169.5125
2050.96359	7139.1125
2053.98794	7113.5125
2057.01034	7108.0125
2060.03078	7097.5125
2063.04927	7104.3125
2066.06582	7074.5125
2069.08042	7100.8125
2072.09307	7065.2125
2075.10378	7091.7125
2078.11255	7068.8125
2081.11938	7072.2125
2084.12426	7063.3125
2087.12722	7065.5125
2090.12824	7055.8125
2093.12732	7040.5125
2096.12447	7045.9125
2099.11969	7054.7125
2102.11299	7026.0125
2105.10435	7053.8125
2108.09379	7045.2125
2111.08131	7056.1125
2114.0669	7017.3125
2117.05057	7053.9125
2120.03233	7051.0125
2123.01216	7046.7125
2125.99008	7049.9125
2128.96609	7048.1125
2131.94018	7056.8125
2134.91236	7051.4125
2137.88263	7057.4125
2140.851	7050.2125
2143.81746	7055.4125
2146.78201	7061.3125
2149.74466	7036.8125
2152.7054	7056.0125
2155.66425	7049.6125
2158.6212	7039.5125
2161.57625	7041.7125
2164.52941	7029.5125
2167.48067	7029.0125
2170.43004	7003.7125
2173.37752	7010.7125
2176.32311	7009.6125
2179.26681	7006.1125
2182.20863	7001.3125
2185.14856	7021.4125
2188.08661	7002.0125
2191.02278	6993.8125
2193.95707	7018.0125
2196.88948	6972.7125
2199.82001	6990.1125
2202.74867	6969.9125
2205.67545	6955.4125
2208.60037	6952.6125
2211.52341	6961.4125
2214.44458	6937.0125
2217.36388	6922.7125
2220.28132	6894.1125
2223.1969	6876.3125
2226.11061	6874.0125
2229.02246	6843.5125
2231.93245	6841.5125
2234.84058	6813.1125
2237.74686	6820.3125
2240.65128	6805.8125
2243.55385	6786.9125
2246.45456	6794.9125
2249.35343	6787.8125
2252.25044	6763.6125
2255.14561	6769.3125
2258.03893	6760.3125
2260.93041	6736.7125
2263.82004	6741.3125
2266.70783	6722.7125
2269.59378	6687.2125
2272.4779	6671.7125
2275.36017	6673.8125
2278.24061	6655.4125
2281.11922	6644.7125
2283.996	6612.4125
2286.87094	6624.2125
2289.74405	6597.9125
2292.61534	6570.9125
2295.4848	6559.8125
2298.35243	6569.4125
2301.21824	6550.5125
2304.08223	6550.7125
2306.94439	6557.4125
2309.80474	6539.4125
2312.66327	6550.4125
2315.51999	6535.6125
2318.37489	6543.4125
2321.22797	6528.6125
2324.07925	6532.7125
2326.92871	6505.0125
2329.77637	6502.6125
2332.62222	6508.5125
2335.46626	6490.8125
2338.3085	6479.8125
2341.14893	6464.4125
2343.98756	6469.6125
2346.8244	6469.7125
2349.65943	6476.7125
2352.49267	6497.9125
2355.32411	6497.9125
2358.15376	6518.7125
2360.98161	6509.0125
2363.80768	6523.9125
2366.63195	6523.9125
2369.45444	6508.6125
2372.27514	6499.9125
2375.09405	6499.3125
2377.91118	6482.6125
2380.72652	6440.0125
2383.54009	6421.5125
2386.35187	6406.4125
2389.16188	6376.3125
2391.97011	6346.1125
2394.77657	6342.8125
2397.58125	6306.7125
2400.38416	6291.3125
2403.18529	6276.6125
2405.98466	6279.4125
2408.78226	6262.9125
2411.57809	6242.7125
2414.37216	6260.3125
2417.16446	6249.5125
2419.955	6214.9125
2422.74378	6231.7125
2425.5308	6217.7125
2428.31606	6226.5125
2431.09956	6228.4125
2433.88131	6210.8125
2436.6613	6210.6125
2439.43954	6191.4125
2442.21603	6197.9125
2444.99077	6195.2125
2447.76377	6208.9125
2450.53501	6191.5125
2453.30451	6203.2125
2456.07226	6196.5125
2458.83827	6189.7125
2461.60254	6181.5125
2464.36507	6184.9125
2467.12586	6182.3125
2469.88492	6192.0125
2472.64224	6177.9125
2475.39782	6184.0125
2478.15167	6205.5125
2480.90379	6172.3125
2483.65417	6195.3125
2486.40283	6204.7125
2489.14976	6225.5125
2491.89497	6233.3125
2494.63845	6254.8125
2497.3802	6227.2125
2500.12024	6221.7125
2502.85855	6231.8125
2505.59514	6204.2125
2508.33002	6207.8125
2511.06318	6185.4125
2513.79462	6155.5125
2516.52435	6135.6125
2519.25237	6110.6125
2521.97867	6065.8125
2524.70327	6083.9125
2527.42616	6062.3125
2530.14734	6052.2125
2532.86681	6041.6125
2535.58458	6049.7125
2538.30065	6036.7125
2541.01501	6030.1125
2543.72768	6036.7125
2546.43864	6033.4125
2549.14791	6050.7125
2551.85548	6007.6125
2554.56136	6003.7125
2557.26554	6020.2125
2559.96803	6013.1125
2562.66883	6002.3125
2565.36794	5956.8125
2568.06536	5970.2125
2570.7611	5964.2125
2573.45514	5967.0125
2576.14751	5937.6125
2578.83819	5920.0125
2581.52719	5933.2125
2584.21451	5923.1125
2586.90015	5930.8125
2589.58411	5910.9125
2592.2664	5926.7125
2594.94701	5885.7125
2597.62594	5912.0125
2600.30321	5882.7125
2602.9788	5882.6125
2605.65273	5889.2125
2608.32498	5883.9125
2610.99557	5882.3125
2613.66449	5890.5125
2616.33175	5871.7125
2618.99734	5871.8125
2621.66128	5878.8125
2624.32355	5872.6125
2626.98416	5876.8125
2629.64311	5837.8125
2632.30041	5853.2125
2634.95605	5823.6125
2637.61004	5836.7125
2640.26238	5831.3125
2642.91306	5822.1125
2645.56209	5806.3125
2648.20948	5812.4125
2650.85521	5794.0125
2653.4993	5783.2125
2656.14175	5785.5125
2658.78255	5796.8125
2661.42171	5798.5125
2664.05923	5807.5125
2666.6951	5812.0125
2669.32934	5822.4125
2671.96194	5820.5125
2674.59291	5833.2125
2677.22224	5825.6125
2679.84993	5824.9125
2682.476	5833.8125
2685.10043	5830.8125
2687.72324	5829.6125
2690.34441	5827.1125
2692.96396	5833.5125
2695.58188	5841.3125
2698.19818	5840.5125
2700.81285	5822.0125
2703.4259	5833.6125
2706.03733	5851.5125
2708.64714	5832.8125
2711.25533	5835.3125
2713.86191	5825.9125
2716.46687	5848.6125
2719.07021	5834.3125
2721.67194	5849.1125
2724.27206	5835.0125
2726.87057	5819.4125
2729.46747	5826.6125
2732.06276	5835.4125
2734.65644	5820.2125
2737.24852	5821.4125
2739.83899	5808.1125
2742.42786	5813.5125
2745.01513	5779.0125
2747.60079	5785.0125
2750.18486	5771.0125
2752.76733	5770.7125
2755.3482	5752.1125
2757.92747	5760.7125
2760.50515	5747.4125
2763.08123	5763.4125
2765.65573	5732.7125
2768.22863	5729.9125
2770.79994	5696.6125
2773.36967	5712.2125
2775.9378	5714.8125
2778.50435	5713.1125
2781.06932	5711.1125
2783.6327	5712.2125
2786.1945	5702.6125
2788.75471	5686.7125
2791.31335	5670.9125
2793.87041	5694.2125
2796.42589	5676.1125
2798.97979	5688.3125
2801.53212	5694.8125
2804.08288	5679.9125
2806.63206	5662.4125
2809.17967	5665.3125
2811.72571	5665.9125
2814.27018	5662.6125
2816.81308	5665.5125
2819.35442	5665.4125
2821.89419	5664.3125
2824.43239	5678.0125
2826.96904	5682.7125
2829.50412	5688.2125
2832.03763	5673.3125
2834.56959	5722.5125
2837.1	5699.3125
2839.62884	5717.0125
2842.15613	5755.2125
2844.68186	5817.7125
2847.20604	5871.3125
2849.72867	5929.4125
2852.24974	5929.4125
2854.76927	5962.1125
2857.28724	5949.6125
2859.80367	5910.6125
2862.31855	5890.1125
2864.83189	5881.4125
2867.34368	5871.5125
2869.85393	5855.5125
2872.36264	5849.6125
2874.8698	5859.1125
2877.37543	5845.2125
2879.87952	5856.9125
2882.38207	5837.0125
2884.88308	5830.4125
2887.38256	5813.5125
2889.88051	5829.0125
2892.37692	5820.2125
2894.8718	5845.4125
2897.36515	5849.2125
2899.85698	5828.9125
2902.34727	5847.8125
2904.83604	5823.0125
2907.32328	5846.0125
2909.809	5847.9125
2912.29319	5842.4125
2914.77587	5828.2125
2917.25702	5823.0125
2919.73665	5805.3125
2922.21476	5825.9125
2924.69136	5806.5125
2927.16644	5809.5125
2929.64	5788.1125
2932.11205	5782.6125
2934.58258	5748.3125
2937.05161	5730.8125
2939.51912	5710.6125
2941.98513	5678.3125
2944.44962	5627.1125
2946.91261	5569.4125
2949.37409	5571.8125
2951.83407	5527.0125
2954.29254	5520.3125
2956.74951	5496.5125
2959.20498	5484.0125
2961.65895	5442.8125
2964.11142	5448.4125
2966.56239	5421.2125
2969.01186	5423.7125
2971.45984	5405.4125
2973.90632	5391.4125
2976.35131	5350.5125
2978.7948	5358.1125
2981.23681	5320.4125
2983.67732	5289.9125
2986.11635	5276.1125
2988.55388	5257.6125
2990.98993	5255.0125
2993.4245	5233.2125
2995.85758	5221.3125
2998.28917	5193.1125
3000.71928	5193.4125
3003.14791	5179.8125
3005.57506	5187.1125
3008.00073	5146.3125
3010.42493	5146.3125
3012.84764	5152.4125
3015.26888	5140.5125
3017.68865	5128.7125
3020.10694	5121.4125
3022.52376	5112.5125
3024.9391	5100.8125
3027.35298	5087.3125
3029.76539	5076.2125
3032.17632	5084.7125
3034.5858	5070.6125
3036.9938	5052.6125
3039.40034	5040.7125
3041.80542	5036.7125
3044.20903	5021.3125
3046.61118	5031.3125
3049.01187	4998.1125
3051.4111	5007.9125
3053.80888	4977.8125
3056.20519	4980.3125
3058.60005	4979.8125
3060.99345	4957.4125
3063.3854	4943.3125
3065.7759	4925.1125
3068.16494	4927.4125
3070.55254	4913.0125
3072.93868	4904.6125
3075.32338	4880.5125
3077.70662	4870.8125
3080.08842	4850.6125
3082.46878	4829.7125
