Data from AgNPs_FTO_APTES_UA_2uM_CRN_0uM_R6G_10uM_NaF_0.1M_Addition_RamanShift__7__10-12-34-920.txt Node

Date: Wed Feb 02 10:12:34 GMT 2022
User: TCL
Spectrometer: QEP01345
Trigger mode: 4
Integration Time (sec): 7.000000E0
Scans to average: 10
Electric dark correction enabled: true
Nonlinearity correction enabled: false
Boxcar width: 0
XAxis mode: Raman Shifts
Number of Pixels in Spectrum: 1044
>>>>>Begin Spectral Data<<<<<
46.04893	0.15
50.45542	0.35
54.85868	0.25
59.25871	0.35
63.6555	29.15
68.04907	28.45
72.43941	31.65
76.82654	40.15
81.21044	39.05
85.59113	43.15
89.96862	42.85
94.34289	43.85
98.71396	43.25
103.08183	49.35
107.4465	51.45
111.80798	47.75
116.16626	46.95
120.52136	52.15
124.87327	51.45
129.222	47.55
133.56755	52.65
137.90993	49.95
142.24913	57.75
146.58517	59.45
150.91804	65.95
155.24774	71.55
159.57429	85.15
163.89768	99.65
168.21792	121.95
172.53501	156.55
176.84895	207.85
181.15975	286.45
185.46741	394.35
189.77193	540.85
194.07331	735.15
198.37157	960.55
202.6667	1215.25
206.9587	1471.95
211.24758	1731.95
215.53334	1991.55
219.81599	2258.15
224.09553	2571.15
228.37195	2907.85
232.64527	3282.85
236.91549	3674.95
241.18261	4099.05
245.44663	4494.25
249.70755	4871.65
253.96539	5169.55
258.22014	5415.15
262.4718	5556.85
266.72039	5590.65
270.96589	5519.25
275.20832	5377.15
279.44768	5191.15
283.68397	4934.55
287.91719	4686.05
292.14735	4454.75
296.37445	4267.75
300.59849	4096.65
304.81948	3969.85
309.03742	3868.15
313.25231	3793.85
317.46415	3720.35
321.67296	3633.75
325.87872	3573.35
330.08145	3554.65
334.28114	3533.65
338.47781	3536.45
342.67145	3519.65
346.86207	3535.75
351.04966	3553.25
355.23424	3567.75
359.4158	3566.75
363.59435	3540.05
367.76989	3508.25
371.94243	3467.85
376.11196	3422.35
380.27849	3367.55
384.44203	3336.55
388.60257	3290.55
392.76012	3258.15
396.91468	3248.85
401.06626	3239.55
405.21485	3226.65
409.36047	3208.85
413.50311	3165.05
417.64277	3116.65
421.77947	3124.45
425.9132	3112.95
430.04396	3124.45
434.17176	3133.45
438.2966	3155.85
442.41849	3193.35
446.53742	3210.95
450.6534	3236.15
454.76644	3246.35
458.87653	3259.25
462.98368	3257.05
467.08789	3238.05
471.18916	3204.15
475.2875	3185.95
479.38291	3146.65
483.4754	3129.45
487.56496	3113.25
491.6516	3107.25
495.73531	3090.75
499.81612	3059.65
503.89401	3051.95
507.96899	3051.95
512.04106	3056.85
516.11023	3063.85
520.1765	3074.35
524.23987	3088.65
528.30034	3102.45
532.35792	3123.35
536.41261	3139.35
540.46441	3148.35
544.51333	3173.85
548.55936	3192.05
552.60252	3243.45
556.64279	3301.15
560.6802	3352.85
564.71473	3368.05
568.7464	3430.45
572.7752	3445.95
576.80114	3447.55
580.82422	3398.45
584.84444	3368.85
588.86181	3347.45
592.87633	3335.05
596.888	3337.65
600.89682	3384.85
604.9028	3523.95
608.90594	3835.15
612.90624	4273.85
616.90371	4438.85
620.89834	4207.55
624.89015	4016.05
628.87913	3880.15
632.86528	3662.35
636.84862	3423.15
640.82913	3237.05
644.80683	3086.35
648.78172	3017.35
652.75379	2988.75
656.72306	3006.55
660.68952	3048.45
664.65319	3082.65
668.61405	3078.85
672.57211	3126.65
676.52738	3209.05
680.47986	3289.95
684.42955	3357.65
688.37646	3378.05
692.32058	3353.55
696.26192	3324.05
700.20048	3314.25
704.13626	3307.25
708.06928	3300.25
711.99952	3256.15
715.927	3237.65
719.85171	3216.75
723.77365	3177.25
727.69284	3151.25
731.60928	3127.35
735.52295	3111.15
739.43388	3089.25
743.34206	3085.45
747.24749	3091.65
751.15017	3084.55
755.05012	3092.25
758.94733	3122.55
762.8418	3186.15
766.73354	3309.45
770.62254	3445.85
774.50882	3531.15
778.39237	3491.45
782.27321	3363.25
786.15132	3238.95
790.02671	3174.75
793.89938	3154.15
797.76935	3141.35
801.6366	3139.35
805.50115	3140.45
809.36299	3158.45
813.22213	3166.15
817.07857	3162.55
820.93231	3175.85
824.78336	3166.65
828.63172	3159.65
832.47738	3174.95
836.32036	3165.05
840.16066	3177.55
843.99827	3192.25
847.8332	3202.75
851.66546	3201.85
855.49504	3217.85
859.32195	3245.45
863.1462	3268.15
866.96777	3292.45
870.78668	3332.05
874.60293	3359.85
878.41652	3410.75
882.22745	3463.15
886.03573	3519.95
889.84136	3620.25
893.64433	3725.35
897.44466	3821.95
901.24235	3936.45
905.0374	4099.95
908.8298	4242.85
912.61957	4418.45
916.40671	4610.45
920.19121	4720.75
923.97308	4831.55
927.75233	4910.65
931.52895	4888.95
935.30295	4768.15
939.07433	4602.75
942.84309	4441.65
946.60924	4278.85
950.37278	4145.35
954.13371	4042.95
957.89203	3932.85
961.64774	3850.45
965.40086	3765.15
969.15137	3699.15
972.89929	3654.95
976.64461	3593.35
980.38733	3540.85
984.12747	3520.75
987.86502	3490.25
991.59999	3474.75
995.33237	3457.65
999.06217	3458.95
1002.78939	3482.45
1006.51404	3475.15
1010.23611	3490.45
1013.95561	3516.85
1017.67255	3505.55
1021.38692	3502.45
1025.09872	3500.35
1028.80796	3514.35
1032.51465	3538.25
1036.21877	3579.45
1039.92035	3631.35
1043.61937	3704.05
1047.31584	3776.35
1051.00976	3831.35
1054.70114	3840.25
1058.38998	3831.85
1062.07627	3788.05
1065.76003	3722.75
1069.44126	3619.45
1073.11995	3525.95
1076.79611	3475.05
1080.46974	3408.55
1084.14085	3371.65
1087.80943	3320.35
1091.47549	3285.75
1095.13903	3259.45
1098.80005	3219.65
1102.45857	3181.75
1106.11456	3145.35
1109.76805	3132.25
1113.41903	3120.75
1117.06751	3126.95
1120.71348	3162.25
1124.35696	3197.55
1127.99793	3242.25
1131.63641	3293.65
1135.2724	3236.85
1138.90589	3177.65
1142.5369	3129.25
1146.16542	3087.45
1149.79145	3084.25
1153.415	3054.65
1157.03607	3046.15
1160.65467	3059.05
1164.27079	3090.95
1167.88443	3151.05
1171.49561	3213.35
1175.10432	3341.05
1178.71056	3487.75
1182.31434	3648.15
1185.91565	3743.45
1189.51451	3732.95
1193.11091	3708.45
1196.70485	3607.15
1200.29634	3504.45
1203.88538	3427.75
1207.47197	3333.25
1211.05612	3259.85
1214.63782	3216.75
1218.21708	3215.75
1221.79391	3201.15
1225.36829	3230.85
1228.94024	3250.85
1232.50976	3276.85
1236.07685	3278.55
1239.6415	3277.75
1243.20374	3267.15
1246.76355	3272.35
1250.32093	3281.35
1253.8759	3308.65
1257.42845	3330.35
1260.97859	3383.35
1264.52631	3443.95
1268.07163	3483.65
1271.61453	3532.65
1275.15503	3575.45
1278.69312	3605.05
1282.22882	3629.85
1285.76211	3683.45
1289.29301	3747.45
1292.82151	3822.35
1296.34761	3909.25
1299.87133	3994.75
1303.39266	4085.55
1306.9116	4209.95
1310.42815	4329.55
1313.94233	4422.25
1317.45412	4387.45
1320.96354	4278.95
1324.47058	4165.85
1327.97525	4083.75
1331.47754	4055.25
1334.97747	4025.45
1338.47502	4049.95
1341.97022	4099.25
1345.46305	4185.85
1348.95352	4266.15
1352.44163	4412.15
1355.92738	4601.05
1359.41078	4825.05
1362.89183	5062.75
1366.37053	5133.05
1369.84688	4916.65
1373.32088	4617.75
1376.79254	4417.55
1380.26186	4342.65
1383.72883	4301.75
1387.19347	4299.55
1390.65578	4298.25
1394.11575	4298.95
1397.57339	4283.65
1401.0287	4284.95
1404.48168	4245.45
1407.93234	4194.95
1411.38068	4129.25
1414.82669	4082.65
1418.27039	4023.45
1421.71177	3977.15
1425.15083	3919.05
1428.58758	3849.55
1432.02203	3808.95
1435.45416	3774.45
1438.88399	3761.55
1442.31151	3741.05
1445.73673	3713.95
1449.15965	3696.45
1452.58027	3661.25
1455.9986	3640.25
1459.41463	3609.75
1462.82837	3616.55
1466.23982	3622.75
1469.64898	3633.55
1473.05586	3641.15
1476.46045	3652.65
1479.86276	3647.65
1483.26279	3660.35
1486.66054	3681.95
1490.05602	3722.85
1493.44922	3770.85
1496.84016	3851.45
1500.22882	3957.75
1503.61521	4117.45
1506.99934	4310.95
1510.38121	4469.65
1513.76081	4515.65
1517.13816	4391.25
1520.51324	4185.05
1523.88607	3990.95
1527.25665	3856.45
1530.62498	3759.95
1533.99105	3717.25
1537.35488	3676.45
1540.71647	3644.95
1544.07581	3605.85
1547.4329	3567.05
1550.78776	3548.75
1554.14038	3534.95
1557.49077	3542.55
1560.83892	3514.75
1564.18484	3507.35
1567.52853	3545.55
1570.86999	3542.65
1574.20922	3549.85
1577.54624	3542.15
1580.88103	3481.25
1584.2136	3411.75
1587.54395	3337.75
1590.87208	3332.15
1594.19801	3305.45
1597.52172	3380.25
1600.84321	3381.75
1604.16251	3336.65
1607.47959	3292.25
1610.79447	3216.95
1614.10715	3189.75
1617.41763	3126.15
1620.7259	3079.15
1624.03199	3062.75
1627.33587	3053.65
1630.63757	3062.75
1633.93707	3098.15
1637.23439	3118.35
1640.52951	3202.75
1643.82246	3300.35
1647.11321	3417.85
1650.40179	3487.95
1653.68819	3437.95
1656.97241	3250.35
1660.25446	3020.85
1663.53433	2848.25
1666.81203	2739.05
1670.08756	2667.55
1673.36092	2600.05
1676.63211	2558.75
1679.90115	2538.45
1683.16801	2495.45
1686.43272	2467.75
1689.69527	2453.25
1692.95567	2436.65
1696.2139	2404.65
1699.46999	2387.05
1702.72392	2381.95
1705.97571	2378.15
1709.22535	2366.75
1712.47284	2351.75
1715.71819	2354.65
1718.96139	2363.05
1722.20246	2350.85
1725.44139	2345.35
1728.67818	2330.05
1731.91284	2312.55
1735.14537	2325.25
1738.37576	2316.65
1741.60403	2305.65
1744.83017	2291.05
1748.05418	2300.85
1751.27607	2294.75
1754.49584	2289.35
1757.71349	2299.25
1760.92903	2290.05
1764.14244	2289.35
1767.35375	2282.45
1770.56294	2261.55
1773.77002	2256.15
1776.97499	2255.85
1780.17785	2240.35
1783.37861	2237.75
1786.57727	2253.35
1789.77382	2231.35
1792.96828	2224.35
1796.16064	2206.15
1799.3509	2209.45
1802.53907	2202.05
1805.72514	2205.45
1808.90913	2193.75
1812.09102	2171.95
1815.27083	2171.05
1818.44856	2174.65
1821.6242	2174.55
1824.79776	2171.35
1827.96924	2168.45
1831.13864	2170.15
1834.30597	2166.05
1837.47122	2159.85
1840.6344	2154.55
1843.7955	2169.25
1846.95454	2153.05
1850.11151	2163.15
1853.26642	2159.15
1856.41926	2155.75
1859.57004	2153.85
1862.71876	2147.05
1865.86542	2134.25
1869.01003	2138.25
1872.15258	2121.65
1875.29308	2126.95
1878.43152	2124.45
1881.56792	2121.75
1884.70227	2116.15
1887.83457	2105.85
1890.96482	2116.95
1894.09304	2104.75
1897.21921	2110.75
1900.34335	2099.05
1903.46544	2098.55
1906.58551	2095.35
1909.70353	2093.45
1912.81953	2088.05
1915.93349	2088.45
1919.04543	2085.75
1922.15534	2078.45
1925.26322	2075.85
1928.36908	2097.05
1931.47292	2070.55
1934.57473	2073.35
1937.67453	2075.05
1940.77232	2055.15
1943.86808	2063.75
1946.96184	2054.75
1950.05358	2067.35
1953.14331	2046.45
1956.23103	2038.15
1959.31675	2035.05
1962.40046	2027.05
1965.48217	2023.65
1968.56188	2012.45
1971.63959	2009.05
1974.7153	2002.95
1977.78901	1993.75
1980.86073	1986.95
1983.93046	1990.85
1986.99819	1978.25
1990.06394	1972.75
1993.1277	1980.45
1996.18947	1965.35
1999.24925	1959.45
2002.30706	1954.35
2005.36288	1940.95
2008.41672	1950.55
2011.46859	1950.35
2014.51848	1931.95
2017.56639	1944.45
2020.61233	1946.65
2023.6563	1944.65
2026.6983	1950.15
2029.73833	1956.45
2032.7764	1970.65
2035.8125	1983.65
2038.84664	1985.95
2041.87881	1999.55
2044.90903	2025.55
2047.93729	2036.65
2050.96359	2071.05
2053.98794	2087.55
2057.01034	2118.85
2060.03078	2133.95
2063.04927	2168.65
2066.06582	2194.75
2069.08042	2227.05
2072.09307	2243.15
2075.10378	2270.45
2078.11255	2301.35
2081.11938	2324.95
2084.12426	2337.85
2087.12722	2347.05
2090.12824	2327.85
2093.12732	2336.75
2096.12447	2331.85
2099.11969	2325.25
2102.11299	2299.75
2105.10435	2291.65
2108.09379	2274.25
2111.08131	2248.65
2114.0669	2210.35
2117.05057	2181.45
2120.03233	2150.95
2123.01216	2103.25
2125.99008	2091.15
2128.96609	2060.75
2131.94018	2033.65
2134.91236	2000.25
2137.88263	1987.65
2140.851	1970.45
2143.81746	1956.95
2146.78201	1942.25
2149.74466	1918.05
2152.7054	1917.25
2155.66425	1903.55
2158.6212	1891.65
2161.57625	1897.45
2164.52941	1896.25
2167.48067	1883.05
2170.43004	1868.95
2173.37752	1881.45
2176.32311	1858.55
2179.26681	1868.25
2182.20863	1857.35
2185.14856	1865.35
2188.08661	1848.05
2191.02278	1857.65
2193.95707	1854.25
2196.88948	1860.05
2199.82001	1850.35
2202.74867	1850.15
2205.67545	1849.25
2208.60037	1847.45
2211.52341	1834.65
2214.44458	1839.55
2217.36388	1838.45
2220.28132	1834.95
2223.1969	1817.95
2226.11061	1816.55
2229.02246	1820.95
2231.93245	1817.35
2234.84058	1805.85
2237.74686	1804.45
2240.65128	1809.05
2243.55385	1810.75
2246.45456	1804.75
2249.35343	1792.95
2252.25044	1800.95
2255.14561	1788.25
2258.03893	1790.25
2260.93041	1780.75
2263.82004	1790.15
2266.70783	1772.65
2269.59378	1766.05
2272.4779	1777.65
2275.36017	1765.25
2278.24061	1764.75
2281.11922	1746.95
2283.996	1747.05
2286.87094	1747.25
2289.74405	1739.05
2292.61534	1743.05
2295.4848	1725.25
2298.35243	1732.05
2301.21824	1731.85
2304.08223	1727.95
2306.94439	1724.05
2309.80474	1729.45
2312.66327	1726.85
2315.51999	1716.55
2318.37489	1715.75
2321.22797	1721.15
2324.07925	1713.75
2326.92871	1717.85
2329.77637	1707.65
2332.62222	1710.85
2335.46626	1704.35
2338.3085	1703.15
2341.14893	1696.25
2343.98756	1690.65
2346.8244	1686.35
2349.65943	1689.65
2352.49267	1688.95
2355.32411	1691.95
2358.15376	1695.05
2360.98161	1685.75
2363.80768	1672.55
2366.63195	1682.25
2369.45444	1681.85
2372.27514	1690.65
2375.09405	1674.35
2377.91118	1665.95
2380.72652	1664.65
2383.54009	1668.35
2386.35187	1670.85
2389.16188	1657.15
2391.97011	1659.55
2394.77657	1642.85
2397.58125	1646.15
2400.38416	1645.15
2403.18529	1643.85
2405.98466	1635.95
2408.78226	1625.35
2411.57809	1626.75
2414.37216	1634.05
2417.16446	1623.95
2419.955	1626.95
2422.74378	1618.45
2425.5308	1621.45
2428.31606	1619.05
2431.09956	1624.55
2433.88131	1613.05
2436.6613	1619.85
2439.43954	1611.75
2442.21603	1604.15
2444.99077	1602.35
2447.76377	1609.65
2450.53501	1610.85
2453.30451	1608.55
2456.07226	1604.85
2458.83827	1590.95
2461.60254	1604.75
2464.36507	1593.35
2467.12586	1596.55
2469.88492	1596.45
2472.64224	1604.55
2475.39782	1585.05
2478.15167	1586.95
2480.90379	1589.45
2483.65417	1579.75
2486.40283	1577.85
2489.14976	1574.65
2491.89497	1580.85
2494.63845	1581.55
2497.3802	1573.45
2500.12024	1571.65
2502.85855	1571.15
2505.59514	1578.15
2508.33002	1574.95
2511.06318	1563.75
2513.79462	1563.25
2516.52435	1558.55
2519.25237	1556.65
2521.97867	1556.15
2524.70327	1547.95
2527.42616	1553.55
2530.14734	1551.35
2532.86681	1541.55
2535.58458	1558.95
2538.30065	1547.35
2541.01501	1530.65
2543.72768	1532.15
2546.43864	1537.15
2549.14791	1537.75
2551.85548	1532.35
2554.56136	1517.35
2557.26554	1532.55
2559.96803	1514.55
2562.66883	1513.05
2565.36794	1518.15
2568.06536	1515.75
2570.7611	1514.95
2573.45514	1511.55
2576.14751	1499.45
2578.83819	1506.15
2581.52719	1512.65
2584.21451	1496.85
2586.90015	1498.45
2589.58411	1492.35
2592.2664	1491.05
2594.94701	1501.85
2597.62594	1487.05
2600.30321	1480.55
2602.9788	1486.85
2605.65273	1474.45
2608.32498	1471.35
2610.99557	1470.15
2613.66449	1467.95
2616.33175	1474.95
2618.99734	1465.65
2621.66128	1472.05
2624.32355	1472.55
2626.98416	1470.85
2629.64311	1462.85
2632.30041	1459.15
2634.95605	1451.05
2637.61004	1458.25
2640.26238	1445.25
2642.91306	1457.05
2645.56209	1457.05
2648.20948	1452.35
2650.85521	1443.75
2653.4993	1457.15
2656.14175	1449.55
2658.78255	1452.05
2661.42171	1450.35
2664.05923	1449.45
2666.6951	1451.25
2669.32934	1449.75
2671.96194	1451.65
2674.59291	1449.65
2677.22224	1444.75
2679.84993	1449.95
2682.476	1454.45
2685.10043	1465.55
2687.72324	1458.25
2690.34441	1456.25
2692.96396	1463.65
2695.58188	1460.75
2698.19818	1452.65
2700.81285	1463.55
2703.4259	1448.05
2706.03733	1442.65
2708.64714	1456.35
2711.25533	1450.75
2713.86191	1461.65
2716.46687	1457.85
2719.07021	1459.15
2721.67194	1456.55
2724.27206	1459.25
2726.87057	1464.25
2729.46747	1454.85
2732.06276	1466.05
2734.65644	1455.15
2737.24852	1449.15
2739.83899	1461.45
2742.42786	1455.75
2745.01513	1458.85
2747.60079	1460.25
2750.18486	1450.35
2752.76733	1452.35
2755.3482	1456.85
2757.92747	1458.05
2760.50515	1447.35
2763.08123	1442.45
2765.65573	1449.05
2768.22863	1455.75
2770.79994	1450.85
2773.36967	1437.85
2775.9378	1442.75
2778.50435	1442.55
2781.06932	1446.45
2783.6327	1439.05
2786.1945	1433.35
2788.75471	1429.25
2791.31335	1425.05
2793.87041	1430.85
2796.42589	1422.15
2798.97979	1429.05
2801.53212	1423.95
2804.08288	1416.95
2806.63206	1418.15
2809.17967	1405.75
2811.72571	1417.05
2814.27018	1409.75
2816.81308	1419.85
2819.35442	1408.05
2821.89419	1414.05
2824.43239	1419.25
2826.96904	1402.75
2829.50412	1416.25
2832.03763	1410.05
2834.56959	1417.05
2837.1	1419.75
2839.62884	1423.75
2842.15613	1436.05
2844.68186	1457.25
2847.20604	1477.55
2849.72867	1479.25
2852.24974	1499.25
2854.76927	1494.85
2857.28724	1492.15
2859.80367	1502.45
2862.31855	1498.85
2864.83189	1501.05
2867.34368	1505.85
2869.85393	1515.35
2872.36264	1514.05
2874.8698	1526.95
2877.37543	1526.95
2879.87952	1543.35
2882.38207	1537.65
2884.88308	1545.05
2887.38256	1566.35
2889.88051	1568.15
2892.37692	1580.55
2894.8718	1586.75
2897.36515	1600.05
2899.85698	1595.75
2902.34727	1619.35
2904.83604	1621.15
2907.32328	1628.85
2909.809	1644.85
2912.29319	1631.45
2914.77587	1645.15
2917.25702	1643.75
2919.73665	1649.55
2922.21476	1646.85
2924.69136	1651.95
2927.16644	1658.95
2929.64	1653.95
2932.11205	1654.55
2934.58258	1653.35
2937.05161	1646.05
2939.51912	1634.75
2941.98513	1620.25
2944.44962	1607.15
2946.91261	1590.05
2949.37409	1572.45
2951.83407	1552.35
2954.29254	1544.85
2956.74951	1522.95
2959.20498	1517.75
2961.65895	1497.75
2964.11142	1493.95
2966.56239	1479.55
2969.01186	1480.75
2971.45984	1466.15
2973.90632	1463.65
2976.35131	1445.75
2978.7948	1432.95
2981.23681	1423.55
2983.67732	1423.15
2986.11635	1407.05
2988.55388	1400.45
2990.98993	1407.25
2993.4245	1394.55
2995.85758	1390.45
2998.28917	1388.85
3000.71928	1379.85
3003.14791	1385.15
3005.57506	1380.15
3008.00073	1372.55
3010.42493	1378.45
3012.84764	1368.55
3015.26888	1377.95
3017.68865	1372.95
3020.10694	1369.15
3022.52376	1368.25
3024.9391	1364.35
3027.35298	1358.15
3029.76539	1363.85
3032.17632	1359.35
3034.5858	1363.75
3036.9938	1354.15
3039.40034	1360.75
3041.80542	1347.45
3044.20903	1346.85
3046.61118	1357.05
3049.01187	1349.35
3051.4111	1349.65
3053.80888	1352.45
3056.20519	1350.05
3058.60005	1351.35
3060.99345	1350.65
3063.3854	1351.85
3065.7759	1349.25
3068.16494	1356.55
3070.55254	1357.05
3072.93868	1352.65
3075.32338	1359.95
3077.70662	1350.25
3080.08842	1349.05
3082.46878	1358.25
3084.84769	1359.95
3087.22515	1358.25
3089.60118	1368.95
3091.97576	1375.65
3094.3489	1374.85
3096.72061	1379.05
3099.09087	1386.45
3101.4597	1391.55
3103.82709	1382.05
3106.19305	1387.75
3108.55757	1390.65
3110.92066	1393.25
3113.28232	1396.45
3115.64255	1390.35
3118.00134	1407.55
3120.35871	1406.65
3122.71466	1409.55
3125.06917	1408.75
3127.42226	1415.55
3129.77393	1413.55
3132.12417	1420.75
3134.47299	1437.05
3136.82039	1443.45
3139.16636	1443.05
3141.51092	1445.65
3143.85406	1451.25
3146.19579	1463.25
3148.53609	1465.25
3150.87499	1471.85
3153.21246	1480.55
3155.54853	1491.55
3157.88318	1500.95
3160.21642	1501.85
3162.54826	1509.15
3164.87868	1508.15
3167.2077	1526.95
3169.5353	1513.45
3171.86151	1527.25
3174.18631	1521.05
3176.5097	1536.55
3178.83169	1540.75
3181.15228	1540.65
3183.47147	1540.15
3185.78926	1550.65
3188.10565	1558.35
3190.42065	1562.55
3192.73424	1562.05
3195.04645	1562.35
3197.35725	1567.45
3199.66667	1578.85
3201.97469	1582.75
3204.28132	1590.55
3206.58656	1590.25
3208.8904	1601.45
3211.19287	1605.15
3213.49394	1607.85
3215.79363	1610.55
3218.09193	1603.35
3220.38884	1616.95
3222.68438	1619.05
3224.97853	1626.45
3227.2713	1616.35
3229.56269	1617.65
3231.8527	1616.35
3234.14133	1616.95
3236.42858	1610.65
3238.71446	1625.95
3240.99896	1625.55
3243.28209	1622.85
3245.56384	1625.35
3247.84423	1632.15
3250.12324	1624.65
3252.40088	1633.65
3254.67715	1629.35
3256.95205	1629.35
3259.22558	1640.25
3261.49775	1637.55
3263.76855	1632.75
3266.03799	1631.85
3268.30606	1639.05
3270.57277	1626.05
3272.83812	1633.25
3275.10211	1626.55
3277.36474	1628.55
3279.62601	1618.05
3281.88593	1619.75
3284.14448	1626.25
3286.40168	1626.35
3288.65753	1617.55
3290.91202	1609.45
3293.16516	1613.65
3295.41695	1604.45
3297.66738	1591.05
3299.91647	1586.15
3302.16421	1587.75
3304.4106	1570.85
3306.65564	1570.25
3308.89933	1563.15
3311.14169	1555.05
3313.38269	1548.05
3315.62236	1540.05
3317.86068	1522.35
3320.09766	1516.55
3322.3333	1499.45
3324.5676	1510.65
3326.80056	1477.45
3329.03219	1480.35
3331.26248	-0.55
3333.49143	-0.55
3335.71905	-0.85
