Data from AgNPs_FTO_APTES_UA_2uM_CRN_10uM_R6G_10uM_NaF_0.1M_Addition_RamanShift__25__13-47-15-170.txt Node

Date: Wed Feb 02 13:47:15 GMT 2022
User: TCL
Spectrometer: QEP01345
Trigger mode: 4
Integration Time (sec): 7.000000E0
Scans to average: 10
Electric dark correction enabled: true
Nonlinearity correction enabled: false
Boxcar width: 0
XAxis mode: Raman Shifts
Number of Pixels in Spectrum: 1044
>>>>>Begin Spectral Data<<<<<
46.04893	1.55
50.45542	0.15
54.85868	-1.45
59.25871	-1.35
63.6555	83.95
68.04907	88.95
72.43941	93.45
76.82654	99.45
81.21044	103.05
85.59113	109.05
89.96862	108.15
94.34289	114.25
98.71396	118.35
103.08183	128.45
107.4465	127.05
111.80798	130.35
116.16626	132.25
120.52136	139.35
124.87327	138.35
129.222	150.25
133.56755	161.65
137.90993	170.55
142.24913	191.85
146.58517	220.35
150.91804	250.55
155.24774	300.95
159.57429	379.65
163.89768	485.55
168.21792	645.35
172.53501	881.55
176.84895	1219.55
181.15975	1718.35
185.46741	2403.75
189.77193	3311.95
194.07331	4428.35
198.37157	5680.95
202.6667	7043.75
206.9587	8344.15
211.24758	9695.65
215.53334	11038.15
219.81599	12520.75
224.09553	14201.25
228.37195	16077.45
232.64527	18077.45
236.91549	20146.65
241.18261	22101.45
245.44663	23826.15
249.70755	25208.55
253.96539	26460.85
258.22014	27582.75
262.4718	28601.05
266.72039	29398.05
270.96589	29865.15
275.20832	30019.25
279.44768	29955.65
283.68397	29831.45
287.91719	29764.95
292.14735	29909.55
296.37445	30317.25
300.59849	30835.85
304.81948	31507.75
309.03742	31783.35
313.25231	31507.75
317.46415	30196.05
321.67296	28339.05
325.87872	26761.35
330.08145	25991.25
334.28114	25851.65
338.47781	26170.35
342.67145	26713.65
346.86207	27551.85
351.04966	28790.45
355.23424	30098.45
359.4158	31134.85
363.59435	31646.55
367.76989	31794.75
371.94243	31777.85
376.11196	31632.25
380.27849	31596.35
384.44203	31457.05
388.60257	31273.15
392.76012	31326.95
396.91468	31735.15
401.06626	32436.15
405.21485	32969.25
409.36047	32587.85
413.50311	31387.55
417.64277	30371.45
421.77947	29793.75
425.9132	29667.05
430.04396	29741.65
434.17176	29898.25
438.2966	30169.15
442.41849	30792.85
446.53742	31614.25
450.6534	32526.45
454.76644	33220.65
458.87653	33515.45
462.98368	33349.55
467.08789	33001.85
471.18916	32414.45
475.2875	31810.55
479.38291	31330.35
483.4754	30956.45
487.56496	30483.35
491.6516	30052.05
495.73531	29708.95
499.81612	29621.45
503.89401	29849.85
507.96899	30037.35
512.04106	30159.75
516.11023	30233.85
520.1765	30256.85
524.23987	30084.95
528.30034	29622.75
532.35792	29101.65
536.41261	28536.65
540.46441	28077.95
544.51333	27992.85
548.55936	28425.65
552.60252	29232.25
556.64279	30101.65
560.6802	30605.45
564.71473	31029.25
568.7464	31957.95
572.7752	32848.95
576.80114	32677.45
580.82422	32172.45
584.84444	32005.75
588.86181	31850.75
592.87633	32003.55
596.888	32313.65
600.89682	33230.85
604.9028	35971.45
608.90594	42914.65
612.90624	51287.25
616.90371	48738.05
620.89834	36329.35
624.89015	30517.55
628.87913	29582.15
632.86528	29760.35
636.84862	29916.65
640.82913	29325.85
644.80683	28164.05
648.78172	27326.45
652.75379	27331.95
656.72306	28157.65
660.68952	29248.25
664.65319	29134.95
668.61405	28119.55
672.57211	27616.85
676.52738	27553.25
680.47986	27546.65
684.42955	27416.15
688.37646	27333.15
692.32058	27414.55
696.26192	27697.45
700.20048	28105.45
704.13626	28427.65
708.06928	28434.95
711.99952	28164.15
715.927	27979.35
719.85171	27988.95
723.77365	27863.45
727.69284	27519.55
731.60928	27245.35
735.52295	27146.75
739.43388	27191.05
743.34206	27349.45
747.24749	27545.05
751.15017	27826.55
755.05012	28469.15
758.94733	29791.65
762.8418	32399.85
766.73354	36742.15
770.62254	41211.45
774.50882	42813.65
778.39237	40496.75
782.27321	35703.85
786.15132	31537.85
790.02671	29051.95
793.89938	27861.45
797.76935	27370.25
801.6366	27138.85
805.50115	26993.85
809.36299	26824.65
813.22213	26662.35
817.07857	26616.35
820.93231	26567.75
824.78336	26598.45
828.63172	26696.35
832.47738	26727.35
836.32036	26745.55
840.16066	26673.75
843.99827	26646.15
847.8332	26529.35
851.66546	26446.85
855.49504	26386.95
859.32195	26292.65
863.1462	26169.25
866.96777	26062.45
870.78668	26020.45
874.60293	26014.45
878.41652	26068.05
882.22745	26174.65
886.03573	26294.75
889.84136	26275.75
893.64433	26108.55
897.44466	25989.35
901.24235	25971.25
905.0374	25924.05
908.8298	25903.05
912.61957	25952.15
916.40671	26186.85
920.19121	26538.05
923.97308	26831.25
927.75233	27037.05
931.52895	27083.05
935.30295	26745.45
939.07433	26025.05
942.84309	25427.55
946.60924	25116.65
950.37278	25017.85
954.13371	24843.45
957.89203	24700.95
961.64774	24640.25
965.40086	24594.65
969.15137	24488.05
972.89929	24409.65
976.64461	24357.45
980.38733	24401.95
984.12747	24461.35
987.86502	24682.65
991.59999	25005.45
995.33237	25423.85
999.06217	26182.75
1002.78939	27157.45
1006.51404	27871.65
1010.23611	28451.25
1013.95561	28879.25
1017.67255	28876.45
1021.38692	28482.05
1025.09872	28191.35
1028.80796	28132.25
1032.51465	28605.75
1036.21877	29168.45
1039.92035	29312.85
1043.61937	28989.55
1047.31584	28424.45
1051.00976	27825.85
1054.70114	27495.45
1058.38998	27493.35
1062.07627	27770.05
1065.76003	28006.75
1069.44126	28251.25
1073.11995	28561.95
1076.79611	28807.05
1080.46974	29101.35
1084.14085	29547.05
1087.80943	30111.85
1091.47549	30457.25
1095.13903	30157.35
1098.80005	29388.05
1102.45857	28589.35
1106.11456	28075.55
1109.76805	28006.75
1113.41903	28355.85
1117.06751	28930.75
1120.71348	29660.45
1124.35696	30486.15
1127.99793	31282.45
1131.63641	31429.35
1135.2724	30590.75
1138.90589	29744.35
1142.5369	29257.35
1146.16542	28968.15
1149.79145	28809.85
1153.415	29030.65
1157.03607	29428.95
1160.65467	30177.65
1164.27079	31382.65
1167.88443	33059.85
1171.49561	35570.45
1175.10432	39375.75
1178.71056	44315.45
1182.31434	48346.45
1185.91565	50295.15
1189.51451	50126.15
1193.11091	48144.85
1196.70485	45170.15
1200.29634	42428.25
1203.88538	40141.05
1207.47197	38041.95
1211.05612	36275.05
1214.63782	35250.45
1218.21708	34890.45
1221.79391	34947.35
1225.36829	35114.65
1228.94024	35193.95
1232.50976	35208.35
1236.07685	35137.65
1239.6415	34922.25
1243.20374	34739.05
1246.76355	34797.85
1250.32093	35187.95
1253.8759	36099.85
1257.42845	37243.45
1260.97859	38419.45
1264.52631	39495.05
1268.07163	40619.05
1271.61453	41860.05
1275.15503	42982.15
1278.69312	44010.25
1282.22882	44775.85
1285.76211	45758.85
1289.29301	46987.45
1292.82151	48396.35
1296.34761	50046.65
1299.87133	52397.15
1303.39266	55827.25
1306.9116	60621.65
1310.42815	66307.05
1313.94233	70481.85
1317.45412	71024.85
1320.96354	69022.05
1324.47058	66056.85
1327.97525	63311.35
1331.47754	61393.45
1334.97747	60428.55
1338.47502	60436.75
1341.97022	60869.85
1345.46305	61112.95
1348.95352	61246.65
1352.44163	61954.55
1355.92738	64268.25
1359.41078	69430.45
1362.89183	75130.35
1366.37053	74207.85
1369.84688	65689.95
1373.32088	56501.55
1376.79254	50573.65
1380.26186	47811.15
1383.72883	46690.05
1387.19347	45842.95
1390.65578	44921.75
1394.11575	44504.95
1397.57339	44673.55
1401.0287	45449.25
1404.48168	46462.65
1407.93234	47351.85
1411.38068	47569.05
1414.82669	46755.65
1418.27039	45291.05
1421.71177	43414.15
1425.15083	41898.35
1428.58758	40910.45
1432.02203	40627.95
1435.45416	40887.65
1438.88399	41344.95
1442.31151	41736.25
1445.73673	42188.75
1449.15965	42797.15
1452.58027	43071.35
1455.9986	43214.55
1459.41463	43465.75
1462.82837	44014.35
1466.23982	44888.55
1469.64898	45742.65
1473.05586	46268.85
1476.46045	46421.25
1479.86276	46691.35
1483.26279	46921.75
1486.66054	47410.55
1490.05602	48155.35
1493.44922	49196.55
1496.84016	50712.95
1500.22882	52945.25
1503.61521	56359.75
1506.99934	60551.45
1510.38121	64984.25
1513.76081	67538.55
1517.13816	66205.55
1520.51324	61353.35
1523.88607	55870.15
1527.25665	51894.85
1530.62498	49381.05
1533.99105	47930.85
1537.35488	46937.45
1540.71647	46184.35
1544.07581	45587.25
1547.4329	44977.95
1550.78776	44492.25
1554.14038	44265.45
1557.49077	44410.75
1560.83892	44967.15
1564.18484	45536.45
1567.52853	45955.85
1570.86999	46161.95
1574.20922	46397.65
1577.54624	46405.75
1580.88103	45469.95
1584.2136	44370.95
1587.54395	44467.65
1590.87208	46127.45
1594.19801	49020.85
1597.52172	52116.05
1600.84321	53232.35
1604.16251	51219.85
1607.47959	47626.15
1610.79447	43589.15
1614.10715	39995.95
1617.41763	36937.25
1620.7259	34823.15
1624.03199	33797.05
1627.33587	33779.15
1630.63757	34723.75
1633.93707	36733.35
1637.23439	39851.05
1640.52951	43861.55
1643.82246	48387.55
1647.11321	52554.55
1650.40179	54677.75
1653.68819	52664.15
1656.97241	46519.65
1660.25446	39444.55
1663.53433	34064.15
1666.81203	30627.95
1670.08756	28529.05
1673.36092	27214.35
1676.63211	26391.45
1679.90115	25811.85
1683.16801	25377.45
1686.43272	25039.45
1689.69527	24851.25
1692.95567	24647.15
1696.2139	24547.15
1699.46999	24475.95
1702.72392	24377.65
1705.97571	24357.65
1709.22535	24308.15
1712.47284	24232.65
1715.71819	24259.15
1718.96139	24241.75
1722.20246	24155.55
1725.44139	24051.25
1728.67818	23918.55
1731.91284	23773.65
1735.14537	23593.55
1738.37576	23459.85
1741.60403	23413.35
1744.83017	23337.55
1748.05418	23289.35
1751.27607	23224.45
1754.49584	23163.95
1757.71349	23204.35
1760.92903	23202.15
1764.14244	23120.05
1767.35375	23119.05
1770.56294	23083.35
1773.77002	23024.55
1776.97499	22958.75
1780.17785	22908.75
1783.37861	22839.05
1786.57727	22809.35
1789.77382	22736.45
1792.96828	22790.25
1796.16064	22759.55
1799.3509	22733.45
1802.53907	22684.45
1805.72514	22631.15
1808.90913	22558.95
1812.09102	22548.95
1815.27083	22482.15
1818.44856	22474.55
1821.6242	22450.25
1824.79776	22416.55
1827.96924	22392.45
1831.13864	22401.45
1834.30597	22357.15
1837.47122	22375.35
1840.6344	22367.15
1843.7955	22433.55
1846.95454	22412.15
1850.11151	22426.05
1853.26642	22459.05
1856.41926	22406.55
1859.57004	22456.55
1862.71876	22479.35
1865.86542	22495.85
1869.01003	22499.95
1872.15258	22515.75
1875.29308	22542.75
1878.43152	22528.85
1881.56792	22557.95
1884.70227	22616.65
1887.83457	22616.15
1890.96482	22653.75
1894.09304	22641.05
1897.21921	22711.25
1900.34335	22706.55
1903.46544	22719.85
1906.58551	22749.05
1909.70353	22747.35
1912.81953	22735.15
1915.93349	22732.85
1919.04543	22703.75
1922.15534	22658.35
1925.26322	22595.45
1928.36908	22505.05
1931.47292	22385.85
1934.57473	22265.55
1937.67453	22128.95
1940.77232	22013.05
1943.86808	21917.65
1946.96184	21770.75
1950.05358	21686.85
1953.14331	21582.35
1956.23103	21512.05
1959.31675	21396.15
1962.40046	21362.25
1965.48217	21282.95
1968.56188	21237.85
1971.63959	21188.85
1974.7153	21145.15
1977.78901	21045.45
1980.86073	20946.65
1983.93046	20874.25
1986.99819	20815.75
1990.06394	20770.65
1993.1277	20704.95
1996.18947	20603.65
1999.24925	20550.65
2002.30706	20511.65
2005.36288	20430.05
2008.41672	20398.95
2011.46859	20325.55
2014.51848	20283.55
2017.56639	20242.65
2020.61233	20169.55
2023.6563	20152.15
2026.6983	20102.15
2029.73833	20026.05
2032.7764	20000.75
2035.8125	19989.35
2038.84664	19938.95
2041.87881	19902.85
2044.90903	19870.45
2047.93729	19798.95
2050.96359	19858.35
2053.98794	19782.45
2057.01034	19807.35
2060.03078	19776.85
2063.04927	19725.95
2066.06582	19726.65
2069.08042	19691.65
2072.09307	19683.15
2075.10378	19635.25
2078.11255	19600.75
2081.11938	19605.85
2084.12426	19577.35
2087.12722	19590.85
2090.12824	19594.45
2093.12732	19602.55
2096.12447	19593.65
2099.11969	19577.85
2102.11299	19597.25
2105.10435	19562.55
2108.09379	19586.45
2111.08131	19598.55
2114.0669	19618.45
2117.05057	19648.95
2120.03233	19660.85
2123.01216	19663.85
2125.99008	19683.45
2128.96609	19675.05
2131.94018	19700.55
2134.91236	19729.15
2137.88263	19738.95
2140.851	19746.55
2143.81746	19775.15
2146.78201	19774.25
2149.74466	19739.35
2152.7054	19747.25
2155.66425	19749.05
2158.6212	19722.55
2161.57625	19729.95
2164.52941	19703.65
2167.48067	19671.55
2170.43004	19706.05
2173.37752	19685.85
2176.32311	19707.35
2179.26681	19674.65
2182.20863	19685.35
2185.14856	19715.35
2188.08661	19658.15
2191.02278	19691.45
2193.95707	19671.45
2196.88948	19666.85
2199.82001	19669.85
2202.74867	19687.05
2205.67545	19655.55
2208.60037	19641.05
2211.52341	19620.45
2214.44458	19599.55
2217.36388	19600.95
2220.28132	19578.55
2223.1969	19514.65
2226.11061	19537.15
2229.02246	19442.45
2231.93245	19441.25
2234.84058	19387.15
2237.74686	19327.05
2240.65128	19310.35
2243.55385	19291.25
2246.45456	19270.85
2249.35343	19246.05
2252.25044	19236.55
2255.14561	19209.05
2258.03893	19235.25
2260.93041	19168.15
2263.82004	19143.15
2266.70783	19105.85
2269.59378	19017.25
2272.4779	18973.25
2275.36017	18943.05
2278.24061	18907.75
2281.11922	18854.95
2283.996	18866.95
2286.87094	18811.35
2289.74405	18771.25
2292.61534	18769.45
2295.4848	18719.15
2298.35243	18763.95
2301.21824	18756.85
2304.08223	18733.45
2306.94439	18757.75
2309.80474	18805.65
2312.66327	18744.35
2315.51999	18767.05
2318.37489	18761.85
2321.22797	18721.35
2324.07925	18706.15
2326.92871	18738.25
2329.77637	18687.85
2332.62222	18677.85
2335.46626	18682.45
2338.3085	18686.85
2341.14893	18685.95
2343.98756	18700.75
2346.8244	18756.05
2349.65943	18739.25
2352.49267	18740.75
2355.32411	18704.95
2358.15376	18740.35
2360.98161	18698.85
2363.80768	18698.75
2366.63195	18684.55
2369.45444	18634.95
2372.27514	18645.15
2375.09405	18611.75
2377.91118	18563.25
2380.72652	18506.35
2383.54009	18466.15
2386.35187	18412.55
2389.16188	18391.15
2391.97011	18324.75
2394.77657	18304.15
2397.58125	18303.65
2400.38416	18254.85
2403.18529	18195.95
2405.98466	18191.35
2408.78226	18166.95
2411.57809	18138.15
2414.37216	18085.25
2417.16446	18087.05
2419.955	18040.45
2422.74378	18039.65
2425.5308	18055.35
2428.31606	18042.95
2431.09956	18002.45
2433.88131	17984.05
2436.6613	18003.05
2439.43954	17990.75
2442.21603	17987.85
2444.99077	17936.45
2447.76377	17935.35
2450.53501	17927.45
2453.30451	17932.35
2456.07226	17936.15
2458.83827	17957.45
2461.60254	17946.75
2464.36507	17933.35
2467.12586	17927.75
2469.88492	17929.55
2472.64224	17924.15
2475.39782	17944.75
2478.15167	17956.55
2480.90379	17957.65
2483.65417	17983.95
2486.40283	17978.45
2489.14976	18026.25
2491.89497	18061.75
2494.63845	18111.85
2497.3802	18069.65
2500.12024	18075.65
2502.85855	18063.85
2505.59514	18075.35
2508.33002	18038.25
2511.06318	18013.35
2513.79462	17939.15
2516.52435	17894.85
2519.25237	17907.35
2521.97867	17847.65
2524.70327	17861.95
2527.42616	17817.35
2530.14734	17819.35
2532.86681	17776.75
2535.58458	17782.25
2538.30065	17746.15
2541.01501	17737.65
2543.72768	17743.15
2546.43864	17703.75
2549.14791	17686.95
2551.85548	17711.75
2554.56136	17699.15
2557.26554	17679.15
2559.96803	17672.95
2562.66883	17651.65
2565.36794	17615.45
2568.06536	17618.25
2570.7611	17579.25
2573.45514	17555.45
2576.14751	17545.45
2578.83819	17526.15
2581.52719	17571.85
2584.21451	17513.55
2586.90015	17506.15
2589.58411	17515.85
2592.2664	17533.95
2594.94701	17480.75
2597.62594	17505.15
2600.30321	17486.95
2602.9788	17460.75
2605.65273	17446.15
2608.32498	17465.15
2610.99557	17459.65
2613.66449	17473.95
2616.33175	17471.15
2618.99734	17476.85
2621.66128	17458.15
2624.32355	17490.45
2626.98416	17502.05
2629.64311	17480.15
2632.30041	17476.75
2634.95605	17477.35
2637.61004	17459.45
2640.26238	17413.85
2642.91306	17393.15
2645.56209	17316.45
2648.20948	17331.95
2650.85521	17321.75
2653.4993	17339.65
2656.14175	17368.05
2658.78255	17344.85
2661.42171	17344.85
2664.05923	17383.05
2666.6951	17381.15
2669.32934	17420.45
2671.96194	17419.15
2674.59291	17457.15
2677.22224	17441.55
2679.84993	17445.35
2682.476	17435.95
2685.10043	17417.85
2687.72324	17415.75
2690.34441	17410.55
2692.96396	17398.65
2695.58188	17425.75
2698.19818	17385.05
2700.81285	17391.35
2703.4259	17407.05
2706.03733	17466.65
2708.64714	17399.95
2711.25533	17421.25
2713.86191	17395.05
2716.46687	17405.25
2719.07021	17412.65
2721.67194	17427.35
2724.27206	17399.85
2726.87057	17461.45
2729.46747	17441.45
2732.06276	17429.75
2734.65644	17402.35
2737.24852	17373.25
2739.83899	17342.85
2742.42786	17380.15
2745.01513	17359.75
2747.60079	17363.35
2750.18486	17357.75
2752.76733	17378.15
2755.3482	17357.25
2757.92747	17363.45
2760.50515	17357.75
2763.08123	17345.45
2765.65573	17311.45
2768.22863	17299.15
2770.79994	17277.05
2773.36967	17292.95
2775.9378	17287.75
2778.50435	17296.85
2781.06932	17275.25
2783.6327	17268.35
2786.1945	17214.45
2788.75471	17240.45
2791.31335	17160.95
2793.87041	17165.35
2796.42589	17099.75
2798.97979	17173.75
2801.53212	17100.95
2804.08288	17085.25
2806.63206	17091.95
2809.17967	17045.75
2811.72571	17005.65
2814.27018	16986.95
2816.81308	16972.85
2819.35442	16958.45
2821.89419	16977.75
2824.43239	16980.15
2826.96904	16992.55
2829.50412	16968.25
2832.03763	16916.25
2834.56959	16927.45
2837.1	16925.75
2839.62884	16961.05
2842.15613	16943.65
2844.68186	16978.35
2847.20604	17019.45
2849.72867	17046.85
2852.24974	17031.35
2854.76927	17046.45
2857.28724	17031.65
2859.80367	17033.15
2862.31855	16969.05
2864.83189	16960.15
2867.34368	16923.45
2869.85393	16907.35
2872.36264	16905.45
2874.8698	16908.95
2877.37543	16902.85
2879.87952	16900.95
2882.38207	16925.35
2884.88308	16898.55
2887.38256	16937.35
2889.88051	16921.15
2892.37692	16921.35
2894.8718	16941.55
2897.36515	16961.95
2899.85698	16902.35
2902.34727	16957.65
2904.83604	16965.95
2907.32328	16993.55
2909.809	16966.15
2912.29319	16936.65
2914.77587	16935.05
2917.25702	16967.65
2919.73665	16936.95
2922.21476	16943.15
2924.69136	16912.45
2927.16644	16949.35
2929.64	16919.15
2932.11205	16866.65
2934.58258	16803.35
2937.05161	16855.75
2939.51912	16824.05
2941.98513	16796.15
2944.44962	16746.65
2946.91261	16648.55
2949.37409	16664.25
2951.83407	16646.95
2954.29254	16636.05
2956.74951	16602.55
2959.20498	16585.95
2961.65895	16536.35
2964.11142	16539.25
2966.56239	16492.35
2969.01186	16480.25
2971.45984	16431.45
2973.90632	16384.85
2976.35131	16337.05
2978.7948	16292.25
2981.23681	16242.45
2983.67732	16217.85
2986.11635	16206.35
2988.55388	16137.15
2990.98993	16118.25
2993.4245	16087.35
2995.85758	16060.05
2998.28917	16022.45
3000.71928	16007.35
3003.14791	15979.85
3005.57506	15955.05
3008.00073	15932.65
3010.42493	15891.75
3012.84764	15854.85
3015.26888	15863.15
3017.68865	15816.65
3020.10694	15767.85
3022.52376	15768.95
3024.9391	15731.05
3027.35298	15669.25
3029.76539	15638.05
3032.17632	15620.65
3034.5858	15599.45
3036.9938	15587.05
3039.40034	15551.15
3041.80542	15560.75
3044.20903	15513.45
3046.61118	15523.45
3049.01187	15466.65
3051.4111	15459.65
3053.80888	15427.55
3056.20519	15383.95
3058.60005	15318.05
3060.99345	15321.95
3063.3854	15284.25
3065.7759	15246.55
3068.16494	15200.25
3070.55254	15123.75
3072.93868	15086.85
3075.32338	15045.95
3077.70662	15055.45
3080.08842	14993.05
3082.46878	14959.15
3084.84769	14925.45
3087.22515	14924.55
3089.60118	14935.65
3091.97576	14896.15
3094.3489	14879.85
3096.72061	14885.75
3099.09087	14854.85
3101.4597	14820.15
3103.82709	14835.15
3106.19305	14797.35
3108.55757	14781.65
3110.92066	14695.95
3113.28232	14710.05
3115.64255	14674.35
3118.00134	14636.95
3120.35871	14620.85
3122.71466	14580.55
3125.06917	14579.75
3127.42226	14518.25
3129.77393	14532.85
3132.12417	14525.85
3134.47299	14489.55
3136.82039	14526.35
3139.16636	14520.55
3141.51092	14485.85
3143.85406	14459.65
3146.19579	14479.95
3148.53609	14488.25
3150.87499	14463.55
3153.21246	14464.95
3155.54853	14499.85
3157.88318	14499.35
3160.21642	14492.45
3162.54826	14453.05
3164.87868	14425.15
3167.2077	14429.25
3169.5353	14414.15
3171.86151	14429.55
3174.18631	14395.75
3176.5097	14393.65
3178.83169	14365.45
3181.15228	14366.45
3183.47147	14337.95
3185.78926	14348.85
3188.10565	14340.75
3190.42065	14335.45
3192.73424	14312.15
3195.04645	14315.25
3197.35725	14327.05
3199.66667	14286.85
3201.97469	14346.35
3204.28132	14323.85
3206.58656	14319.05
3208.8904	14356.65
3211.19287	14339.25
3213.49394	14363.45
3215.79363	14355.65
3218.09193	14348.65
3220.38884	14303.35
3222.68438	14317.45
3224.97853	14305.35
3227.2713	14307.75
3229.56269	14272.95
3231.8527	14220.45
3234.14133	14201.25
3236.42858	14198.05
3238.71446	14186.15
