Data from AgNPs_FTO_APTES_UA_2uM_CRN_10uM_R6G_10uM_NaF_0.1M_Addition_RamanShift__12__13-32-05-152.txt Node

Date: Wed Feb 02 13:32:05 GMT 2022
User: TCL
Spectrometer: QEP01345
Trigger mode: 4
Integration Time (sec): 7.000000E0
Scans to average: 10
Electric dark correction enabled: true
Nonlinearity correction enabled: false
Boxcar width: 0
XAxis mode: Raman Shifts
Number of Pixels in Spectrum: 1044
>>>>>Begin Spectral Data<<<<<
46.04893	2.05
50.45542	0.45
54.85868	-0.85
59.25871	-0.45
63.6555	89.55
68.04907	96.35
72.43941	98.25
76.82654	105.75
81.21044	109.75
85.59113	111.85
89.96862	113.35
94.34289	119.65
98.71396	125.25
103.08183	128.95
107.4465	129.45
111.80798	136.85
116.16626	138.75
120.52136	147.45
124.87327	150.75
129.222	157.75
133.56755	171.15
137.90993	188.45
142.24913	211.95
146.58517	237.25
150.91804	276.95
155.24774	331.55
159.57429	424.05
163.89768	540.75
168.21792	720.15
172.53501	981.45
176.84895	1367.35
181.15975	1927.25
185.46741	2711.15
189.77193	3758.15
194.07331	5018.05
198.37157	6468.55
202.6667	8025.15
206.9587	9564.25
211.24758	11052.05
215.53334	12537.65
219.81599	14079.05
224.09553	15777.55
228.37195	17623.95
232.64527	19714.35
236.91549	21914.85
241.18261	24128.05
245.44663	26247.45
249.70755	28156.25
253.96539	29838.85
258.22014	31223.95
262.4718	32384.15
266.72039	33158.75
270.96589	33543.35
275.20832	33586.55
279.44768	33441.35
283.68397	33187.35
287.91719	32961.55
292.14735	32796.05
296.37445	32724.45
300.59849	32714.85
304.81948	32844.25
309.03742	32834.65
313.25231	32656.95
317.46415	32093.85
321.67296	31388.75
325.87872	30635.25
330.08145	30333.15
334.28114	30258.35
338.47781	30444.05
342.67145	30639.15
346.86207	31023.15
351.04966	31412.25
355.23424	31826.65
359.4158	32155.75
363.59435	32484.15
367.76989	32673.35
371.94243	32800.35
376.11196	32862.05
380.27849	32966.55
384.44203	33050.15
388.60257	33262.25
392.76012	33654.75
396.91468	34142.25
401.06626	34750.85
405.21485	35078.95
409.36047	34962.55
413.50311	34628.15
417.64277	34387.75
421.77947	34484.85
425.9132	34612.35
430.04396	34832.55
434.17176	34987.15
438.2966	35107.45
442.41849	35374.45
446.53742	35952.15
450.6534	36653.25
454.76644	37076.75
458.87653	37369.95
462.98368	37400.45
467.08789	37276.95
471.18916	37048.45
475.2875	36772.95
479.38291	36646.95
483.4754	36547.75
487.56496	36308.85
491.6516	35903.75
495.73531	35355.45
499.81612	34981.75
503.89401	35027.15
507.96899	35209.65
512.04106	35276.15
516.11023	35163.25
520.1765	34800.95
524.23987	34441.15
528.30034	34041.75
532.35792	33673.25
536.41261	33329.15
540.46441	33117.35
544.51333	33232.25
548.55936	33586.85
552.60252	34183.25
556.64279	34835.45
560.6802	35430.95
564.71473	35921.05
568.7464	36614.05
572.7752	37911.95
576.80114	39410.85
580.82422	40817.85
584.84444	41952.45
588.86181	43105.75
592.87633	44029.75
596.888	43674.45
600.89682	42021.15
604.9028	41295.35
608.90594	42530.85
612.90624	43865.75
616.90371	41280.75
620.89834	36395.35
624.89015	34276.25
628.87913	34265.45
632.86528	34675.55
636.84862	34757.05
640.82913	34168.55
644.80683	33327.05
648.78172	32763.65
652.75379	32637.45
656.72306	32932.55
660.68952	33294.35
664.65319	33181.25
668.61405	32829.25
672.57211	32805.35
676.52738	32859.25
680.47986	32827.65
684.42955	32681.65
688.37646	32544.25
692.32058	32632.45
696.26192	32968.95
700.20048	33391.65
704.13626	33701.85
708.06928	33895.85
711.99952	33893.55
715.927	33745.95
719.85171	33641.05
723.77365	33336.35
727.69284	32887.75
731.60928	32468.45
735.52295	32216.05
739.43388	32127.95
743.34206	32170.25
747.24749	32363.05
751.15017	32755.65
755.05012	33299.35
758.94733	34213.45
762.8418	35648.45
766.73354	37627.45
770.62254	39370.65
774.50882	39489.35
778.39237	37851.85
782.27321	35821.45
786.15132	34200.05
790.02671	33067.55
793.89938	32434.05
797.76935	32004.55
801.6366	31890.55
805.50115	31781.65
809.36299	31666.45
813.22213	31536.45
817.07857	31403.75
820.93231	31431.75
824.78336	31273.55
828.63172	31181.85
832.47738	31045.95
836.32036	31021.95
840.16066	30911.45
843.99827	30933.65
847.8332	30914.05
851.66546	30927.15
855.49504	30980.55
859.32195	31029.75
863.1462	30969.15
866.96777	30920.45
870.78668	30902.05
874.60293	30856.65
878.41652	30887.95
882.22745	30894.95
886.03573	30977.25
889.84136	31028.25
893.64433	30937.35
897.44466	30905.25
901.24235	30848.95
905.0374	30864.95
908.8298	30838.65
912.61957	30956.05
916.40671	31263.65
920.19121	31752.55
923.97308	32011.55
927.75233	31922.75
931.52895	31525.85
935.30295	30968.25
939.07433	30393.65
942.84309	29970.35
946.60924	29721.15
950.37278	29634.15
954.13371	29628.75
957.89203	29628.05
961.64774	29614.15
965.40086	29568.65
969.15137	29515.45
972.89929	29344.55
976.64461	29204.35
980.38733	29107.15
984.12747	29041.15
987.86502	29148.75
991.59999	29280.45
995.33237	29431.25
999.06217	29717.75
1002.78939	30122.75
1006.51404	30590.45
1010.23611	31039.25
1013.95561	31349.65
1017.67255	31383.25
1021.38692	31180.85
1025.09872	30802.15
1028.80796	30443.35
1032.51465	30297.45
1036.21877	30313.05
1039.92035	30436.25
1043.61937	30661.55
1047.31584	30759.85
1051.00976	30846.45
1054.70114	31047.75
1058.38998	31322.45
1062.07627	31721.35
1065.76003	32202.45
1069.44126	32693.95
1073.11995	33209.35
1076.79611	33588.95
1080.46974	33753.75
1084.14085	33830.35
1087.80943	34083.05
1091.47549	34431.95
1095.13903	34631.55
1098.80005	34337.45
1102.45857	33560.15
1106.11456	32738.15
1109.76805	32215.65
1113.41903	32067.65
1117.06751	32136.15
1120.71348	32373.15
1124.35696	32629.25
1127.99793	33030.95
1131.63641	33258.85
1135.2724	33272.05
1138.90589	33201.75
1142.5369	33378.15
1146.16542	33653.75
1149.79145	34032.35
1153.415	34437.05
1157.03607	34966.15
1160.65467	35740.75
1164.27079	37111.95
1167.88443	38712.15
1171.49561	40468.25
1175.10432	42571.55
1178.71056	45096.75
1182.31434	47420.05
1185.91565	48879.65
1189.51451	49319.65
1193.11091	48963.05
1196.70485	47802.75
1200.29634	46154.95
1203.88538	44818.05
1207.47197	44272.45
1211.05612	44100.15
1214.63782	43646.65
1218.21708	42526.45
1221.79391	41028.75
1225.36829	39756.45
1228.94024	39015.75
1232.50976	38610.15
1236.07685	38405.45
1239.6415	38220.15
1243.20374	38246.45
1246.76355	38510.75
1250.32093	39032.05
1253.8759	39757.65
1257.42845	40715.75
1260.97859	41949.35
1264.52631	43121.35
1268.07163	44214.65
1271.61453	45320.05
1275.15503	46494.15
1278.69312	47782.95
1282.22882	49235.45
1285.76211	50873.95
1289.29301	52719.15
1292.82151	54872.15
1296.34761	57339.35
1299.87133	60007.95
1303.39266	62526.75
1306.9116	64425.15
1310.42815	65717.15
1313.94233	66158.05
1317.45412	65868.95
1320.96354	65550.75
1324.47058	65685.35
1327.97525	65919.75
1331.47754	66260.45
1334.97747	66307.05
1338.47502	66202.95
1341.97022	66061.25
1345.46305	65692.65
1348.95352	65046.05
1352.44163	64211.35
1355.92738	63538.75
1359.41078	63800.45
1362.89183	64282.15
1366.37053	63333.05
1369.84688	59968.95
1373.32088	55243.25
1376.79254	51679.55
1380.26186	50268.15
1383.72883	50173.65
1387.19347	50295.25
1390.65578	49951.15
1394.11575	49734.65
1397.57339	49863.45
1401.0287	50248.15
1404.48168	50510.65
1407.93234	50040.15
1411.38068	48834.65
1414.82669	47061.75
1418.27039	45192.65
1421.71177	43314.35
1425.15083	42027.05
1428.58758	41469.75
1432.02203	41780.25
1435.45416	42725.75
1438.88399	43820.65
1442.31151	44678.75
1445.73673	45292.55
1449.15965	45921.15
1452.58027	46409.45
1455.9986	46781.75
1459.41463	47189.75
1462.82837	47722.95
1466.23982	48442.95
1469.64898	48933.05
1473.05586	49123.75
1476.46045	49165.35
1479.86276	48841.95
1483.26279	48593.05
1486.66054	48530.35
1490.05602	48867.05
1493.44922	49635.55
1496.84016	50669.15
1500.22882	51906.45
1503.61521	53409.55
1506.99934	54769.55
1510.38121	55704.55
1513.76081	55890.85
1517.13816	55379.65
1520.51324	54644.85
1523.88607	54318.45
1527.25665	54258.85
1530.62498	54103.85
1533.99105	53520.15
1537.35488	52346.25
1540.71647	50743.95
1544.07581	48955.95
1547.4329	47397.75
1550.78776	46243.85
1554.14038	45455.75
1557.49077	45103.85
1560.83892	44906.75
1564.18484	44939.15
1567.52853	45025.85
1570.86999	45396.65
1574.20922	46294.65
1577.54624	47189.45
1580.88103	47733.75
1584.2136	48283.45
1587.54395	49316.35
1590.87208	50914.95
1594.19801	52900.25
1597.52172	54442.05
1600.84321	54282.65
1604.16251	51814.35
1607.47959	48337.85
1610.79447	44896.15
1614.10715	41670.95
1617.41763	38929.65
1620.7259	36937.85
1624.03199	35955.75
1627.33587	35876.25
1630.63757	36801.15
1633.93707	38998.25
1637.23439	42794.85
1640.52951	48208.55
1643.82246	54448.45
1647.11321	59489.05
1650.40179	60521.55
1653.68819	56777.65
1656.97241	50169.65
1660.25446	43145.85
1663.53433	37701.15
1666.81203	34038.85
1670.08756	31663.65
1673.36092	30135.05
1676.63211	29159.45
1679.90115	28489.95
1683.16801	27933.85
1686.43272	27565.25
1689.69527	27268.25
1692.95567	27080.05
1696.2139	26932.95
1699.46999	26841.95
1702.72392	26725.65
1705.97571	26608.65
1709.22535	26475.85
1712.47284	26384.15
1715.71819	26340.45
1718.96139	26286.25
1722.20246	26144.35
1725.44139	26009.05
1728.67818	25859.85
1731.91284	25737.65
1735.14537	25523.85
1738.37576	25467.95
1741.60403	25375.35
1744.83017	25302.45
1748.05418	25211.95
1751.27607	25185.35
1754.49584	25107.05
1757.71349	25087.35
1760.92903	25025.95
1764.14244	25011.45
1767.35375	24985.15
1770.56294	24940.35
1773.77002	24876.15
1776.97499	24797.35
1780.17785	24694.25
1783.37861	24687.55
1786.57727	24595.15
1789.77382	24549.05
1792.96828	24491.35
1796.16064	24443.35
1799.3509	24401.65
1802.53907	24325.85
1805.72514	24287.75
1808.90913	24181.25
1812.09102	24140.45
1815.27083	24133.05
1818.44856	24081.05
1821.6242	24030.35
1824.79776	24045.15
1827.96924	23983.85
1831.13864	23959.65
1834.30597	23976.55
1837.47122	23965.85
1840.6344	23973.25
1843.7955	23971.95
1846.95454	23991.65
1850.11151	24000.15
1853.26642	23949.75
1856.41926	23957.35
1859.57004	23852.35
1862.71876	23861.25
1865.86542	23803.25
1869.01003	23813.65
1872.15258	23737.45
1875.29308	23672.95
1878.43152	23613.85
1881.56792	23549.45
1884.70227	23508.15
1887.83457	23498.65
1890.96482	23473.95
1894.09304	23437.45
1897.21921	23400.65
1900.34335	23369.35
1903.46544	23288.05
1906.58551	23244.45
1909.70353	23211.05
1912.81953	23095.85
1915.93349	23065.75
1919.04543	23003.05
1922.15534	23003.15
1925.26322	22916.85
1928.36908	22869.95
1931.47292	22808.55
1934.57473	22693.25
1937.67453	22641.05
1940.77232	22575.25
1943.86808	22521.55
1946.96184	22488.65
1950.05358	22432.35
1953.14331	22355.45
1956.23103	22294.05
1959.31675	22196.65
1962.40046	22132.15
1965.48217	22046.35
1968.56188	21999.75
1971.63959	21931.45
1974.7153	21853.25
1977.78901	21758.55
1980.86073	21721.35
1983.93046	21584.45
1986.99819	21543.35
1990.06394	21526.15
1993.1277	21430.75
1996.18947	21359.55
1999.24925	21259.45
2002.30706	21192.75
2005.36288	21080.25
2008.41672	21052.95
2011.46859	20990.05
2014.51848	20942.25
2017.56639	20886.55
2020.61233	20822.85
2023.6563	20783.85
2026.6983	20714.05
2029.73833	20670.45
2032.7764	20608.05
2035.8125	20516.55
2038.84664	20473.45
2041.87881	20465.15
2044.90903	20390.75
2047.93729	20359.35
2050.96359	20342.85
2053.98794	20307.65
2057.01034	20275.15
2060.03078	20239.15
2063.04927	20236.55
2066.06582	20248.95
2069.08042	20224.15
2072.09307	20198.95
2075.10378	20192.95
2078.11255	20158.75
2081.11938	20180.45
2084.12426	20149.15
2087.12722	20131.55
2090.12824	20137.45
2093.12732	20086.05
2096.12447	20115.35
2099.11969	20131.75
2102.11299	20156.05
2105.10435	20108.65
2108.09379	20115.65
2111.08131	20108.05
2114.0669	20098.05
2117.05057	20129.35
2120.03233	20118.75
2123.01216	20141.05
2125.99008	20119.95
2128.96609	20152.45
2131.94018	20150.05
2134.91236	20167.35
2137.88263	20192.85
2140.851	20193.75
2143.81746	20206.05
2146.78201	20166.05
2149.74466	20160.15
2152.7054	20106.75
2155.66425	20094.85
2158.6212	20076.55
2161.57625	20079.05
2164.52941	20077.25
2167.48067	20053.05
2170.43004	20004.15
2173.37752	20013.75
2176.32311	19974.45
2179.26681	20006.65
2182.20863	20002.45
2185.14856	19976.65
2188.08661	19971.85
2191.02278	19986.75
2193.95707	19956.35
2196.88948	19902.55
2199.82001	19898.25
2202.74867	19901.85
2205.67545	19868.95
2208.60037	19812.85
2211.52341	19775.25
2214.44458	19736.45
2217.36388	19693.45
2220.28132	19671.05
2223.1969	19603.35
2226.11061	19622.35
2229.02246	19574.95
2231.93245	19521.25
2234.84058	19480.45
2237.74686	19496.35
2240.65128	19461.35
2243.55385	19396.35
2246.45456	19394.25
2249.35343	19342.55
2252.25044	19300.85
2255.14561	19243.35
2258.03893	19205.35
2260.93041	19142.55
2263.82004	19091.45
2266.70783	19037.95
2269.59378	18990.25
2272.4779	18942.35
2275.36017	18898.95
2278.24061	18848.05
2281.11922	18818.55
2283.996	18730.95
2286.87094	18713.65
2289.74405	18701.45
2292.61534	18682.65
2295.4848	18636.55
2298.35243	18603.75
2301.21824	18595.25
2304.08223	18586.25
2306.94439	18570.15
2309.80474	18552.05
2312.66327	18538.95
2315.51999	18520.95
2318.37489	18484.75
2321.22797	18429.25
2324.07925	18380.15
2326.92871	18356.65
2329.77637	18343.75
2332.62222	18341.65
2335.46626	18301.05
2338.3085	18272.65
2341.14893	18241.35
2343.98756	18246.85
2346.8244	18242.95
2349.65943	18236.35
2352.49267	18189.75
2355.32411	18214.25
2358.15376	18192.25
2360.98161	18189.05
2363.80768	18178.55
2366.63195	18147.25
2369.45444	18078.95
2372.27514	18093.35
2375.09405	18078.75
2377.91118	18051.55
2380.72652	18006.25
2383.54009	17980.25
2386.35187	17969.95
2389.16188	17909.85
2391.97011	17858.45
2394.77657	17806.05
2397.58125	17765.25
2400.38416	17755.55
2403.18529	17744.35
2405.98466	17705.55
2408.78226	17649.65
2411.57809	17665.85
2414.37216	17623.55
2417.16446	17624.85
2419.955	17592.25
2422.74378	17638.25
2425.5308	17600.85
2428.31606	17582.15
2431.09956	17550.85
2433.88131	17516.65
2436.6613	17482.25
2439.43954	17466.05
2442.21603	17476.85
2444.99077	17397.85
2447.76377	17416.35
2450.53501	17396.25
2453.30451	17402.05
2456.07226	17366.85
2458.83827	17377.95
2461.60254	17332.75
2464.36507	17324.55
2467.12586	17337.15
2469.88492	17289.25
2472.64224	17286.55
2475.39782	17244.95
2478.15167	17277.65
2480.90379	17290.85
2483.65417	17225.55
2486.40283	17255.15
2489.14976	17239.05
2491.89497	17226.05
2494.63845	17257.85
2497.3802	17216.55
2500.12024	17219.05
2502.85855	17189.75
2505.59514	17205.95
2508.33002	17185.65
2511.06318	17178.25
2513.79462	17100.65
2516.52435	17088.75
2519.25237	17095.35
2521.97867	17091.05
2524.70327	17071.15
2527.42616	17017.65
2530.14734	17042.95
2532.86681	16999.15
2535.58458	16994.05
2538.30065	16923.85
2541.01501	16914.05
2543.72768	16889.65
2546.43864	16862.65
2549.14791	16879.25
2551.85548	16833.05
2554.56136	16810.35
2557.26554	16801.45
2559.96803	16769.05
2562.66883	16735.65
2565.36794	16694.85
2568.06536	16707.65
2570.7611	16669.85
2573.45514	16623.95
2576.14751	16645.05
2578.83819	16609.35
2581.52719	16579.85
2584.21451	16549.45
2586.90015	16556.25
2589.58411	16481.85
2592.2664	16488.95
2594.94701	16476.55
2597.62594	16448.15
2600.30321	16413.85
2602.9788	16410.55
2605.65273	16364.25
2608.32498	16382.75
2610.99557	16342.65
2613.66449	16355.55
2616.33175	16349.95
2618.99734	16360.15
2621.66128	16309.35
2624.32355	16294.05
2626.98416	16274.15
2629.64311	16257.05
2632.30041	16270.15
2634.95605	16229.05
2637.61004	16239.95
2640.26238	16204.95
2642.91306	16185.95
2645.56209	16157.55
2648.20948	16177.65
2650.85521	16145.25
2653.4993	16173.75
2656.14175	16185.35
2658.78255	16192.95
2661.42171	16168.75
2664.05923	16144.05
2666.6951	16176.75
2669.32934	16201.45
2671.96194	16181.65
2674.59291	16173.75
2677.22224	16152.85
2679.84993	16174.05
2682.476	16130.95
2685.10043	16150.35
2687.72324	16146.75
2690.34441	16151.15
2692.96396	16103.95
2695.58188	16139.85
2698.19818	16119.55
2700.81285	16114.95
2703.4259	16126.55
2706.03733	16156.45
2708.64714	16128.15
2711.25533	16142.05
2713.86191	16105.95
2716.46687	16104.05
2719.07021	16115.25
2721.67194	16096.35
2724.27206	16120.95
2726.87057	16151.05
2729.46747	16134.25
2732.06276	16100.65
2734.65644	16097.55
2737.24852	16095.15
2739.83899	16025.75
2742.42786	16079.75
2745.01513	16040.35
2747.60079	16010.35
2750.18486	16014.45
2752.76733	16027.95
2755.3482	16028.15
2757.92747	16022.95
2760.50515	16015.95
2763.08123	16001.65
2765.65573	15939.85
2768.22863	15921.55
2770.79994	15882.85
2773.36967	15894.75
2775.9378	15906.05
2778.50435	15898.65
2781.06932	15837.15
2783.6327	15848.15
2786.1945	15855.85
2788.75471	15803.15
2791.31335	15759.15
2793.87041	15760.55
2796.42589	15672.75
2798.97979	15681.55
2801.53212	15646.95
2804.08288	15612.95
2806.63206	15616.95
2809.17967	15574.25
2811.72571	15516.35
2814.27018	15519.45
2816.81308	15477.65
2819.35442	15461.75
2821.89419	15406.75
2824.43239	15380.35
2826.96904	15391.35
2829.50412	15381.15
2832.03763	15334.35
2834.56959	15343.55
2837.1	15338.45
2839.62884	15323.45
2842.15613	15308.95
2844.68186	15336.45
2847.20604	15331.55
2849.72867	15331.65
2852.24974	15280.25
2854.76927	15310.85
2857.28724	15291.15
2859.80367	15270.35
2862.31855	15242.25
2864.83189	15185.05
2867.34368	15160.15
2869.85393	15159.45
2872.36264	15109.65
2874.8698	15143.75
2877.37543	15121.25
2879.87952	15102.75
2882.38207	15082.15
2884.88308	15090.65
2887.38256	15099.85
2889.88051	15118.95
2892.37692	15099.85
2894.8718	15089.75
2897.36515	15124.25
2899.85698	15066.55
2902.34727	15120.55
2904.83604	15099.45
2907.32328	15086.95
2909.809	15085.75
2912.29319	15050.75
2914.77587	15033.95
2917.25702	15033.55
2919.73665	15030.85
2922.21476	15057.95
2924.69136	15022.05
2927.16644	15047.35
2929.64	15002.85
2932.11205	15030.75
2934.58258	14979.45
2937.05161	14977.95
2939.51912	14995.45
2941.98513	14960.35
2944.44962	14948.85
2946.91261	14849.85
2949.37409	14865.55
2951.83407	14850.15
2954.29254	14807.95
2956.74951	14815.85
2959.20498	14776.05
2961.65895	14726.65
2964.11142	14721.35
2966.56239	14701.15
2969.01186	14712.45
2971.45984	14655.25
2973.90632	14623.85
2976.35131	14575.55
2978.7948	14516.75
2981.23681	14529.85
2983.67732	14485.95
2986.11635	14439.95
2988.55388	14415.75
2990.98993	14388.35
2993.4245	14321.05
2995.85758	14291.25
2998.28917	14253.95
3000.71928	14232.35
3003.14791	14200.65
3005.57506	14152.55
3008.00073	14149.15
3010.42493	14109.05
3012.84764	14087.65
3015.26888	14066.85
3017.68865	14031.85
3020.10694	13995.15
3022.52376	13937.65
3024.9391	13934.55
3027.35298	13881.05
3029.76539	13872.55
3032.17632	13819.15
3034.5858	13819.45
3036.9938	13828.85
3039.40034	13805.55
3041.80542	13791.35
3044.20903	13766.05
3046.61118	13753.05
3049.01187	13671.75
3051.4111	13664.45
3053.80888	13656.25
3056.20519	13635.85
3058.60005	13561.05
3060.99345	13559.35
3063.3854	13521.65
3065.7759	13465.45
3068.16494	13445.15
3070.55254	13366.55
3072.93868	13350.15
3075.32338	13294.85
3077.70662	13310.45
3080.08842	13256.05
3082.46878	13256.05
3084.84769	13203.05
3087.22515	13192.85
3089.60118	13173.45
3091.97576	13141.55
3094.3489	13113.75
3096.72061	13123.65
3099.09087	13125.75
3101.4597	13078.95
3103.82709	13071.95
3106.19305	13104.95
3108.55757	13068.95
3110.92066	12984.95
3113.28232	12972.65
3115.64255	12920.85
3118.00134	12913.35
3120.35871	12859.15
3122.71466	12818.75
3125.06917	12784.55
3127.42226	12768.85
3129.77393	12784.75
3132.12417	12752.85
3134.47299	12727.95
3136.82039	12737.65
3139.16636	12728.45
3141.51092	12722.25
3143.85406	12697.15
3146.19579	12716.15
3148.53609	12696.85
3150.87499	12698.05
3153.21246	12701.35
3155.54853	12698.95
3157.88318	12684.15
3160.21642	12669.45
3162.54826	12636.75
3164.87868	12617.85
3167.2077	12613.25
3169.5353	12605.85
3171.86151	12589.85
3174.18631	12604.85
3176.5097	12604.95
3178.83169	12580.15
3181.15228	12566.45
3183.47147	12536.95
3185.78926	12535.95
3188.10565	12511.55
3190.42065	12498.15
3192.73424	12486.85
3195.04645	12430.05
3197.35725	12455.15
3199.66667	12433.05
3201.97469	12441.25
3204.28132	12417.65
3206.58656	12410.15
3208.8904	12427.55
3211.19287	12429.55
3213.49394	12432.75
3215.79363	12407.05
3218.09193	12362.85
3220.38884	12342.15
3222.68438	12363.95
3224.97853	12358.25
3227.2713	12338.85
3229.56269	12315.85
3231.8527	12291.55
3234.14133	12239.95
3236.42858	12239.35
3238.71446	12185.95
