Data from AgNPs_FTO_APTES_UA_2uM_CRN_5uM_R6G_10uM_NaF_0.1M_Addition_RamanShift__9__12-48-55-101.txt Node

Date: Wed Feb 02 12:48:55 GMT 2022
User: TCL
Spectrometer: QEP01345
Trigger mode: 4
Integration Time (sec): 7.000000E0
Scans to average: 10
Electric dark correction enabled: true
Nonlinearity correction enabled: false
Boxcar width: 0
XAxis mode: Raman Shifts
Number of Pixels in Spectrum: 1044
>>>>>Begin Spectral Data<<<<<
46.04893	0.5625
50.45542	0.2625
54.85868	-1.2375
59.25871	-0.5375
63.6555	96.1625
68.04907	97.0625
72.43941	104.5625
76.82654	109.1625
81.21044	109.5625
85.59113	111.9625
89.96862	112.0625
94.34289	120.8625
98.71396	123.8625
103.08183	130.5625
107.4465	132.9625
111.80798	141.1625
116.16626	140.6625
120.52136	150.2625
124.87327	160.2625
129.222	172.9625
133.56755	183.2625
137.90993	200.9625
142.24913	228.2625
146.58517	263.5625
150.91804	305.7625
155.24774	375.0625
159.57429	473.7625
163.89768	620.8625
168.21792	828.9625
172.53501	1147.2625
176.84895	1606.0625
181.15975	2257.0625
185.46741	3170.5625
189.77193	4369.9625
194.07331	5857.6625
198.37157	7541.2625
202.6667	9314.0625
206.9587	11050.7625
211.24758	12756.9625
215.53334	14495.8625
219.81599	16337.5625
224.09553	18345.3625
228.37195	20570.8625
232.64527	23029.6625
236.91549	25590.0625
241.18261	28094.3625
245.44663	30483.1625
249.70755	32686.7625
253.96539	34572.1625
258.22014	36163.5625
262.4718	37481.6625
266.72039	38375.9625
270.96589	38860.5625
275.20832	38877.3625
279.44768	38708.5625
283.68397	38327.9625
287.91719	38048.7625
292.14735	37951.6625
296.37445	37832.3625
300.59849	37926.0625
304.81948	38085.6625
309.03742	38092.2625
313.25231	37896.9625
317.46415	37291.0625
321.67296	36569.2625
325.87872	35843.2625
330.08145	35436.4625
334.28114	35274.7625
338.47781	35437.8625
342.67145	35765.3625
346.86207	36274.2625
351.04966	36807.1625
355.23424	37454.3625
359.4158	37973.0625
363.59435	38383.4625
367.76989	38690.8625
371.94243	38965.8625
376.11196	39057.6625
380.27849	39066.6625
384.44203	39101.4625
388.60257	39470.2625
392.76012	39948.6625
396.91468	40644.8625
401.06626	41279.3625
405.21485	41718.7625
409.36047	41606.6625
413.50311	41110.8625
417.64277	40993.6625
421.77947	41297.9625
425.9132	41620.1625
430.04396	41868.4625
434.17176	41980.7625
438.2966	42031.9625
442.41849	42439.1625
446.53742	43320.8625
450.6534	44304.8625
454.76644	45116.5625
458.87653	45392.2625
462.98368	45266.4625
467.08789	44844.3625
471.18916	44262.9625
475.2875	43696.1625
479.38291	43410.9625
483.4754	43250.7625
487.56496	42856.3625
491.6516	42202.4625
495.73531	41583.3625
499.81612	41169.1625
503.89401	41409.4625
507.96899	41649.9625
512.04106	41714.8625
516.11023	41430.4625
520.1765	40782.1625
524.23987	40157.9625
528.30034	39704.3625
532.35792	39242.9625
536.41261	38780.0625
540.46441	38481.2625
544.51333	38507.7625
548.55936	38985.4625
552.60252	39803.7625
556.64279	40785.7625
560.6802	41571.8625
564.71473	42081.3625
568.7464	42951.6625
572.7752	44502.3625
576.80114	46376.3625
580.82422	48347.4625
584.84444	50540.5625
588.86181	53181.7625
592.87633	55184.5625
596.888	54304.7625
600.89682	51082.9625
604.9028	49547.6625
608.90594	51200.6625
612.90624	53120.9625
616.90371	49546.5625
620.89834	42848.4625
624.89015	39915.0625
628.87913	39813.0625
632.86528	40178.2625
636.84862	40054.7625
640.82913	39246.0625
644.80683	38250.4625
648.78172	37696.0625
652.75379	37712.5625
656.72306	38150.0625
660.68952	38600.3625
664.65319	38251.0625
668.61405	37611.2625
672.57211	37598.0625
676.52738	37759.7625
680.47986	37724.3625
684.42955	37461.6625
688.37646	37306.9625
692.32058	37561.0625
696.26192	38129.3625
700.20048	38720.0625
704.13626	39104.7625
708.06928	39223.4625
711.99952	39087.7625
715.927	39078.7625
719.85171	39125.0625
723.77365	38831.7625
727.69284	38202.9625
731.60928	37519.1625
735.52295	37205.7625
739.43388	37202.4625
743.34206	37333.7625
747.24749	37622.3625
751.15017	38097.1625
755.05012	38922.5625
758.94733	40104.9625
762.8418	41898.0625
766.73354	44485.3625
770.62254	46620.0625
774.50882	46470.3625
778.39237	44302.7625
782.27321	41659.1625
786.15132	39547.6625
790.02671	38189.6625
793.89938	37550.2625
797.76935	37215.9625
801.6366	37083.5625
805.50115	37043.9625
809.36299	36867.7625
813.22213	36611.6625
817.07857	36403.8625
820.93231	36239.6625
824.78336	35995.9625
828.63172	35747.1625
832.47738	35557.3625
836.32036	35558.6625
840.16066	35556.9625
843.99827	35528.8625
847.8332	35505.4625
851.66546	35501.4625
855.49504	35557.3625
859.32195	35586.1625
863.1462	35460.6625
866.96777	35400.7625
870.78668	35336.9625
874.60293	35307.9625
878.41652	35391.3625
882.22745	35496.4625
886.03573	35642.6625
889.84136	35662.9625
893.64433	35533.3625
897.44466	35435.5625
901.24235	35310.0625
905.0374	35262.2625
908.8298	35210.6625
912.61957	35328.7625
916.40671	35717.1625
920.19121	36311.0625
923.97308	36797.1625
927.75233	36736.6625
931.52895	36255.5625
935.30295	35549.9625
939.07433	34784.3625
942.84309	34258.2625
946.60924	34021.2625
950.37278	33897.6625
954.13371	33936.7625
957.89203	33967.8625
961.64774	33999.6625
965.40086	34000.8625
969.15137	33899.7625
972.89929	33705.2625
976.64461	33489.7625
980.38733	33461.7625
984.12747	33441.4625
987.86502	33524.9625
991.59999	33743.7625
995.33237	34035.8625
999.06217	34465.2625
1002.78939	35223.9625
1006.51404	35986.5625
1010.23611	36774.2625
1013.95561	37226.1625
1017.67255	37279.2625
1021.38692	36837.7625
1025.09872	36173.8625
1028.80796	35664.6625
1032.51465	35592.7625
1036.21877	35839.1625
1039.92035	36036.5625
1043.61937	36113.4625
1047.31584	36094.5625
1051.00976	36061.7625
1054.70114	36107.7625
1058.38998	36319.2625
1062.07627	36688.1625
1065.76003	37320.8625
1069.44126	37877.1625
1073.11995	38618.9625
1076.79611	39232.0625
1080.46974	39499.6625
1084.14085	39764.3625
1087.80943	40174.7625
1091.47549	40621.0625
1095.13903	40743.7625
1098.80005	40265.1625
1102.45857	39173.0625
1106.11456	38265.6625
1109.76805	37748.7625
1113.41903	37521.8625
1117.06751	37538.3625
1120.71348	37843.6625
1124.35696	38255.4625
1127.99793	38711.9625
1131.63641	38997.9625
1135.2724	39098.8625
1138.90589	39059.6625
1142.5369	39341.3625
1146.16542	39823.5625
1149.79145	40282.1625
1153.415	40767.8625
1157.03607	41585.6625
1160.65467	42997.9625
1164.27079	45341.5625
1167.88443	47997.4625
1171.49561	50522.1625
1175.10432	53426.6625
1178.71056	57036.5625
1182.31434	60419.1625
1185.91565	62225.6625
1189.51451	62166.3625
1193.11091	61004.3625
1196.70485	59157.3625
1200.29634	57104.6625
1203.88538	55630.6625
1207.47197	55253.2625
1211.05612	55083.3625
1214.63782	54427.7625
1218.21708	52753.8625
1221.79391	50624.6625
1225.36829	48962.1625
1228.94024	47985.7625
1232.50976	47321.8625
1236.07685	46783.7625
1239.6415	46402.5625
1243.20374	46294.0625
1246.76355	46705.0625
1250.32093	47387.9625
1253.8759	48448.8625
1257.42845	49873.1625
1260.97859	51539.4625
1264.52631	53277.5625
1268.07163	54876.7625
1271.61453	56485.0625
1275.15503	58235.9625
1278.69312	60122.6625
1282.22882	62262.1625
1285.76211	64885.0625
1289.29301	67873.1625
1292.82151	71292.1625
1296.34761	75245.6625
1299.87133	79783.9625
1303.39266	84193.4625
1306.9116	87771.4625
1310.42815	90000.8625
1313.94233	90544.1625
1317.45412	89829.0625
1320.96354	88922.7625
1324.47058	88559.4625
1327.97525	88698.1625
1331.47754	88872.1625
1334.97747	88504.3625
1338.47502	87653.1625
1341.97022	86310.8625
1345.46305	84583.2625
1348.95352	82953.3625
1352.44163	81726.2625
1355.92738	82063.5625
1359.41078	84066.2625
1362.89183	85928.7625
1366.37053	84882.1625
1369.84688	79578.1625
1373.32088	71670.7625
1376.79254	65808.4625
1380.26186	63779.7625
1383.72883	64305.6625
1387.19347	64885.4625
1390.65578	64308.9625
1394.11575	64096.9625
1397.57339	64873.5625
1401.0287	66192.9625
1404.48168	67299.4625
1407.93234	67070.3625
1411.38068	65329.9625
1414.82669	62661.5625
1418.27039	59684.9625
1421.71177	56827.6625
1425.15083	54763.0625
1428.58758	53892.9625
1432.02203	54571.4625
1435.45416	56357.4625
1438.88399	58413.7625
1442.31151	59963.4625
1445.73673	60693.7625
1449.15965	61093.6625
1452.58027	61069.2625
1455.9986	60929.6625
1459.41463	61249.1625
1462.82837	62085.7625
1466.23982	63187.8625
1469.64898	64058.3625
1473.05586	64620.6625
1476.46045	64597.9625
1479.86276	64009.8625
1483.26279	63186.8625
1486.66054	62810.7625
1490.05602	63077.3625
1493.44922	63795.1625
1496.84016	64529.6625
1500.22882	65325.4625
1503.61521	66495.1625
1506.99934	67690.9625
1510.38121	68552.4625
1513.76081	68798.5625
1517.13816	68183.5625
1520.51324	67487.3625
1523.88607	67262.2625
1527.25665	67713.6625
1530.62498	68177.0625
1533.99105	67715.2625
1537.35488	66573.7625
1540.71647	64668.7625
1544.07581	62362.3625
1547.4329	60112.2625
1550.78776	58325.4625
1554.14038	57059.7625
1557.49077	56337.2625
1560.83892	55869.0625
1564.18484	55641.7625
1567.52853	55515.9625
1570.86999	55935.0625
1574.20922	57206.7625
1577.54624	58630.8625
1580.88103	59729.9625
1584.2136	61170.3625
1587.54395	63715.9625
1590.87208	67419.6625
1594.19801	71441.7625
1597.52172	74734.2625
1600.84321	74683.2625
1604.16251	70335.0625
1607.47959	63957.5625
1610.79447	57794.0625
1614.10715	52506.4625
1617.41763	48248.8625
1620.7259	45364.1625
1624.03199	44022.7625
1627.33587	44154.9625
1630.63757	45743.9625
1633.93707	49326.8625
1637.23439	55290.0625
1640.52951	63942.5625
1643.82246	74014.6625
1647.11321	81490.7625
1650.40179	81982.4625
1653.68819	74766.2625
1656.97241	63481.0625
1660.25446	53099.5625
1663.53433	45519.2625
1666.81203	40616.1625
1670.08756	37602.3625
1673.36092	35699.1625
1676.63211	34427.3625
1679.90115	33571.4625
1683.16801	32881.2625
1686.43272	32493.9625
1689.69527	32078.6625
1692.95567	31824.4625
1696.2139	31641.5625
1699.46999	31503.6625
1702.72392	31345.2625
1705.97571	31175.2625
1709.22535	31058.1625
1712.47284	30994.6625
1715.71819	30926.5625
1718.96139	30845.9625
1722.20246	30694.4625
1725.44139	30539.2625
1728.67818	30368.6625
1731.91284	30113.7625
1735.14537	29953.4625
1738.37576	29852.5625
1741.60403	29704.4625
1744.83017	29564.3625
1748.05418	29492.6625
1751.27607	29421.8625
1754.49584	29358.8625
1757.71349	29366.9625
1760.92903	29344.3625
1764.14244	29293.6625
1767.35375	29242.5625
1770.56294	29103.1625
1773.77002	29014.9625
1776.97499	28992.5625
1780.17785	28914.3625
1783.37861	28901.2625
1786.57727	28835.5625
1789.77382	28749.1625
1792.96828	28676.3625
1796.16064	28583.2625
1799.3509	28542.2625
1802.53907	28458.0625
1805.72514	28334.4625
1808.90913	28294.6625
1812.09102	28299.5625
1815.27083	28229.9625
1818.44856	28210.9625
1821.6242	28224.9625
1824.79776	28179.1625
1827.96924	28137.9625
1831.13864	28210.5625
1834.30597	28200.8625
1837.47122	28166.4625
1840.6344	28178.2625
1843.7955	28161.2625
1846.95454	28165.8625
1850.11151	28112.9625
1853.26642	28106.2625
1856.41926	28052.4625
1859.57004	28006.6625
1862.71876	27986.3625
1865.86542	27950.2625
1869.01003	27945.8625
1872.15258	27879.2625
1875.29308	27847.1625
1878.43152	27772.6625
1881.56792	27756.0625
1884.70227	27691.4625
1887.83457	27667.7625
1890.96482	27642.6625
1894.09304	27566.7625
1897.21921	27514.5625
1900.34335	27522.0625
1903.46544	27461.3625
1906.58551	27367.5625
1909.70353	27328.0625
1912.81953	27210.9625
1915.93349	27170.2625
1919.04543	27135.7625
1922.15534	27024.6625
1925.26322	26949.2625
1928.36908	26905.0625
1931.47292	26853.8625
1934.57473	26736.4625
1937.67453	26631.9625
1940.77232	26557.2625
1943.86808	26496.7625
1946.96184	26438.3625
1950.05358	26350.9625
1953.14331	26290.2625
1956.23103	26213.4625
1959.31675	26168.5625
1962.40046	26068.2625
1965.48217	25977.8625
1968.56188	25904.8625
1971.63959	25811.1625
1974.7153	25742.1625
1977.78901	25666.3625
1980.86073	25523.6625
1983.93046	25462.6625
1986.99819	25374.1625
1990.06394	25263.6625
1993.1277	25242.2625
1996.18947	25130.6625
1999.24925	25062.7625
2002.30706	25017.5625
2005.36288	24926.7625
2008.41672	24830.6625
2011.46859	24786.1625
2014.51848	24699.8625
2017.56639	24615.9625
2020.61233	24613.3625
2023.6563	24551.6625
2026.6983	24476.9625
2029.73833	24435.8625
2032.7764	24376.3625
2035.8125	24334.4625
2038.84664	24254.9625
2041.87881	24243.7625
2044.90903	24209.0625
2047.93729	24116.7625
2050.96359	24089.3625
2053.98794	24049.9625
2057.01034	24051.3625
2060.03078	24024.0625
2063.04927	24004.8625
2066.06582	23954.6625
2069.08042	23954.5625
2072.09307	23893.9625
2075.10378	23867.1625
2078.11255	23922.5625
2081.11938	23940.4625
2084.12426	23864.7625
2087.12722	23904.3625
2090.12824	23846.6625
2093.12732	23808.9625
2096.12447	23848.9625
2099.11969	23817.3625
2102.11299	23871.3625
2105.10435	23904.4625
2108.09379	23857.4625
2111.08131	23832.7625
2114.0669	23810.7625
2117.05057	23817.2625
2120.03233	23862.1625
2123.01216	23923.4625
2125.99008	23862.0625
2128.96609	23873.3625
2131.94018	23885.6625
2134.91236	23874.2625
2137.88263	23822.7625
2140.851	23842.8625
2143.81746	23843.4625
2146.78201	23840.6625
2149.74466	23822.9625
2152.7054	23864.7625
2155.66425	23803.0625
2158.6212	23860.6625
2161.57625	23860.7625
2164.52941	23845.5625
2167.48067	23789.3625
2170.43004	23789.7625
2173.37752	23789.2625
2176.32311	23780.6625
2179.26681	23791.0625
2182.20863	23776.5625
2185.14856	23804.1625
2188.08661	23855.3625
2191.02278	23823.2625
2193.95707	23733.5625
2196.88948	23658.0625
2199.82001	23699.5625
2202.74867	23604.9625
2205.67545	23627.8625
2208.60037	23591.2625
2211.52341	23550.1625
2214.44458	23525.6625
2217.36388	23490.2625
2220.28132	23450.6625
2223.1969	23392.1625
2226.11061	23391.1625
2229.02246	23345.9625
2231.93245	23343.4625
2234.84058	23318.0625
2237.74686	23268.1625
2240.65128	23225.2625
2243.55385	23139.0625
2246.45456	23102.8625
2249.35343	23080.4625
2252.25044	23003.5625
2255.14561	22954.3625
2258.03893	22910.9625
2260.93041	22815.2625
2263.82004	22760.9625
2266.70783	22671.3625
2269.59378	22589.6625
2272.4779	22567.3625
2275.36017	22501.5625
2278.24061	22465.0625
2281.11922	22419.1625
2283.996	22411.6625
2286.87094	22387.1625
2289.74405	22344.1625
2292.61534	22305.0625
2295.4848	22261.9625
2298.35243	22271.8625
2301.21824	22239.1625
2304.08223	22213.4625
2306.94439	22239.7625
2309.80474	22222.3625
2312.66327	22181.5625
2315.51999	22165.1625
2318.37489	22168.0625
2321.22797	22111.4625
2324.07925	22103.3625
2326.92871	22100.6625
2329.77637	22066.6625
2332.62222	22016.2625
2335.46626	21960.1625
2338.3085	21946.4625
2341.14893	21931.6625
2343.98756	21940.8625
2346.8244	21898.4625
2349.65943	21944.8625
2352.49267	21938.8625
2355.32411	21949.6625
2358.15376	21925.5625
2360.98161	21916.7625
2363.80768	21937.7625
2366.63195	21867.6625
2369.45444	21855.3625
2372.27514	21820.3625
2375.09405	21726.4625
2377.91118	21680.2625
2380.72652	21680.5625
2383.54009	21608.8625
2386.35187	21568.0625
2389.16188	21517.5625
2391.97011	21538.2625
2394.77657	21451.4625
2397.58125	21445.0625
2400.38416	21407.9625
2403.18529	21339.9625
2405.98466	21348.0625
2408.78226	21355.8625
2411.57809	21289.7625
2414.37216	21291.6625
2417.16446	21294.8625
2419.955	21250.8625
2422.74378	21230.7625
2425.5308	21243.4625
2428.31606	21205.1625
2431.09956	21227.0625
2433.88131	21173.6625
2436.6613	21187.9625
2439.43954	21146.5625
2442.21603	21170.7625
2444.99077	21135.3625
2447.76377	21135.6625
2450.53501	21087.2625
2453.30451	21082.0625
2456.07226	21092.0625
2458.83827	21057.6625
2461.60254	21019.1625
2464.36507	21043.3625
2467.12586	21007.4625
2469.88492	21015.8625
2472.64224	21031.1625
2475.39782	21040.3625
2478.15167	21021.4625
2480.90379	20974.0625
2483.65417	20996.8625
2486.40283	20961.0625
2489.14976	20948.0625
2491.89497	20961.4625
2494.63845	21024.7625
2497.3802	20934.8625
2500.12024	20961.7625
2502.85855	20951.0625
2505.59514	20952.8625
2508.33002	20917.1625
2511.06318	20915.9625
2513.79462	20941.8625
2516.52435	20914.4625
2519.25237	20887.6625
2521.97867	20850.5625
2524.70327	20830.6625
2527.42616	20795.7625
2530.14734	20810.9625
2532.86681	20746.3625
2535.58458	20761.8625
2538.30065	20722.1625
2541.01501	20726.9625
2543.72768	20732.3625
2546.43864	20694.0625
2549.14791	20671.2625
2551.85548	20617.0625
2554.56136	20613.9625
2557.26554	20632.2625
2559.96803	20600.5625
2562.66883	20547.2625
2565.36794	20521.0625
2568.06536	20542.2625
2570.7611	20518.2625
2573.45514	20492.2625
2576.14751	20447.6625
2578.83819	20413.2625
2581.52719	20435.9625
2584.21451	20381.6625
2586.90015	20372.0625
2589.58411	20354.4625
2592.2664	20350.2625
2594.94701	20301.3625
2597.62594	20291.2625
2600.30321	20246.5625
2602.9788	20266.8625
2605.65273	20248.3625
2608.32498	20254.8625
2610.99557	20208.0625
2613.66449	20247.7625
2616.33175	20239.9625
2618.99734	20220.7625
2621.66128	20207.4625
2624.32355	20227.2625
2626.98416	20188.3625
2629.64311	20151.3625
2632.30041	20168.3625
2634.95605	20148.6625
2637.61004	20122.7625
2640.26238	20090.9625
2642.91306	20092.3625
2645.56209	20101.2625
2648.20948	20075.6625
2650.85521	20081.0625
2653.4993	20094.0625
2656.14175	20122.8625
2658.78255	20124.4625
2661.42171	20097.5625
2664.05923	20128.8625
2666.6951	20120.8625
2669.32934	20118.5625
2671.96194	20142.3625
2674.59291	20136.6625
2677.22224	20124.4625
2679.84993	20116.3625
2682.476	20114.1625
2685.10043	20080.4625
2687.72324	20102.9625
2690.34441	20096.7625
2692.96396	20135.2625
2695.58188	20139.1625
2698.19818	20110.7625
2700.81285	20139.0625
2703.4259	20102.8625
2706.03733	20139.3625
2708.64714	20095.0625
2711.25533	20130.0625
2713.86191	20144.4625
2716.46687	20165.0625
2719.07021	20191.4625
2721.67194	20165.4625
2724.27206	20194.9625
2726.87057	20167.7625
2729.46747	20150.4625
2732.06276	20219.7625
2734.65644	20179.0625
2737.24852	20243.2625
2739.83899	20218.3625
2742.42786	20176.5625
2745.01513	20162.7625
2747.60079	20117.1625
2750.18486	20124.3625
2752.76733	20144.0625
2755.3482	20097.8625
2757.92747	20110.7625
2760.50515	20047.9625
2763.08123	20058.2625
2765.65573	20059.9625
2768.22863	20057.1625
2770.79994	20011.6625
2773.36967	20004.8625
2775.9378	20050.9625
2778.50435	20026.1625
2781.06932	19990.0625
2783.6327	19960.7625
2786.1945	19924.5625
2788.75471	19948.1625
2791.31335	19876.5625
2793.87041	19853.5625
2796.42589	19837.2625
2798.97979	19845.1625
2801.53212	19826.3625
2804.08288	19819.5625
2806.63206	19732.3625
2809.17967	19726.4625
2811.72571	19643.9625
2814.27018	19617.1625
2816.81308	19572.0625
2819.35442	19556.4625
2821.89419	19512.1625
2824.43239	19465.2625
2826.96904	19452.6625
2829.50412	19426.8625
2832.03763	19386.8625
2834.56959	19392.1625
2837.1	19401.7625
2839.62884	19363.4625
2842.15613	19364.9625
2844.68186	19397.5625
2847.20604	19434.7625
2849.72867	19427.6625
2852.24974	19388.8625
2854.76927	19422.3625
2857.28724	19390.1625
2859.80367	19325.4625
2862.31855	19296.7625
2864.83189	19275.6625
2867.34368	19246.2625
2869.85393	19241.9625
2872.36264	19174.7625
2874.8698	19199.1625
2877.37543	19216.6625
2879.87952	19216.8625
2882.38207	19172.9625
2884.88308	19162.4625
2887.38256	19166.6625
2889.88051	19147.9625
2892.37692	19233.6625
2894.8718	19233.3625
2897.36515	19233.9625
2899.85698	19206.1625
2902.34727	19224.0625
2904.83604	19246.8625
2907.32328	19257.9625
2909.809	19185.7625
2912.29319	19231.2625
2914.77587	19202.8625
2917.25702	19207.3625
2919.73665	19211.3625
2922.21476	19248.9625
2924.69136	19208.0625
2927.16644	19237.4625
2929.64	19212.4625
2932.11205	19163.2625
2934.58258	19108.7625
2937.05161	19149.4625
2939.51912	19128.0625
2941.98513	19102.3625
2944.44962	19006.3625
2946.91261	18947.4625
2949.37409	19011.2625
2951.83407	18983.5625
2954.29254	18974.5625
2956.74951	18917.8625
2959.20498	18905.4625
2961.65895	18874.0625
2964.11142	18859.8625
2966.56239	18792.4625
2969.01186	18810.8625
2971.45984	18750.0625
2973.90632	18719.2625
2976.35131	18665.3625
2978.7948	18657.2625
2981.23681	18582.2625
2983.67732	18516.2625
2986.11635	18457.6625
2988.55388	18419.9625
2990.98993	18381.3625
2993.4245	18308.3625
2995.85758	18242.2625
2998.28917	18201.5625
3000.71928	18192.2625
3003.14791	18170.2625
3005.57506	18125.1625
3008.00073	18057.4625
3010.42493	18024.7625
3012.84764	18013.4625
3015.26888	17975.1625
3017.68865	17919.0625
3020.10694	17902.6625
3022.52376	17831.4625
