Data from AgNPs_FTO_APTES_UA_2uM_CRN_50uM_R6G_10uM_NaF_0.1M_Addition_RamanShift__37__15-19-25-278.txt Node

Date: Wed Feb 02 15:19:25 GMT 2022
User: TCL
Spectrometer: QEP01345
Trigger mode: 4
Integration Time (sec): 7.000000E0
Scans to average: 10
Electric dark correction enabled: true
Nonlinearity correction enabled: false
Boxcar width: 0
XAxis mode: Raman Shifts
Number of Pixels in Spectrum: 1044
>>>>>Begin Spectral Data<<<<<
46.04893	-0.1875
50.45542	1.1125
54.85868	-1.8875
59.25871	-0.7875
63.6555	87.9125
68.04907	94.7125
72.43941	97.9125
76.82654	102.7125
81.21044	108.3125
85.59113	114.8125
89.96862	118.5125
94.34289	122.4125
98.71396	123.9125
103.08183	132.1125
107.4465	136.5125
111.80798	136.3125
116.16626	139.1125
120.52136	142.8125
124.87327	146.8125
129.222	151.5125
133.56755	160.9125
137.90993	179.1125
142.24913	195.6125
146.58517	217.9125
150.91804	250.6125
155.24774	302.4125
159.57429	370.3125
163.89768	470.9125
168.21792	623.5125
172.53501	854.6125
176.84895	1177.4125
181.15975	1657.1125
185.46741	2321.6125
189.77193	3167.4125
194.07331	4246.0125
198.37157	5472.5125
202.6667	6733.8125
206.9587	8006.0125
211.24758	9252.5125
215.53334	10529.1125
219.81599	11856.9125
224.09553	13290.7125
228.37195	14925.1125
232.64527	16616.0125
236.91549	18407.4125
241.18261	20219.7125
245.44663	21921.4125
249.70755	23433.7125
253.96539	24777.2125
258.22014	25925.1125
262.4718	26889.2125
266.72039	27609.4125
270.96589	27943.5125
275.20832	28007.0125
279.44768	27938.7125
283.68397	27743.7125
287.91719	27599.8125
292.14735	27522.1125
296.37445	27523.6125
300.59849	27647.5125
304.81948	27742.9125
309.03742	27666.8125
313.25231	27431.8125
317.46415	26941.6125
321.67296	26246.2125
325.87872	25746.5125
330.08145	25394.5125
334.28114	25304.2125
338.47781	25362.6125
342.67145	25604.4125
346.86207	25948.5125
351.04966	26306.7125
355.23424	26698.8125
359.4158	27076.0125
363.59435	27384.9125
367.76989	27583.8125
371.94243	27726.3125
376.11196	27802.6125
380.27849	27819.6125
384.44203	27921.7125
388.60257	28208.8125
392.76012	28551.9125
396.91468	29004.8125
401.06626	29462.3125
405.21485	29703.3125
409.36047	29631.2125
413.50311	29299.4125
417.64277	29229.4125
421.77947	29314.9125
425.9132	29540.6125
430.04396	29725.5125
434.17176	29894.8125
438.2966	30057.5125
442.41849	30573.0125
446.53742	31485.7125
450.6534	32484.4125
454.76644	33164.8125
458.87653	33412.0125
462.98368	33225.4125
467.08789	32788.4125
471.18916	32357.9125
475.2875	32042.5125
479.38291	31967.3125
483.4754	31909.9125
487.56496	31597.1125
491.6516	30835.3125
495.73531	30016.9125
499.81612	29519.1125
503.89401	29441.3125
507.96899	29547.1125
512.04106	29432.1125
516.11023	29099.9125
520.1765	28631.9125
524.23987	28207.1125
528.30034	27857.7125
532.35792	27566.3125
536.41261	27257.3125
540.46441	26987.3125
544.51333	26988.1125
548.55936	27399.3125
552.60252	28090.2125
556.64279	28902.9125
560.6802	29673.0125
564.71473	30268.1125
568.7464	31047.4125
572.7752	32338.0125
576.80114	33659.6125
580.82422	34914.6125
584.84444	36297.0125
588.86181	38118.4125
592.87633	39453.3125
596.888	38841.7125
600.89682	36559.9125
604.9028	35333.5125
608.90594	36245.1125
612.90624	37473.6125
616.90371	34846.3125
620.89834	29896.7125
624.89015	27730.9125
628.87913	27532.7125
632.86528	27683.3125
636.84862	27562.4125
640.82913	27046.3125
644.80683	26372.2125
648.78172	25966.3125
652.75379	25935.4125
656.72306	26231.6125
660.68952	26438.0125
664.65319	26220.7125
668.61405	25781.8125
672.57211	25704.7125
676.52738	25835.8125
680.47986	25874.2125
684.42955	25749.3125
688.37646	25547.5125
692.32058	25762.3125
696.26192	26158.3125
700.20048	26598.9125
704.13626	26881.4125
708.06928	26951.2125
711.99952	26972.6125
715.927	27009.1125
719.85171	27063.0125
723.77365	26885.7125
727.69284	26400.0125
731.60928	26002.4125
735.52295	25827.7125
739.43388	25747.7125
743.34206	25785.7125
747.24749	26037.0125
751.15017	26429.3125
755.05012	27011.5125
758.94733	27933.0125
762.8418	29316.8125
766.73354	31211.5125
770.62254	32663.8125
774.50882	32508.1125
778.39237	30829.6125
782.27321	28743.2125
786.15132	27140.4125
790.02671	26163.9125
793.89938	25675.1125
797.76935	25480.2125
801.6366	25445.3125
805.50115	25419.7125
809.36299	25340.9125
813.22213	25185.5125
817.07857	25055.0125
820.93231	24952.7125
824.78336	24753.2125
828.63172	24566.8125
832.47738	24438.2125
836.32036	24406.0125
840.16066	24473.0125
843.99827	24467.7125
847.8332	24386.7125
851.66546	24337.1125
855.49504	24357.8125
859.32195	24331.4125
863.1462	24250.1125
866.96777	24153.9125
870.78668	24074.1125
874.60293	24054.7125
878.41652	24064.2125
882.22745	24128.9125
886.03573	24213.1125
889.84136	24188.8125
893.64433	24031.6125
897.44466	23973.4125
901.24235	23918.9125
905.0374	23839.3125
908.8298	23797.1125
912.61957	23963.7125
916.40671	24282.9125
920.19121	24785.1125
923.97308	25166.0125
927.75233	25116.2125
931.52895	24693.4125
935.30295	24077.0125
939.07433	23554.1125
942.84309	23248.9125
946.60924	22987.1125
950.37278	22942.7125
954.13371	22956.7125
957.89203	23011.8125
961.64774	23052.3125
965.40086	23056.4125
969.15137	22978.2125
972.89929	22769.3125
976.64461	22650.9125
980.38733	22586.2125
984.12747	22596.4125
987.86502	22649.1125
991.59999	22860.3125
995.33237	23053.3125
999.06217	23506.5125
1002.78939	23999.0125
1006.51404	24560.2125
1010.23611	24992.1125
1013.95561	25260.1125
1017.67255	25314.1125
1021.38692	25017.8125
1025.09872	24583.9125
1028.80796	24349.2125
1032.51465	24450.4125
1036.21877	24743.1125
1039.92035	24922.4125
1043.61937	24904.5125
1047.31584	24808.0125
1051.00976	24665.7125
1054.70114	24653.6125
1058.38998	24818.1125
1062.07627	25107.0125
1065.76003	25421.0125
1069.44126	25787.5125
1073.11995	26228.8125
1076.79611	26531.3125
1080.46974	26674.2125
1084.14085	26806.5125
1087.80943	27114.9125
1091.47549	27428.1125
1095.13903	27599.2125
1098.80005	27247.5125
1102.45857	26472.3125
1106.11456	25846.2125
1109.76805	25511.7125
1113.41903	25516.9125
1117.06751	25651.1125
1120.71348	25942.0125
1124.35696	26226.9125
1127.99793	26608.7125
1131.63641	26853.2125
1135.2724	26859.6125
1138.90589	26906.6125
1142.5369	27143.3125
1146.16542	27589.8125
1149.79145	28139.8125
1153.415	28614.8125
1157.03607	29364.8125
1160.65467	30644.7125
1164.27079	32508.8125
1167.88443	34572.7125
1171.49561	36503.6125
1175.10432	38760.8125
1178.71056	41577.2125
1182.31434	44123.6125
1185.91565	45214.9125
1189.51451	44649.6125
1193.11091	43628.8125
1196.70485	42422.2125
1200.29634	41123.4125
1203.88538	40485.4125
1207.47197	40401.5125
1211.05612	40354.0125
1214.63782	39595.2125
1218.21708	38189.3125
1221.79391	36541.7125
1225.36829	35290.8125
1228.94024	34449.1125
1232.50976	33753.5125
1236.07685	33175.7125
1239.6415	32912.1125
1243.20374	33034.5125
1246.76355	33347.4125
1250.32093	33967.1125
1253.8759	34717.6125
1257.42845	35773.1125
1260.97859	36830.6125
1264.52631	37962.7125
1268.07163	39019.9125
1271.61453	40209.5125
1275.15503	41577.6125
1278.69312	43139.9125
1282.22882	44948.5125
1285.76211	47111.5125
1289.29301	49829.2125
1292.82151	52989.6125
1296.34761	56749.5125
1299.87133	60922.8125
1303.39266	64685.3125
1306.9116	67481.3125
1310.42815	69073.4125
1313.94233	69639.2125
1317.45412	69204.9125
1320.96354	68413.1125
1324.47058	67846.4125
1327.97525	67715.9125
1331.47754	67498.1125
1334.97747	67127.6125
1338.47502	66206.6125
1341.97022	64603.0125
1345.46305	62546.0125
1348.95352	60809.3125
1352.44163	60022.4125
1355.92738	60738.2125
1359.41078	62593.0125
1362.89183	64073.7125
1366.37053	63100.2125
1369.84688	58694.6125
1373.32088	52516.8125
1376.79254	48286.6125
1380.26186	47347.3125
1383.72883	48240.0125
1387.19347	49101.9125
1390.65578	49144.3125
1394.11575	49222.6125
1397.57339	50094.6125
1401.0287	51334.4125
1404.48168	52245.1125
1407.93234	52003.9125
1411.38068	50326.6125
1414.82669	47805.1125
1418.27039	45095.8125
1421.71177	42369.5125
1425.15083	40224.9125
1428.58758	39215.5125
1432.02203	39517.2125
1435.45416	40977.2125
1438.88399	42695.5125
1442.31151	44195.2125
1445.73673	45144.4125
1449.15965	45811.7125
1452.58027	46108.1125
1455.9986	46063.3125
1459.41463	46103.7125
1462.82837	46539.8125
1466.23982	47402.1125
1469.64898	48106.0125
1473.05586	48570.1125
1476.46045	48617.2125
1479.86276	48069.4125
1483.26279	47270.7125
1486.66054	46675.5125
1490.05602	46641.4125
1493.44922	46788.1125
1496.84016	47038.2125
1500.22882	47360.5125
1503.61521	47952.2125
1506.99934	48673.4125
1510.38121	49389.8125
1513.76081	49569.8125
1517.13816	49292.5125
1520.51324	48776.6125
1523.88607	48727.6125
1527.25665	49148.2125
1530.62498	49725.2125
1533.99105	49688.9125
1537.35488	49041.6125
1540.71647	47551.6125
1544.07581	45795.3125
1547.4329	43944.5125
1550.78776	42409.0125
1554.14038	41355.6125
1557.49077	40711.1125
1560.83892	40383.8125
1564.18484	40272.4125
1567.52853	40356.6125
1570.86999	40898.3125
1574.20922	42027.7125
1577.54624	43400.8125
1580.88103	44485.5125
1584.2136	45816.1125
1587.54395	48076.6125
1590.87208	51177.3125
1594.19801	54361.6125
1597.52172	56869.1125
1600.84321	56788.7125
1604.16251	53249.2125
1607.47959	47806.2125
1610.79447	42526.2125
1614.10715	38077.1125
1617.41763	34833.3125
1620.7259	32796.6125
1624.03199	31889.5125
1627.33587	32155.4125
1630.63757	33560.7125
1633.93707	36441.4125
1637.23439	41109.0125
1640.52951	47749.8125
1643.82246	55522.6125
1647.11321	61454.6125
1650.40179	62132.8125
1653.68819	56457.4125
1656.97241	47657.0125
1660.25446	39283.4125
1663.53433	33173.6125
1666.81203	29206.7125
1670.08756	26724.4125
1673.36092	25188.9125
1676.63211	24200.8125
1679.90115	23519.5125
1683.16801	22974.8125
1686.43272	22647.4125
1689.69527	22324.7125
1692.95567	22124.6125
1696.2139	21994.0125
1699.46999	21867.3125
1702.72392	21757.3125
1705.97571	21624.7125
1709.22535	21517.3125
1712.47284	21445.0125
1715.71819	21393.6125
1718.96139	21305.0125
1722.20246	21198.6125
1725.44139	21108.7125
1728.67818	20981.7125
1731.91284	20813.4125
1735.14537	20712.3125
1738.37576	20584.4125
1741.60403	20485.1125
1744.83017	20395.3125
1748.05418	20378.9125
1751.27607	20335.4125
1754.49584	20292.7125
1757.71349	20253.1125
1760.92903	20244.0125
1764.14244	20258.6125
1767.35375	20161.4125
1770.56294	20098.3125
1773.77002	20050.4125
1776.97499	20007.5125
1780.17785	19957.8125
1783.37861	19938.0125
1786.57727	19877.6125
1789.77382	19838.1125
1792.96828	19774.8125
1796.16064	19740.7125
1799.3509	19681.6125
1802.53907	19626.7125
1805.72514	19547.3125
1808.90913	19533.9125
1812.09102	19485.6125
1815.27083	19462.1125
1818.44856	19418.0125
1821.6242	19365.6125
1824.79776	19354.7125
1827.96924	19328.1125
1831.13864	19326.9125
1834.30597	19322.0125
1837.47122	19366.6125
1840.6344	19321.2125
1843.7955	19279.0125
1846.95454	19290.5125
1850.11151	19290.2125
1853.26642	19296.0125
1856.41926	19245.3125
1859.57004	19233.9125
1862.71876	19205.9125
1865.86542	19157.8125
1869.01003	19160.7125
1872.15258	19137.8125
1875.29308	19112.2125
1878.43152	19113.9125
1881.56792	19070.3125
1884.70227	19036.9125
1887.83457	19050.8125
1890.96482	18988.2125
1894.09304	19003.7125
1897.21921	18981.9125
1900.34335	18928.8125
1903.46544	18887.7125
1906.58551	18885.9125
1909.70353	18862.9125
1912.81953	18817.0125
1915.93349	18749.0125
1919.04543	18733.2125
1922.15534	18673.8125
1925.26322	18675.5125
1928.36908	18590.5125
1931.47292	18589.3125
1934.57473	18503.6125
1937.67453	18443.0125
1940.77232	18388.5125
1943.86808	18374.7125
1946.96184	18316.6125
1950.05358	18270.5125
1953.14331	18196.4125
1956.23103	18148.3125
1959.31675	18103.6125
1962.40046	18055.8125
1965.48217	17984.8125
1968.56188	17923.3125
1971.63959	17832.2125
1974.7153	17821.5125
1977.78901	17762.8125
1980.86073	17677.7125
1983.93046	17628.0125
1986.99819	17577.6125
1990.06394	17538.0125
1993.1277	17504.0125
1996.18947	17419.5125
1999.24925	17374.0125
2002.30706	17298.6125
2005.36288	17269.4125
2008.41672	17206.2125
2011.46859	17195.3125
2014.51848	17114.4125
2017.56639	17049.7125
2020.61233	17044.1125
2023.6563	16976.0125
2026.6983	16983.0125
2029.73833	16923.4125
2032.7764	16927.4125
2035.8125	16861.4125
2038.84664	16817.9125
2041.87881	16846.6125
2044.90903	16801.8125
2047.93729	16781.7125
2050.96359	16761.5125
2053.98794	16730.5125
2057.01034	16716.9125
2060.03078	16711.0125
2063.04927	16687.6125
2066.06582	16691.5125
2069.08042	16671.3125
2072.09307	16655.4125
2075.10378	16612.0125
2078.11255	16619.9125
2081.11938	16599.1125
2084.12426	16559.6125
2087.12722	16591.9125
2090.12824	16609.4125
2093.12732	16575.0125
2096.12447	16590.0125
2099.11969	16588.7125
2102.11299	16621.5125
2105.10435	16603.0125
2108.09379	16610.7125
2111.08131	16619.8125
2114.0669	16581.8125
2117.05057	16629.8125
2120.03233	16628.6125
2123.01216	16651.9125
2125.99008	16624.9125
2128.96609	16626.9125
2131.94018	16665.2125
2134.91236	16629.4125
2137.88263	16621.9125
2140.851	16642.1125
2143.81746	16653.9125
2146.78201	16661.2125
2149.74466	16646.2125
2152.7054	16611.6125
2155.66425	16627.2125
2158.6212	16644.9125
2161.57625	16636.0125
2164.52941	16591.3125
2167.48067	16589.7125
2170.43004	16581.8125
2173.37752	16569.6125
2176.32311	16575.4125
2179.26681	16576.2125
2182.20863	16594.1125
2185.14856	16579.4125
2188.08661	16576.1125
2191.02278	16570.5125
2193.95707	16540.8125
2196.88948	16555.4125
2199.82001	16543.4125
2202.74867	16510.2125
2205.67545	16461.9125
2208.60037	16468.3125
2211.52341	16446.5125
2214.44458	16414.6125
2217.36388	16390.3125
2220.28132	16389.6125
2223.1969	16352.8125
2226.11061	16355.6125
2229.02246	16282.9125
2231.93245	16304.3125
2234.84058	16256.5125
2237.74686	16226.2125
2240.65128	16206.4125
2243.55385	16216.6125
2246.45456	16176.0125
2249.35343	16134.7125
2252.25044	16048.7125
2255.14561	16072.0125
2258.03893	16026.4125
2260.93041	15972.6125
2263.82004	15940.7125
2266.70783	15913.1125
2269.59378	15859.2125
2272.4779	15822.6125
2275.36017	15763.4125
2278.24061	15744.6125
2281.11922	15696.4125
2283.996	15691.7125
2286.87094	15666.5125
2289.74405	15613.4125
2292.61534	15627.3125
2295.4848	15595.1125
2298.35243	15631.3125
2301.21824	15626.8125
2304.08223	15592.5125
2306.94439	15613.8125
2309.80474	15588.2125
2312.66327	15581.1125
2315.51999	15568.5125
2318.37489	15583.1125
2321.22797	15531.0125
2324.07925	15530.3125
2326.92871	15509.4125
2329.77637	15502.8125
2332.62222	15484.3125
2335.46626	15469.8125
2338.3085	15517.3125
2341.14893	15440.4125
2343.98756	15421.9125
2346.8244	15419.1125
2349.65943	15458.6125
2352.49267	15443.0125
2355.32411	15431.6125
2358.15376	15432.3125
2360.98161	15406.3125
2363.80768	15404.8125
2366.63195	15360.9125
2369.45444	15337.1125
2372.27514	15346.7125
2375.09405	15333.0125
2377.91118	15303.3125
2380.72652	15279.8125
2383.54009	15266.1125
2386.35187	15239.5125
2389.16188	15198.1125
2391.97011	15189.7125
2394.77657	15168.2125
2397.58125	15109.0125
2400.38416	15112.2125
2403.18529	15096.3125
2405.98466	15088.3125
2408.78226	15019.2125
2411.57809	15055.6125
2414.37216	15034.6125
2417.16446	15015.4125
2419.955	14988.0125
2422.74378	15002.6125
2425.5308	15001.4125
2428.31606	14993.6125
2431.09956	14962.0125
2433.88131	14917.3125
2436.6613	14951.4125
2439.43954	14926.2125
2442.21603	14907.0125
2444.99077	14910.1125
2447.76377	14894.8125
2450.53501	14880.1125
2453.30451	14908.0125
2456.07226	14895.6125
2458.83827	14915.4125
2461.60254	14901.6125
2464.36507	14914.4125
2467.12586	14905.5125
2469.88492	14886.7125
2472.64224	14897.2125
2475.39782	14889.2125
2478.15167	14892.7125
2480.90379	14914.7125
2483.65417	14899.9125
2486.40283	14902.0125
2489.14976	14906.3125
2491.89497	14881.3125
2494.63845	14912.3125
2497.3802	14872.4125
2500.12024	14880.2125
2502.85855	14859.9125
2505.59514	14903.2125
2508.33002	14897.8125
2511.06318	14881.9125
2513.79462	14885.2125
2516.52435	14870.6125
2519.25237	14851.2125
2521.97867	14824.8125
2524.70327	14823.1125
2527.42616	14806.1125
2530.14734	14818.3125
2532.86681	14822.2125
2535.58458	14768.9125
2538.30065	14789.6125
2541.01501	14796.9125
2543.72768	14767.6125
2546.43864	14762.0125
2549.14791	14717.8125
2551.85548	14748.3125
2554.56136	14726.0125
2557.26554	14747.5125
2559.96803	14699.6125
2562.66883	14714.3125
2565.36794	14712.9125
2568.06536	14705.3125
2570.7611	14710.7125
2573.45514	14689.9125
2576.14751	14660.8125
2578.83819	14668.1125
2581.52719	14633.0125
2584.21451	14636.0125
2586.90015	14647.6125
2589.58411	14634.5125
2592.2664	14633.5125
2594.94701	14568.6125
2597.62594	14628.1125
2600.30321	14571.9125
2602.9788	14582.4125
2605.65273	14581.3125
2608.32498	14599.7125
2610.99557	14587.6125
2613.66449	14630.9125
2616.33175	14581.7125
2618.99734	14617.2125
2621.66128	14582.6125
2624.32355	14544.4125
2626.98416	14552.8125
2629.64311	14556.2125
2632.30041	14569.3125
2634.95605	14547.0125
2637.61004	14552.0125
2640.26238	14525.6125
2642.91306	14534.3125
2645.56209	14508.5125
2648.20948	14534.4125
2650.85521	14534.6125
2653.4993	14548.7125
2656.14175	14560.4125
2658.78255	14569.0125
2661.42171	14546.5125
2664.05923	14611.4125
2666.6951	14579.4125
2669.32934	14604.0125
2671.96194	14604.7125
2674.59291	14581.0125
2677.22224	14618.2125
2679.84993	14595.9125
2682.476	14590.4125
2685.10043	14628.8125
2687.72324	14536.4125
2690.34441	14599.8125
2692.96396	14585.6125
2695.58188	14583.9125
2698.19818	14563.5125
2700.81285	14607.9125
2703.4259	14625.8125
2706.03733	14659.3125
2708.64714	14645.4125
2711.25533	14652.1125
2713.86191	14633.4125
2716.46687	14648.7125
2719.07021	14671.6125
2721.67194	14708.5125
2724.27206	14700.9125
2726.87057	14718.3125
2729.46747	14749.3125
2732.06276	14752.4125
2734.65644	14711.1125
2737.24852	14740.1125
2739.83899	14688.9125
2742.42786	14706.6125
2745.01513	14682.1125
2747.60079	14686.1125
2750.18486	14670.6125
2752.76733	14684.1125
2755.3482	14679.3125
2757.92747	14728.1125
2760.50515	14703.4125
2763.08123	14748.2125
2765.65573	14711.7125
2768.22863	14704.0125
2770.79994	14661.7125
2773.36967	14686.0125
2775.9378	14655.5125
2778.50435	14704.1125
2781.06932	14647.9125
2783.6327	14676.4125
2786.1945	14647.4125
2788.75471	14646.6125
2791.31335	14645.9125
2793.87041	14636.4125
2796.42589	14609.8125
2798.97979	14582.9125
2801.53212	14556.4125
2804.08288	14562.4125
2806.63206	14566.0125
2809.17967	14526.7125
2811.72571	14471.5125
2814.27018	14467.4125
2816.81308	14460.0125
2819.35442	14406.0125
2821.89419	14366.6125
2824.43239	14351.4125
2826.96904	14368.2125
2829.50412	14373.0125
2832.03763	14337.4125
2834.56959	14355.5125
2837.1	14341.3125
2839.62884	14323.0125
2842.15613	14319.4125
2844.68186	14348.4125
2847.20604	14387.3125
2849.72867	14381.9125
2852.24974	14388.2125
2854.76927	14368.8125
2857.28724	14360.4125
2859.80367	14326.4125
2862.31855	14341.4125
2864.83189	14288.2125
2867.34368	14272.0125
2869.85393	14295.2125
2872.36264	14241.4125
2874.8698	14271.4125
2877.37543	14252.6125
2879.87952	14230.4125
2882.38207	14218.7125
2884.88308	14228.4125
2887.38256	14239.3125
2889.88051	14270.4125
2892.37692	14278.0125
2894.8718	14253.7125
2897.36515	14264.3125
2899.85698	14280.1125
2902.34727	14328.6125
2904.83604	14283.8125
2907.32328	14354.5125
2909.809	14328.2125
2912.29319	14321.3125
2914.77587	14322.9125
2917.25702	14332.4125
2919.73665	14264.8125
2922.21476	14304.1125
2924.69136	14336.0125
2927.16644	14320.1125
2929.64	14330.8125
2932.11205	14310.5125
2934.58258	14293.8125
2937.05161	14299.8125
2939.51912	14297.4125
2941.98513	14298.4125
2944.44962	14213.8125
2946.91261	14177.2125
2949.37409	14146.5125
2951.83407	14166.6125
2954.29254	14136.8125
2956.74951	14094.9125
2959.20498	14118.2125
2961.65895	14063.9125
2964.11142	14059.3125
2966.56239	14063.1125
2969.01186	14019.3125
2971.45984	14024.6125
2973.90632	13983.8125
2976.35131	13937.3125
2978.7948	13897.8125
2981.23681	13852.9125
2983.67732	13847.5125
2986.11635	13812.7125
2988.55388	13770.4125
2990.98993	13746.2125
2993.4245	13694.9125
2995.85758	13683.8125
2998.28917	13636.4125
3000.71928	13629.6125
3003.14791	13600.6125
3005.57506	13559.1125
3008.00073	13528.6125
3010.42493	13497.4125
3012.84764	13459.7125
3015.26888	13508.3125
3017.68865	13418.6125
3020.10694	13397.5125
3022.52376	13391.3125
