Data from AgNPs_FTO_APTES_UA_2uM_CRN_0uM_R6G_10uM_NaF_0.1M_Addition_RamanShift__54__11-07-24-985.txt Node

Date: Wed Feb 02 11:07:24 GMT 2022
User: TCL
Spectrometer: QEP01345
Trigger mode: 4
Integration Time (sec): 7.000000E0
Scans to average: 10
Electric dark correction enabled: true
Nonlinearity correction enabled: false
Boxcar width: 0
XAxis mode: Raman Shifts
Number of Pixels in Spectrum: 1044
>>>>>Begin Spectral Data<<<<<
46.04893	0.425
50.45542	0.425
54.85868	-1.175
59.25871	-0.875
63.6555	64.425
68.04907	67.225
72.43941	70.125
76.82654	74.625
81.21044	76.425
85.59113	84.725
89.96862	82.625
94.34289	86.325
98.71396	85.925
103.08183	93.625
107.4465	96.725
111.80798	99.025
116.16626	98.625
120.52136	107.625
124.87327	110.025
129.222	115.925
133.56755	124.925
137.90993	134.025
142.24913	152.125
146.58517	176.125
150.91804	199.725
155.24774	245.225
159.57429	309.425
163.89768	401.225
168.21792	534.525
172.53501	730.225
176.84895	1027.725
181.15975	1431.025
185.46741	2015.225
189.77193	2777.525
194.07331	3707.325
198.37157	4765.525
202.6667	5877.425
206.9587	6969.925
211.24758	8047.025
215.53334	9172.225
219.81599	10391.325
224.09553	11787.625
228.37195	13349.425
232.64527	14986.525
236.91549	16613.325
241.18261	18185.425
245.44663	19542.325
249.70755	20691.925
253.96539	21776.625
258.22014	22705.925
262.4718	23515.825
266.72039	24158.025
270.96589	24497.825
275.20832	24654.425
279.44768	24632.625
283.68397	24510.325
287.91719	24441.425
292.14735	24495.125
296.37445	24688.425
300.59849	24987.725
304.81948	25349.925
309.03742	25562.625
313.25231	25311.125
317.46415	24350.525
321.67296	22923.925
325.87872	21731.725
330.08145	21083.125
334.28114	21007.425
338.47781	21216.425
342.67145	21566.325
346.86207	22221.725
351.04966	23045.725
355.23424	24026.325
359.4158	24829.225
363.59435	25172.125
367.76989	25271.425
371.94243	25236.825
376.11196	25151.025
380.27849	25040.925
384.44203	25019.225
388.60257	24992.425
392.76012	25078.425
396.91468	25456.725
401.06626	26042.225
405.21485	26452.625
409.36047	26255.825
413.50311	25349.225
417.64277	24571.525
421.77947	24285.625
425.9132	24318.425
430.04396	24451.325
434.17176	24568.025
438.2966	24807.125
442.41849	25313.925
446.53742	26074.325
450.6534	26951.825
454.76644	27574.025
458.87653	27733.825
462.98368	27604.425
467.08789	27230.625
471.18916	26791.825
475.2875	26440.425
479.38291	26314.325
483.4754	26149.525
487.56496	25840.525
491.6516	25423.925
495.73531	24993.925
499.81612	24819.625
503.89401	24903.125
507.96899	24960.025
512.04106	24898.325
516.11023	24699.525
520.1765	24548.125
524.23987	24272.525
528.30034	23864.125
532.35792	23478.025
536.41261	22984.625
540.46441	22536.525
544.51333	22461.025
548.55936	22829.825
552.60252	23498.025
556.64279	24364.825
560.6802	24938.125
564.71473	25511.825
568.7464	26559.825
572.7752	27568.525
576.80114	27581.525
580.82422	27271.025
584.84444	27166.425
588.86181	27260.825
592.87633	27545.725
596.888	27912.225
600.89682	28235.825
604.9028	29858.425
608.90594	34648.925
612.90624	40489.425
616.90371	38292.125
620.89834	28970.525
624.89015	24558.925
628.87913	23900.325
632.86528	23993.425
636.84862	23992.125
640.82913	23527.425
644.80683	22520.725
648.78172	21802.025
652.75379	21738.325
656.72306	22236.625
660.68952	23071.725
664.65319	22958.825
668.61405	22263.625
672.57211	21926.725
676.52738	21849.625
680.47986	21766.525
684.42955	21647.125
688.37646	21537.925
692.32058	21616.225
696.26192	21862.225
700.20048	22279.425
704.13626	22648.525
708.06928	22663.325
711.99952	22505.125
715.927	22276.725
719.85171	22241.825
723.77365	22175.325
727.69284	21812.925
731.60928	21528.825
735.52295	21439.525
739.43388	21523.325
743.34206	21640.825
747.24749	21825.025
751.15017	22137.425
755.05012	22699.225
758.94733	23715.525
762.8418	25763.125
766.73354	29264.525
770.62254	32797.825
774.50882	33836.625
778.39237	31843.025
782.27321	28220.025
786.15132	25018.525
790.02671	23070.525
793.89938	22164.125
797.76935	21752.125
801.6366	21561.025
805.50115	21504.225
809.36299	21364.525
813.22213	21197.525
817.07857	21158.625
820.93231	21124.425
824.78336	21059.025
828.63172	21084.625
832.47738	21135.125
836.32036	21112.025
840.16066	21127.425
843.99827	21091.125
847.8332	20979.425
851.66546	20853.325
855.49504	20795.325
859.32195	20759.325
863.1462	20646.825
866.96777	20548.725
870.78668	20452.825
874.60293	20452.025
878.41652	20484.325
882.22745	20593.025
886.03573	20686.025
889.84136	20703.225
893.64433	20584.125
897.44466	20510.525
901.24235	20439.125
905.0374	20346.025
908.8298	20294.225
912.61957	20333.525
916.40671	20572.625
920.19121	20959.925
923.97308	21315.825
927.75233	21468.425
931.52895	21449.125
935.30295	21047.025
939.07433	20440.025
942.84309	19919.125
946.60924	19629.425
950.37278	19443.325
954.13371	19430.625
957.89203	19313.625
961.64774	19274.825
965.40086	19247.025
969.15137	19199.225
972.89929	19122.425
976.64461	19019.625
980.38733	19015.125
984.12747	19112.625
987.86502	19264.225
991.59999	19551.825
995.33237	19908.525
999.06217	20580.825
1002.78939	21431.625
1006.51404	22168.525
1010.23611	22599.925
1013.95561	22858.225
1017.67255	22765.525
1021.38692	22355.825
1025.09872	21946.425
1028.80796	21890.625
1032.51465	22259.325
1036.21877	22706.625
1039.92035	22798.025
1043.61937	22604.625
1047.31584	22174.625
1051.00976	21700.125
1054.70114	21461.925
1058.38998	21434.025
1062.07627	21588.025
1065.76003	21844.425
1069.44126	22109.225
1073.11995	22477.325
1076.79611	22776.725
1080.46974	22954.425
1084.14085	23234.525
1087.80943	23745.225
1091.47549	24073.725
1095.13903	23943.925
1098.80005	23303.425
1102.45857	22535.325
1106.11456	21961.225
1109.76805	21793.025
1113.41903	21933.425
1117.06751	22329.025
1120.71348	22841.725
1124.35696	23505.725
1127.99793	24103.325
1131.63641	24382.225
1135.2724	23817.525
1138.90589	23249.025
1142.5369	22928.225
1146.16542	22788.525
1149.79145	22790.525
1153.415	22969.625
1157.03607	23336.125
1160.65467	24018.125
1164.27079	25133.825
1167.88443	26782.725
1171.49561	29162.625
1175.10432	32596.425
1178.71056	36947.125
1182.31434	40689.725
1185.91565	42503.025
1189.51451	42487.125
1193.11091	40920.625
1196.70485	38379.225
1200.29634	35921.725
1203.88538	33756.325
1207.47197	31877.425
1211.05612	30415.025
1214.63782	29603.125
1218.21708	29307.525
1221.79391	29377.525
1225.36829	29561.025
1228.94024	29482.525
1232.50976	29150.925
1236.07685	28792.525
1239.6415	28381.425
1243.20374	27978.125
1246.76355	27847.225
1250.32093	28045.925
1253.8759	28730.725
1257.42845	29769.025
1260.97859	30928.825
1264.52631	32035.625
1268.07163	33161.725
1271.61453	34387.125
1275.15503	35598.525
1278.69312	36681.925
1282.22882	37594.025
1285.76211	38665.825
1289.29301	40096.925
1292.82151	41742.225
1296.34761	43741.425
1299.87133	46226.025
1303.39266	49535.325
1306.9116	53768.525
1310.42815	58685.925
1313.94233	62520.925
1317.45412	63481.625
1320.96354	62244.725
1324.47058	60113.625
1327.97525	57822.725
1331.47754	55889.525
1334.97747	54618.425
1338.47502	53769.225
1341.97022	53178.925
1345.46305	52487.025
1348.95352	51816.625
1352.44163	51557.625
1355.92738	52926.525
1359.41078	56595.125
1362.89183	61027.125
1366.37053	60987.925
1369.84688	55071.825
1373.32088	47789.425
1376.79254	42832.025
1380.26186	40556.025
1383.72883	39784.325
1387.19347	39330.025
1390.65578	38825.525
1394.11575	38800.025
1397.57339	39426.825
1401.0287	40368.325
1404.48168	41454.325
1407.93234	41879.725
1411.38068	41425.725
1414.82669	40005.825
1418.27039	37961.925
1421.71177	35865.825
1425.15083	34187.725
1428.58758	33134.925
1432.02203	32955.025
1435.45416	33374.025
1438.88399	34007.425
1442.31151	34589.925
1445.73673	35283.225
1449.15965	36009.225
1452.58027	36591.125
1455.9986	36863.825
1459.41463	37160.625
1462.82837	37707.225
1466.23982	38379.925
1469.64898	38938.925
1473.05586	39127.225
1476.46045	38943.925
1479.86276	38760.325
1483.26279	38679.225
1486.66054	38781.325
1490.05602	39183.925
1493.44922	39930.225
1496.84016	40875.325
1500.22882	42306.225
1503.61521	44636.825
1506.99934	47517.925
1510.38121	50748.925
1513.76081	52838.425
1517.13816	52132.425
1520.51324	48726.425
1523.88607	44857.425
1527.25665	42119.825
1530.62498	40587.925
1533.99105	39673.425
1537.35488	39027.325
1540.71647	38532.825
1544.07581	37861.325
1547.4329	36999.025
1550.78776	36294.925
1554.14038	35805.925
1557.49077	35838.025
1560.83892	36101.725
1564.18484	36539.025
1567.52853	36802.225
1570.86999	37018.425
1574.20922	37471.325
1577.54624	37824.625
1580.88103	37505.825
1584.2136	37027.325
1587.54395	37598.425
1590.87208	39413.225
1594.19801	42225.125
1597.52172	45040.125
1600.84321	46049.625
1604.16251	43902.925
1607.47959	39943.625
1610.79447	35747.825
1614.10715	32021.825
1617.41763	29133.225
1620.7259	27195.125
1624.03199	26262.125
1627.33587	26246.325
1630.63757	27147.625
1633.93707	29126.125
1637.23439	32248.625
1640.52951	36442.925
1643.82246	41212.125
1647.11321	45266.525
1650.40179	46884.425
1653.68819	44549.925
1656.97241	38766.725
1660.25446	32261.625
1663.53433	27255.225
1666.81203	24015.525
1670.08756	22084.325
1673.36092	20892.825
1676.63211	20108.225
1679.90115	19619.625
1683.16801	19268.125
1686.43272	18996.525
1689.69527	18755.725
1692.95567	18639.925
1696.2139	18520.725
1699.46999	18481.025
1702.72392	18420.025
1705.97571	18333.125
1709.22535	18306.625
1712.47284	18250.825
1715.71819	18265.325
1718.96139	18232.725
1722.20246	18159.325
1725.44139	18069.625
1728.67818	17965.825
1731.91284	17830.825
1735.14537	17709.525
1738.37576	17628.825
1741.60403	17583.525
1744.83017	17528.825
1748.05418	17467.025
1751.27607	17394.025
1754.49584	17341.625
1757.71349	17378.925
1760.92903	17355.825
1764.14244	17321.225
1767.35375	17333.725
1770.56294	17269.125
1773.77002	17238.925
1776.97499	17195.725
1780.17785	17151.025
1783.37861	17143.925
1786.57727	17106.025
1789.77382	17079.425
1792.96828	17012.825
1796.16064	17023.725
1799.3509	17004.625
1802.53907	16976.825
1805.72514	16970.125
1808.90913	16923.525
1812.09102	16891.425
1815.27083	16878.425
1818.44856	16858.225
1821.6242	16839.625
1824.79776	16839.325
1827.96924	16787.425
1831.13864	16792.225
1834.30597	16784.825
1837.47122	16784.725
1840.6344	16793.625
1843.7955	16825.225
1846.95454	16812.525
1850.11151	16838.625
1853.26642	16873.325
1856.41926	16840.825
1859.57004	16876.725
1862.71876	16885.325
1865.86542	16884.125
1869.01003	16910.325
1872.15258	16932.525
1875.29308	16953.325
1878.43152	17003.225
1881.56792	17045.525
1884.70227	17077.125
1887.83457	17071.325
1890.96482	17075.025
1894.09304	17121.825
1897.21921	17154.725
1900.34335	17165.925
1903.46544	17208.025
1906.58551	17268.225
1909.70353	17213.825
1912.81953	17273.625
1915.93349	17270.625
1919.04543	17217.125
1922.15534	17203.225
1925.26322	17139.225
1928.36908	17059.325
1931.47292	16967.125
1934.57473	16833.425
1937.67453	16727.725
1940.77232	16625.725
1943.86808	16517.725
1946.96184	16433.125
1950.05358	16338.925
1953.14331	16222.625
1956.23103	16163.725
1959.31675	16094.825
1962.40046	16056.425
1965.48217	15979.025
1968.56188	15884.525
1971.63959	15859.525
1974.7153	15807.825
1977.78901	15731.225
1980.86073	15700.925
1983.93046	15674.525
1986.99819	15597.625
1990.06394	15563.825
1993.1277	15535.025
1996.18947	15453.425
1999.24925	15404.025
2002.30706	15348.425
2005.36288	15285.725
2008.41672	15257.325
2011.46859	15226.025
2014.51848	15175.825
2017.56639	15146.825
2020.61233	15073.225
2023.6563	15044.425
2026.6983	15033.725
2029.73833	15049.825
2032.7764	15017.325
2035.8125	14978.225
2038.84664	14956.725
2041.87881	14923.225
2044.90903	14890.425
2047.93729	14877.925
2050.96359	14870.725
2053.98794	14834.425
2057.01034	14852.325
2060.03078	14810.225
2063.04927	14806.225
2066.06582	14788.625
2069.08042	14769.025
2072.09307	14762.325
2075.10378	14745.425
2078.11255	14758.825
2081.11938	14775.725
2084.12426	14741.825
2087.12722	14750.325
2090.12824	14727.125
2093.12732	14721.525
2096.12447	14779.225
2099.11969	14759.825
2102.11299	14779.825
2105.10435	14777.025
2108.09379	14749.925
2111.08131	14759.425
2114.0669	14740.425
2117.05057	14772.925
2120.03233	14787.425
2123.01216	14767.725
2125.99008	14778.425
2128.96609	14774.125
2131.94018	14806.825
2134.91236	14817.925
2137.88263	14802.925
2140.851	14820.825
2143.81746	14844.625
2146.78201	14845.125
2149.74466	14851.725
2152.7054	14820.225
2155.66425	14822.425
2158.6212	14844.925
2161.57625	14821.925
2164.52941	14861.525
2167.48067	14816.025
2170.43004	14833.525
2173.37752	14834.025
2176.32311	14838.625
2179.26681	14846.825
2182.20863	14837.525
2185.14856	14853.425
2188.08661	14866.025
2191.02278	14850.025
2193.95707	14847.025
2196.88948	14828.725
2199.82001	14813.925
2202.74867	14805.425
2205.67545	14841.725
2208.60037	14803.725
2211.52341	14815.825
2214.44458	14786.725
2217.36388	14763.925
2220.28132	14758.825
2223.1969	14713.525
2226.11061	14690.525
2229.02246	14660.625
2231.93245	14633.425
2234.84058	14608.425
2237.74686	14599.725
2240.65128	14583.725
2243.55385	14567.725
2246.45456	14544.625
2249.35343	14528.225
2252.25044	14479.725
2255.14561	14470.325
2258.03893	14469.425
2260.93041	14432.125
2263.82004	14409.025
2266.70783	14433.925
2269.59378	14385.225
2272.4779	14346.925
2275.36017	14324.625
2278.24061	14274.925
2281.11922	14249.025
2283.996	14232.925
2286.87094	14253.825
2289.74405	14197.425
2292.61534	14171.025
2295.4848	14151.625
2298.35243	14162.425
2301.21824	14175.725
2304.08223	14158.525
2306.94439	14162.025
2309.80474	14174.225
2312.66327	14195.925
2315.51999	14176.725
2318.37489	14169.425
2321.22797	14154.325
2324.07925	14153.925
2326.92871	14155.425
2329.77637	14161.025
2332.62222	14159.225
2335.46626	14157.725
2338.3085	14134.225
2341.14893	14152.725
2343.98756	14174.525
2346.8244	14187.125
2349.65943	14182.825
2352.49267	14167.725
2355.32411	14190.525
2358.15376	14204.925
2360.98161	14182.125
2363.80768	14172.825
2366.63195	14198.625
2369.45444	14196.825
2372.27514	14161.125
2375.09405	14122.625
2377.91118	14064.325
2380.72652	14045.525
2383.54009	14031.525
2386.35187	13993.725
2389.16188	13929.725
2391.97011	13887.125
2394.77657	13869.525
2397.58125	13873.625
2400.38416	13852.825
2403.18529	13798.525
2405.98466	13784.025
2408.78226	13745.125
2411.57809	13733.525
2414.37216	13738.725
2417.16446	13692.125
2419.955	13690.825
2422.74378	13701.725
2425.5308	13676.725
2428.31606	13659.225
2431.09956	13674.325
2433.88131	13622.825
2436.6613	13664.025
2439.43954	13654.025
2442.21603	13653.825
2444.99077	13658.725
2447.76377	13675.725
2450.53501	13664.325
2453.30451	13683.925
2456.07226	13703.725
2458.83827	13684.925
2461.60254	13671.725
2464.36507	13680.525
2467.12586	13648.525
2469.88492	13679.725
2472.64224	13693.725
2475.39782	13687.025
2478.15167	13690.825
2480.90379	13700.225
2483.65417	13743.225
2486.40283	13741.725
2489.14976	13762.125
2491.89497	13767.025
2494.63845	13812.125
2497.3802	13779.425
2500.12024	13825.225
2502.85855	13814.525
2505.59514	13793.725
2508.33002	13773.525
2511.06318	13720.725
2513.79462	13706.925
2516.52435	13694.425
2519.25237	13698.025
2521.97867	13636.725
2524.70327	13657.525
2527.42616	13624.925
2530.14734	13632.825
2532.86681	13598.225
2535.58458	13587.825
2538.30065	13562.125
2541.01501	13568.325
2543.72768	13561.725
2546.43864	13549.325
2549.14791	13549.425
2551.85548	13526.625
2554.56136	13531.225
2557.26554	13501.025
2559.96803	13502.625
2562.66883	13463.725
2565.36794	13513.825
2568.06536	13512.725
2570.7611	13478.225
2573.45514	13461.025
2576.14751	13455.325
2578.83819	13459.625
2581.52719	13461.025
2584.21451	13501.325
2586.90015	13478.425
2589.58411	13442.225
2592.2664	13433.925
2594.94701	13429.125
2597.62594	13413.525
2600.30321	13418.925
2602.9788	13393.425
2605.65273	13424.825
2608.32498	13416.925
2610.99557	13411.325
2613.66449	13431.925
2616.33175	13408.725
2618.99734	13442.125
2621.66128	13486.625
2624.32355	13484.625
2626.98416	13483.525
2629.64311	13451.925
2632.30041	13450.925
2634.95605	13457.925
2637.61004	13445.525
2640.26238	13432.425
2642.91306	13404.025
2645.56209	13404.525
2648.20948	13360.625
2650.85521	13378.925
2653.4993	13375.525
2656.14175	13388.725
2658.78255	13404.725
2661.42171	13413.525
2664.05923	13399.825
2666.6951	13397.125
2669.32934	13445.325
2671.96194	13457.725
2674.59291	13455.025
2677.22224	13436.425
2679.84993	13434.625
2682.476	13442.425
2685.10043	13414.725
2687.72324	13435.625
2690.34441	13424.725
2692.96396	13382.525
2695.58188	13402.025
2698.19818	13388.725
2700.81285	13414.125
2703.4259	13392.725
2706.03733	13412.525
2708.64714	13429.925
2711.25533	13426.525
2713.86191	13426.425
2716.46687	13445.325
2719.07021	13454.525
2721.67194	13467.225
2724.27206	13430.125
2726.87057	13440.725
2729.46747	13452.325
2732.06276	13471.025
2734.65644	13452.325
2737.24852	13468.525
2739.83899	13459.025
2742.42786	13448.525
2745.01513	13406.925
2747.60079	13458.425
2750.18486	13432.825
2752.76733	13446.525
2755.3482	13457.825
2757.92747	13445.325
2760.50515	13431.225
2763.08123	13419.825
2765.65573	13422.025
2768.22863	13434.125
2770.79994	13399.725
2773.36967	13415.525
2775.9378	13448.625
2778.50435	13416.625
2781.06932	13432.725
2783.6327	13415.425
2786.1945	13398.525
2788.75471	13410.325
2791.31335	13381.225
2793.87041	13368.025
2796.42589	13334.525
2798.97979	13334.925
2801.53212	13317.125
2804.08288	13300.925
2806.63206	13294.325
2809.17967	13292.025
2811.72571	13263.225
2814.27018	13280.325
2816.81308	13284.525
2819.35442	13275.325
2821.89419	13231.725
2824.43239	13274.625
2826.96904	13264.725
2829.50412	13283.025
2832.03763	13240.825
2834.56959	13248.025
2837.1	13201.625
2839.62884	13260.525
2842.15613	13279.225
2844.68186	13347.225
2847.20604	13387.925
2849.72867	13408.825
2852.24974	13450.725
2854.76927	13446.925
2857.28724	13414.325
2859.80367	13376.725
2862.31855	13360.625
2864.83189	13359.325
2867.34368	13345.225
2869.85393	13374.025
2872.36264	13370.025
2874.8698	13369.325
2877.37543	13357.625
2879.87952	13393.225
2882.38207	13403.725
2884.88308	13390.025
2887.38256	13441.725
2889.88051	13416.425
2892.37692	13390.725
2894.8718	13400.725
2897.36515	13386.025
2899.85698	13417.625
2902.34727	13439.525
2904.83604	13456.725
2907.32328	13479.725
2909.809	13443.225
2912.29319	13444.925
2914.77587	13434.725
2917.25702	13459.625
2919.73665	13437.825
2922.21476	13471.725
2924.69136	13439.025
2927.16644	13415.925
2929.64	13382.425
2932.11205	13385.225
2934.58258	13339.825
2937.05161	13340.525
2939.51912	13284.425
2941.98513	13272.925
2944.44962	13233.325
2946.91261	13142.525
2949.37409	13145.325
2951.83407	13124.125
2954.29254	13098.825
2956.74951	13048.725
2959.20498	13042.025
2961.65895	12972.825
2964.11142	12992.825
2966.56239	12981.325
2969.01186	12938.525
2971.45984	12873.725
2973.90632	12843.625
2976.35131	12821.925
2978.7948	12770.925
2981.23681	12739.625
2983.67732	12679.725
2986.11635	12650.225
2988.55388	12634.225
2990.98993	12579.325
2993.4245	12566.025
2995.85758	12545.625
2998.28917	12540.825
3000.71928	12496.425
3003.14791	12490.425
3005.57506	12513.725
3008.00073	12447.825
3010.42493	12424.025
3012.84764	12409.325
3015.26888	12397.825
3017.68865	12367.725
3020.10694	12358.625
3022.52376	12328.225
3024.9391	12316.925
3027.35298	12308.625
3029.76539	12282.825
3032.17632	12261.425
3034.5858	12224.425
3036.9938	12228.825
3039.40034	12213.725
3041.80542	12202.125
3044.20903	12181.725
3046.61118	12182.425
3049.01187	12162.925
3051.4111	12151.225
3053.80888	12117.925
3056.20519	12093.825
3058.60005	12075.225
3060.99345	12028.425
3063.3854	12023.525
3065.7759	11971.025
3068.16494	11971.325
3070.55254	11935.425
3072.93868	11890.025
3075.32338	11873.525
3077.70662	11833.725
3080.08842	11796.525
3082.46878	11798.825
3084.84769	11785.025
3087.22515	11766.825
3089.60118	11762.825
3091.97576	11741.125
3094.3489	11758.525
3096.72061	11747.525
3099.09087	11738.925
3101.4597	11703.725
3103.82709	11694.125
3106.19305	11688.725
3108.55757	11686.125
3110.92066	11637.825
3113.28232	11610.225
3115.64255	11575.725
3118.00134	11560.725
3120.35871	11566.725
3122.71466	11551.425
3125.06917	11526.625
3127.42226	11480.025
