Data from AgNPs_FTO_APTES_UA_2uM_CRN_0uM_R6G_10uM_NaF_0.1M_Addition_RamanShift__60__11-14-24-993.txt Node

Date: Wed Feb 02 11:14:24 GMT 2022
User: TCL
Spectrometer: QEP01345
Trigger mode: 4
Integration Time (sec): 7.000000E0
Scans to average: 10
Electric dark correction enabled: true
Nonlinearity correction enabled: false
Boxcar width: 0
XAxis mode: Raman Shifts
Number of Pixels in Spectrum: 1044
>>>>>Begin Spectral Data<<<<<
46.04893	1.85
50.45542	1.25
54.85868	-0.65
59.25871	-0.95
63.6555	33.25
68.04907	36.15
72.43941	37.15
76.82654	43.85
81.21044	44.75
85.59113	45.75
89.96862	46.85
94.34289	45.85
98.71396	49.55
103.08183	55.45
107.4465	52.65
111.80798	57.55
116.16626	52.85
120.52136	58.05
124.87327	58.65
129.222	61.45
133.56755	64.75
137.90993	67.45
142.24913	73.25
146.58517	85.65
150.91804	96.65
155.24774	112.55
159.57429	140.75
163.89768	178.25
168.21792	231.35
172.53501	319.45
176.84895	444.85
181.15975	616.45
185.46741	855.95
189.77193	1171.15
194.07331	1565.35
198.37157	2011.75
202.6667	2457.85
206.9587	2926.05
211.24758	3390.35
215.53334	3877.45
219.81599	4444.95
224.09553	5093.75
228.37195	5828.45
232.64527	6589.45
236.91549	7317.55
241.18261	7917.05
245.44663	8373.25
249.70755	8700.45
253.96539	8964.85
258.22014	9212.15
262.4718	9487.55
266.72039	9686.75
270.96589	9816.45
275.20832	9832.35
279.44768	9722.85
283.68397	9600.85
287.91719	9548.15
292.14735	9633.25
296.37445	9932.55
300.59849	10413.55
304.81948	11012.45
309.03742	11500.95
313.25231	11547.05
317.46415	10899.35
321.67296	9761.35
325.87872	8783.35
330.08145	8300.55
334.28114	8223.45
338.47781	8387.35
342.67145	8679.45
346.86207	9197.35
351.04966	9958.85
355.23424	10866.35
359.4158	11488.55
363.59435	11722.95
367.76989	11680.55
371.94243	11516.95
376.11196	11285.15
380.27849	11112.35
384.44203	10878.05
388.60257	10624.25
392.76012	10494.95
396.91468	10617.55
401.06626	11006.95
405.21485	11310.75
409.36047	11066.25
413.50311	10291.45
417.64277	9520.15
421.77947	9073.05
425.9132	8895.75
430.04396	8862.85
434.17176	8862.65
438.2966	8941.25
442.41849	9214.55
446.53742	9522.55
450.6534	9850.25
454.76644	10022.05
458.87653	10020.95
462.98368	9920.65
467.08789	9692.55
471.18916	9420.55
475.2875	9133.05
479.38291	8896.15
483.4754	8715.55
487.56496	8580.75
491.6516	8477.65
495.73531	8459.35
499.81612	8542.45
503.89401	8683.65
507.96899	8849.45
512.04106	8998.65
516.11023	9138.85
520.1765	9231.95
524.23987	9173.65
528.30034	8930.75
532.35792	8607.35
536.41261	8322.85
540.46441	7982.15
544.51333	7809.45
548.55936	7874.05
552.60252	8150.05
556.64279	8466.25
560.6802	8695.65
564.71473	8976.55
568.7464	9636.35
572.7752	10126.85
576.80114	9700.15
580.82422	9200.75
584.84444	8965.45
588.86181	8825.75
592.87633	8751.25
596.888	8859.05
600.89682	9284.05
604.9028	10806.55
608.90594	14845.75
612.90624	20303.15
616.90371	19677.15
620.89834	12519.05
624.89015	8937.55
628.87913	8220.85
632.86528	8280.45
636.84862	8477.85
640.82913	8310.75
644.80683	7759.55
648.78172	7402.25
652.75379	7486.75
656.72306	8004.45
660.68952	8658.55
664.65319	8567.55
668.61405	7886.45
672.57211	7525.55
676.52738	7447.25
680.47986	7407.75
684.42955	7311.75
688.37646	7234.35
692.32058	7301.85
696.26192	7401.85
700.20048	7615.25
704.13626	7811.35
708.06928	7838.35
711.99952	7719.95
715.927	7610.15
719.85171	7566.75
723.77365	7511.75
727.69284	7379.45
731.60928	7267.15
735.52295	7253.85
739.43388	7291.55
743.34206	7347.75
747.24749	7417.75
751.15017	7532.85
755.05012	7756.15
758.94733	8349.65
762.8418	9669.85
766.73354	12055.85
770.62254	14575.85
774.50882	15834.85
778.39237	15067.15
782.27321	12608.75
786.15132	10052.05
790.02671	8485.05
793.89938	7809.05
797.76935	7510.95
801.6366	7398.85
805.50115	7282.95
809.36299	7223.95
813.22213	7157.55
817.07857	7123.45
820.93231	7114.15
824.78336	7149.65
828.63172	7237.55
832.47738	7286.25
836.32036	7258.85
840.16066	7179.45
843.99827	7085.25
847.8332	7017.35
851.66546	7000.15
855.49504	6990.85
859.32195	6957.35
863.1462	6865.95
866.96777	6817.55
870.78668	6810.45
874.60293	6809.75
878.41652	6852.25
882.22745	6918.05
886.03573	6978.15
889.84136	6960.15
893.64433	6887.35
897.44466	6845.55
901.24235	6870.45
905.0374	6836.25
908.8298	6805.35
912.61957	6804.05
916.40671	6872.65
920.19121	6988.35
923.97308	7117.65
927.75233	7239.05
931.52895	7357.45
935.30295	7186.75
939.07433	6838.25
942.84309	6543.55
946.60924	6389.95
950.37278	6258.35
954.13371	6215.95
957.89203	6166.35
961.64774	6159.05
965.40086	6134.25
969.15137	6099.35
972.89929	6089.25
976.64461	6054.35
980.38733	6066.65
984.12747	6073.85
987.86502	6101.05
991.59999	6115.65
995.33237	6189.05
999.06217	6360.15
1002.78939	6586.65
1006.51404	6841.15
1010.23611	7084.75
1013.95561	7201.75
1017.67255	7105.75
1021.38692	6914.65
1025.09872	6753.15
1028.80796	6614.35
1032.51465	6618.05
1036.21877	6775.95
1039.92035	6974.15
1043.61937	7080.25
1047.31584	7057.95
1051.00976	6987.25
1054.70114	6928.05
1058.38998	6870.25
1062.07627	6888.35
1065.76003	6964.25
1069.44126	7074.85
1073.11995	7232.05
1076.79611	7384.25
1080.46974	7561.05
1084.14085	7866.95
1087.80943	8212.05
1091.47549	8348.65
1095.13903	8129.85
1098.80005	7676.95
1102.45857	7241.15
1106.11456	7040.55
1109.76805	7057.05
1113.41903	7248.25
1117.06751	7597.25
1120.71348	8084.65
1124.35696	8671.55
1127.99793	9216.65
1131.63641	9225.15
1135.2724	8565.85
1138.90589	7950.25
1142.5369	7584.05
1146.16542	7362.75
1149.79145	7264.45
1153.415	7266.65
1157.03607	7381.65
1160.65467	7643.45
1164.27079	8059.65
1167.88443	8724.85
1171.49561	9826.35
1175.10432	11706.85
1178.71056	14088.85
1182.31434	15686.15
1185.91565	15904.25
1189.51451	15367.65
1193.11091	14244.65
1196.70485	12831.95
1200.29634	11680.85
1203.88538	10795.15
1207.47197	9783.75
1211.05612	8961.05
1214.63782	8514.95
1218.21708	8359.55
1221.79391	8435.75
1225.36829	8572.65
1228.94024	8687.05
1232.50976	8749.45
1236.07685	8791.85
1239.6415	8720.15
1243.20374	8652.05
1246.76355	8636.85
1250.32093	8705.55
1253.8759	8940.65
1257.42845	9298.15
1260.97859	9734.65
1264.52631	10235.65
1268.07163	10717.45
1271.61453	11210.95
1275.15503	11523.85
1278.69312	11630.95
1282.22882	11672.05
1285.76211	11973.75
1289.29301	12543.05
1292.82151	13083.05
1296.34761	13670.95
1299.87133	14453.85
1303.39266	15817.65
1306.9116	18068.85
1310.42815	20813.65
1313.94233	22841.95
1317.45412	22780.85
1320.96354	21233.15
1324.47058	19219.85
1327.97525	17376.95
1331.47754	16111.05
1334.97747	15390.85
1338.47502	15121.85
1341.97022	15131.65
1345.46305	15612.25
1348.95352	16666.35
1352.44163	18272.45
1355.92738	20600.05
1359.41078	24194.25
1362.89183	27924.65
1366.37053	27672.85
1369.84688	23274.65
1373.32088	18556.15
1376.79254	15442.35
1380.26186	13803.15
1383.72883	12964.85
1387.19347	12313.95
1390.65578	11628.25
1394.11575	11090.55
1397.57339	10881.55
1401.0287	10889.85
1404.48168	11009.65
1407.93234	11070.55
1411.38068	11032.45
1414.82669	10838.85
1418.27039	10508.45
1421.71177	10177.75
1425.15083	9879.65
1428.58758	9666.45
1432.02203	9643.95
1435.45416	9776.85
1438.88399	9885.55
1442.31151	9899.35
1445.73673	9981.65
1449.15965	10096.05
1452.58027	10081.05
1455.9986	9987.25
1459.41463	9985.25
1462.82837	10117.05
1466.23982	10352.05
1469.64898	10618.65
1473.05586	10751.45
1476.46045	10913.85
1479.86276	11058.55
1483.26279	11321.05
1486.66054	11711.55
1490.05602	12173.35
1493.44922	12874.85
1496.84016	14011.85
1500.22882	15858.45
1503.61521	18325.45
1506.99934	21153.55
1510.38121	24006.05
1513.76081	25843.55
1517.13816	25108.15
1520.51324	21742.25
1523.88607	18034.55
1527.25665	15383.35
1530.62498	13868.75
1533.99105	12964.75
1537.35488	12390.15
1540.71647	11966.25
1544.07581	11716.85
1547.4329	11492.95
1550.78776	11342.85
1554.14038	11270.55
1557.49077	11384.85
1560.83892	11696.75
1564.18484	12225.55
1567.52853	12793.15
1570.86999	13255.35
1574.20922	13626.45
1577.54624	13615.35
1580.88103	12799.15
1584.2136	11591.05
1587.54395	10956.75
1590.87208	11102.05
1594.19801	11877.15
1597.52172	12897.75
1600.84321	13307.25
1604.16251	12667.95
1607.47959	11517.75
1610.79447	10341.45
1614.10715	9224.45
1617.41763	8396.75
1620.7259	7845.05
1624.03199	7614.05
1627.33587	7654.45
1630.63757	7887.95
1633.93707	8390.45
1637.23439	9296.85
1640.52951	10573.75
1643.82246	12361.25
1647.11321	14517.05
1650.40179	16294.55
1653.68819	16198.45
1656.97241	13815.75
1660.25446	10835.65
1663.53433	8625.45
1666.81203	7321.25
1670.08756	6563.25
1673.36092	6149.05
1676.63211	5874.95
1679.90115	5683.55
1683.16801	5555.45
1686.43272	5451.75
1689.69527	5390.85
1692.95567	5341.65
1696.2139	5306.35
1699.46999	5303.75
1702.72392	5277.25
1705.97571	5234.85
1709.22535	5234.65
1712.47284	5220.15
1715.71819	5228.95
1718.96139	5261.35
1722.20246	5251.05
1725.44139	5208.15
1728.67818	5147.25
1731.91284	5090.35
1735.14537	4980.45
1738.37576	4941.85
1741.60403	4905.85
1744.83017	4871.35
1748.05418	4846.85
1751.27607	4819.75
1754.49584	4797.25
1757.71349	4789.35
1760.92903	4776.95
1764.14244	4770.35
1767.35375	4767.05
1770.56294	4728.85
1773.77002	4682.05
1776.97499	4675.05
1780.17785	4632.85
1783.37861	4614.35
1786.57727	4602.85
1789.77382	4575.85
1792.96828	4571.55
1796.16064	4575.85
1799.3509	4542.45
1802.53907	4536.85
1805.72514	4522.05
1808.90913	4485.45
1812.09102	4489.25
1815.27083	4465.55
1818.44856	4454.95
1821.6242	4447.85
1824.79776	4427.65
1827.96924	4414.85
1831.13864	4393.45
1834.30597	4404.75
1837.47122	4410.65
1840.6344	4390.35
1843.7955	4393.15
1846.95454	4398.85
1850.11151	4385.85
1853.26642	4381.65
1856.41926	4382.85
1859.57004	4394.95
1862.71876	4398.05
1865.86542	4387.65
1869.01003	4392.05
1872.15258	4406.45
1875.29308	4416.75
1878.43152	4417.45
1881.56792	4422.15
1884.70227	4429.05
1887.83457	4450.45
1890.96482	4449.35
1894.09304	4452.35
1897.21921	4467.75
1900.34335	4475.35
1903.46544	4494.25
1906.58551	4507.05
1909.70353	4508.65
1912.81953	4513.65
1915.93349	4520.45
1919.04543	4511.55
1922.15534	4498.85
1925.26322	4475.45
1928.36908	4439.25
1931.47292	4422.15
1934.57473	4354.55
1937.67453	4322.45
1940.77232	4278.75
1943.86808	4239.65
1946.96184	4208.35
1950.05358	4169.45
1953.14331	4131.95
1956.23103	4116.05
1959.31675	4096.25
1962.40046	4096.05
1965.48217	4061.65
1968.56188	4053.95
1971.63959	4048.05
1974.7153	4034.65
1977.78901	4010.65
1980.86073	3991.75
1983.93046	3982.25
1986.99819	3957.75
1990.06394	3945.55
1993.1277	3917.95
1996.18947	3908.15
1999.24925	3903.35
2002.30706	3872.55
2005.36288	3848.55
2008.41672	3849.35
2011.46859	3827.55
2014.51848	3830.15
2017.56639	3804.15
2020.61233	3789.15
2023.6563	3772.55
2026.6983	3773.85
2029.73833	3762.55
2032.7764	3739.75
2035.8125	3752.35
2038.84664	3725.35
2041.87881	3717.65
2044.90903	3709.15
2047.93729	3693.05
2050.96359	3699.55
2053.98794	3692.75
2057.01034	3677.65
2060.03078	3676.35
2063.04927	3665.15
2066.06582	3656.45
2069.08042	3661.05
2072.09307	3653.75
2075.10378	3646.45
2078.11255	3644.25
2081.11938	3636.25
2084.12426	3652.65
2087.12722	3642.85
2090.12824	3644.35
2093.12732	3651.35
2096.12447	3652.05
2099.11969	3643.45
2102.11299	3645.25
2105.10435	3650.35
2108.09379	3624.95
2111.08131	3638.75
2114.0669	3636.65
2117.05057	3642.75
2120.03233	3634.35
2123.01216	3643.65
2125.99008	3631.45
2128.96609	3647.15
2131.94018	3634.95
2134.91236	3645.25
2137.88263	3637.35
2140.851	3650.35
2143.81746	3637.95
2146.78201	3633.25
2149.74466	3621.45
2152.7054	3630.45
2155.66425	3602.25
2158.6212	3608.65
2161.57625	3608.95
2164.52941	3595.25
2167.48067	3609.05
2170.43004	3603.15
2173.37752	3607.35
2176.32311	3588.55
2179.26681	3585.55
2182.20863	3585.15
2185.14856	3604.65
2188.08661	3582.35
2191.02278	3568.05
2193.95707	3577.75
2196.88948	3580.05
2199.82001	3574.85
2202.74867	3568.55
2205.67545	3561.05
2208.60037	3555.65
2211.52341	3545.05
2214.44458	3531.75
2217.36388	3526.95
2220.28132	3524.45
2223.1969	3514.95
2226.11061	3482.35
2229.02246	3485.15
2231.93245	3466.55
2234.84058	3472.35
2237.74686	3462.65
2240.65128	3458.75
2243.55385	3458.65
2246.45456	3441.75
2249.35343	3439.35
2252.25044	3438.45
2255.14561	3446.45
2258.03893	3447.25
2260.93041	3442.35
2263.82004	3444.85
2266.70783	3432.55
2269.59378	3428.05
2272.4779	3427.25
2275.36017	3405.35
2278.24061	3402.75
2281.11922	3374.95
2283.996	3380.75
2286.87094	3373.25
2289.74405	3348.85
2292.61534	3347.85
2295.4848	3321.15
2298.35243	3332.25
2301.21824	3319.15
2304.08223	3320.95
2306.94439	3311.55
2309.80474	3313.75
2312.66327	3320.45
2315.51999	3308.65
2318.37489	3314.75
2321.22797	3303.45
2324.07925	3304.25
2326.92871	3297.15
2329.77637	3306.35
2332.62222	3291.25
2335.46626	3284.95
2338.3085	3289.65
2341.14893	3283.25
2343.98756	3287.15
2346.8244	3285.75
2349.65943	3291.55
2352.49267	3291.85
2355.32411	3299.85
2358.15376	3313.35
2360.98161	3340.35
2363.80768	3341.65
2366.63195	3351.55
2369.45444	3366.45
2372.27514	3359.85
2375.09405	3331.75
2377.91118	3315.85
2380.72652	3324.25
2383.54009	3287.35
2386.35187	3268.25
2389.16188	3255.35
2391.97011	3238.65
2394.77657	3218.15
2397.58125	3201.15
2400.38416	3189.15
2403.18529	3189.45
2405.98466	3175.35
2408.78226	3169.75
2411.57809	3172.25
2414.37216	3160.65
2417.16446	3155.15
2419.955	3147.35
2422.74378	3144.75
2425.5308	3139.75
2428.31606	3158.15
2431.09956	3167.45
2433.88131	3147.05
2436.6613	3159.65
2439.43954	3140.65
2442.21603	3158.35
2444.99077	3155.65
2447.76377	3158.45
2450.53501	3168.95
2453.30451	3169.85
2456.07226	3168.65
2458.83827	3178.15
2461.60254	3171.45
2464.36507	3173.25
2467.12586	3159.85
2469.88492	3148.05
2472.64224	3165.55
2475.39782	3174.15
2478.15167	3170.95
2480.90379	3169.35
2483.65417	3191.55
2486.40283	3202.65
2489.14976	3227.25
2491.89497	3220.45
2494.63845	3228.05
2497.3802	3221.35
2500.12024	3213.95
2502.85855	3207.25
2505.59514	3197.05
2508.33002	3178.95
2511.06318	3167.05
2513.79462	3129.25
2516.52435	3113.35
2519.25237	3103.65
2521.97867	3095.15
2524.70327	3098.05
2527.42616	3079.45
2530.14734	3071.05
2532.86681	3061.55
2535.58458	3059.35
2538.30065	3050.95
2541.01501	3058.25
2543.72768	3049.85
2546.43864	3065.25
2549.14791	3060.05
2551.85548	3067.95
2554.56136	3050.15
2557.26554	3064.45
2559.96803	3048.35
2562.66883	3058.65
2565.36794	3051.45
2568.06536	3052.45
2570.7611	3041.15
2573.45514	3045.55
2576.14751	3032.25
2578.83819	3027.95
2581.52719	3035.85
2584.21451	3019.35
2586.90015	3019.45
2589.58411	3017.15
2592.2664	3001.05
2594.94701	3003.05
2597.62594	2992.55
2600.30321	2995.85
2602.9788	2990.05
2605.65273	2997.55
2608.32498	3003.65
2610.99557	2997.35
2613.66449	2996.65
2616.33175	2994.35
2618.99734	2996.55
2621.66128	3003.25
2624.32355	2995.15
2626.98416	2999.75
2629.64311	2990.75
2632.30041	2971.95
2634.95605	2971.55
2637.61004	2957.25
2640.26238	2955.15
2642.91306	2959.35
2645.56209	2955.75
2648.20948	2953.45
2650.85521	2947.45
2653.4993	2945.85
2656.14175	2941.85
2658.78255	2947.95
2661.42171	2968.75
2664.05923	2975.05
2666.6951	2963.65
2669.32934	2986.25
2671.96194	2979.95
2674.59291	2979.95
2677.22224	2986.85
2679.84993	3001.35
2682.476	3003.95
2685.10043	2996.95
2687.72324	2992.55
2690.34441	2994.35
2692.96396	2985.85
2695.58188	2996.05
2698.19818	3002.05
2700.81285	2996.25
2703.4259	3000.15
2706.03733	3015.15
2708.64714	3030.15
2711.25533	3028.05
2713.86191	3030.75
2716.46687	3044.55
2719.07021	3043.05
2721.67194	3049.65
2724.27206	3039.45
2726.87057	3048.25
2729.46747	3042.15
2732.06276	3033.25
2734.65644	3042.85
2737.24852	3036.15
2739.83899	3029.95
2742.42786	3028.15
2745.01513	3018.55
2747.60079	3003.85
2750.18486	3023.25
2752.76733	3010.15
2755.3482	3008.25
2757.92747	3019.85
2760.50515	3013.15
2763.08123	3000.05
2765.65573	3002.75
2768.22863	3004.35
2770.79994	3024.05
2773.36967	3009.15
2775.9378	3020.15
2778.50435	3036.35
2781.06932	3024.05
2783.6327	3044.35
2786.1945	3044.35
2788.75471	3061.55
2791.31335	3056.25
2793.87041	3066.65
2796.42589	3069.45
2798.97979	3094.25
2801.53212	3101.15
2804.08288	3106.15
2806.63206	3118.55
2809.17967	3138.15
2811.72571	3155.65
2814.27018	3190.45
2816.81308	3204.05
2819.35442	3212.35
2821.89419	3228.75
2824.43239	3229.85
2826.96904	3248.35
2829.50412	3265.95
2832.03763	3263.55
2834.56959	3278.65
2837.1	3292.35
2839.62884	3311.05
2842.15613	3380.75
2844.68186	3453.95
2847.20604	3544.15
2849.72867	3615.85
2852.24974	3647.35
2854.76927	3649.75
2857.28724	3634.35
2859.80367	3623.45
2862.31855	3590.55
2864.83189	3567.75
2867.34368	3546.55
2869.85393	3555.25
2872.36264	3554.95
2874.8698	3553.45
2877.37543	3543.85
2879.87952	3543.75
2882.38207	3546.05
2884.88308	3520.65
2887.38256	3518.95
2889.88051	3501.45
2892.37692	3491.35
2894.8718	3499.65
2897.36515	3507.95
2899.85698	3496.55
2902.34727	3508.95
2904.83604	3503.25
2907.32328	3515.35
2909.809	3508.65
2912.29319	3492.75
2914.77587	3491.15
2917.25702	3483.25
2919.73665	3464.35
2922.21476	3460.65
2924.69136	3458.95
2927.16644	3457.75
2929.64	3436.55
2932.11205	3416.05
2934.58258	3386.65
2937.05161	3371.45
2939.51912	3319.95
2941.98513	3276.75
2944.44962	3217.45
2946.91261	3150.45
2949.37409	3135.55
2951.83407	3071.35
2954.29254	3062.05
2956.74951	3015.05
2959.20498	2999.85
2961.65895	2983.55
2964.11142	2966.55
2966.56239	2961.45
2969.01186	2945.25
2971.45984	2922.05
2973.90632	2885.95
2976.35131	2868.75
2978.7948	2859.75
2981.23681	2832.65
2983.67732	2821.55
2986.11635	2808.35
2988.55388	2798.15
2990.98993	2775.75
2993.4245	2769.75
2995.85758	2759.95
2998.28917	2746.15
3000.71928	2737.85
3003.14791	2729.45
3005.57506	2728.45
3008.00073	2722.65
3010.42493	2719.85
3012.84764	2699.75
3015.26888	2709.25
3017.68865	2694.35
3020.10694	2692.95
3022.52376	2705.55
3024.9391	2681.65
3027.35298	2690.05
3029.76539	2680.95
3032.17632	2672.55
3034.5858	2672.15
3036.9938	2664.75
3039.40034	2650.35
3041.80542	2654.85
3044.20903	2631.35
3046.61118	2657.85
3049.01187	2644.55
3051.4111	2626.75
3053.80888	2641.35
3056.20519	2623.05
3058.60005	2625.45
3060.99345	2634.45
3063.3854	2621.05
3065.7759	2630.45
3068.16494	2634.45
3070.55254	2613.45
3072.93868	2620.75
3075.32338	2597.45
3077.70662	2593.85
3080.08842	2577.15
3082.46878	2576.05
3084.84769	2549.75
3087.22515	2560.25
3089.60118	2565.65
3091.97576	2550.05
3094.3489	2543.45
3096.72061	2544.85
3099.09087	2548.15
3101.4597	2545.95
3103.82709	2529.15
3106.19305	2538.45
3108.55757	2535.05
3110.92066	2532.35
3113.28232	2528.45
3115.64255	2507.65
3118.00134	2520.05
3120.35871	2530.45
3122.71466	2511.45
3125.06917	2518.55
3127.42226	2513.65
3129.77393	2523.05
3132.12417	2517.05
3134.47299	2532.75
3136.82039	2532.45
3139.16636	2543.45
3141.51092	2532.45
3143.85406	2550.25
3146.19579	2554.35
3148.53609	2567.75
3150.87499	2576.25
3153.21246	2579.65
3155.54853	2577.25
3157.88318	2584.65
3160.21642	2592.55
3162.54826	2586.85
3164.87868	2587.65
3167.2077	2603.05
3169.5353	2593.05
3171.86151	2595.15
3174.18631	2594.55
3176.5097	2599.05
3178.83169	2589.45
3181.15228	2614.05
3183.47147	2611.35
3185.78926	2610.45
3188.10565	2623.75
3190.42065	2611.15
3192.73424	2621.05
3195.04645	2629.25
3197.35725	2636.45
3199.66667	2635.05
3201.97469	2651.15
3204.28132	2641.75
3206.58656	2636.45
3208.8904	2638.35
3211.19287	2672.85
3213.49394	2661.55
3215.79363	2661.45
3218.09193	2661.65
3220.38884	2670.95
3222.68438	2678.35
3224.97853	2677.75
3227.2713	2677.45
3229.56269	2672.05
3231.8527	2666.95
3234.14133	2667.75
3236.42858	2658.15
3238.71446	2664.55
3240.99896	2668.45
3243.28209	2662.65
3245.56384	2659.85
3247.84423	2683.75
3250.12324	2664.15
3252.40088	2656.45
3254.67715	2663.15
3256.95205	2647.95
3259.22558	2649.65
3261.49775	2648.65
3263.76855	2644.35
3266.03799	2649.15
3268.30606	2641.05
3270.57277	2622.85
3272.83812	2627.25
3275.10211	2626.95
3277.36474	2631.95
3279.62601	2637.55
3281.88593	2638.85
3284.14448	2628.55
3286.40168	2640.65
3288.65753	2632.95
3290.91202	2618.55
3293.16516	2619.15
3295.41695	2608.65
3297.66738	2587.35
3299.91647	2571.45
3302.16421	2563.15
3304.4106	2562.45
3306.65564	2542.45
3308.89933	2522.65
3311.14169	2516.55
3313.38269	2493.45
3315.62236	2467.45
3317.86068	2445.25
3320.09766	2428.05
3322.3333	2410.05
3324.5676	2411.95
3326.80056	2373.95
3329.03219	2341.85
3331.26248	0.15
3333.49143	-0.75
3335.71905	-1.85
