Data from AgNPs_FTO_APTES_UA_2uM_CRN_0uM_R6G_10uM_NaF_0.1M_Addition_RamanShift__26__10-34-44-946.txt Node

Date: Wed Feb 02 10:34:44 GMT 2022
User: TCL
Spectrometer: QEP01345
Trigger mode: 4
Integration Time (sec): 7.000000E0
Scans to average: 10
Electric dark correction enabled: true
Nonlinearity correction enabled: false
Boxcar width: 0
XAxis mode: Raman Shifts
Number of Pixels in Spectrum: 1044
>>>>>Begin Spectral Data<<<<<
46.04893	0.975
50.45542	1.475
54.85868	-1.025
59.25871	0.775
63.6555	28.275
68.04907	32.875
72.43941	32.575
76.82654	36.375
81.21044	39.775
85.59113	42.775
89.96862	45.675
94.34289	45.675
98.71396	47.375
103.08183	50.775
107.4465	46.975
111.80798	48.575
116.16626	50.575
120.52136	50.775
124.87327	46.875
129.222	49.075
133.56755	53.775
137.90993	48.075
142.24913	53.375
146.58517	55.275
150.91804	59.275
155.24774	63.775
159.57429	77.975
163.89768	85.375
168.21792	106.575
172.53501	143.175
176.84895	184.075
181.15975	244.675
185.46741	330.175
189.77193	441.675
194.07331	577.575
198.37157	736.475
202.6667	901.875
206.9587	1049.475
211.24758	1201.975
215.53334	1353.675
219.81599	1500.575
224.09553	1678.175
228.37195	1882.075
232.64527	2113.675
236.91549	2327.375
241.18261	2548.975
245.44663	2746.075
249.70755	2912.975
253.96539	3032.175
258.22014	3114.275
262.4718	3179.275
266.72039	3226.075
270.96589	3218.875
275.20832	3188.175
279.44768	3159.875
283.68397	3074.475
287.91719	2991.375
292.14735	2972.775
296.37445	2971.775
300.59849	3020.675
304.81948	3108.475
309.03742	3149.675
313.25231	3151.775
317.46415	3022.575
321.67296	2830.475
325.87872	2660.675
330.08145	2577.975
334.28114	2565.475
338.47781	2601.575
342.67145	2664.575
346.86207	2763.975
351.04966	2914.075
355.23424	3095.775
359.4158	3229.675
363.59435	3311.275
367.76989	3355.975
371.94243	3371.775
376.11196	3371.875
380.27849	3325.275
384.44203	3294.075
388.60257	3237.175
392.76012	3206.775
396.91468	3233.475
401.06626	3290.275
405.21485	3333.575
409.36047	3311.375
413.50311	3189.275
417.64277	3061.775
421.77947	2983.675
425.9132	2947.775
430.04396	2959.375
434.17176	2977.975
438.2966	3016.075
442.41849	3089.675
446.53742	3180.575
450.6534	3265.675
454.76644	3320.275
458.87653	3332.475
462.98368	3319.375
467.08789	3266.275
471.18916	3197.475
475.2875	3147.575
479.38291	3098.275
483.4754	3060.375
487.56496	3025.375
491.6516	3000.275
495.73531	3001.175
499.81612	2987.675
503.89401	2994.175
507.96899	3030.375
512.04106	3106.175
516.11023	3171.175
520.1765	3226.075
524.23987	3214.575
528.30034	3162.575
532.35792	3066.675
536.41261	2976.775
540.46441	2902.875
544.51333	2865.975
548.55936	2866.275
552.60252	2897.775
556.64279	2952.675
560.6802	2979.975
564.71473	3008.375
568.7464	3078.775
572.7752	3126.775
576.80114	3035.475
580.82422	2923.975
584.84444	2876.075
588.86181	2882.575
592.87633	2909.275
596.888	2936.675
600.89682	3007.775
604.9028	3278.475
608.90594	3963.775
612.90624	4969.675
616.90371	4976.775
620.89834	3782.275
624.89015	3131.075
628.87913	2965.775
632.86528	2915.375
636.84862	2907.375
640.82913	2902.975
644.80683	2832.475
648.78172	2789.175
652.75379	2854.375
656.72306	3010.075
660.68952	3173.675
664.65319	3103.575
668.61405	2873.475
672.57211	2756.075
676.52738	2749.775
680.47986	2750.375
684.42955	2756.675
688.37646	2789.575
692.32058	2830.775
696.26192	2867.775
700.20048	2973.675
704.13626	3045.675
708.06928	3044.675
711.99952	2957.075
715.927	2898.775
719.85171	2868.975
723.77365	2864.475
727.69284	2829.775
731.60928	2807.975
735.52295	2802.275
739.43388	2816.875
743.34206	2806.575
747.24749	2822.975
751.15017	2831.375
755.05012	2880.075
758.94733	2974.875
762.8418	3187.075
766.73354	3542.575
770.62254	3993.775
774.50882	4320.975
778.39237	4280.175
782.27321	3844.475
786.15132	3349.075
790.02671	3075.775
793.89938	2978.075
797.76935	2948.875
801.6366	2940.175
805.50115	2940.675
809.36299	2938.575
813.22213	2933.175
817.07857	2935.075
820.93231	2933.475
824.78336	2909.175
828.63172	2913.275
832.47738	2911.175
836.32036	2915.275
840.16066	2905.175
843.99827	2903.375
847.8332	2897.175
851.66546	2895.975
855.49504	2912.875
859.32195	2873.675
863.1462	2841.475
866.96777	2807.175
870.78668	2793.275
874.60293	2797.975
878.41652	2816.575
882.22745	2840.575
886.03573	2869.575
889.84136	2862.275
893.64433	2858.875
897.44466	2857.875
901.24235	2847.675
905.0374	2825.375
908.8298	2826.175
912.61957	2838.475
916.40671	2867.375
920.19121	2896.075
923.97308	2926.675
927.75233	2964.375
931.52895	2982.275
935.30295	2965.075
939.07433	2905.875
942.84309	2841.075
946.60924	2781.975
950.37278	2737.175
954.13371	2712.175
957.89203	2677.375
961.64774	2647.075
965.40086	2635.975
969.15137	2612.675
972.89929	2610.975
976.64461	2592.475
980.38733	2576.775
984.12747	2585.475
987.86502	2573.675
991.59999	2572.375
995.33237	2589.875
999.06217	2607.275
1002.78939	2639.875
1006.51404	2650.075
1010.23611	2695.375
1013.95561	2736.175
1017.67255	2732.875
1021.38692	2708.975
1025.09872	2689.275
1028.80796	2687.775
1032.51465	2737.275
1036.21877	2862.975
1039.92035	3020.875
1043.61937	3085.475
1047.31584	3011.275
1051.00976	2906.175
1054.70114	2827.775
1058.38998	2738.375
1062.07627	2709.275
1065.76003	2688.775
1069.44126	2667.475
1073.11995	2692.875
1076.79611	2738.375
1080.46974	2797.075
1084.14085	2838.675
1087.80943	2866.875
1091.47549	2856.575
1095.13903	2767.475
1098.80005	2663.975
1102.45857	2581.275
1106.11456	2579.975
1109.76805	2593.175
1113.41903	2665.175
1117.06751	2746.475
1120.71348	2859.475
1124.35696	3000.275
1127.99793	3115.675
1131.63641	3092.675
1135.2724	2927.575
1138.90589	2776.075
1142.5369	2668.475
1146.16542	2596.875
1149.79145	2570.075
1153.415	2566.175
1157.03607	2614.475
1160.65467	2678.775
1164.27079	2751.575
1167.88443	2872.875
1171.49561	3051.775
1175.10432	3384.875
1178.71056	3805.475
1182.31434	4126.575
1185.91565	4217.575
1189.51451	4152.975
1193.11091	4009.075
1196.70485	3809.575
1200.29634	3614.875
1203.88538	3403.675
1207.47197	3147.675
1211.05612	2940.675
1214.63782	2824.975
1218.21708	2770.175
1221.79391	2741.975
1225.36829	2734.775
1228.94024	2745.675
1232.50976	2748.575
1236.07685	2757.875
1239.6415	2787.375
1243.20374	2820.875
1246.76355	2845.275
1250.32093	2903.375
1253.8759	3004.475
1257.42845	3092.175
1260.97859	3192.675
1264.52631	3297.275
1268.07163	3384.675
1271.61453	3459.475
1275.15503	3488.475
1278.69312	3493.075
1282.22882	3482.775
1285.76211	3548.175
1289.29301	3644.775
1292.82151	3740.475
1296.34761	3845.175
1299.87133	4000.975
1303.39266	4215.275
1306.9116	4522.975
1310.42815	4918.975
1313.94233	5129.575
1317.45412	5009.875
1320.96354	4647.375
1324.47058	4255.175
1327.97525	3930.075
1331.47754	3729.175
1334.97747	3698.575
1338.47502	3744.075
1341.97022	3816.275
1345.46305	3973.975
1348.95352	4286.175
1352.44163	4716.975
1355.92738	5348.575
1359.41078	6085.875
1362.89183	6709.775
1366.37053	6590.775
1369.84688	5800.375
1373.32088	4946.175
1376.79254	4322.075
1380.26186	3949.375
1383.72883	3700.875
1387.19347	3491.375
1390.65578	3298.675
1394.11575	3142.675
1397.57339	3030.075
1401.0287	2987.375
1404.48168	2953.575
1407.93234	2949.375
1411.38068	2941.675
1414.82669	2952.975
1418.27039	2952.775
1421.71177	2954.375
1425.15083	2959.575
1428.58758	3006.675
1432.02203	3045.675
1435.45416	3103.675
1438.88399	3145.875
1442.31151	3129.075
1445.73673	3083.875
1449.15965	3042.275
1452.58027	2984.175
1455.9986	2904.475
1459.41463	2857.975
1462.82837	2860.875
1466.23982	2867.675
1469.64898	2889.675
1473.05586	2911.175
1476.46045	2938.575
1479.86276	2967.175
1483.26279	3004.675
1486.66054	3023.375
1490.05602	3070.275
1493.44922	3174.075
1496.84016	3365.875
1500.22882	3710.675
1503.61521	4167.975
1506.99934	4675.275
1510.38121	5159.375
1513.76081	5410.575
1517.13816	5156.475
1520.51324	4529.075
1523.88607	3885.275
1527.25665	3458.075
1530.62498	3238.475
1533.99105	3133.275
1537.35488	3057.975
1540.71647	3023.775
1544.07581	3011.875
1547.4329	3001.875
1550.78776	3013.975
1554.14038	3018.475
1557.49077	3080.575
1560.83892	3135.675
1564.18484	3220.675
1567.52853	3362.075
1570.86999	3528.075
1574.20922	3654.175
1577.54624	3685.075
1580.88103	3500.175
1584.2136	3190.275
1587.54395	3015.175
1590.87208	3027.375
1594.19801	3133.775
1597.52172	3323.475
1600.84321	3381.375
1604.16251	3256.975
1607.47959	3077.675
1610.79447	2872.475
1614.10715	2704.175
1617.41763	2579.975
1620.7259	2485.275
1624.03199	2442.575
1627.33587	2443.075
1630.63757	2448.175
1633.93707	2485.075
1637.23439	2579.575
1640.52951	2723.975
1643.82246	2946.875
1647.11321	3261.275
1650.40179	3527.175
1653.68819	3526.475
1656.97241	3152.875
1660.25446	2715.075
1663.53433	2395.775
1666.81203	2211.475
1670.08756	2102.875
1673.36092	2022.075
1676.63211	1989.675
1679.90115	1948.175
1683.16801	1916.375
1686.43272	1902.175
1689.69527	1876.275
1692.95567	1856.475
1696.2139	1849.275
1699.46999	1838.975
1702.72392	1817.475
1705.97571	1804.775
1709.22535	1793.575
1712.47284	1787.775
1715.71819	1793.975
1718.96139	1790.575
1722.20246	1786.275
1725.44139	1774.175
1728.67818	1753.175
1731.91284	1707.575
1735.14537	1676.875
1738.37576	1657.975
1741.60403	1624.975
1744.83017	1611.275
1748.05418	1608.575
1751.27607	1586.275
1754.49584	1574.275
1757.71349	1572.175
1760.92903	1563.775
1764.14244	1553.275
1767.35375	1539.475
1770.56294	1540.175
1773.77002	1528.875
1776.97499	1511.975
1780.17785	1514.175
1783.37861	1500.875
1786.57727	1491.475
1789.77382	1490.375
1792.96828	1486.975
1796.16064	1477.875
1799.3509	1478.275
1802.53907	1469.875
1805.72514	1467.075
1808.90913	1451.875
1812.09102	1447.075
1815.27083	1444.275
1818.44856	1438.975
1821.6242	1434.275
1824.79776	1429.075
1827.96924	1419.975
1831.13864	1413.175
1834.30597	1408.375
1837.47122	1408.575
1840.6344	1396.275
1843.7955	1405.775
1846.95454	1403.775
1850.11151	1398.175
1853.26642	1394.375
1856.41926	1395.475
1859.57004	1391.275
1862.71876	1387.575
1865.86542	1379.975
1869.01003	1384.475
1872.15258	1370.475
1875.29308	1379.475
1878.43152	1383.275
1881.56792	1367.375
1884.70227	1368.175
1887.83457	1368.275
1890.96482	1361.575
1894.09304	1360.975
1897.21921	1358.575
1900.34335	1354.875
1903.46544	1359.875
1906.58551	1353.775
1909.70353	1352.575
1912.81953	1345.575
1915.93349	1349.975
1919.04543	1345.775
1922.15534	1330.275
1925.26322	1338.375
1928.36908	1334.075
1931.47292	1330.575
1934.57473	1320.975
1937.67453	1319.275
1940.77232	1316.475
1943.86808	1306.875
1946.96184	1302.575
1950.05358	1297.875
1953.14331	1290.575
1956.23103	1285.675
1959.31675	1282.375
1962.40046	1276.075
1965.48217	1273.775
1968.56188	1273.775
1971.63959	1260.775
1974.7153	1272.975
1977.78901	1253.975
1980.86073	1261.675
1983.93046	1256.175
1986.99819	1242.975
1990.06394	1246.675
1993.1277	1237.475
1996.18947	1225.075
1999.24925	1222.875
2002.30706	1218.575
2005.36288	1210.375
2008.41672	1200.775
2011.46859	1207.575
2014.51848	1204.075
2017.56639	1202.975
2020.61233	1194.475
2023.6563	1181.575
2026.6983	1188.475
2029.73833	1180.975
2032.7764	1171.075
2035.8125	1175.575
2038.84664	1168.075
2041.87881	1170.675
2044.90903	1158.875
2047.93729	1159.275
2050.96359	1164.775
2053.98794	1153.275
2057.01034	1155.975
2060.03078	1159.075
2063.04927	1153.775
2066.06582	1159.475
2069.08042	1151.975
2072.09307	1157.375
2075.10378	1158.475
2078.11255	1159.575
2081.11938	1156.975
2084.12426	1157.275
2087.12722	1157.375
2090.12824	1160.075
2093.12732	1160.875
2096.12447	1163.575
2099.11969	1170.375
2102.11299	1164.075
2105.10435	1176.975
2108.09379	1161.375
2111.08131	1160.675
2114.0669	1155.575
2117.05057	1146.775
2120.03233	1148.475
2123.01216	1144.175
2125.99008	1141.675
2128.96609	1140.875
2131.94018	1151.875
2134.91236	1146.075
2137.88263	1147.975
2140.851	1143.375
2143.81746	1144.075
2146.78201	1138.575
2149.74466	1131.275
2152.7054	1133.675
2155.66425	1135.775
2158.6212	1135.475
2161.57625	1140.675
2164.52941	1131.975
2167.48067	1134.775
2170.43004	1127.075
2173.37752	1133.075
2176.32311	1126.975
2179.26681	1136.275
2182.20863	1124.675
2185.14856	1133.475
2188.08661	1133.275
2191.02278	1132.775
2193.95707	1127.675
2196.88948	1132.775
2199.82001	1113.375
2202.74867	1113.875
2205.67545	1108.675
2208.60037	1111.075
2211.52341	1104.475
2214.44458	1106.075
2217.36388	1100.275
2220.28132	1094.775
2223.1969	1091.275
2226.11061	1094.375
2229.02246	1082.875
2231.93245	1082.375
2234.84058	1078.375
2237.74686	1070.475
2240.65128	1069.575
2243.55385	1073.675
2246.45456	1078.675
2249.35343	1076.875
2252.25044	1061.375
2255.14561	1062.375
2258.03893	1069.375
2260.93041	1066.675
2263.82004	1054.175
2266.70783	1060.075
2269.59378	1056.175
2272.4779	1054.575
2275.36017	1051.775
2278.24061	1048.875
2281.11922	1041.975
2283.996	1047.275
2286.87094	1034.175
2289.74405	1034.475
2292.61534	1032.375
2295.4848	1025.375
2298.35243	1026.475
2301.21824	1025.475
2304.08223	1020.375
2306.94439	1008.275
2309.80474	1019.675
2312.66327	1020.275
2315.51999	1017.875
2318.37489	1018.375
2321.22797	1014.775
2324.07925	1006.875
2326.92871	1012.175
2329.77637	1009.475
2332.62222	1005.975
2335.46626	1009.975
2338.3085	996.575
2341.14893	997.975
2343.98756	1002.675
2346.8244	991.175
2349.65943	988.875
2352.49267	994.475
2355.32411	988.375
2358.15376	999.275
2360.98161	998.775
2363.80768	1005.875
2366.63195	1001.775
2369.45444	1011.975
2372.27514	1002.475
2375.09405	1003.375
2377.91118	1000.175
2380.72652	994.775
2383.54009	990.175
2386.35187	989.675
2389.16188	983.375
2391.97011	972.875
2394.77657	971.575
2397.58125	972.075
2400.38416	970.075
2403.18529	958.875
2405.98466	961.075
2408.78226	967.175
2411.57809	957.875
2414.37216	954.175
2417.16446	951.875
2419.955	958.175
2422.74378	958.075
2425.5308	959.075
2428.31606	953.575
2431.09956	955.175
2433.88131	947.875
2436.6613	957.975
2439.43954	950.575
2442.21603	954.775
2444.99077	955.075
2447.76377	954.875
2450.53501	953.875
2453.30451	956.375
2456.07226	953.475
2458.83827	946.775
2461.60254	950.875
2464.36507	939.775
2467.12586	943.675
2469.88492	948.175
2472.64224	945.475
2475.39782	947.175
2478.15167	935.175
2480.90379	941.075
2483.65417	946.775
2486.40283	949.275
2489.14976	952.275
2491.89497	951.375
2494.63845	951.675
2497.3802	952.475
2500.12024	942.975
2502.85855	948.275
2505.59514	944.175
2508.33002	938.775
2511.06318	928.475
2513.79462	931.675
2516.52435	930.075
2519.25237	920.075
2521.97867	928.875
2524.70327	924.575
2527.42616	920.175
2530.14734	923.375
2532.86681	916.675
2535.58458	920.975
2538.30065	921.275
2541.01501	923.475
2543.72768	918.075
2546.43864	922.375
2549.14791	921.275
2551.85548	917.375
2554.56136	917.175
2557.26554	923.575
2559.96803	920.975
2562.66883	925.475
2565.36794	925.375
2568.06536	922.975
2570.7611	927.975
2573.45514	922.275
2576.14751	922.275
2578.83819	922.475
2581.52719	924.175
2584.21451	923.675
2586.90015	922.375
2589.58411	920.475
2592.2664	918.375
2594.94701	927.975
2597.62594	914.775
2600.30321	917.075
2602.9788	918.175
2605.65273	917.875
2608.32498	920.675
2610.99557	920.775
2613.66449	923.775
2616.33175	920.375
2618.99734	918.875
2621.66128	923.975
2624.32355	919.575
2626.98416	911.275
2629.64311	921.975
2632.30041	910.175
2634.95605	915.275
2637.61004	918.275
2640.26238	921.575
2642.91306	920.675
2645.56209	921.475
2648.20948	922.975
2650.85521	919.375
2653.4993	925.175
2656.14175	929.375
2658.78255	940.375
2661.42171	941.575
2664.05923	953.875
2666.6951	952.575
2669.32934	961.075
2671.96194	968.975
2674.59291	981.575
2677.22224	976.575
2679.84993	987.275
2682.476	991.675
2685.10043	995.275
2687.72324	1007.575
2690.34441	1013.275
2692.96396	1023.775
2695.58188	1030.175
2698.19818	1038.475
2700.81285	1046.975
2703.4259	1064.475
2706.03733	1070.975
2708.64714	1082.375
2711.25533	1105.775
2713.86191	1105.575
2716.46687	1115.575
2719.07021	1121.375
2721.67194	1125.975
2724.27206	1130.275
2726.87057	1141.775
2729.46747	1140.675
2732.06276	1136.075
2734.65644	1138.175
2737.24852	1149.775
2739.83899	1144.975
2742.42786	1161.575
2745.01513	1156.675
2747.60079	1161.675
2750.18486	1175.375
2752.76733	1185.275
2755.3482	1205.575
2757.92747	1218.875
2760.50515	1228.775
2763.08123	1242.175
2765.65573	1256.375
2768.22863	1271.375
2770.79994	1292.075
2773.36967	1316.175
2775.9378	1350.275
2778.50435	1375.475
2781.06932	1402.575
2783.6327	1430.375
2786.1945	1462.275
2788.75471	1497.075
2791.31335	1530.775
2793.87041	1569.775
2796.42589	1615.175
2798.97979	1655.875
2801.53212	1709.275
2804.08288	1736.975
2806.63206	1797.075
2809.17967	1845.275
2811.72571	1884.175
2814.27018	1920.475
2816.81308	1948.575
2819.35442	1968.275
2821.89419	1971.175
2824.43239	1974.175
2826.96904	1967.775
2829.50412	1960.075
2832.03763	1962.775
2834.56959	1951.975
2837.1	1957.275
2839.62884	1987.875
2842.15613	2052.075
2844.68186	2123.375
2847.20604	2216.175
2849.72867	2289.575
2852.24974	2310.775
2854.76927	2307.575
2857.28724	2280.575
2859.80367	2253.175
2862.31855	2216.075
2864.83189	2170.375
2867.34368	2144.275
2869.85393	2110.675
2872.36264	2101.775
2874.8698	2095.675
2877.37543	2065.075
2879.87952	2043.675
2882.38207	2019.675
2884.88308	2009.175
2887.38256	1996.475
2889.88051	1989.375
2892.37692	1979.875
2894.8718	1972.675
2897.36515	1969.075
2899.85698	1955.775
2902.34727	1958.975
2904.83604	1948.275
2907.32328	1939.475
2909.809	1934.375
2912.29319	1918.675
2914.77587	1916.275
2917.25702	1898.875
2919.73665	1896.975
2922.21476	1893.575
2924.69136	1868.275
2927.16644	1852.375
2929.64	1832.575
2932.11205	1788.975
2934.58258	1771.275
2937.05161	1723.575
2939.51912	1677.075
2941.98513	1608.975
2944.44962	1542.975
2946.91261	1469.475
2949.37409	1409.675
2951.83407	1343.875
2954.29254	1324.275
2956.74951	1274.475
2959.20498	1242.175
2961.65895	1213.075
2964.11142	1189.575
2966.56239	1164.975
2969.01186	1139.875
2971.45984	1124.975
2973.90632	1109.575
2976.35131	1091.675
2978.7948	1074.875
2981.23681	1058.775
2983.67732	1046.775
2986.11635	1024.575
2988.55388	1016.175
2990.98993	1003.075
2993.4245	985.175
2995.85758	974.475
2998.28917	959.575
3000.71928	948.675
3003.14791	948.075
3005.57506	946.375
3008.00073	934.375
3010.42493	929.175
3012.84764	922.475
3015.26888	915.375
3017.68865	921.875
3020.10694	913.575
3022.52376	921.675
3024.9391	915.375
3027.35298	923.075
3029.76539	912.575
3032.17632	919.175
3034.5858	917.875
3036.9938	919.875
3039.40034	914.575
3041.80542	920.575
3044.20903	917.475
3046.61118	920.275
3049.01187	921.475
3051.4111	917.875
3053.80888	921.475
3056.20519	919.675
3058.60005	926.475
3060.99345	934.075
3063.3854	935.375
3065.7759	936.875
3068.16494	946.875
3070.55254	935.875
3072.93868	944.075
3075.32338	940.175
3077.70662	939.975
3080.08842	930.375
3082.46878	926.675
3084.84769	927.875
3087.22515	927.475
3089.60118	919.475
3091.97576	923.075
3094.3489	928.275
3096.72061	929.175
3099.09087	928.075
3101.4597	930.675
3103.82709	939.075
3106.19305	935.375
3108.55757	941.775
3110.92066	941.175
3113.28232	950.775
3115.64255	951.275
3118.00134	946.275
3120.35871	955.975
3122.71466	962.875
3125.06917	964.175
3127.42226	976.675
3129.77393	977.075
3132.12417	985.975
3134.47299	994.775
3136.82039	1006.175
3139.16636	1003.275
3141.51092	1017.575
3143.85406	1025.575
3146.19579	1029.675
3148.53609	1032.375
3150.87499	1039.975
3153.21246	1052.475
3155.54853	1068.875
3157.88318	1070.875
3160.21642	1080.275
3162.54826	1080.475
3164.87868	1090.375
3167.2077	1093.575
3169.5353	1103.175
3171.86151	1111.875
3174.18631	1102.075
3176.5097	1120.575
3178.83169	1125.475
3181.15228	1130.775
3183.47147	1134.775
3185.78926	1135.975
3188.10565	1147.575
3190.42065	1149.475
3192.73424	1161.975
3195.04645	1167.475
3197.35725	1170.075
3199.66667	1177.275
3201.97469	1188.475
3204.28132	1184.575
3206.58656	1194.675
3208.8904	1195.275
3211.19287	1208.575
3213.49394	1204.875
3215.79363	1215.675
3218.09193	1211.475
3220.38884	1214.975
3222.68438	1224.675
3224.97853	1223.875
3227.2713	1225.175
3229.56269	1230.275
3231.8527	1232.475
3234.14133	1230.575
3236.42858	1237.475
3238.71446	1237.075
3240.99896	1243.575
3243.28209	1248.575
3245.56384	1242.275
3247.84423	1249.875
3250.12324	1252.275
3252.40088	1257.575
3254.67715	1246.675
3256.95205	1258.675
