Data from AgNPs_FTO_APTES_UA_2uM_CRN_0uM_R6G_10uM_NaF_0.1M_Addition_RamanShift__19__10-26-34-937.txt Node

Date: Wed Feb 02 10:26:34 GMT 2022
User: TCL
Spectrometer: QEP01345
Trigger mode: 4
Integration Time (sec): 7.000000E0
Scans to average: 10
Electric dark correction enabled: true
Nonlinearity correction enabled: false
Boxcar width: 0
XAxis mode: Raman Shifts
Number of Pixels in Spectrum: 1044
>>>>>Begin Spectral Data<<<<<
46.04893	0.2125
50.45542	1.7125
54.85868	0.1125
59.25871	-0.6875
63.6555	31.5125
68.04907	36.0125
72.43941	32.7125
76.82654	42.5125
81.21044	40.1125
85.59113	46.4125
89.96862	44.8125
94.34289	49.0125
98.71396	44.3125
103.08183	56.1125
107.4465	52.1125
111.80798	53.3125
116.16626	55.9125
120.52136	56.5125
124.87327	58.2125
129.222	55.7125
133.56755	60.8125
137.90993	63.9125
142.24913	73.9125
146.58517	80.5125
150.91804	89.2125
155.24774	102.6125
159.57429	126.9125
163.89768	158.5125
168.21792	207.6125
172.53501	280.8125
176.84895	383.3125
181.15975	533.5125
185.46741	742.3125
189.77193	1023.6125
194.07331	1378.2125
198.37157	1772.4125
202.6667	2195.7125
206.9587	2606.0125
211.24758	3016.5125
215.53334	3442.1125
219.81599	3885.5125
224.09553	4372.0125
228.37195	4905.6125
232.64527	5485.6125
236.91549	6089.6125
241.18261	6652.2125
245.44663	7122.5125
249.70755	7531.7125
253.96539	7876.5125
258.22014	8176.2125
262.4718	8410.2125
266.72039	8590.4125
270.96589	8642.8125
275.20832	8580.6125
279.44768	8456.3125
283.68397	8276.0125
287.91719	8080.4125
292.14735	8011.1125
296.37445	8065.5125
300.59849	8225.3125
304.81948	8477.3125
309.03742	8688.3125
313.25231	8717.1125
317.46415	8472.0125
321.67296	8047.6125
325.87872	7677.5125
330.08145	7499.3125
334.28114	7473.3125
338.47781	7547.0125
342.67145	7677.7125
346.86207	7885.2125
351.04966	8175.2125
355.23424	8553.4125
359.4158	8881.2125
363.59435	9044.4125
367.76989	9144.3125
371.94243	9139.0125
376.11196	9121.9125
380.27849	9112.3125
384.44203	9052.9125
388.60257	8973.6125
392.76012	8917.3125
396.91468	8961.4125
401.06626	9043.7125
405.21485	9149.6125
409.36047	9024.6125
413.50311	8679.4125
417.64277	8306.0125
421.77947	8080.4125
425.9132	8006.9125
430.04396	8008.7125
434.17176	8067.0125
438.2966	8149.7125
442.41849	8339.2125
446.53742	8510.9125
450.6534	8739.9125
454.76644	8839.3125
458.87653	8773.3125
462.98368	8653.3125
467.08789	8525.3125
471.18916	8366.8125
475.2875	8213.4125
479.38291	8091.5125
483.4754	7998.2125
487.56496	7950.5125
491.6516	7915.8125
495.73531	7901.5125
499.81612	7942.1125
503.89401	8016.8125
507.96899	8119.1125
512.04106	8255.8125
516.11023	8385.3125
520.1765	8501.5125
524.23987	8498.2125
528.30034	8421.2125
532.35792	8306.5125
536.41261	8177.2125
540.46441	8014.3125
544.51333	7913.3125
548.55936	7919.4125
552.60252	8013.1125
556.64279	8137.2125
560.6802	8210.7125
564.71473	8271.3125
568.7464	8432.2125
572.7752	8540.0125
576.80114	8333.3125
580.82422	8081.9125
584.84444	8000.2125
588.86181	8090.8125
592.87633	8358.2125
596.888	8585.0125
600.89682	8663.0125
604.9028	9142.7125
608.90594	10866.5125
612.90624	13467.8125
616.90371	13576.3125
620.89834	10237.7125
624.89015	8377.8125
628.87913	7981.2125
632.86528	7985.3125
636.84862	8105.6125
640.82913	8081.2125
644.80683	7860.1125
648.78172	7707.8125
652.75379	7702.9125
656.72306	7901.6125
660.68952	8176.0125
664.65319	8139.8125
668.61405	7855.2125
672.57211	7670.8125
676.52738	7696.1125
680.47986	7718.0125
684.42955	7688.7125
688.37646	7613.5125
692.32058	7613.5125
696.26192	7633.6125
700.20048	7684.6125
704.13626	7745.5125
708.06928	7756.9125
711.99952	7729.2125
715.927	7708.6125
719.85171	7743.6125
723.77365	7762.4125
727.69284	7712.8125
731.60928	7670.2125
735.52295	7675.6125
739.43388	7686.3125
743.34206	7679.7125
747.24749	7697.1125
751.15017	7680.5125
755.05012	7732.2125
758.94733	7902.9125
762.8418	8406.0125
766.73354	9429.8125
770.62254	10679.3125
774.50882	11519.2125
778.39237	11214.4125
782.27321	9983.5125
786.15132	8749.9125
790.02671	8008.6125
793.89938	7690.4125
797.76935	7514.4125
801.6366	7459.5125
805.50115	7409.5125
809.36299	7393.6125
813.22213	7343.2125
817.07857	7323.6125
820.93231	7286.1125
824.78336	7276.3125
828.63172	7310.1125
832.47738	7324.1125
836.32036	7286.2125
840.16066	7276.1125
843.99827	7282.5125
847.8332	7263.0125
851.66546	7238.0125
855.49504	7251.1125
859.32195	7214.6125
863.1462	7178.9125
866.96777	7177.0125
870.78668	7178.0125
874.60293	7208.2125
878.41652	7218.4125
882.22745	7255.9125
886.03573	7289.0125
889.84136	7297.2125
893.64433	7278.4125
897.44466	7221.3125
901.24235	7213.1125
905.0374	7205.5125
908.8298	7211.6125
912.61957	7216.6125
916.40671	7264.5125
920.19121	7336.3125
923.97308	7411.9125
927.75233	7525.8125
931.52895	7588.4125
935.30295	7509.1125
939.07433	7329.6125
942.84309	7148.0125
946.60924	7016.4125
950.37278	6921.7125
954.13371	6836.6125
957.89203	6803.8125
961.64774	6763.1125
965.40086	6717.6125
969.15137	6695.3125
972.89929	6660.5125
976.64461	6622.6125
980.38733	6597.3125
984.12747	6586.8125
987.86502	6586.2125
991.59999	6621.7125
995.33237	6639.6125
999.06217	6725.7125
1002.78939	6796.8125
1006.51404	6896.4125
1010.23611	6948.4125
1013.95561	6978.5125
1017.67255	6987.8125
1021.38692	6889.1125
1025.09872	6780.6125
1028.80796	6697.1125
1032.51465	6670.3125
1036.21877	6694.2125
1039.92035	6738.2125
1043.61937	6796.7125
1047.31584	6851.8125
1051.00976	6900.6125
1054.70114	6930.6125
1058.38998	6932.5125
1062.07627	6907.0125
1065.76003	6903.2125
1069.44126	6833.8125
1073.11995	6811.2125
1076.79611	6843.9125
1080.46974	6902.1125
1084.14085	7043.8125
1087.80943	7183.0125
1091.47549	7235.1125
1095.13903	7142.6125
1098.80005	6943.0125
1102.45857	6763.0125
1106.11456	6696.8125
1109.76805	6712.8125
1113.41903	6821.2125
1117.06751	7010.6125
1120.71348	7231.5125
1124.35696	7484.8125
1127.99793	7732.6125
1131.63641	7793.6125
1135.2724	7498.4125
1138.90589	7095.3125
1142.5369	6838.3125
1146.16542	6689.4125
1149.79145	6574.9125
1153.415	6516.3125
1157.03607	6511.4125
1160.65467	6585.7125
1164.27079	6727.1125
1167.88443	7046.9125
1171.49561	7555.6125
1175.10432	8399.2125
1178.71056	9577.5125
1182.31434	10529.1125
1185.91565	10741.1125
1189.51451	10385.8125
1193.11091	9734.9125
1196.70485	8979.7125
1200.29634	8398.4125
1203.88538	7956.8125
1207.47197	7463.2125
1211.05612	7028.5125
1214.63782	6811.3125
1218.21708	6751.0125
1221.79391	6810.1125
1225.36829	6877.6125
1228.94024	6885.4125
1232.50976	6845.4125
1236.07685	6764.2125
1239.6415	6712.7125
1243.20374	6677.9125
1246.76355	6672.4125
1250.32093	6690.2125
1253.8759	6773.3125
1257.42845	6885.5125
1260.97859	7064.5125
1264.52631	7266.8125
1268.07163	7470.3125
1271.61453	7664.6125
1275.15503	7770.3125
1278.69312	7822.8125
1282.22882	7822.5125
1285.76211	7940.8125
1289.29301	8217.9125
1292.82151	8529.4125
1296.34761	8847.5125
1299.87133	9229.8125
1303.39266	9834.5125
1306.9116	10820.0125
1310.42815	12079.2125
1313.94233	12929.7125
1317.45412	12722.2125
1320.96354	11710.7125
1324.47058	10510.6125
1327.97525	9434.5125
1331.47754	8736.9125
1334.97747	8473.6125
1338.47502	8469.1125
1341.97022	8607.6125
1345.46305	8898.3125
1348.95352	9560.3125
1352.44163	10607.5125
1355.92738	12085.0125
1359.41078	14054.0125
1362.89183	16264.5125
1366.37053	16545.8125
1369.84688	14227.1125
1373.32088	11428.7125
1376.79254	9593.5125
1380.26186	8752.2125
1383.72883	8376.2125
1387.19347	8171.1125
1390.65578	7842.9125
1394.11575	7559.8125
1397.57339	7398.9125
1401.0287	7344.3125
1404.48168	7310.2125
1407.93234	7252.6125
1411.38068	7203.9125
1414.82669	7150.1125
1418.27039	7101.1125
1421.71177	7063.0125
1425.15083	6982.0125
1428.58758	6903.8125
1432.02203	6905.1125
1435.45416	7019.0125
1438.88399	7114.2125
1442.31151	7102.3125
1445.73673	7099.1125
1449.15965	7087.9125
1452.58027	7013.4125
1455.9986	6917.9125
1459.41463	6801.4125
1462.82837	6783.2125
1466.23982	6844.9125
1469.64898	6985.4125
1473.05586	7074.5125
1476.46045	7161.8125
1479.86276	7229.5125
1483.26279	7325.6125
1486.66054	7472.3125
1490.05602	7633.7125
1493.44922	7912.1125
1496.84016	8358.8125
1500.22882	9208.2125
1503.61521	10434.7125
1506.99934	11908.0125
1510.38121	13463.2125
1513.76081	14330.8125
1517.13816	13793.3125
1520.51324	11990.9125
1523.88607	10103.8125
1527.25665	8792.3125
1530.62498	8094.4125
1533.99105	7730.3125
1537.35488	7441.5125
1540.71647	7278.3125
1544.07581	7164.6125
1547.4329	7101.1125
1550.78776	7060.6125
1554.14038	7124.0125
1557.49077	7191.4125
1560.83892	7360.9125
1564.18484	7573.0125
1567.52853	7798.3125
1570.86999	8105.9125
1574.20922	8298.7125
1577.54624	8344.6125
1580.88103	7967.7125
1584.2136	7378.5125
1587.54395	6918.8125
1590.87208	6793.5125
1594.19801	6998.6125
1597.52172	7480.6125
1600.84321	7806.1125
1604.16251	7721.2125
1607.47959	7297.6125
1610.79447	6886.1125
1614.10715	6403.4125
1617.41763	6039.0125
1620.7259	5831.2125
1624.03199	5702.4125
1627.33587	5714.2125
1630.63757	5798.9125
1633.93707	5962.5125
1637.23439	6304.9125
1640.52951	6878.3125
1643.82246	7785.3125
1647.11321	8940.8125
1650.40179	9836.9125
1653.68819	9782.4125
1656.97241	8628.3125
1660.25446	7156.5125
1663.53433	6137.1125
1666.81203	5535.5125
1670.08756	5209.6125
1673.36092	5004.0125
1676.63211	4855.1125
1679.90115	4755.8125
1683.16801	4672.5125
1686.43272	4599.6125
1689.69527	4580.8125
1692.95567	4533.3125
1696.2139	4498.9125
1699.46999	4466.0125
1702.72392	4450.3125
1705.97571	4429.6125
1709.22535	4414.2125
1712.47284	4408.3125
1715.71819	4412.8125
1718.96139	4397.8125
1722.20246	4364.6125
1725.44139	4353.6125
1728.67818	4310.4125
1731.91284	4264.3125
1735.14537	4239.8125
1738.37576	4217.3125
1741.60403	4187.9125
1744.83017	4184.1125
1748.05418	4180.7125
1751.27607	4155.3125
1754.49584	4120.1125
1757.71349	4097.8125
1760.92903	4091.8125
1764.14244	4088.2125
1767.35375	4065.7125
1770.56294	4033.0125
1773.77002	4027.6125
1776.97499	4003.3125
1780.17785	3986.8125
1783.37861	3981.2125
1786.57727	3949.8125
1789.77382	3950.3125
1792.96828	3945.1125
1796.16064	3933.7125
1799.3509	3911.5125
1802.53907	3896.7125
1805.72514	3895.4125
1808.90913	3870.4125
1812.09102	3857.9125
1815.27083	3836.6125
1818.44856	3830.4125
1821.6242	3827.2125
1824.79776	3801.9125
1827.96924	3787.7125
1831.13864	3797.8125
1834.30597	3791.4125
1837.47122	3765.0125
1840.6344	3755.4125
1843.7955	3766.9125
1846.95454	3753.7125
1850.11151	3736.2125
1853.26642	3741.7125
1856.41926	3724.7125
1859.57004	3718.6125
1862.71876	3725.8125
1865.86542	3711.7125
1869.01003	3704.0125
1872.15258	3687.5125
1875.29308	3688.3125
1878.43152	3695.1125
1881.56792	3681.1125
1884.70227	3677.6125
1887.83457	3675.8125
1890.96482	3664.9125
1894.09304	3669.0125
1897.21921	3671.5125
1900.34335	3648.0125
1903.46544	3629.4125
1906.58551	3649.4125
1909.70353	3635.6125
1912.81953	3647.0125
1915.93349	3635.6125
1919.04543	3616.0125
1922.15534	3598.6125
1925.26322	3595.2125
1928.36908	3575.7125
1931.47292	3575.0125
1934.57473	3545.0125
1937.67453	3530.2125
1940.77232	3512.6125
1943.86808	3508.2125
1946.96184	3497.0125
1950.05358	3477.5125
1953.14331	3464.0125
1956.23103	3446.6125
1959.31675	3430.9125
1962.40046	3416.5125
1965.48217	3413.0125
1968.56188	3407.0125
1971.63959	3387.0125
1974.7153	3385.7125
1977.78901	3379.4125
1980.86073	3347.7125
1983.93046	3338.4125
1986.99819	3321.8125
1990.06394	3320.1125
1993.1277	3310.3125
1996.18947	3289.8125
1999.24925	3272.8125
2002.30706	3261.4125
2005.36288	3248.6125
2008.41672	3235.4125
2011.46859	3234.7125
2014.51848	3207.2125
2017.56639	3200.0125
2020.61233	3184.3125
2023.6563	3163.7125
2026.6983	3151.5125
2029.73833	3153.4125
2032.7764	3149.3125
2035.8125	3137.3125
2038.84664	3126.2125
2041.87881	3120.4125
2044.90903	3118.9125
2047.93729	3109.9125
2050.96359	3100.6125
2053.98794	3091.3125
2057.01034	3096.4125
2060.03078	3085.3125
2063.04927	3099.1125
2066.06582	3081.6125
2069.08042	3069.3125
2072.09307	3074.3125
2075.10378	3077.9125
2078.11255	3053.2125
2081.11938	3064.6125
2084.12426	3065.8125
2087.12722	3059.7125
2090.12824	3052.4125
2093.12732	3063.4125
2096.12447	3067.9125
2099.11969	3062.9125
2102.11299	3065.2125
2105.10435	3058.9125
2108.09379	3050.5125
2111.08131	3050.3125
2114.0669	3052.0125
2117.05057	3044.5125
2120.03233	3038.9125
2123.01216	3045.5125
2125.99008	3039.1125
2128.96609	3027.9125
2131.94018	3042.9125
2134.91236	3028.3125
2137.88263	3030.7125
2140.851	3037.5125
2143.81746	3034.6125
2146.78201	3015.4125
2149.74466	3008.1125
2152.7054	3016.5125
2155.66425	3003.5125
2158.6212	3012.5125
2161.57625	3005.7125
2164.52941	3008.3125
2167.48067	2992.0125
2170.43004	2999.8125
2173.37752	2984.6125
2176.32311	2970.2125
2179.26681	2989.8125
2182.20863	2979.3125
2185.14856	2996.0125
2188.08661	2987.9125
2191.02278	2984.1125
2193.95707	2969.2125
2196.88948	2960.3125
2199.82001	2968.8125
2202.74867	2953.3125
2205.67545	2956.5125
2208.60037	2955.7125
2211.52341	2948.0125
2214.44458	2940.6125
2217.36388	2928.5125
2220.28132	2920.1125
2223.1969	2894.0125
2226.11061	2894.1125
2229.02246	2875.2125
2231.93245	2877.4125
2234.84058	2880.6125
2237.74686	2859.5125
2240.65128	2860.7125
2243.55385	2859.4125
2246.45456	2856.1125
2249.35343	2841.2125
2252.25044	2848.1125
2255.14561	2840.3125
2258.03893	2823.2125
2260.93041	2828.0125
2263.82004	2831.5125
2266.70783	2829.3125
2269.59378	2810.7125
2272.4779	2817.3125
2275.36017	2798.3125
2278.24061	2778.9125
2281.11922	2790.7125
2283.996	2775.2125
2286.87094	2778.3125
2289.74405	2748.3125
2292.61534	2744.5125
2295.4848	2730.8125
2298.35243	2732.9125
2301.21824	2734.2125
2304.08223	2728.2125
2306.94439	2723.7125
2309.80474	2710.8125
2312.66327	2714.2125
2315.51999	2711.5125
2318.37489	2701.7125
2321.22797	2702.1125
2324.07925	2692.1125
2326.92871	2687.5125
2329.77637	2682.2125
2332.62222	2686.1125
2335.46626	2676.2125
2338.3085	2669.0125
2341.14893	2667.8125
2343.98756	2663.6125
2346.8244	2658.0125
2349.65943	2660.7125
2352.49267	2654.1125
2355.32411	2652.9125
2358.15376	2667.9125
2360.98161	2658.4125
2363.80768	2671.6125
2366.63195	2669.4125
2369.45444	2669.3125
2372.27514	2683.7125
2375.09405	2678.9125
2377.91118	2688.5125
2380.72652	2644.4125
2383.54009	2640.2125
2386.35187	2623.6125
2389.16188	2604.5125
2391.97011	2591.3125
2394.77657	2581.6125
2397.58125	2568.9125
2400.38416	2577.0125
2403.18529	2554.5125
2405.98466	2551.5125
2408.78226	2541.0125
2411.57809	2538.5125
2414.37216	2532.7125
2417.16446	2524.3125
2419.955	2523.9125
2422.74378	2516.0125
2425.5308	2509.7125
2428.31606	2521.5125
2431.09956	2525.4125
2433.88131	2505.8125
2436.6613	2509.5125
2439.43954	2515.7125
2442.21603	2507.8125
2444.99077	2513.0125
2447.76377	2501.0125
2450.53501	2502.1125
2453.30451	2512.1125
2456.07226	2498.5125
2458.83827	2505.7125
2461.60254	2491.3125
2464.36507	2487.8125
2467.12586	2478.7125
2469.88492	2484.8125
2472.64224	2476.2125
2475.39782	2484.1125
2478.15167	2483.0125
2480.90379	2475.2125
2483.65417	2487.5125
2486.40283	2493.9125
2489.14976	2494.8125
2491.89497	2489.0125
2494.63845	2493.0125
2497.3802	2486.4125
2500.12024	2473.9125
2502.85855	2467.9125
2505.59514	2462.2125
2508.33002	2459.0125
2511.06318	2442.2125
2513.79462	2427.6125
2516.52435	2412.1125
2519.25237	2406.6125
2521.97867	2398.5125
2524.70327	2389.7125
2527.42616	2378.5125
2530.14734	2372.3125
2532.86681	2368.1125
2535.58458	2370.1125
2538.30065	2367.5125
2541.01501	2353.9125
2543.72768	2363.2125
2546.43864	2352.3125
2549.14791	2348.6125
2551.85548	2348.6125
2554.56136	2348.7125
2557.26554	2342.8125
2559.96803	2329.3125
2562.66883	2335.1125
2565.36794	2334.8125
2568.06536	2333.1125
2570.7611	2331.0125
2573.45514	2318.0125
2576.14751	2317.1125
2578.83819	2314.6125
2581.52719	2309.1125
2584.21451	2301.4125
2586.90015	2306.2125
2589.58411	2284.4125
2592.2664	2281.2125
2594.94701	2282.3125
2597.62594	2273.0125
2600.30321	2261.0125
2602.9788	2276.7125
2605.65273	2260.3125
2608.32498	2263.8125
2610.99557	2251.5125
2613.66449	2260.7125
2616.33175	2242.5125
2618.99734	2249.8125
2621.66128	2253.6125
2624.32355	2248.5125
2626.98416	2247.0125
2629.64311	2242.7125
2632.30041	2225.1125
2634.95605	2230.2125
2637.61004	2229.0125
2640.26238	2232.9125
2642.91306	2217.9125
2645.56209	2216.9125
2648.20948	2200.0125
2650.85521	2214.7125
2653.4993	2214.1125
2656.14175	2223.3125
2658.78255	2214.4125
2661.42171	2210.1125
2664.05923	2212.8125
2666.6951	2222.8125
2669.32934	2214.9125
2671.96194	2222.2125
2674.59291	2229.4125
2677.22224	2232.8125
2679.84993	2229.6125
2682.476	2230.3125
2685.10043	2224.9125
2687.72324	2220.1125
2690.34441	2216.1125
2692.96396	2229.8125
2695.58188	2227.0125
2698.19818	2219.9125
2700.81285	2229.9125
2703.4259	2237.9125
2706.03733	2223.1125
2708.64714	2229.6125
2711.25533	2246.7125
2713.86191	2239.4125
2716.46687	2259.0125
2719.07021	2264.6125
2721.67194	2267.5125
2724.27206	2267.3125
2726.87057	2269.5125
2729.46747	2273.7125
2732.06276	2270.6125
2734.65644	2281.8125
2737.24852	2290.2125
2739.83899	2282.5125
2742.42786	2294.3125
2745.01513	2302.4125
2747.60079	2303.7125
2750.18486	2301.6125
2752.76733	2307.3125
2755.3482	2301.2125
2757.92747	2309.2125
2760.50515	2321.3125
2763.08123	2309.2125
2765.65573	2310.2125
2768.22863	2303.4125
2770.79994	2316.0125
2773.36967	2308.8125
2775.9378	2315.4125
2778.50435	2300.2125
2781.06932	2319.5125
2783.6327	2320.1125
2786.1945	2327.7125
2788.75471	2319.2125
2791.31335	2308.0125
2793.87041	2331.1125
2796.42589	2319.5125
2798.97979	2321.7125
2801.53212	2325.8125
2804.08288	2345.0125
2806.63206	2340.6125
2809.17967	2333.2125
2811.72571	2341.7125
2814.27018	2357.0125
2816.81308	2350.4125
2819.35442	2350.7125
2821.89419	2356.6125
2824.43239	2360.8125
2826.96904	2347.1125
2829.50412	2360.4125
2832.03763	2362.3125
2834.56959	2379.7125
2837.1	2387.5125
2839.62884	2403.6125
2842.15613	2463.2125
2844.68186	2512.6125
2847.20604	2566.3125
2849.72867	2619.4125
2852.24974	2639.3125
2854.76927	2650.6125
2857.28724	2659.0125
2859.80367	2654.5125
2862.31855	2671.3125
2864.83189	2675.2125
2867.34368	2680.1125
2869.85393	2684.2125
2872.36264	2694.0125
2874.8698	2713.3125
2877.37543	2720.0125
2879.87952	2723.8125
2882.38207	2744.4125
2884.88308	2732.4125
2887.38256	2722.3125
2889.88051	2741.8125
2892.37692	2733.1125
2894.8718	2738.8125
2897.36515	2743.4125
2899.85698	2732.9125
2902.34727	2742.3125
2904.83604	2746.2125
2907.32328	2743.5125
2909.809	2735.3125
2912.29319	2727.4125
2914.77587	2737.1125
2917.25702	2737.3125
2919.73665	2731.9125
2922.21476	2728.2125
2924.69136	2730.4125
2927.16644	2712.1125
2929.64	2700.5125
2932.11205	2689.9125
2934.58258	2678.6125
2937.05161	2654.3125
2939.51912	2627.3125
2941.98513	2587.1125
2944.44962	2527.3125
2946.91261	2489.6125
2949.37409	2442.6125
2951.83407	2411.1125
2954.29254	2371.6125
2956.74951	2335.5125
2959.20498	2300.3125
2961.65895	2266.3125
2964.11142	2253.0125
2966.56239	2226.7125
2969.01186	2199.7125
2971.45984	2175.6125
2973.90632	2144.8125
2976.35131	2130.1125
2978.7948	2120.0125
2981.23681	2093.9125
2983.67732	2073.2125
2986.11635	2057.6125
2988.55388	2045.6125
2990.98993	2031.6125
2993.4245	2022.9125
2995.85758	2013.7125
2998.28917	1994.9125
3000.71928	1999.2125
3003.14791	1998.9125
3005.57506	1984.6125
3008.00073	1980.8125
3010.42493	1978.7125
3012.84764	1968.4125
3015.26888	1954.2125
3017.68865	1958.7125
3020.10694	1946.6125
3022.52376	1942.0125
3024.9391	1937.4125
3027.35298	1934.4125
3029.76539	1932.5125
3032.17632	1928.2125
3034.5858	1922.0125
3036.9938	1925.2125
3039.40034	1919.6125
3041.80542	1921.5125
3044.20903	1907.2125
3046.61118	1911.4125
3049.01187	1904.7125
3051.4111	1900.8125
3053.80888	1900.7125
3056.20519	1901.0125
3058.60005	1903.4125
3060.99345	1898.1125
3063.3854	1897.6125
3065.7759	1899.5125
3068.16494	1900.4125
3070.55254	1894.5125
3072.93868	1894.4125
3075.32338	1891.4125
3077.70662	1880.8125
3080.08842	1882.6125
3082.46878	1883.4125
3084.84769	1880.1125
3087.22515	1880.8125
3089.60118	1883.0125
3091.97576	1884.4125
3094.3489	1886.4125
3096.72061	1886.0125
3099.09087	1897.3125
3101.4597	1887.8125
3103.82709	1890.7125
3106.19305	1881.0125
3108.55757	1893.6125
3110.92066	1889.5125
3113.28232	1884.9125
3115.64255	1890.5125
3118.00134	1893.1125
3120.35871	1889.2125
3122.71466	1894.7125
