Data from AgNPs_FTO_APTES_UA_2uM_CRN_100uM_R6G_10uM_NaF_0.1M_Addition_RamanShift__31__16-14-15-342.txt Node

Date: Wed Feb 02 16:14:15 GMT 2022
User: TCL
Spectrometer: QEP01345
Trigger mode: 4
Integration Time (sec): 7.000000E0
Scans to average: 10
Electric dark correction enabled: true
Nonlinearity correction enabled: false
Boxcar width: 0
XAxis mode: Raman Shifts
Number of Pixels in Spectrum: 1044
>>>>>Begin Spectral Data<<<<<
46.04893	-0.025
50.45542	0.775
54.85868	-0.625
59.25871	0.975
63.6555	46.175
68.04907	49.675
72.43941	51.175
76.82654	58.475
81.21044	62.675
85.59113	65.375
89.96862	63.475
94.34289	67.475
98.71396	66.375
103.08183	74.475
107.4465	74.275
111.80798	72.775
116.16626	74.975
120.52136	73.875
124.87327	77.075
129.222	80.875
133.56755	81.675
137.90993	83.775
142.24913	92.575
146.58517	97.375
150.91804	102.675
155.24774	122.675
159.57429	139.975
163.89768	173.575
168.21792	220.375
172.53501	298.475
176.84895	397.975
181.15975	541.975
185.46741	753.775
189.77193	1029.375
194.07331	1378.475
198.37157	1769.975
202.6667	2179.275
206.9587	2581.575
211.24758	2976.975
215.53334	3415.475
219.81599	3862.075
224.09553	4407.275
228.37195	4992.875
232.64527	5612.075
236.91549	6253.775
241.18261	6845.975
245.44663	7337.175
249.70755	7718.575
253.96539	8043.075
258.22014	8329.375
262.4718	8597.075
266.72039	8810.875
270.96589	8968.075
275.20832	9004.875
279.44768	9008.075
283.68397	9000.575
287.91719	9023.475
292.14735	9094.375
296.37445	9280.775
300.59849	9528.875
304.81948	9813.575
309.03742	9990.775
313.25231	9913.275
317.46415	9382.875
321.67296	8628.675
325.87872	7985.575
330.08145	7698.675
334.28114	7657.475
338.47781	7770.375
342.67145	7979.475
346.86207	8301.775
351.04966	8788.875
355.23424	9307.575
359.4158	9724.075
363.59435	9862.575
367.76989	9840.175
371.94243	9768.075
376.11196	9668.375
380.27849	9566.175
384.44203	9477.975
388.60257	9330.975
392.76012	9304.775
396.91468	9414.475
401.06626	9716.975
405.21485	9948.475
409.36047	9787.375
413.50311	9317.575
417.64277	8838.775
421.77947	8567.475
425.9132	8456.075
430.04396	8455.675
434.17176	8444.775
438.2966	8506.075
442.41849	8683.775
446.53742	8871.775
450.6534	9104.775
454.76644	9275.675
458.87653	9308.275
462.98368	9266.675
467.08789	9189.475
471.18916	9039.875
475.2875	8895.575
479.38291	8745.375
483.4754	8598.575
487.56496	8445.875
491.6516	8348.275
495.73531	8305.875
499.81612	8334.875
503.89401	8436.075
507.96899	8509.375
512.04106	8569.875
516.11023	8655.575
520.1765	8677.675
524.23987	8624.975
528.30034	8426.075
532.35792	8237.275
536.41261	8030.975
540.46441	7838.575
544.51333	7799.375
548.55936	7910.375
552.60252	8158.475
556.64279	8449.975
560.6802	8593.875
564.71473	8768.775
568.7464	9168.075
572.7752	9454.575
576.80114	9225.175
580.82422	8932.775
584.84444	8770.975
588.86181	8671.075
592.87633	8595.575
596.888	8630.375
600.89682	8919.275
604.9028	9938.875
608.90594	12581.275
612.90624	16047.575
616.90371	15500.675
620.89834	10784.375
624.89015	8496.275
628.87913	8067.975
632.86528	8115.875
636.84862	8252.975
640.82913	8144.575
644.80683	7787.775
648.78172	7504.675
652.75379	7529.375
656.72306	7871.275
660.68952	8287.775
664.65319	8246.775
668.61405	7846.075
672.57211	7638.275
676.52738	7618.775
680.47986	7618.175
684.42955	7561.975
688.37646	7529.175
692.32058	7565.975
696.26192	7643.775
700.20048	7752.775
704.13626	7884.675
708.06928	7918.775
711.99952	7828.775
715.927	7768.575
719.85171	7742.375
723.77365	7693.675
727.69284	7576.475
731.60928	7461.675
735.52295	7414.875
739.43388	7408.075
743.34206	7439.075
747.24749	7488.275
751.15017	7584.575
755.05012	7812.575
758.94733	8255.875
762.8418	9239.275
766.73354	10908.175
770.62254	12637.375
774.50882	13357.575
778.39237	12682.775
782.27321	10900.575
786.15132	9157.275
790.02671	8144.475
793.89938	7698.975
797.76935	7472.375
801.6366	7372.075
805.50115	7324.575
809.36299	7306.975
813.22213	7264.575
817.07857	7260.775
820.93231	7244.075
824.78336	7281.975
828.63172	7306.875
832.47738	7315.775
836.32036	7290.075
840.16066	7221.475
843.99827	7162.775
847.8332	7121.075
851.66546	7112.375
855.49504	7122.075
859.32195	7066.375
863.1462	7021.775
866.96777	6980.975
870.78668	6968.875
874.60293	6980.075
878.41652	6993.575
882.22745	7027.275
886.03573	7050.775
889.84136	7057.475
893.64433	6991.375
897.44466	6985.075
901.24235	6971.475
905.0374	6972.675
908.8298	6932.875
912.61957	6953.975
916.40671	7015.475
920.19121	7133.775
923.97308	7197.375
927.75233	7232.675
931.52895	7252.475
935.30295	7122.775
939.07433	6889.075
942.84309	6685.775
946.60924	6530.375
950.37278	6476.075
954.13371	6426.875
957.89203	6403.175
961.64774	6380.475
965.40086	6362.575
969.15137	6337.475
972.89929	6315.975
976.64461	6295.675
980.38733	6283.375
984.12747	6278.275
987.86502	6302.975
991.59999	6347.675
995.33237	6405.175
999.06217	6511.375
1002.78939	6686.375
1006.51404	6838.875
1010.23611	7003.975
1013.95561	7114.775
1017.67255	7070.275
1021.38692	6939.575
1025.09872	6849.975
1028.80796	6778.375
1032.51465	6759.275
1036.21877	6856.475
1039.92035	7004.975
1043.61937	7065.075
1047.31584	7066.375
1051.00976	7087.675
1054.70114	7102.075
1058.38998	7136.775
1062.07627	7205.475
1065.76003	7321.975
1069.44126	7380.675
1073.11995	7476.675
1076.79611	7554.075
1080.46974	7634.575
1084.14085	7774.575
1087.80943	8017.175
1091.47549	8135.275
1095.13903	8033.975
1098.80005	7740.675
1102.45857	7432.075
1106.11456	7234.575
1109.76805	7198.575
1113.41903	7322.375
1117.06751	7557.475
1120.71348	7885.075
1124.35696	8239.175
1127.99793	8603.375
1131.63641	8589.875
1135.2724	8183.475
1138.90589	7778.375
1142.5369	7555.275
1146.16542	7429.775
1149.79145	7368.375
1153.415	7413.375
1157.03607	7508.375
1160.65467	7712.175
1164.27079	8044.975
1167.88443	8500.875
1171.49561	9264.975
1175.10432	10527.475
1178.71056	12114.475
1182.31434	13160.075
1185.91565	13281.575
1189.51451	12879.575
1193.11091	12162.875
1196.70485	11365.075
1200.29634	10657.875
1203.88538	10105.375
1207.47197	9436.075
1211.05612	8881.775
1214.63782	8540.875
1218.21708	8444.775
1221.79391	8449.275
1225.36829	8494.175
1228.94024	8537.275
1232.50976	8582.675
1236.07685	8619.775
1239.6415	8621.675
1243.20374	8656.275
1246.76355	8678.575
1250.32093	8803.575
1253.8759	8997.475
1257.42845	9275.375
1260.97859	9577.075
1264.52631	9890.975
1268.07163	10167.175
1271.61453	10435.075
1275.15503	10651.075
1278.69312	10732.475
1282.22882	10782.375
1285.76211	11019.475
1289.29301	11374.075
1292.82151	11796.675
1296.34761	12215.575
1299.87133	12857.675
1303.39266	13839.575
1306.9116	15330.975
1310.42815	17098.375
1313.94233	18287.975
1317.45412	18175.075
1320.96354	17205.275
1324.47058	16097.075
1327.97525	15131.275
1331.47754	14500.475
1334.97747	14188.575
1338.47502	14199.175
1341.97022	14360.975
1345.46305	14647.175
1348.95352	15170.375
1352.44163	15907.875
1355.92738	17200.975
1359.41078	19364.375
1362.89183	21686.775
1366.37053	21347.875
1369.84688	18324.475
1373.32088	15189.275
1376.79254	13197.575
1380.26186	12207.075
1383.72883	11711.175
1387.19347	11387.575
1390.65578	11041.775
1394.11575	10754.875
1397.57339	10631.375
1401.0287	10652.975
1404.48168	10763.975
1407.93234	10865.675
1411.38068	10840.875
1414.82669	10672.175
1418.27039	10340.175
1421.71177	10000.175
1425.15083	9642.775
1428.58758	9425.675
1432.02203	9386.675
1435.45416	9431.175
1438.88399	9522.075
1442.31151	9570.575
1445.73673	9650.775
1449.15965	9750.675
1452.58027	9816.575
1455.9986	9808.475
1459.41463	9879.175
1462.82837	10027.475
1466.23982	10231.175
1469.64898	10455.675
1473.05586	10628.675
1476.46045	10717.075
1479.86276	10858.475
1483.26279	11065.075
1486.66054	11315.675
1490.05602	11649.875
1493.44922	12162.675
1496.84016	12974.575
1500.22882	14269.575
1503.61521	15966.275
1506.99934	17866.475
1510.38121	19687.075
1513.76081	20768.475
1517.13816	20117.475
1520.51324	17897.975
1523.88607	15542.475
1527.25665	13886.175
1530.62498	12876.675
1533.99105	12289.475
1537.35488	11895.775
1540.71647	11614.975
1544.07581	11368.275
1547.4329	11210.175
1550.78776	11047.475
1554.14038	10992.875
1557.49077	11088.075
1560.83892	11327.475
1564.18484	11706.375
1567.52853	12091.775
1570.86999	12352.975
1574.20922	12533.875
1577.54624	12429.975
1580.88103	11843.275
1584.2136	11082.075
1587.54395	10677.675
1590.87208	10776.775
1594.19801	11319.475
1597.52172	12046.875
1600.84321	12312.575
1604.16251	11796.175
1607.47959	10974.175
1610.79447	10102.375
1614.10715	9264.175
1617.41763	8627.275
1620.7259	8213.375
1624.03199	7966.975
1627.33587	7926.275
1630.63757	8065.975
1633.93707	8427.675
1637.23439	9019.875
1640.52951	9917.675
1643.82246	11182.175
1647.11321	12698.775
1650.40179	13933.975
1653.68819	13839.075
1656.97241	12171.175
1660.25446	10093.075
1663.53433	8484.275
1666.81203	7487.375
1670.08756	6902.675
1673.36092	6521.075
1676.63211	6277.775
1679.90115	6152.175
1683.16801	5999.775
1686.43272	5916.475
1689.69527	5847.075
1692.95567	5801.175
1696.2139	5790.275
1699.46999	5776.075
1702.72392	5761.975
1705.97571	5699.775
1709.22535	5661.675
1712.47284	5643.475
1715.71819	5625.975
1718.96139	5631.575
1722.20246	5625.375
1725.44139	5597.075
1728.67818	5571.775
1731.91284	5502.975
1735.14537	5446.575
1738.37576	5414.475
1741.60403	5379.775
1744.83017	5365.975
1748.05418	5353.775
1751.27607	5340.975
1754.49584	5325.575
1757.71349	5325.075
1760.92903	5323.075
1764.14244	5306.375
1767.35375	5294.575
1770.56294	5239.675
1773.77002	5226.475
1776.97499	5187.675
1780.17785	5162.775
1783.37861	5137.375
1786.57727	5112.775
1789.77382	5109.975
1792.96828	5082.575
1796.16064	5081.475
1799.3509	5056.675
1802.53907	5033.975
1805.72514	5028.375
1808.90913	5019.275
1812.09102	4996.075
1815.27083	4963.575
1818.44856	4973.175
1821.6242	4950.975
1824.79776	4940.875
1827.96924	4951.975
1831.13864	4931.575
1834.30597	4928.875
1837.47122	4909.575
1840.6344	4915.475
1843.7955	4914.875
1846.95454	4907.575
1850.11151	4898.575
1853.26642	4910.275
1856.41926	4908.575
1859.57004	4888.775
1862.71876	4904.775
1865.86542	4879.075
1869.01003	4891.375
1872.15258	4867.175
1875.29308	4888.775
1878.43152	4884.375
1881.56792	4878.275
1884.70227	4880.475
1887.83457	4873.475
1890.96482	4898.675
1894.09304	4875.875
1897.21921	4891.575
1900.34335	4880.075
1903.46544	4874.675
1906.58551	4879.775
1909.70353	4883.175
1912.81953	4881.275
1915.93349	4885.075
1919.04543	4863.775
1922.15534	4869.275
1925.26322	4851.975
1928.36908	4837.275
1931.47292	4804.275
1934.57473	4784.675
1937.67453	4741.775
1940.77232	4725.875
1943.86808	4697.675
1946.96184	4680.575
1950.05358	4672.075
1953.14331	4636.475
1956.23103	4612.675
1959.31675	4608.775
1962.40046	4579.875
1965.48217	4562.075
1968.56188	4555.875
1971.63959	4535.675
1974.7153	4541.475
1977.78901	4514.575
1980.86073	4489.175
1983.93046	4462.675
1986.99819	4454.575
1990.06394	4449.275
1993.1277	4427.375
1996.18947	4408.575
1999.24925	4373.975
2002.30706	4356.975
2005.36288	4360.475
2008.41672	4355.575
2011.46859	4334.275
2014.51848	4312.575
2017.56639	4312.175
2020.61233	4287.175
2023.6563	4264.175
2026.6983	4261.175
2029.73833	4256.075
2032.7764	4235.775
2035.8125	4230.575
2038.84664	4206.975
2041.87881	4210.275
2044.90903	4199.875
2047.93729	4200.275
2050.96359	4198.675
2053.98794	4177.975
2057.01034	4167.075
2060.03078	4159.975
2063.04927	4146.775
2066.06582	4138.975
2069.08042	4132.075
2072.09307	4143.075
2075.10378	4136.575
2078.11255	4131.175
2081.11938	4128.675
2084.12426	4113.775
2087.12722	4121.975
2090.12824	4118.275
2093.12732	4109.375
2096.12447	4122.975
2099.11969	4115.675
2102.11299	4110.575
2105.10435	4111.175
2108.09379	4116.375
2111.08131	4119.075
2114.0669	4123.375
2117.05057	4118.275
2120.03233	4129.675
2123.01216	4109.075
2125.99008	4116.875
2128.96609	4124.175
2131.94018	4115.375
2134.91236	4119.375
2137.88263	4111.375
2140.851	4123.975
2143.81746	4120.975
2146.78201	4114.975
2149.74466	4120.075
2152.7054	4117.575
2155.66425	4096.675
2158.6212	4097.775
2161.57625	4102.375
2164.52941	4091.875
2167.48067	4086.975
2170.43004	4075.875
2173.37752	4068.475
2176.32311	4071.975
2179.26681	4072.975
2182.20863	4068.175
2185.14856	4086.275
2188.08661	4066.475
2191.02278	4059.375
2193.95707	4062.975
2196.88948	4049.875
2199.82001	4049.175
2202.74867	4034.275
2205.67545	4029.375
2208.60037	4031.075
2211.52341	4018.975
2214.44458	4013.775
2217.36388	4023.575
2220.28132	4005.275
2223.1969	3974.975
2226.11061	3970.875
2229.02246	3957.775
2231.93245	3954.375
2234.84058	3942.775
2237.74686	3939.375
2240.65128	3932.775
2243.55385	3925.875
2246.45456	3912.575
2249.35343	3923.575
2252.25044	3906.075
2255.14561	3912.775
2258.03893	3915.475
2260.93041	3910.475
2263.82004	3896.775
2266.70783	3883.475
2269.59378	3865.575
2272.4779	3865.075
2275.36017	3846.175
2278.24061	3845.375
2281.11922	3815.575
2283.996	3826.975
2286.87094	3808.775
2289.74405	3804.375
2292.61534	3783.275
2295.4848	3777.875
2298.35243	3781.875
2301.21824	3770.375
2304.08223	3776.075
2306.94439	3762.375
2309.80474	3763.175
2312.66327	3768.775
2315.51999	3752.675
2318.37489	3765.075
2321.22797	3740.475
2324.07925	3738.175
2326.92871	3732.575
2329.77637	3744.875
2332.62222	3717.875
2335.46626	3722.075
2338.3085	3714.575
2341.14893	3706.875
2343.98756	3722.075
2346.8244	3710.975
2349.65943	3727.875
2352.49267	3731.875
2355.32411	3716.075
2358.15376	3725.375
2360.98161	3728.275
2363.80768	3737.075
2366.63195	3741.375
2369.45444	3742.175
2372.27514	3744.075
2375.09405	3740.175
2377.91118	3714.375
2380.72652	3703.075
2383.54009	3699.475
2386.35187	3671.575
2389.16188	3652.775
2391.97011	3647.075
2394.77657	3625.775
2397.58125	3613.575
2400.38416	3620.675
2403.18529	3597.475
2405.98466	3581.675
2408.78226	3577.775
2411.57809	3579.675
2414.37216	3576.375
2417.16446	3570.675
2419.955	3562.275
2422.74378	3562.875
2425.5308	3557.275
2428.31606	3573.475
2431.09956	3549.875
2433.88131	3552.175
2436.6613	3562.875
2439.43954	3538.675
2442.21603	3536.475
2444.99077	3538.975
2447.76377	3541.475
2450.53501	3553.275
2453.30451	3549.975
2456.07226	3553.875
2458.83827	3547.675
2461.60254	3551.775
2464.36507	3543.075
2467.12586	3544.675
2469.88492	3542.075
2472.64224	3544.675
2475.39782	3532.975
2478.15167	3537.575
2480.90379	3532.175
2483.65417	3549.875
2486.40283	3547.975
2489.14976	3571.275
2491.89497	3558.575
2494.63845	3568.075
2497.3802	3569.175
2500.12024	3553.875
2502.85855	3551.275
2505.59514	3556.475
2508.33002	3540.575
2511.06318	3526.375
2513.79462	3502.675
2516.52435	3500.075
2519.25237	3477.075
2521.97867	3462.275
2524.70327	3449.875
2527.42616	3448.675
2530.14734	3452.075
2532.86681	3432.875
2535.58458	3434.175
2538.30065	3439.675
2541.01501	3415.175
2543.72768	3419.075
2546.43864	3417.375
2549.14791	3414.575
2551.85548	3405.375
2554.56136	3408.675
2557.26554	3402.775
2559.96803	3394.175
2562.66883	3395.875
2565.36794	3399.475
2568.06536	3386.775
2570.7611	3400.275
2573.45514	3372.175
2576.14751	3366.875
2578.83819	3363.275
2581.52719	3361.475
2584.21451	3355.375
2586.90015	3359.175
2589.58411	3343.775
2592.2664	3348.675
2594.94701	3351.875
2597.62594	3353.475
2600.30321	3337.075
2602.9788	3326.675
2605.65273	3331.275
2608.32498	3337.975
2610.99557	3330.275
2613.66449	3321.475
2616.33175	3332.275
2618.99734	3315.975
2621.66128	3323.375
2624.32355	3318.375
2626.98416	3322.175
2629.64311	3310.775
2632.30041	3306.675
2634.95605	3281.575
2637.61004	3291.375
2640.26238	3273.875
2642.91306	3276.775
2645.56209	3281.475
2648.20948	3274.475
2650.85521	3269.175
2653.4993	3282.775
2656.14175	3277.075
2658.78255	3285.975
2661.42171	3279.775
2664.05923	3288.375
2666.6951	3292.675
2669.32934	3301.475
2671.96194	3301.875
2674.59291	3298.075
2677.22224	3294.475
2679.84993	3295.175
2682.476	3297.475
2685.10043	3294.775
2687.72324	3293.575
2690.34441	3298.175
2692.96396	3306.975
2695.58188	3306.775
2698.19818	3298.175
2700.81285	3292.575
2703.4259	3311.275
2706.03733	3354.275
2708.64714	3334.475
2711.25533	3336.575
2713.86191	3311.875
2716.46687	3331.675
2719.07021	3337.775
2721.67194	3335.575
2724.27206	3319.375
2726.87057	3318.075
2729.46747	3331.675
2732.06276	3322.575
2734.65644	3310.475
2737.24852	3310.975
2739.83899	3315.475
2742.42786	3293.275
2745.01513	3288.575
2747.60079	3276.375
2750.18486	3262.175
2752.76733	3282.375
2755.3482	3276.175
2757.92747	3267.875
2760.50515	3258.575
2763.08123	3264.175
2765.65573	3253.375
2768.22863	3242.475
2770.79994	3244.075
2773.36967	3234.975
2775.9378	3234.275
2778.50435	3240.875
2781.06932	3244.075
2783.6327	3240.575
2786.1945	3238.675
2788.75471	3235.575
2791.31335	3231.675
2793.87041	3241.775
2796.42589	3239.775
2798.97979	3234.975
2801.53212	3236.575
2804.08288	3241.075
2806.63206	3227.975
2809.17967	3234.875
2811.72571	3236.875
2814.27018	3244.675
2816.81308	3242.575
2819.35442	3239.175
2821.89419	3251.375
2824.43239	3258.075
2826.96904	3262.775
2829.50412	3267.975
2832.03763	3265.075
2834.56959	3286.075
2837.1	3303.475
2839.62884	3320.875
2842.15613	3362.575
2844.68186	3436.875
2847.20604	3530.875
2849.72867	3604.775
2852.24974	3627.375
2854.76927	3632.575
2857.28724	3644.875
2859.80367	3600.075
2862.31855	3571.475
2864.83189	3550.375
2867.34368	3548.475
2869.85393	3537.375
2872.36264	3527.475
2874.8698	3547.375
2877.37543	3532.375
2879.87952	3533.575
2882.38207	3521.975
2884.88308	3518.975
2887.38256	3504.475
2889.88051	3517.075
2892.37692	3529.975
2894.8718	3521.875
2897.36515	3523.775
2899.85698	3536.775
2902.34727	3529.575
2904.83604	3536.375
2907.32328	3550.075
2909.809	3545.775
2912.29319	3536.475
2914.77587	3530.075
2917.25702	3524.975
2919.73665	3521.975
2922.21476	3506.475
2924.69136	3504.775
2927.16644	3509.275
2929.64	3498.875
2932.11205	3502.475
2934.58258	3472.375
2937.05161	3462.975
2939.51912	3453.075
2941.98513	3410.275
2944.44962	3363.875
2946.91261	3303.275
2949.37409	3283.275
2951.83407	3248.275
2954.29254	3236.375
2956.74951	3199.875
2959.20498	3208.475
2961.65895	3185.075
2964.11142	3164.175
2966.56239	3158.875
2969.01186	3146.775
2971.45984	3132.775
2973.90632	3103.875
2976.35131	3090.375
2978.7948	3082.875
2981.23681	3057.775
2983.67732	3058.575
2986.11635	3054.175
2988.55388	3031.175
2990.98993	3024.375
2993.4245	3017.375
2995.85758	3027.775
2998.28917	2984.775
3000.71928	2994.775
3003.14791	3000.075
3005.57506	2988.375
3008.00073	2974.775
3010.42493	2972.275
3012.84764	2969.875
3015.26888	2966.175
3017.68865	2958.075
3020.10694	2960.675
3022.52376	2950.875
3024.9391	2949.775
3027.35298	2936.275
3029.76539	2942.775
3032.17632	2948.375
3034.5858	2931.675
3036.9938	2934.875
3039.40034	2934.775
3041.80542	2927.175
3044.20903	2912.075
3046.61118	2909.275
3049.01187	2912.675
3051.4111	2896.775
3053.80888	2905.175
3056.20519	2909.575
3058.60005	2902.375
3060.99345	2905.275
3063.3854	2903.975
3065.7759	2895.475
3068.16494	2885.775
3070.55254	2887.775
3072.93868	2883.175
3075.32338	2862.775
3077.70662	2859.675
3080.08842	2844.475
3082.46878	2838.775
3084.84769	2833.975
3087.22515	2833.875
3089.60118	2819.675
3091.97576	2832.475
3094.3489	2819.075
3096.72061	2817.875
3099.09087	2828.175
3101.4597	2811.675
3103.82709	2826.075
3106.19305	2806.975
3108.55757	2814.875
3110.92066	2799.175
3113.28232	2787.475
3115.64255	2775.875
3118.00134	2784.275
3120.35871	2782.375
3122.71466	2772.775
3125.06917	2782.375
3127.42226	2782.675
3129.77393	2794.075
3132.12417	2795.675
3134.47299	2796.075
3136.82039	2805.475
3139.16636	2803.375
3141.51092	2804.075
3143.85406	2807.075
3146.19579	2813.075
3148.53609	2824.275
3150.87499	2825.575
3153.21246	2832.475
3155.54853	2837.375
3157.88318	2829.775
3160.21642	2842.375
3162.54826	2848.975
3164.87868	2843.275
3167.2077	2859.175
3169.5353	2848.575
3171.86151	2868.475
3174.18631	2851.075
3176.5097	2856.375
3178.83169	2865.875
3181.15228	2861.675
3183.47147	2866.075
3185.78926	2868.775
3188.10565	2856.775
3190.42065	2864.275
3192.73424	2868.475
3195.04645	2871.475
3197.35725	2871.975
3199.66667	2879.675
3201.97469	2883.375
3204.28132	2877.975
3206.58656	2890.275
3208.8904	2892.175
3211.19287	2891.475
3213.49394	2905.675
3215.79363	2901.075
3218.09193	2909.175
3220.38884	2905.575
3222.68438	2921.775
