Data from AgNPs_FTO_APTES_UA_2uM_CRN_100uM_R6G_10uM_NaF_0.1M_Addition_RamanShift__8__15-47-25-311.txt Node

Date: Wed Feb 02 15:47:25 GMT 2022
User: TCL
Spectrometer: QEP01345
Trigger mode: 4
Integration Time (sec): 7.000000E0
Scans to average: 10
Electric dark correction enabled: true
Nonlinearity correction enabled: false
Boxcar width: 0
XAxis mode: Raman Shifts
Number of Pixels in Spectrum: 1044
>>>>>Begin Spectral Data<<<<<
46.04893	1.4875
50.45542	-0.2125
54.85868	-0.6125
59.25871	0.3875
63.6555	71.1875
68.04907	74.6875
72.43941	79.4875
76.82654	84.5875
81.21044	91.3875
85.59113	93.4875
89.96862	97.9875
94.34289	98.4875
98.71396	104.8875
103.08183	109.8875
107.4465	108.7875
111.80798	112.9875
116.16626	111.1875
120.52136	121.5875
124.87327	122.1875
129.222	128.6875
133.56755	137.5875
137.90993	145.8875
142.24913	159.8875
146.58517	178.2875
150.91804	204.4875
155.24774	243.8875
159.57429	299.3875
163.89768	380.8875
168.21792	497.8875
172.53501	680.7875
176.84895	953.4875
181.15975	1332.7875
185.46741	1862.8875
189.77193	2572.1875
194.07331	3432.5875
198.37157	4407.7875
202.6667	5462.0875
206.9587	6481.5875
211.24758	7517.4875
215.53334	8529.6875
219.81599	9600.2875
224.09553	10769.1875
228.37195	12091.3875
232.64527	13454.2875
236.91549	14896.0875
241.18261	16347.5875
245.44663	17738.8875
249.70755	19012.5875
253.96539	20083.0875
258.22014	21005.6875
262.4718	21739.7875
266.72039	22279.1875
270.96589	22526.7875
275.20832	22620.2875
279.44768	22646.5875
283.68397	22583.0875
287.91719	22515.6875
292.14735	22553.7875
296.37445	22651.6875
300.59849	22874.9875
304.81948	22986.3875
309.03742	22909.9875
313.25231	22588.7875
317.46415	22035.5875
321.67296	21258.1875
325.87872	20633.5875
330.08145	20245.7875
334.28114	20149.6875
338.47781	20172.4875
342.67145	20343.3875
346.86207	20551.3875
351.04966	20775.2875
355.23424	20954.8875
359.4158	21178.7875
363.59435	21291.7875
367.76989	21330.0875
371.94243	21405.5875
376.11196	21387.2875
380.27849	21387.2875
384.44203	21500.6875
388.60257	21666.9875
392.76012	21954.2875
396.91468	22351.7875
401.06626	22785.0875
405.21485	22986.1875
409.36047	22902.0875
413.50311	22629.6875
417.64277	22464.7875
421.77947	22517.3875
425.9132	22637.4875
430.04396	22724.5875
434.17176	22844.3875
438.2966	22902.7875
442.41849	23186.3875
446.53742	23740.8875
450.6534	24354.9875
454.76644	24864.7875
458.87653	25080.0875
462.98368	25167.8875
467.08789	25079.4875
471.18916	24970.2875
475.2875	24898.7875
479.38291	25028.4875
483.4754	25006.7875
487.56496	24615.8875
491.6516	23974.6875
495.73531	23266.8875
499.81612	22835.6875
503.89401	22820.6875
507.96899	22852.3875
512.04106	22826.8875
516.11023	22622.9875
520.1765	22255.6875
524.23987	21816.9875
528.30034	21561.1875
532.35792	21244.5875
536.41261	21018.6875
540.46441	20866.9875
544.51333	20996.3875
548.55936	21374.1875
552.60252	22001.2875
556.64279	22715.7875
560.6802	23253.6875
564.71473	23748.1875
568.7464	24469.8875
572.7752	25711.4875
576.80114	26999.0875
580.82422	28042.2875
584.84444	28754.2875
588.86181	29446.9875
592.87633	29838.2875
596.888	29169.5875
600.89682	27782.5875
604.9028	27072.4875
608.90594	27741.4875
612.90624	28445.6875
616.90371	26375.2875
620.89834	22663.9875
624.89015	21071.2875
628.87913	21053.2875
632.86528	21328.6875
636.84862	21396.2875
640.82913	21047.9875
644.80683	20514.6875
648.78172	20107.4875
652.75379	19963.2875
656.72306	20073.3875
660.68952	20308.2875
664.65319	20210.2875
668.61405	19972.0875
672.57211	19944.2875
676.52738	19992.4875
680.47986	20007.0875
684.42955	19903.7875
688.37646	19842.6875
692.32058	19897.1875
696.26192	20093.7875
700.20048	20368.8875
704.13626	20612.3875
708.06928	20793.4875
711.99952	20770.6875
715.927	20705.7875
719.85171	20621.4875
723.77365	20452.4875
727.69284	20108.7875
731.60928	19781.4875
735.52295	19617.2875
739.43388	19551.7875
743.34206	19586.8875
747.24749	19731.1875
751.15017	20060.0875
755.05012	20569.8875
758.94733	21342.5875
762.8418	22527.4875
766.73354	24212.1875
770.62254	25540.4875
774.50882	25342.6875
778.39237	23904.7875
782.27321	22210.6875
786.15132	20869.5875
790.02671	20024.5875
793.89938	19559.7875
797.76935	19339.5875
801.6366	19272.3875
805.50115	19247.5875
809.36299	19160.0875
813.22213	19036.0875
817.07857	19049.0875
820.93231	18984.3875
824.78336	18847.3875
828.63172	18663.2875
832.47738	18545.4875
836.32036	18466.7875
840.16066	18451.2875
843.99827	18450.9875
847.8332	18380.1875
851.66546	18406.3875
855.49504	18397.3875
859.32195	18388.0875
863.1462	18323.9875
866.96777	18250.2875
870.78668	18219.2875
874.60293	18169.2875
878.41652	18172.3875
882.22745	18210.3875
886.03573	18236.7875
889.84136	18281.2875
893.64433	18214.2875
897.44466	18174.3875
901.24235	18144.4875
905.0374	18119.1875
908.8298	18133.3875
912.61957	18231.7875
916.40671	18579.2875
920.19121	18976.7875
923.97308	19172.0875
927.75233	18966.8875
931.52895	18633.1875
935.30295	18183.8875
939.07433	17748.7875
942.84309	17398.4875
946.60924	17189.8875
950.37278	17134.0875
954.13371	17143.4875
957.89203	17188.8875
961.64774	17219.4875
965.40086	17251.7875
969.15137	17165.1875
972.89929	16969.9875
976.64461	16825.5875
980.38733	16738.4875
984.12747	16693.3875
987.86502	16753.9875
991.59999	16803.3875
995.33237	16925.0875
999.06217	17114.2875
1002.78939	17401.4875
1006.51404	17678.0875
1010.23611	17944.0875
1013.95561	18183.7875
1017.67255	18257.2875
1021.38692	18150.0875
1025.09872	17884.4875
1028.80796	17647.0875
1032.51465	17552.6875
1036.21877	17616.0875
1039.92035	17747.8875
1043.61937	17908.1875
1047.31584	17988.0875
1051.00976	18084.0875
1054.70114	18254.4875
1058.38998	18531.2875
1062.07627	18846.4875
1065.76003	19202.1875
1069.44126	19596.4875
1073.11995	20005.9875
1076.79611	20216.2875
1080.46974	20211.9875
1084.14085	20253.8875
1087.80943	20391.9875
1091.47549	20615.4875
1095.13903	20757.7875
1098.80005	20560.0875
1102.45857	19870.4875
1106.11456	19255.8875
1109.76805	18875.8875
1113.41903	18775.0875
1117.06751	18877.5875
1120.71348	19125.6875
1124.35696	19381.5875
1127.99793	19730.0875
1131.63641	19980.5875
1135.2724	19963.0875
1138.90589	19975.7875
1142.5369	20114.9875
1146.16542	20503.1875
1149.79145	20943.8875
1153.415	21374.8875
1157.03607	21881.1875
1160.65467	22687.3875
1164.27079	23926.6875
1167.88443	25436.8875
1171.49561	27028.5875
1175.10432	28882.4875
1178.71056	31026.8875
1182.31434	32972.8875
1185.91565	33923.1875
1189.51451	33919.3875
1193.11091	33386.3875
1196.70485	32369.8875
1200.29634	31161.9875
1203.88538	30299.6875
1207.47197	30162.9875
1211.05612	30152.5875
1214.63782	29633.3875
1218.21708	28454.9875
1221.79391	27015.9875
1225.36829	25901.4875
1228.94024	25205.4875
1232.50976	24734.8875
1236.07685	24499.6875
1239.6415	24352.8875
1243.20374	24407.9875
1246.76355	24644.0875
1250.32093	25030.8875
1253.8759	25560.0875
1257.42845	26347.8875
1260.97859	27219.9875
1264.52631	28029.8875
1268.07163	28847.0875
1271.61453	29703.6875
1275.15503	30718.9875
1278.69312	31942.8875
1282.22882	33311.5875
1285.76211	34956.0875
1289.29301	36851.1875
1292.82151	39160.7875
1296.34761	41910.4875
1299.87133	44740.8875
1303.39266	47144.6875
1306.9116	48738.8875
1310.42815	49635.8875
1313.94233	49914.3875
1317.45412	49711.5875
1320.96354	49567.3875
1324.47058	49817.1875
1327.97525	50175.5875
1331.47754	50384.3875
1334.97747	50248.2875
1338.47502	49742.4875
1341.97022	49076.7875
1345.46305	48211.1875
1348.95352	47132.7875
1352.44163	46088.1875
1355.92738	45447.5875
1359.41078	45608.3875
1362.89183	46022.5875
1366.37053	45271.8875
1369.84688	42523.4875
1373.32088	38790.4875
1376.79254	36062.7875
1380.26186	35326.8875
1383.72883	35767.8875
1387.19347	36288.7875
1390.65578	36411.9875
1394.11575	36483.6875
1397.57339	36833.1875
1401.0287	37254.5875
1404.48168	37425.2875
1407.93234	36800.4875
1411.38068	35368.8875
1414.82669	33377.3875
1418.27039	31309.5875
1421.71177	29452.9875
1425.15083	28139.0875
1428.58758	27465.6875
1432.02203	27726.6875
1435.45416	28612.3875
1438.88399	29741.3875
1442.31151	30637.3875
1445.73673	31363.7875
1449.15965	32035.9875
1452.58027	32603.6875
1455.9986	32933.3875
1459.41463	33261.8875
1462.82837	33592.8875
1466.23982	34023.5875
1469.64898	34374.0875
1473.05586	34485.5875
1476.46045	34293.7875
1479.86276	33804.6875
1483.26279	33376.1875
1486.66054	33148.4875
1490.05602	33272.8875
1493.44922	33735.9875
1496.84016	34399.9875
1500.22882	35311.6875
1503.61521	36521.2875
1506.99934	37695.0875
1510.38121	38597.9875
1513.76081	38884.5875
1517.13816	38530.1875
1520.51324	37967.6875
1523.88607	37756.7875
1527.25665	37957.9875
1530.62498	38075.1875
1533.99105	37902.8875
1537.35488	37044.5875
1540.71647	35824.1875
1544.07581	34274.4875
1547.4329	32781.0875
1550.78776	31591.2875
1554.14038	30815.8875
1557.49077	30449.7875
1560.83892	30224.4875
1564.18484	30224.4875
1567.52853	30388.4875
1570.86999	30826.5875
1574.20922	31734.9875
1577.54624	32739.5875
1580.88103	33468.9875
1584.2136	34204.4875
1587.54395	35235.1875
1590.87208	36599.2875
1594.19801	38176.3875
1597.52172	39358.6875
1600.84321	39123.7875
1604.16251	36950.1875
1607.47959	33735.5875
1610.79447	30616.3875
1614.10715	27792.8875
1617.41763	25454.8875
1620.7259	23892.3875
1624.03199	23023.4875
1627.33587	23016.4875
1630.63757	23882.8875
1633.93707	25813.4875
1637.23439	28987.2875
1640.52951	33547.9875
1643.82246	38812.2875
1647.11321	43119.9875
1650.40179	44034.9875
1653.68819	40971.4875
1656.97241	35291.1875
1660.25446	29371.0875
1663.53433	24710.6875
1666.81203	21476.1875
1670.08756	19437.2875
1673.36092	18139.7875
1676.63211	17277.6875
1679.90115	16746.8875
1683.16801	16337.1875
1686.43272	16029.2875
1689.69527	15804.6875
1692.95567	15624.7875
1696.2139	15492.9875
1699.46999	15398.2875
1702.72392	15284.8875
1705.97571	15159.9875
1709.22535	15087.7875
1712.47284	14992.0875
1715.71819	14956.6875
1718.96139	14841.9875
1722.20246	14777.2875
1725.44139	14704.8875
1728.67818	14605.9875
1731.91284	14471.4875
1735.14537	14396.0875
1738.37576	14336.0875
1741.60403	14232.9875
1744.83017	14203.0875
1748.05418	14140.1875
1751.27607	14134.3875
1754.49584	14126.4875
1757.71349	14082.1875
1760.92903	14071.9875
1764.14244	14076.7875
1767.35375	14021.8875
1770.56294	13967.6875
1773.77002	13875.3875
1776.97499	13852.5875
1780.17785	13786.2875
1783.37861	13733.5875
1786.57727	13719.6875
1789.77382	13669.6875
1792.96828	13613.5875
1796.16064	13569.0875
1799.3509	13512.3875
1802.53907	13485.8875
1805.72514	13447.5875
1808.90913	13409.3875
1812.09102	13369.4875
1815.27083	13362.8875
1818.44856	13323.8875
1821.6242	13275.4875
1824.79776	13268.8875
1827.96924	13264.2875
1831.13864	13247.9875
1834.30597	13236.5875
1837.47122	13233.8875
1840.6344	13235.5875
1843.7955	13237.4875
1846.95454	13226.4875
1850.11151	13201.9875
1853.26642	13196.6875
1856.41926	13188.8875
1859.57004	13158.5875
1862.71876	13119.1875
1865.86542	13104.9875
1869.01003	13060.7875
1872.15258	13049.2875
1875.29308	13027.2875
1878.43152	12965.6875
1881.56792	12969.7875
1884.70227	12923.1875
1887.83457	12920.5875
1890.96482	12916.1875
1894.09304	12899.8875
1897.21921	12855.7875
1900.34335	12812.3875
1903.46544	12813.9875
1906.58551	12770.2875
1909.70353	12727.7875
1912.81953	12721.1875
1915.93349	12706.9875
1919.04543	12630.2875
1922.15534	12610.6875
1925.26322	12564.2875
1928.36908	12553.1875
1931.47292	12510.5875
1934.57473	12458.6875
1937.67453	12447.1875
1940.77232	12386.7875
1943.86808	12369.5875
1946.96184	12335.6875
1950.05358	12283.2875
1953.14331	12269.6875
1956.23103	12236.2875
1959.31675	12171.5875
1962.40046	12140.0875
1965.48217	12079.3875
1968.56188	12027.0875
1971.63959	12005.4875
1974.7153	11941.3875
1977.78901	11915.6875
1980.86073	11860.4875
1983.93046	11833.1875
1986.99819	11774.9875
1990.06394	11733.7875
1993.1277	11721.6875
1996.18947	11644.5875
1999.24925	11625.9875
2002.30706	11565.4875
2005.36288	11547.5875
2008.41672	11504.5875
2011.46859	11456.7875
2014.51848	11410.3875
2017.56639	11382.6875
2020.61233	11346.7875
2023.6563	11339.7875
2026.6983	11313.8875
2029.73833	11261.7875
2032.7764	11226.3875
2035.8125	11224.9875
2038.84664	11206.8875
2041.87881	11178.2875
2044.90903	11138.6875
2047.93729	11116.9875
2050.96359	11128.9875
2053.98794	11085.0875
2057.01034	11089.8875
2060.03078	11058.1875
2063.04927	11055.1875
2066.06582	11038.0875
2069.08042	11027.1875
2072.09307	10999.7875
2075.10378	10997.0875
2078.11255	11001.6875
2081.11938	10949.6875
2084.12426	10947.1875
2087.12722	10951.7875
2090.12824	10968.6875
2093.12732	10939.6875
2096.12447	10945.8875
2099.11969	10918.7875
2102.11299	10957.8875
2105.10435	10972.2875
2108.09379	10955.0875
2111.08131	10944.9875
2114.0669	10936.9875
2117.05057	10955.1875
2120.03233	10947.4875
2123.01216	10953.3875
2125.99008	10958.8875
2128.96609	10949.3875
2131.94018	10946.3875
2134.91236	10922.1875
2137.88263	10928.0875
2140.851	10928.0875
2143.81746	10928.6875
2146.78201	10935.5875
2149.74466	10926.4875
2152.7054	10906.1875
2155.66425	10898.5875
2158.6212	10906.2875
2161.57625	10868.5875
2164.52941	10864.2875
2167.48067	10878.3875
2170.43004	10840.4875
2173.37752	10835.9875
2176.32311	10818.0875
2179.26681	10838.6875
2182.20863	10816.3875
2185.14856	10798.3875
2188.08661	10807.5875
2191.02278	10802.7875
2193.95707	10805.3875
2196.88948	10765.4875
2199.82001	10742.0875
2202.74867	10762.1875
2205.67545	10717.8875
2208.60037	10694.3875
2211.52341	10674.3875
2214.44458	10653.1875
2217.36388	10659.3875
2220.28132	10638.1875
2223.1969	10617.1875
2226.11061	10569.2875
2229.02246	10534.4875
2231.93245	10535.5875
2234.84058	10517.2875
2237.74686	10500.5875
2240.65128	10482.8875
2243.55385	10483.2875
2246.45456	10424.8875
2249.35343	10402.9875
2252.25044	10381.7875
2255.14561	10361.3875
2258.03893	10354.5875
2260.93041	10315.8875
2263.82004	10267.8875
2266.70783	10238.5875
2269.59378	10205.0875
2272.4779	10169.8875
2275.36017	10137.6875
2278.24061	10130.9875
2281.11922	10101.3875
2283.996	10083.2875
2286.87094	10039.4875
2289.74405	10042.5875
2292.61534	10020.4875
2295.4848	10002.6875
2298.35243	9998.2875
2301.21824	9973.4875
2304.08223	9971.1875
2306.94439	9995.8875
2309.80474	9950.3875
2312.66327	9937.6875
2315.51999	9906.5875
2318.37489	9921.3875
2321.22797	9908.2875
2324.07925	9898.4875
2326.92871	9881.8875
2329.77637	9886.0875
2332.62222	9845.0875
2335.46626	9832.7875
2338.3085	9825.9875
2341.14893	9803.7875
2343.98756	9825.9875
2346.8244	9811.2875
2349.65943	9836.8875
2352.49267	9802.7875
2355.32411	9800.2875
2358.15376	9806.2875
2360.98161	9810.2875
2363.80768	9774.1875
2366.63195	9750.9875
2369.45444	9763.0875
2372.27514	9764.1875
2375.09405	9755.8875
2377.91118	9725.4875
2380.72652	9676.1875
2383.54009	9690.9875
2386.35187	9662.5875
2389.16188	9607.6875
2391.97011	9608.6875
2394.77657	9576.1875
2397.58125	9566.3875
2400.38416	9531.9875
2403.18529	9522.5875
2405.98466	9509.5875
2408.78226	9488.0875
2411.57809	9494.5875
2414.37216	9489.4875
2417.16446	9459.3875
2419.955	9466.2875
2422.74378	9468.9875
2425.5308	9460.6875
2428.31606	9439.7875
2431.09956	9419.9875
2433.88131	9413.6875
2436.6613	9426.2875
2439.43954	9411.9875
2442.21603	9402.2875
2444.99077	9386.3875
2447.76377	9390.8875
2450.53501	9383.9875
2453.30451	9376.1875
2456.07226	9371.5875
2458.83827	9362.2875
2461.60254	9349.7875
2464.36507	9373.6875
2467.12586	9336.8875
2469.88492	9331.7875
2472.64224	9342.1875
2475.39782	9317.2875
2478.15167	9326.8875
2480.90379	9319.4875
2483.65417	9327.5875
2486.40283	9330.6875
2489.14976	9344.9875
2491.89497	9324.2875
2494.63845	9322.5875
2497.3802	9308.7875
2500.12024	9289.7875
2502.85855	9292.7875
2505.59514	9303.3875
2508.33002	9303.3875
2511.06318	9283.8875
2513.79462	9276.4875
2516.52435	9270.4875
2519.25237	9286.5875
2521.97867	9256.8875
2524.70327	9238.7875
2527.42616	9233.6875
2530.14734	9230.4875
2532.86681	9200.5875
2535.58458	9183.5875
2538.30065	9191.8875
2541.01501	9171.2875
2543.72768	9149.9875
2546.43864	9125.0875
2549.14791	9137.3875
2551.85548	9121.7875
2554.56136	9132.5875
2557.26554	9121.7875
2559.96803	9086.0875
2562.66883	9088.1875
2565.36794	9096.1875
2568.06536	9098.6875
2570.7611	9083.8875
2573.45514	9061.6875
2576.14751	9058.5875
2578.83819	9044.3875
2581.52719	9023.6875
2584.21451	9016.7875
2586.90015	9040.2875
2589.58411	9028.3875
2592.2664	9011.3875
2594.94701	9002.4875
2597.62594	8993.6875
2600.30321	8971.9875
2602.9788	8976.2875
2605.65273	8954.8875
2608.32498	8997.3875
2610.99557	8970.0875
2613.66449	8967.8875
2616.33175	9000.8875
2618.99734	8960.7875
2621.66128	8949.5875
2624.32355	8936.2875
2626.98416	8950.4875
2629.64311	8942.6875
2632.30041	8929.6875
2634.95605	8927.5875
2637.61004	8923.1875
2640.26238	8900.0875
2642.91306	8913.4875
2645.56209	8905.6875
2648.20948	8919.5875
2650.85521	8915.3875
2653.4993	8899.0875
2656.14175	8913.0875
2658.78255	8909.4875
2661.42171	8910.4875
2664.05923	8948.0875
2666.6951	8930.4875
2669.32934	8922.7875
2671.96194	8938.7875
2674.59291	8932.5875
2677.22224	8907.0875
2679.84993	8926.2875
2682.476	8908.1875
2685.10043	8918.2875
2687.72324	8899.8875
2690.34441	8895.3875
2692.96396	8905.9875
2695.58188	8898.8875
2698.19818	8901.4875
2700.81285	8921.3875
2703.4259	8900.7875
2706.03733	8942.3875
2708.64714	8923.3875
2711.25533	8922.6875
2713.86191	8905.4875
2716.46687	8925.9875
2719.07021	8952.0875
2721.67194	8925.6875
2724.27206	8921.7875
2726.87057	8939.7875
2729.46747	8958.7875
2732.06276	8973.9875
2734.65644	8959.2875
2737.24852	8938.1875
2739.83899	8931.4875
2742.42786	8921.4875
2745.01513	8919.7875
2747.60079	8900.9875
2750.18486	8890.2875
2752.76733	8909.5875
2755.3482	8888.1875
2757.92747	8932.0875
2760.50515	8919.6875
2763.08123	8905.9875
2765.65573	8896.4875
2768.22863	8899.0875
2770.79994	8868.4875
2773.36967	8867.8875
2775.9378	8877.2875
2778.50435	8890.9875
2781.06932	8882.1875
2783.6327	8864.8875
2786.1945	8857.4875
2788.75471	8854.9875
2791.31335	8827.4875
2793.87041	8843.7875
2796.42589	8817.7875
2798.97979	8818.8875
2801.53212	8803.0875
2804.08288	8787.2875
2806.63206	8775.4875
2809.17967	8758.0875
2811.72571	8746.9875
2814.27018	8736.7875
2816.81308	8703.6875
2819.35442	8705.6875
2821.89419	8677.7875
2824.43239	8670.6875
2826.96904	8653.3875
2829.50412	8650.7875
2832.03763	8641.0875
2834.56959	8652.6875
2837.1	8657.5875
2839.62884	8650.6875
2842.15613	8652.5875
2844.68186	8682.6875
2847.20604	8708.5875
2849.72867	8731.2875
2852.24974	8726.9875
2854.76927	8706.3875
2857.28724	8732.1875
2859.80367	8712.9875
2862.31855	8678.2875
2864.83189	8669.6875
2867.34368	8659.8875
2869.85393	8662.1875
2872.36264	8643.9875
2874.8698	8657.9875
2877.37543	8632.3875
2879.87952	8615.6875
2882.38207	8634.0875
2884.88308	8634.1875
2887.38256	8605.0875
2889.88051	8622.9875
2892.37692	8618.9875
2894.8718	8614.0875
2897.36515	8623.3875
2899.85698	8614.7875
2902.34727	8643.3875
2904.83604	8625.0875
2907.32328	8653.9875
2909.809	8656.1875
2912.29319	8646.3875
2914.77587	8648.7875
2917.25702	8657.7875
2919.73665	8631.2875
2922.21476	8648.3875
2924.69136	8636.3875
2927.16644	8639.8875
2929.64	8633.7875
2932.11205	8644.2875
2934.58258	8612.3875
2937.05161	8630.0875
2939.51912	8618.2875
2941.98513	8603.1875
2944.44962	8540.2875
2946.91261	8509.5875
2949.37409	8499.8875
2951.83407	8469.3875
2954.29254	8468.3875
2956.74951	8432.7875
2959.20498	8431.4875
2961.65895	8413.8875
2964.11142	8387.7875
2966.56239	8370.3875
2969.01186	8368.3875
2971.45984	8325.3875
2973.90632	8341.1875
2976.35131	8287.0875
2978.7948	8269.4875
2981.23681	8225.2875
2983.67732	8200.9875
2986.11635	8202.1875
2988.55388	8173.6875
2990.98993	8145.3875
2993.4245	8116.3875
2995.85758	8096.3875
2998.28917	8088.3875
3000.71928	8052.1875
3003.14791	8040.3875
3005.57506	8041.2875
3008.00073	7995.0875
3010.42493	7973.7875
3012.84764	7993.8875
3015.26888	7951.1875
3017.68865	7946.4875
3020.10694	7901.6875
3022.52376	7910.8875
3024.9391	7884.2875
3027.35298	7852.4875
3029.76539	7853.8875
3032.17632	7850.1875
3034.5858	7844.4875
3036.9938	7842.6875
3039.40034	7833.2875
3041.80542	7828.9875
3044.20903	7811.3875
3046.61118	7806.5875
3049.01187	7771.4875
3051.4111	7769.7875
3053.80888	7731.0875
3056.20519	7718.5875
