Data from AgNPs_FTO_APTES_UA_2uM_CRN_200uM_R6G_10uM_NaF_0.1M_Addition_RamanShift__0__16-18-55-347.txt Node

Date: Wed Feb 02 16:18:55 GMT 2022
User: TCL
Spectrometer: QEP01345
Trigger mode: 4
Integration Time (sec): 7.000000E0
Scans to average: 10
Electric dark correction enabled: true
Nonlinearity correction enabled: false
Boxcar width: 0
XAxis mode: Raman Shifts
Number of Pixels in Spectrum: 1044
>>>>>Begin Spectral Data<<<<<
46.04893	0.725
50.45542	0.825
54.85868	-1.575
59.25871	-0.975
63.6555	66.325
68.04907	72.225
72.43941	71.325
76.82654	81.525
81.21044	82.325
85.59113	84.025
89.96862	88.225
94.34289	90.625
98.71396	95.125
103.08183	98.625
107.4465	102.225
111.80798	104.425
116.16626	102.125
120.52136	108.325
124.87327	114.725
129.222	117.925
133.56755	124.525
137.90993	131.425
142.24913	145.325
146.58517	165.425
150.91804	185.425
155.24774	217.925
159.57429	268.525
163.89768	343.425
168.21792	449.325
172.53501	613.425
176.84895	849.325
181.15975	1188.025
185.46741	1661.225
189.77193	2280.525
194.07331	3051.125
198.37157	3924.525
202.6667	4860.825
206.9587	5759.525
211.24758	6675.025
215.53334	7588.025
219.81599	8569.125
224.09553	9650.325
228.37195	10811.125
232.64527	12058.425
236.91549	13366.125
241.18261	14659.025
245.44663	15863.725
249.70755	16975.325
253.96539	17904.225
258.22014	18678.425
262.4718	19344.325
266.72039	19854.625
270.96589	20090.425
275.20832	20170.425
279.44768	20057.625
283.68397	19899.325
287.91719	19790.125
292.14735	19716.725
296.37445	19798.025
300.59849	19934.425
304.81948	20144.125
309.03742	20099.425
313.25231	19953.525
317.46415	19499.725
321.67296	18908.625
325.87872	18389.625
330.08145	18105.125
334.28114	17992.225
338.47781	18058.825
342.67145	18219.825
346.86207	18511.625
351.04966	18832.625
355.23424	19182.825
359.4158	19482.425
363.59435	19643.225
367.76989	19745.725
371.94243	19838.925
376.11196	19928.125
380.27849	19987.225
384.44203	20106.225
388.60257	20278.825
392.76012	20515.425
396.91468	20847.025
401.06626	21184.725
405.21485	21392.925
409.36047	21307.125
413.50311	20984.625
417.64277	20724.325
421.77947	20654.125
425.9132	20623.625
430.04396	20727.625
434.17176	20864.925
438.2966	21046.225
442.41849	21446.825
446.53742	22152.525
450.6534	22903.425
454.76644	23463.525
458.87653	23594.625
462.98368	23415.425
467.08789	23136.725
471.18916	22890.725
475.2875	22747.925
479.38291	22814.425
483.4754	22800.025
487.56496	22487.425
491.6516	21921.325
495.73531	21257.325
499.81612	20820.725
503.89401	20708.825
507.96899	20724.725
512.04106	20666.025
516.11023	20452.725
520.1765	20227.525
524.23987	19972.625
528.30034	19822.725
532.35792	19605.325
536.41261	19397.125
540.46441	19171.625
544.51333	19183.125
548.55936	19478.825
552.60252	19990.425
556.64279	20697.525
560.6802	21293.525
564.71473	21696.025
568.7464	22280.925
572.7752	23107.825
576.80114	23798.325
580.82422	24274.025
584.84444	24958.625
588.86181	25968.425
592.87633	26772.125
596.888	26533.925
600.89682	25182.425
604.9028	24674.125
608.90594	26090.425
612.90624	27852.625
616.90371	26195.825
620.89834	21748.825
624.89015	19708.525
628.87913	19411.325
632.86528	19562.725
636.84862	19550.525
640.82913	19237.725
644.80683	18778.125
648.78172	18438.225
652.75379	18396.425
656.72306	18619.425
660.68952	18873.125
664.65319	18776.725
668.61405	18357.825
672.57211	18285.025
676.52738	18353.325
680.47986	18375.325
684.42955	18299.525
688.37646	18216.725
692.32058	18254.425
696.26192	18499.925
700.20048	18797.925
704.13626	19024.125
708.06928	19067.525
711.99952	19076.425
715.927	19079.725
719.85171	19145.825
723.77365	19024.725
727.69284	18769.725
731.60928	18517.525
735.52295	18411.425
739.43388	18397.725
743.34206	18444.825
747.24749	18585.925
751.15017	18782.725
755.05012	19226.325
758.94733	19894.025
762.8418	20964.425
766.73354	22582.925
770.62254	24056.325
774.50882	24326.025
778.39237	23149.525
782.27321	21390.325
786.15132	19854.625
790.02671	18935.625
793.89938	18420.425
797.76935	18282.225
801.6366	18197.725
805.50115	18146.225
809.36299	18049.125
813.22213	17969.725
817.07857	17962.525
820.93231	17945.725
824.78336	17807.425
828.63172	17667.425
832.47738	17618.625
836.32036	17629.725
840.16066	17657.825
843.99827	17652.625
847.8332	17591.425
851.66546	17532.025
855.49504	17478.925
859.32195	17504.125
863.1462	17441.725
866.96777	17361.625
870.78668	17324.725
874.60293	17304.325
878.41652	17301.825
882.22745	17401.225
886.03573	17429.825
889.84136	17436.925
893.64433	17360.325
897.44466	17266.325
901.24235	17248.825
905.0374	17158.725
908.8298	17174.625
912.61957	17236.125
916.40671	17458.025
920.19121	17747.625
923.97308	17987.025
927.75233	17976.525
931.52895	17728.025
935.30295	17411.025
939.07433	17044.325
942.84309	16756.425
946.60924	16562.225
950.37278	16499.525
954.13371	16511.525
957.89203	16561.325
961.64774	16560.825
965.40086	16555.425
969.15137	16505.725
972.89929	16334.525
976.64461	16249.525
980.38733	16199.125
984.12747	16219.425
987.86502	16314.625
991.59999	16406.025
995.33237	16578.425
999.06217	16877.525
1002.78939	17235.925
1006.51404	17524.225
1010.23611	17765.525
1013.95561	18000.025
1017.67255	18037.325
1021.38692	17919.225
1025.09872	17545.425
1028.80796	17353.525
1032.51465	17373.925
1036.21877	17548.825
1039.92035	17655.725
1043.61937	17691.925
1047.31584	17688.825
1051.00976	17648.525
1054.70114	17647.425
1058.38998	17761.325
1062.07627	17958.625
1065.76003	18180.125
1069.44126	18421.425
1073.11995	18684.025
1076.79611	18831.425
1080.46974	18956.425
1084.14085	19091.425
1087.80943	19300.725
1091.47549	19555.625
1095.13903	19676.025
1098.80005	19478.125
1102.45857	18957.825
1106.11456	18513.625
1109.76805	18309.025
1113.41903	18324.825
1117.06751	18474.025
1120.71348	18786.825
1124.35696	19066.725
1127.99793	19430.925
1131.63641	19657.725
1135.2724	19463.625
1138.90589	19296.125
1142.5369	19370.425
1146.16542	19652.825
1149.79145	19990.225
1153.415	20337.525
1157.03607	20722.025
1160.65467	21476.625
1164.27079	22589.425
1167.88443	23917.825
1171.49561	25385.825
1175.10432	27288.625
1178.71056	29610.225
1182.31434	31615.625
1185.91565	32414.325
1189.51451	31870.225
1193.11091	30854.925
1196.70485	29761.125
1200.29634	28807.325
1203.88538	28129.325
1207.47197	27761.925
1211.05612	27534.725
1214.63782	27030.225
1218.21708	26140.725
1221.79391	25252.925
1225.36829	24617.525
1228.94024	24139.525
1232.50976	23720.125
1236.07685	23354.525
1239.6415	23133.225
1243.20374	23120.425
1246.76355	23338.425
1250.32093	23657.725
1253.8759	24142.025
1257.42845	24838.225
1260.97859	25545.225
1264.52631	26271.825
1268.07163	26928.125
1271.61453	27695.525
1275.15503	28511.325
1278.69312	29491.925
1282.22882	30631.525
1285.76211	32065.325
1289.29301	33857.625
1292.82151	36009.225
1296.34761	38548.725
1299.87133	41243.625
1303.39266	43728.525
1306.9116	45799.525
1310.42815	47530.325
1313.94233	48452.725
1317.45412	48358.025
1320.96354	47557.125
1324.47058	46726.625
1327.97525	46139.925
1331.47754	45531.625
1334.97747	44963.225
1338.47502	44247.625
1341.97022	43229.525
1345.46305	42110.125
1348.95352	41421.925
1352.44163	41358.025
1355.92738	42351.325
1359.41078	44290.025
1362.89183	45926.525
1366.37053	45174.925
1369.84688	41535.725
1373.32088	36763.625
1376.79254	33667.725
1380.26186	32874.825
1383.72883	33247.125
1387.19347	33666.625
1390.65578	33634.225
1394.11575	33757.425
1397.57339	34364.925
1401.0287	35098.825
1404.48168	35515.825
1407.93234	35146.225
1411.38068	33911.925
1414.82669	32300.825
1418.27039	30500.725
1421.71177	28761.125
1425.15083	27455.625
1428.58758	26680.125
1432.02203	26869.925
1435.45416	27668.125
1438.88399	28718.925
1442.31151	29501.625
1445.73673	30131.325
1449.15965	30695.625
1452.58027	30989.925
1455.9986	31014.025
1459.41463	31128.825
1462.82837	31415.825
1466.23982	31799.725
1469.64898	32255.225
1473.05586	32543.925
1476.46045	32538.125
1479.86276	32243.625
1483.26279	31813.825
1486.66054	31568.125
1490.05602	31625.425
1493.44922	31882.625
1496.84016	32295.125
1500.22882	33057.425
1503.61521	34188.025
1506.99934	35444.425
1510.38121	36623.625
1513.76081	37013.225
1517.13816	36381.225
1520.51324	35128.625
1523.88607	34108.925
1527.25665	33753.525
1530.62498	33771.125
1533.99105	33627.825
1537.35488	33126.725
1540.71647	32237.425
1544.07581	31128.125
1547.4329	30027.425
1550.78776	29064.525
1554.14038	28369.025
1557.49077	28036.825
1560.83892	27997.925
1564.18484	28034.125
1567.52853	28313.925
1570.86999	28774.925
1574.20922	29580.625
1577.54624	30377.125
1580.88103	30867.225
1584.2136	31424.525
1587.54395	32508.525
1590.87208	34152.025
1594.19801	36027.825
1597.52172	37604.325
1600.84321	37755.825
1604.16251	35780.425
1607.47959	32485.325
1610.79447	29036.225
1614.10715	26105.125
1617.41763	23974.825
1620.7259	22659.925
1624.03199	22099.325
1627.33587	22192.125
1630.63757	23107.225
1633.93707	24816.525
1637.23439	27716.325
1640.52951	31821.725
1643.82246	36825.125
1647.11321	41034.225
1650.40179	42123.125
1653.68819	39043.825
1656.97241	33275.525
1660.25446	27596.625
1663.53433	23414.725
1666.81203	20650.825
1670.08756	19011.425
1673.36092	17919.525
1676.63211	17275.125
1679.90115	16804.925
1683.16801	16440.725
1686.43272	16217.725
1689.69527	16050.725
1692.95567	15899.025
1696.2139	15824.425
1699.46999	15746.625
1702.72392	15692.025
1705.97571	15609.425
1709.22535	15514.825
1712.47284	15484.425
1715.71819	15427.325
1718.96139	15382.825
1722.20246	15342.025
1725.44139	15242.525
1728.67818	15184.025
1731.91284	15084.725
1735.14537	14985.125
1738.37576	14929.925
1741.60403	14839.725
1744.83017	14808.425
1748.05418	14824.325
1751.27607	14764.625
1754.49584	14769.725
1757.71349	14735.325
1760.92903	14733.925
1764.14244	14693.125
1767.35375	14680.425
1770.56294	14638.925
1773.77002	14590.325
1776.97499	14543.025
1780.17785	14533.825
1783.37861	14473.125
1786.57727	14423.825
1789.77382	14390.125
1792.96828	14367.025
1796.16064	14351.325
1799.3509	14308.125
1802.53907	14279.325
1805.72514	14243.925
1808.90913	14221.325
1812.09102	14196.925
1815.27083	14133.125
1818.44856	14090.925
1821.6242	14109.225
1824.79776	14098.925
1827.96924	14072.325
1831.13864	14049.725
1834.30597	14040.825
1837.47122	14064.025
1840.6344	14041.625
1843.7955	14059.225
1846.95454	14016.125
1850.11151	14069.325
1853.26642	14029.325
1856.41926	14012.625
1859.57004	14005.325
1862.71876	13990.625
1865.86542	13954.725
1869.01003	13976.525
1872.15258	13932.625
1875.29308	13916.125
1878.43152	13909.325
1881.56792	13884.725
1884.70227	13883.825
1887.83457	13861.225
1890.96482	13873.225
1894.09304	13825.925
1897.21921	13821.825
1900.34335	13792.725
1903.46544	13781.625
1906.58551	13752.225
1909.70353	13743.725
1912.81953	13692.025
1915.93349	13719.625
1919.04543	13657.825
1922.15534	13641.925
1925.26322	13598.925
1928.36908	13552.925
1931.47292	13547.925
1934.57473	13516.425
1937.67453	13471.625
1940.77232	13422.225
1943.86808	13405.625
1946.96184	13362.625
1950.05358	13311.725
1953.14331	13310.525
1956.23103	13276.025
1959.31675	13262.525
1962.40046	13157.525
1965.48217	13176.125
1968.56188	13131.225
1971.63959	13056.125
1974.7153	13031.025
1977.78901	13023.225
1980.86073	12971.725
1983.93046	12896.525
1986.99819	12847.325
1990.06394	12835.125
1993.1277	12810.925
1996.18947	12747.125
1999.24925	12723.225
2002.30706	12679.025
2005.36288	12629.725
2008.41672	12630.825
2011.46859	12575.925
2014.51848	12531.925
2017.56639	12505.425
2020.61233	12470.825
2023.6563	12451.925
2026.6983	12409.525
2029.73833	12408.425
2032.7764	12366.925
2035.8125	12334.625
2038.84664	12353.525
2041.87881	12320.825
2044.90903	12292.425
2047.93729	12284.125
2050.96359	12271.925
2053.98794	12245.925
2057.01034	12239.725
2060.03078	12239.425
2063.04927	12241.225
2066.06582	12208.425
2069.08042	12200.425
2072.09307	12182.825
2075.10378	12191.125
2078.11255	12148.825
2081.11938	12174.025
2084.12426	12130.925
2087.12722	12163.525
2090.12824	12154.425
2093.12732	12172.525
2096.12447	12160.525
2099.11969	12177.225
2102.11299	12177.425
2105.10435	12180.225
2108.09379	12181.025
2111.08131	12155.925
2114.0669	12163.425
2117.05057	12197.125
2120.03233	12191.425
2123.01216	12224.025
2125.99008	12220.325
2128.96609	12201.625
2131.94018	12198.925
2134.91236	12200.825
2137.88263	12208.625
2140.851	12238.525
2143.81746	12246.525
2146.78201	12234.625
2149.74466	12217.425
2152.7054	12235.825
2155.66425	12219.625
2158.6212	12219.425
2161.57625	12203.325
2164.52941	12208.225
2167.48067	12212.725
2170.43004	12207.125
2173.37752	12186.425
2176.32311	12175.125
2179.26681	12173.625
2182.20863	12175.925
2185.14856	12207.625
2188.08661	12187.625
2191.02278	12185.625
2193.95707	12186.825
2196.88948	12168.125
2199.82001	12167.125
2202.74867	12142.525
2205.67545	12150.025
2208.60037	12103.025
2211.52341	12074.125
2214.44458	12075.025
2217.36388	12074.825
2220.28132	12059.325
2223.1969	12045.125
2226.11061	12018.825
2229.02246	11967.725
2231.93245	11946.625
2234.84058	11922.625
2237.74686	11899.725
2240.65128	11938.825
2243.55385	11929.825
2246.45456	11901.925
2249.35343	11882.825
2252.25044	11841.525
2255.14561	11804.125
2258.03893	11804.525
2260.93041	11777.625
2263.82004	11727.125
2266.70783	11736.525
2269.59378	11686.225
2272.4779	11659.125
2275.36017	11621.325
2278.24061	11594.825
2281.11922	11591.225
2283.996	11569.125
2286.87094	11546.325
2289.74405	11523.625
2292.61534	11508.825
2295.4848	11495.625
2298.35243	11523.525
2301.21824	11502.925
2304.08223	11492.825
2306.94439	11506.425
2309.80474	11481.125
2312.66327	11492.525
2315.51999	11467.925
2318.37489	11452.225
2321.22797	11431.025
2324.07925	11440.725
2326.92871	11417.725
2329.77637	11418.425
2332.62222	11396.825
2335.46626	11385.925
2338.3085	11374.625
2341.14893	11385.725
2343.98756	11386.325
2346.8244	11365.525
2349.65943	11383.325
2352.49267	11391.525
2355.32411	11354.225
2358.15376	11362.225
2360.98161	11347.225
2363.80768	11352.225
2366.63195	11325.725
2369.45444	11329.125
2372.27514	11295.125
2375.09405	11305.825
2377.91118	11292.525
2380.72652	11274.525
2383.54009	11241.825
2386.35187	11218.625
2389.16188	11189.025
2391.97011	11158.525
2394.77657	11173.725
2397.58125	11126.325
2400.38416	11117.725
2403.18529	11091.225
2405.98466	11098.725
2408.78226	11083.825
2411.57809	11064.825
2414.37216	11061.725
2417.16446	11056.225
2419.955	11053.825
2422.74378	11044.525
2425.5308	11024.125
2428.31606	11017.325
2431.09956	11029.725
2433.88131	10982.625
2436.6613	11034.025
2439.43954	10994.125
2442.21603	11010.825
2444.99077	10982.625
2447.76377	10988.125
2450.53501	10962.025
2453.30451	10957.125
2456.07226	10959.525
2458.83827	10976.025
2461.60254	10988.125
2464.36507	11000.225
2467.12586	10995.625
2469.88492	10961.725
2472.64224	10954.925
2475.39782	10974.325
2478.15167	10946.125
2480.90379	10946.025
2483.65417	10981.525
2486.40283	10973.325
2489.14976	10961.325
2491.89497	10971.925
2494.63845	10963.825
2497.3802	10955.525
2500.12024	10941.125
2502.85855	10951.725
2505.59514	10942.125
2508.33002	10934.725
2511.06318	10954.125
2513.79462	10910.925
2516.52435	10893.825
2519.25237	10901.425
2521.97867	10893.625
2524.70327	10842.325
2527.42616	10848.125
2530.14734	10839.925
2532.86681	10824.225
2535.58458	10836.625
2538.30065	10842.225
2541.01501	10808.725
2543.72768	10785.225
2546.43864	10780.625
2549.14791	10747.825
2551.85548	10768.925
2554.56136	10781.025
2557.26554	10774.225
2559.96803	10751.425
2562.66883	10767.725
2565.36794	10728.825
2568.06536	10760.625
2570.7611	10718.225
2573.45514	10743.725
2576.14751	10708.525
2578.83819	10688.025
2581.52719	10665.025
2584.21451	10691.125
2586.90015	10682.725
2589.58411	10680.925
2592.2664	10658.225
2594.94701	10640.225
2597.62594	10643.325
2600.30321	10627.925
2602.9788	10620.825
2605.65273	10586.625
2608.32498	10608.925
2610.99557	10621.525
2613.66449	10623.825
2616.33175	10606.125
2618.99734	10612.925
2621.66128	10587.725
2624.32355	10594.625
2626.98416	10554.425
2629.64311	10553.725
2632.30041	10582.925
2634.95605	10560.025
2637.61004	10565.525
2640.26238	10537.925
2642.91306	10537.025
2645.56209	10542.725
2648.20948	10538.125
2650.85521	10545.225
2653.4993	10550.125
2656.14175	10529.225
2658.78255	10545.225
2661.42171	10570.425
2664.05923	10605.525
2666.6951	10563.525
2669.32934	10606.825
2671.96194	10570.425
2674.59291	10580.525
2677.22224	10572.225
2679.84993	10570.825
2682.476	10564.025
2685.10043	10560.025
2687.72324	10552.925
2690.34441	10536.225
2692.96396	10559.425
2695.58188	10585.625
2698.19818	10554.325
2700.81285	10581.125
2703.4259	10586.225
2706.03733	10664.325
2708.64714	10629.325
2711.25533	10601.225
2713.86191	10588.125
2716.46687	10627.525
2719.07021	10618.625
2721.67194	10628.725
2724.27206	10612.025
2726.87057	10647.325
2729.46747	10655.225
2732.06276	10645.125
2734.65644	10642.225
2737.24852	10646.225
2739.83899	10626.825
2742.42786	10628.225
2745.01513	10584.725
2747.60079	10606.225
2750.18486	10566.625
2752.76733	10609.625
2755.3482	10591.025
2757.92747	10618.225
2760.50515	10630.125
2763.08123	10614.525
2765.65573	10617.625
2768.22863	10610.125
2770.79994	10589.425
2773.36967	10590.625
2775.9378	10562.125
2778.50435	10580.825
2781.06932	10562.925
2783.6327	10572.725
2786.1945	10550.225
2788.75471	10567.725
2791.31335	10529.125
2793.87041	10519.525
2796.42589	10505.925
2798.97979	10516.425
2801.53212	10492.825
2804.08288	10481.625
2806.63206	10451.925
2809.17967	10434.925
2811.72571	10421.125
2814.27018	10416.625
2816.81308	10375.325
2819.35442	10368.125
2821.89419	10359.625
2824.43239	10325.125
2826.96904	10345.125
2829.50412	10340.025
2832.03763	10315.025
2834.56959	10342.925
2837.1	10360.225
2839.62884	10352.325
2842.15613	10343.325
2844.68186	10395.425
2847.20604	10417.525
2849.72867	10453.325
2852.24974	10428.025
2854.76927	10423.225
2857.28724	10404.325
2859.80367	10405.825
2862.31855	10389.225
2864.83189	10363.425
2867.34368	10338.725
2869.85393	10351.925
2872.36264	10353.425
2874.8698	10351.525
2877.37543	10357.025
2879.87952	10341.925
2882.38207	10335.325
2884.88308	10339.225
2887.38256	10370.825
2889.88051	10334.125
2892.37692	10328.725
2894.8718	10350.225
2897.36515	10375.825
2899.85698	10377.925
2902.34727	10357.025
2904.83604	10377.525
2907.32328	10396.825
2909.809	10380.725
2912.29319	10371.625
2914.77587	10395.925
2917.25702	10402.725
2919.73665	10367.925
2922.21476	10371.525
2924.69136	10384.625
2927.16644	10397.625
2929.64	10394.625
2932.11205	10394.125
2934.58258	10348.025
2937.05161	10343.825
2939.51912	10354.925
2941.98513	10338.025
2944.44962	10282.025
2946.91261	10235.525
2949.37409	10257.625
2951.83407	10219.125
2954.29254	10227.925
2956.74951	10183.025
2959.20498	10201.225
2961.65895	10164.525
2964.11142	10153.525
2966.56239	10129.925
2969.01186	10098.825
2971.45984	10109.125
2973.90632	10078.025
2976.35131	10027.125
2978.7948	9996.025
2981.23681	9996.925
2983.67732	9953.525
2986.11635	9937.825
2988.55388	9927.825
2990.98993	9908.025
2993.4245	9888.425
2995.85758	9862.425
2998.28917	9849.525
3000.71928	9822.925
3003.14791	9825.025
3005.57506	9790.425
3008.00073	9779.325
3010.42493	9746.825
3012.84764	9738.025
3015.26888	9732.025
3017.68865	9723.125
3020.10694	9702.725
3022.52376	9689.925
3024.9391	9648.225
3027.35298	9647.625
3029.76539	9639.725
3032.17632	9629.025
3034.5858	9603.225
3036.9938	9631.325
3039.40034	9615.425
3041.80542	9610.825
3044.20903	9577.325
3046.61118	9594.125
3049.01187	9545.525
3051.4111	9528.425
3053.80888	9502.225
3056.20519	9472.625
3058.60005	9448.025
3060.99345	9435.125
3063.3854	9463.625
3065.7759	9381.325
3068.16494	9375.925
3070.55254	9325.325
3072.93868	9346.425
3075.32338	9312.725
3077.70662	9276.825
3080.08842	9236.725
3082.46878	9231.325
3084.84769	9209.225
3087.22515	9230.625
3089.60118	9242.825
3091.97576	9232.725
3094.3489	9226.325
3096.72061	9226.325
3099.09087	9221.825
3101.4597	9222.125
3103.82709	9195.125
3106.19305	9176.725
3108.55757	9146.025
3110.92066	9144.925
3113.28232	9102.725
3115.64255	9089.325
3118.00134	9079.325
3120.35871	9041.025
3122.71466	9017.125
3125.06917	9037.725
3127.42226	9040.025
3129.77393	9017.225
3132.12417	9012.225
3134.47299	9022.025
