Data from AgNPs_FTO_APTES_UA_2uM_CRN_100uM_R6G_10uM_NaF_0.1M_Addition_RamanShift__32__16-15-25-343.txt Node

Date: Wed Feb 02 16:15:25 GMT 2022
User: TCL
Spectrometer: QEP01345
Trigger mode: 4
Integration Time (sec): 7.000000E0
Scans to average: 10
Electric dark correction enabled: true
Nonlinearity correction enabled: false
Boxcar width: 0
XAxis mode: Raman Shifts
Number of Pixels in Spectrum: 1044
>>>>>Begin Spectral Data<<<<<
46.04893	0.875
50.45542	1.775
54.85868	-1.825
59.25871	0.475
63.6555	45.475
68.04907	48.575
72.43941	50.375
76.82654	59.175
81.21044	59.875
85.59113	64.875
89.96862	61.375
94.34289	65.075
98.71396	70.275
103.08183	75.575
107.4465	76.975
111.80798	76.375
116.16626	71.975
120.52136	75.175
124.87327	80.275
129.222	75.375
133.56755	81.975
137.90993	81.475
142.24913	90.275
146.58517	98.175
150.91804	101.375
155.24774	120.675
159.57429	140.075
163.89768	173.575
168.21792	218.075
172.53501	287.175
176.84895	392.975
181.15975	543.975
185.46741	750.475
189.77193	1019.175
194.07331	1364.675
198.37157	1751.275
202.6667	2159.475
206.9587	2568.775
211.24758	2973.575
215.53334	3391.175
219.81599	3866.275
224.09553	4408.175
228.37195	4995.475
232.64527	5635.275
236.91549	6282.375
241.18261	6860.075
245.44663	7316.375
249.70755	7672.775
253.96539	7955.075
258.22014	8246.175
262.4718	8510.775
266.72039	8704.275
270.96589	8848.775
275.20832	8902.975
279.44768	8886.975
283.68397	8839.975
287.91719	8827.775
292.14735	8943.875
296.37445	9134.375
300.59849	9468.175
304.81948	9818.875
309.03742	10050.975
313.25231	9981.775
317.46415	9446.575
321.67296	8614.275
325.87872	7910.775
330.08145	7593.475
334.28114	7511.975
338.47781	7675.875
342.67145	7874.475
346.86207	8256.475
351.04966	8779.875
355.23424	9375.475
359.4158	9802.775
363.59435	9961.675
367.76989	9921.175
371.94243	9866.475
376.11196	9756.075
380.27849	9616.475
384.44203	9502.975
388.60257	9338.275
392.76012	9290.175
396.91468	9393.375
401.06626	9690.075
405.21485	9935.775
409.36047	9760.475
413.50311	9212.975
417.64277	8662.375
421.77947	8383.375
425.9132	8214.875
430.04396	8183.675
434.17176	8221.275
438.2966	8261.175
442.41849	8413.275
446.53742	8628.675
450.6534	8861.275
454.76644	9000.875
458.87653	9029.475
462.98368	9010.075
467.08789	8922.175
471.18916	8761.475
475.2875	8581.375
479.38291	8393.975
483.4754	8265.875
487.56496	8111.975
491.6516	8018.575
495.73531	7979.075
499.81612	8023.375
503.89401	8153.175
507.96899	8238.975
512.04106	8321.575
516.11023	8417.175
520.1765	8482.175
524.23987	8396.375
528.30034	8223.775
532.35792	7985.575
536.41261	7769.375
540.46441	7549.475
544.51333	7472.475
548.55936	7577.275
552.60252	7832.175
556.64279	8157.775
560.6802	8304.775
564.71473	8502.575
568.7464	8922.375
572.7752	9234.475
576.80114	8960.575
580.82422	8581.875
584.84444	8432.575
588.86181	8308.475
592.87633	8218.775
596.888	8253.775
600.89682	8572.175
604.9028	9693.975
608.90594	12633.275
612.90624	16584.775
616.90371	16045.275
620.89834	10821.675
624.89015	8225.975
628.87913	7757.475
632.86528	7793.575
636.84862	7949.475
640.82913	7858.275
644.80683	7454.875
648.78172	7191.475
652.75379	7218.675
656.72306	7565.875
660.68952	8041.675
664.65319	8009.775
668.61405	7540.075
672.57211	7292.475
676.52738	7279.275
680.47986	7283.775
684.42955	7212.575
688.37646	7166.475
692.32058	7189.775
696.26192	7271.575
700.20048	7410.575
704.13626	7519.475
708.06928	7547.275
711.99952	7450.075
715.927	7369.875
719.85171	7350.275
723.77365	7355.775
727.69284	7217.775
731.60928	7117.575
735.52295	7059.375
739.43388	7083.075
743.34206	7086.275
747.24749	7151.075
751.15017	7240.375
755.05012	7449.175
758.94733	7902.675
762.8418	8966.775
766.73354	10790.875
770.62254	12666.875
774.50882	13554.475
778.39237	12853.675
782.27321	10940.275
786.15132	8989.475
790.02671	7878.575
793.89938	7347.475
797.76935	7157.075
801.6366	7067.675
805.50115	6996.775
809.36299	6969.675
813.22213	6919.875
817.07857	6890.175
820.93231	6891.075
824.78336	6915.975
828.63172	6973.875
832.47738	6973.375
836.32036	6939.175
840.16066	6889.575
843.99827	6818.875
847.8332	6774.075
851.66546	6773.375
855.49504	6730.275
859.32195	6710.475
863.1462	6666.375
866.96777	6619.775
870.78668	6631.375
874.60293	6622.075
878.41652	6647.875
882.22745	6676.875
886.03573	6709.075
889.84136	6712.275
893.64433	6642.675
897.44466	6609.175
901.24235	6612.575
905.0374	6606.775
908.8298	6591.675
912.61957	6594.275
916.40671	6667.675
920.19121	6749.375
923.97308	6801.975
927.75233	6878.875
931.52895	6901.975
935.30295	6817.675
939.07433	6548.975
942.84309	6320.475
946.60924	6167.575
950.37278	6101.775
954.13371	6045.775
957.89203	6041.575
961.64774	6005.175
965.40086	5973.575
969.15137	5967.475
972.89929	5946.275
976.64461	5926.675
980.38733	5912.075
984.12747	5923.075
987.86502	5934.075
991.59999	5950.875
995.33237	6023.375
999.06217	6134.875
1002.78939	6303.575
1006.51404	6450.175
1010.23611	6638.075
1013.95561	6745.475
1017.67255	6688.975
1021.38692	6578.675
1025.09872	6458.675
1028.80796	6378.475
1032.51465	6394.775
1036.21877	6480.675
1039.92035	6594.375
1043.61937	6688.575
1047.31584	6715.775
1051.00976	6703.775
1054.70114	6724.875
1058.38998	6741.575
1062.07627	6814.975
1065.76003	6899.675
1069.44126	6974.675
1073.11995	7051.375
1076.79611	7160.275
1080.46974	7249.175
1084.14085	7433.175
1087.80943	7670.575
1091.47549	7799.075
1095.13903	7682.375
1098.80005	7377.975
1102.45857	7050.375
1106.11456	6872.375
1109.76805	6836.375
1113.41903	6982.875
1117.06751	7231.375
1120.71348	7587.575
1124.35696	8031.575
1127.99793	8417.275
1131.63641	8418.275
1135.2724	7943.775
1138.90589	7470.375
1142.5369	7224.075
1146.16542	7078.875
1149.79145	7004.275
1153.415	7029.575
1157.03607	7125.075
1160.65467	7320.475
1164.27079	7650.675
1167.88443	8164.775
1171.49561	8966.675
1175.10432	10317.775
1178.71056	12059.375
1182.31434	13164.575
1185.91565	13262.075
1189.51451	12794.675
1193.11091	11981.275
1196.70485	11038.875
1200.29634	10322.875
1203.88538	9750.775
1207.47197	9058.075
1211.05612	8470.375
1214.63782	8114.975
1218.21708	7999.875
1221.79391	7987.075
1225.36829	8055.275
1228.94024	8081.975
1232.50976	8128.375
1236.07685	8147.975
1239.6415	8161.275
1243.20374	8173.875
1246.76355	8210.175
1250.32093	8333.975
1253.8759	8517.875
1257.42845	8809.675
1260.97859	9117.675
1264.52631	9439.575
1268.07163	9766.475
1271.61453	10043.475
1275.15503	10289.275
1278.69312	10343.475
1282.22882	10362.375
1285.76211	10583.275
1289.29301	10975.175
1292.82151	11379.775
1296.34761	11838.075
1299.87133	12464.375
1303.39266	13549.575
1306.9116	15160.775
1310.42815	17140.775
1313.94233	18409.475
1317.45412	18284.075
1320.96354	17119.375
1324.47058	15760.575
1327.97525	14641.875
1331.47754	13873.775
1334.97747	13550.475
1338.47502	13522.075
1341.97022	13684.375
1345.46305	14112.475
1348.95352	14766.275
1352.44163	15774.275
1355.92738	17271.575
1359.41078	19768.475
1362.89183	22462.075
1366.37053	22115.275
1369.84688	18678.175
1373.32088	15148.775
1376.79254	12962.775
1380.26186	11857.775
1383.72883	11331.575
1387.19347	10974.175
1390.65578	10534.375
1394.11575	10200.575
1397.57339	10046.975
1401.0287	10091.675
1404.48168	10189.375
1407.93234	10259.975
1411.38068	10228.775
1414.82669	10069.575
1418.27039	9781.175
1421.71177	9479.675
1425.15083	9165.275
1428.58758	8941.875
1432.02203	8896.375
1435.45416	8981.675
1438.88399	9046.575
1442.31151	9082.175
1445.73673	9179.875
1449.15965	9286.975
1452.58027	9299.875
1455.9986	9338.375
1459.41463	9370.075
1462.82837	9516.875
1466.23982	9732.275
1469.64898	9942.375
1473.05586	10113.575
1476.46045	10195.575
1479.86276	10385.175
1483.26279	10587.775
1486.66054	10869.175
1490.05602	11239.975
1493.44922	11763.175
1496.84016	12673.275
1500.22882	14109.375
1503.61521	16017.075
1506.99934	18147.575
1510.38121	20259.475
1513.76081	21518.775
1517.13816	20828.175
1520.51324	18279.575
1523.88607	15564.375
1527.25665	13628.575
1530.62498	12512.275
1533.99105	11859.375
1537.35488	11408.375
1540.71647	11093.475
1544.07581	10883.575
1547.4329	10728.475
1550.78776	10590.975
1554.14038	10559.875
1557.49077	10680.275
1560.83892	10955.875
1564.18484	11347.475
1567.52853	11799.675
1570.86999	12108.775
1574.20922	12296.775
1577.54624	12223.175
1580.88103	11587.475
1584.2136	10691.475
1587.54395	10198.975
1590.87208	10259.075
1594.19801	10790.375
1597.52172	11521.875
1600.84321	11836.975
1604.16251	11315.675
1607.47959	10488.875
1610.79447	9630.675
1614.10715	8818.675
1617.41763	8178.975
1620.7259	7709.675
1624.03199	7521.275
1627.33587	7476.275
1630.63757	7611.275
1633.93707	7958.075
1637.23439	8559.175
1640.52951	9494.575
1643.82246	10841.575
1647.11321	12529.375
1650.40179	13941.075
1653.68819	13902.275
1656.97241	12136.675
1660.25446	9881.675
1663.53433	8179.375
1666.81203	7135.975
1670.08756	6530.475
1673.36092	6143.775
1676.63211	5911.175
1679.90115	5758.575
1683.16801	5636.375
1686.43272	5531.975
1689.69527	5467.875
1692.95567	5409.375
1696.2139	5384.275
1699.46999	5381.575
1702.72392	5359.275
1705.97571	5318.975
1709.22535	5276.075
1712.47284	5257.875
1715.71819	5247.975
1718.96139	5227.475
1722.20246	5227.475
1725.44139	5219.175
1728.67818	5170.675
1731.91284	5125.875
1735.14537	5079.775
1738.37576	5025.975
1741.60403	4991.975
1744.83017	4979.775
1748.05418	4973.575
1751.27607	4969.075
1754.49584	4968.375
1757.71349	4953.175
1760.92903	4940.875
1764.14244	4933.975
1767.35375	4888.675
1770.56294	4877.175
1773.77002	4845.575
1776.97499	4808.775
1780.17785	4769.275
1783.37861	4733.775
1786.57727	4736.175
1789.77382	4713.775
1792.96828	4702.375
1796.16064	4688.475
1799.3509	4675.675
1802.53907	4669.175
1805.72514	4649.875
1808.90913	4631.175
1812.09102	4604.375
1815.27083	4594.575
1818.44856	4564.675
1821.6242	4586.275
1824.79776	4563.675
1827.96924	4555.075
1831.13864	4538.275
1834.30597	4529.075
1837.47122	4522.075
1840.6344	4522.375
1843.7955	4538.775
1846.95454	4526.075
1850.11151	4521.775
1853.26642	4512.075
1856.41926	4509.875
1859.57004	4523.875
1862.71876	4506.175
1865.86542	4489.475
1869.01003	4487.975
1872.15258	4484.275
1875.29308	4498.475
1878.43152	4498.775
1881.56792	4504.675
1884.70227	4501.675
1887.83457	4498.375
1890.96482	4496.475
1894.09304	4492.775
1897.21921	4500.275
1900.34335	4498.375
1903.46544	4492.775
1906.58551	4497.175
1909.70353	4510.575
1912.81953	4489.175
1915.93349	4499.075
1919.04543	4483.975
1922.15534	4472.175
1925.26322	4459.575
1928.36908	4443.775
1931.47292	4416.175
1934.57473	4393.375
1937.67453	4360.875
1940.77232	4339.175
1943.86808	4331.975
1946.96184	4302.675
1950.05358	4279.375
1953.14331	4258.775
1956.23103	4230.675
1959.31675	4226.975
1962.40046	4213.175
1965.48217	4194.575
1968.56188	4181.575
1971.63959	4169.875
1974.7153	4154.775
1977.78901	4144.675
1980.86073	4120.675
1983.93046	4112.175
1986.99819	4084.275
1990.06394	4073.375
1993.1277	4077.075
1996.18947	4037.275
1999.24925	4024.975
2002.30706	4023.675
2005.36288	4001.975
2008.41672	3993.775
2011.46859	3981.175
2014.51848	3955.575
2017.56639	3945.275
2020.61233	3934.275
2023.6563	3915.275
2026.6983	3920.175
2029.73833	3887.475
2032.7764	3876.975
2035.8125	3885.575
2038.84664	3854.875
2041.87881	3855.875
2044.90903	3857.175
2047.93729	3836.375
2050.96359	3851.775
2053.98794	3834.075
2057.01034	3818.275
2060.03078	3819.275
2063.04927	3810.275
2066.06582	3800.075
2069.08042	3805.275
2072.09307	3793.475
2075.10378	3785.875
2078.11255	3787.175
2081.11938	3773.975
2084.12426	3762.175
2087.12722	3777.975
2090.12824	3763.075
2093.12732	3769.675
2096.12447	3768.775
2099.11969	3769.875
2102.11299	3783.375
2105.10435	3764.675
2108.09379	3776.975
2111.08131	3762.975
2114.0669	3772.375
2117.05057	3770.275
2120.03233	3765.675
2123.01216	3763.575
2125.99008	3773.675
2128.96609	3774.175
2131.94018	3764.475
2134.91236	3775.575
2137.88263	3770.175
2140.851	3777.275
2143.81746	3763.075
2146.78201	3758.375
2149.74466	3758.675
2152.7054	3769.775
2155.66425	3759.575
2158.6212	3759.175
2161.57625	3740.175
2164.52941	3746.775
2167.48067	3739.075
2170.43004	3741.175
2173.37752	3732.075
2176.32311	3728.075
2179.26681	3722.775
2182.20863	3724.675
2185.14856	3723.175
2188.08661	3735.875
2191.02278	3715.675
2193.95707	3706.875
2196.88948	3699.075
2199.82001	3707.575
2202.74867	3687.975
2205.67545	3673.875
2208.60037	3684.775
2211.52341	3669.175
2214.44458	3658.675
2217.36388	3669.075
2220.28132	3666.075
2223.1969	3618.975
2226.11061	3636.775
2229.02246	3617.475
2231.93245	3605.775
2234.84058	3604.775
2237.74686	3595.275
2240.65128	3585.675
2243.55385	3586.175
2246.45456	3581.875
2249.35343	3575.475
2252.25044	3560.975
2255.14561	3562.175
2258.03893	3564.175
2260.93041	3584.875
2263.82004	3576.975
2266.70783	3552.075
2269.59378	3533.875
2272.4779	3536.075
2275.36017	3507.875
2278.24061	3518.375
2281.11922	3499.275
2283.996	3497.575
2286.87094	3494.475
2289.74405	3457.875
2292.61534	3455.075
2295.4848	3449.275
2298.35243	3453.975
2301.21824	3445.375
2304.08223	3436.075
2306.94439	3434.275
2309.80474	3432.975
2312.66327	3425.275
2315.51999	3430.375
2318.37489	3432.175
2321.22797	3417.875
2324.07925	3405.775
2326.92871	3410.075
2329.77637	3406.075
2332.62222	3405.375
2335.46626	3400.575
2338.3085	3397.375
2341.14893	3376.975
2343.98756	3383.875
2346.8244	3381.275
2349.65943	3405.675
2352.49267	3406.975
2355.32411	3406.375
2358.15376	3407.975
2360.98161	3417.175
2363.80768	3423.775
2366.63195	3417.175
2369.45444	3435.475
2372.27514	3437.575
2375.09405	3430.975
2377.91118	3420.775
2380.72652	3408.275
2383.54009	3367.275
2386.35187	3354.775
2389.16188	3339.175
2391.97011	3327.375
2394.77657	3315.775
2397.58125	3298.575
2400.38416	3298.675
2403.18529	3278.075
2405.98466	3275.775
2408.78226	3274.475
2411.57809	3269.375
2414.37216	3259.775
2417.16446	3259.175
2419.955	3259.675
2422.74378	3263.875
2425.5308	3233.875
2428.31606	3245.075
2431.09956	3253.775
2433.88131	3242.275
2436.6613	3236.275
2439.43954	3242.975
2442.21603	3249.575
2444.99077	3233.075
2447.76377	3237.075
2450.53501	3258.175
2453.30451	3234.475
2456.07226	3238.675
2458.83827	3234.175
2461.60254	3255.475
2464.36507	3244.775
2467.12586	3240.075
2469.88492	3224.575
2472.64224	3234.075
2475.39782	3243.875
2478.15167	3235.875
2480.90379	3237.975
2483.65417	3252.475
2486.40283	3253.275
2489.14976	3277.675
2491.89497	3281.975
2494.63845	3264.475
2497.3802	3273.375
2500.12024	3264.375
2502.85855	3256.875
2505.59514	3244.075
2508.33002	3228.175
2511.06318	3229.175
2513.79462	3203.975
2516.52435	3179.475
2519.25237	3183.175
2521.97867	3172.775
2524.70327	3162.475
2527.42616	3148.175
2530.14734	3144.975
2532.86681	3123.675
2535.58458	3127.575
2538.30065	3124.175
2541.01501	3128.275
2543.72768	3121.375
2546.43864	3118.875
2549.14791	3135.175
2551.85548	3127.875
2554.56136	3128.575
2557.26554	3130.275
2559.96803	3111.575
2562.66883	3101.275
2565.36794	3109.375
2568.06536	3100.775
2570.7611	3093.675
2573.45514	3081.175
2576.14751	3084.175
2578.83819	3067.375
2581.52719	3073.575
2584.21451	3074.875
2586.90015	3062.475
2589.58411	3056.575
2592.2664	3060.475
2594.94701	3041.875
2597.62594	3060.975
2600.30321	3037.975
2602.9788	3037.175
2605.65273	3036.175
2608.32498	3045.475
2610.99557	3036.175
2613.66449	3042.275
2616.33175	3032.075
2618.99734	3039.475
2621.66128	3051.275
2624.32355	3019.575
2626.98416	3022.075
2629.64311	3022.775
2632.30041	3019.875
2634.95605	3017.775
2637.61004	3012.475
2640.26238	2983.275
2642.91306	2993.075
2645.56209	2992.575
2648.20948	2989.375
2650.85521	3002.975
2653.4993	2987.175
2656.14175	2984.275
2658.78255	2986.975
2661.42171	2997.675
2664.05923	3007.375
2666.6951	3005.175
2669.32934	3005.175
2671.96194	3006.875
2674.59291	3014.975
2677.22224	3005.975
2679.84993	3014.875
2682.476	3005.975
2685.10043	3022.575
2687.72324	2997.575
2690.34441	3003.775
2692.96396	3002.175
2695.58188	3006.175
2698.19818	3014.275
2700.81285	3015.675
2703.4259	3025.375
2706.03733	3073.775
2708.64714	3036.675
2711.25533	3039.375
2713.86191	3040.475
2716.46687	3045.875
2719.07021	3040.675
2721.67194	3030.175
2724.27206	3042.875
2726.87057	3033.475
2729.46747	3035.675
2732.06276	3032.675
2734.65644	3024.075
2737.24852	3022.275
2739.83899	3009.775
2742.42786	3014.975
2745.01513	2990.675
2747.60079	2995.675
2750.18486	2994.675
2752.76733	2992.275
2755.3482	2981.875
2757.92747	2981.075
2760.50515	2978.375
2763.08123	2985.975
2765.65573	2968.675
2768.22863	2956.175
2770.79994	2952.975
2773.36967	2952.575
2775.9378	2960.275
2778.50435	2946.475
2781.06932	2949.075
2783.6327	2957.275
2786.1945	2949.175
2788.75471	2964.075
2791.31335	2946.975
2793.87041	2948.475
2796.42589	2941.275
2798.97979	2945.775
2801.53212	2953.975
2804.08288	2958.175
2806.63206	2951.475
2809.17967	2957.975
2811.72571	2954.575
2814.27018	2962.075
2816.81308	2967.175
2819.35442	2965.175
2821.89419	2986.475
2824.43239	2979.575
2826.96904	2988.875
2829.50412	2998.675
2832.03763	3012.175
2834.56959	3009.175
2837.1	3031.675
2839.62884	3065.975
2842.15613	3102.575
2844.68186	3184.675
2847.20604	3258.175
2849.72867	3338.075
2852.24974	3375.175
2854.76927	3376.475
2857.28724	3365.775
2859.80367	3332.475
2862.31855	3323.475
2864.83189	3295.075
2867.34368	3281.675
2869.85393	3292.975
2872.36264	3279.175
2874.8698	3271.775
2877.37543	3280.075
2879.87952	3279.975
2882.38207	3278.275
2884.88308	3281.075
2887.38256	3253.175
2889.88051	3256.875
2892.37692	3254.775
2894.8718	3253.675
2897.36515	3271.075
2899.85698	3270.875
2902.34727	3278.775
2904.83604	3279.075
2907.32328	3278.575
2909.809	3283.075
2912.29319	3275.075
2914.77587	3271.875
2917.25702	3258.275
2919.73665	3260.975
2922.21476	3246.475
2924.69136	3255.375
2927.16644	3244.975
2929.64	3237.975
2932.11205	3239.075
2934.58258	3235.075
2937.05161	3203.775
2939.51912	3187.475
2941.98513	3145.875
2944.44962	3102.975
2946.91261	3052.175
2949.37409	3019.675
2951.83407	2987.175
2954.29254	2969.775
2956.74951	2946.675
2959.20498	2933.575
2961.65895	2938.375
2964.11142	2907.575
2966.56239	2896.575
2969.01186	2885.475
2971.45984	2875.775
2973.90632	2849.975
2976.35131	2826.475
2978.7948	2832.075
2981.23681	2811.675
2983.67732	2808.975
2986.11635	2802.175
2988.55388	2792.375
2990.98993	2770.075
2993.4245	2779.475
2995.85758	2766.875
2998.28917	2747.475
3000.71928	2745.775
3003.14791	2743.675
3005.57506	2736.475
3008.00073	2724.475
3010.42493	2720.675
3012.84764	2720.075
3015.26888	2712.075
3017.68865	2729.075
3020.10694	2702.575
3022.52376	2719.675
3024.9391	2701.875
3027.35298	2698.975
3029.76539	2692.275
3032.17632	2709.175
3034.5858	2679.575
3036.9938	2689.575
3039.40034	2687.175
3041.80542	2674.475
3044.20903	2678.275
3046.61118	2672.675
3049.01187	2663.975
3051.4111	2665.275
3053.80888	2671.075
3056.20519	2662.175
3058.60005	2659.675
3060.99345	2663.375
3063.3854	2665.075
3065.7759	2649.175
3068.16494	2636.175
3070.55254	2648.775
3072.93868	2647.475
3075.32338	2636.775
3077.70662	2623.775
3080.08842	2615.875
3082.46878	2605.375
3084.84769	2603.575
3087.22515	2597.475
3089.60118	2593.975
3091.97576	2591.575
3094.3489	2580.675
3096.72061	2575.775
3099.09087	2590.475
3101.4597	2572.475
3103.82709	2579.575
3106.19305	2579.775
3108.55757	2582.375
3110.92066	2571.575
3113.28232	2564.475
3115.64255	2556.575
3118.00134	2556.075
3120.35871	2552.375
3122.71466	2547.275
3125.06917	2546.175
3127.42226	2550.075
3129.77393	2560.575
3132.12417	2553.075
3134.47299	2574.575
3136.82039	2563.675
3139.16636	2578.275
3141.51092	2567.375
3143.85406	2594.975
3146.19579	2596.675
3148.53609	2594.075
3150.87499	2608.275
3153.21246	2607.375
3155.54853	2612.075
3157.88318	2610.475
3160.21642	2623.875
3162.54826	2620.375
3164.87868	2621.475
3167.2077	2609.275
3169.5353	2631.975
3171.86151	2632.175
3174.18631	2632.875
3176.5097	2640.775
3178.83169	2627.575
3181.15228	2644.975
3183.47147	2634.175
3185.78926	2647.575
3188.10565	2645.475
3190.42065	2659.675
3192.73424	2653.675
3195.04645	2658.375
3197.35725	2664.475
3199.66667	2663.575
3201.97469	2659.775
3204.28132	2658.775
3206.58656	2671.575
3208.8904	2675.275
3211.19287	2666.475
3213.49394	2676.975
3215.79363	2686.075
3218.09193	2679.675
3220.38884	2699.175
3222.68438	2706.475
