Data from AgNPs_FTO_APTES_UA_2uM_CRN_0uM_R6G_10uM_NaF_0.1M_Addition_RamanShift__48__11-00-24-977.txt Node

Date: Wed Feb 02 11:00:24 GMT 2022
User: TCL
Spectrometer: QEP01345
Trigger mode: 4
Integration Time (sec): 7.000000E0
Scans to average: 10
Electric dark correction enabled: true
Nonlinearity correction enabled: false
Boxcar width: 0
XAxis mode: Raman Shifts
Number of Pixels in Spectrum: 1044
>>>>>Begin Spectral Data<<<<<
46.04893	0.3125
50.45542	0.9125
54.85868	-0.1875
59.25871	-0.3875
63.6555	61.1125
68.04907	66.4125
72.43941	66.8125
76.82654	72.8125
81.21044	75.4125
85.59113	79.6125
89.96862	80.9125
94.34289	83.0125
98.71396	84.7125
103.08183	90.3125
107.4465	91.0125
111.80798	96.4125
116.16626	98.8125
120.52136	102.8125
124.87327	105.8125
129.222	115.1125
133.56755	122.6125
137.90993	132.1125
142.24913	149.6125
146.58517	171.3125
150.91804	195.4125
155.24774	242.6125
159.57429	305.2125
163.89768	396.7125
168.21792	534.1125
172.53501	726.9125
176.84895	1021.5125
181.15975	1434.0125
185.46741	2003.3125
189.77193	2757.9125
194.07331	3671.6125
198.37157	4713.5125
202.6667	5809.7125
206.9587	6894.5125
211.24758	7961.6125
215.53334	9072.9125
219.81599	10248.8125
224.09553	11565.7125
228.37195	13056.4125
232.64527	14621.8125
236.91549	16234.0125
241.18261	17822.1125
245.44663	19209.5125
249.70755	20419.7125
253.96539	21509.7125
258.22014	22540.7125
262.4718	23336.6125
266.72039	23919.8125
270.96589	24293.2125
275.20832	24322.4125
279.44768	24262.4125
283.68397	24153.4125
287.91719	24078.1125
292.14735	24113.2125
296.37445	24238.7125
300.59849	24410.2125
304.81948	24532.8125
309.03742	24476.2125
313.25231	24110.6125
317.46415	23326.5125
321.67296	22242.6125
325.87872	21307.1125
330.08145	20786.6125
334.28114	20580.8125
338.47781	20663.5125
342.67145	20917.6125
346.86207	21235.9125
351.04966	21740.1125
355.23424	22267.7125
359.4158	22746.1125
363.59435	23003.7125
367.76989	23126.5125
371.94243	23217.8125
376.11196	23249.7125
380.27849	23268.9125
384.44203	23403.8125
388.60257	23592.2125
392.76012	23878.0125
396.91468	24279.8125
401.06626	24720.2125
405.21485	24971.5125
409.36047	24745.9125
413.50311	24242.8125
417.64277	23834.5125
421.77947	23741.1125
425.9132	23880.9125
430.04396	24004.0125
434.17176	24102.4125
438.2966	24241.6125
442.41849	24575.7125
446.53742	25267.7125
450.6534	26036.5125
454.76644	26665.5125
458.87653	26911.4125
462.98368	26831.4125
467.08789	26618.5125
471.18916	26336.2125
475.2875	26249.1125
479.38291	26432.1125
483.4754	26615.1125
487.56496	26439.8125
491.6516	25855.7125
495.73531	25137.4125
499.81612	24578.2125
503.89401	24463.7125
507.96899	24470.0125
512.04106	24308.2125
516.11023	23901.5125
520.1765	23460.6125
524.23987	23047.2125
528.30034	22637.7125
532.35792	22251.7125
536.41261	21866.0125
540.46441	21553.5125
544.51333	21535.1125
548.55936	21997.9125
552.60252	22817.3125
556.64279	23740.3125
560.6802	24370.9125
564.71473	24872.5125
568.7464	25704.4125
572.7752	26774.3125
576.80114	27463.3125
580.82422	27941.9125
584.84444	28367.5125
588.86181	28670.9125
592.87633	28922.8125
596.888	28859.8125
600.89682	28576.0125
604.9028	29387.0125
608.90594	32334.6125
612.90624	35380.0125
616.90371	32623.1125
620.89834	25739.2125
624.89015	22587.3125
628.87913	22231.1125
632.86528	22481.1125
636.84862	22512.2125
640.82913	22101.9125
644.80683	21304.9125
648.78172	20617.6125
652.75379	20341.9125
656.72306	20569.6125
660.68952	21008.4125
664.65319	20865.9125
668.61405	20305.0125
672.57211	20105.9125
676.52738	20115.5125
680.47986	20040.5125
684.42955	19912.0125
688.37646	19741.1125
692.32058	19843.3125
696.26192	20113.5125
700.20048	20528.8125
704.13626	20832.1125
708.06928	20940.6125
711.99952	20849.5125
715.927	20745.3125
719.85171	20767.1125
723.77365	20729.0125
727.69284	20345.9125
731.60928	19992.6125
735.52295	19915.1125
739.43388	19928.7125
743.34206	19969.6125
747.24749	20159.3125
751.15017	20441.6125
755.05012	21038.7125
758.94733	22022.9125
762.8418	23754.4125
766.73354	26484.7125
770.62254	29037.8125
774.50882	29346.5125
778.39237	27334.8125
782.27321	24498.9125
786.15132	22273.6125
790.02671	20958.1125
793.89938	20320.4125
797.76935	20037.1125
801.6366	19960.7125
805.50115	19916.1125
809.36299	19797.0125
813.22213	19604.9125
817.07857	19505.7125
820.93231	19462.8125
824.78336	19247.3125
828.63172	19064.7125
832.47738	18948.3125
836.32036	18934.6125
840.16066	18941.5125
843.99827	18993.4125
847.8332	18944.3125
851.66546	18808.7125
855.49504	18768.8125
859.32195	18762.2125
863.1462	18664.9125
866.96777	18558.2125
870.78668	18518.3125
874.60293	18515.4125
878.41652	18482.4125
882.22745	18575.2125
886.03573	18657.8125
889.84136	18703.4125
893.64433	18670.2125
897.44466	18653.5125
901.24235	18550.6125
905.0374	18395.7125
908.8298	18300.4125
912.61957	18378.6125
916.40671	18623.2125
920.19121	19059.0125
923.97308	19417.2125
927.75233	19504.8125
931.52895	19291.4125
935.30295	18840.1125
939.07433	18200.4125
942.84309	17698.2125
946.60924	17443.8125
950.37278	17303.7125
954.13371	17329.7125
957.89203	17309.6125
961.64774	17281.9125
965.40086	17313.5125
969.15137	17251.4125
972.89929	17088.3125
976.64461	16922.0125
980.38733	16834.8125
984.12747	16839.7125
987.86502	16972.5125
991.59999	17154.5125
995.33237	17495.6125
999.06217	18094.9125
1002.78939	18866.3125
1006.51404	19441.4125
1010.23611	19810.6125
1013.95561	20081.2125
1017.67255	20047.8125
1021.38692	19730.9125
1025.09872	19309.8125
1028.80796	19253.7125
1032.51465	19600.5125
1036.21877	20037.7125
1039.92035	20089.5125
1043.61937	19903.7125
1047.31584	19521.9125
1051.00976	19183.7125
1054.70114	18992.6125
1058.38998	19067.9125
1062.07627	19292.7125
1065.76003	19521.8125
1069.44126	19864.7125
1073.11995	20313.2125
1076.79611	20693.4125
1080.46974	20844.4125
1084.14085	21041.9125
1087.80943	21433.7125
1091.47549	21847.1125
1095.13903	21937.0125
1098.80005	21578.4125
1102.45857	20730.8125
1106.11456	19979.6125
1109.76805	19570.7125
1113.41903	19553.8125
1117.06751	19736.0125
1120.71348	20057.1125
1124.35696	20387.6125
1127.99793	20850.9125
1131.63641	21204.9125
1135.2724	21082.7125
1138.90589	20925.3125
1142.5369	20946.8125
1146.16542	21128.0125
1149.79145	21364.7125
1153.415	21770.7125
1157.03607	22364.6125
1160.65467	23308.7125
1164.27079	24882.2125
1167.88443	26838.1125
1171.49561	29239.4125
1175.10432	32474.6125
1178.71056	36430.4125
1182.31434	40197.4125
1185.91565	42159.7125
1189.51451	42277.2125
1193.11091	40999.5125
1196.70485	38911.9125
1200.29634	36527.8125
1203.88538	34587.8125
1207.47197	33268.4125
1211.05612	32354.4125
1214.63782	31581.6125
1218.21708	30686.5125
1221.79391	29952.8125
1225.36829	29539.6125
1228.94024	29010.9125
1232.50976	28323.0125
1236.07685	27743.9125
1239.6415	27247.4125
1243.20374	27021.4125
1246.76355	27066.5125
1250.32093	27377.2125
1253.8759	28252.5125
1257.42845	29415.2125
1260.97859	30807.3125
1264.52631	32093.6125
1268.07163	33411.9125
1271.61453	34841.7125
1275.15503	36291.1125
1278.69312	37781.2125
1282.22882	39181.7125
1285.76211	40744.1125
1289.29301	42695.6125
1292.82151	45099.0125
1296.34761	48074.5125
1299.87133	51547.5125
1303.39266	55276.5125
1306.9116	58979.9125
1310.42815	62357.4125
1313.94233	64617.3125
1317.45412	65080.4125
1320.96354	64538.8125
1324.47058	63784.0125
1327.97525	63054.0125
1331.47754	62343.1125
1334.97747	61451.8125
1338.47502	60460.6125
1341.97022	59078.1125
1345.46305	57225.6125
1348.95352	55324.1125
1352.44163	53753.5125
1355.92738	53619.8125
1359.41078	55453.6125
1362.89183	57970.6125
1366.37053	57921.6125
1369.84688	53642.7125
1373.32088	47403.3125
1376.79254	42876.6125
1380.26186	41051.8125
1383.72883	40970.1125
1387.19347	41146.2125
1390.65578	41193.5125
1394.11575	41499.1125
1397.57339	42410.4125
1401.0287	43752.5125
1404.48168	44777.8125
1407.93234	44748.6125
1411.38068	43388.8125
1414.82669	40996.5125
1418.27039	38192.5125
1421.71177	35639.9125
1425.15083	33549.0125
1428.58758	32431.8125
1432.02203	32380.7125
1435.45416	33340.8125
1438.88399	34777.6125
1442.31151	36057.3125
1445.73673	37197.5125
1449.15965	38290.9125
1452.58027	39142.0125
1455.9986	39612.5125
1459.41463	40012.3125
1462.82837	40691.3125
1466.23982	41374.5125
1469.64898	41781.1125
1473.05586	41808.8125
1476.46045	41451.0125
1479.86276	40798.0125
1483.26279	40089.6125
1486.66054	39649.0125
1490.05602	39725.8125
1493.44922	40117.9125
1496.84016	40680.5125
1500.22882	41617.3125
1503.61521	43212.8125
1506.99934	45115.8125
1510.38121	47027.4125
1513.76081	47793.6125
1517.13816	46944.6125
1520.51324	44979.1125
1523.88607	43000.1125
1527.25665	41886.3125
1530.62498	41455.6125
1533.99105	41139.3125
1537.35488	40767.5125
1540.71647	40015.5125
1544.07581	38711.3125
1547.4329	37347.4125
1550.78776	36150.0125
1554.14038	35337.3125
1557.49077	35036.5125
1560.83892	35003.2125
1564.18484	35131.2125
1567.52853	35287.0125
1570.86999	35647.9125
1574.20922	36548.4125
1577.54624	37498.5125
1580.88103	38094.5125
1584.2136	38795.0125
1587.54395	40304.5125
1590.87208	42871.8125
1594.19801	45899.6125
1597.52172	48512.1125
1600.84321	48680.0125
1604.16251	45411.7125
1607.47959	40442.5125
1610.79447	35544.6125
1614.10715	31327.4125
1617.41763	28090.2125
1620.7259	25883.9125
1624.03199	24807.6125
1627.33587	24781.9125
1630.63757	25975.7125
1633.93707	28476.3125
1637.23439	32483.2125
1640.52951	38208.3125
1643.82246	44616.0125
1647.11321	49676.6125
1650.40179	50670.0125
1653.68819	46819.1125
1656.97241	39686.5125
1660.25446	32187.0125
1663.53433	26378.5125
1666.81203	22580.3125
1670.08756	20225.6125
1673.36092	18724.4125
1676.63211	17797.1125
1679.90115	17180.2125
1683.16801	16682.5125
1686.43272	16347.1125
1689.69527	16116.2125
1692.95567	15953.0125
1696.2139	15804.7125
1699.46999	15701.5125
1702.72392	15605.9125
1705.97571	15559.2125
1709.22535	15471.3125
1712.47284	15382.0125
1715.71819	15304.6125
1718.96139	15264.8125
1722.20246	15167.3125
1725.44139	15058.3125
1728.67818	14911.7125
1731.91284	14773.5125
1735.14537	14663.9125
1738.37576	14591.3125
1741.60403	14512.7125
1744.83017	14470.1125
1748.05418	14410.8125
1751.27607	14344.4125
1754.49584	14310.7125
1757.71349	14321.7125
1760.92903	14280.7125
1764.14244	14252.6125
1767.35375	14241.5125
1770.56294	14187.5125
1773.77002	14143.3125
1776.97499	14086.4125
1780.17785	14039.2125
1783.37861	14057.2125
1786.57727	14015.4125
1789.77382	13959.2125
1792.96828	13941.0125
1796.16064	13896.5125
1799.3509	13888.9125
1802.53907	13867.4125
1805.72514	13814.0125
1808.90913	13803.0125
1812.09102	13723.1125
1815.27083	13689.3125
1818.44856	13708.4125
1821.6242	13691.9125
1824.79776	13699.0125
1827.96924	13673.3125
1831.13864	13670.8125
1834.30597	13689.9125
1837.47122	13714.3125
1840.6344	13770.2125
1843.7955	13800.6125
1846.95454	13802.0125
1850.11151	13779.7125
1853.26642	13797.6125
1856.41926	13781.0125
1859.57004	13778.9125
1862.71876	13778.9125
1865.86542	13771.5125
1869.01003	13778.0125
1872.15258	13780.4125
1875.29308	13791.3125
1878.43152	13790.3125
1881.56792	13820.9125
1884.70227	13817.5125
1887.83457	13807.0125
1890.96482	13790.5125
1894.09304	13779.6125
1897.21921	13754.1125
1900.34335	13786.3125
1903.46544	13764.8125
1906.58551	13761.3125
1909.70353	13689.2125
1912.81953	13671.4125
1915.93349	13619.2125
1919.04543	13555.5125
1922.15534	13512.1125
1925.26322	13450.1125
1928.36908	13377.1125
1931.47292	13301.8125
1934.57473	13250.6125
1937.67453	13148.2125
1940.77232	13107.9125
1943.86808	13061.7125
1946.96184	12984.7125
1950.05358	12893.9125
1953.14331	12843.7125
1956.23103	12794.3125
1959.31675	12747.8125
1962.40046	12709.8125
1965.48217	12663.6125
1968.56188	12612.6125
1971.63959	12554.5125
1974.7153	12542.6125
1977.78901	12497.4125
1980.86073	12464.7125
1983.93046	12441.4125
1986.99819	12376.7125
1990.06394	12359.2125
1993.1277	12307.6125
1996.18947	12262.2125
1999.24925	12222.9125
2002.30706	12143.8125
2005.36288	12106.9125
2008.41672	12076.9125
2011.46859	12056.3125
2014.51848	12007.0125
2017.56639	11975.4125
2020.61233	11919.5125
2023.6563	11884.9125
2026.6983	11921.9125
2029.73833	11882.8125
2032.7764	11854.3125
2035.8125	11856.6125
2038.84664	11859.4125
2041.87881	11819.1125
2044.90903	11789.3125
2047.93729	11781.7125
2050.96359	11768.4125
2053.98794	11748.4125
2057.01034	11740.0125
2060.03078	11718.3125
2063.04927	11685.8125
2066.06582	11702.7125
2069.08042	11689.3125
2072.09307	11707.9125
2075.10378	11669.5125
2078.11255	11667.5125
2081.11938	11700.8125
2084.12426	11672.2125
2087.12722	11642.7125
2090.12824	11621.5125
2093.12732	11639.2125
2096.12447	11661.2125
2099.11969	11667.5125
2102.11299	11661.3125
2105.10435	11630.7125
2108.09379	11655.5125
2111.08131	11669.4125
2114.0669	11613.8125
2117.05057	11654.9125
2120.03233	11669.0125
2123.01216	11639.3125
2125.99008	11659.1125
2128.96609	11657.7125
2131.94018	11690.5125
2134.91236	11660.4125
2137.88263	11657.9125
2140.851	11683.7125
2143.81746	11669.4125
2146.78201	11674.4125
2149.74466	11667.8125
2152.7054	11665.3125
2155.66425	11659.6125
2158.6212	11678.7125
2161.57625	11671.0125
2164.52941	11667.1125
2167.48067	11669.4125
2170.43004	11645.1125
2173.37752	11663.9125
2176.32311	11643.4125
2179.26681	11672.8125
2182.20863	11658.3125
2185.14856	11657.5125
2188.08661	11653.5125
2191.02278	11636.5125
2193.95707	11641.0125
2196.88948	11626.3125
2199.82001	11624.2125
2202.74867	11605.9125
2205.67545	11629.1125
2208.60037	11627.0125
2211.52341	11615.4125
2214.44458	11596.4125
2217.36388	11560.9125
2220.28132	11535.2125
2223.1969	11545.2125
2226.11061	11509.2125
2229.02246	11495.5125
2231.93245	11473.9125
2234.84058	11425.8125
2237.74686	11428.1125
2240.65128	11413.0125
2243.55385	11363.5125
2246.45456	11374.1125
2249.35343	11343.9125
2252.25044	11314.3125
2255.14561	11292.5125
2258.03893	11296.4125
2260.93041	11240.0125
2263.82004	11263.0125
2266.70783	11229.7125
2269.59378	11208.1125
2272.4779	11174.7125
2275.36017	11125.8125
2278.24061	11147.3125
2281.11922	11089.8125
2283.996	11096.3125
2286.87094	11078.8125
2289.74405	11061.3125
2292.61534	11008.1125
2295.4848	11016.8125
2298.35243	11024.0125
2301.21824	11023.4125
2304.08223	11008.5125
2306.94439	11034.1125
2309.80474	11061.1125
2312.66327	11059.8125
2315.51999	11056.3125
2318.37489	11042.0125
2321.22797	11017.0125
2324.07925	11028.8125
2326.92871	11017.9125
2329.77637	11008.5125
2332.62222	10999.8125
2335.46626	11012.8125
2338.3085	11020.7125
2341.14893	11021.5125
2343.98756	11033.7125
2346.8244	11067.5125
2349.65943	11052.2125
2352.49267	11031.4125
2355.32411	11058.0125
2358.15376	11049.8125
2360.98161	11049.5125
2363.80768	11050.1125
2366.63195	11043.9125
2369.45444	11026.7125
2372.27514	11033.3125
2375.09405	10989.0125
2377.91118	10958.0125
2380.72652	10933.5125
2383.54009	10923.9125
2386.35187	10905.4125
2389.16188	10844.1125
2391.97011	10804.0125
2394.77657	10804.4125
2397.58125	10795.6125
2400.38416	10782.7125
2403.18529	10760.3125
2405.98466	10749.0125
2408.78226	10717.5125
2411.57809	10694.2125
2414.37216	10702.6125
2417.16446	10671.9125
2419.955	10655.1125
2422.74378	10652.9125
2425.5308	10633.6125
2428.31606	10674.7125
2431.09956	10636.2125
2433.88131	10632.5125
2436.6613	10644.7125
2439.43954	10638.8125
2442.21603	10646.7125
2444.99077	10671.4125
2447.76377	10664.2125
2450.53501	10673.9125
2453.30451	10678.2125
2456.07226	10679.4125
2458.83827	10667.1125
2461.60254	10688.2125
2464.36507	10675.9125
2467.12586	10666.2125
2469.88492	10690.7125
2472.64224	10703.5125
2475.39782	10714.9125
2478.15167	10716.3125
2480.90379	10705.7125
2483.65417	10731.8125
2486.40283	10766.1125
2489.14976	10761.2125
2491.89497	10756.1125
2494.63845	10793.2125
2497.3802	10788.8125
2500.12024	10801.0125
2502.85855	10791.6125
2505.59514	10762.5125
2508.33002	10765.9125
2511.06318	10743.6125
2513.79462	10732.7125
2516.52435	10714.9125
2519.25237	10742.5125
2521.97867	10701.9125
2524.70327	10713.2125
2527.42616	10715.0125
2530.14734	10681.7125
2532.86681	10673.8125
2535.58458	10677.0125
2538.30065	10646.1125
2541.01501	10657.5125
2543.72768	10637.2125
2546.43864	10631.1125
2549.14791	10619.4125
2551.85548	10603.3125
2554.56136	10624.8125
2557.26554	10639.0125
2559.96803	10593.8125
2562.66883	10620.7125
2565.36794	10604.9125
2568.06536	10613.3125
2570.7611	10598.3125
2573.45514	10586.5125
2576.14751	10574.8125
2578.83819	10579.0125
2581.52719	10629.1125
2584.21451	10590.3125
2586.90015	10589.3125
2589.58411	10584.4125
2592.2664	10586.2125
2594.94701	10589.9125
2597.62594	10580.2125
2600.30321	10559.3125
2602.9788	10590.2125
2605.65273	10587.4125
2608.32498	10605.4125
2610.99557	10601.4125
2613.66449	10613.8125
2616.33175	10605.2125
2618.99734	10601.8125
2621.66128	10637.8125
2624.32355	10646.8125
2626.98416	10629.8125
2629.64311	10667.0125
2632.30041	10662.5125
2634.95605	10634.2125
2637.61004	10642.1125
2640.26238	10634.1125
2642.91306	10593.6125
2645.56209	10602.6125
2648.20948	10617.2125
2650.85521	10587.7125
2653.4993	10613.5125
2656.14175	10589.2125
2658.78255	10608.1125
2661.42171	10635.3125
2664.05923	10628.9125
2666.6951	10629.9125
2669.32934	10653.0125
2671.96194	10671.2125
2674.59291	10671.3125
2677.22224	10660.1125
2679.84993	10640.8125
2682.476	10664.5125
2685.10043	10631.0125
2687.72324	10646.3125
2690.34441	10608.9125
2692.96396	10612.8125
2695.58188	10630.4125
2698.19818	10625.9125
2700.81285	10605.6125
2703.4259	10603.3125
2706.03733	10631.3125
2708.64714	10631.4125
2711.25533	10640.1125
2713.86191	10643.9125
2716.46687	10663.0125
2719.07021	10667.0125
2721.67194	10656.9125
2724.27206	10650.0125
2726.87057	10655.7125
2729.46747	10656.0125
2732.06276	10677.2125
2734.65644	10692.1125
2737.24852	10692.4125
2739.83899	10677.0125
2742.42786	10713.6125
2745.01513	10660.3125
2747.60079	10697.7125
2750.18486	10691.2125
2752.76733	10685.6125
2755.3482	10677.3125
2757.92747	10716.5125
2760.50515	10684.1125
2763.08123	10686.0125
2765.65573	10698.6125
2768.22863	10669.7125
2770.79994	10697.4125
2773.36967	10713.3125
2775.9378	10705.0125
2778.50435	10723.9125
2781.06932	10689.8125
2783.6327	10704.0125
2786.1945	10706.1125
2788.75471	10709.5125
2791.31335	10667.2125
2793.87041	10694.6125
2796.42589	10661.6125
2798.97979	10678.3125
2801.53212	10654.2125
2804.08288	10654.8125
2806.63206	10607.2125
2809.17967	10604.1125
2811.72571	10571.2125
2814.27018	10606.6125
2816.81308	10604.1125
2819.35442	10571.1125
2821.89419	10561.9125
2824.43239	10545.9125
2826.96904	10543.4125
2829.50412	10561.9125
2832.03763	10516.7125
2834.56959	10516.6125
2837.1	10512.5125
2839.62884	10535.6125
2842.15613	10549.6125
2844.68186	10611.1125
2847.20604	10641.7125
2849.72867	10652.8125
2852.24974	10664.9125
2854.76927	10668.1125
2857.28724	10634.9125
2859.80367	10640.9125
2862.31855	10602.8125
2864.83189	10618.1125
2867.34368	10611.7125
2869.85393	10643.5125
2872.36264	10643.7125
2874.8698	10639.7125
2877.37543	10666.5125
2879.87952	10681.0125
2882.38207	10715.9125
2884.88308	10677.2125
2887.38256	10745.3125
2889.88051	10693.5125
2892.37692	10701.7125
2894.8718	10702.3125
2897.36515	10730.0125
2899.85698	10722.2125
2902.34727	10764.6125
2904.83604	10779.0125
2907.32328	10793.9125
2909.809	10791.6125
2912.29319	10806.8125
2914.77587	10803.2125
2917.25702	10783.8125
2919.73665	10806.6125
2922.21476	10800.5125
2924.69136	10793.1125
2927.16644	10737.0125
2929.64	10747.3125
2932.11205	10732.6125
2934.58258	10710.0125
2937.05161	10722.3125
2939.51912	10685.3125
2941.98513	10674.5125
2944.44962	10636.2125
2946.91261	10558.2125
2949.37409	10553.8125
2951.83407	10544.9125
2954.29254	10515.0125
2956.74951	10478.4125
2959.20498	10459.6125
2961.65895	10431.6125
2964.11142	10421.7125
2966.56239	10383.6125
2969.01186	10384.7125
2971.45984	10336.8125
2973.90632	10279.2125
2976.35131	10249.9125
2978.7948	10231.5125
2981.23681	10210.7125
2983.67732	10164.8125
2986.11635	10135.9125
2988.55388	10125.3125
2990.98993	10079.9125
2993.4245	10068.5125
2995.85758	10014.6125
2998.28917	10001.0125
3000.71928	9986.4125
3003.14791	9980.4125
3005.57506	9978.5125
3008.00073	9921.7125
3010.42493	9902.6125
3012.84764	9889.0125
3015.26888	9891.7125
3017.68865	9857.4125
3020.10694	9827.5125
3022.52376	9824.5125
3024.9391	9797.0125
