Data from AgNPs_FTO_APTES_UA_2uM_CRN_10uM_R6G_10uM_NaF_0.1M_Addition_RamanShift__29__13-51-55-175.txt Node

Date: Wed Feb 02 13:51:55 GMT 2022
User: TCL
Spectrometer: QEP01345
Trigger mode: 4
Integration Time (sec): 7.000000E0
Scans to average: 10
Electric dark correction enabled: true
Nonlinearity correction enabled: false
Boxcar width: 0
XAxis mode: Raman Shifts
Number of Pixels in Spectrum: 1044
>>>>>Begin Spectral Data<<<<<
46.04893	2.075
50.45542	0.575
54.85868	-1.125
59.25871	-0.525
63.6555	57.175
68.04907	63.875
72.43941	65.675
76.82654	71.775
81.21044	74.975
85.59113	77.975
89.96862	82.875
94.34289	84.775
98.71396	84.675
103.08183	90.975
107.4465	88.875
111.80798	93.575
116.16626	94.375
120.52136	98.375
124.87327	100.875
129.222	99.975
133.56755	108.075
137.90993	115.475
142.24913	126.075
146.58517	133.175
150.91804	151.675
155.24774	179.975
159.57429	220.475
163.89768	272.275
168.21792	353.475
172.53501	483.175
176.84895	656.175
181.15975	916.875
185.46741	1275.775
189.77193	1756.175
194.07331	2348.775
198.37157	2986.475
202.6667	3690.875
206.9587	4391.575
211.24758	5095.575
215.53334	5804.775
219.81599	6601.375
224.09553	7513.875
228.37195	8550.575
232.64527	9649.575
236.91549	10746.175
241.18261	11743.475
245.44663	12591.575
249.70755	13229.075
253.96539	13827.575
258.22014	14320.575
262.4718	14823.675
266.72039	15189.775
270.96589	15417.675
275.20832	15475.275
279.44768	15449.075
283.68397	15371.275
287.91719	15325.275
292.14735	15450.675
296.37445	15700.975
300.59849	16114.375
304.81948	16641.775
309.03742	17057.875
313.25231	17015.575
317.46415	16263.275
321.67296	15012.775
325.87872	13948.175
330.08145	13448.475
334.28114	13382.075
338.47781	13574.075
342.67145	13928.975
346.86207	14454.075
351.04966	15302.575
355.23424	16248.875
359.4158	16946.675
363.59435	17208.975
367.76989	17204.675
371.94243	17059.275
376.11196	16882.475
380.27849	16764.075
384.44203	16529.075
388.60257	16356.375
392.76012	16330.875
396.91468	16546.675
401.06626	17059.675
405.21485	17432.575
409.36047	17189.175
413.50311	16356.075
417.64277	15596.475
421.77947	15187.475
425.9132	14982.575
430.04396	14989.575
434.17176	15040.475
438.2966	15177.775
442.41849	15479.975
446.53742	15896.175
450.6534	16309.575
454.76644	16592.575
458.87653	16647.075
462.98368	16562.675
467.08789	16334.975
471.18916	15965.675
475.2875	15550.175
479.38291	15266.675
483.4754	15055.875
487.56496	14801.175
491.6516	14702.075
495.73531	14681.075
499.81612	14750.475
503.89401	14898.575
507.96899	15042.875
512.04106	15152.375
516.11023	15254.675
520.1765	15313.375
524.23987	15241.375
528.30034	14922.875
532.35792	14603.875
536.41261	14259.175
540.46441	13950.075
544.51333	13882.475
548.55936	14068.275
552.60252	14442.775
556.64279	14850.575
560.6802	15065.175
564.71473	15307.975
568.7464	15934.275
572.7752	16375.775
576.80114	16179.375
580.82422	15822.075
584.84444	15657.275
588.86181	15480.575
592.87633	15340.175
596.888	15499.675
600.89682	16045.775
604.9028	17886.275
608.90594	22540.475
612.90624	28390.575
616.90371	27135.475
620.89834	19155.475
624.89015	15290.075
628.87913	14572.075
632.86528	14659.575
636.84862	14904.975
640.82913	14667.875
644.80683	14009.375
648.78172	13554.375
652.75379	13618.275
656.72306	14231.775
660.68952	14948.775
664.65319	14834.375
668.61405	14154.775
672.57211	13774.875
676.52738	13731.975
680.47986	13721.675
684.42955	13592.575
688.37646	13523.475
692.32058	13586.875
696.26192	13760.675
700.20048	13974.275
704.13626	14212.375
708.06928	14211.975
711.99952	14069.175
715.927	13941.475
719.85171	13922.775
723.77365	13846.475
727.69284	13646.875
731.60928	13441.675
735.52295	13420.875
739.43388	13457.275
743.34206	13549.075
747.24749	13652.575
751.15017	13821.375
755.05012	14190.575
758.94733	14967.575
762.8418	16646.475
766.73354	19467.675
770.62254	22301.375
774.50882	23435.575
778.39237	22155.675
782.27321	19209.575
786.15132	16404.575
790.02671	14711.775
793.89938	13964.475
797.76935	13602.575
801.6366	13464.775
805.50115	13351.975
809.36299	13260.575
813.22213	13165.675
817.07857	13116.275
820.93231	13118.175
824.78336	13153.975
828.63172	13242.275
832.47738	13268.475
836.32036	13219.675
840.16066	13134.975
843.99827	13047.975
847.8332	12988.375
851.66546	12981.575
855.49504	12982.875
859.32195	12947.175
863.1462	12834.475
866.96777	12814.275
870.78668	12755.575
874.60293	12778.475
878.41652	12829.875
882.22745	12880.375
886.03573	12924.375
889.84136	12920.675
893.64433	12841.675
897.44466	12797.475
901.24235	12800.875
905.0374	12791.475
908.8298	12759.875
912.61957	12767.675
916.40671	12890.875
920.19121	13054.575
923.97308	13202.875
927.75233	13290.275
931.52895	13309.575
935.30295	13117.975
939.07433	12695.975
942.84309	12360.075
946.60924	12161.175
950.37278	12038.575
954.13371	11992.975
957.89203	11947.275
961.64774	11896.975
965.40086	11875.075
969.15137	11835.275
972.89929	11773.175
976.64461	11768.175
980.38733	11743.875
984.12747	11774.475
987.86502	11815.475
991.59999	11931.775
995.33237	12075.775
999.06217	12371.975
1002.78939	12751.975
1006.51404	13116.575
1010.23611	13437.075
1013.95561	13633.875
1017.67255	13610.575
1021.38692	13379.375
1025.09872	13153.475
1028.80796	12992.175
1032.51465	13039.975
1036.21877	13253.475
1039.92035	13438.375
1043.61937	13478.575
1047.31584	13403.675
1051.00976	13297.075
1054.70114	13244.075
1058.38998	13256.075
1062.07627	13394.075
1065.76003	13557.175
1069.44126	13720.475
1073.11995	13905.275
1076.79611	14069.175
1080.46974	14221.575
1084.14085	14508.475
1087.80943	14877.175
1091.47549	15079.175
1095.13903	14857.675
1098.80005	14365.675
1102.45857	13829.875
1106.11456	13480.075
1109.76805	13437.875
1113.41903	13613.375
1117.06751	13977.775
1120.71348	14573.575
1124.35696	15188.175
1127.99793	15774.175
1131.63641	15758.275
1135.2724	15113.575
1138.90589	14498.375
1142.5369	14111.975
1146.16542	13870.475
1149.79145	13740.175
1153.415	13797.875
1157.03607	14008.675
1160.65467	14340.875
1164.27079	14914.375
1167.88443	15757.975
1171.49561	17046.275
1175.10432	19213.575
1178.71056	21972.175
1182.31434	23898.475
1185.91565	24410.475
1189.51451	23918.075
1193.11091	22704.775
1196.70485	21058.975
1200.29634	19704.375
1203.88538	18606.175
1207.47197	17398.275
1211.05612	16407.975
1214.63782	15850.575
1218.21708	15727.675
1221.79391	15751.375
1225.36829	15943.575
1228.94024	16178.575
1232.50976	16442.075
1236.07685	16572.775
1239.6415	16481.275
1243.20374	16371.975
1246.76355	16397.675
1250.32093	16573.775
1253.8759	16895.675
1257.42845	17435.975
1260.97859	18032.275
1264.52631	18592.075
1268.07163	19092.975
1271.61453	19696.475
1275.15503	20139.875
1278.69312	20405.775
1282.22882	20671.775
1285.76211	21154.675
1289.29301	21828.475
1292.82151	22457.375
1296.34761	23119.875
1299.87133	24099.175
1303.39266	25721.275
1306.9116	28324.475
1310.42815	31511.875
1313.94233	33712.775
1317.45412	33717.675
1320.96354	32197.975
1324.47058	30177.075
1327.97525	28454.975
1331.47754	27316.275
1334.97747	26759.575
1338.47502	26702.575
1341.97022	26919.675
1345.46305	27393.275
1348.95352	28180.475
1352.44163	29413.775
1355.92738	31567.275
1359.41078	35283.675
1362.89183	39097.475
1366.37053	38547.275
1369.84688	33453.275
1373.32088	28052.475
1376.79254	24615.775
1380.26186	22910.875
1383.72883	21957.175
1387.19347	21170.875
1390.65578	20419.575
1394.11575	19773.375
1397.57339	19526.075
1401.0287	19633.675
1404.48168	19944.175
1407.93234	20315.675
1411.38068	20580.675
1414.82669	20426.975
1418.27039	19921.575
1421.71177	19322.775
1425.15083	18802.175
1428.58758	18444.475
1432.02203	18356.675
1435.45416	18421.575
1438.88399	18534.575
1442.31151	18544.575
1445.73673	18629.075
1449.15965	18791.375
1452.58027	18797.775
1455.9986	18711.975
1459.41463	18665.175
1462.82837	18894.275
1466.23982	19284.275
1469.64898	19686.275
1473.05586	20020.575
1476.46045	20276.375
1479.86276	20579.675
1483.26279	21026.375
1486.66054	21522.275
1490.05602	22210.775
1493.44922	23162.475
1496.84016	24532.275
1500.22882	26598.075
1503.61521	29242.675
1506.99934	32250.675
1510.38121	35226.475
1513.76081	36899.675
1517.13816	35773.675
1520.51324	32213.375
1523.88607	28369.075
1527.25665	25613.775
1530.62498	23879.475
1533.99105	22802.775
1537.35488	22056.375
1540.71647	21520.775
1544.07581	21119.675
1547.4329	20882.375
1550.78776	20617.075
1554.14038	20489.675
1557.49077	20684.175
1560.83892	21033.675
1564.18484	21639.375
1567.52853	22134.375
1570.86999	22531.675
1574.20922	22756.075
1577.54624	22592.375
1580.88103	21667.875
1584.2136	20464.575
1587.54395	20042.975
1590.87208	20489.075
1594.19801	21699.675
1597.52172	23054.275
1600.84321	23529.475
1604.16251	22565.075
1607.47959	20974.475
1610.79447	19320.675
1614.10715	17777.875
1617.41763	16573.675
1620.7259	15812.575
1624.03199	15401.275
1627.33587	15432.075
1630.63757	15808.675
1633.93707	16648.575
1637.23439	18065.375
1640.52951	19780.175
1643.82246	21947.275
1647.11321	24202.075
1650.40179	25776.175
1653.68819	25228.475
1656.97241	22288.075
1660.25446	18675.775
1663.53433	15914.675
1666.81203	14198.875
1670.08756	13188.275
1673.36092	12576.675
1676.63211	12194.375
1679.90115	11914.675
1683.16801	11702.175
1686.43272	11552.975
1689.69527	11443.875
1692.95567	11362.475
1696.2139	11325.375
1699.46999	11288.375
1702.72392	11262.775
1705.97571	11211.375
1709.22535	11163.075
1712.47284	11164.775
1715.71819	11168.575
1718.96139	11175.075
1722.20246	11132.075
1725.44139	11085.475
1728.67818	11007.675
1731.91284	10922.075
1735.14537	10826.675
1738.37576	10780.475
1741.60403	10690.175
1744.83017	10655.175
1748.05418	10618.475
1751.27607	10633.675
1754.49584	10593.975
1757.71349	10577.975
1760.92903	10566.275
1764.14244	10544.075
1767.35375	10530.875
1770.56294	10504.175
1773.77002	10454.675
1776.97499	10423.475
1780.17785	10383.075
1783.37861	10344.875
1786.57727	10333.275
1789.77382	10289.475
1792.96828	10286.975
1796.16064	10257.275
1799.3509	10247.175
1802.53907	10228.875
1805.72514	10189.575
1808.90913	10169.775
1812.09102	10130.375
1815.27083	10103.675
1818.44856	10089.275
1821.6242	10068.275
1824.79776	10083.675
1827.96924	10048.675
1831.13864	10047.175
1834.30597	10048.875
1837.47122	10034.275
1840.6344	10024.475
1843.7955	10027.375
1846.95454	10033.275
1850.11151	10018.675
1853.26642	10047.875
1856.41926	10018.875
1859.57004	10046.775
1862.71876	10023.475
1865.86542	10057.275
1869.01003	10064.575
1872.15258	10056.775
1875.29308	10080.775
1878.43152	10091.675
1881.56792	10100.675
1884.70227	10124.875
1887.83457	10147.575
1890.96482	10140.975
1894.09304	10191.375
1897.21921	10177.775
1900.34335	10163.375
1903.46544	10192.275
1906.58551	10204.075
1909.70353	10209.475
1912.81953	10225.675
1915.93349	10234.375
1919.04543	10221.075
1922.15534	10204.475
1925.26322	10198.675
1928.36908	10138.875
1931.47292	10066.575
1934.57473	10013.875
1937.67453	9922.575
1940.77232	9824.075
1943.86808	9768.975
1946.96184	9703.475
1950.05358	9669.975
1953.14331	9596.875
1956.23103	9546.175
1959.31675	9512.275
1962.40046	9461.375
1965.48217	9450.775
1968.56188	9401.475
1971.63959	9376.075
1974.7153	9362.575
1977.78901	9328.775
1980.86073	9270.775
1983.93046	9248.475
1986.99819	9192.075
1990.06394	9186.775
1993.1277	9143.475
1996.18947	9101.175
1999.24925	9072.075
2002.30706	9045.475
2005.36288	9016.875
2008.41672	8993.675
2011.46859	8976.575
2014.51848	8933.175
2017.56639	8890.675
2020.61233	8898.875
2023.6563	8863.675
2026.6983	8836.775
2029.73833	8826.475
2032.7764	8817.475
2035.8125	8763.175
2038.84664	8734.375
2041.87881	8734.275
2044.90903	8704.075
2047.93729	8713.375
2050.96359	8683.175
2053.98794	8665.775
2057.01034	8681.675
2060.03078	8651.475
2063.04927	8615.775
2066.06582	8642.575
2069.08042	8620.375
2072.09307	8603.475
2075.10378	8588.775
2078.11255	8575.075
2081.11938	8581.875
2084.12426	8561.975
2087.12722	8557.375
2090.12824	8579.375
2093.12732	8561.075
2096.12447	8570.275
2099.11969	8572.375
2102.11299	8546.975
2105.10435	8562.275
2108.09379	8553.875
2111.08131	8559.275
2114.0669	8581.375
2117.05057	8567.075
2120.03233	8575.575
2123.01216	8575.575
2125.99008	8582.375
2128.96609	8599.975
2131.94018	8592.275
2134.91236	8603.875
2137.88263	8593.975
2140.851	8599.475
2143.81746	8611.675
2146.78201	8598.575
2149.74466	8579.075
2152.7054	8563.875
2155.66425	8559.475
2158.6212	8564.675
2161.57625	8543.275
2164.52941	8560.975
2167.48067	8556.775
2170.43004	8541.875
2173.37752	8522.375
2176.32311	8522.475
2179.26681	8521.475
2182.20863	8506.275
2185.14856	8532.075
2188.08661	8538.275
2191.02278	8519.175
2193.95707	8509.775
2196.88948	8504.375
2199.82001	8481.975
2202.74867	8496.375
2205.67545	8463.275
2208.60037	8468.075
2211.52341	8451.875
2214.44458	8431.275
2217.36388	8412.975
2220.28132	8407.075
2223.1969	8350.075
2226.11061	8364.475
2229.02246	8333.075
2231.93245	8311.275
2234.84058	8300.475
2237.74686	8292.875
2240.65128	8268.475
2243.55385	8269.075
2246.45456	8259.475
2249.35343	8276.575
2252.25044	8263.175
2255.14561	8235.575
2258.03893	8230.575
2260.93041	8237.475
2263.82004	8213.575
2266.70783	8187.975
2269.59378	8139.475
2272.4779	8146.975
2275.36017	8118.875
2278.24061	8119.775
2281.11922	8088.875
2283.996	8058.075
2286.87094	8045.275
2289.74405	8021.275
2292.61534	8014.575
2295.4848	7995.275
2298.35243	8013.775
2301.21824	7978.375
2304.08223	7987.175
2306.94439	7976.075
2309.80474	7970.375
2312.66327	7974.675
2315.51999	7955.175
2318.37489	7972.475
2321.22797	7940.075
2324.07925	7937.275
2326.92871	7918.175
2329.77637	7896.875
2332.62222	7913.775
2335.46626	7908.475
2338.3085	7888.375
2341.14893	7887.075
2343.98756	7892.775
2346.8244	7885.675
2349.65943	7895.475
2352.49267	7865.275
2355.32411	7902.775
2358.15376	7916.475
2360.98161	7913.475
2363.80768	7923.875
2366.63195	7923.775
2369.45444	7892.375
2372.27514	7913.275
2375.09405	7895.275
2377.91118	7869.975
2380.72652	7858.075
2383.54009	7811.675
2386.35187	7775.075
2389.16188	7747.975
2391.97011	7723.875
2394.77657	7703.075
2397.58125	7676.975
2400.38416	7657.675
2403.18529	7655.675
2405.98466	7644.175
2408.78226	7622.475
2411.57809	7606.475
2414.37216	7614.675
2417.16446	7606.275
2419.955	7591.775
2422.74378	7571.275
2425.5308	7580.275
2428.31606	7568.075
2431.09956	7558.875
2433.88131	7545.375
2436.6613	7547.575
2439.43954	7547.675
2442.21603	7544.675
2444.99077	7531.575
2447.76377	7533.175
2450.53501	7533.875
2453.30451	7526.375
2456.07226	7522.975
2458.83827	7534.475
2461.60254	7530.775
2464.36507	7530.775
2467.12586	7515.875
2469.88492	7512.875
2472.64224	7518.275
2475.39782	7523.675
2478.15167	7534.375
2480.90379	7538.575
2483.65417	7512.275
2486.40283	7539.975
2489.14976	7556.875
2491.89497	7558.275
2494.63845	7594.475
2497.3802	7585.275
2500.12024	7567.775
2502.85855	7576.775
2505.59514	7544.875
2508.33002	7534.675
2511.06318	7527.575
2513.79462	7464.575
2516.52435	7464.575
2519.25237	7435.875
2521.97867	7401.375
2524.70327	7407.375
2527.42616	7373.375
2530.14734	7371.275
2532.86681	7347.875
2535.58458	7353.175
2538.30065	7346.075
2541.01501	7348.675
2543.72768	7336.475
2546.43864	7330.475
2549.14791	7329.375
2551.85548	7318.475
2554.56136	7326.475
2557.26554	7307.475
2559.96803	7301.475
2562.66883	7263.675
2565.36794	7265.375
2568.06536	7266.575
2570.7611	7246.075
2573.45514	7230.475
2576.14751	7228.775
2578.83819	7227.675
2581.52719	7235.275
2584.21451	7213.875
2586.90015	7186.175
2589.58411	7186.175
2592.2664	7183.175
2594.94701	7175.875
2597.62594	7176.975
2600.30321	7163.975
2602.9788	7176.275
2605.65273	7150.975
2608.32498	7158.275
2610.99557	7156.775
2613.66449	7163.875
2616.33175	7138.275
2618.99734	7155.875
2621.66128	7145.375
2624.32355	7128.275
2626.98416	7141.375
2629.64311	7122.575
2632.30041	7102.275
2634.95605	7106.775
2637.61004	7113.575
2640.26238	7088.675
2642.91306	7050.375
2645.56209	7049.775
2648.20948	7074.175
2650.85521	7054.475
2653.4993	7052.675
2656.14175	7043.875
2658.78255	7049.675
2661.42171	7038.575
2664.05923	7070.975
2666.6951	7066.375
2669.32934	7086.275
2671.96194	7085.875
2674.59291	7087.475
2677.22224	7109.575
2679.84993	7097.775
2682.476	7082.375
2685.10043	7084.475
2687.72324	7088.475
2690.34441	7098.875
2692.96396	7077.275
2695.58188	7090.875
2698.19818	7084.975
2700.81285	7085.575
2703.4259	7093.575
2706.03733	7128.875
2708.64714	7111.075
2711.25533	7123.975
2713.86191	7074.775
2716.46687	7107.675
2719.07021	7098.375
2721.67194	7114.975
2724.27206	7093.275
2726.87057	7086.875
2729.46747	7084.675
2732.06276	7096.275
2734.65644	7079.175
2737.24852	7083.975
2739.83899	7059.975
2742.42786	7068.575
2745.01513	7038.875
2747.60079	7029.775
2750.18486	7043.575
2752.76733	7032.475
2755.3482	7021.175
2757.92747	7016.475
2760.50515	7005.875
2763.08123	7006.875
2765.65573	6988.375
2768.22863	6977.575
2770.79994	6970.975
2773.36967	6972.075
2775.9378	6985.275
2778.50435	6961.875
2781.06932	6959.075
2783.6327	6953.075
2786.1945	6942.475
2788.75471	6966.175
2791.31335	6940.075
2793.87041	6935.775
2796.42589	6920.275
2798.97979	6949.475
2801.53212	6919.875
2804.08288	6910.375
2806.63206	6908.875
2809.17967	6874.175
2811.72571	6900.775
2814.27018	6908.275
2816.81308	6902.575
2819.35442	6918.475
2821.89419	6904.875
2824.43239	6912.075
2826.96904	6934.875
2829.50412	6925.575
2832.03763	6925.275
2834.56959	6948.875
2837.1	6921.975
2839.62884	6968.575
2842.15613	6989.175
2844.68186	7061.175
2847.20604	7133.075
2849.72867	7190.675
2852.24974	7216.875
2854.76927	7208.275
2857.28724	7213.375
2859.80367	7178.775
2862.31855	7156.775
2864.83189	7122.775
2867.34368	7123.175
2869.85393	7109.975
2872.36264	7105.475
2874.8698	7100.775
2877.37543	7099.175
2879.87952	7089.575
2882.38207	7069.975
2884.88308	7088.475
2887.38256	7077.275
2889.88051	7078.975
2892.37692	7080.875
2894.8718	7064.075
2897.36515	7069.275
2899.85698	7073.475
2902.34727	7094.575
2904.83604	7094.075
2907.32328	7107.675
2909.809	7093.675
2912.29319	7088.075
2914.77587	7071.575
2917.25702	7063.875
2919.73665	7073.475
2922.21476	7060.375
2924.69136	7063.875
2927.16644	7047.675
2929.64	7041.275
2932.11205	7012.775
2934.58258	6998.175
2937.05161	6977.275
2939.51912	6953.075
2941.98513	6914.875
2944.44962	6864.275
2946.91261	6811.375
2949.37409	6801.275
2951.83407	6751.775
2954.29254	6741.975
2956.74951	6718.175
2959.20498	6705.175
2961.65895	6666.175
2964.11142	6669.375
2966.56239	6632.075
2969.01186	6608.775
2971.45984	6592.775
2973.90632	6575.575
2976.35131	6528.475
2978.7948	6513.575
2981.23681	6508.875
2983.67732	6501.875
2986.11635	6452.075
2988.55388	6430.075
2990.98993	6427.275
2993.4245	6405.775
2995.85758	6379.175
2998.28917	6362.275
3000.71928	6362.175
3003.14791	6347.175
3005.57506	6326.675
3008.00073	6336.775
3010.42493	6295.775
3012.84764	6309.575
3015.26888	6295.175
3017.68865	6277.375
3020.10694	6270.475
3022.52376	6245.075
3024.9391	6231.575
3027.35298	6220.775
3029.76539	6217.675
3032.17632	6190.875
3034.5858	6166.475
3036.9938	6174.875
3039.40034	6167.675
3041.80542	6167.775
3044.20903	6137.075
3046.61118	6146.375
3049.01187	6120.275
3051.4111	6100.175
3053.80888	6119.275
3056.20519	6087.275
3058.60005	6075.275
3060.99345	6066.675
3063.3854	6048.775
3065.7759	6055.675
3068.16494	6031.575
3070.55254	6000.975
3072.93868	5985.275
3075.32338	5971.975
3077.70662	5971.375
3080.08842	5927.375
3082.46878	5921.775
3084.84769	5909.875
3087.22515	5889.675
3089.60118	5883.475
3091.97576	5875.475
3094.3489	5880.075
3096.72061	5857.175
3099.09087	5839.875
3101.4597	5848.075
3103.82709	5838.475
3106.19305	5818.275
3108.55757	5825.675
3110.92066	5796.875
3113.28232	5781.075
3115.64255	5781.475
3118.00134	5761.275
3120.35871	5759.475
3122.71466	5742.375
3125.06917	5739.975
3127.42226	5724.775
3129.77393	5733.075
3132.12417	5725.275
3134.47299	5718.675
3136.82039	5740.975
3139.16636	5728.375
3141.51092	5731.475
3143.85406	5732.975
3146.19579	5736.075
3148.53609	5740.875
3150.87499	5741.775
3153.21246	5738.575
3155.54853	5746.075
3157.88318	5728.975
3160.21642	5734.475
3162.54826	5738.875
3164.87868	5727.675
3167.2077	5732.975
3169.5353	5727.675
3171.86151	5719.575
3174.18631	5718.375
3176.5097	5718.975
3178.83169	5713.775
3181.15228	5728.375
