Data from AgNPs_FTO_APTES_UA_2uM_CRN_50uM_R6G_10uM_NaF_0.1M_Addition_RamanShift__13__14-51-25-245.txt Node

Date: Wed Feb 02 14:51:25 GMT 2022
User: TCL
Spectrometer: QEP01345
Trigger mode: 4
Integration Time (sec): 7.000000E0
Scans to average: 10
Electric dark correction enabled: true
Nonlinearity correction enabled: false
Boxcar width: 0
XAxis mode: Raman Shifts
Number of Pixels in Spectrum: 1044
>>>>>Begin Spectral Data<<<<<
46.04893	0.225
50.45542	-0.475
54.85868	-1.175
59.25871	-1.175
63.6555	84.825
68.04907	90.225
72.43941	96.225
76.82654	103.325
81.21044	107.125
85.59113	112.325
89.96862	115.025
94.34289	119.725
98.71396	120.525
103.08183	125.925
107.4465	131.325
111.80798	136.225
116.16626	135.525
120.52136	141.725
124.87327	147.525
129.222	151.025
133.56755	167.425
137.90993	176.025
142.24913	193.125
146.58517	214.825
150.91804	249.825
155.24774	297.125
159.57429	365.225
163.89768	464.325
168.21792	614.925
172.53501	840.125
176.84895	1168.525
181.15975	1635.425
185.46741	2300.825
189.77193	3165.625
194.07331	4259.625
198.37157	5491.825
202.6667	6813.825
206.9587	8111.325
211.24758	9370.125
215.53334	10627.225
219.81599	11951.825
224.09553	13414.125
228.37195	14977.325
232.64527	16730.925
236.91549	18532.225
241.18261	20398.925
245.44663	22204.025
249.70755	23838.125
253.96539	25249.425
258.22014	26404.125
262.4718	27384.425
266.72039	28031.925
270.96589	28394.325
275.20832	28567.325
279.44768	28502.325
283.68397	28363.125
287.91719	28299.425
292.14735	28197.325
296.37445	28228.425
300.59849	28326.025
304.81948	28401.225
309.03742	28292.325
313.25231	27985.625
317.46415	27416.625
321.67296	26655.225
325.87872	26032.025
330.08145	25712.725
334.28114	25678.925
338.47781	25757.425
342.67145	25997.425
346.86207	26248.125
351.04966	26544.625
355.23424	26816.325
359.4158	27041.925
363.59435	27247.425
367.76989	27382.925
371.94243	27533.925
376.11196	27579.925
380.27849	27558.525
384.44203	27564.025
388.60257	27777.525
392.76012	28086.425
396.91468	28557.525
401.06626	29028.625
405.21485	29355.625
409.36047	29281.825
413.50311	28926.325
417.64277	28675.525
421.77947	28645.325
425.9132	28751.825
430.04396	28924.025
434.17176	29087.225
438.2966	29157.725
442.41849	29435.225
446.53742	29914.425
450.6534	30501.525
454.76644	30909.525
458.87653	31143.525
462.98368	31224.425
467.08789	31211.125
471.18916	31103.125
475.2875	30921.625
479.38291	30924.025
483.4754	30824.025
487.56496	30637.825
491.6516	30223.525
495.73531	29767.425
499.81612	29418.125
503.89401	29411.025
507.96899	29499.425
512.04106	29503.825
516.11023	29447.025
520.1765	29207.725
524.23987	28866.425
528.30034	28470.825
532.35792	28228.925
536.41261	27989.925
540.46441	27831.425
544.51333	27953.225
548.55936	28340.525
552.60252	28939.025
556.64279	29545.225
560.6802	29967.025
564.71473	30360.925
568.7464	30949.625
572.7752	31985.525
576.80114	33231.425
580.82422	34279.125
584.84444	34874.325
588.86181	35055.625
592.87633	35113.925
596.888	34836.525
600.89682	34066.125
604.9028	33974.825
608.90594	35073.525
612.90624	36197.225
616.90371	34072.425
620.89834	30099.225
624.89015	28386.525
628.87913	28333.425
632.86528	28682.325
636.84862	28770.325
640.82913	28404.425
644.80683	27839.325
648.78172	27365.325
652.75379	27211.025
656.72306	27271.025
660.68952	27609.425
664.65319	27603.225
668.61405	27408.725
672.57211	27341.325
676.52738	27351.325
680.47986	27350.625
684.42955	27227.125
688.37646	27143.925
692.32058	27202.825
696.26192	27434.825
700.20048	27680.025
704.13626	27978.425
708.06928	28211.325
711.99952	28171.525
715.927	28038.025
719.85171	27873.425
723.77365	27640.425
727.69284	27272.425
731.60928	26972.825
735.52295	26734.725
739.43388	26635.225
743.34206	26621.225
747.24749	26761.925
751.15017	27076.925
755.05012	27588.225
758.94733	28273.625
762.8418	29556.425
766.73354	31334.325
770.62254	32901.925
774.50882	32855.825
778.39237	31465.925
782.27321	29682.425
786.15132	28265.925
790.02671	27326.225
793.89938	26717.425
797.76935	26417.825
801.6366	26283.525
805.50115	26231.725
809.36299	26123.625
813.22213	26032.525
817.07857	25984.125
820.93231	25985.125
824.78336	25910.125
828.63172	25832.925
832.47738	25688.425
836.32036	25638.725
840.16066	25550.025
843.99827	25556.925
847.8332	25508.025
851.66546	25527.925
855.49504	25582.025
859.32195	25559.825
863.1462	25477.425
866.96777	25413.325
870.78668	25388.025
874.60293	25344.025
878.41652	25376.625
882.22745	25427.125
886.03573	25476.025
889.84136	25472.725
893.64433	25403.425
897.44466	25372.025
901.24235	25341.125
905.0374	25354.425
908.8298	25339.825
912.61957	25515.725
916.40671	25793.225
920.19121	26169.425
923.97308	26395.025
927.75233	26252.925
931.52895	25885.325
935.30295	25446.325
939.07433	25024.325
942.84309	24667.525
946.60924	24412.125
950.37278	24273.625
954.13371	24249.625
957.89203	24259.925
961.64774	24276.625
965.40086	24338.725
969.15137	24232.125
972.89929	24062.525
976.64461	23955.925
980.38733	23916.325
984.12747	23862.425
987.86502	23948.125
991.59999	23991.625
995.33237	24104.425
999.06217	24270.925
1002.78939	24576.225
1006.51404	24814.025
1010.23611	25129.825
1013.95561	25366.525
1017.67255	25388.425
1021.38692	25289.625
1025.09872	25039.225
1028.80796	24828.525
1032.51465	24714.225
1036.21877	24755.525
1039.92035	24913.325
1043.61937	25025.425
1047.31584	25161.025
1051.00976	25332.425
1054.70114	25477.325
1058.38998	25747.825
1062.07627	26193.925
1065.76003	26609.325
1069.44126	27015.925
1073.11995	27373.925
1076.79611	27620.625
1080.46974	27677.525
1084.14085	27738.825
1087.80943	27884.625
1091.47549	28109.325
1095.13903	28302.225
1098.80005	28130.325
1102.45857	27449.625
1106.11456	26777.625
1109.76805	26330.225
1113.41903	26187.125
1117.06751	26201.525
1120.71348	26444.925
1124.35696	26676.425
1127.99793	27031.125
1131.63641	27228.625
1135.2724	27226.225
1138.90589	27206.025
1142.5369	27240.925
1146.16542	27451.525
1149.79145	27810.425
1153.415	28175.125
1157.03607	28643.725
1160.65467	29268.325
1164.27079	30272.125
1167.88443	31546.025
1171.49561	32995.925
1175.10432	34707.925
1178.71056	36750.925
1182.31434	38730.225
1185.91565	39981.825
1189.51451	40548.425
1193.11091	40429.125
1196.70485	39459.225
1200.29634	38042.825
1203.88538	36793.825
1207.47197	36097.225
1211.05612	35820.225
1214.63782	35353.025
1218.21708	34430.725
1221.79391	33283.825
1225.36829	32272.125
1228.94024	31682.325
1232.50976	31394.725
1236.07685	31294.525
1239.6415	31258.325
1243.20374	31393.125
1246.76355	31610.325
1250.32093	31948.025
1253.8759	32496.025
1257.42845	33361.225
1260.97859	34210.825
1264.52631	35092.125
1268.07163	35879.925
1271.61453	36725.325
1275.15503	37504.625
1278.69312	38479.625
1282.22882	39456.525
1285.76211	40554.625
1289.29301	41903.625
1292.82151	43473.525
1296.34761	45375.925
1299.87133	47267.425
1303.39266	49128.025
1306.9116	50579.725
1310.42815	51557.925
1313.94233	51951.525
1317.45412	51922.025
1320.96354	51916.625
1324.47058	52143.825
1327.97525	52677.825
1331.47754	53202.325
1334.97747	53642.425
1338.47502	54027.725
1341.97022	54503.225
1345.46305	54761.225
1348.95352	54356.425
1352.44163	53482.325
1355.92738	52465.525
1359.41078	51956.225
1362.89183	51698.725
1366.37053	50568.125
1369.84688	47786.525
1373.32088	44349.025
1376.79254	41803.525
1380.26186	40700.025
1383.72883	40630.425
1387.19347	40812.725
1390.65578	40629.725
1394.11575	40377.025
1397.57339	40301.425
1401.0287	40356.325
1404.48168	40305.225
1407.93234	39826.025
1411.38068	38927.625
1414.82669	37542.325
1418.27039	36050.925
1421.71177	34668.125
1425.15083	33577.825
1428.58758	33038.425
1432.02203	33108.725
1435.45416	33647.725
1438.88399	34408.825
1442.31151	35148.625
1445.73673	35760.625
1449.15965	36389.425
1452.58027	37028.125
1455.9986	37462.225
1459.41463	37856.025
1462.82837	38438.725
1466.23982	39014.525
1469.64898	39432.325
1473.05586	39717.025
1476.46045	39731.425
1479.86276	39581.525
1483.26279	39436.225
1486.66054	39368.325
1490.05602	39609.425
1493.44922	40218.425
1496.84016	41129.525
1500.22882	42405.425
1503.61521	43813.825
1506.99934	45235.925
1510.38121	46216.425
1513.76081	46393.525
1517.13816	45990.025
1520.51324	45265.325
1523.88607	44841.325
1527.25665	44664.525
1530.62498	44407.325
1533.99105	43875.825
1537.35488	42938.825
1540.71647	41726.025
1544.07581	40344.625
1547.4329	39047.025
1550.78776	38042.025
1554.14038	37438.625
1557.49077	37190.125
1560.83892	37101.025
1564.18484	37148.225
1567.52853	37273.025
1570.86999	37506.025
1574.20922	38135.525
1577.54624	38768.625
1580.88103	38973.725
1584.2136	39116.625
1587.54395	39547.525
1590.87208	40385.125
1594.19801	41667.125
1597.52172	42815.425
1600.84321	42701.725
1604.16251	41064.525
1607.47959	38707.125
1610.79447	36283.525
1614.10715	33974.925
1617.41763	31876.325
1620.7259	30284.825
1624.03199	29334.725
1627.33587	29145.225
1630.63757	29612.825
1633.93707	31052.525
1637.23439	33491.725
1640.52951	37163.425
1643.82246	41517.725
1647.11321	45375.325
1650.40179	46835.525
1653.68819	45168.025
1656.97241	40742.225
1660.25446	35699.725
1663.53433	31344.725
1666.81203	28163.725
1670.08756	26076.125
1673.36092	24691.025
1676.63211	23772.625
1679.90115	23204.425
1683.16801	22744.125
1686.43272	22438.225
1689.69527	22210.125
1692.95567	21964.225
1696.2139	21865.825
1699.46999	21772.625
1702.72392	21627.125
1705.97571	21528.825
1709.22535	21437.825
1712.47284	21373.725
1715.71819	21335.925
1718.96139	21220.825
1722.20246	21167.025
1725.44139	21051.225
1728.67818	20936.525
1731.91284	20829.325
1735.14537	20696.925
1738.37576	20591.425
1741.60403	20547.225
1744.83017	20432.725
1748.05418	20418.425
1751.27607	20320.425
1754.49584	20301.825
1757.71349	20282.525
1760.92903	20282.925
1764.14244	20246.525
1767.35375	20218.625
1770.56294	20116.425
1773.77002	20066.925
1776.97499	20020.825
1780.17785	19987.825
1783.37861	19939.525
1786.57727	19878.125
1789.77382	19839.525
1792.96828	19799.725
1796.16064	19729.225
1799.3509	19672.925
1802.53907	19651.225
1805.72514	19562.325
1808.90913	19540.325
1812.09102	19468.625
1815.27083	19447.725
1818.44856	19421.525
1821.6242	19385.225
1824.79776	19366.325
1827.96924	19368.125
1831.13864	19324.625
1834.30597	19338.425
1837.47122	19341.825
1840.6344	19330.625
1843.7955	19353.025
1846.95454	19307.925
1850.11151	19330.125
1853.26642	19280.525
1856.41926	19280.125
1859.57004	19226.525
1862.71876	19173.925
1865.86542	19125.725
1869.01003	19117.925
1872.15258	19108.225
1875.29308	19042.425
1878.43152	18991.325
1881.56792	18964.925
1884.70227	18924.125
1887.83457	18884.425
1890.96482	18867.025
1894.09304	18831.825
1897.21921	18821.025
1900.34335	18763.725
1903.46544	18695.725
1906.58551	18693.325
1909.70353	18683.425
1912.81953	18610.525
1915.93349	18551.125
1919.04543	18507.925
1922.15534	18451.325
1925.26322	18423.525
1928.36908	18377.825
1931.47292	18347.825
1934.57473	18289.625
1937.67453	18201.425
1940.77232	18168.425
1943.86808	18109.525
1946.96184	18101.225
1950.05358	18009.625
1953.14331	17962.525
1956.23103	17923.925
1959.31675	17838.125
1962.40046	17772.425
1965.48217	17729.325
1968.56188	17653.425
1971.63959	17578.125
1974.7153	17519.025
1977.78901	17518.125
1980.86073	17424.225
1983.93046	17361.925
1986.99819	17285.325
1990.06394	17268.225
1993.1277	17198.925
1996.18947	17109.425
1999.24925	17088.425
2002.30706	16998.925
2005.36288	16982.125
2008.41672	16941.025
2011.46859	16845.425
2014.51848	16785.825
2017.56639	16744.625
2020.61233	16669.625
2023.6563	16628.625
2026.6983	16616.625
2029.73833	16579.025
2032.7764	16511.925
2035.8125	16469.325
2038.84664	16402.625
2041.87881	16395.325
2044.90903	16361.525
2047.93729	16315.625
2050.96359	16301.225
2053.98794	16267.025
2057.01034	16238.725
2060.03078	16210.125
2063.04927	16212.525
2066.06582	16192.725
2069.08042	16176.425
2072.09307	16172.425
2075.10378	16156.225
2078.11255	16134.625
2081.11938	16090.425
2084.12426	16086.525
2087.12722	16076.225
2090.12824	16115.825
2093.12732	16067.625
2096.12447	16093.725
2099.11969	16093.325
2102.11299	16077.425
2105.10435	16090.925
2108.09379	16068.225
2111.08131	16095.725
2114.0669	16090.225
2117.05057	16099.825
2120.03233	16094.025
2123.01216	16106.525
2125.99008	16114.325
2128.96609	16115.025
2131.94018	16099.625
2134.91236	16076.925
2137.88263	16088.325
2140.851	16072.325
2143.81746	16108.225
2146.78201	16097.925
2149.74466	16106.725
2152.7054	16080.325
2155.66425	16049.825
2158.6212	16061.325
2161.57625	16044.925
2164.52941	16033.125
2167.48067	16015.425
2170.43004	15973.125
2173.37752	15961.125
2176.32311	15968.125
2179.26681	15962.725
2182.20863	15950.125
2185.14856	15972.025
2188.08661	15927.325
2191.02278	15911.025
2193.95707	15892.425
2196.88948	15871.725
2199.82001	15885.025
2202.74867	15848.325
2205.67545	15848.625
2208.60037	15776.825
2211.52341	15753.325
2214.44458	15724.125
2217.36388	15715.925
2220.28132	15659.825
2223.1969	15626.225
2226.11061	15597.325
2229.02246	15573.425
2231.93245	15521.925
2234.84058	15471.025
2237.74686	15473.025
2240.65128	15465.125
2243.55385	15448.725
2246.45456	15418.525
2249.35343	15391.525
2252.25044	15365.525
2255.14561	15311.925
2258.03893	15283.925
2260.93041	15232.925
2263.82004	15191.325
2266.70783	15154.825
2269.59378	15090.525
2272.4779	15061.125
2275.36017	15015.625
2278.24061	15000.925
2281.11922	14926.425
2283.996	14917.225
2286.87094	14901.825
2289.74405	14844.925
2292.61534	14844.225
2295.4848	14807.125
2298.35243	14798.525
2301.21824	14765.425
2304.08223	14778.825
2306.94439	14761.825
2309.80474	14731.225
2312.66327	14712.625
2315.51999	14710.025
2318.37489	14656.425
2321.22797	14638.125
2324.07925	14606.325
2326.92871	14599.225
2329.77637	14600.925
2332.62222	14533.025
2335.46626	14541.125
2338.3085	14523.625
2341.14893	14495.725
2343.98756	14473.025
2346.8244	14449.125
2349.65943	14469.525
2352.49267	14463.825
2355.32411	14450.325
2358.15376	14438.125
2360.98161	14413.225
2363.80768	14418.825
2366.63195	14384.025
2369.45444	14387.025
2372.27514	14374.525
2375.09405	14337.425
2377.91118	14329.325
2380.72652	14280.325
2383.54009	14280.625
2386.35187	14222.325
2389.16188	14181.925
2391.97011	14159.625
2394.77657	14104.425
2397.58125	14108.025
2400.38416	14047.025
2403.18529	14043.625
2405.98466	14042.825
2408.78226	14019.625
2411.57809	13987.325
2414.37216	13978.025
2417.16446	13948.025
2419.955	13951.525
2422.74378	13955.025
2425.5308	13935.725
2428.31606	13920.525
2431.09956	13909.325
2433.88131	13861.925
2436.6613	13855.525
2439.43954	13851.625
2442.21603	13823.525
2444.99077	13771.425
2447.76377	13802.725
2450.53501	13772.025
2453.30451	13770.125
2456.07226	13757.425
2458.83827	13751.625
2461.60254	13745.925
2464.36507	13742.725
2467.12586	13695.225
2469.88492	13703.025
2472.64224	13687.025
2475.39782	13654.125
2478.15167	13705.225
2480.90379	13641.525
2483.65417	13651.325
2486.40283	13605.825
2489.14976	13610.925
2491.89497	13630.625
2494.63845	13653.425
2497.3802	13592.725
2500.12024	13593.525
2502.85855	13588.325
2505.59514	13602.525
2508.33002	13582.625
2511.06318	13553.725
2513.79462	13533.525
2516.52435	13520.625
2519.25237	13500.925
2521.97867	13488.425
2524.70327	13491.325
2527.42616	13455.625
2530.14734	13460.425
2532.86681	13415.925
2535.58458	13445.125
2538.30065	13393.025
2541.01501	13395.225
2543.72768	13341.125
2546.43864	13328.425
2549.14791	13294.325
2551.85548	13288.425
2554.56136	13263.225
2557.26554	13295.525
2559.96803	13246.125
2562.66883	13223.125
2565.36794	13193.825
2568.06536	13175.025
2570.7611	13145.325
2573.45514	13132.125
2576.14751	13146.625
2578.83819	13092.525
2581.52719	13078.325
2584.21451	13044.325
2586.90015	13042.425
2589.58411	12999.925
2592.2664	13009.125
2594.94701	12980.325
2597.62594	12981.125
2600.30321	12925.525
2602.9788	12913.025
2605.65273	12898.925
2608.32498	12912.025
2610.99557	12872.425
2613.66449	12898.125
2616.33175	12864.125
2618.99734	12849.725
2621.66128	12852.625
2624.32355	12831.325
2626.98416	12797.125
2629.64311	12819.825
2632.30041	12820.325
2634.95605	12802.525
2637.61004	12775.125
2640.26238	12747.425
2642.91306	12732.225
2645.56209	12726.225
2648.20948	12716.725
2650.85521	12724.425
2653.4993	12711.325
2656.14175	12726.425
2658.78255	12726.725
2661.42171	12715.625
2664.05923	12720.425
2666.6951	12741.625
2669.32934	12744.425
2671.96194	12739.125
2674.59291	12732.425
2677.22224	12702.625
2679.84993	12723.225
2682.476	12714.625
2685.10043	12723.725
2687.72324	12684.025
2690.34441	12664.225
2692.96396	12671.825
2695.58188	12682.225
2698.19818	12682.625
2700.81285	12680.625
2703.4259	12711.225
2706.03733	12702.625
2708.64714	12686.925
2711.25533	12719.425
2713.86191	12705.625
2716.46687	12696.725
2719.07021	12700.725
2721.67194	12734.725
2724.27206	12712.925
2726.87057	12725.425
2729.46747	12721.025
2732.06276	12712.425
2734.65644	12685.825
2737.24852	12659.225
2739.83899	12660.625
2742.42786	12630.825
2745.01513	12611.025
2747.60079	12594.625
2750.18486	12571.425
2752.76733	12562.325
2755.3482	12597.025
2757.92747	12623.525
2760.50515	12572.325
2763.08123	12596.725
2765.65573	12556.825
2768.22863	12544.425
2770.79994	12509.825
2773.36967	12501.025
2775.9378	12515.425
2778.50435	12487.425
2781.06932	12468.025
2783.6327	12457.625
2786.1945	12440.025
2788.75471	12426.625
2791.31335	12417.125
2793.87041	12381.225
2796.42589	12361.425
2798.97979	12364.125
2801.53212	12314.025
2804.08288	12351.325
2806.63206	12274.725
2809.17967	12236.225
2811.72571	12213.425
2814.27018	12217.325
2816.81308	12211.725
2819.35442	12157.825
2821.89419	12138.125
2824.43239	12120.725
2826.96904	12086.125
2829.50412	12113.125
2832.03763	12078.925
2834.56959	12083.325
2837.1	12043.425
2839.62884	12064.025
2842.15613	12057.025
2844.68186	12063.525
2847.20604	12058.825
2849.72867	12078.125
2852.24974	12072.825
2854.76927	12035.525
2857.28724	12022.425
2859.80367	12012.725
2862.31855	11982.525
2864.83189	11985.825
2867.34368	11943.325
2869.85393	11924.025
2872.36264	11935.225
2874.8698	11913.125
2877.37543	11924.325
2879.87952	11875.225
2882.38207	11884.125
2884.88308	11853.725
2887.38256	11854.225
2889.88051	11858.525
2892.37692	11866.925
2894.8718	11862.825
2897.36515	11865.825
2899.85698	11877.025
2902.34727	11840.425
2904.83604	11863.925
2907.32328	11862.125
2909.809	11843.825
2912.29319	11860.725
2914.77587	11846.825
2917.25702	11838.025
2919.73665	11841.125
2922.21476	11836.425
2924.69136	11846.425
2927.16644	11855.725
2929.64	11835.625
2932.11205	11829.325
2934.58258	11834.025
2937.05161	11822.825
2939.51912	11814.325
2941.98513	11791.825
2944.44962	11726.425
2946.91261	11669.525
2949.37409	11669.225
2951.83407	11672.825
2954.29254	11661.925
2956.74951	11624.625
2959.20498	11637.725
2961.65895	11598.125
2964.11142	11605.325
2966.56239	11568.725
2969.01186	11561.925
2971.45984	11512.325
2973.90632	11523.425
2976.35131	11476.425
2978.7948	11448.525
2981.23681	11435.525
2983.67732	11404.325
2986.11635	11376.525
2988.55388	11345.325
2990.98993	11330.325
2993.4245	11282.425
2995.85758	11257.025
2998.28917	11244.425
3000.71928	11219.025
3003.14791	11192.025
3005.57506	11168.625
3008.00073	11121.925
3010.42493	11125.125
3012.84764	11082.225
3015.26888	11066.925
3017.68865	11040.825
3020.10694	11026.225
3022.52376	10997.625
3024.9391	10977.625
3027.35298	10955.725
3029.76539	10940.525
3032.17632	10955.625
3034.5858	10925.825
3036.9938	10913.125
3039.40034	10885.325
3041.80542	10871.625
3044.20903	10839.925
3046.61118	10845.725
3049.01187	10794.725
3051.4111	10774.925
3053.80888	10757.925
3056.20519	10738.125
3058.60005	10703.525
3060.99345	10687.925
3063.3854	10645.525
3065.7759	10618.325
3068.16494	10598.325
3070.55254	10546.025
3072.93868	10537.925
3075.32338	10513.725
3077.70662	10497.325
3080.08842	10458.525
3082.46878	10459.625
3084.84769	10420.025
3087.22515	10427.825
3089.60118	10417.125
3091.97576	10393.025
3094.3489	10392.825
3096.72061	10384.025
3099.09087	10350.325
3101.4597	10354.025
3103.82709	10330.225
3106.19305	10323.025
3108.55757	10309.925
3110.92066	10263.925
3113.28232	10251.425
3115.64255	10214.925
3118.00134	10189.525
3120.35871	10139.125
3122.71466	10162.825
3125.06917	10129.325
3127.42226	10121.725
