Data from AgNPs_FTO_APTES_UA_2uM_CRN_50uM_R6G_10uM_NaF_0.1M_Addition_RamanShift__7__14-44-25-237.txt Node

Date: Wed Feb 02 14:44:25 GMT 2022
User: TCL
Spectrometer: QEP01345
Trigger mode: 4
Integration Time (sec): 7.000000E0
Scans to average: 10
Electric dark correction enabled: true
Nonlinearity correction enabled: false
Boxcar width: 0
XAxis mode: Raman Shifts
Number of Pixels in Spectrum: 1044
>>>>>Begin Spectral Data<<<<<
46.04893	1.075
50.45542	0.075
54.85868	-2.125
59.25871	0.275
63.6555	94.275
68.04907	97.075
72.43941	98.775
76.82654	109.575
81.21044	110.075
85.59113	115.175
89.96862	116.575
94.34289	120.075
98.71396	129.175
103.08183	136.375
107.4465	137.075
111.80798	139.475
116.16626	143.775
120.52136	150.475
124.87327	155.875
129.222	164.075
133.56755	174.875
137.90993	184.375
142.24913	208.075
146.58517	234.775
150.91804	269.075
155.24774	327.675
159.57429	404.375
163.89768	518.075
168.21792	685.075
172.53501	930.475
176.84895	1312.575
181.15975	1829.175
185.46741	2561.675
189.77193	3513.275
194.07331	4703.275
198.37157	6054.175
202.6667	7476.075
206.9587	8877.575
211.24758	10246.975
215.53334	11656.675
219.81599	13091.975
224.09553	14735.075
228.37195	16485.075
232.64527	18439.375
236.91549	20358.075
241.18261	22401.375
245.44663	24252.475
249.70755	25951.875
253.96539	27367.875
258.22014	28658.175
262.4718	29665.375
266.72039	30401.175
270.96589	30814.075
275.20832	30855.275
279.44768	30735.575
283.68397	30541.275
287.91719	30387.775
292.14735	30371.775
296.37445	30409.075
300.59849	30543.175
304.81948	30699.375
309.03742	30669.375
313.25231	30420.375
317.46415	29869.175
321.67296	29022.475
325.87872	28297.975
330.08145	27918.275
334.28114	27771.975
338.47781	27841.775
342.67145	28092.775
346.86207	28441.975
351.04966	28847.075
355.23424	29278.275
359.4158	29778.375
363.59435	30128.575
367.76989	30311.775
371.94243	30447.075
376.11196	30435.275
380.27849	30449.375
384.44203	30504.675
388.60257	30760.675
392.76012	31147.975
396.91468	31736.275
401.06626	32263.175
405.21485	32593.575
409.36047	32423.475
413.50311	32070.075
417.64277	31993.075
421.77947	32271.275
425.9132	32484.375
430.04396	32675.875
434.17176	32795.475
438.2966	32861.475
442.41849	33278.075
446.53742	34117.975
450.6534	35098.675
454.76644	35810.875
458.87653	36097.575
462.98368	35954.875
467.08789	35581.875
471.18916	35112.475
475.2875	34741.275
479.38291	34704.575
483.4754	34637.775
487.56496	34268.675
491.6516	33537.175
495.73531	32617.375
499.81612	32090.475
503.89401	32079.175
507.96899	32250.175
512.04106	32201.875
516.11023	31849.975
520.1765	31361.875
524.23987	30791.075
528.30034	30304.975
532.35792	29907.675
536.41261	29572.175
540.46441	29300.475
544.51333	29374.875
548.55936	29856.975
552.60252	30622.475
556.64279	31530.675
560.6802	32312.575
564.71473	32947.875
568.7464	33876.475
572.7752	35397.275
576.80114	37150.375
580.82422	38764.975
584.84444	40466.875
588.86181	42593.375
592.87633	44149.775
596.888	43316.075
600.89682	40506.675
604.9028	38880.075
608.90594	39850.075
612.90624	40990.275
616.90371	37872.875
620.89834	32404.775
624.89015	29977.475
628.87913	29859.275
632.86528	30189.875
636.84862	30090.875
640.82913	29459.075
644.80683	28670.075
648.78172	28239.775
652.75379	28228.175
656.72306	28497.075
660.68952	28759.075
664.65319	28452.975
668.61405	27959.075
672.57211	27845.575
676.52738	27972.875
680.47986	27973.375
684.42955	27786.875
688.37646	27634.175
692.32058	27833.175
696.26192	28289.375
700.20048	28754.075
704.13626	29128.675
708.06928	29300.375
711.99952	29294.875
715.927	29339.775
719.85171	29285.975
723.77365	29087.575
727.69284	28519.475
731.60928	28007.175
735.52295	27683.175
739.43388	27622.075
743.34206	27736.075
747.24749	28008.275
751.15017	28431.275
755.05012	29140.975
758.94733	30230.075
762.8418	31832.775
766.73354	34053.675
770.62254	35661.575
774.50882	35371.475
778.39237	33415.075
782.27321	31072.475
786.15132	29303.175
790.02671	28248.775
793.89938	27638.975
797.76935	27388.975
801.6366	27372.775
805.50115	27348.875
809.36299	27223.675
813.22213	26988.875
817.07857	26896.875
820.93231	26724.075
824.78336	26471.575
828.63172	26177.175
832.47738	26027.475
836.32036	26013.875
840.16066	26018.975
843.99827	26020.775
847.8332	25920.875
851.66546	25937.075
855.49504	25998.875
859.32195	25972.075
863.1462	25870.575
866.96777	25730.275
870.78668	25658.475
874.60293	25667.275
878.41652	25662.175
882.22745	25705.275
886.03573	25779.375
889.84136	25797.375
893.64433	25675.375
897.44466	25616.375
901.24235	25573.075
905.0374	25509.275
908.8298	25497.875
912.61957	25634.775
916.40671	26006.175
920.19121	26542.975
923.97308	26973.475
927.75233	26894.175
931.52895	26355.675
935.30295	25687.175
939.07433	25050.475
942.84309	24587.575
946.60924	24336.975
950.37278	24292.475
954.13371	24373.375
957.89203	24375.475
961.64774	24446.675
965.40086	24517.075
969.15137	24392.675
972.89929	24151.375
976.64461	23925.175
980.38733	23812.675
984.12747	23807.675
987.86502	23920.675
991.59999	24018.975
995.33237	24255.875
999.06217	24632.875
1002.78939	25174.775
1006.51404	25724.975
1010.23611	26244.875
1013.95561	26639.875
1017.67255	26747.975
1021.38692	26480.975
1025.09872	25954.075
1028.80796	25569.175
1032.51465	25538.875
1036.21877	25687.775
1039.92035	25880.975
1043.61937	25951.575
1047.31584	25980.375
1051.00976	25956.575
1054.70114	26015.975
1058.38998	26281.275
1062.07627	26653.975
1065.76003	27133.275
1069.44126	27631.875
1073.11995	28194.375
1076.79611	28548.375
1080.46974	28700.575
1084.14085	28898.375
1087.80943	29248.575
1091.47549	29641.975
1095.13903	29812.175
1098.80005	29412.375
1102.45857	28403.975
1106.11456	27578.275
1109.76805	27123.775
1113.41903	27047.175
1117.06751	27257.075
1120.71348	27557.275
1124.35696	27884.475
1127.99793	28311.775
1131.63641	28671.075
1135.2724	28673.875
1138.90589	28739.875
1142.5369	29055.375
1146.16542	29580.575
1149.79145	30207.075
1153.415	30779.975
1157.03607	31605.375
1160.65467	33046.175
1164.27079	35243.675
1167.88443	37664.675
1171.49561	39867.975
1175.10432	42393.775
1178.71056	45438.775
1182.31434	48321.875
1185.91565	49596.975
1189.51451	49248.075
1193.11091	48166.575
1196.70485	46661.475
1200.29634	45023.275
1203.88538	44039.475
1207.47197	43983.175
1211.05612	44138.875
1214.63782	43424.875
1218.21708	41725.075
1221.79391	39718.375
1225.36829	38114.875
1228.94024	37129.575
1232.50976	36478.375
1236.07685	35886.275
1239.6415	35660.375
1243.20374	35773.775
1246.76355	36147.975
1250.32093	36730.075
1253.8759	37628.175
1257.42845	38819.575
1260.97859	40186.675
1264.52631	41510.375
1268.07163	42819.675
1271.61453	44170.375
1275.15503	45746.975
1278.69312	47548.675
1282.22882	49607.475
1285.76211	52276.875
1289.29301	55312.275
1292.82151	58929.675
1296.34761	63068.775
1299.87133	67579.375
1303.39266	71636.575
1306.9116	74450.975
1310.42815	76023.775
1313.94233	76381.875
1317.45412	75679.475
1320.96354	74925.575
1324.47058	74590.475
1327.97525	74854.775
1331.47754	74951.875
1334.97747	74660.775
1338.47502	73703.475
1341.97022	72020.775
1345.46305	70110.375
1348.95352	68298.675
1352.44163	67252.675
1355.92738	67593.075
1359.41078	69331.275
1362.89183	70735.075
1366.37053	69771.875
1369.84688	65099.075
1373.32088	58360.275
1376.79254	53449.775
1380.26186	52175.775
1383.72883	53056.875
1387.19347	53834.275
1390.65578	53788.475
1394.11575	53702.375
1397.57339	54551.975
1401.0287	55957.475
1404.48168	56875.975
1407.93234	56410.675
1411.38068	54448.075
1414.82669	51515.575
1418.27039	48441.075
1421.71177	45547.775
1425.15083	43378.275
1428.58758	42454.975
1432.02203	42968.775
1435.45416	44596.675
1438.88399	46615.375
1442.31151	48205.575
1445.73673	49145.975
1449.15965	49832.475
1452.58027	50073.175
1455.9986	50111.875
1459.41463	50175.875
1462.82837	50749.075
1466.23982	51496.175
1469.64898	52232.275
1473.05586	52702.875
1476.46045	52616.775
1479.86276	52048.175
1483.26279	51266.375
1486.66054	50740.775
1490.05602	50860.275
1493.44922	51320.875
1496.84016	51801.675
1500.22882	52469.175
1503.61521	53239.975
1506.99934	54203.875
1510.38121	54995.475
1513.76081	55262.775
1517.13816	54991.675
1520.51324	54691.175
1523.88607	54820.075
1527.25665	55583.675
1530.62498	56155.675
1533.99105	55937.275
1537.35488	54856.575
1540.71647	52971.275
1544.07581	50718.375
1547.4329	48471.775
1550.78776	46678.775
1554.14038	45422.675
1557.49077	44699.275
1560.83892	44272.975
1564.18484	44126.775
1567.52853	44116.575
1570.86999	44690.175
1574.20922	46095.775
1577.54624	47661.475
1580.88103	48893.975
1584.2136	50442.275
1587.54395	52888.775
1590.87208	56154.875
1594.19801	59626.875
1597.52172	62254.275
1600.84321	61913.275
1604.16251	57760.075
1607.47959	51856.875
1610.79447	46182.775
1614.10715	41328.375
1617.41763	37684.175
1620.7259	35301.575
1624.03199	34209.675
1627.33587	34389.775
1630.63757	35972.275
1633.93707	39296.275
1637.23439	44676.275
1640.52951	52439.575
1643.82246	61461.975
1647.11321	68341.575
1650.40179	69038.675
1653.68819	62592.075
1656.97241	52514.475
1660.25446	42967.375
1663.53433	35931.175
1666.81203	31351.075
1670.08756	28540.575
1673.36092	26734.675
1676.63211	25542.975
1679.90115	24774.875
1683.16801	24182.675
1686.43272	23768.075
1689.69527	23415.475
1692.95567	23161.175
1696.2139	23032.175
1699.46999	22830.975
1702.72392	22712.375
1705.97571	22621.075
1709.22535	22485.075
1712.47284	22383.475
1715.71819	22303.175
1718.96139	22222.975
1722.20246	22096.675
1725.44139	21975.675
1728.67818	21831.875
1731.91284	21673.575
1735.14537	21501.875
1738.37576	21375.275
1741.60403	21279.975
1744.83017	21174.275
1748.05418	21120.075
1751.27607	21071.675
1754.49584	21009.575
1757.71349	20965.175
1760.92903	20968.875
1764.14244	20931.375
1767.35375	20899.475
1770.56294	20779.975
1773.77002	20725.075
1776.97499	20653.975
1780.17785	20629.175
1783.37861	20569.875
1786.57727	20537.875
1789.77382	20464.675
1792.96828	20412.475
1796.16064	20376.575
1799.3509	20324.575
1802.53907	20317.775
1805.72514	20185.675
1808.90913	20126.275
1812.09102	20078.675
1815.27083	20042.575
1818.44856	20059.475
1821.6242	19994.275
1824.79776	20010.475
1827.96924	19978.975
1831.13864	19941.875
1834.30597	19956.275
1837.47122	19960.375
1840.6344	19991.975
1843.7955	20033.375
1846.95454	19952.975
1850.11151	19958.775
1853.26642	19934.075
1856.41926	19893.775
1859.57004	19894.375
1862.71876	19821.975
1865.86542	19812.975
1869.01003	19780.475
1872.15258	19741.975
1875.29308	19725.475
1878.43152	19700.775
1881.56792	19656.275
1884.70227	19624.275
1887.83457	19600.175
1890.96482	19577.175
1894.09304	19511.875
1897.21921	19508.175
1900.34335	19466.475
1903.46544	19426.675
1906.58551	19409.875
1909.70353	19337.275
1912.81953	19307.175
1915.93349	19250.275
1919.04543	19176.775
1922.15534	19113.675
1925.26322	19119.575
1928.36908	19049.775
1931.47292	19005.875
1934.57473	18940.275
1937.67453	18861.875
1940.77232	18812.275
1943.86808	18759.375
1946.96184	18755.875
1950.05358	18684.175
1953.14331	18640.375
1956.23103	18580.275
1959.31675	18516.975
1962.40046	18437.075
1965.48217	18365.775
1968.56188	18310.075
1971.63959	18215.075
1974.7153	18188.975
1977.78901	18145.175
1980.86073	18058.975
1983.93046	18010.575
1986.99819	17913.775
1990.06394	17894.975
1993.1277	17851.175
1996.18947	17739.375
1999.24925	17728.075
2002.30706	17670.175
2005.36288	17607.675
2008.41672	17544.975
2011.46859	17483.175
2014.51848	17444.675
2017.56639	17365.075
2020.61233	17333.675
2023.6563	17328.175
2026.6983	17275.975
2029.73833	17236.275
2032.7764	17180.375
2035.8125	17183.275
2038.84664	17130.875
2041.87881	17105.175
2044.90903	17076.775
2047.93729	17036.475
2050.96359	17009.075
2053.98794	16977.275
2057.01034	16985.875
2060.03078	16956.175
2063.04927	16935.675
2066.06582	16941.175
2069.08042	16916.275
2072.09307	16905.275
2075.10378	16886.875
2078.11255	16850.375
2081.11938	16828.375
2084.12426	16809.475
2087.12722	16797.875
2090.12824	16796.175
2093.12732	16797.075
2096.12447	16807.775
2099.11969	16825.275
2102.11299	16843.375
2105.10435	16846.475
2108.09379	16828.575
2111.08131	16843.275
2114.0669	16831.775
2117.05057	16836.975
2120.03233	16851.575
2123.01216	16864.075
2125.99008	16853.675
2128.96609	16845.275
2131.94018	16817.675
2134.91236	16820.775
2137.88263	16809.375
2140.851	16796.675
2143.81746	16866.775
2146.78201	16841.275
2149.74466	16840.375
2152.7054	16797.675
2155.66425	16779.375
2158.6212	16779.075
2161.57625	16759.075
2164.52941	16773.375
2167.48067	16771.075
2170.43004	16733.475
2173.37752	16714.875
2176.32311	16707.675
2179.26681	16720.875
2182.20863	16689.175
2185.14856	16744.875
2188.08661	16739.875
2191.02278	16716.775
2193.95707	16705.875
2196.88948	16685.375
2199.82001	16632.075
2202.74867	16598.375
2205.67545	16579.975
2208.60037	16533.875
2211.52341	16521.475
2214.44458	16500.375
2217.36388	16489.675
2220.28132	16471.975
2223.1969	16411.975
2226.11061	16371.575
2229.02246	16345.175
2231.93245	16331.075
2234.84058	16344.775
2237.74686	16321.875
2240.65128	16331.475
2243.55385	16288.075
2246.45456	16275.475
2249.35343	16211.475
2252.25044	16144.975
2255.14561	16101.475
2258.03893	16066.275
2260.93041	16025.275
2263.82004	15973.075
2266.70783	15905.875
2269.59378	15854.975
2272.4779	15833.975
2275.36017	15799.275
2278.24061	15748.775
2281.11922	15725.475
2283.996	15687.875
2286.87094	15662.275
2289.74405	15632.975
2292.61534	15617.975
2295.4848	15606.175
2298.35243	15636.775
2301.21824	15604.275
2304.08223	15600.875
2306.94439	15578.775
2309.80474	15567.575
2312.66327	15561.875
2315.51999	15537.075
2318.37489	15528.175
2321.22797	15483.575
2324.07925	15466.975
2326.92871	15468.475
2329.77637	15443.075
2332.62222	15426.575
2335.46626	15414.775
2338.3085	15411.375
2341.14893	15401.275
2343.98756	15384.375
2346.8244	15391.275
2349.65943	15382.975
2352.49267	15397.175
2355.32411	15387.775
2358.15376	15346.575
2360.98161	15354.075
2363.80768	15349.475
2366.63195	15335.175
2369.45444	15328.075
2372.27514	15309.675
2375.09405	15288.075
2377.91118	15239.475
2380.72652	15217.675
2383.54009	15199.875
2386.35187	15180.675
2389.16188	15114.675
2391.97011	15075.275
2394.77657	15078.875
2397.58125	15026.375
2400.38416	15030.875
2403.18529	14983.575
2405.98466	14972.275
2408.78226	14959.975
2411.57809	14940.575
2414.37216	14935.975
2417.16446	14962.775
2419.955	14898.875
2422.74378	14915.275
2425.5308	14872.475
2428.31606	14882.475
2431.09956	14848.275
2433.88131	14832.275
2436.6613	14834.875
2439.43954	14834.075
2442.21603	14807.375
2444.99077	14829.275
2447.76377	14807.475
2450.53501	14821.275
2453.30451	14840.675
2456.07226	14801.175
2458.83827	14806.875
2461.60254	14817.975
2464.36507	14828.875
2467.12586	14807.175
2469.88492	14793.675
2472.64224	14775.775
2475.39782	14793.575
2478.15167	14823.475
2480.90379	14777.575
2483.65417	14775.575
2486.40283	14777.475
2489.14976	14820.075
2491.89497	14776.875
2494.63845	14812.575
2497.3802	14779.575
2500.12024	14776.575
2502.85855	14781.675
2505.59514	14787.675
2508.33002	14767.975
2511.06318	14780.875
2513.79462	14785.475
2516.52435	14746.775
2519.25237	14720.975
2521.97867	14708.775
2524.70327	14702.775
2527.42616	14703.575
2530.14734	14682.675
2532.86681	14648.975
2535.58458	14690.975
2538.30065	14689.875
2541.01501	14631.075
2543.72768	14650.475
2546.43864	14607.375
2549.14791	14586.175
2551.85548	14617.475
2554.56136	14578.775
2557.26554	14585.175
2559.96803	14551.475
2562.66883	14569.075
2565.36794	14565.675
2568.06536	14538.775
2570.7611	14576.975
2573.45514	14549.175
2576.14751	14509.575
2578.83819	14507.575
2581.52719	14509.375
2584.21451	14507.575
2586.90015	14491.975
2589.58411	14479.675
2592.2664	14468.475
2594.94701	14446.775
2597.62594	14433.175
2600.30321	14445.975
2602.9788	14443.275
2605.65273	14440.975
2608.32498	14438.775
2610.99557	14454.775
2613.66449	14474.675
2616.33175	14434.775
2618.99734	14472.675
2621.66128	14456.475
2624.32355	14418.175
2626.98416	14413.975
2629.64311	14432.675
2632.30041	14431.475
2634.95605	14404.075
2637.61004	14421.675
2640.26238	14383.975
2642.91306	14402.875
2645.56209	14416.175
2648.20948	14417.475
2650.85521	14405.775
2653.4993	14400.375
2656.14175	14399.475
2658.78255	14444.875
2661.42171	14419.575
2664.05923	14436.675
2666.6951	14462.875
2669.32934	14489.375
2671.96194	14444.775
2674.59291	14463.875
2677.22224	14468.675
2679.84993	14466.475
2682.476	14469.775
2685.10043	14467.075
2687.72324	14451.475
2690.34441	14435.075
2692.96396	14444.975
2695.58188	14438.575
2698.19818	14448.475
2700.81285	14432.475
2703.4259	14458.075
2706.03733	14500.675
2708.64714	14499.275
2711.25533	14498.175
2713.86191	14445.175
2716.46687	14529.875
2719.07021	14546.875
2721.67194	14543.875
2724.27206	14534.575
2726.87057	14588.475
2729.46747	14599.175
2732.06276	14599.175
2734.65644	14567.275
2737.24852	14529.375
2739.83899	14539.075
2742.42786	14562.875
2745.01513	14539.275
2747.60079	14528.875
2750.18486	14485.975
2752.76733	14518.675
2755.3482	14532.675
2757.92747	14527.975
2760.50515	14534.575
2763.08123	14576.175
2765.65573	14541.975
2768.22863	14547.875
2770.79994	14501.175
2773.36967	14519.575
2775.9378	14499.375
2778.50435	14493.775
2781.06932	14491.775
2783.6327	14506.275
2786.1945	14488.175
2788.75471	14492.075
2791.31335	14487.075
2793.87041	14463.375
2796.42589	14444.375
2798.97979	14422.775
2801.53212	14423.775
2804.08288	14402.975
2806.63206	14364.775
2809.17967	14337.875
2811.72571	14321.775
2814.27018	14294.875
2816.81308	14247.275
2819.35442	14241.575
2821.89419	14233.075
2824.43239	14181.775
2826.96904	14189.875
2829.50412	14174.375
2832.03763	14161.275
2834.56959	14161.975
2837.1	14145.175
2839.62884	14148.175
2842.15613	14128.675
2844.68186	14152.475
2847.20604	14202.875
2849.72867	14183.775
2852.24974	14204.775
2854.76927	14181.375
2857.28724	14158.575
2859.80367	14137.075
2862.31855	14138.975
2864.83189	14076.875
2867.34368	14054.875
2869.85393	14054.775
2872.36264	14061.875
2874.8698	14065.375
2877.37543	14017.475
2879.87952	14023.175
2882.38207	14003.175
2884.88308	14003.275
2887.38256	14009.575
2889.88051	14039.475
2892.37692	14037.375
2894.8718	14058.075
2897.36515	14043.675
2899.85698	14036.475
2902.34727	14100.175
2904.83604	14061.775
2907.32328	14077.975
2909.809	14056.275
2912.29319	14087.375
2914.77587	14075.975
2917.25702	14080.275
2919.73665	14071.275
2922.21476	14061.475
2924.69136	14043.575
2927.16644	14083.275
2929.64	14087.975
2932.11205	14066.175
2934.58258	14028.075
2937.05161	14054.275
2939.51912	14031.475
2941.98513	14034.075
2944.44962	13955.775
2946.91261	13921.675
2949.37409	13924.175
2951.83407	13915.575
2954.29254	13891.075
2956.74951	13856.275
2959.20498	13852.275
2961.65895	13820.775
2964.11142	13814.775
2966.56239	13743.875
2969.01186	13767.475
2971.45984	13709.475
2973.90632	13700.675
2976.35131	13640.775
2978.7948	13606.775
2981.23681	13564.275
2983.67732	13599.275
2986.11635	13530.975
2988.55388	13487.275
2990.98993	13470.575
2993.4245	13413.875
2995.85758	13393.475
2998.28917	13359.875
3000.71928	13324.875
3003.14791	13295.775
3005.57506	13260.975
3008.00073	13196.275
3010.42493	13179.575
3012.84764	13172.375
3015.26888	13151.375
3017.68865	13088.175
3020.10694	13080.475
3022.52376	13042.575
3024.9391	13021.675
3027.35298	12999.675
3029.76539	13008.375
3032.17632	13001.875
3034.5858	12977.575
3036.9938	12988.575
3039.40034	12960.575
3041.80542	12926.675
3044.20903	12915.375
3046.61118	12883.475
3049.01187	12838.075
3051.4111	12825.875
3053.80888	12801.875
3056.20519	12757.675
3058.60005	12741.775
3060.99345	12702.675
3063.3854	12667.475
3065.7759	12625.575
3068.16494	12611.775
3070.55254	12509.975
3072.93868	12497.675
3075.32338	12460.175
3077.70662	12427.975
3080.08842	12363.575
3082.46878	12357.675
3084.84769	12354.475
3087.22515	12353.275
3089.60118	12324.175
3091.97576	12319.875
3094.3489	12308.775
3096.72061	12301.175
3099.09087	12281.275
3101.4597	12264.575
3103.82709	12242.875
3106.19305	12205.875
3108.55757	12216.675
3110.92066	12122.875
3113.28232	12109.075
3115.64255	12076.975
3118.00134	12042.275
3120.35871	12028.175
3122.71466	11995.275
3125.06917	11998.475
3127.42226	11961.575
