Data from AgNPs_FTO_APTES_UA_2uM_CRN_500uM_R6G_10uM_NaF_0.1M_Addition_RamanShift__23__17-25-25-425.txt Node

Date: Wed Feb 02 17:25:25 GMT 2022
User: TCL
Spectrometer: QEP01345
Trigger mode: 4
Integration Time (sec): 7.000000E0
Scans to average: 10
Electric dark correction enabled: true
Nonlinearity correction enabled: false
Boxcar width: 0
XAxis mode: Raman Shifts
Number of Pixels in Spectrum: 1044
>>>>>Begin Spectral Data<<<<<
46.04893	-0.1875
50.45542	0.5125
54.85868	-0.5875
59.25871	0.2125
63.6555	68.7125
68.04907	74.4125
72.43941	79.2125
76.82654	85.4125
81.21044	85.8125
85.59113	91.3125
89.96862	90.6125
94.34289	97.1125
98.71396	96.5125
103.08183	106.3125
107.4465	107.0125
111.80798	108.6125
116.16626	109.6125
120.52136	117.7125
124.87327	120.0125
129.222	124.7125
133.56755	133.5125
137.90993	142.3125
142.24913	156.4125
146.58517	178.7125
150.91804	204.8125
155.24774	243.4125
159.57429	298.0125
163.89768	384.2125
168.21792	504.8125
172.53501	688.9125
176.84895	958.3125
181.15975	1347.2125
185.46741	1882.0125
189.77193	2581.6125
194.07331	3461.8125
198.37157	4456.0125
202.6667	5478.7125
206.9587	6529.5125
211.24758	7530.4125
215.53334	8570.1125
219.81599	9632.0125
224.09553	10830.1125
228.37195	12145.2125
232.64527	13551.7125
236.91549	15010.0125
241.18261	16496.3125
245.44663	17883.1125
249.70755	19202.8125
253.96539	20374.5125
258.22014	21338.1125
262.4718	22191.5125
266.72039	22767.7125
270.96589	23155.6125
275.20832	23336.4125
279.44768	23343.6125
283.68397	23328.1125
287.91719	23297.9125
292.14735	23324.3125
296.37445	23486.3125
300.59849	23562.5125
304.81948	23503.7125
309.03742	23228.0125
313.25231	22747.3125
317.46415	22036.8125
321.67296	21305.1125
325.87872	20715.8125
330.08145	20373.9125
334.28114	20275.5125
338.47781	20348.8125
342.67145	20501.4125
346.86207	20810.4125
351.04966	21152.3125
355.23424	21519.1125
359.4158	21819.5125
363.59435	22059.9125
367.76989	22210.6125
371.94243	22340.4125
376.11196	22418.4125
380.27849	22546.0125
384.44203	22756.8125
388.60257	22953.4125
392.76012	23242.4125
396.91468	23569.9125
401.06626	23930.7125
405.21485	24144.9125
409.36047	24044.5125
413.50311	23789.1125
417.64277	23621.4125
421.77947	23632.6125
425.9132	23755.3125
430.04396	24017.2125
434.17176	24242.6125
438.2966	24599.0125
442.41849	25134.0125
446.53742	25935.0125
450.6534	26842.8125
454.76644	27601.9125
458.87653	27906.5125
462.98368	27796.7125
467.08789	27498.6125
471.18916	27233.0125
475.2875	27229.6125
479.38291	27464.7125
483.4754	27569.4125
487.56496	27203.6125
491.6516	26363.3125
495.73531	25511.4125
499.81612	24884.6125
503.89401	24712.6125
507.96899	24634.7125
512.04106	24412.5125
516.11023	24088.5125
520.1765	23656.4125
524.23987	23367.7125
528.30034	23138.8125
532.35792	22925.1125
536.41261	22725.8125
540.46441	22562.3125
544.51333	22691.2125
548.55936	23120.3125
552.60252	23800.7125
556.64279	24576.5125
560.6802	25235.1125
564.71473	25844.2125
568.7464	26557.8125
572.7752	27367.3125
576.80114	27927.4125
580.82422	28131.4125
584.84444	28294.8125
588.86181	28641.4125
592.87633	29164.4125
596.888	29407.4125
600.89682	29134.5125
604.9028	29202.0125
608.90594	30362.3125
612.90624	31377.1125
616.90371	29140.8125
620.89834	24820.9125
624.89015	22969.6125
628.87913	22814.1125
632.86528	23133.5125
636.84862	23283.4125
640.82913	22999.8125
644.80683	22319.3125
648.78172	21720.8125
652.75379	21445.1125
656.72306	21493.0125
660.68952	21710.6125
664.65319	21615.2125
668.61405	21380.0125
672.57211	21267.3125
676.52738	21357.7125
680.47986	21390.5125
684.42955	21306.8125
688.37646	21246.9125
692.32058	21279.4125
696.26192	21495.5125
700.20048	21704.7125
704.13626	21901.8125
708.06928	21957.6125
711.99952	21856.3125
715.927	21760.0125
719.85171	21803.4125
723.77365	21745.6125
727.69284	21574.8125
731.60928	21417.2125
735.52295	21372.7125
739.43388	21350.2125
743.34206	21339.0125
747.24749	21467.1125
751.15017	21699.7125
755.05012	22135.4125
758.94733	22918.6125
762.8418	24148.3125
766.73354	25839.0125
770.62254	27248.1125
774.50882	27247.6125
778.39237	25734.1125
782.27321	23770.1125
786.15132	22311.1125
790.02671	21408.6125
793.89938	20965.4125
797.76935	20862.9125
801.6366	20886.7125
805.50115	20909.5125
809.36299	20808.7125
813.22213	20724.3125
817.07857	20709.9125
820.93231	20698.4125
824.78336	20504.7125
828.63172	20337.2125
832.47738	20213.7125
836.32036	20164.5125
840.16066	20173.1125
843.99827	20130.1125
847.8332	20055.8125
851.66546	19982.3125
855.49504	19921.7125
859.32195	19877.7125
863.1462	19880.5125
866.96777	19862.9125
870.78668	19836.2125
874.60293	19799.0125
878.41652	19772.3125
882.22745	19822.8125
886.03573	19860.5125
889.84136	19884.9125
893.64433	19833.5125
897.44466	19756.1125
901.24235	19652.6125
905.0374	19573.1125
908.8298	19520.3125
912.61957	19599.5125
916.40671	19779.8125
920.19121	20091.5125
923.97308	20302.5125
927.75233	20221.7125
931.52895	19940.6125
935.30295	19638.0125
939.07433	19250.7125
942.84309	18930.3125
946.60924	18790.0125
950.37278	18737.2125
954.13371	18737.5125
957.89203	18768.2125
961.64774	18792.9125
965.40086	18792.6125
969.15137	18663.7125
972.89929	18483.0125
976.64461	18309.3125
980.38733	18219.1125
984.12747	18215.6125
987.86502	18313.4125
991.59999	18460.7125
995.33237	18741.6125
999.06217	19142.0125
1002.78939	19677.6125
1006.51404	20061.4125
1010.23611	20367.0125
1013.95561	20571.5125
1017.67255	20574.4125
1021.38692	20287.0125
1025.09872	19945.7125
1028.80796	19733.3125
1032.51465	19791.5125
1036.21877	19933.2125
1039.92035	20011.0125
1043.61937	19958.4125
1047.31584	19893.3125
1051.00976	19795.6125
1054.70114	19847.5125
1058.38998	19938.5125
1062.07627	20225.7125
1065.76003	20526.8125
1069.44126	20736.7125
1073.11995	20913.9125
1076.79611	21045.7125
1080.46974	21130.9125
1084.14085	21218.0125
1087.80943	21436.9125
1091.47549	21701.9125
1095.13903	21899.9125
1098.80005	21762.4125
1102.45857	21253.7125
1106.11456	20850.3125
1109.76805	20649.2125
1113.41903	20688.5125
1117.06751	20869.7125
1120.71348	21173.1125
1124.35696	21413.6125
1127.99793	21687.4125
1131.63641	21882.1125
1135.2724	21822.1125
1138.90589	21748.7125
1142.5369	21846.9125
1146.16542	22058.5125
1149.79145	22463.3125
1153.415	22927.4125
1157.03607	23580.9125
1160.65467	24427.8125
1164.27079	25716.7125
1167.88443	27263.2125
1171.49561	29055.4125
1175.10432	31285.3125
1178.71056	34039.8125
1182.31434	36527.1125
1185.91565	37844.0125
1189.51451	37955.5125
1193.11091	37348.4125
1196.70485	36462.6125
1200.29634	35306.9125
1203.88538	34327.3125
1207.47197	33729.0125
1211.05612	33233.3125
1214.63782	32552.9125
1218.21708	31584.3125
1221.79391	30654.7125
1225.36829	29849.7125
1228.94024	29081.6125
1232.50976	28311.6125
1236.07685	27803.3125
1239.6415	27537.7125
1243.20374	27527.1125
1246.76355	27709.6125
1250.32093	28109.2125
1253.8759	28731.1125
1257.42845	29568.7125
1260.97859	30375.3125
1264.52631	31179.1125
1268.07163	32040.5125
1271.61453	32982.3125
1275.15503	34100.3125
1278.69312	35241.6125
1282.22882	36321.0125
1285.76211	37643.8125
1289.29301	39434.7125
1292.82151	41814.3125
1296.34761	44784.9125
1299.87133	48030.1125
1303.39266	51171.6125
1306.9116	53942.2125
1310.42815	56325.8125
1313.94233	57878.9125
1317.45412	58509.7125
1320.96354	58611.6125
1324.47058	58494.3125
1327.97525	58462.5125
1331.47754	58382.7125
1334.97747	58369.0125
1338.47502	58456.2125
1341.97022	57920.1125
1345.46305	56471.4125
1348.95352	54274.3125
1352.44163	52168.8125
1355.92738	50974.1125
1359.41078	51016.1125
1362.89183	51378.2125
1366.37053	50281.8125
1369.84688	47030.4125
1373.32088	42857.6125
1376.79254	39923.0125
1380.26186	39253.3125
1383.72883	39924.0125
1387.19347	40849.6125
1390.65578	41541.3125
1394.11575	42414.1125
1397.57339	43881.8125
1401.0287	45620.5125
1404.48168	47138.2125
1407.93234	47666.7125
1411.38068	46713.6125
1414.82669	44612.3125
1418.27039	41638.5125
1421.71177	38505.8125
1425.15083	35949.5125
1428.58758	34380.9125
1432.02203	34047.5125
1435.45416	34799.1125
1438.88399	36175.8125
1442.31151	37665.1125
1445.73673	38936.4125
1449.15965	40193.1125
1452.58027	41348.4125
1455.9986	42064.5125
1459.41463	42601.9125
1462.82837	43211.3125
1466.23982	43886.0125
1469.64898	44419.6125
1473.05586	44505.9125
1476.46045	44151.9125
1479.86276	43367.6125
1483.26279	42193.8125
1486.66054	41079.9125
1490.05602	40430.1125
1493.44922	39859.2125
1496.84016	39333.9125
1500.22882	39010.6125
1503.61521	39039.6125
1506.99934	39548.3125
1510.38121	40256.0125
1513.76081	40643.6125
1517.13816	40409.6125
1520.51324	39696.1125
1523.88607	39122.8125
1527.25665	39069.4125
1530.62498	39373.2125
1533.99105	39861.4125
1537.35488	39935.8125
1540.71647	39582.0125
1544.07581	38794.6125
1547.4329	37749.3125
1550.78776	36674.1125
1554.14038	35913.4125
1557.49077	35486.8125
1560.83892	35298.4125
1564.18484	35181.3125
1567.52853	35135.4125
1570.86999	35450.2125
1574.20922	36058.6125
1577.54624	37054.5125
1580.88103	37978.1125
1584.2136	39121.8125
1587.54395	40955.0125
1590.87208	43391.9125
1594.19801	46187.4125
1597.52172	48688.2125
1600.84321	49294.2125
1604.16251	46995.8125
1607.47959	42899.2125
1610.79447	38269.1125
1614.10715	34068.4125
1617.41763	30678.9125
1620.7259	28328.4125
1624.03199	27077.6125
1627.33587	26893.4125
1630.63757	27775.6125
1633.93707	29951.1125
1637.23439	33485.4125
1640.52951	38465.0125
1643.82246	44160.2125
1647.11321	48553.1125
1650.40179	49394.5125
1653.68819	45838.1125
1656.97241	39502.2125
1660.25446	33010.4125
1663.53433	27878.5125
1666.81203	24365.5125
1670.08756	22144.4125
1673.36092	20682.9125
1676.63211	19825.0125
1679.90115	19150.4125
1683.16801	18700.6125
1686.43272	18339.7125
1689.69527	18065.5125
1692.95567	17882.9125
1696.2139	17768.7125
1699.46999	17650.6125
1702.72392	17539.2125
1705.97571	17449.0125
1709.22535	17349.4125
1712.47284	17299.6125
1715.71819	17207.7125
1718.96139	17143.0125
1722.20246	17058.2125
1725.44139	16929.7125
1728.67818	16791.3125
1731.91284	16743.8125
1735.14537	16664.8125
1738.37576	16578.0125
1741.60403	16501.9125
1744.83017	16452.3125
1748.05418	16424.2125
1751.27607	16427.4125
1754.49584	16417.5125
1757.71349	16389.7125
1760.92903	16367.2125
1764.14244	16319.4125
1767.35375	16276.9125
1770.56294	16241.8125
1773.77002	16201.1125
1776.97499	16150.4125
1780.17785	16113.1125
1783.37861	16065.4125
1786.57727	16043.7125
1789.77382	15988.7125
1792.96828	15952.7125
1796.16064	15920.5125
1799.3509	15858.6125
1802.53907	15811.4125
1805.72514	15775.1125
1808.90913	15727.5125
1812.09102	15718.5125
1815.27083	15680.9125
1818.44856	15662.9125
1821.6242	15616.1125
1824.79776	15565.7125
1827.96924	15562.7125
1831.13864	15547.3125
1834.30597	15544.4125
1837.47122	15552.3125
1840.6344	15560.5125
1843.7955	15548.1125
1846.95454	15519.5125
1850.11151	15526.7125
1853.26642	15518.2125
1856.41926	15518.2125
1859.57004	15536.5125
1862.71876	15509.8125
1865.86542	15508.1125
1869.01003	15465.4125
1872.15258	15478.6125
1875.29308	15478.0125
1878.43152	15483.2125
1881.56792	15474.4125
1884.70227	15473.8125
1887.83457	15442.7125
1890.96482	15427.2125
1894.09304	15410.6125
1897.21921	15403.5125
1900.34335	15417.8125
1903.46544	15436.5125
1906.58551	15425.9125
1909.70353	15405.9125
1912.81953	15377.1125
1915.93349	15327.2125
1919.04543	15310.4125
1922.15534	15231.9125
1925.26322	15204.1125
1928.36908	15166.6125
1931.47292	15127.3125
1934.57473	15067.0125
1937.67453	15034.0125
1940.77232	14936.5125
1943.86808	14898.4125
1946.96184	14851.7125
1950.05358	14781.3125
1953.14331	14740.4125
1956.23103	14742.5125
1959.31675	14648.5125
1962.40046	14601.2125
1965.48217	14530.2125
1968.56188	14513.9125
1971.63959	14459.0125
1974.7153	14419.0125
1977.78901	14385.5125
1980.86073	14350.3125
1983.93046	14286.3125
1986.99819	14222.4125
1990.06394	14195.6125
1993.1277	14175.3125
1996.18947	14104.9125
1999.24925	14053.5125
2002.30706	14030.5125
2005.36288	13973.2125
2008.41672	13941.7125
2011.46859	13903.4125
2014.51848	13828.7125
2017.56639	13799.8125
2020.61233	13794.2125
2023.6563	13793.3125
2026.6983	13747.0125
2029.73833	13715.8125
2032.7764	13671.3125
2035.8125	13677.7125
2038.84664	13640.8125
2041.87881	13636.4125
2044.90903	13612.2125
2047.93729	13565.9125
2050.96359	13571.5125
2053.98794	13549.7125
2057.01034	13541.1125
2060.03078	13507.5125
2063.04927	13485.6125
2066.06582	13497.9125
2069.08042	13477.7125
2072.09307	13462.3125
2075.10378	13467.1125
2078.11255	13441.3125
2081.11938	13426.9125
2084.12426	13432.1125
2087.12722	13417.3125
2090.12824	13391.5125
2093.12732	13386.9125
2096.12447	13400.2125
2099.11969	13410.3125
2102.11299	13391.1125
2105.10435	13402.1125
2108.09379	13387.3125
2111.08131	13422.5125
2114.0669	13396.6125
2117.05057	13376.7125
2120.03233	13387.4125
2123.01216	13421.4125
2125.99008	13389.5125
2128.96609	13435.9125
2131.94018	13405.2125
2134.91236	13416.5125
2137.88263	13432.6125
2140.851	13444.1125
2143.81746	13433.3125
2146.78201	13409.8125
2149.74466	13418.7125
2152.7054	13406.6125
2155.66425	13384.8125
2158.6212	13390.3125
2161.57625	13402.4125
2164.52941	13372.4125
2167.48067	13332.8125
2170.43004	13321.7125
2173.37752	13355.0125
2176.32311	13369.9125
2179.26681	13382.8125
2182.20863	13348.8125
2185.14856	13354.2125
2188.08661	13343.7125
2191.02278	13329.5125
2193.95707	13305.9125
2196.88948	13316.6125
2199.82001	13299.6125
2202.74867	13273.7125
2205.67545	13282.6125
2208.60037	13275.5125
2211.52341	13232.0125
2214.44458	13202.7125
2217.36388	13209.7125
2220.28132	13201.3125
2223.1969	13153.3125
2226.11061	13136.1125
2229.02246	13090.5125
2231.93245	13088.6125
2234.84058	13049.2125
2237.74686	13035.5125
2240.65128	13059.9125
2243.55385	13006.2125
2246.45456	12986.3125
2249.35343	12956.2125
2252.25044	12911.8125
2255.14561	12891.5125
2258.03893	12863.4125
2260.93041	12863.5125
2263.82004	12809.2125
2266.70783	12737.8125
2269.59378	12733.5125
2272.4779	12712.3125
2275.36017	12662.7125
2278.24061	12670.1125
2281.11922	12617.6125
2283.996	12637.2125
2286.87094	12574.7125
2289.74405	12545.1125
2292.61534	12551.5125
2295.4848	12528.5125
2298.35243	12529.9125
2301.21824	12502.3125
2304.08223	12500.4125
2306.94439	12473.9125
2309.80474	12501.8125
2312.66327	12468.8125
2315.51999	12490.5125
2318.37489	12456.5125
2321.22797	12443.3125
2324.07925	12448.8125
2326.92871	12455.3125
2329.77637	12418.4125
2332.62222	12416.3125
2335.46626	12379.6125
2338.3085	12391.6125
2341.14893	12378.2125
2343.98756	12372.4125
2346.8244	12376.4125
2349.65943	12347.0125
2352.49267	12369.1125
2355.32411	12366.2125
2358.15376	12347.2125
2360.98161	12340.6125
2363.80768	12343.9125
2366.63195	12318.2125
2369.45444	12331.9125
2372.27514	12296.9125
2375.09405	12294.9125
2377.91118	12262.4125
2380.72652	12251.4125
2383.54009	12201.1125
2386.35187	12188.5125
2389.16188	12157.6125
2391.97011	12132.5125
2394.77657	12102.5125
2397.58125	12096.6125
2400.38416	12084.7125
2403.18529	12062.5125
2405.98466	12062.9125
2408.78226	12020.8125
2411.57809	12037.2125
2414.37216	12018.8125
2417.16446	11988.2125
2419.955	11956.0125
2422.74378	11986.5125
2425.5308	11954.6125
2428.31606	11967.9125
2431.09956	11950.3125
2433.88131	11930.4125
2436.6613	11942.1125
2439.43954	11903.5125
2442.21603	11899.7125
2444.99077	11909.7125
2447.76377	11888.1125
2450.53501	11910.1125
2453.30451	11905.9125
2456.07226	11895.2125
2458.83827	11888.4125
2461.60254	11887.0125
2464.36507	11890.8125
2467.12586	11898.3125
2469.88492	11897.0125
2472.64224	11904.3125
2475.39782	11909.0125
2478.15167	11913.9125
2480.90379	11897.6125
2483.65417	11917.9125
2486.40283	11898.1125
2489.14976	11937.1125
2491.89497	11925.7125
2494.63845	11943.4125
2497.3802	11911.5125
2500.12024	11919.6125
2502.85855	11911.6125
2505.59514	11931.7125
2508.33002	11940.8125
2511.06318	11898.8125
2513.79462	11901.5125
2516.52435	11914.0125
2519.25237	11895.6125
2521.97867	11868.6125
2524.70327	11889.2125
2527.42616	11872.0125
2530.14734	11843.4125
2532.86681	11802.7125
2535.58458	11849.4125
2538.30065	11821.4125
2541.01501	11807.7125
2543.72768	11765.8125
2546.43864	11762.1125
2549.14791	11749.5125
2551.85548	11762.5125
2554.56136	11775.7125
2557.26554	11766.1125
2559.96803	11716.0125
2562.66883	11725.4125
2565.36794	11716.5125
2568.06536	11734.3125
2570.7611	11709.8125
2573.45514	11721.3125
2576.14751	11695.1125
2578.83819	11687.4125
2581.52719	11679.9125
2584.21451	11671.5125
2586.90015	11683.1125
2589.58411	11705.8125
2592.2664	11691.0125
2594.94701	11700.9125
2597.62594	11698.7125
2600.30321	11685.9125
2602.9788	11683.5125
2605.65273	11681.9125
2608.32498	11708.1125
2610.99557	11679.5125
2613.66449	11684.2125
2616.33175	11675.5125
2618.99734	11664.0125
2621.66128	11715.8125
2624.32355	11722.3125
2626.98416	11728.3125
2629.64311	11698.7125
2632.30041	11702.9125
2634.95605	11717.2125
2637.61004	11693.4125
2640.26238	11657.9125
2642.91306	11666.4125
2645.56209	11675.0125
2648.20948	11693.7125
2650.85521	11691.7125
2653.4993	11696.9125
2656.14175	11709.4125
2658.78255	11692.6125
2661.42171	11714.9125
2664.05923	11710.3125
2666.6951	11730.5125
2669.32934	11713.5125
2671.96194	11750.5125
2674.59291	11769.1125
2677.22224	11733.9125
2679.84993	11781.0125
2682.476	11832.6125
2685.10043	11754.6125
2687.72324	11744.4125
2690.34441	11746.6125
2692.96396	11747.9125
2695.58188	11745.0125
2698.19818	11719.5125
2700.81285	11732.5125
2703.4259	11738.5125
2706.03733	11805.4125
2708.64714	11763.0125
2711.25533	11767.3125
2713.86191	11768.5125
2716.46687	11798.3125
2719.07021	11769.7125
2721.67194	11786.3125
2724.27206	11814.2125
2726.87057	11795.3125
2729.46747	11816.5125
2732.06276	11811.9125
2734.65644	11825.1125
2737.24852	11838.9125
2739.83899	11807.0125
2742.42786	11858.1125
2745.01513	11838.7125
2747.60079	11822.0125
2750.18486	11839.0125
2752.76733	11870.6125
2755.3482	11850.9125
2757.92747	11838.3125
2760.50515	11837.4125
2763.08123	11852.4125
2765.65573	11874.8125
2768.22863	11888.0125
2770.79994	11866.9125
2773.36967	11848.5125
2775.9378	11859.7125
2778.50435	11860.7125
2781.06932	11858.9125
2783.6327	11866.6125
2786.1945	11860.9125
2788.75471	11856.4125
2791.31335	11873.5125
2793.87041	11841.7125
2796.42589	11811.8125
2798.97979	11805.1125
2801.53212	11783.1125
2804.08288	11802.7125
2806.63206	11774.4125
2809.17967	11716.1125
2811.72571	11710.7125
2814.27018	11695.3125
2816.81308	11678.8125
2819.35442	11672.2125
2821.89419	11629.9125
2824.43239	11658.9125
2826.96904	11616.6125
2829.50412	11601.7125
2832.03763	11599.6125
2834.56959	11597.7125
2837.1	11590.9125
2839.62884	11591.2125
2842.15613	11576.2125
2844.68186	11645.5125
2847.20604	11644.5125
2849.72867	11663.0125
2852.24974	11644.0125
2854.76927	11650.5125
2857.28724	11612.8125
2859.80367	11575.8125
2862.31855	11583.3125
2864.83189	11589.8125
2867.34368	11551.9125
2869.85393	11570.9125
2872.36264	11574.5125
2874.8698	11599.1125
2877.37543	11578.3125
2879.87952	11578.6125
2882.38207	11577.4125
2884.88308	11548.2125
2887.38256	11580.1125
2889.88051	11561.7125
2892.37692	11585.0125
2894.8718	11586.8125
2897.36515	11638.9125
2899.85698	11620.0125
2902.34727	11650.5125
2904.83604	11668.9125
2907.32328	11687.1125
2909.809	11690.0125
2912.29319	11700.5125
2914.77587	11699.6125
2917.25702	11693.7125
2919.73665	11653.4125
2922.21476	11677.2125
2924.69136	11670.2125
2927.16644	11668.0125
2929.64	11650.7125
2932.11205	11647.4125
2934.58258	11609.9125
2937.05161	11626.1125
2939.51912	11631.4125
2941.98513	11619.2125
2944.44962	11567.3125
2946.91261	11519.5125
2949.37409	11511.0125
2951.83407	11465.5125
2954.29254	11460.9125
2956.74951	11442.5125
2959.20498	11428.9125
2961.65895	11430.8125
2964.11142	11385.5125
2966.56239	11365.9125
2969.01186	11339.1125
2971.45984	11294.6125
2973.90632	11258.0125
2976.35131	11230.3125
2978.7948	11208.3125
2981.23681	11174.7125
2983.67732	11178.4125
2986.11635	11148.1125
2988.55388	11104.4125
2990.98993	11083.3125
2993.4245	11029.6125
2995.85758	11035.3125
2998.28917	11001.4125
3000.71928	10970.9125
3003.14791	10948.6125
3005.57506	10930.7125
3008.00073	10893.8125
3010.42493	10882.1125
3012.84764	10846.6125
3015.26888	10843.7125
3017.68865	10772.0125
3020.10694	10791.4125
3022.52376	10778.7125
3024.9391	10745.1125
