Data from AgNPs_FTO_APTES_UA_2uM_CRN_500uM_R6G_10uM_NaF_0.1M_Addition_RamanShift__21__17-23-05-422.txt Node

Date: Wed Feb 02 17:23:05 GMT 2022
User: TCL
Spectrometer: QEP01345
Trigger mode: 4
Integration Time (sec): 7.000000E0
Scans to average: 10
Electric dark correction enabled: true
Nonlinearity correction enabled: false
Boxcar width: 0
XAxis mode: Raman Shifts
Number of Pixels in Spectrum: 1044
>>>>>Begin Spectral Data<<<<<
46.04893	0.775
50.45542	0.775
54.85868	-1.925
59.25871	-1.025
63.6555	68.175
68.04907	75.175
72.43941	75.075
76.82654	81.275
81.21044	82.375
85.59113	89.475
89.96862	93.275
94.34289	95.275
98.71396	99.775
103.08183	101.675
107.4465	105.175
111.80798	111.075
116.16626	109.875
120.52136	115.875
124.87327	120.175
129.222	124.975
133.56755	135.375
137.90993	137.375
142.24913	154.275
146.58517	173.675
150.91804	199.675
155.24774	241.475
159.57429	297.475
163.89768	378.675
168.21792	504.775
172.53501	688.675
176.84895	952.675
181.15975	1349.375
185.46741	1882.375
189.77193	2580.175
194.07331	3441.075
198.37157	4425.675
202.6667	5460.875
206.9587	6495.875
211.24758	7507.075
215.53334	8542.075
219.81599	9621.275
224.09553	10785.475
228.37195	12089.475
232.64527	13493.575
236.91549	14952.475
241.18261	16386.275
245.44663	17821.175
249.70755	19120.575
253.96539	20296.875
258.22014	21310.375
262.4718	22144.675
266.72039	22703.975
270.96589	23100.275
275.20832	23266.975
279.44768	23322.675
283.68397	23302.175
287.91719	23237.675
292.14735	23293.975
296.37445	23425.875
300.59849	23481.375
304.81948	23439.975
309.03742	23197.975
313.25231	22718.375
317.46415	22004.575
321.67296	21236.775
325.87872	20638.175
330.08145	20345.875
334.28114	20205.775
338.47781	20261.775
342.67145	20476.975
346.86207	20739.275
351.04966	21078.375
355.23424	21453.375
359.4158	21769.975
363.59435	21968.875
367.76989	22103.575
371.94243	22212.775
376.11196	22295.875
380.27849	22429.675
384.44203	22642.775
388.60257	22875.475
392.76012	23133.075
396.91468	23440.075
401.06626	23782.575
405.21485	24021.075
409.36047	23981.075
413.50311	23709.075
417.64277	23502.375
421.77947	23520.275
425.9132	23706.775
430.04396	23908.475
434.17176	24147.375
438.2966	24438.675
442.41849	24962.175
446.53742	25696.875
450.6534	26567.675
454.76644	27237.575
458.87653	27539.975
462.98368	27451.875
467.08789	27179.875
471.18916	27037.575
475.2875	26973.375
479.38291	27205.375
483.4754	27305.675
487.56496	26907.975
491.6516	26146.075
495.73531	25324.475
499.81612	24752.775
503.89401	24622.175
507.96899	24534.875
512.04106	24316.775
516.11023	24007.075
520.1765	23625.575
524.23987	23292.275
528.30034	23041.175
532.35792	22819.375
536.41261	22658.475
540.46441	22520.075
544.51333	22607.475
548.55936	23063.675
552.60252	23738.675
556.64279	24532.875
560.6802	25189.575
564.71473	25678.475
568.7464	26402.275
572.7752	27223.775
576.80114	27729.875
580.82422	27960.875
584.84444	28150.275
588.86181	28440.975
592.87633	28867.775
596.888	29038.775
600.89682	28836.375
604.9028	28932.975
608.90594	30087.475
612.90624	31083.475
616.90371	28915.675
620.89834	24713.275
624.89015	22905.975
628.87913	22772.375
632.86528	23058.275
636.84862	23230.675
640.82913	22943.375
644.80683	22354.575
648.78172	21713.375
652.75379	21460.275
656.72306	21505.175
660.68952	21687.575
664.65319	21654.775
668.61405	21403.875
672.57211	21268.975
676.52738	21335.675
680.47986	21427.975
684.42955	21357.675
688.37646	21298.875
692.32058	21290.175
696.26192	21498.675
700.20048	21722.475
704.13626	21931.275
708.06928	21965.675
711.99952	21904.575
715.927	21834.375
719.85171	21813.475
723.77365	21781.375
727.69284	21597.175
731.60928	21420.375
735.52295	21398.675
739.43388	21361.875
743.34206	21372.175
747.24749	21453.975
751.15017	21675.675
755.05012	22134.875
758.94733	22875.375
762.8418	24111.875
766.73354	25780.775
770.62254	27212.675
774.50882	27196.275
778.39237	25719.475
782.27321	23814.175
786.15132	22322.375
790.02671	21467.475
793.89938	21049.175
797.76935	20921.475
801.6366	20926.075
805.50115	20944.975
809.36299	20858.075
813.22213	20715.575
817.07857	20761.275
820.93231	20705.675
824.78336	20554.675
828.63172	20390.675
832.47738	20255.975
836.32036	20229.375
840.16066	20219.375
843.99827	20195.675
847.8332	20094.675
851.66546	20043.475
855.49504	19985.175
859.32195	19987.275
863.1462	19936.175
866.96777	19909.675
870.78668	19882.775
874.60293	19862.875
878.41652	19896.975
882.22745	19875.975
886.03573	19955.575
889.84136	19951.775
893.64433	19881.775
897.44466	19798.875
901.24235	19755.175
905.0374	19650.475
908.8298	19610.975
912.61957	19659.575
916.40671	19886.175
920.19121	20164.275
923.97308	20324.875
927.75233	20218.175
931.52895	20000.375
935.30295	19689.475
939.07433	19329.875
942.84309	18995.775
946.60924	18822.675
950.37278	18795.475
954.13371	18780.675
957.89203	18825.975
961.64774	18878.775
965.40086	18822.875
969.15137	18741.975
972.89929	18525.475
976.64461	18384.575
980.38733	18299.675
984.12747	18305.475
987.86502	18389.275
991.59999	18545.675
995.33237	18798.975
999.06217	19173.475
1002.78939	19686.175
1006.51404	20086.375
1010.23611	20377.375
1013.95561	20585.675
1017.67255	20584.275
1021.38692	20345.375
1025.09872	19999.675
1028.80796	19808.975
1032.51465	19844.475
1036.21877	19968.575
1039.92035	20054.475
1043.61937	20020.475
1047.31584	19963.775
1051.00976	19874.975
1054.70114	19934.875
1058.38998	20035.275
1062.07627	20288.775
1065.76003	20591.375
1069.44126	20800.975
1073.11995	21021.775
1076.79611	21162.275
1080.46974	21218.275
1084.14085	21309.975
1087.80943	21555.075
1091.47549	21784.975
1095.13903	21915.675
1098.80005	21842.975
1102.45857	21403.475
1106.11456	20947.175
1109.76805	20692.175
1113.41903	20726.075
1117.06751	20936.075
1120.71348	21198.375
1124.35696	21392.175
1127.99793	21743.875
1131.63641	21947.675
1135.2724	21843.775
1138.90589	21780.475
1142.5369	21837.275
1146.16542	22070.675
1149.79145	22435.875
1153.415	22922.775
1157.03607	23512.075
1160.65467	24369.975
1164.27079	25628.275
1167.88443	27121.675
1171.49561	28867.875
1175.10432	31066.475
1178.71056	33767.175
1182.31434	36206.875
1185.91565	37584.875
1189.51451	37647.975
1193.11091	37141.575
1196.70485	36288.875
1200.29634	35050.875
1203.88538	34073.675
1207.47197	33450.075
1211.05612	32927.575
1214.63782	32216.575
1218.21708	31313.475
1221.79391	30363.475
1225.36829	29670.675
1228.94024	28863.075
1232.50976	28168.875
1236.07685	27648.075
1239.6415	27445.875
1243.20374	27387.675
1246.76355	27556.775
1250.32093	28036.775
1253.8759	28578.175
1257.42845	29411.675
1260.97859	30258.875
1264.52631	31026.675
1268.07163	31858.975
1271.61453	32807.175
1275.15503	33859.775
1278.69312	34998.775
1282.22882	36091.775
1285.76211	37341.175
1289.29301	39094.875
1292.82151	41381.075
1296.34761	44226.375
1299.87133	47378.375
1303.39266	50369.875
1306.9116	53081.075
1310.42815	55321.175
1313.94233	56835.575
1317.45412	57414.675
1320.96354	57410.575
1324.47058	57372.375
1327.97525	57298.575
1331.47754	57283.975
1334.97747	57344.575
1338.47502	57393.675
1341.97022	56940.275
1345.46305	55602.275
1348.95352	53583.075
1352.44163	51604.175
1355.92738	50442.375
1359.41078	50315.675
1362.89183	50666.175
1366.37053	49598.575
1369.84688	46437.275
1373.32088	42320.975
1376.79254	39562.975
1380.26186	38851.475
1383.72883	39468.275
1387.19347	40371.275
1390.65578	40919.075
1394.11575	41744.175
1397.57339	43020.775
1401.0287	44601.575
1404.48168	45944.175
1407.93234	46370.775
1411.38068	45444.375
1414.82669	43362.675
1418.27039	40543.875
1421.71177	37718.275
1425.15083	35226.875
1428.58758	33719.175
1432.02203	33506.075
1435.45416	34281.675
1438.88399	35604.675
1442.31151	36971.575
1445.73673	38279.275
1449.15965	39398.975
1452.58027	40551.175
1455.9986	41180.175
1459.41463	41716.175
1462.82837	42260.575
1466.23982	42887.675
1469.64898	43410.575
1473.05586	43392.175
1476.46045	43086.875
1479.86276	42314.175
1483.26279	41307.775
1486.66054	40319.775
1490.05602	39687.575
1493.44922	39247.475
1496.84016	38846.475
1500.22882	38625.175
1503.61521	38826.375
1506.99934	39402.475
1510.38121	40166.575
1513.76081	40575.575
1517.13816	40312.975
1520.51324	39563.875
1523.88607	38987.275
1527.25665	38851.775
1530.62498	39159.575
1533.99105	39474.675
1537.35488	39592.375
1540.71647	39209.275
1544.07581	38428.975
1547.4329	37391.475
1550.78776	36419.375
1554.14038	35635.175
1557.49077	35260.875
1560.83892	35023.975
1564.18484	34949.875
1567.52853	34868.675
1570.86999	35131.175
1574.20922	35770.475
1577.54624	36679.175
1580.88103	37568.975
1584.2136	38662.675
1587.54395	40391.075
1590.87208	42708.675
1594.19801	45353.475
1597.52172	47706.075
1600.84321	48227.375
1604.16251	46117.275
1607.47959	42145.375
1610.79447	37729.275
1614.10715	33758.475
1617.41763	30450.175
1620.7259	28173.175
1624.03199	26924.775
1627.33587	26730.175
1630.63757	27547.175
1633.93707	29584.175
1637.23439	32987.975
1640.52951	37791.175
1643.82246	43223.575
1647.11321	47517.875
1650.40179	48269.275
1653.68819	44871.475
1656.97241	38849.975
1660.25446	32633.475
1663.53433	27677.075
1666.81203	24260.775
1670.08756	22123.075
1673.36092	20726.375
1676.63211	19845.875
1679.90115	19206.475
1683.16801	18772.175
1686.43272	18429.375
1689.69527	18164.475
1692.95567	17956.475
1696.2139	17810.075
1699.46999	17739.575
1702.72392	17644.675
1705.97571	17541.675
1709.22535	17449.575
1712.47284	17375.075
1715.71819	17333.775
1718.96139	17246.175
1722.20246	17142.775
1725.44139	17031.375
1728.67818	16924.975
1731.91284	16842.975
1735.14537	16757.175
1738.37576	16707.075
1741.60403	16632.775
1744.83017	16562.975
1748.05418	16534.575
1751.27607	16535.175
1754.49584	16530.675
1757.71349	16513.775
1760.92903	16443.275
1764.14244	16439.675
1767.35375	16379.775
1770.56294	16361.375
1773.77002	16306.775
1776.97499	16249.675
1780.17785	16218.875
1783.37861	16152.975
1786.57727	16123.175
1789.77382	16073.875
1792.96828	16046.975
1796.16064	16029.075
1799.3509	15963.075
1802.53907	15957.375
1805.72514	15887.675
1808.90913	15838.675
1812.09102	15820.975
1815.27083	15789.375
1818.44856	15736.775
1821.6242	15707.175
1824.79776	15703.075
1827.96924	15684.075
1831.13864	15660.575
1834.30597	15685.075
1837.47122	15680.075
1840.6344	15684.875
1843.7955	15676.775
1846.95454	15642.475
1850.11151	15658.875
1853.26642	15602.275
1856.41926	15626.175
1859.57004	15646.275
1862.71876	15619.975
1865.86542	15629.075
1869.01003	15550.375
1872.15258	15574.375
1875.29308	15562.775
1878.43152	15561.275
1881.56792	15566.475
1884.70227	15565.075
1887.83457	15556.975
1890.96482	15546.875
1894.09304	15523.675
1897.21921	15522.075
1900.34335	15528.275
1903.46544	15529.875
1906.58551	15519.275
1909.70353	15470.375
1912.81953	15458.975
1915.93349	15413.775
1919.04543	15392.175
1922.15534	15326.275
1925.26322	15306.575
1928.36908	15269.675
1931.47292	15197.375
1934.57473	15175.875
1937.67453	15126.375
1940.77232	15050.275
1943.86808	15000.975
1946.96184	14931.875
1950.05358	14943.475
1953.14331	14859.075
1956.23103	14803.675
1959.31675	14773.175
1962.40046	14723.175
1965.48217	14683.975
1968.56188	14596.175
1971.63959	14582.475
1974.7153	14513.275
1977.78901	14505.475
1980.86073	14453.975
1983.93046	14411.175
1986.99819	14346.275
1990.06394	14313.875
1993.1277	14281.775
1996.18947	14192.675
1999.24925	14160.675
2002.30706	14132.775
2005.36288	14093.375
2008.41672	14045.875
2011.46859	14009.775
2014.51848	13963.975
2017.56639	13913.675
2020.61233	13902.675
2023.6563	13884.275
2026.6983	13860.275
2029.73833	13812.875
2032.7764	13810.375
2035.8125	13761.475
2038.84664	13742.175
2041.87881	13725.175
2044.90903	13695.075
2047.93729	13657.875
2050.96359	13660.775
2053.98794	13649.075
2057.01034	13643.075
2060.03078	13616.575
2063.04927	13619.975
2066.06582	13626.675
2069.08042	13599.675
2072.09307	13551.875
2075.10378	13571.175
2078.11255	13528.575
2081.11938	13543.175
2084.12426	13556.875
2087.12722	13544.075
2090.12824	13508.975
2093.12732	13469.875
2096.12447	13532.375
2099.11969	13525.075
2102.11299	13529.275
2105.10435	13526.375
2108.09379	13495.775
2111.08131	13534.175
2114.0669	13512.675
2117.05057	13508.975
2120.03233	13525.175
2123.01216	13545.775
2125.99008	13530.775
2128.96609	13526.175
2131.94018	13549.775
2134.91236	13536.375
2137.88263	13578.975
2140.851	13553.175
2143.81746	13559.075
2146.78201	13553.375
2149.74466	13535.375
2152.7054	13551.275
2155.66425	13527.075
2158.6212	13514.875
2161.57625	13511.875
2164.52941	13523.175
2167.48067	13521.175
2170.43004	13489.475
2173.37752	13502.075
2176.32311	13491.875
2179.26681	13507.475
2182.20863	13494.475
2185.14856	13500.475
2188.08661	13489.175
2191.02278	13472.275
2193.95707	13456.675
2196.88948	13465.075
2199.82001	13443.275
2202.74867	13434.775
2205.67545	13410.475
2208.60037	13391.875
2211.52341	13368.475
2214.44458	13353.875
2217.36388	13333.175
2220.28132	13312.775
2223.1969	13315.875
2226.11061	13304.675
2229.02246	13240.775
2231.93245	13232.175
2234.84058	13217.575
2237.74686	13171.375
2240.65128	13170.675
2243.55385	13159.075
2246.45456	13138.475
2249.35343	13100.475
2252.25044	13025.875
2255.14561	13040.175
2258.03893	13004.075
2260.93041	12990.175
2263.82004	12937.975
2266.70783	12904.775
2269.59378	12882.275
2272.4779	12837.975
2275.36017	12788.575
2278.24061	12791.575
2281.11922	12777.775
2283.996	12763.575
2286.87094	12694.575
2289.74405	12710.875
2292.61534	12694.575
2295.4848	12686.075
2298.35243	12678.675
2301.21824	12687.675
2304.08223	12643.575
2306.94439	12654.375
2309.80474	12636.575
2312.66327	12626.475
2315.51999	12626.475
2318.37489	12606.275
2321.22797	12597.975
2324.07925	12588.175
2326.92871	12565.375
2329.77637	12566.575
2332.62222	12560.375
2335.46626	12547.975
2338.3085	12506.975
2341.14893	12515.275
2343.98756	12528.275
2346.8244	12522.575
2349.65943	12505.875
2352.49267	12522.075
2355.32411	12502.075
2358.15376	12526.075
2360.98161	12505.375
2363.80768	12485.575
2366.63195	12483.275
2369.45444	12453.375
2372.27514	12440.375
2375.09405	12418.775
2377.91118	12418.875
2380.72652	12390.775
2383.54009	12366.475
2386.35187	12336.075
2389.16188	12296.575
2391.97011	12290.475
2394.77657	12248.575
2397.58125	12232.275
2400.38416	12243.575
2403.18529	12193.975
2405.98466	12204.475
2408.78226	12182.475
2411.57809	12188.775
2414.37216	12168.575
2417.16446	12168.575
2419.955	12112.875
2422.74378	12102.875
2425.5308	12097.875
2428.31606	12104.075
2431.09956	12122.575
2433.88131	12057.175
2436.6613	12088.775
2439.43954	12047.475
2442.21603	12024.475
2444.99077	12041.175
2447.76377	12043.475
2450.53501	12063.275
2453.30451	12076.375
2456.07226	12052.775
2458.83827	12036.775
2461.60254	12032.375
2464.36507	12046.775
2467.12586	12034.475
2469.88492	12038.475
2472.64224	12014.575
2475.39782	12043.375
2478.15167	12044.375
2480.90379	12057.775
2483.65417	12050.875
2486.40283	12054.275
2489.14976	12057.775
2491.89497	12041.775
2494.63845	12085.175
2497.3802	12057.075
2500.12024	12080.575
2502.85855	12077.575
2505.59514	12080.775
2508.33002	12088.075
2511.06318	12077.375
2513.79462	12068.775
2516.52435	12016.375
2519.25237	12023.975
2521.97867	12007.775
2524.70327	12039.275
2527.42616	11999.375
2530.14734	11964.575
2532.86681	11958.375
2535.58458	11975.075
2538.30065	11951.075
2541.01501	11945.775
2543.72768	11900.375
2546.43864	11915.375
2549.14791	11898.675
2551.85548	11908.475
2554.56136	11907.675
2557.26554	11872.475
2559.96803	11864.175
2562.66883	11876.575
2565.36794	11873.275
2568.06536	11863.875
2570.7611	11840.675
2573.45514	11849.075
2576.14751	11831.675
2578.83819	11836.375
2581.52719	11823.975
2584.21451	11806.075
2586.90015	11809.375
2589.58411	11794.675
2592.2664	11811.775
2594.94701	11801.775
2597.62594	11812.375
2600.30321	11797.275
2602.9788	11816.075
2605.65273	11816.475
2608.32498	11781.775
2610.99557	11810.975
2613.66449	11823.775
2616.33175	11780.875
2618.99734	11819.475
2621.66128	11811.575
2624.32355	11834.175
2626.98416	11838.875
2629.64311	11851.675
2632.30041	11816.275
2634.95605	11836.475
2637.61004	11798.575
2640.26238	11816.175
2642.91306	11786.275
2645.56209	11789.375
2648.20948	11805.175
2650.85521	11793.375
2653.4993	11809.875
2656.14175	11808.075
2658.78255	11820.375
2661.42171	11830.875
2664.05923	11842.575
2666.6951	11831.575
2669.32934	11837.675
2671.96194	11823.475
2674.59291	11848.775
2677.22224	11822.175
2679.84993	11836.175
2682.476	11828.275
2685.10043	11838.575
2687.72324	11837.275
2690.34441	11856.975
2692.96396	11861.375
2695.58188	11851.375
2698.19818	11845.575
2700.81285	11860.575
2703.4259	11858.175
2706.03733	11904.375
2708.64714	11856.975
2711.25533	11890.475
2713.86191	11861.575
2716.46687	11876.975
2719.07021	11860.375
2721.67194	11906.575
2724.27206	11882.975
2726.87057	11896.975
2729.46747	11929.675
2732.06276	11924.175
2734.65644	11935.275
2737.24852	11941.075
2739.83899	11909.075
2742.42786	11966.375
2745.01513	11910.375
2747.60079	11940.475
2750.18486	11924.075
2752.76733	11948.775
2755.3482	11952.275
2757.92747	11936.675
2760.50515	11960.875
2763.08123	11974.675
2765.65573	11969.275
2768.22863	11975.175
2770.79994	11944.075
2773.36967	11931.775
2775.9378	11975.275
2778.50435	11958.075
2781.06932	11939.775
2783.6327	11953.275
2786.1945	11966.375
2788.75471	11948.375
2791.31335	11919.975
2793.87041	11927.875
2796.42589	11877.275
2798.97979	11887.675
2801.53212	11883.275
2804.08288	11889.175
2806.63206	11847.775
2809.17967	11810.175
2811.72571	11813.675
2814.27018	11768.975
2816.81308	11766.775
2819.35442	11747.375
2821.89419	11733.975
2824.43239	11726.075
2826.96904	11689.875
2829.50412	11694.575
2832.03763	11681.675
2834.56959	11703.675
2837.1	11692.675
2839.62884	11690.475
2842.15613	11675.575
2844.68186	11718.975
2847.20604	11738.175
2849.72867	11760.975
2852.24974	11740.975
2854.76927	11756.975
2857.28724	11713.175
2859.80367	11693.975
2862.31855	11689.175
2864.83189	11675.775
2867.34368	11645.975
2869.85393	11649.775
2872.36264	11673.375
2874.8698	11669.075
2877.37543	11673.775
2879.87952	11667.575
2882.38207	11681.075
2884.88308	11642.175
2887.38256	11640.075
2889.88051	11634.875
2892.37692	11654.975
2894.8718	11669.275
2897.36515	11714.375
2899.85698	11701.475
2902.34727	11748.475
2904.83604	11740.575
2907.32328	11758.275
2909.809	11769.375
2912.29319	11785.975
2914.77587	11769.075
2917.25702	11741.375
2919.73665	11747.275
2922.21476	11776.675
2924.69136	11762.075
2927.16644	11749.375
2929.64	11748.175
2932.11205	11734.475
2934.58258	11698.475
2937.05161	11711.975
2939.51912	11719.475
2941.98513	11680.875
2944.44962	11655.475
2946.91261	11616.075
2949.37409	11605.975
2951.83407	11589.475
2954.29254	11583.775
2956.74951	11535.075
2959.20498	11530.075
2961.65895	11489.075
2964.11142	11486.475
2966.56239	11458.075
2969.01186	11437.775
2971.45984	11364.475
2973.90632	11377.275
2976.35131	11328.675
2978.7948	11302.175
2981.23681	11295.375
2983.67732	11279.475
2986.11635	11229.875
2988.55388	11186.175
2990.98993	11179.275
2993.4245	11135.375
2995.85758	11109.575
2998.28917	11090.875
3000.71928	11063.475
3003.14791	11056.975
3005.57506	11027.975
3008.00073	10980.975
3010.42493	10984.075
3012.84764	10968.775
3015.26888	10945.775
3017.68865	10912.175
3020.10694	10889.375
3022.52376	10870.575
3024.9391	10842.475
3027.35298	10828.675
3029.76539	10822.275
3032.17632	10802.275
3034.5858	10761.675
3036.9938	10801.575
3039.40034	10786.075
3041.80542	10791.075
3044.20903	10776.575
3046.61118	10777.675
3049.01187	10739.575
3051.4111	10723.775
3053.80888	10703.475
3056.20519	10692.775
3058.60005	10665.375
3060.99345	10658.875
3063.3854	10623.975
3065.7759	10571.475
3068.16494	10546.475
3070.55254	10466.975
3072.93868	10473.375
3075.32338	10442.775
3077.70662	10397.675
3080.08842	10385.675
3082.46878	10355.675
3084.84769	10342.675
3087.22515	10330.775
3089.60118	10333.175
3091.97576	10330.575
3094.3489	10325.075
3096.72061	10274.075
3099.09087	10276.975
3101.4597	10263.775
3103.82709	10271.875
3106.19305	10257.075
3108.55757	10228.675
3110.92066	10211.775
3113.28232	10184.175
3115.64255	10121.675
3118.00134	10148.775
3120.35871	10106.175
3122.71466	10086.475
3125.06917	10046.175
3127.42226	10040.375
