Data from AgNPs_FTO_APTES_UA_2uM_CRN_500uM_R6G_10uM_NaF_0.1M_Addition_RamanShift__0__16-58-35-394.txt Node

Date: Wed Feb 02 16:58:35 GMT 2022
User: TCL
Spectrometer: QEP01345
Trigger mode: 4
Integration Time (sec): 7.000000E0
Scans to average: 10
Electric dark correction enabled: true
Nonlinearity correction enabled: false
Boxcar width: 0
XAxis mode: Raman Shifts
Number of Pixels in Spectrum: 1044
>>>>>Begin Spectral Data<<<<<
46.04893	0.6375
50.45542	1.0375
54.85868	-0.7625
59.25871	-0.2625
63.6555	35.3375
68.04907	40.4375
72.43941	41.7375
76.82654	51.0375
81.21044	48.9375
85.59113	52.5375
89.96862	53.6375
94.34289	54.0375
98.71396	56.9375
103.08183	57.6375
107.4465	62.9375
111.80798	62.1375
116.16626	64.4375
120.52136	65.2375
124.87327	62.7375
129.222	69.9375
133.56755	76.5375
137.90993	73.6375
142.24913	86.0375
146.58517	96.7375
150.91804	109.4375
155.24774	132.4375
159.57429	161.4375
163.89768	206.0375
168.21792	272.3375
172.53501	368.9375
176.84895	510.8375
181.15975	718.8375
185.46741	1011.5375
189.77193	1392.0375
194.07331	1858.9375
198.37157	2394.5375
202.6667	2946.6375
206.9587	3511.0375
211.24758	4074.3375
215.53334	4624.9375
219.81599	5226.7375
224.09553	5886.7375
228.37195	6610.8375
232.64527	7391.8375
236.91549	8166.9375
241.18261	8976.3375
245.44663	9703.5375
249.70755	10337.1375
253.96539	10909.2375
258.22014	11385.4375
262.4718	11792.2375
266.72039	12075.3375
270.96589	12255.5375
275.20832	12264.8375
279.44768	12213.3375
283.68397	12110.7375
287.91719	12028.2375
292.14735	11976.5375
296.37445	12017.8375
300.59849	12137.8375
304.81948	12257.2375
309.03742	12305.0375
313.25231	12210.9375
317.46415	11924.8375
321.67296	11519.5375
325.87872	11156.1375
330.08145	10983.5375
334.28114	10911.1375
338.47781	10963.5375
342.67145	11095.7375
346.86207	11300.9375
351.04966	11558.0375
355.23424	11835.6375
359.4158	12059.3375
363.59435	12215.1375
367.76989	12279.1375
371.94243	12317.6375
376.11196	12341.9375
380.27849	12354.0375
384.44203	12425.5375
388.60257	12523.0375
392.76012	12646.9375
396.91468	12822.2375
401.06626	13066.7375
405.21485	13270.7375
409.36047	13242.2375
413.50311	13077.2375
417.64277	12925.0375
421.77947	12916.6375
425.9132	13048.4375
430.04396	13180.7375
434.17176	13225.5375
438.2966	13269.5375
442.41849	13405.9375
446.53742	13764.1375
450.6534	14143.2375
454.76644	14415.3375
458.87653	14459.1375
462.98368	14332.3375
467.08789	14105.9375
471.18916	13935.5375
475.2875	13864.6375
479.38291	13929.5375
483.4754	13993.2375
487.56496	13887.2375
491.6516	13545.4375
495.73531	13158.9375
499.81612	12843.9375
503.89401	12771.7375
507.96899	12717.9375
512.04106	12673.8375
516.11023	12577.7375
520.1765	12458.9375
524.23987	12362.6375
528.30034	12216.7375
532.35792	12096.3375
536.41261	11966.6375
540.46441	11797.0375
544.51333	11758.4375
548.55936	11909.5375
552.60252	12241.8375
556.64279	12615.0375
560.6802	12967.7375
564.71473	13248.2375
568.7464	13629.4375
572.7752	14159.8375
576.80114	14398.7375
580.82422	14583.5375
584.84444	14795.7375
588.86181	15243.3375
592.87633	15624.6375
596.888	15562.5375
600.89682	14936.9375
604.9028	14861.1375
608.90594	16083.2375
612.90624	17578.0375
616.90371	16679.1375
620.89834	13640.0375
624.89015	12148.6375
628.87913	11901.4375
632.86528	11990.0375
636.84862	12007.8375
640.82913	11854.8375
644.80683	11489.0375
648.78172	11316.6375
652.75379	11289.9375
656.72306	11454.0375
660.68952	11651.8375
664.65319	11576.2375
668.61405	11314.7375
672.57211	11258.2375
676.52738	11289.2375
680.47986	11334.1375
684.42955	11281.9375
688.37646	11284.7375
692.32058	11372.2375
696.26192	11600.1375
700.20048	11883.0375
704.13626	12121.9375
708.06928	12180.9375
711.99952	12123.3375
715.927	12021.2375
719.85171	11968.9375
723.77365	11848.1375
727.69284	11691.7375
731.60928	11524.8375
735.52295	11477.6375
739.43388	11453.8375
743.34206	11450.8375
747.24749	11496.9375
751.15017	11609.4375
755.05012	11804.4375
758.94733	12211.4375
762.8418	12885.1375
766.73354	13939.4375
770.62254	14914.8375
774.50882	15220.0375
778.39237	14586.7375
782.27321	13432.3375
786.15132	12340.4375
790.02671	11727.1375
793.89938	11429.5375
797.76935	11287.4375
801.6366	11262.7375
805.50115	11218.6375
809.36299	11175.8375
813.22213	11125.6375
817.07857	11137.5375
820.93231	11120.9375
824.78336	11056.0375
828.63172	11033.9375
832.47738	10976.4375
836.32036	10960.6375
840.16066	10958.8375
843.99827	10943.6375
847.8332	10886.6375
851.66546	10872.9375
855.49504	10851.8375
859.32195	10861.3375
863.1462	10788.0375
866.96777	10772.5375
870.78668	10757.7375
874.60293	10770.2375
878.41652	10773.3375
882.22745	10803.6375
886.03573	10849.4375
889.84136	10853.8375
893.64433	10789.8375
897.44466	10739.7375
901.24235	10715.1375
905.0374	10659.1375
908.8298	10673.8375
912.61957	10672.1375
916.40671	10783.1375
920.19121	10910.5375
923.97308	11077.9375
927.75233	11073.5375
931.52895	10969.5375
935.30295	10816.5375
939.07433	10577.8375
942.84309	10388.8375
946.60924	10247.2375
950.37278	10252.0375
954.13371	10235.0375
957.89203	10240.6375
961.64774	10230.0375
965.40086	10234.9375
969.15137	10194.3375
972.89929	10095.2375
976.64461	10037.7375
980.38733	10030.3375
984.12747	10034.3375
987.86502	10060.4375
991.59999	10129.7375
995.33237	10216.5375
999.06217	10346.1375
1002.78939	10588.7375
1006.51404	10757.1375
1010.23611	10918.4375
1013.95561	11021.3375
1017.67255	11045.3375
1021.38692	10920.3375
1025.09872	10717.1375
1028.80796	10615.6375
1032.51465	10602.7375
1036.21877	10676.9375
1039.92035	10761.8375
1043.61937	10797.4375
1047.31584	10802.6375
1051.00976	10777.2375
1054.70114	10780.9375
1058.38998	10872.0375
1062.07627	10944.4375
1065.76003	11058.7375
1069.44126	11172.9375
1073.11995	11323.9375
1076.79611	11420.8375
1080.46974	11498.5375
1084.14085	11578.3375
1087.80943	11730.4375
1091.47549	11914.3375
1095.13903	12008.8375
1098.80005	11907.4375
1102.45857	11614.5375
1106.11456	11390.8375
1109.76805	11288.5375
1113.41903	11303.3375
1117.06751	11383.8375
1120.71348	11613.0375
1124.35696	11832.7375
1127.99793	12061.3375
1131.63641	12147.4375
1135.2724	11981.8375
1138.90589	11821.2375
1142.5369	11836.1375
1146.16542	11916.2375
1149.79145	12055.8375
1153.415	12270.7375
1157.03607	12520.3375
1160.65467	12900.8375
1164.27079	13503.6375
1167.88443	14214.7375
1171.49561	15091.7375
1175.10432	16254.3375
1178.71056	17684.4375
1182.31434	18886.4375
1185.91565	19296.3375
1189.51451	18932.2375
1193.11091	18237.7375
1196.70485	17585.4375
1200.29634	16984.1375
1203.88538	16639.6375
1207.47197	16377.0375
1211.05612	16151.7375
1214.63782	15829.7375
1218.21708	15429.4375
1221.79391	14997.4375
1225.36829	14726.8375
1228.94024	14520.0375
1232.50976	14268.0375
1236.07685	14067.3375
1239.6415	13974.3375
1243.20374	14004.1375
1246.76355	14206.2375
1250.32093	14475.3375
1253.8759	14809.6375
1257.42845	15223.8375
1260.97859	15641.7375
1264.52631	16009.1375
1268.07163	16390.5375
1271.61453	16741.7375
1275.15503	17083.3375
1278.69312	17510.9375
1282.22882	18034.2375
1285.76211	18754.3375
1289.29301	19696.6375
1292.82151	20877.5375
1296.34761	22221.0375
1299.87133	23651.3375
1303.39266	25063.0375
1306.9116	26368.9375
1310.42815	27521.3375
1313.94233	28258.2375
1317.45412	28199.0375
1320.96354	27703.2375
1324.47058	27126.6375
1327.97525	26709.3375
1331.47754	26089.4375
1334.97747	25664.3375
1338.47502	25273.2375
1341.97022	24714.5375
1345.46305	24175.4375
1348.95352	23829.7375
1352.44163	23935.9375
1355.92738	24700.8375
1359.41078	26100.7375
1362.89183	27433.2375
1366.37053	27120.3375
1369.84688	24703.3375
1373.32088	21763.7375
1376.79254	19910.0375
1380.26186	19411.9375
1383.72883	19786.6375
1387.19347	20063.2375
1390.65578	20061.1375
1394.11575	19984.2375
1397.57339	20154.4375
1401.0287	20406.0375
1404.48168	20624.6375
1407.93234	20400.0375
1411.38068	19715.2375
1414.82669	18826.6375
1418.27039	17817.5375
1421.71177	16833.9375
1425.15083	16055.4375
1428.58758	15631.0375
1432.02203	15722.8375
1435.45416	16143.4375
1438.88399	16683.9375
1442.31151	17134.4375
1445.73673	17583.0375
1449.15965	17964.6375
1452.58027	18012.2375
1455.9986	18046.9375
1459.41463	18044.4375
1462.82837	18198.3375
1466.23982	18432.7375
1469.64898	18648.2375
1473.05586	18736.2375
1476.46045	18730.3375
1479.86276	18609.9375
1483.26279	18408.7375
1486.66054	18295.0375
1490.05602	18357.6375
1493.44922	18549.0375
1496.84016	18865.0375
1500.22882	19406.0375
1503.61521	20193.8375
1506.99934	21194.9375
1510.38121	22063.1375
1513.76081	22427.5375
1517.13816	21979.3375
1520.51324	20980.5375
1523.88607	20061.2375
1527.25665	19590.0375
1530.62498	19434.2375
1533.99105	19312.2375
1537.35488	19050.6375
1540.71647	18555.8375
1544.07581	17930.8375
1547.4329	17349.3375
1550.78776	16865.0375
1554.14038	16506.3375
1557.49077	16392.3375
1560.83892	16401.5375
1564.18484	16519.5375
1567.52853	16711.3375
1570.86999	17060.3375
1574.20922	17524.1375
1577.54624	17959.0375
1580.88103	18127.7375
1584.2136	18372.5375
1587.54395	18893.5375
1590.87208	19796.8375
1594.19801	20836.0375
1597.52172	21732.0375
1600.84321	21873.8375
1604.16251	20720.6375
1607.47959	18901.1375
1610.79447	16987.4375
1614.10715	15404.0375
1617.41763	14213.3375
1620.7259	13531.2375
1624.03199	13253.4375
1627.33587	13401.6375
1630.63757	13921.2375
1633.93707	14949.9375
1637.23439	16660.9375
1640.52951	19002.7375
1643.82246	21909.7375
1647.11321	24544.2375
1650.40179	25369.9375
1653.68819	23906.6375
1656.97241	20789.4375
1660.25446	17560.9375
1663.53433	15109.2375
1666.81203	13484.4375
1670.08756	12368.6375
1673.36092	11560.5375
1676.63211	11016.9375
1679.90115	10630.5375
1683.16801	10422.3375
1686.43272	10333.4375
1689.69527	10375.9375
1692.95567	10641.9375
1696.2139	11182.2375
1699.46999	11755.7375
1702.72392	11756.5375
1705.97571	11203.6375
1709.22535	10493.8375
1712.47284	10016.6375
1715.71819	9740.2375
1718.96139	9586.7375
1722.20246	9464.4375
1725.44139	9384.2375
1728.67818	9304.6375
1731.91284	9260.2375
1735.14537	9221.7375
1738.37576	9239.0375
1741.60403	9236.8375
1744.83017	9259.1375
1748.05418	9369.2375
1751.27607	9509.4375
1754.49584	9840.9375
1757.71349	10199.3375
1760.92903	10397.7375
1764.14244	10346.6375
1767.35375	10308.1375
1770.56294	10294.9375
1773.77002	10086.8375
1776.97499	9684.9375
1780.17785	9309.5375
1783.37861	9092.0375
1786.57727	8955.0375
1789.77382	8859.3375
1792.96828	8801.8375
1796.16064	8758.5375
1799.3509	8677.8375
1802.53907	8648.3375
1805.72514	8612.0375
1808.90913	8585.0375
1812.09102	8582.8375
1815.27083	8511.0375
1818.44856	8506.4375
1821.6242	8476.1375
1824.79776	8466.3375
1827.96924	8440.0375
1831.13864	8437.2375
1834.30597	8441.6375
1837.47122	8446.1375
1840.6344	8414.4375
1843.7955	8411.1375
1846.95454	8396.0375
1850.11151	8391.8375
1853.26642	8394.5375
1856.41926	8376.9375
1859.57004	8382.6375
1862.71876	8366.9375
1865.86542	8321.5375
1869.01003	8345.4375
1872.15258	8329.5375
1875.29308	8327.0375
1878.43152	8307.5375
1881.56792	8288.6375
1884.70227	8286.9375
1887.83457	8290.8375
1890.96482	8282.7375
1894.09304	8239.9375
1897.21921	8248.4375
1900.34335	8240.9375
1903.46544	8247.0375
1906.58551	8253.2375
1909.70353	8233.8375
1912.81953	8214.0375
1915.93349	8218.7375
1919.04543	8168.1375
1922.15534	8162.7375
1925.26322	8137.4375
1928.36908	8112.1375
1931.47292	8080.0375
1934.57473	8066.8375
1937.67453	8029.5375
1940.77232	8029.5375
1943.86808	8006.0375
1946.96184	8000.5375
1950.05358	7961.7375
1953.14331	7946.1375
1956.23103	7942.1375
1959.31675	7895.0375
1962.40046	7864.3375
1965.48217	7857.6375
1968.56188	7816.0375
1971.63959	7781.8375
1974.7153	7796.7375
1977.78901	7759.5375
1980.86073	7718.4375
1983.93046	7710.4375
1986.99819	7690.7375
1990.06394	7666.5375
1993.1277	7635.3375
1996.18947	7596.0375
1999.24925	7585.0375
2002.30706	7590.1375
2005.36288	7559.2375
2008.41672	7524.8375
2011.46859	7492.8375
2014.51848	7463.0375
2017.56639	7444.1375
2020.61233	7436.1375
2023.6563	7418.0375
2026.6983	7418.3375
2029.73833	7385.5375
2032.7764	7341.6375
2035.8125	7350.4375
2038.84664	7336.3375
2041.87881	7338.8375
2044.90903	7312.9375
2047.93729	7308.8375
2050.96359	7302.4375
2053.98794	7308.6375
2057.01034	7291.8375
2060.03078	7274.0375
2063.04927	7267.7375
2066.06582	7261.2375
2069.08042	7244.7375
2072.09307	7213.8375
2075.10378	7224.2375
2078.11255	7216.0375
2081.11938	7243.7375
2084.12426	7229.8375
2087.12722	7206.6375
2090.12824	7208.6375
2093.12732	7201.5375
2096.12447	7225.3375
2099.11969	7217.6375
2102.11299	7235.6375
2105.10435	7217.5375
2108.09379	7216.0375
2111.08131	7242.5375
2114.0669	7225.6375
2117.05057	7221.1375
2120.03233	7250.6375
2123.01216	7227.2375
2125.99008	7213.1375
2128.96609	7218.0375
2131.94018	7236.4375
2134.91236	7238.6375
2137.88263	7231.2375
2140.851	7250.8375
2143.81746	7234.7375
2146.78201	7238.2375
2149.74466	7241.4375
2152.7054	7236.3375
2155.66425	7225.0375
2158.6212	7232.1375
2161.57625	7211.0375
2164.52941	7205.1375
2167.48067	7208.0375
2170.43004	7202.8375
2173.37752	7228.0375
2176.32311	7212.8375
2179.26681	7207.1375
2182.20863	7224.2375
2185.14856	7210.5375
2188.08661	7202.1375
2191.02278	7199.2375
2193.95707	7175.7375
2196.88948	7181.6375
2199.82001	7171.7375
2202.74867	7166.7375
2205.67545	7167.5375
2208.60037	7166.0375
2211.52341	7134.0375
2214.44458	7132.5375
2217.36388	7107.1375
2220.28132	7112.6375
2223.1969	7088.5375
2226.11061	7084.9375
2229.02246	7073.3375
2231.93245	7063.1375
2234.84058	7040.0375
2237.74686	7039.5375
2240.65128	7033.9375
2243.55385	7015.2375
2246.45456	7008.7375
2249.35343	7001.8375
2252.25044	6973.3375
2255.14561	6961.4375
2258.03893	7034.2375
2260.93041	7172.9375
2263.82004	7047.4375
2266.70783	6974.9375
2269.59378	6920.0375
2272.4779	6878.3375
2275.36017	6869.4375
2278.24061	6854.3375
2281.11922	6820.0375
2283.996	6845.4375
2286.87094	6821.9375
2289.74405	6792.8375
2292.61534	6784.3375
2295.4848	6779.0375
2298.35243	6788.6375
2301.21824	6785.1375
2304.08223	6760.0375
2306.94439	6772.5375
2309.80474	6758.8375
2312.66327	6794.8375
2315.51999	6756.3375
2318.37489	6752.6375
2321.22797	6733.9375
2324.07925	6740.1375
2326.92871	6718.3375
2329.77637	6727.9375
2332.62222	6727.8375
2335.46626	6728.5375
2338.3085	6720.4375
2341.14893	6715.5375
2343.98756	6715.5375
2346.8244	6717.1375
2349.65943	6697.2375
2352.49267	6684.9375
2355.32411	6696.4375
2358.15376	6663.4375
2360.98161	6641.2375
2363.80768	6652.2375
2366.63195	6644.8375
2369.45444	6629.9375
2372.27514	6641.4375
2375.09405	6634.5375
2377.91118	6614.6375
2380.72652	6596.0375
2383.54009	6568.4375
2386.35187	6564.1375
2389.16188	6549.3375
2391.97011	6539.2375
2394.77657	6521.6375
2397.58125	6512.1375
2400.38416	6520.8375
2403.18529	6500.8375
2405.98466	6494.7375
2408.78226	6498.3375
2411.57809	6495.9375
2414.37216	6491.5375
2417.16446	6477.2375
2419.955	6466.5375
2422.74378	6438.7375
2425.5308	6460.2375
2428.31606	6448.4375
2431.09956	6423.0375
2433.88131	6412.4375
2436.6613	6417.1375
2439.43954	6410.7375
2442.21603	6418.9375
2444.99077	6384.9375
2447.76377	6388.7375
2450.53501	6394.9375
2453.30451	6384.2375
2456.07226	6396.6375
2458.83827	6384.8375
2461.60254	6377.8375
2464.36507	6399.9375
2467.12586	6395.8375
2469.88492	6395.3375
2472.64224	6390.5375
2475.39782	6506.8375
2478.15167	6555.0375
2480.90379	6448.1375
2483.65417	6410.7375
2486.40283	6389.9375
2489.14976	6405.2375
2491.89497	6392.1375
2494.63845	6532.4375
2497.3802	6561.4375
2500.12024	6447.4375
2502.85855	6437.0375
2505.59514	6403.2375
2508.33002	6354.7375
2511.06318	6353.2375
2513.79462	6324.1375
2516.52435	6312.8375
2519.25237	6308.9375
2521.97867	6298.7375
2524.70327	6306.4375
2527.42616	6283.1375
2530.14734	6279.5375
2532.86681	6270.4375
2535.58458	6266.8375
2538.30065	6265.8375
2541.01501	6240.5375
2543.72768	6210.8375
2546.43864	6245.1375
2549.14791	6219.1375
2551.85548	6229.3375
2554.56136	6215.8375
2557.26554	6195.0375
2559.96803	6204.0375
2562.66883	6204.9375
2565.36794	6192.3375
2568.06536	6186.3375
2570.7611	6187.2375
2573.45514	6181.3375
2576.14751	6171.8375
2578.83819	6168.6375
2581.52719	6173.3375
2584.21451	6160.3375
2586.90015	6133.8375
2589.58411	6135.0375
2592.2664	6128.4375
2594.94701	6113.3375
2597.62594	6137.0375
2600.30321	6105.4375
2602.9788	6122.2375
2605.65273	6101.2375
2608.32498	6091.6375
2610.99557	6093.4375
2613.66449	6095.0375
2616.33175	6081.5375
2618.99734	6101.7375
2621.66128	6094.2375
2624.32355	6100.5375
2626.98416	6092.9375
2629.64311	6074.5375
2632.30041	6075.6375
2634.95605	6060.4375
2637.61004	6052.0375
2640.26238	6048.6375
2642.91306	6038.8375
2645.56209	6068.8375
2648.20948	6078.0375
2650.85521	6055.9375
2653.4993	6058.7375
2656.14175	6042.8375
2658.78255	6044.8375
2661.42171	6029.2375
2664.05923	6067.1375
2666.6951	6036.5375
2669.32934	6041.0375
2671.96194	6044.0375
2674.59291	6041.9375
2677.22224	6049.2375
2679.84993	6039.2375
2682.476	6043.5375
2685.10043	6047.5375
2687.72324	6062.9375
2690.34441	6048.8375
2692.96396	6036.9375
2695.58188	6062.8375
2698.19818	6043.6375
2700.81285	6087.3375
2703.4259	6368.2375
2706.03733	6966.0375
2708.64714	6561.9375
2711.25533	6307.6375
2713.86191	6244.1375
2716.46687	6197.8375
2719.07021	6158.0375
2721.67194	6119.0375
2724.27206	6074.0375
2726.87057	6078.6375
2729.46747	6072.3375
2732.06276	6061.1375
2734.65644	6075.8375
2737.24852	6067.9375
2739.83899	6061.4375
2742.42786	6063.8375
2745.01513	6065.4375
2747.60079	6038.7375
2750.18486	6039.4375
2752.76733	6051.7375
2755.3482	6035.5375
2757.92747	6044.0375
2760.50515	6034.4375
2763.08123	6036.6375
2765.65573	6035.5375
2768.22863	6029.8375
2770.79994	6014.1375
2773.36967	6016.1375
2775.9378	6005.4375
2778.50435	6009.8375
2781.06932	6005.1375
2783.6327	6013.7375
2786.1945	6003.6375
2788.75471	5987.8375
2791.31335	5995.9375
2793.87041	5999.6375
2796.42589	5957.2375
2798.97979	5950.4375
2801.53212	5964.8375
2804.08288	5944.2375
2806.63206	5934.2375
2809.17967	5898.2375
2811.72571	5907.9375
2814.27018	5903.7375
2816.81308	5902.8375
2819.35442	5884.4375
2821.89419	5883.0375
2824.43239	5866.5375
2826.96904	5874.1375
2829.50412	5884.0375
2832.03763	5876.7375
2834.56959	5893.2375
2837.1	5866.1375
2839.62884	5874.0375
2842.15613	5904.2375
2844.68186	5926.6375
2847.20604	5956.2375
2849.72867	5946.2375
2852.24974	5971.6375
2854.76927	6082.4375
2857.28724	6212.6375
2859.80367	6063.4375
2862.31855	6004.0375
2864.83189	5960.5375
2867.34368	5941.1375
2869.85393	5926.5375
2872.36264	5903.0375
2874.8698	5905.7375
2877.37543	5912.1375
2879.87952	5884.1375
2882.38207	5892.4375
2884.88308	5874.7375
2887.38256	5872.6375
2889.88051	5858.5375
2892.37692	5871.8375
2894.8718	5874.7375
2897.36515	5889.0375
2899.85698	5876.8375
2902.34727	5885.1375
2904.83604	5886.5375
2907.32328	5920.4375
2909.809	5906.6375
2912.29319	5909.3375
2914.77587	5898.1375
2917.25702	5898.9375
2919.73665	5874.5375
2922.21476	5898.3375
2924.69136	5903.7375
2927.16644	5897.3375
2929.64	5875.8375
2932.11205	5875.0375
2934.58258	5854.8375
2937.05161	5856.5375
2939.51912	5864.5375
2941.98513	5838.1375
2944.44962	5824.8375
2946.91261	5787.0375
2949.37409	5784.2375
2951.83407	5780.9375
2954.29254	5759.8375
2956.74951	5749.0375
2959.20498	5742.2375
2961.65895	5732.4375
2964.11142	5718.4375
2966.56239	5698.7375
2969.01186	5676.9375
2971.45984	5662.3375
2973.90632	5659.9375
2976.35131	5644.5375
2978.7948	5631.2375
2981.23681	5621.0375
2983.67732	5619.6375
2986.11635	5604.0375
2988.55388	5574.1375
2990.98993	5550.0375
2993.4245	5558.2375
2995.85758	5545.6375
2998.28917	5512.9375
3000.71928	5510.4375
3003.14791	5510.0375
3005.57506	5503.9375
3008.00073	5496.5375
3010.42493	5474.2375
3012.84764	5476.3375
3015.26888	5473.5375
3017.68865	5463.6375
3020.10694	5438.6375
3022.52376	5427.8375
3024.9391	5423.7375
3027.35298	5425.7375
3029.76539	5403.0375
3032.17632	5389.7375
3034.5858	5378.2375
3036.9938	5384.4375
3039.40034	5370.3375
3041.80542	5383.1375
3044.20903	5349.0375
3046.61118	5359.9375
3049.01187	5340.0375
3051.4111	5350.4375
3053.80888	5345.5375
3056.20519	5331.8375
3058.60005	5300.7375
3060.99345	5283.7375
3063.3854	5288.0375
3065.7759	5265.9375
3068.16494	5258.7375
3070.55254	5233.4375
3072.93868	5232.2375
3075.32338	5228.8375
3077.70662	5206.9375
3080.08842	5193.3375
