Data from AgNPs_FTO_APTES_UA_2uM_CRN_100uM_R6G_10uM_NaF_0.1M_Addition_RamanShift__30__16-13-05-341.txt Node

Date: Wed Feb 02 16:13:05 GMT 2022
User: TCL
Spectrometer: QEP01345
Trigger mode: 4
Integration Time (sec): 7.000000E0
Scans to average: 10
Electric dark correction enabled: true
Nonlinearity correction enabled: false
Boxcar width: 0
XAxis mode: Raman Shifts
Number of Pixels in Spectrum: 1044
>>>>>Begin Spectral Data<<<<<
46.04893	0.8875
50.45542	1.0875
54.85868	-1.7125
59.25871	-0.4125
63.6555	47.6875
68.04907	52.0875
72.43941	51.8875
76.82654	62.0875
81.21044	59.8875
85.59113	63.3875
89.96862	66.7875
94.34289	69.7875
98.71396	72.5875
103.08183	78.4875
107.4465	80.1875
111.80798	78.8875
116.16626	78.9875
120.52136	76.6875
124.87327	77.8875
129.222	80.7875
133.56755	83.8875
137.90993	86.1875
142.24913	93.1875
146.58517	101.9875
150.91804	112.1875
155.24774	125.0875
159.57429	152.0875
163.89768	182.4875
168.21792	230.9875
172.53501	308.4875
176.84895	415.9875
181.15975	572.7875
185.46741	791.7875
189.77193	1082.0875
194.07331	1447.4875
198.37157	1844.7875
202.6667	2286.5875
206.9587	2710.5875
211.24758	3117.9875
215.53334	3563.2875
219.81599	4044.5875
224.09553	4586.4875
228.37195	5167.1875
232.64527	5828.0875
236.91549	6485.1875
241.18261	7084.1875
245.44663	7600.7875
249.70755	8065.2875
253.96539	8419.4875
258.22014	8759.1875
262.4718	9055.7875
266.72039	9297.0875
270.96589	9433.7875
275.20832	9527.7875
279.44768	9533.8875
283.68397	9519.4875
287.91719	9554.8875
292.14735	9634.1875
296.37445	9795.6875
300.59849	9977.0875
304.81948	10168.1875
309.03742	10267.3875
313.25231	10170.2875
317.46415	9680.9875
321.67296	8989.3875
325.87872	8432.4875
330.08145	8138.5875
334.28114	8127.0875
338.47781	8241.4875
342.67145	8427.9875
346.86207	8761.6875
351.04966	9181.1875
355.23424	9645.7875
359.4158	9968.7875
363.59435	10106.8875
367.76989	10107.3875
371.94243	10048.7875
376.11196	9960.1875
380.27849	9901.6875
384.44203	9802.0875
388.60257	9687.2875
392.76012	9685.9875
396.91468	9806.3875
401.06626	10105.4875
405.21485	10347.2875
409.36047	10239.4875
413.50311	9837.5875
417.64277	9413.2875
421.77947	9193.9875
425.9132	9076.8875
430.04396	9100.4875
434.17176	9147.0875
438.2966	9189.5875
442.41849	9348.3875
446.53742	9543.8875
450.6534	9816.2875
454.76644	9947.4875
458.87653	10017.9875
462.98368	10007.3875
467.08789	9903.4875
471.18916	9770.5875
475.2875	9621.3875
479.38291	9492.1875
483.4754	9346.5875
487.56496	9206.4875
491.6516	9117.0875
495.73531	9034.0875
499.81612	9072.2875
503.89401	9145.3875
507.96899	9221.9875
512.04106	9244.0875
516.11023	9268.5875
520.1765	9288.1875
524.23987	9213.4875
528.30034	9066.2875
532.35792	8866.1875
536.41261	8694.7875
540.46441	8530.7875
544.51333	8506.6875
548.55936	8631.0875
552.60252	8894.3875
556.64279	9168.5875
560.6802	9339.6875
564.71473	9482.0875
568.7464	9822.2875
572.7752	10093.2875
576.80114	9966.3875
580.82422	9730.8875
584.84444	9623.2875
588.86181	9518.5875
592.87633	9450.2875
596.888	9471.7875
600.89682	9758.1875
604.9028	10707.5875
608.90594	13061.3875
612.90624	16064.4875
616.90371	15427.0875
620.89834	11216.5875
624.89015	9183.2875
628.87913	8774.9875
632.86528	8857.1875
636.84862	8967.0875
640.82913	8860.1875
644.80683	8500.1875
648.78172	8246.6875
652.75379	8253.7875
656.72306	8582.2875
660.68952	8946.3875
664.65319	8931.4875
668.61405	8573.0875
672.57211	8396.9875
676.52738	8386.2875
680.47986	8361.6875
684.42955	8319.0875
688.37646	8283.3875
692.32058	8319.2875
696.26192	8421.5875
700.20048	8556.0875
704.13626	8669.5875
708.06928	8693.5875
711.99952	8627.0875
715.927	8552.7875
719.85171	8509.2875
723.77365	8446.0875
727.69284	8347.0875
731.60928	8195.1875
735.52295	8173.1875
739.43388	8163.3875
743.34206	8191.9875
747.24749	8279.1875
751.15017	8360.3875
755.05012	8589.9875
758.94733	9011.8875
762.8418	9946.8875
766.73354	11483.5875
770.62254	13060.9875
774.50882	13674.6875
778.39237	12972.0875
782.27321	11305.7875
786.15132	9741.3875
790.02671	8793.8875
793.89938	8395.5875
797.76935	8191.6875
801.6366	8102.0875
805.50115	8055.7875
809.36299	8021.1875
813.22213	8000.1875
817.07857	7988.7875
820.93231	7995.5875
824.78336	7997.1875
828.63172	8021.4875
832.47738	8032.9875
836.32036	8026.5875
840.16066	7982.0875
843.99827	7907.7875
847.8332	7865.1875
851.66546	7857.3875
855.49504	7848.2875
859.32195	7800.5875
863.1462	7760.4875
866.96777	7709.3875
870.78668	7719.8875
874.60293	7697.5875
878.41652	7746.9875
882.22745	7764.4875
886.03573	7788.7875
889.84136	7779.6875
893.64433	7730.3875
897.44466	7708.6875
901.24235	7705.4875
905.0374	7681.1875
908.8298	7673.4875
912.61957	7706.2875
916.40671	7789.1875
920.19121	7863.7875
923.97308	7934.9875
927.75233	7987.5875
931.52895	7966.7875
935.30295	7842.3875
939.07433	7583.1875
942.84309	7402.7875
946.60924	7276.3875
950.37278	7214.4875
954.13371	7177.0875
957.89203	7144.5875
961.64774	7124.5875
965.40086	7098.6875
969.15137	7112.8875
972.89929	7043.1875
976.64461	7050.3875
980.38733	7033.9875
984.12747	7025.6875
987.86502	7036.4875
991.59999	7091.0875
995.33237	7151.1875
999.06217	7276.0875
1002.78939	7456.0875
1006.51404	7627.6875
1010.23611	7791.6875
1013.95561	7890.7875
1017.67255	7847.2875
1021.38692	7735.4875
1025.09872	7617.9875
1028.80796	7549.7875
1032.51465	7556.0875
1036.21877	7648.0875
1039.92035	7773.6875
1043.61937	7857.1875
1047.31584	7869.7875
1051.00976	7877.2875
1054.70114	7901.9875
1058.38998	7937.8875
1062.07627	8045.1875
1065.76003	8153.6875
1069.44126	8236.4875
1073.11995	8326.8875
1076.79611	8392.1875
1080.46974	8436.9875
1084.14085	8601.1875
1087.80943	8754.8875
1091.47549	8887.3875
1095.13903	8763.9875
1098.80005	8547.7875
1102.45857	8222.0875
1106.11456	8007.5875
1109.76805	7956.5875
1113.41903	8030.9875
1117.06751	8235.1875
1120.71348	8541.7875
1124.35696	8864.6875
1127.99793	9196.9875
1131.63641	9191.3875
1135.2724	8832.9875
1138.90589	8472.3875
1142.5369	8289.1875
1146.16542	8191.2875
1149.79145	8157.7875
1153.415	8187.4875
1157.03607	8320.8875
1160.65467	8512.6875
1164.27079	8821.5875
1167.88443	9272.0875
1171.49561	10032.4875
1175.10432	11199.4875
1178.71056	12666.2875
1182.31434	13678.2875
1185.91565	13864.0875
1189.51451	13560.2875
1193.11091	12955.9875
1196.70485	12212.9875
1200.29634	11558.6875
1203.88538	10960.9875
1207.47197	10323.7875
1211.05612	9774.2875
1214.63782	9486.8875
1218.21708	9365.4875
1221.79391	9339.2875
1225.36829	9392.7875
1228.94024	9452.7875
1232.50976	9518.2875
1236.07685	9548.9875
1239.6415	9552.3875
1243.20374	9559.8875
1246.76355	9567.8875
1250.32093	9745.8875
1253.8759	9927.9875
1257.42845	10235.3875
1260.97859	10532.6875
1264.52631	10802.3875
1268.07163	11083.1875
1271.61453	11325.9875
1275.15503	11573.6875
1278.69312	11644.0875
1282.22882	11764.9875
1285.76211	12007.9875
1289.29301	12376.0875
1292.82151	12786.4875
1296.34761	13223.3875
1299.87133	13874.3875
1303.39266	14779.0875
1306.9116	16165.6875
1310.42815	17755.0875
1313.94233	18842.0875
1317.45412	18812.3875
1320.96354	18030.0875
1324.47058	17131.5875
1327.97525	16353.6875
1331.47754	15801.6875
1334.97747	15593.3875
1338.47502	15602.5875
1341.97022	15759.7875
1345.46305	15978.1875
1348.95352	16255.5875
1352.44163	16807.0875
1355.92738	17860.6875
1359.41078	19692.7875
1362.89183	21649.8875
1366.37053	21248.2875
1369.84688	18643.1875
1373.32088	15881.9875
1376.79254	14102.4875
1380.26186	13195.3875
1383.72883	12775.2875
1387.19347	12439.1875
1390.65578	12129.4875
1394.11575	11882.7875
1397.57339	11776.1875
1401.0287	11850.9875
1404.48168	12022.9875
1407.93234	12123.2875
1411.38068	12111.3875
1414.82669	11911.9875
1418.27039	11536.4875
1421.71177	11084.6875
1425.15083	10716.9875
1428.58758	10457.9875
1432.02203	10419.1875
1435.45416	10443.0875
1438.88399	10544.3875
1442.31151	10602.1875
1445.73673	10674.9875
1449.15965	10797.3875
1452.58027	10849.0875
1455.9986	10891.9875
1459.41463	10960.6875
1462.82837	11148.5875
1466.23982	11354.5875
1469.64898	11577.2875
1473.05586	11769.0875
1476.46045	11841.6875
1479.86276	11984.0875
1483.26279	12160.8875
1486.66054	12396.3875
1490.05602	12703.7875
1493.44922	13172.5875
1496.84016	13935.6875
1500.22882	15060.5875
1503.61521	16559.1875
1506.99934	18212.7875
1510.38121	19768.1875
1513.76081	20672.2875
1517.13816	20097.4875
1520.51324	18184.5875
1523.88607	16159.1875
1527.25665	14702.0875
1530.62498	13853.3875
1533.99105	13323.3875
1537.35488	12974.9875
1540.71647	12699.8875
1544.07581	12511.8875
1547.4329	12300.8875
1550.78776	12111.5875
1554.14038	12027.1875
1557.49077	12085.9875
1560.83892	12312.8875
1564.18484	12643.7875
1567.52853	12980.3875
1570.86999	13179.0875
1574.20922	13316.9875
1577.54624	13252.4875
1580.88103	12707.9875
1584.2136	12041.1875
1587.54395	11738.4875
1590.87208	11931.3875
1594.19801	12502.0875
1597.52172	13238.5875
1600.84321	13492.1875
1604.16251	12958.4875
1607.47959	12099.5875
1610.79447	11173.6875
1614.10715	10328.0875
1617.41763	9626.7875
1620.7259	9184.1875
1624.03199	8915.2875
1627.33587	8876.1875
1630.63757	9028.1875
1633.93707	9423.1875
1637.23439	10030.6875
1640.52951	10952.4875
1643.82246	12199.6875
1647.11321	13590.7875
1650.40179	14615.3875
1653.68819	14413.8875
1656.97241	12812.7875
1660.25446	10842.7875
1663.53433	9287.4875
1666.81203	8302.9875
1670.08756	7714.2875
1673.36092	7343.1875
1676.63211	7090.6875
1679.90115	6964.4875
1683.16801	6790.7875
1686.43272	6711.0875
1689.69527	6666.7875
1692.95567	6587.5875
1696.2139	6554.3875
1699.46999	6553.0875
1702.72392	6526.0875
1705.97571	6455.2875
1709.22535	6429.1875
1712.47284	6415.8875
1715.71819	6424.1875
1718.96139	6388.6875
1722.20246	6398.6875
1725.44139	6372.5875
1728.67818	6334.7875
1731.91284	6279.5875
1735.14537	6226.1875
1738.37576	6183.0875
1741.60403	6156.0875
1744.83017	6129.7875
1748.05418	6115.4875
1751.27607	6129.7875
1754.49584	6103.6875
1757.71349	6101.3875
1760.92903	6107.7875
1764.14244	6069.7875
1767.35375	6058.4875
1770.56294	6026.2875
1773.77002	5985.4875
1776.97499	5972.2875
1780.17785	5922.4875
1783.37861	5920.4875
1786.57727	5885.7875
1789.77382	5858.1875
1792.96828	5867.4875
1796.16064	5847.0875
1799.3509	5830.6875
1802.53907	5829.6875
1805.72514	5796.0875
1808.90913	5783.3875
1812.09102	5779.7875
1815.27083	5769.0875
1818.44856	5751.4875
1821.6242	5734.0875
1824.79776	5720.0875
1827.96924	5706.7875
1831.13864	5718.9875
1834.30597	5683.5875
1837.47122	5702.9875
1840.6344	5700.7875
1843.7955	5706.6875
1846.95454	5676.9875
1850.11151	5681.8875
1853.26642	5687.7875
1856.41926	5661.0875
1859.57004	5678.4875
1862.71876	5659.0875
1865.86542	5663.9875
1869.01003	5658.4875
1872.15258	5664.4875
1875.29308	5643.1875
1878.43152	5655.9875
1881.56792	5655.1875
1884.70227	5647.3875
1887.83457	5658.7875
1890.96482	5645.8875
1894.09304	5644.7875
1897.21921	5648.2875
1900.34335	5663.1875
1903.46544	5650.9875
1906.58551	5653.1875
1909.70353	5650.8875
1912.81953	5656.5875
1915.93349	5663.0875
1919.04543	5645.6875
1922.15534	5641.2875
1925.26322	5619.7875
1928.36908	5610.1875
1931.47292	5574.1875
1934.57473	5527.4875
1937.67453	5516.4875
1940.77232	5480.6875
1943.86808	5453.2875
1946.96184	5431.8875
1950.05358	5389.7875
1953.14331	5380.3875
1956.23103	5368.8875
1959.31675	5342.2875
1962.40046	5321.6875
1965.48217	5291.9875
1968.56188	5289.0875
1971.63959	5271.0875
1974.7153	5257.1875
1977.78901	5250.8875
1980.86073	5207.9875
1983.93046	5189.5875
1986.99819	5156.3875
1990.06394	5178.6875
1993.1277	5149.5875
1996.18947	5112.3875
1999.24925	5122.3875
2002.30706	5082.7875
2005.36288	5060.2875
2008.41672	5059.6875
2011.46859	5035.0875
2014.51848	5026.3875
2017.56639	4998.5875
2020.61233	4997.9875
2023.6563	4962.5875
2026.6983	4960.1875
2029.73833	4943.0875
2032.7764	4941.6875
2035.8125	4911.5875
2038.84664	4921.2875
2041.87881	4895.9875
2044.90903	4889.0875
2047.93729	4880.6875
2050.96359	4883.2875
2053.98794	4866.0875
2057.01034	4854.8875
2060.03078	4849.5875
2063.04927	4854.6875
2066.06582	4837.6875
2069.08042	4817.0875
2072.09307	4822.5875
2075.10378	4812.0875
2078.11255	4817.4875
2081.11938	4799.7875
2084.12426	4794.1875
2087.12722	4790.3875
2090.12824	4798.8875
2093.12732	4803.5875
2096.12447	4797.8875
2099.11969	4791.4875
2102.11299	4795.8875
2105.10435	4789.1875
2108.09379	4795.1875
2111.08131	4801.5875
2114.0669	4805.4875
2117.05057	4796.8875
2120.03233	4804.2875
2123.01216	4795.4875
2125.99008	4804.3875
2128.96609	4791.0875
2131.94018	4807.5875
2134.91236	4798.5875
2137.88263	4800.4875
2140.851	4811.2875
2143.81746	4807.8875
2146.78201	4795.7875
2149.74466	4802.7875
2152.7054	4798.9875
2155.66425	4790.9875
2158.6212	4783.1875
2161.57625	4787.1875
2164.52941	4777.9875
2167.48067	4777.9875
2170.43004	4767.1875
2173.37752	4772.5875
2176.32311	4763.2875
2179.26681	4759.9875
2182.20863	4766.9875
2185.14856	4759.8875
2188.08661	4742.4875
2191.02278	4744.4875
2193.95707	4735.7875
2196.88948	4731.5875
2199.82001	4730.2875
2202.74867	4717.7875
2205.67545	4715.5875
2208.60037	4716.3875
2211.52341	4699.0875
2214.44458	4682.0875
2217.36388	4682.1875
2220.28132	4670.1875
2223.1969	4667.2875
2226.11061	4642.3875
2229.02246	4630.9875
2231.93245	4618.3875
2234.84058	4601.1875
2237.74686	4607.7875
2240.65128	4594.2875
2243.55385	4604.0875
2246.45456	4583.2875
2249.35343	4580.8875
2252.25044	4566.7875
2255.14561	4566.0875
2258.03893	4576.8875
2260.93041	4572.9875
2263.82004	4564.6875
2266.70783	4538.2875
2269.59378	4530.2875
2272.4779	4534.2875
2275.36017	4488.0875
2278.24061	4495.0875
2281.11922	4471.3875
2283.996	4478.5875
2286.87094	4459.7875
2289.74405	4445.8875
2292.61534	4431.7875
2295.4848	4418.5875
2298.35243	4421.9875
2301.21824	4413.1875
2304.08223	4393.8875
2306.94439	4408.7875
2309.80474	4397.7875
2312.66327	4403.0875
2315.51999	4391.6875
2318.37489	4385.9875
2321.22797	4389.1875
2324.07925	4383.8875
2326.92871	4374.0875
2329.77637	4365.4875
2332.62222	4356.9875
2335.46626	4355.5875
2338.3085	4349.5875
2341.14893	4342.8875
2343.98756	4343.6875
2346.8244	4340.9875
2349.65943	4344.9875
2352.49267	4353.1875
2355.32411	4346.0875
2358.15376	4352.8875
2360.98161	4368.7875
2363.80768	4358.4875
2366.63195	4359.9875
2369.45444	4355.1875
2372.27514	4351.8875
2375.09405	4357.4875
2377.91118	4331.8875
2380.72652	4319.2875
2383.54009	4310.0875
2386.35187	4293.3875
2389.16188	4279.2875
2391.97011	4253.3875
2394.77657	4245.5875
2397.58125	4234.1875
2400.38416	4225.3875
2403.18529	4209.9875
2405.98466	4198.8875
2408.78226	4189.9875
2411.57809	4181.0875
2414.37216	4187.6875
2417.16446	4191.5875
2419.955	4175.4875
2422.74378	4181.2875
2425.5308	4170.0875
2428.31606	4162.2875
2431.09956	4158.2875
2433.88131	4152.8875
2436.6613	4143.0875
2439.43954	4144.5875
2442.21603	4152.0875
2444.99077	4141.7875
2447.76377	4163.0875
2450.53501	4144.3875
2453.30451	4157.0875
2456.07226	4138.1875
2458.83827	4147.6875
2461.60254	4136.8875
2464.36507	4137.2875
2467.12586	4132.0875
2469.88492	4137.7875
2472.64224	4136.5875
2475.39782	4145.3875
2478.15167	4142.1875
2480.90379	4129.1875
2483.65417	4145.0875
2486.40283	4143.5875
2489.14976	4149.1875
2491.89497	4150.9875
2494.63845	4154.4875
2497.3802	4147.8875
2500.12024	4140.4875
2502.85855	4135.6875
2505.59514	4126.8875
2508.33002	4117.1875
2511.06318	4117.6875
2513.79462	4098.5875
2516.52435	4080.8875
2519.25237	4086.1875
2521.97867	4058.3875
2524.70327	4046.5875
2527.42616	4039.3875
2530.14734	4040.1875
2532.86681	4021.8875
2535.58458	4042.0875
2538.30065	4003.1875
2541.01501	4024.8875
2543.72768	4002.4875
2546.43864	4005.2875
2549.14791	3995.6875
2551.85548	3992.9875
2554.56136	3991.0875
2557.26554	3984.7875
2559.96803	3974.0875
2562.66883	3972.4875
2565.36794	3965.5875
2568.06536	3971.8875
2570.7611	3957.9875
2573.45514	3947.3875
2576.14751	3950.2875
2578.83819	3959.8875
2581.52719	3938.5875
2584.21451	3932.7875
2586.90015	3939.6875
2589.58411	3931.7875
2592.2664	3933.5875
2594.94701	3917.1875
2597.62594	3911.1875
2600.30321	3908.5875
2602.9788	3896.0875
2605.65273	3890.6875
2608.32498	3891.9875
2610.99557	3909.2875
2613.66449	3903.3875
2616.33175	3891.5875
2618.99734	3889.5875
2621.66128	3890.4875
2624.32355	3874.5875
2626.98416	3870.5875
2629.64311	3878.4875
2632.30041	3870.0875
2634.95605	3864.2875
2637.61004	3860.1875
2640.26238	3851.3875
2642.91306	3849.1875
2645.56209	3851.3875
2648.20948	3854.4875
2650.85521	3846.3875
2653.4993	3842.5875
2656.14175	3830.2875
2658.78255	3842.1875
2661.42171	3845.8875
2664.05923	3848.6875
2666.6951	3859.8875
2669.32934	3863.1875
2671.96194	3853.5875
2674.59291	3854.8875
2677.22224	3844.2875
2679.84993	3862.0875
2682.476	3861.1875
2685.10043	3863.3875
2687.72324	3855.3875
2690.34441	3846.9875
2692.96396	3847.0875
2695.58188	3860.0875
2698.19818	3836.4875
2700.81285	3863.5875
2703.4259	3865.7875
2706.03733	3915.5875
2708.64714	3892.3875
2711.25533	3885.1875
2713.86191	3872.8875
2716.46687	3884.5875
2719.07021	3885.1875
2721.67194	3888.6875
2724.27206	3875.8875
2726.87057	3889.7875
2729.46747	3885.9875
2732.06276	3891.1875
2734.65644	3873.5875
2737.24852	3876.2875
2739.83899	3861.2875
2742.42786	3858.2875
2745.01513	3842.7875
2747.60079	3842.2875
2750.18486	3826.5875
2752.76733	3834.9875
2755.3482	3833.2875
2757.92747	3825.3875
2760.50515	3833.1875
2763.08123	3809.0875
2765.65573	3810.3875
2768.22863	3817.7875
2770.79994	3784.8875
2773.36967	3793.8875
2775.9378	3785.7875
2778.50435	3793.7875
2781.06932	3791.3875
2783.6327	3789.6875
2786.1945	3793.5875
2788.75471	3799.7875
2791.31335	3783.6875
2793.87041	3782.3875
2796.42589	3778.4875
2798.97979	3786.0875
2801.53212	3778.3875
2804.08288	3787.9875
2806.63206	3770.8875
2809.17967	3768.4875
2811.72571	3775.2875
2814.27018	3774.7875
2816.81308	3771.8875
2819.35442	3779.4875
2821.89419	3785.2875
2824.43239	3790.2875
2826.96904	3790.2875
2829.50412	3802.1875
2832.03763	3801.5875
2834.56959	3808.7875
2837.1	3827.3875
2839.62884	3857.1875
2842.15613	3901.8875
2844.68186	3963.9875
2847.20604	4041.1875
2849.72867	4118.6875
2852.24974	4126.7875
2854.76927	4139.5875
2857.28724	4144.9875
2859.80367	4104.8875
2862.31855	4080.5875
2864.83189	4072.1875
2867.34368	4043.1875
2869.85393	4044.8875
2872.36264	4050.5875
2874.8698	4040.8875
2877.37543	4048.1875
2879.87952	4018.5875
2882.38207	4058.2875
2884.88308	4027.2875
2887.38256	4040.2875
2889.88051	4043.9875
2892.37692	4034.3875
2894.8718	4030.6875
2897.36515	4047.2875
2899.85698	4039.1875
2902.34727	4041.6875
2904.83604	4046.7875
2907.32328	4054.1875
2909.809	4046.5875
2912.29319	4041.5875
2914.77587	4037.9875
2917.25702	4029.4875
2919.73665	4013.2875
2922.21476	4030.1875
2924.69136	4018.1875
2927.16644	4024.1875
2929.64	4017.3875
2932.11205	3996.4875
2934.58258	3990.2875
2937.05161	3962.9875
2939.51912	3964.0875
2941.98513	3909.9875
2944.44962	3861.8875
2946.91261	3819.3875
2949.37409	3787.2875
2951.83407	3749.4875
2954.29254	3736.7875
2956.74951	3717.0875
2959.20498	3705.1875
2961.65895	3694.6875
2964.11142	3674.5875
2966.56239	3671.9875
2969.01186	3653.4875
2971.45984	3625.6875
2973.90632	3616.2875
2976.35131	3600.7875
2978.7948	3580.3875
2981.23681	3573.7875
2983.67732	3557.5875
2986.11635	3557.3875
2988.55388	3536.6875
2990.98993	3536.8875
2993.4245	3515.6875
2995.85758	3517.3875
2998.28917	3499.8875
3000.71928	3497.3875
3003.14791	3499.2875
3005.57506	3475.7875
3008.00073	3479.1875
3010.42493	3452.8875
3012.84764	3460.3875
3015.26888	3461.2875
3017.68865	3451.4875
3020.10694	3443.7875
3022.52376	3443.1875
3024.9391	3425.4875
3027.35298	3425.2875
3029.76539	3425.5875
3032.17632	3420.1875
3034.5858	3409.8875
3036.9938	3421.4875
3039.40034	3412.8875
3041.80542	3417.8875
3044.20903	3384.2875
3046.61118	3390.3875
3049.01187	3394.7875
3051.4111	3401.9875
3053.80888	3378.2875
3056.20519	3385.6875
3058.60005	3368.5875
3060.99345	3355.6875
3063.3854	3369.8875
3065.7759	3371.8875
3068.16494	3354.5875
3070.55254	3351.0875
3072.93868	3334.9875
3075.32338	3327.0875
3077.70662	3320.7875
3080.08842	3312.9875
3082.46878	3307.9875
3084.84769	3281.8875
3087.22515	3283.7875
3089.60118	3287.0875
3091.97576	3283.4875
3094.3489	3288.6875
3096.72061	3272.4875
3099.09087	3274.8875
3101.4597	3293.4875
3103.82709	3277.7875
3106.19305	3256.5875
3108.55757	3265.9875
