Data from AgNPs_FTO_APTES_UA_2uM_CRN_500uM_R6G_10uM_NaF_0.1M_Addition_RamanShift__25__17-27-45-427.txt Node

Date: Wed Feb 02 17:27:45 GMT 2022
User: TCL
Spectrometer: QEP01345
Trigger mode: 4
Integration Time (sec): 7.000000E0
Scans to average: 10
Electric dark correction enabled: true
Nonlinearity correction enabled: false
Boxcar width: 0
XAxis mode: Raman Shifts
Number of Pixels in Spectrum: 1044
>>>>>Begin Spectral Data<<<<<
46.04893	0.8
50.45542	0
54.85868	-0.9
59.25871	0.5
63.6555	71.2
68.04907	77.2
72.43941	83.3
76.82654	87.2
81.21044	90.6
85.59113	91.6
89.96862	92.7
94.34289	99.4
98.71396	103
103.08183	111.2
107.4465	110.6
111.80798	109.8
116.16626	116.3
120.52136	121.3
124.87327	124.5
129.222	130.5
133.56755	138.2
137.90993	149.4
142.24913	166.8
146.58517	186.4
150.91804	216.4
155.24774	257
159.57429	321.8
163.89768	414.6
168.21792	544.4
172.53501	759
176.84895	1050.9
181.15975	1472.9
185.46741	2054.7
189.77193	2826.4
194.07331	3792.9
198.37157	4891.7
202.6667	6047.2
206.9587	7192.7
211.24758	8330.7
215.53334	9499.1
219.81599	10751.8
224.09553	12154.6
228.37195	13704.2
232.64527	15369.3
236.91549	17063
241.18261	18725.4
245.44663	20148.1
249.70755	21475.4
253.96539	22595.1
258.22014	23637.3
262.4718	24494.5
266.72039	25173.4
270.96589	25566.6
275.20832	25747
279.44768	25748.8
283.68397	25636
287.91719	25576.9
292.14735	25682.8
296.37445	26015.3
300.59849	26450.6
304.81948	26770.1
309.03742	26819.4
313.25231	26395.8
317.46415	25274.1
321.67296	23815.6
325.87872	22667.3
330.08145	22115.9
334.28114	21997.8
338.47781	22197.3
342.67145	22592.6
346.86207	23187.1
351.04966	24024.3
355.23424	24990.3
359.4158	25762.9
363.59435	26147
367.76989	26291.4
371.94243	26309.9
376.11196	26315
380.27849	26319.4
384.44203	26346.3
388.60257	26287.7
392.76012	26297.9
396.91468	26573.9
401.06626	27051
405.21485	27453.7
409.36047	27182.7
413.50311	26326.8
417.64277	25566.1
421.77947	25122.8
425.9132	25102.1
430.04396	25238.2
434.17176	25460.1
438.2966	25795.6
442.41849	26395.7
446.53742	27174.5
450.6534	28052.8
454.76644	28642.2
458.87653	28886.5
462.98368	28791.4
467.08789	28523.9
471.18916	28303
475.2875	28101.8
479.38291	28016.3
483.4754	27908
487.56496	27422.3
491.6516	26760.9
495.73531	26111.1
499.81612	25730
503.89401	25767.3
507.96899	25800.5
512.04106	25755.6
516.11023	25733.1
520.1765	25689.7
524.23987	25413.7
528.30034	25085
532.35792	24705
536.41261	24401.9
540.46441	24093.2
544.51333	24094.4
548.55936	24420.3
552.60252	25122.8
556.64279	25985.1
560.6802	26593.6
564.71473	27136
568.7464	28093.5
572.7752	28916.7
576.80114	28718.8
580.82422	28130.8
584.84444	27767.6
588.86181	27710.5
592.87633	27999.9
596.888	28253.9
600.89682	28601.5
604.9028	29994.7
608.90594	34413.1
612.90624	40138
616.90371	38343.2
620.89834	29421.6
624.89015	25214.8
628.87913	24499.4
632.86528	24648
636.84862	24852.8
640.82913	24510.4
644.80683	23578.8
648.78172	22888.5
652.75379	22735.9
656.72306	23195.9
660.68952	23899.4
664.65319	23848.1
668.61405	23199
672.57211	22851.2
676.52738	22841.7
680.47986	22892.9
684.42955	22796.3
688.37646	22731.1
692.32058	22779.9
696.26192	22992.5
700.20048	23285.9
704.13626	23504.2
708.06928	23491.1
711.99952	23332.8
715.927	23175.5
719.85171	23216.7
723.77365	23170.8
727.69284	22962.3
731.60928	22763.2
735.52295	22685.5
739.43388	22681.3
743.34206	22732.2
747.24749	22853.7
751.15017	23074.6
755.05012	23516.9
758.94733	24451.4
762.8418	26358.5
766.73354	29503.8
770.62254	32627.1
774.50882	33787.6
778.39237	32019.2
782.27321	28495.3
786.15132	25419.8
790.02671	23591.1
793.89938	22799.8
797.76935	22401.6
801.6366	22316.7
805.50115	22217.1
809.36299	22135.7
813.22213	22063.2
817.07857	22099.7
820.93231	22131.3
824.78336	22030.1
828.63172	21990.8
832.47738	21948.2
836.32036	21902.3
840.16066	21828.3
843.99827	21762
847.8332	21639.8
851.66546	21568.6
855.49504	21531
859.32195	21496.8
863.1462	21432
866.96777	21325.3
870.78668	21312.8
874.60293	21337.6
878.41652	21341.6
882.22745	21397.7
886.03573	21459.5
889.84136	21456.3
893.64433	21351.6
897.44466	21245.2
901.24235	21207.9
905.0374	21144.5
908.8298	21084.6
912.61957	21111.7
916.40671	21296.4
920.19121	21525.6
923.97308	21704.4
927.75233	21766.4
931.52895	21726.1
935.30295	21496.1
939.07433	20963.1
942.84309	20513.4
946.60924	20253.8
950.37278	20153.1
954.13371	20095.1
957.89203	20038.9
961.64774	20039.2
965.40086	20045.9
969.15137	19905.9
972.89929	19796.2
976.64461	19651.9
980.38733	19643.4
984.12747	19669.5
987.86502	19740.3
991.59999	19906
995.33237	20178.4
999.06217	20657.2
1002.78939	21264.9
1006.51404	21772.6
1010.23611	22141.5
1013.95561	22331.1
1017.67255	22239.8
1021.38692	21945.9
1025.09872	21616
1028.80796	21433.7
1032.51465	21549.2
1036.21877	21786
1039.92035	21878.4
1043.61937	21848.8
1047.31584	21716.7
1051.00976	21566.6
1054.70114	21508.6
1058.38998	21587.2
1062.07627	21820.9
1065.76003	22058.1
1069.44126	22225.2
1073.11995	22388
1076.79611	22554.8
1080.46974	22713.1
1084.14085	22969
1087.80943	23367.3
1091.47549	23726.8
1095.13903	23664.1
1098.80005	23278.3
1102.45857	22706
1106.11456	22321.6
1109.76805	22292.4
1113.41903	22481.1
1117.06751	22924.3
1120.71348	23513.1
1124.35696	24010.4
1127.99793	24582.1
1131.63641	24677
1135.2724	24146.9
1138.90589	23534.4
1142.5369	23270
1146.16542	23187.9
1149.79145	23263.1
1153.415	23526.4
1157.03607	23890.6
1160.65467	24545.7
1164.27079	25527.7
1167.88443	26933.2
1171.49561	28890.9
1175.10432	31784.9
1178.71056	35469.1
1182.31434	38535.2
1185.91565	39824.2
1189.51451	39601.5
1193.11091	38363.6
1196.70485	36679.8
1200.29634	34992.6
1203.88538	33585.8
1207.47197	32256.1
1211.05612	31101.2
1214.63782	30242.5
1218.21708	29682.1
1221.79391	29287.9
1225.36829	28880.2
1228.94024	28448.7
1232.50976	28032.2
1236.07685	27749.2
1239.6415	27621.7
1243.20374	27657.5
1246.76355	27826.8
1250.32093	28223.6
1253.8759	28903.7
1257.42845	29746.8
1260.97859	30587.3
1264.52631	31340.3
1268.07163	32136.7
1271.61453	33029.4
1275.15503	33829.8
1278.69312	34543.7
1282.22882	35057.6
1285.76211	35908.3
1289.29301	37206.8
1292.82151	38904.5
1296.34761	41014.8
1299.87133	43497.6
1303.39266	46566.4
1306.9116	50325.2
1310.42815	54331.4
1313.94233	57255.9
1317.45412	57789.7
1320.96354	56598.5
1324.47058	55024.1
1327.97525	53365.4
1331.47754	52119.3
1334.97747	51654.8
1338.47502	51776.1
1341.97022	51915.4
1345.46305	51607
1348.95352	50909.2
1352.44163	50546.5
1355.92738	51389.4
1359.41078	54326.2
1362.89183	57932.5
1366.37053	57010
1369.84688	50783.4
1373.32088	44158.9
1376.79254	39975.8
1380.26186	38356.2
1383.72883	38155.7
1387.19347	38225
1390.65578	38368.6
1394.11575	38693.5
1397.57339	39483.6
1401.0287	40722.1
1404.48168	41872.7
1407.93234	42415.4
1411.38068	42212.1
1414.82669	40850.9
1418.27039	38750.4
1421.71177	36435.1
1425.15083	34423.5
1428.58758	33151.8
1432.02203	32785.8
1435.45416	33129.5
1438.88399	33845.6
1442.31151	34601.5
1445.73673	35404.9
1449.15965	36325.7
1452.58027	37078.6
1455.9986	37643.8
1459.41463	38136.7
1462.82837	38739.6
1466.23982	39434.6
1469.64898	40040.8
1473.05586	40222.3
1476.46045	39979.4
1479.86276	39550.5
1483.26279	39133.8
1486.66054	38875.4
1490.05602	38942.3
1493.44922	39178.2
1496.84016	39592.8
1500.22882	40712.7
1503.61521	42729.1
1506.99934	45550.2
1510.38121	48619.6
1513.76081	50535
1517.13816	49682.5
1520.51324	46415.8
1523.88607	42745.1
1527.25665	40300.3
1530.62498	38988.5
1533.99105	38461.3
1537.35488	38097.5
1540.71647	37705.7
1544.07581	37191.4
1547.4329	36614.5
1550.78776	36003.9
1554.14038	35609.8
1557.49077	35670.3
1560.83892	35875.9
1564.18484	36270.1
1567.52853	36669.6
1570.86999	36989.7
1574.20922	37443.7
1577.54624	37774.6
1580.88103	37537.2
1584.2136	37191.2
1587.54395	37709.8
1590.87208	39274.8
1594.19801	41615
1597.52172	43992.8
1600.84321	44876.8
1604.16251	43206
1607.47959	39902.6
1610.79447	36173
1614.10715	32595.2
1617.41763	29738.2
1620.7259	27755
1624.03199	26710.4
1627.33587	26470
1630.63757	27177.1
1633.93707	28720.8
1637.23439	31397.1
1640.52951	35061.3
1643.82246	39580.8
1647.11321	43861.2
1650.40179	45935.8
1653.68819	44051.2
1656.97241	38567.5
1660.25446	32437.2
1663.53433	27631.2
1666.81203	24509.7
1670.08756	22502.5
1673.36092	21308.5
1676.63211	20552.1
1679.90115	20033.3
1683.16801	19627.7
1686.43272	19337.6
1689.69527	19110.1
1692.95567	18936.9
1696.2139	18845.4
1699.46999	18765.8
1702.72392	18710.3
1705.97571	18646.1
1709.22535	18543.3
1712.47284	18514.1
1715.71819	18478.4
1718.96139	18428.5
1722.20246	18363.8
1725.44139	18255.5
1728.67818	18158.2
1731.91284	18067
1735.14537	17984.8
1738.37576	17890.7
1741.60403	17833.3
1744.83017	17776.2
1748.05418	17729.5
1751.27607	17735.9
1754.49584	17649.7
1757.71349	17648.7
1760.92903	17647.1
1764.14244	17593.3
1767.35375	17561.7
1770.56294	17536.3
1773.77002	17478.3
1776.97499	17425.9
1780.17785	17341.3
1783.37861	17349.3
1786.57727	17312.1
1789.77382	17288.4
1792.96828	17237.6
1796.16064	17188.4
1799.3509	17186.6
1802.53907	17151.7
1805.72514	17094.1
1808.90913	17082
1812.09102	17024.5
1815.27083	16977.9
1818.44856	16922.9
1821.6242	16901.6
1824.79776	16889.6
1827.96924	16855.5
1831.13864	16818.6
1834.30597	16843.6
1837.47122	16854.6
1840.6344	16811.6
1843.7955	16829.5
1846.95454	16804.2
1850.11151	16821.9
1853.26642	16810.9
1856.41926	16791.2
1859.57004	16809.2
1862.71876	16804.2
1865.86542	16783.8
1869.01003	16789.1
1872.15258	16743
1875.29308	16792.3
1878.43152	16793.9
1881.56792	16786.3
1884.70227	16778.3
1887.83457	16774.1
1890.96482	16761.6
1894.09304	16790.9
1897.21921	16778.2
1900.34335	16759.9
1903.46544	16782.5
1906.58551	16775.4
1909.70353	16785.6
1912.81953	16803
1915.93349	16738.4
1919.04543	16719.6
1922.15534	16658.4
1925.26322	16627.4
1928.36908	16588.9
1931.47292	16524.2
1934.57473	16479.2
1937.67453	16390
1940.77232	16320.3
1943.86808	16269.4
1946.96184	16203.2
1950.05358	16140.4
1953.14331	16078.3
1956.23103	16060.2
1959.31675	15970.8
1962.40046	15935.4
1965.48217	15869.4
1968.56188	15830.7
1971.63959	15763.1
1974.7153	15753.9
1977.78901	15681.3
1980.86073	15660.5
1983.93046	15592.7
1986.99819	15525.2
1990.06394	15483.9
1993.1277	15432.9
1996.18947	15394.9
1999.24925	15329
2002.30706	15314.8
2005.36288	15234.2
2008.41672	15209.4
2011.46859	15127.4
2014.51848	15093.7
2017.56639	15064.4
2020.61233	15039
2023.6563	15032.3
2026.6983	14970.1
2029.73833	14952
2032.7764	14904.2
2035.8125	14915.7
2038.84664	14850.2
2041.87881	14852.1
2044.90903	14790.7
2047.93729	14803.9
2050.96359	14779
2053.98794	14770.9
2057.01034	14726.1
2060.03078	14715
2063.04927	14687.3
2066.06582	14679.7
2069.08042	14675.4
2072.09307	14654.3
2075.10378	14614.6
2078.11255	14604
2081.11938	14609.2
2084.12426	14617.4
2087.12722	14619.7
2090.12824	14596.7
2093.12732	14570.9
2096.12447	14577.9
2099.11969	14554.9
2102.11299	14588.8
2105.10435	14557.2
2108.09379	14545.5
2111.08131	14580.7
2114.0669	14564.2
2117.05057	14610.5
2120.03233	14552.2
2123.01216	14606
2125.99008	14598.9
2128.96609	14626.9
2131.94018	14618.6
2134.91236	14636
2137.88263	14648.3
2140.851	14661.4
2143.81746	14681.2
2146.78201	14659.6
2149.74466	14634.6
2152.7054	14622.7
2155.66425	14609.9
2158.6212	14657.8
2161.57625	14612.6
2164.52941	14581.5
2167.48067	14583.5
2170.43004	14610.9
2173.37752	14576.1
2176.32311	14608.7
2179.26681	14583.7
2182.20863	14548.3
2185.14856	14549
2188.08661	14534.4
2191.02278	14572.2
2193.95707	14523.7
2196.88948	14547
2199.82001	14529.7
2202.74867	14505.5
2205.67545	14521.9
2208.60037	14488.4
2211.52341	14456
2214.44458	14473.6
2217.36388	14430.4
2220.28132	14422.6
2223.1969	14389.8
2226.11061	14326.4
2229.02246	14344.8
2231.93245	14298.3
2234.84058	14282.7
2237.74686	14252.1
2240.65128	14215.3
2243.55385	14201.3
2246.45456	14159.4
2249.35343	14179.3
2252.25044	14110.9
2255.14561	14122.7
2258.03893	14081.4
2260.93041	14046.6
2263.82004	14029.5
2266.70783	14009.9
2269.59378	13998.7
2272.4779	13949
2275.36017	13913.5
2278.24061	13874.3
2281.11922	13862.9
2283.996	13826.1
2286.87094	13808.9
2289.74405	13809.9
2292.61534	13768.4
2295.4848	13747.2
2298.35243	13740.6
2301.21824	13724.6
2304.08223	13707.7
2306.94439	13714.7
2309.80474	13683.1
2312.66327	13704.4
2315.51999	13699.5
2318.37489	13679.2
2321.22797	13675
2324.07925	13637.5
2326.92871	13617.4
2329.77637	13623.8
2332.62222	13636.9
2335.46626	13631.5
2338.3085	13592.7
2341.14893	13624.7
2343.98756	13597.1
2346.8244	13566.1
2349.65943	13575
2352.49267	13612.2
2355.32411	13578.7
2358.15376	13593.6
2360.98161	13580.6
2363.80768	13586.3
2366.63195	13575.1
2369.45444	13587.5
2372.27514	13579
2375.09405	13537.9
2377.91118	13507.2
2380.72652	13466
2383.54009	13431.3
2386.35187	13398.9
2389.16188	13363.9
2391.97011	13330.7
2394.77657	13333.2
2397.58125	13254.4
2400.38416	13260.3
2403.18529	13200.5
2405.98466	13203.6
2408.78226	13182.2
2411.57809	13183.1
2414.37216	13131.9
2417.16446	13162.1
2419.955	13113
2422.74378	13094.6
2425.5308	13079.2
2428.31606	13100.1
2431.09956	13086.2
2433.88131	13067.1
2436.6613	13098.5
2439.43954	13060.8
2442.21603	13040.3
2444.99077	13032.1
2447.76377	13053.4
2450.53501	13061.2
2453.30451	13065.5
2456.07226	13009.2
2458.83827	13035.9
2461.60254	13005.5
2464.36507	13038.5
2467.12586	12997.8
2469.88492	13017.9
2472.64224	13007.2
2475.39782	13025.5
2478.15167	13034.7
2480.90379	13054.5
2483.65417	13034.2
2486.40283	13075.6
2489.14976	13053.5
2491.89497	13075.7
2494.63845	13079.2
2497.3802	13088.3
2500.12024	13056.3
2502.85855	13070.1
2505.59514	13060.2
2508.33002	13063.4
2511.06318	13023.4
2513.79462	12982.2
2516.52435	12956.8
2519.25237	12958.3
2521.97867	12910.2
2524.70327	12910.5
2527.42616	12923.9
2530.14734	12875.7
2532.86681	12871.5
2535.58458	12880.1
2538.30065	12861.9
2541.01501	12836.8
2543.72768	12793.2
2546.43864	12790.8
2549.14791	12802.2
2551.85548	12778.9
2554.56136	12783.9
2557.26554	12760.3
2559.96803	12760.1
2562.66883	12748.2
2565.36794	12745.3
2568.06536	12721
2570.7611	12718.4
2573.45514	12696.1
2576.14751	12696.3
2578.83819	12668
2581.52719	12660.6
2584.21451	12651.9
2586.90015	12645.7
2589.58411	12638.4
2592.2664	12626.8
2594.94701	12622.9
2597.62594	12642.2
2600.30321	12618.1
2602.9788	12650.3
2605.65273	12617.2
2608.32498	12602.9
2610.99557	12620.8
2613.66449	12617.5
2616.33175	12604.5
2618.99734	12593.4
2621.66128	12601
2624.32355	12629.8
2626.98416	12616.3
2629.64311	12603.6
2632.30041	12602.5
2634.95605	12589.8
2637.61004	12585.1
2640.26238	12560.8
2642.91306	12525.5
2645.56209	12537.1
2648.20948	12527.8
2650.85521	12538.1
2653.4993	12532.5
2656.14175	12535.4
2658.78255	12538.9
2661.42171	12571.2
2664.05923	12550.4
2666.6951	12568.9
2669.32934	12558.4
2671.96194	12587.7
2674.59291	12602
2677.22224	12571.5
2679.84993	12587.5
2682.476	12583.2
2685.10043	12598.8
2687.72324	12590
2690.34441	12582.3
2692.96396	12567.4
2695.58188	12585.3
2698.19818	12560.3
2700.81285	12578.3
2703.4259	12579.5
2706.03733	12630.4
2708.64714	12569.3
2711.25533	12584.1
2713.86191	12576.2
2716.46687	12622.8
2719.07021	12599.7
2721.67194	12631.2
2724.27206	12579.9
2726.87057	12609.8
2729.46747	12623.1
2732.06276	12626.4
2734.65644	12630.7
2737.24852	12644.7
2739.83899	12620.1
2742.42786	12628.5
2745.01513	12594.6
2747.60079	12584
2750.18486	12600.6
2752.76733	12597.1
2755.3482	12608.4
2757.92747	12612.4
2760.50515	12580.1
2763.08123	12580.5
2765.65573	12592.8
2768.22863	12568.2
2770.79994	12546.2
2773.36967	12538.2
2775.9378	12551.5
2778.50435	12535.8
2781.06932	12537.6
2783.6327	12550.8
2786.1945	12545.6
2788.75471	12541.8
2791.31335	12525
2793.87041	12497.8
2796.42589	12464.6
2798.97979	12451.7
2801.53212	12437.3
2804.08288	12432
2806.63206	12402.5
2809.17967	12367.1
2811.72571	12344.1
2814.27018	12380.5
2816.81308	12343
2819.35442	12340.4
2821.89419	12324.2
2824.43239	12324.7
2826.96904	12311.7
2829.50412	12306.7
2832.03763	12286.9
2834.56959	12308.2
2837.1	12304.9
2839.62884	12303.8
2842.15613	12307.2
2844.68186	12340.7
2847.20604	12345.2
2849.72867	12385.7
2852.24974	12405.7
2854.76927	12354.9
2857.28724	12372
2859.80367	12333.8
2862.31855	12280.2
2864.83189	12286.7
2867.34368	12296.5
2869.85393	12302.2
2872.36264	12313.7
2874.8698	12318.8
2877.37543	12302
2879.87952	12332.2
2882.38207	12312.3
2884.88308	12263.6
2887.38256	12281.5
2889.88051	12270.1
2892.37692	12281.1
2894.8718	12285.6
2897.36515	12344.4
2899.85698	12324.8
2902.34727	12335.2
2904.83604	12332.2
2907.32328	12343
2909.809	12372
2912.29319	12361.1
2914.77587	12379
2917.25702	12342.8
2919.73665	12328.1
2922.21476	12361
2924.69136	12330.8
2927.16644	12333.5
2929.64	12321.4
2932.11205	12289.4
2934.58258	12255.8
2937.05161	12261.5
2939.51912	12243.4
2941.98513	12224.4
2944.44962	12175.5
2946.91261	12117.1
2949.37409	12133.7
2951.83407	12094.9
2954.29254	12081.9
2956.74951	12028.8
2959.20498	12022.8
2961.65895	11995.1
2964.11142	11983.8
2966.56239	11934.3
2969.01186	11921.8
2971.45984	11867.2
2973.90632	11832.8
2976.35131	11826.4
2978.7948	11781.2
2981.23681	11777.8
2983.67732	11756.5
2986.11635	11721.4
2988.55388	11709.7
2990.98993	11676.5
2993.4245	11640.1
2995.85758	11610.7
2998.28917	11578.6
3000.71928	11582.8
3003.14791	11546
3005.57506	11530.1
3008.00073	11480.1
3010.42493	11489.8
3012.84764	11479
3015.26888	11479
3017.68865	11439.7
3020.10694	11389.6
3022.52376	11372.8
3024.9391	11367.9
3027.35298	11347.9
3029.76539	11313.1
3032.17632	11304.9
3034.5858	11276.9
3036.9938	11255.7
3039.40034	11275.5
3041.80542	11237.3
3044.20903	11220
3046.61118	11209
3049.01187	11165
3051.4111	11183.8
3053.80888	11178.2
3056.20519	11127.5
3058.60005	11106.4
3060.99345	11101.5
3063.3854	11050.5
3065.7759	10988.1
3068.16494	10959
3070.55254	10901.8
3072.93868	10923.5
3075.32338	10877.2
3077.70662	10848.8
3080.08842	10803.6
3082.46878	10805.9
3084.84769	10788.3
3087.22515	10772.1
3089.60118	10776
3091.97576	10760.4
3094.3489	10729.2
3096.72061	10704.2
3099.09087	10721.2
3101.4597	10702.3
3103.82709	10665.5
3106.19305	10679.8
3108.55757	10630.4
3110.92066	10615.9
3113.28232	10595
3115.64255	10579.7
3118.00134	10542.4
3120.35871	10526.5
3122.71466	10513.4
3125.06917	10496.8
3127.42226	10461.2
3129.77393	10449
3132.12417	10448.7
3134.47299	10440.9
3136.82039	10451.9
3139.16636	10441.5
3141.51092	10419
3143.85406	10430.2
3146.19579	10435.9
3148.53609	10413.7
3150.87499	10437.9
3153.21246	10417.7
3155.54853	10431.7
3157.88318	10407.7
3160.21642	10420.9
3162.54826	10394.3
3164.87868	10398.2
3167.2077	10382.3
3169.5353	10391.7
3171.86151	10398.5
3174.18631	10355.7
3176.5097	10355.9
3178.83169	10330.6
3181.15228	10332.8
3183.47147	10302.7
3185.78926	10309
3188.10565	10308.4
3190.42065	10304
3192.73424	10302.6
3195.04645	10297.8
3197.35725	10286.2
3199.66667	10323.4
3201.97469	10294.5
3204.28132	10277.5
3206.58656	10319.6
3208.8904	10304.3
3211.19287	10282.6
3213.49394	10316.3
3215.79363	10298.3
3218.09193	10289
3220.38884	10302.1
3222.68438	10325.8
3224.97853	10291.6
3227.2713	10283.7
3229.56269	10261.3
3231.8527	10250.6
3234.14133	10205.2
3236.42858	10224.2
3238.71446	10220.3
3240.99896	10169.2
3243.28209	10169.2
3245.56384	10158.2
3247.84423	10160.7
3250.12324	10157.4
3252.40088	10155.4
3254.67715	10121.5
3256.95205	10084.1
3259.22558	10082.2
3261.49775	10045.2
3263.76855	10071
3266.03799	10008
3268.30606	9992.2
3270.57277	9987.4
3272.83812	9965.1
3275.10211	9935.2
3277.36474	9940.9
3279.62601	9919
3281.88593	9910.2
3284.14448	9904
3286.40168	9904.3
3288.65753	9911.5
3290.91202	9867.3
3293.16516	9836
3295.41695	9802.3
3297.66738	9762.9
3299.91647	9720.1
3302.16421	9649.3
3304.4106	9623.8
3306.65564	9571
3308.89933	9511.2
3311.14169	9478.3
3313.38269	9368.3
3315.62236	9304.1
3317.86068	9237.8
3320.09766	9138.7
3322.3333	9069
3324.5676	9062.9
3326.80056	8915.1
3329.03219	8846.9
3331.26248	1.6
3333.49143	0.7
3335.71905	-1.9
