Data from AgNPs_FTO_APTES_UA_2uM_CRN_50uM_R6G_10uM_NaF_0.1M_Addition_RamanShift__12__14-50-15-244.txt Node

Date: Wed Feb 02 14:50:15 GMT 2022
User: TCL
Spectrometer: QEP01345
Trigger mode: 4
Integration Time (sec): 7.000000E0
Scans to average: 10
Electric dark correction enabled: true
Nonlinearity correction enabled: false
Boxcar width: 0
XAxis mode: Raman Shifts
Number of Pixels in Spectrum: 1044
>>>>>Begin Spectral Data<<<<<
46.04893	0.325
50.45542	0.125
54.85868	-0.775
59.25871	-0.475
63.6555	85.325
68.04907	95.625
72.43941	96.025
76.82654	103.025
81.21044	109.025
85.59113	115.325
89.96862	114.225
94.34289	120.825
98.71396	124.025
103.08183	129.825
107.4465	129.525
111.80798	136.525
116.16626	135.125
120.52136	135.725
124.87327	151.825
129.222	157.225
133.56755	169.825
137.90993	176.925
142.24913	195.625
146.58517	224.125
150.91804	253.925
155.24774	306.325
159.57429	381.525
163.89768	481.025
168.21792	639.525
172.53501	867.325
176.84895	1208.725
181.15975	1696.425
185.46741	2376.825
189.77193	3273.825
194.07331	4384.525
198.37157	5684.325
202.6667	7013.725
206.9587	8368.125
211.24758	9653.925
215.53334	10939.225
219.81599	12300.025
224.09553	13813.125
228.37195	15441.625
232.64527	17233.925
236.91549	19086.425
241.18261	20982.625
245.44663	22832.625
249.70755	24436.325
253.96539	25930.525
258.22014	27097.025
262.4718	28103.625
266.72039	28781.725
270.96589	29190.225
275.20832	29262.225
279.44768	29244.125
283.68397	29086.525
287.91719	29019.325
292.14735	28940.625
296.37445	28966.725
300.59849	29087.725
304.81948	29154.725
309.03742	29097.025
313.25231	28793.225
317.46415	28216.025
321.67296	27475.325
325.87872	26781.925
330.08145	26433.325
334.28114	26356.725
338.47781	26488.225
342.67145	26705.425
346.86207	26962.725
351.04966	27259.225
355.23424	27498.425
359.4158	27772.025
363.59435	28036.325
367.76989	28204.525
371.94243	28297.825
376.11196	28322.125
380.27849	28303.925
384.44203	28343.625
388.60257	28492.725
392.76012	28828.525
396.91468	29335.925
401.06626	29883.925
405.21485	30180.125
409.36047	30092.525
413.50311	29729.425
417.64277	29465.225
421.77947	29459.225
425.9132	29659.525
430.04396	29777.025
434.17176	29908.625
438.2966	29994.025
442.41849	30294.125
446.53742	30828.925
450.6534	31470.125
454.76644	31946.225
458.87653	32193.525
462.98368	32254.325
467.08789	32161.925
471.18916	32014.525
475.2875	31847.025
479.38291	31850.925
483.4754	31753.525
487.56496	31534.025
491.6516	31088.425
495.73531	30532.325
499.81612	30118.325
503.89401	30108.925
507.96899	30200.025
512.04106	30223.925
516.11023	30149.125
520.1765	29850.625
524.23987	29480.425
528.30034	29083.325
532.35792	28708.425
536.41261	28453.025
540.46441	28297.225
544.51333	28444.525
548.55936	28885.625
552.60252	29460.525
556.64279	30144.525
560.6802	30618.325
564.71473	31055.525
568.7464	31725.825
572.7752	32956.325
576.80114	34423.725
580.82422	35605.125
584.84444	36334.025
588.86181	36800.725
592.87633	37159.525
596.888	36706.525
600.89682	35711.925
604.9028	35285.125
608.90594	36287.025
612.90624	37292.225
616.90371	34923.425
620.89834	30715.025
624.89015	28955.725
628.87913	28965.725
632.86528	29264.025
636.84862	29351.425
640.82913	28930.725
644.80683	28271.925
648.78172	27815.325
652.75379	27664.225
656.72306	27757.425
660.68952	28033.825
664.65319	28014.125
668.61405	27774.525
672.57211	27706.525
676.52738	27738.225
680.47986	27704.025
684.42955	27618.425
688.37646	27507.625
692.32058	27598.925
696.26192	27817.625
700.20048	28147.125
704.13626	28481.925
708.06928	28656.025
711.99952	28682.125
715.927	28579.525
719.85171	28332.425
723.77365	28083.225
727.69284	27671.425
731.60928	27319.525
735.52295	27057.525
739.43388	26931.225
743.34206	27003.625
747.24749	27170.725
751.15017	27501.825
755.05012	28016.125
758.94733	28840.225
762.8418	30154.425
766.73354	32066.625
770.62254	33708.725
774.50882	33628.925
778.39237	32033.325
782.27321	30163.725
786.15132	28653.625
790.02671	27672.025
793.89938	27084.225
797.76935	26781.025
801.6366	26627.325
805.50115	26585.925
809.36299	26475.825
813.22213	26325.025
817.07857	26308.725
820.93231	26317.325
824.78336	26235.325
828.63172	26093.625
832.47738	25935.025
836.32036	25880.025
840.16066	25868.825
843.99827	25783.525
847.8332	25737.625
851.66546	25774.625
855.49504	25770.325
859.32195	25830.825
863.1462	25736.625
866.96777	25672.125
870.78668	25642.825
874.60293	25618.025
878.41652	25638.225
882.22745	25628.625
886.03573	25675.925
889.84136	25709.425
893.64433	25632.025
897.44466	25605.725
901.24235	25590.625
905.0374	25562.025
908.8298	25568.025
912.61957	25714.225
916.40671	26050.125
920.19121	26518.225
923.97308	26746.425
927.75233	26624.625
931.52895	26170.725
935.30295	25674.325
939.07433	25199.325
942.84309	24795.325
946.60924	24536.825
950.37278	24432.725
954.13371	24405.925
957.89203	24437.625
961.64774	24496.325
965.40086	24505.025
969.15137	24386.425
972.89929	24239.425
976.64461	24114.525
980.38733	24041.125
984.12747	24008.625
987.86502	24037.625
991.59999	24110.125
995.33237	24207.325
999.06217	24430.725
1002.78939	24697.225
1006.51404	25030.925
1010.23611	25414.825
1013.95561	25604.025
1017.67255	25661.425
1021.38692	25552.325
1025.09872	25265.125
1028.80796	25020.125
1032.51465	24890.025
1036.21877	24949.125
1039.92035	25088.625
1043.61937	25258.725
1047.31584	25403.125
1051.00976	25543.625
1054.70114	25694.425
1058.38998	26042.725
1062.07627	26485.225
1065.76003	26932.525
1069.44126	27322.825
1073.11995	27745.125
1076.79611	28029.125
1080.46974	28123.625
1084.14085	28122.625
1087.80943	28376.525
1091.47549	28630.225
1095.13903	28814.325
1098.80005	28553.125
1102.45857	27835.625
1106.11456	27101.425
1109.76805	26649.725
1113.41903	26504.325
1117.06751	26551.025
1120.71348	26763.125
1124.35696	26996.925
1127.99793	27382.225
1131.63641	27637.725
1135.2724	27608.225
1138.90589	27599.925
1142.5369	27733.825
1146.16542	27999.425
1149.79145	28386.625
1153.415	28786.225
1157.03607	29340.925
1160.65467	30080.525
1164.27079	31293.925
1167.88443	32719.925
1171.49561	34313.925
1175.10432	36195.225
1178.71056	38327.625
1182.31434	40418.325
1185.91565	41730.425
1189.51451	42281.225
1193.11091	42032.125
1196.70485	41010.525
1200.29634	39515.025
1203.88538	38267.425
1207.47197	37719.425
1211.05612	37515.725
1214.63782	37140.025
1218.21708	36080.925
1221.79391	34679.725
1225.36829	33522.225
1228.94024	32773.625
1232.50976	32407.625
1236.07685	32265.925
1239.6415	32205.525
1243.20374	32351.825
1246.76355	32582.825
1250.32093	32958.725
1253.8759	33601.525
1257.42845	34509.825
1260.97859	35538.725
1264.52631	36475.725
1268.07163	37394.325
1271.61453	38265.125
1275.15503	39283.625
1278.69312	40405.525
1282.22882	41536.925
1285.76211	42975.825
1289.29301	44586.225
1292.82151	46551.625
1296.34761	48733.225
1299.87133	51124.625
1303.39266	53292.925
1306.9116	54855.525
1310.42815	55822.725
1313.94233	56193.325
1317.45412	55991.725
1320.96354	55939.725
1324.47058	56223.125
1327.97525	56798.125
1331.47754	57176.125
1334.97747	57636.825
1338.47502	57874.025
1341.97022	58080.425
1345.46305	57979.825
1348.95352	57470.525
1352.44163	56419.025
1355.92738	55378.225
1359.41078	55023.625
1362.89183	54892.025
1366.37053	53729.525
1369.84688	50797.625
1373.32088	46966.925
1376.79254	44026.325
1380.26186	42969.025
1383.72883	43062.325
1387.19347	43387.925
1390.65578	43254.625
1394.11575	42995.225
1397.57339	42988.025
1401.0287	43157.925
1404.48168	43195.925
1407.93234	42661.325
1411.38068	41488.825
1414.82669	39814.325
1418.27039	38050.625
1421.71177	36467.425
1425.15083	35241.225
1428.58758	34656.325
1432.02203	34783.825
1435.45416	35448.125
1438.88399	36396.425
1442.31151	37300.425
1445.73673	38029.025
1449.15965	38711.425
1452.58027	39341.925
1455.9986	39716.925
1459.41463	40116.425
1462.82837	40731.325
1466.23982	41286.625
1469.64898	41772.925
1473.05586	42024.125
1476.46045	41945.425
1479.86276	41750.525
1483.26279	41452.625
1486.66054	41370.725
1490.05602	41597.325
1493.44922	42228.325
1496.84016	43189.425
1500.22882	44397.525
1503.61521	45849.325
1506.99934	47195.525
1510.38121	48239.225
1513.76081	48530.125
1517.13816	48127.025
1520.51324	47517.525
1523.88607	47224.025
1527.25665	47233.925
1530.62498	47131.825
1533.99105	46580.125
1537.35488	45558.925
1540.71647	44130.725
1544.07581	42472.225
1547.4329	41021.225
1550.78776	39898.325
1554.14038	39155.125
1557.49077	38851.625
1560.83892	38681.925
1564.18484	38665.025
1567.52853	38819.325
1570.86999	39090.825
1574.20922	39814.025
1577.54624	40698.525
1580.88103	41085.925
1584.2136	41388.225
1587.54395	42134.525
1590.87208	43247.025
1594.19801	44773.225
1597.52172	46014.225
1600.84321	45865.025
1604.16251	43785.625
1607.47959	40883.225
1610.79447	38147.425
1614.10715	35373.425
1617.41763	33072.225
1620.7259	31302.425
1624.03199	30357.125
1627.33587	30151.125
1630.63757	30787.725
1633.93707	32534.725
1637.23439	35517.825
1640.52951	39814.225
1643.82246	44949.225
1647.11321	49358.425
1650.40179	50974.025
1653.68819	48549.825
1656.97241	43240.025
1660.25446	37325.025
1663.53433	32442.725
1666.81203	28892.625
1670.08756	26624.325
1673.36092	25152.925
1676.63211	24216.525
1679.90115	23574.425
1683.16801	23105.825
1686.43272	22730.625
1689.69527	22424.025
1692.95567	22259.225
1696.2139	22092.125
1699.46999	21984.225
1702.72392	21896.625
1705.97571	21760.825
1709.22535	21670.625
1712.47284	21581.925
1715.71819	21541.625
1718.96139	21414.825
1722.20246	21354.725
1725.44139	21229.725
1728.67818	21104.925
1731.91284	20991.625
1735.14537	20854.125
1738.37576	20770.425
1741.60403	20680.225
1744.83017	20691.725
1748.05418	20664.625
1751.27607	20522.925
1754.49584	20440.925
1757.71349	20440.625
1760.92903	20394.925
1764.14244	20383.725
1767.35375	20352.625
1770.56294	20227.725
1773.77002	20197.325
1776.97499	20138.725
1780.17785	20114.825
1783.37861	20033.825
1786.57727	19987.325
1789.77382	19952.325
1792.96828	19863.925
1796.16064	19836.025
1799.3509	19776.725
1802.53907	19718.525
1805.72514	19655.325
1808.90913	19620.725
1812.09102	19563.025
1815.27083	19546.025
1818.44856	19536.425
1821.6242	19474.925
1824.79776	19475.125
1827.96924	19425.825
1831.13864	19404.825
1834.30597	19395.125
1837.47122	19462.925
1840.6344	19400.825
1843.7955	19435.525
1846.95454	19400.925
1850.11151	19388.325
1853.26642	19413.125
1856.41926	19345.725
1859.57004	19323.125
1862.71876	19269.225
1865.86542	19215.425
1869.01003	19215.725
1872.15258	19195.925
1875.29308	19120.325
1878.43152	19115.125
1881.56792	19030.625
1884.70227	18978.325
1887.83457	18963.925
1890.96482	18915.825
1894.09304	18880.025
1897.21921	18878.325
1900.34335	18833.025
1903.46544	18782.125
1906.58551	18776.125
1909.70353	18724.325
1912.81953	18655.525
1915.93349	18635.925
1919.04543	18553.325
1922.15534	18557.325
1925.26322	18486.325
1928.36908	18436.925
1931.47292	18393.725
1934.57473	18323.525
1937.67453	18319.225
1940.77232	18232.225
1943.86808	18208.625
1946.96184	18157.525
1950.05358	18072.825
1953.14331	18028.825
1956.23103	18007.025
1959.31675	17923.025
1962.40046	17852.425
1965.48217	17799.525
1968.56188	17713.025
1971.63959	17648.525
1974.7153	17599.325
1977.78901	17559.025
1980.86073	17505.725
1983.93046	17409.125
1986.99819	17369.725
1990.06394	17299.825
1993.1277	17233.825
1996.18947	17180.025
1999.24925	17113.125
2002.30706	17061.625
2005.36288	17002.025
2008.41672	16986.625
2011.46859	16907.525
2014.51848	16849.925
2017.56639	16758.925
2020.61233	16737.725
2023.6563	16693.625
2026.6983	16618.725
2029.73833	16582.325
2032.7764	16554.325
2035.8125	16510.025
2038.84664	16496.425
2041.87881	16463.425
2044.90903	16433.425
2047.93729	16378.925
2050.96359	16342.225
2053.98794	16305.225
2057.01034	16308.625
2060.03078	16291.425
2063.04927	16247.325
2066.06582	16253.125
2069.08042	16252.425
2072.09307	16204.025
2075.10378	16205.425
2078.11255	16167.325
2081.11938	16147.125
2084.12426	16098.825
2087.12722	16177.525
2090.12824	16129.025
2093.12732	16135.425
2096.12447	16122.725
2099.11969	16153.125
2102.11299	16124.525
2105.10435	16183.625
2108.09379	16125.925
2111.08131	16137.425
2114.0669	16121.825
2117.05057	16142.225
2120.03233	16167.025
2123.01216	16161.625
2125.99008	16167.125
2128.96609	16166.225
2131.94018	16183.225
2134.91236	16135.825
2137.88263	16123.925
2140.851	16137.325
2143.81746	16149.125
2146.78201	16152.325
2149.74466	16162.625
2152.7054	16125.325
2155.66425	16108.225
2158.6212	16146.525
2161.57625	16106.725
2164.52941	16079.225
2167.48067	16038.925
2170.43004	16020.525
2173.37752	16030.925
2176.32311	15967.025
2179.26681	16003.225
2182.20863	16023.325
2185.14856	16006.425
2188.08661	15977.125
2191.02278	15962.025
2193.95707	15965.625
2196.88948	15936.025
2199.82001	15904.625
2202.74867	15885.925
2205.67545	15852.225
2208.60037	15790.625
2211.52341	15812.325
2214.44458	15733.725
2217.36388	15758.025
2220.28132	15700.225
2223.1969	15678.325
2226.11061	15652.425
2229.02246	15604.225
2231.93245	15599.725
2234.84058	15554.525
2237.74686	15513.825
2240.65128	15526.525
2243.55385	15475.025
2246.45456	15510.325
2249.35343	15420.825
2252.25044	15373.925
2255.14561	15391.925
2258.03893	15346.425
2260.93041	15283.825
2263.82004	15245.725
2266.70783	15192.725
2269.59378	15133.525
2272.4779	15056.525
2275.36017	15057.225
2278.24061	15015.125
2281.11922	14974.025
2283.996	14940.825
2286.87094	14912.425
2289.74405	14865.025
2292.61534	14849.725
2295.4848	14860.025
2298.35243	14857.925
2301.21824	14810.025
2304.08223	14805.625
2306.94439	14771.725
2309.80474	14756.525
2312.66327	14771.425
2315.51999	14730.625
2318.37489	14715.625
2321.22797	14676.425
2324.07925	14655.325
2326.92871	14629.525
2329.77637	14619.025
2332.62222	14572.425
2335.46626	14580.025
2338.3085	14556.925
2341.14893	14560.725
2343.98756	14476.325
2346.8244	14516.325
2349.65943	14510.725
2352.49267	14488.425
2355.32411	14506.425
2358.15376	14471.325
2360.98161	14463.625
2363.80768	14457.825
2366.63195	14452.725
2369.45444	14429.825
2372.27514	14423.925
2375.09405	14389.725
2377.91118	14363.625
2380.72652	14334.525
2383.54009	14302.225
2386.35187	14287.525
2389.16188	14222.025
2391.97011	14194.225
2394.77657	14157.825
2397.58125	14146.025
2400.38416	14092.425
2403.18529	14113.125
2405.98466	14098.825
2408.78226	14038.725
2411.57809	14039.225
2414.37216	14036.725
2417.16446	14012.225
2419.955	13984.325
2422.74378	14005.425
2425.5308	13988.725
2428.31606	13964.625
2431.09956	13950.425
2433.88131	13895.625
2436.6613	13911.725
2439.43954	13902.925
2442.21603	13859.025
2444.99077	13838.725
2447.76377	13843.025
2450.53501	13842.225
2453.30451	13834.825
2456.07226	13808.025
2458.83827	13815.125
2461.60254	13802.325
2464.36507	13794.025
2467.12586	13764.925
2469.88492	13757.125
2472.64224	13749.625
2475.39782	13738.825
2478.15167	13738.825
2480.90379	13717.325
2483.65417	13719.825
2486.40283	13695.425
2489.14976	13724.225
2491.89497	13690.925
2494.63845	13701.925
2497.3802	13701.925
2500.12024	13672.925
2502.85855	13661.425
2505.59514	13651.325
2508.33002	13668.825
2511.06318	13655.825
2513.79462	13659.325
2516.52435	13614.525
2519.25237	13595.325
2521.97867	13597.825
2524.70327	13591.525
2527.42616	13520.625
2530.14734	13559.225
2532.86681	13512.825
2535.58458	13532.825
2538.30065	13481.525
2541.01501	13499.925
2543.72768	13438.525
2546.43864	13393.225
2549.14791	13389.825
2551.85548	13373.325
2554.56136	13347.625
2557.26554	13380.625
2559.96803	13288.425
2562.66883	13309.225
2565.36794	13304.225
2568.06536	13267.825
2570.7611	13267.325
2573.45514	13246.625
2576.14751	13218.225
2578.83819	13190.225
2581.52719	13201.225
2584.21451	13161.925
2586.90015	13150.725
2589.58411	13121.325
2592.2664	13127.125
2594.94701	13084.325
2597.62594	13063.025
2600.30321	13048.925
2602.9788	13024.325
2605.65273	13029.725
2608.32498	13033.525
2610.99557	13010.625
2613.66449	13002.425
2616.33175	12997.025
2618.99734	13008.525
2621.66128	12958.425
2624.32355	12972.225
2626.98416	12955.225
2629.64311	12930.825
2632.30041	12932.225
2634.95605	12927.225
2637.61004	12921.025
2640.26238	12895.025
2642.91306	12881.125
2645.56209	12875.025
2648.20948	12914.325
2650.85521	12860.625
2653.4993	12856.625
2656.14175	12861.225
2658.78255	12884.825
2661.42171	12834.925
2664.05923	12880.425
2666.6951	12884.925
2669.32934	12876.825
2671.96194	12843.125
2674.59291	12879.925
2677.22224	12874.225
2679.84993	12865.325
2682.476	12868.525
2685.10043	12854.825
2687.72324	12839.725
2690.34441	12830.025
2692.96396	12834.625
2695.58188	12830.225
2698.19818	12830.025
2700.81285	12861.525
2703.4259	12838.325
2706.03733	12877.025
2708.64714	12864.125
2711.25533	12860.525
2713.86191	12838.225
2716.46687	12854.225
2719.07021	12843.825
2721.67194	12897.325
2724.27206	12876.125
2726.87057	12902.825
2729.46747	12901.525
2732.06276	12881.525
2734.65644	12836.325
2737.24852	12851.525
2739.83899	12798.625
2742.42786	12794.825
2745.01513	12780.225
2747.60079	12783.725
2750.18486	12720.625
2752.76733	12776.625
2755.3482	12763.625
2757.92747	12774.225
2760.50515	12764.425
2763.08123	12732.425
2765.65573	12740.125
2768.22863	12734.425
2770.79994	12696.325
2773.36967	12684.225
2775.9378	12667.225
2778.50435	12687.925
2781.06932	12649.425
2783.6327	12657.625
2786.1945	12635.125
2788.75471	12623.125
2791.31335	12598.025
2793.87041	12573.025
2796.42589	12546.925
2798.97979	12546.025
2801.53212	12483.825
2804.08288	12521.025
2806.63206	12453.625
2809.17967	12423.525
2811.72571	12420.925
2814.27018	12402.325
2816.81308	12395.325
2819.35442	12333.425
2821.89419	12337.025
2824.43239	12299.125
2826.96904	12303.425
2829.50412	12282.925
2832.03763	12269.725
2834.56959	12281.925
2837.1	12253.825
2839.62884	12252.325
2842.15613	12260.425
2844.68186	12278.925
2847.20604	12280.125
2849.72867	12264.625
2852.24974	12279.825
2854.76927	12256.525
2857.28724	12271.325
2859.80367	12211.325
2862.31855	12200.125
2864.83189	12179.325
2867.34368	12158.725
2869.85393	12159.925
2872.36264	12138.225
2874.8698	12144.125
2877.37543	12127.425
2879.87952	12095.925
2882.38207	12088.525
2884.88308	12054.925
2887.38256	12058.325
2889.88051	12054.825
2892.37692	12054.625
2894.8718	12065.425
2897.36515	12045.125
2899.85698	12046.425
2902.34727	12084.325
2904.83604	12079.925
2907.32328	12083.725
2909.809	12066.425
2912.29319	12067.825
2914.77587	12058.425
2917.25702	12052.625
2919.73665	12039.025
2922.21476	12059.525
2924.69136	12029.225
2927.16644	12045.625
2929.64	12052.025
2932.11205	12046.525
2934.58258	12010.825
2937.05161	12016.325
2939.51912	12025.425
2941.98513	11982.825
2944.44962	11939.125
2946.91261	11883.325
2949.37409	11904.025
2951.83407	11878.425
2954.29254	11866.325
2956.74951	11826.125
2959.20498	11841.425
2961.65895	11806.725
2964.11142	11808.325
2966.56239	11766.025
2969.01186	11784.025
2971.45984	11738.225
2973.90632	11710.525
2976.35131	11671.925
2978.7948	11641.125
2981.23681	11659.025
2983.67732	11613.325
2986.11635	11565.625
2988.55388	11515.225
2990.98993	11519.325
2993.4245	11483.225
2995.85758	11463.725
2998.28917	11446.025
3000.71928	11405.625
3003.14791	11366.525
3005.57506	11357.425
3008.00073	11316.925
3010.42493	11268.025
3012.84764	11263.125
3015.26888	11234.725
3017.68865	11214.525
3020.10694	11188.225
3022.52376	11198.225
3024.9391	11169.325
3027.35298	11140.225
3029.76539	11133.425
3032.17632	11117.325
3034.5858	11103.025
3036.9938	11096.925
3039.40034	11082.525
3041.80542	11041.425
3044.20903	10995.425
3046.61118	11005.125
3049.01187	10979.925
3051.4111	10938.525
3053.80888	10937.725
3056.20519	10898.025
3058.60005	10861.725
3060.99345	10875.525
3063.3854	10824.625
3065.7759	10772.625
3068.16494	10779.025
3070.55254	10699.625
3072.93868	10700.425
3075.32338	10677.925
3077.70662	10642.525
3080.08842	10603.925
3082.46878	10607.525
3084.84769	10589.325
3087.22515	10563.125
3089.60118	10558.925
3091.97576	10564.825
3094.3489	10531.625
3096.72061	10503.425
3099.09087	10516.425
3101.4597	10489.825
3103.82709	10495.925
3106.19305	10473.625
3108.55757	10439.225
3110.92066	10406.725
3113.28232	10380.725
3115.64255	10351.825
3118.00134	10323.125
3120.35871	10310.325
3122.71466	10301.525
3125.06917	10269.225
3127.42226	10265.825
