Data from AgNPs_FTO_APTES_UA_2uM_CRN_500uM_R6G_10uM_NaF_0.1M_Addition_RamanShift__22__17-24-15-423.txt Node

Date: Wed Feb 02 17:24:15 GMT 2022
User: TCL
Spectrometer: QEP01345
Trigger mode: 4
Integration Time (sec): 7.000000E0
Scans to average: 10
Electric dark correction enabled: true
Nonlinearity correction enabled: false
Boxcar width: 0
XAxis mode: Raman Shifts
Number of Pixels in Spectrum: 1044
>>>>>Begin Spectral Data<<<<<
46.04893	0.375
50.45542	-0.425
54.85868	-1.125
59.25871	-0.825
63.6555	68.275
68.04907	74.775
72.43941	74.775
76.82654	83.075
81.21044	87.175
85.59113	88.375
89.96862	92.675
94.34289	93.275
98.71396	101.275
103.08183	106.575
107.4465	103.875
111.80798	113.175
116.16626	111.975
120.52136	112.775
124.87327	114.475
129.222	122.075
133.56755	134.375
137.90993	139.775
142.24913	159.775
146.58517	176.575
150.91804	198.375
155.24774	240.375
159.57429	298.675
163.89768	383.175
168.21792	502.275
172.53501	685.175
176.84895	956.875
181.15975	1338.975
185.46741	1875.875
189.77193	2569.075
194.07331	3440.475
198.37157	4415.675
202.6667	5456.275
206.9587	6486.575
211.24758	7491.275
215.53334	8505.575
219.81599	9595.975
224.09553	10779.475
228.37195	12063.475
232.64527	13461.575
236.91549	14929.375
241.18261	16383.375
245.44663	17804.775
249.70755	19084.175
253.96539	20248.775
258.22014	21213.375
262.4718	22023.775
266.72039	22632.775
270.96589	23027.975
275.20832	23215.375
279.44768	23223.475
283.68397	23222.875
287.91719	23171.075
292.14735	23207.675
296.37445	23389.475
300.59849	23433.775
304.81948	23402.175
309.03742	23112.275
313.25231	22631.475
317.46415	21934.275
321.67296	21163.775
325.87872	20573.975
330.08145	20291.975
334.28114	20191.275
338.47781	20250.875
342.67145	20419.375
346.86207	20670.675
351.04966	21021.375
355.23424	21411.175
359.4158	21753.375
363.59435	21929.075
367.76989	22053.775
371.94243	22179.575
376.11196	22289.375
380.27849	22443.875
384.44203	22602.575
388.60257	22862.375
392.76012	23134.075
396.91468	23455.675
401.06626	23802.475
405.21485	23992.175
409.36047	23937.475
413.50311	23685.375
417.64277	23485.775
421.77947	23489.275
425.9132	23666.175
430.04396	23906.175
434.17176	24162.275
438.2966	24493.575
442.41849	24971.675
446.53742	25767.375
450.6534	26637.975
454.76644	27378.275
458.87653	27650.375
462.98368	27547.475
467.08789	27308.075
471.18916	27074.475
475.2875	27017.675
479.38291	27272.675
483.4754	27369.875
487.56496	27013.775
491.6516	26183.775
495.73531	25342.075
499.81612	24716.175
503.89401	24622.275
507.96899	24508.475
512.04106	24334.975
516.11023	23968.675
520.1765	23587.075
524.23987	23260.075
528.30034	22993.575
532.35792	22805.875
536.41261	22613.675
540.46441	22467.575
544.51333	22559.775
548.55936	23005.675
552.60252	23692.875
556.64279	24481.675
560.6802	25145.075
564.71473	25669.775
568.7464	26426.875
572.7752	27197.075
576.80114	27727.775
580.82422	27979.175
584.84444	28155.775
588.86181	28461.275
592.87633	28958.475
596.888	29150.075
600.89682	28897.875
604.9028	29043.875
608.90594	30069.575
612.90624	31150.475
616.90371	28954.775
620.89834	24736.575
624.89015	22873.575
628.87913	22744.775
632.86528	22991.775
636.84862	23223.375
640.82913	22891.375
644.80683	22274.975
648.78172	21656.575
652.75379	21420.275
656.72306	21436.175
660.68952	21643.775
664.65319	21574.875
668.61405	21282.875
672.57211	21195.075
676.52738	21288.075
680.47986	21297.875
684.42955	21257.575
688.37646	21193.675
692.32058	21223.075
696.26192	21415.675
700.20048	21672.475
704.13626	21868.875
708.06928	21894.775
711.99952	21807.275
715.927	21742.675
719.85171	21713.275
723.77365	21665.475
727.69284	21525.775
731.60928	21347.975
735.52295	21249.375
739.43388	21255.475
743.34206	21263.875
747.24749	21343.075
751.15017	21600.875
755.05012	22057.675
758.94733	22838.275
762.8418	24089.875
766.73354	25760.875
770.62254	27102.075
774.50882	27139.175
778.39237	25656.775
782.27321	23748.975
786.15132	22257.375
790.02671	21341.875
793.89938	20965.275
797.76935	20767.975
801.6366	20850.975
805.50115	20825.475
809.36299	20749.875
813.22213	20647.875
817.07857	20665.675
820.93231	20611.575
824.78336	20457.375
828.63172	20269.375
832.47738	20176.375
836.32036	20126.975
840.16066	20107.875
843.99827	20071.975
847.8332	20005.475
851.66546	19933.775
855.49504	19885.275
859.32195	19866.175
863.1462	19857.175
866.96777	19789.775
870.78668	19741.375
874.60293	19761.975
878.41652	19773.275
882.22745	19793.675
886.03573	19835.275
889.84136	19851.075
893.64433	19783.575
897.44466	19725.075
901.24235	19615.675
905.0374	19489.175
908.8298	19473.675
912.61957	19514.875
916.40671	19762.275
920.19121	20050.875
923.97308	20205.575
927.75233	20124.675
931.52895	19884.875
935.30295	19562.775
939.07433	19200.175
942.84309	18869.175
946.60924	18736.975
950.37278	18689.075
954.13371	18698.675
957.89203	18712.475
961.64774	18756.775
965.40086	18698.775
969.15137	18625.375
972.89929	18429.975
976.64461	18230.675
980.38733	18180.575
984.12747	18140.575
987.86502	18282.375
991.59999	18435.075
995.33237	18675.575
999.06217	19109.175
1002.78939	19594.975
1006.51404	20010.475
1010.23611	20278.275
1013.95561	20465.975
1017.67255	20478.375
1021.38692	20253.575
1025.09872	19837.575
1028.80796	19661.075
1032.51465	19693.375
1036.21877	19857.575
1039.92035	19968.475
1043.61937	19946.275
1047.31584	19923.275
1051.00976	19749.175
1054.70114	19770.375
1058.38998	19890.875
1062.07627	20167.475
1065.76003	20457.675
1069.44126	20661.375
1073.11995	20883.775
1076.79611	21021.175
1080.46974	21097.975
1084.14085	21174.375
1087.80943	21425.975
1091.47549	21657.275
1095.13903	21801.675
1098.80005	21706.275
1102.45857	21232.775
1106.11456	20799.975
1109.76805	20602.975
1113.41903	20600.175
1117.06751	20779.075
1120.71348	21071.575
1124.35696	21346.475
1127.99793	21622.075
1131.63641	21829.075
1135.2724	21745.275
1138.90589	21701.175
1142.5369	21790.275
1146.16542	22005.075
1149.79145	22385.675
1153.415	22820.675
1157.03607	23425.375
1160.65467	24317.675
1164.27079	25553.475
1167.88443	27087.775
1171.49561	28864.575
1175.10432	31092.575
1178.71056	33783.075
1182.31434	36246.475
1185.91565	37568.375
1189.51451	37722.975
1193.11091	37102.875
1196.70485	36232.875
1200.29634	35126.275
1203.88538	34042.475
1207.47197	33466.575
1211.05612	32981.675
1214.63782	32286.075
1218.21708	31360.875
1221.79391	30382.175
1225.36829	29648.175
1228.94024	28924.575
1232.50976	28163.675
1236.07685	27680.675
1239.6415	27403.975
1243.20374	27388.675
1246.76355	27599.575
1250.32093	28015.175
1253.8759	28596.275
1257.42845	29395.875
1260.97859	30254.275
1264.52631	31044.875
1268.07163	31873.375
1271.61453	32807.275
1275.15503	33843.575
1278.69312	34984.675
1282.22882	36065.875
1285.76211	37377.675
1289.29301	39170.875
1292.82151	41464.375
1296.34761	44367.575
1299.87133	47611.775
1303.39266	50719.375
1306.9116	53420.475
1310.42815	55686.275
1313.94233	57213.675
1317.45412	57926.075
1320.96354	57923.975
1324.47058	57829.375
1327.97525	57748.175
1331.47754	57675.375
1334.97747	57751.875
1338.47502	57826.475
1341.97022	57264.375
1345.46305	55921.375
1348.95352	53781.075
1352.44163	51758.375
1355.92738	50572.575
1359.41078	50499.475
1362.89183	50886.975
1366.37053	49861.875
1369.84688	46561.275
1373.32088	42477.975
1376.79254	39626.975
1380.26186	39005.175
1383.72883	39648.075
1387.19347	40496.875
1390.65578	41174.575
1394.11575	42013.675
1397.57339	43385.875
1401.0287	45090.275
1404.48168	46527.975
1407.93234	46973.175
1411.38068	46115.975
1414.82669	43926.875
1418.27039	41099.675
1421.71177	38100.575
1425.15083	35551.075
1428.58758	34012.775
1432.02203	33677.675
1435.45416	34488.375
1438.88399	35842.975
1442.31151	37283.275
1445.73673	38564.575
1449.15965	39781.375
1452.58027	40892.375
1455.9986	41595.975
1459.41463	42105.375
1462.82837	42674.775
1466.23982	43314.475
1469.64898	43848.175
1473.05586	43941.975
1476.46045	43550.375
1479.86276	42841.775
1483.26279	41711.875
1486.66054	40650.475
1490.05602	40009.275
1493.44922	39545.775
1496.84016	39051.875
1500.22882	38727.775
1503.61521	38836.475
1506.99934	39385.675
1510.38121	40095.675
1513.76081	40472.075
1517.13816	40240.275
1520.51324	39508.375
1523.88607	38908.575
1527.25665	38893.475
1530.62498	39166.775
1533.99105	39540.975
1537.35488	39682.775
1540.71647	39303.275
1544.07581	38489.175
1547.4329	37457.675
1550.78776	36446.275
1554.14038	35700.575
1557.49077	35252.875
1560.83892	35065.275
1564.18484	34930.075
1567.52853	34925.275
1570.86999	35148.875
1574.20922	35847.275
1577.54624	36796.575
1580.88103	37646.875
1584.2136	38749.075
1587.54395	40551.775
1590.87208	42996.875
1594.19801	45680.875
1597.52172	48171.075
1600.84321	48744.075
1604.16251	46544.575
1607.47959	42422.475
1610.79447	37965.575
1614.10715	33799.375
1617.41763	30513.375
1620.7259	28175.775
1624.03199	26954.075
1627.33587	26799.775
1630.63757	27610.375
1633.93707	29702.975
1637.23439	33143.775
1640.52951	38091.575
1643.82246	43664.375
1647.11321	48016.575
1650.40179	48791.975
1653.68819	45343.575
1656.97241	39144.575
1660.25446	32765.975
1663.53433	27762.975
1666.81203	24246.575
1670.08756	22052.675
1673.36092	20653.175
1676.63211	19783.575
1679.90115	19133.575
1683.16801	18659.175
1686.43272	18325.375
1689.69527	18087.875
1692.95567	17850.075
1696.2139	17764.075
1699.46999	17610.075
1702.72392	17537.075
1705.97571	17477.675
1709.22535	17333.775
1712.47284	17262.675
1715.71819	17192.475
1718.96139	17108.175
1722.20246	17057.875
1725.44139	16948.775
1728.67818	16841.775
1731.91284	16721.675
1735.14537	16666.975
1738.37576	16602.575
1741.60403	16507.075
1744.83017	16476.675
1748.05418	16439.575
1751.27607	16389.375
1754.49584	16411.675
1757.71349	16384.375
1760.92903	16358.975
1764.14244	16320.975
1767.35375	16313.775
1770.56294	16278.075
1773.77002	16208.675
1776.97499	16169.975
1780.17785	16091.775
1783.37861	16082.975
1786.57727	16028.175
1789.77382	15987.075
1792.96828	15949.775
1796.16064	15903.375
1799.3509	15866.575
1802.53907	15818.675
1805.72514	15814.875
1808.90913	15727.675
1812.09102	15729.775
1815.27083	15678.375
1818.44856	15678.475
1821.6242	15584.275
1824.79776	15597.275
1827.96924	15536.475
1831.13864	15538.775
1834.30597	15578.075
1837.47122	15572.575
1840.6344	15545.175
1843.7955	15543.175
1846.95454	15529.475
1850.11151	15541.375
1853.26642	15511.175
1856.41926	15511.275
1859.57004	15534.775
1862.71876	15504.475
1865.86542	15511.075
1869.01003	15476.775
1872.15258	15490.875
1875.29308	15497.175
1878.43152	15464.575
1881.56792	15457.775
1884.70227	15463.975
1887.83457	15434.075
1890.96482	15451.875
1894.09304	15464.075
1897.21921	15410.975
1900.34335	15415.975
1903.46544	15414.375
1906.58551	15416.375
1909.70353	15389.775
1912.81953	15384.275
1915.93349	15333.275
1919.04543	15290.375
1922.15534	15229.475
1925.26322	15181.275
1928.36908	15150.075
1931.47292	15132.475
1934.57473	15054.775
1937.67453	15037.675
1940.77232	14952.075
1943.86808	14888.675
1946.96184	14871.375
1950.05358	14798.475
1953.14331	14762.375
1956.23103	14731.575
1959.31675	14657.575
1962.40046	14611.175
1965.48217	14579.775
1968.56188	14495.675
1971.63959	14444.375
1974.7153	14424.775
1977.78901	14403.075
1980.86073	14339.575
1983.93046	14265.975
1986.99819	14221.175
1990.06394	14214.975
1993.1277	14167.575
1996.18947	14091.075
1999.24925	14041.475
2002.30706	14023.175
2005.36288	13989.875
2008.41672	13935.075
2011.46859	13890.075
2014.51848	13855.175
2017.56639	13809.775
2020.61233	13821.875
2023.6563	13820.875
2026.6983	13793.775
2029.73833	13726.675
2032.7764	13719.475
2035.8125	13696.175
2038.84664	13631.175
2041.87881	13643.675
2044.90903	13579.975
2047.93729	13575.275
2050.96359	13539.575
2053.98794	13555.775
2057.01034	13568.475
2060.03078	13534.675
2063.04927	13509.675
2066.06582	13516.075
2069.08042	13465.075
2072.09307	13463.775
2075.10378	13465.275
2078.11255	13461.875
2081.11938	13440.475
2084.12426	13413.775
2087.12722	13424.975
2090.12824	13410.375
2093.12732	13409.875
2096.12447	13388.275
2099.11969	13414.475
2102.11299	13424.375
2105.10435	13394.975
2108.09379	13398.875
2111.08131	13398.075
2114.0669	13414.775
2117.05057	13393.775
2120.03233	13409.875
2123.01216	13406.275
2125.99008	13401.075
2128.96609	13404.675
2131.94018	13431.875
2134.91236	13423.875
2137.88263	13421.675
2140.851	13423.475
2143.81746	13413.975
2146.78201	13431.675
2149.74466	13424.175
2152.7054	13412.775
2155.66425	13384.475
2158.6212	13369.175
2161.57625	13406.575
2164.52941	13398.175
2167.48067	13388.275
2170.43004	13352.775
2173.37752	13344.375
2176.32311	13353.675
2179.26681	13364.975
2182.20863	13373.075
2185.14856	13374.175
2188.08661	13368.475
2191.02278	13347.675
2193.95707	13332.475
2196.88948	13316.875
2199.82001	13327.575
2202.74867	13307.475
2205.67545	13300.075
2208.60037	13265.575
2211.52341	13255.975
2214.44458	13231.875
2217.36388	13214.875
2220.28132	13207.075
2223.1969	13183.675
2226.11061	13156.675
2229.02246	13126.275
2231.93245	13108.175
2234.84058	13094.175
2237.74686	13054.875
2240.65128	13052.475
2243.55385	13019.675
2246.45456	13013.075
2249.35343	12979.575
2252.25044	12945.775
2255.14561	12875.875
2258.03893	12890.175
2260.93041	12862.675
2263.82004	12802.075
2266.70783	12786.375
2269.59378	12763.075
2272.4779	12744.775
2275.36017	12661.075
2278.24061	12663.075
2281.11922	12659.975
2283.996	12627.375
2286.87094	12617.575
2289.74405	12578.275
2292.61534	12570.675
2295.4848	12576.575
2298.35243	12576.875
2301.21824	12538.375
2304.08223	12549.975
2306.94439	12515.175
2309.80474	12513.375
2312.66327	12517.975
2315.51999	12525.875
2318.37489	12495.375
2321.22797	12450.975
2324.07925	12490.175
2326.92871	12459.475
2329.77637	12429.375
2332.62222	12449.375
2335.46626	12419.075
2338.3085	12417.475
2341.14893	12386.075
2343.98756	12410.675
2346.8244	12388.375
2349.65943	12374.175
2352.49267	12398.675
2355.32411	12415.475
2358.15376	12386.175
2360.98161	12361.775
2363.80768	12352.175
2366.63195	12334.675
2369.45444	12324.575
2372.27514	12337.175
2375.09405	12311.675
2377.91118	12289.175
2380.72652	12246.075
2383.54009	12198.075
2386.35187	12204.975
2389.16188	12198.075
2391.97011	12177.575
2394.77657	12155.775
2397.58125	12129.775
2400.38416	12125.475
2403.18529	12117.175
2405.98466	12074.075
2408.78226	12054.975
2411.57809	12042.275
2414.37216	12007.275
2417.16446	12018.975
2419.955	12025.075
2422.74378	11977.075
2425.5308	11973.975
2428.31606	12002.375
2431.09956	11990.475
2433.88131	11951.775
2436.6613	11940.775
2439.43954	11914.775
2442.21603	11915.275
2444.99077	11899.075
2447.76377	11938.275
2450.53501	11932.575
2453.30451	11945.775
2456.07226	11911.675
2458.83827	11928.675
2461.60254	11910.075
2464.36507	11911.975
2467.12586	11912.675
2469.88492	11904.575
2472.64224	11904.275
2475.39782	11894.475
2478.15167	11933.075
2480.90379	11931.975
2483.65417	11936.175
2486.40283	11928.675
2489.14976	11913.775
2491.89497	11907.775
2494.63845	11952.175
2497.3802	11945.575
2500.12024	11941.575
2502.85855	11958.275
2505.59514	11941.075
2508.33002	11943.975
2511.06318	11931.575
2513.79462	11928.575
2516.52435	11914.575
2519.25237	11929.175
2521.97867	11904.775
2524.70327	11904.275
2527.42616	11882.275
2530.14734	11855.975
2532.86681	11844.775
2535.58458	11861.175
2538.30065	11818.175
2541.01501	11847.875
2543.72768	11796.775
2546.43864	11784.775
2549.14791	11805.975
2551.85548	11812.175
2554.56136	11755.975
2557.26554	11782.675
2559.96803	11757.375
2562.66883	11757.075
2565.36794	11764.175
2568.06536	11744.575
2570.7611	11732.175
2573.45514	11717.275
2576.14751	11726.575
2578.83819	11717.475
2581.52719	11694.575
2584.21451	11694.075
2586.90015	11695.975
2589.58411	11691.075
2592.2664	11732.675
2594.94701	11704.375
2597.62594	11712.475
2600.30321	11705.975
2602.9788	11708.175
2605.65273	11701.075
2608.32498	11695.275
2610.99557	11717.875
2613.66449	11706.475
2616.33175	11715.575
2618.99734	11690.875
2621.66128	11707.175
2624.32355	11714.775
2626.98416	11742.675
2629.64311	11734.675
2632.30041	11704.475
2634.95605	11719.575
2637.61004	11710.375
2640.26238	11714.375
2642.91306	11715.775
2645.56209	11676.275
2648.20948	11693.375
2650.85521	11720.575
2653.4993	11728.175
2656.14175	11708.975
2658.78255	11704.475
2661.42171	11738.175
2664.05923	11747.875
2666.6951	11771.175
2669.32934	11712.175
2671.96194	11744.375
2674.59291	11770.375
2677.22224	11736.175
2679.84993	11745.375
2682.476	11735.675
2685.10043	11758.975
2687.72324	11753.775
2690.34441	11765.875
2692.96396	11733.075
2695.58188	11731.775
2698.19818	11763.875
2700.81285	11757.775
2703.4259	11762.275
2706.03733	11786.975
2708.64714	11792.875
2711.25533	11767.375
2713.86191	11759.175
2716.46687	11790.075
2719.07021	11796.675
2721.67194	11799.875
2724.27206	11780.675
2726.87057	11803.075
2729.46747	11840.775
2732.06276	11839.675
2734.65644	11831.375
2737.24852	11849.475
2739.83899	11842.475
2742.42786	11839.075
2745.01513	11833.075
2747.60079	11845.775
2750.18486	11841.075
2752.76733	11831.175
2755.3482	11865.975
2757.92747	11859.975
2760.50515	11841.675
2763.08123	11846.175
2765.65573	11843.775
2768.22863	11890.075
2770.79994	11872.675
2773.36967	11841.175
2775.9378	11859.075
2778.50435	11861.175
2781.06932	11854.475
2783.6327	11858.675
2786.1945	11862.875
2788.75471	11860.875
2791.31335	11861.075
2793.87041	11842.975
2796.42589	11822.075
2798.97979	11792.875
2801.53212	11786.975
2804.08288	11806.575
2806.63206	11762.075
2809.17967	11734.475
2811.72571	11732.275
2814.27018	11711.975
2816.81308	11687.575
2819.35442	11665.175
2821.89419	11629.775
2824.43239	11616.475
2826.96904	11598.875
2829.50412	11600.475
2832.03763	11581.375
2834.56959	11591.275
2837.1	11592.275
2839.62884	11604.375
2842.15613	11612.275
2844.68186	11639.775
2847.20604	11661.975
2849.72867	11671.775
2852.24974	11659.375
2854.76927	11640.275
2857.28724	11612.175
2859.80367	11583.975
2862.31855	11597.875
2864.83189	11587.875
2867.34368	11554.975
2869.85393	11545.775
2872.36264	11564.375
2874.8698	11560.075
2877.37543	11584.175
2879.87952	11559.875
2882.38207	11584.475
2884.88308	11569.275
2887.38256	11567.975
2889.88051	11597.275
2892.37692	11599.575
2894.8718	11591.875
2897.36515	11646.575
2899.85698	11641.575
2902.34727	11651.675
2904.83604	11649.975
2907.32328	11674.975
2909.809	11672.575
2912.29319	11704.375
2914.77587	11701.475
2917.25702	11676.275
2919.73665	11652.475
2922.21476	11694.075
2924.69136	11689.875
2927.16644	11710.375
2929.64	11646.675
2932.11205	11647.275
2934.58258	11626.275
2937.05161	11646.875
2939.51912	11644.075
2941.98513	11610.075
2944.44962	11574.275
2946.91261	11525.875
2949.37409	11532.275
2951.83407	11480.975
2954.29254	11462.075
2956.74951	11436.275
2959.20498	11451.775
2961.65895	11416.875
2964.11142	11414.475
2966.56239	11356.275
2969.01186	11352.975
2971.45984	11310.375
2973.90632	11259.275
2976.35131	11226.675
2978.7948	11221.175
2981.23681	11208.275
2983.67732	11179.175
2986.11635	11134.775
2988.55388	11114.975
2990.98993	11077.175
2993.4245	11040.675
2995.85758	11033.075
2998.28917	11011.075
3000.71928	10973.275
3003.14791	10950.275
3005.57506	10958.875
3008.00073	10895.375
3010.42493	10889.175
3012.84764	10855.775
3015.26888	10862.875
3017.68865	10809.375
3020.10694	10798.975
3022.52376	10780.075
3024.9391	10763.675
3027.35298	10741.775
3029.76539	10742.075
3032.17632	10708.075
3034.5858	10709.175
3036.9938	10715.875
3039.40034	10717.575
3041.80542	10693.775
3044.20903	10666.875
3046.61118	10649.475
3049.01187	10678.675
3051.4111	10635.075
3053.80888	10622.275
3056.20519	10607.075
3058.60005	10562.175
3060.99345	10527.975
3063.3854	10506.075
3065.7759	10480.675
3068.16494	10453.175
3070.55254	10409.775
3072.93868	10363.575
3075.32338	10378.375
3077.70662	10315.475
3080.08842	10275.575
3082.46878	10268.075
3084.84769	10248.075
3087.22515	10240.775
3089.60118	10233.575
3091.97576	10243.275
3094.3489	10226.275
3096.72061	10180.775
3099.09087	10171.775
3101.4597	10169.475
3103.82709	10161.475
3106.19305	10149.475
3108.55757	10145.575
3110.92066	10084.475
3113.28232	10088.775
3115.64255	10057.975
3118.00134	10025.775
3120.35871	9995.475
3122.71466	9974.575
3125.06917	9981.375
3127.42226	9937.475
