Data from AgNPs_FTO_APTES_UA_2uM_CRN_5uM_R6G_10uM_NaF_0.1M_Addition_RamanShift__7__12-46-35-099.txt Node

Date: Wed Feb 02 12:46:35 GMT 2022
User: TCL
Spectrometer: QEP01345
Trigger mode: 4
Integration Time (sec): 7.000000E0
Scans to average: 10
Electric dark correction enabled: true
Nonlinearity correction enabled: false
Boxcar width: 0
XAxis mode: Raman Shifts
Number of Pixels in Spectrum: 1044
>>>>>Begin Spectral Data<<<<<
46.04893	1.8125
50.45542	0.5125
54.85868	-1.1875
59.25871	-1.8875
63.6555	97.6125
68.04907	102.7125
72.43941	103.6125
76.82654	110.0125
81.21044	113.6125
85.59113	113.2125
89.96862	116.1125
94.34289	124.5125
98.71396	127.6125
103.08183	133.4125
107.4465	136.4125
111.80798	146.1125
116.16626	148.1125
120.52136	156.7125
124.87327	163.6125
129.222	174.4125
133.56755	191.0125
137.90993	205.2125
142.24913	232.2125
146.58517	266.9125
150.91804	313.2125
155.24774	385.1125
159.57429	489.0125
163.89768	640.9125
168.21792	854.1125
172.53501	1182.6125
176.84895	1641.9125
181.15975	2319.8125
185.46741	3254.8125
189.77193	4475.2125
194.07331	6013.2125
198.37157	7722.3125
202.6667	9535.6125
206.9587	11297.3125
211.24758	13076.2125
215.53334	14850.7125
219.81599	16761.8125
224.09553	18822.3125
228.37195	21127.2125
232.64527	23591.6125
236.91549	26253.5125
241.18261	28840.8125
245.44663	31258.7125
249.70755	33478.7125
253.96539	35356.3125
258.22014	36983.3125
262.4718	38344.1125
266.72039	39205.8125
270.96589	39718.6125
275.20832	39721.9125
279.44768	39447.0125
283.68397	39066.5125
287.91719	38818.7125
292.14735	38641.6125
296.37445	38635.5125
300.59849	38695.9125
304.81948	38848.8125
309.03742	38906.0125
313.25231	38729.4125
317.46415	38163.6125
321.67296	37457.1125
325.87872	36706.7125
330.08145	36280.0125
334.28114	36113.7125
338.47781	36270.7125
342.67145	36650.9125
346.86207	37116.7125
351.04966	37751.8125
355.23424	38421.3125
359.4158	39041.6125
363.59435	39464.7125
367.76989	39838.5125
371.94243	40024.8125
376.11196	40124.4125
380.27849	40114.0125
384.44203	40228.7125
388.60257	40589.2125
392.76012	41156.4125
396.91468	41823.7125
401.06626	42522.2125
405.21485	42900.2125
409.36047	42747.8125
413.50311	42336.9125
417.64277	42329.0125
421.77947	42632.2125
425.9132	42952.5125
430.04396	43231.3125
434.17176	43354.8125
438.2966	43406.1125
442.41849	43911.7125
446.53742	44904.5125
450.6534	45995.5125
454.76644	46842.1125
458.87653	47052.3125
462.98368	46831.4125
467.08789	46292.3125
471.18916	45633.6125
475.2875	44884.5125
479.38291	44574.7125
483.4754	44312.5125
487.56496	43883.2125
491.6516	43224.9125
495.73531	42602.1125
499.81612	42228.7125
503.89401	42458.2125
507.96899	42775.2125
512.04106	42758.4125
516.11023	42393.7125
520.1765	41775.2125
524.23987	41187.1125
528.30034	40695.3125
532.35792	40251.3125
536.41261	39751.5125
540.46441	39388.0125
544.51333	39367.4125
548.55936	39814.1125
552.60252	40725.9125
556.64279	41724.5125
560.6802	42589.7125
564.71473	43154.8125
568.7464	43971.9125
572.7752	45592.2125
576.80114	47589.8125
580.82422	49659.4125
584.84444	52235.3125
588.86181	55409.3125
592.87633	57789.4125
596.888	56912.1125
600.89682	53197.4125
604.9028	51258.8125
608.90594	52919.3125
612.90624	55017.0125
616.90371	51342.1125
620.89834	44127.9125
624.89015	40994.0125
628.87913	40799.6125
632.86528	41152.8125
636.84862	40913.9125
640.82913	40074.8125
644.80683	39056.3125
648.78172	38510.7125
652.75379	38542.9125
656.72306	39039.7125
660.68952	39486.6125
664.65319	39083.9125
668.61405	38406.1125
672.57211	38342.9125
676.52738	38542.6125
680.47986	38499.4125
684.42955	38145.2125
688.37646	38053.8125
692.32058	38350.4125
696.26192	38980.6125
700.20048	39656.1125
704.13626	40040.3125
708.06928	40070.7125
711.99952	40010.3125
715.927	40016.8125
719.85171	40105.3125
723.77365	39829.9125
727.69284	39109.6125
731.60928	38401.1125
735.52295	38106.3125
739.43388	38163.9125
743.34206	38229.4125
747.24749	38570.3125
751.15017	39045.9125
755.05012	39912.5125
758.94733	41136.4125
762.8418	43038.8125
766.73354	45655.5125
770.62254	47930.9125
774.50882	47778.2125
778.39237	45403.6125
782.27321	42667.2125
786.15132	40434.1125
790.02671	39113.1125
793.89938	38357.8125
797.76935	38114.3125
801.6366	38002.8125
805.50115	37952.7125
809.36299	37749.4125
813.22213	37422.5125
817.07857	37192.0125
820.93231	37006.6125
824.78336	36752.9125
828.63172	36434.4125
832.47738	36323.6125
836.32036	36337.0125
840.16066	36426.5125
843.99827	36445.8125
847.8332	36368.4125
851.66546	36359.5125
855.49504	36399.7125
859.32195	36413.5125
863.1462	36278.7125
866.96777	36175.1125
870.78668	36149.2125
874.60293	36154.2125
878.41652	36176.5125
882.22745	36307.1125
886.03573	36444.6125
889.84136	36495.6125
893.64433	36351.7125
897.44466	36164.3125
901.24235	36042.3125
905.0374	35949.5125
908.8298	35924.8125
912.61957	36080.5125
916.40671	36507.8125
920.19121	37090.4125
923.97308	37636.6125
927.75233	37621.7125
931.52895	37147.1125
935.30295	36374.8125
939.07433	35587.1125
942.84309	35046.9125
946.60924	34762.9125
950.37278	34686.7125
954.13371	34757.4125
957.89203	34734.0125
961.64774	34787.7125
965.40086	34812.8125
969.15137	34763.2125
972.89929	34487.1125
976.64461	34370.5125
980.38733	34270.5125
984.12747	34320.6125
987.86502	34437.4125
991.59999	34670.9125
995.33237	35012.4125
999.06217	35579.7125
1002.78939	36429.1125
1006.51404	37332.2125
1010.23611	38182.4125
1013.95561	38655.7125
1017.67255	38712.0125
1021.38692	38161.3125
1025.09872	37459.4125
1028.80796	36932.5125
1032.51465	36920.9125
1036.21877	37284.1125
1039.92035	37590.6125
1043.61937	37535.3125
1047.31584	37462.1125
1051.00976	37227.5125
1054.70114	37230.7125
1058.38998	37436.3125
1062.07627	37808.4125
1065.76003	38282.7125
1069.44126	38927.5125
1073.11995	39686.1125
1076.79611	40358.6125
1080.46974	40643.7125
1084.14085	40917.2125
1087.80943	41423.7125
1091.47549	41837.7125
1095.13903	41997.4125
1098.80005	41419.3125
1102.45857	40256.1125
1106.11456	39327.7125
1109.76805	38781.3125
1113.41903	38600.5125
1117.06751	38693.5125
1120.71348	39041.6125
1124.35696	39414.8125
1127.99793	39835.2125
1131.63641	40194.4125
1135.2724	40310.0125
1138.90589	40261.5125
1142.5369	40594.4125
1146.16542	41035.4125
1149.79145	41609.5125
1153.415	42129.7125
1157.03607	42952.0125
1160.65467	44525.1125
1164.27079	47075.1125
1167.88443	49975.5125
1171.49561	52642.4125
1175.10432	55691.5125
1178.71056	59602.4125
1182.31434	63269.2125
1185.91565	65109.2125
1189.51451	64819.4125
1193.11091	63340.7125
1196.70485	61356.9125
1200.29634	59231.1125
1203.88538	57873.0125
1207.47197	57473.0125
1211.05612	57325.1125
1214.63782	56597.8125
1218.21708	54905.1125
1221.79391	52693.2125
1225.36829	51025.1125
1228.94024	50076.4125
1232.50976	49220.8125
1236.07685	48553.0125
1239.6415	48112.7125
1243.20374	48048.4125
1246.76355	48459.3125
1250.32093	49277.2125
1253.8759	50360.6125
1257.42845	51930.4125
1260.97859	53716.3125
1264.52631	55533.3125
1268.07163	57321.8125
1271.61453	59066.2125
1275.15503	60965.3125
1278.69312	62957.1125
1282.22882	65289.6125
1285.76211	68163.9125
1289.29301	71420.6125
1292.82151	75157.0125
1296.34761	79522.3125
1299.87133	84444.4125
1303.39266	89419.8125
1306.9116	93454.5125
1310.42815	95814.8125
1313.94233	96539.3125
1317.45412	95683.9125
1320.96354	94376.7125
1324.47058	93652.9125
1327.97525	93514.6125
1331.47754	93496.5125
1334.97747	92867.2125
1338.47502	91798.0125
1341.97022	90046.0125
1345.46305	87847.3125
1348.95352	85926.2125
1352.44163	84983.7125
1355.92738	85929.7125
1359.41078	88788.4125
1362.89183	91310.3125
1366.37053	90406.2125
1369.84688	84472.4125
1373.32088	75687.4125
1376.79254	69099.1125
1380.26186	66879.4125
1383.72883	67482.5125
1387.19347	68058.4125
1390.65578	67408.6125
1394.11575	67044.2125
1397.57339	68046.4125
1401.0287	69572.0125
1404.48168	71040.7125
1407.93234	70882.3125
1411.38068	69083.6125
1414.82669	66322.0125
1418.27039	63146.5125
1421.71177	60040.0125
1425.15083	57758.7125
1428.58758	56881.5125
1432.02203	57612.6125
1435.45416	59664.9125
1438.88399	61927.7125
1442.31151	63576.2125
1445.73673	64372.5125
1449.15965	64688.9125
1452.58027	64577.4125
1455.9986	64290.6125
1459.41463	64449.7125
1462.82837	65293.8125
1466.23982	66529.1125
1469.64898	67640.7125
1473.05586	68283.2125
1476.46045	68400.4125
1479.86276	67854.2125
1483.26279	67028.0125
1486.66054	66589.8125
1490.05602	66757.5125
1493.44922	67430.6125
1496.84016	68064.5125
1500.22882	68724.7125
1503.61521	69617.7125
1506.99934	70649.5125
1510.38121	71479.2125
1513.76081	71615.7125
1517.13816	70981.1125
1520.51324	70209.5125
1523.88607	69988.3125
1527.25665	70539.8125
1530.62498	71052.9125
1533.99105	70781.2125
1537.35488	69510.1125
1540.71647	67488.5125
1544.07581	65121.9125
1547.4329	62743.4125
1550.78776	60826.7125
1554.14038	59420.6125
1557.49077	58689.3125
1560.83892	58115.4125
1564.18484	57832.0125
1567.52853	57725.3125
1570.86999	58179.1125
1574.20922	59391.3125
1577.54624	60955.7125
1580.88103	62084.6125
1584.2136	63734.4125
1587.54395	66778.5125
1590.87208	71099.5125
1594.19801	75939.1125
1597.52172	79806.2125
1600.84321	79819.0125
1604.16251	74995.0125
1607.47959	67749.6125
1610.79447	60727.4125
1614.10715	54805.0125
1617.41763	50189.1125
1620.7259	47195.1125
1624.03199	45831.2125
1627.33587	46119.9125
1630.63757	47936.5125
1633.93707	51830.5125
1637.23439	58319.8125
1640.52951	67708.2125
1643.82246	78787.1125
1647.11321	86982.4125
1650.40179	87460.3125
1653.68819	79279.4125
1656.97241	66875.6125
1660.25446	55514.8125
1663.53433	47388.4125
1666.81203	42225.4125
1670.08756	39045.0125
1673.36092	37083.5125
1676.63211	35802.0125
1679.90115	34911.9125
1683.16801	34191.5125
1686.43272	33699.6125
1689.69527	33334.4125
1692.95567	33025.9125
1696.2139	32835.3125
1699.46999	32683.5125
1702.72392	32522.2125
1705.97571	32408.8125
1709.22535	32243.7125
1712.47284	32210.7125
1715.71819	32199.7125
1718.96139	32034.1125
1722.20246	31939.4125
1725.44139	31782.8125
1728.67818	31556.2125
1731.91284	31277.2125
1735.14537	31144.9125
1738.37576	31000.1125
1741.60403	30835.9125
1744.83017	30741.4125
1748.05418	30659.4125
1751.27607	30589.5125
1754.49584	30589.5125
1757.71349	30506.7125
1760.92903	30467.2125
1764.14244	30453.4125
1767.35375	30413.4125
1770.56294	30288.2125
1773.77002	30220.8125
1776.97499	30146.3125
1780.17785	30079.1125
1783.37861	30089.3125
1786.57727	30013.1125
1789.77382	29944.2125
1792.96828	29837.7125
1796.16064	29717.5125
1799.3509	29681.1125
1802.53907	29565.5125
1805.72514	29539.9125
1808.90913	29452.7125
1812.09102	29456.3125
1815.27083	29361.5125
1818.44856	29351.0125
1821.6242	29329.8125
1824.79776	29356.3125
1827.96924	29373.9125
1831.13864	29371.7125
1834.30597	29352.8125
1837.47122	29318.9125
1840.6344	29323.0125
1843.7955	29328.9125
1846.95454	29332.9125
1850.11151	29284.1125
1853.26642	29293.3125
1856.41926	29253.7125
1859.57004	29226.0125
1862.71876	29167.5125
1865.86542	29131.7125
1869.01003	29098.2125
1872.15258	29048.2125
1875.29308	29055.9125
1878.43152	28953.1125
1881.56792	28939.7125
1884.70227	28888.3125
1887.83457	28884.9125
1890.96482	28827.6125
1894.09304	28757.8125
1897.21921	28764.6125
1900.34335	28739.2125
1903.46544	28624.6125
1906.58551	28580.3125
1909.70353	28491.8125
1912.81953	28438.6125
1915.93349	28361.1125
1919.04543	28318.5125
1922.15534	28211.3125
1925.26322	28145.9125
1928.36908	28095.8125
1931.47292	28048.4125
1934.57473	27902.1125
1937.67453	27770.9125
1940.77232	27735.8125
1943.86808	27666.5125
1946.96184	27603.4125
1950.05358	27551.3125
1953.14331	27455.4125
1956.23103	27398.6125
1959.31675	27350.0125
1962.40046	27228.6125
1965.48217	27155.6125
1968.56188	27075.1125
1971.63959	26983.0125
1974.7153	26884.2125
1977.78901	26851.1125
1980.86073	26756.2125
1983.93046	26632.9125
1986.99819	26526.4125
1990.06394	26433.9125
1993.1277	26361.1125
1996.18947	26327.1125
1999.24925	26216.6125
2002.30706	26157.8125
2005.36288	26061.4125
2008.41672	25968.1125
2011.46859	25943.0125
2014.51848	25828.6125
2017.56639	25776.7125
2020.61233	25769.0125
2023.6563	25711.4125
2026.6983	25647.5125
2029.73833	25579.7125
2032.7764	25547.5125
2035.8125	25459.0125
2038.84664	25423.0125
2041.87881	25377.4125
2044.90903	25371.0125
2047.93729	25313.4125
2050.96359	25270.7125
2053.98794	25199.1125
2057.01034	25184.1125
2060.03078	25169.2125
2063.04927	25154.1125
2066.06582	25104.4125
2069.08042	25115.9125
2072.09307	25107.0125
2075.10378	25060.1125
2078.11255	25107.1125
2081.11938	25087.5125
2084.12426	25035.1125
2087.12722	25046.1125
2090.12824	25005.4125
2093.12732	24957.1125
2096.12447	25029.2125
2099.11969	25028.7125
2102.11299	25072.3125
2105.10435	25081.7125
2108.09379	25071.7125
2111.08131	25054.1125
2114.0669	25041.4125
2117.05057	25028.8125
2120.03233	25053.9125
2123.01216	25065.1125
2125.99008	25055.7125
2128.96609	25033.7125
2131.94018	25077.4125
2134.91236	25076.6125
2137.88263	25066.3125
2140.851	25055.5125
2143.81746	25036.8125
2146.78201	25043.6125
2149.74466	25053.8125
2152.7054	25065.1125
2155.66425	25038.4125
2158.6212	25040.6125
2161.57625	25053.1125
2164.52941	25054.9125
2167.48067	25009.2125
2170.43004	25025.6125
2173.37752	25021.5125
2176.32311	24984.3125
2179.26681	25023.6125
2182.20863	25047.9125
2185.14856	25037.7125
2188.08661	25056.7125
2191.02278	25058.6125
2193.95707	24987.1125
2196.88948	24936.5125
2199.82001	24896.7125
2202.74867	24933.9125
2205.67545	24904.3125
2208.60037	24863.6125
2211.52341	24809.7125
2214.44458	24797.8125
2217.36388	24730.2125
2220.28132	24702.4125
2223.1969	24650.0125
2226.11061	24631.2125
2229.02246	24583.3125
2231.93245	24610.3125
2234.84058	24554.3125
2237.74686	24546.6125
2240.65128	24493.9125
2243.55385	24439.2125
2246.45456	24368.4125
2249.35343	24343.9125
2252.25044	24281.3125
2255.14561	24200.6125
2258.03893	24188.1125
2260.93041	24091.4125
2263.82004	23999.4125
2266.70783	23931.6125
2269.59378	23823.0125
2272.4779	23808.7125
2275.36017	23721.5125
2278.24061	23745.4125
2281.11922	23650.3125
2283.996	23639.0125
2286.87094	23641.5125
2289.74405	23555.5125
2292.61534	23572.2125
2295.4848	23518.1125
2298.35243	23565.6125
2301.21824	23471.0125
2304.08223	23475.5125
2306.94439	23484.7125
2309.80474	23499.3125
2312.66327	23475.4125
2315.51999	23423.0125
2318.37489	23446.5125
2321.22797	23403.5125
2324.07925	23409.7125
2326.92871	23373.6125
2329.77637	23319.7125
2332.62222	23331.6125
2335.46626	23282.8125
2338.3085	23236.4125
2341.14893	23245.2125
2343.98756	23223.6125
2346.8244	23258.5125
2349.65943	23219.1125
2352.49267	23211.9125
2355.32411	23248.0125
2358.15376	23253.6125
2360.98161	23225.8125
2363.80768	23204.1125
2366.63195	23217.6125
2369.45444	23141.5125
2372.27514	23084.3125
2375.09405	23030.7125
2377.91118	23024.1125
2380.72652	22968.5125
2383.54009	22899.8125
2386.35187	22880.9125
2389.16188	22819.2125
2391.97011	22807.7125
2394.77657	22776.2125
2397.58125	22747.9125
2400.38416	22724.9125
2403.18529	22635.8125
2405.98466	22642.4125
2408.78226	22601.0125
2411.57809	22586.9125
2414.37216	22577.9125
2417.16446	22598.0125
2419.955	22565.3125
2422.74378	22562.2125
2425.5308	22509.7125
2428.31606	22529.8125
2431.09956	22505.6125
2433.88131	22481.9125
2436.6613	22467.9125
2439.43954	22457.7125
2442.21603	22458.7125
2444.99077	22423.1125
2447.76377	22417.1125
2450.53501	22406.6125
2453.30451	22428.6125
2456.07226	22417.5125
2458.83827	22350.7125
2461.60254	22347.6125
2464.36507	22351.5125
2467.12586	22362.5125
2469.88492	22354.3125
2472.64224	22339.1125
2475.39782	22386.5125
2478.15167	22307.8125
2480.90379	22329.7125
2483.65417	22326.4125
2486.40283	22324.1125
2489.14976	22298.0125
2491.89497	22319.6125
2494.63845	22361.6125
2497.3802	22292.6125
2500.12024	22337.0125
2502.85855	22317.5125
2505.59514	22275.4125
2508.33002	22277.0125
2511.06318	22284.3125
2513.79462	22254.9125
2516.52435	22278.4125
2519.25237	22238.2125
2521.97867	22219.6125
2524.70327	22183.9125
2527.42616	22174.0125
2530.14734	22183.8125
2532.86681	22112.4125
2535.58458	22085.4125
2538.30065	22094.1125
2541.01501	22124.9125
2543.72768	22056.0125
2546.43864	22090.6125
2549.14791	22034.3125
2551.85548	22009.7125
2554.56136	21991.7125
2557.26554	22026.6125
2559.96803	21990.9125
2562.66883	21968.7125
2565.36794	21919.7125
2568.06536	21931.4125
2570.7611	21901.2125
2573.45514	21875.0125
2576.14751	21873.1125
2578.83819	21828.2125
2581.52719	21841.1125
2584.21451	21792.7125
2586.90015	21803.3125
2589.58411	21817.5125
2592.2664	21794.7125
2594.94701	21686.4125
2597.62594	21690.2125
2600.30321	21684.3125
2602.9788	21675.8125
2605.65273	21631.6125
2608.32498	21653.2125
2610.99557	21667.2125
2613.66449	21650.9125
2616.33175	21650.2125
2618.99734	21671.5125
2621.66128	21640.6125
2624.32355	21638.4125
2626.98416	21616.6125
2629.64311	21598.2125
2632.30041	21593.1125
2634.95605	21595.1125
2637.61004	21570.2125
2640.26238	21515.5125
2642.91306	21559.2125
2645.56209	21542.8125
2648.20948	21501.9125
2650.85521	21499.9125
2653.4993	21546.9125
2656.14175	21567.5125
2658.78255	21559.5125
2661.42171	21550.4125
2664.05923	21617.2125
2666.6951	21577.9125
2669.32934	21585.2125
2671.96194	21596.3125
2674.59291	21602.8125
2677.22224	21591.2125
2679.84993	21589.3125
2682.476	21538.2125
2685.10043	21572.5125
2687.72324	21585.7125
2690.34441	21555.1125
2692.96396	21610.4125
2695.58188	21607.3125
2698.19818	21554.6125
2700.81285	21604.7125
2703.4259	21588.5125
2706.03733	21638.7125
2708.64714	21583.6125
2711.25533	21563.0125
2713.86191	21607.4125
2716.46687	21680.2125
2719.07021	21654.8125
2721.67194	21704.4125
2724.27206	21641.7125
2726.87057	21675.2125
2729.46747	21675.8125
2732.06276	21693.4125
2734.65644	21690.1125
2737.24852	21753.7125
2739.83899	21720.6125
2742.42786	21707.5125
2745.01513	21659.5125
2747.60079	21654.0125
2750.18486	21657.5125
2752.76733	21674.0125
2755.3482	21639.0125
2757.92747	21593.1125
2760.50515	21603.8125
2763.08123	21606.9125
2765.65573	21587.6125
2768.22863	21569.8125
2770.79994	21557.0125
2773.36967	21538.4125
2775.9378	21522.4125
2778.50435	21552.3125
2781.06932	21513.8125
2783.6327	21505.2125
2786.1945	21484.1125
2788.75471	21466.6125
2791.31335	21378.8125
2793.87041	21371.8125
2796.42589	21377.6125
2798.97979	21418.0125
2801.53212	21382.3125
2804.08288	21332.1125
2806.63206	21259.4125
2809.17967	21221.3125
2811.72571	21187.3125
2814.27018	21125.9125
2816.81308	21090.9125
2819.35442	21043.6125
2821.89419	20995.6125
2824.43239	20989.4125
2826.96904	21012.4125
2829.50412	20969.6125
2832.03763	20894.1125
2834.56959	20919.5125
2837.1	20890.2125
2839.62884	20882.7125
2842.15613	20865.4125
2844.68186	20913.9125
2847.20604	20927.0125
2849.72867	20975.0125
2852.24974	20934.6125
2854.76927	20922.2125
2857.28724	20900.8125
2859.80367	20808.3125
2862.31855	20811.3125
2864.83189	20815.4125
2867.34368	20755.1125
2869.85393	20752.8125
2872.36264	20741.3125
2874.8698	20713.2125
2877.37543	20696.0125
2879.87952	20719.2125
2882.38207	20683.1125
2884.88308	20671.8125
2887.38256	20708.6125
2889.88051	20673.2125
2892.37692	20757.1125
2894.8718	20769.8125
2897.36515	20810.8125
2899.85698	20755.3125
2902.34727	20781.8125
2904.83604	20788.9125
2907.32328	20806.5125
2909.809	20766.4125
2912.29319	20769.7125
2914.77587	20785.8125
2917.25702	20787.0125
2919.73665	20795.5125
2922.21476	20777.7125
2924.69136	20752.4125
2927.16644	20783.8125
2929.64	20715.5125
2932.11205	20693.4125
2934.58258	20646.1125
2937.05161	20683.8125
2939.51912	20673.0125
2941.98513	20611.1125
2944.44962	20587.8125
2946.91261	20504.0125
2949.37409	20590.8125
2951.83407	20541.0125
2954.29254	20524.3125
2956.74951	20480.8125
2959.20498	20453.3125
2961.65895	20410.5125
2964.11142	20381.1125
2966.56239	20343.6125
2969.01186	20354.9125
2971.45984	20304.5125
2973.90632	20229.8125
2976.35131	20203.3125
2978.7948	20201.0125
2981.23681	20110.7125
2983.67732	20083.6125
2986.11635	19974.6125
2988.55388	19915.3125
2990.98993	19868.6125
2993.4245	19792.0125
2995.85758	19771.4125
2998.28917	19705.2125
3000.71928	19699.3125
3003.14791	19650.9125
3005.57506	19642.6125
3008.00073	19571.9125
3010.42493	19561.0125
3012.84764	19494.1125
3015.26888	19487.8125
3017.68865	19429.5125
3020.10694	19396.0125
3022.52376	19345.6125
