Data from AgNPs_FTO_APTES_UA_2uM_CRN_20uM_R6G_10uM_NaF_0.1M_Addition_RamanShift__30__14-32-45-209.txt Node

Date: Wed Feb 02 14:32:45 GMT 2022
User: TCL
Spectrometer: QEP01345
Trigger mode: 4
Integration Time (sec): 7.000000E0
Scans to average: 10
Electric dark correction enabled: true
Nonlinearity correction enabled: false
Boxcar width: 0
XAxis mode: Raman Shifts
Number of Pixels in Spectrum: 1044
>>>>>Begin Spectral Data<<<<<
46.04893	0.4625
50.45542	2.1625
54.85868	-1.2375
59.25871	0.3625
63.6555	57.3625
68.04907	62.4625
72.43941	65.5625
76.82654	71.1625
81.21044	72.9625
85.59113	79.7625
89.96862	83.5625
94.34289	83.8625
98.71396	88.7625
103.08183	93.4625
107.4465	97.5625
111.80798	94.4625
116.16626	95.8625
120.52136	100.3625
124.87327	98.5625
129.222	103.0625
133.56755	108.2625
137.90993	113.8625
142.24913	121.0625
146.58517	132.5625
150.91804	147.4625
155.24774	170.0625
159.57429	203.3625
163.89768	254.6625
168.21792	325.9625
172.53501	436.9625
176.84895	597.0625
181.15975	826.4625
185.46741	1155.1625
189.77193	1581.3625
194.07331	2111.8625
198.37157	2720.8625
202.6667	3337.1625
206.9587	3971.9625
211.24758	4597.1625
215.53334	5269.0625
219.81599	6032.3625
224.09553	6894.3625
228.37195	7850.8625
232.64527	8889.8625
236.91549	9874.4625
241.18261	10781.3625
245.44663	11453.9625
249.70755	11941.7625
253.96539	12358.5625
258.22014	12783.5625
262.4718	13176.2625
266.72039	13513.9625
270.96589	13684.7625
275.20832	13774.4625
279.44768	13715.5625
283.68397	13599.0625
287.91719	13557.8625
292.14735	13748.1625
296.37445	14088.3625
300.59849	14702.2625
304.81948	15396.4625
309.03742	15968.8625
313.25231	15937.9625
317.46415	15058.1625
321.67296	13668.0625
325.87872	12417.1625
330.08145	11788.9625
334.28114	11688.7625
338.47781	11902.1625
342.67145	12267.6625
346.86207	12905.6625
351.04966	13831.4625
355.23424	14870.9625
359.4158	15663.8625
363.59435	15970.9625
367.76989	15936.1625
371.94243	15782.5625
376.11196	15531.0625
380.27849	15312.9625
384.44203	15053.2625
388.60257	14749.6625
392.76012	14625.3625
396.91468	14811.5625
401.06626	15320.0625
405.21485	15694.9625
409.36047	15328.6625
413.50311	14330.4625
417.64277	13382.7625
421.77947	12874.7625
425.9132	12607.1625
430.04396	12578.6625
434.17176	12598.5625
438.2966	12723.8625
442.41849	13020.6625
446.53742	13367.9625
450.6534	13773.7625
454.76644	14003.2625
458.87653	14041.2625
462.98368	13903.2625
467.08789	13684.1625
471.18916	13343.8625
475.2875	12944.3625
479.38291	12642.1625
483.4754	12384.4625
487.56496	12197.2625
491.6516	12081.5625
495.73531	12068.8625
499.81612	12163.0625
503.89401	12333.8625
507.96899	12527.1625
512.04106	12709.4625
516.11023	12890.1625
520.1765	12982.3625
524.23987	12887.2625
528.30034	12547.1625
532.35792	12154.7625
536.41261	11814.4625
540.46441	11455.3625
544.51333	11325.2625
548.55936	11453.8625
552.60252	11849.0625
556.64279	12304.1625
560.6802	12524.7625
564.71473	12815.6625
568.7464	13495.9625
572.7752	14048.3625
576.80114	13642.6625
580.82422	13038.2625
584.84444	12787.0625
588.86181	12554.2625
592.87633	12443.3625
596.888	12540.9625
600.89682	13133.8625
604.9028	15136.8625
608.90594	20400.8625
612.90624	27436.3625
616.90371	26374.4625
620.89834	17149.7625
624.89015	12663.6625
628.87913	11810.8625
632.86528	11925.7625
636.84862	12237.0625
640.82913	12053.4625
644.80683	11344.4625
648.78172	10857.1625
652.75379	10931.4625
656.72306	11580.1625
660.68952	12400.3625
664.65319	12266.2625
668.61405	11449.1625
672.57211	11013.9625
676.52738	10948.4625
680.47986	10915.6625
684.42955	10814.0625
688.37646	10691.2625
692.32058	10747.9625
696.26192	10919.6625
700.20048	11149.0625
704.13626	11305.8625
708.06928	11364.9625
711.99952	11207.8625
715.927	11104.1625
719.85171	11115.8625
723.77365	11059.1625
727.69284	10866.9625
731.60928	10718.0625
735.52295	10646.9625
739.43388	10677.2625
743.34206	10744.2625
747.24749	10816.6625
751.15017	11016.2625
755.05012	11335.6625
758.94733	12109.8625
762.8418	13941.0625
766.73354	17085.1625
770.62254	20324.5625
774.50882	21815.1625
778.39237	20484.5625
782.27321	17238.0625
786.15132	13974.6625
790.02671	12125.1625
793.89938	11251.1625
797.76935	10893.6625
801.6366	10711.3625
805.50115	10603.2625
809.36299	10517.2625
813.22213	10432.9625
817.07857	10365.4625
820.93231	10370.9625
824.78336	10430.6625
828.63172	10490.0625
832.47738	10508.4625
836.32036	10486.0625
840.16066	10382.8625
843.99827	10292.2625
847.8332	10210.0625
851.66546	10203.4625
855.49504	10207.2625
859.32195	10160.7625
863.1462	10068.6625
866.96777	10009.9625
870.78668	9966.4625
874.60293	9975.3625
878.41652	10008.2625
882.22745	10077.5625
886.03573	10132.7625
889.84136	10123.5625
893.64433	10033.5625
897.44466	9981.1625
901.24235	9998.6625
905.0374	10001.3625
908.8298	9942.6625
912.61957	9964.7625
916.40671	10054.3625
920.19121	10190.3625
923.97308	10322.0625
927.75233	10435.8625
931.52895	10515.8625
935.30295	10355.7625
939.07433	9900.7625
942.84309	9549.6625
946.60924	9326.7625
950.37278	9211.7625
954.13371	9135.4625
957.89203	9090.0625
961.64774	9071.4625
965.40086	9049.4625
969.15137	8998.5625
972.89929	8967.9625
976.64461	8940.5625
980.38733	8942.1625
984.12747	8946.6625
987.86502	8999.6625
991.59999	9046.6625
995.33237	9165.9625
999.06217	9384.1625
1002.78939	9692.4625
1006.51404	10005.0625
1010.23611	10305.6625
1013.95561	10510.9625
1017.67255	10429.5625
1021.38692	10221.0625
1025.09872	9999.4625
1028.80796	9856.7625
1032.51465	9888.6625
1036.21877	10046.5625
1039.92035	10236.2625
1043.61937	10341.5625
1047.31584	10293.5625
1051.00976	10265.2625
1054.70114	10215.4625
1058.38998	10229.3625
1062.07627	10350.2625
1065.76003	10462.1625
1069.44126	10621.9625
1073.11995	10772.9625
1076.79611	10957.4625
1080.46974	11156.4625
1084.14085	11486.4625
1087.80943	11966.1625
1091.47549	12174.7625
1095.13903	11953.2625
1098.80005	11408.8625
1102.45857	10890.3625
1106.11456	10564.5625
1109.76805	10563.8625
1113.41903	10784.6625
1117.06751	11211.1625
1120.71348	11836.6625
1124.35696	12523.1625
1127.99793	13197.0625
1131.63641	13220.1625
1135.2724	12421.0625
1138.90589	11655.7625
1142.5369	11178.1625
1146.16542	10938.4625
1149.79145	10791.9625
1153.415	10802.6625
1157.03607	10993.6625
1160.65467	11307.7625
1164.27079	11894.7625
1167.88443	12735.2625
1171.49561	14073.2625
1175.10432	16452.8625
1178.71056	19396.8625
1182.31434	21387.7625
1185.91565	21672.8625
1189.51451	20892.7625
1193.11091	19462.2625
1196.70485	17684.9625
1200.29634	16353.6625
1203.88538	15340.3625
1207.47197	14133.3625
1211.05612	13070.1625
1214.63782	12520.6625
1218.21708	12299.9625
1221.79391	12328.3625
1225.36829	12447.9625
1228.94024	12618.2625
1232.50976	12800.3625
1236.07685	12860.9625
1239.6415	12847.5625
1243.20374	12799.0625
1246.76355	12840.6625
1250.32093	13002.3625
1253.8759	13371.8625
1257.42845	13833.8625
1260.97859	14388.8625
1264.52631	14952.3625
1268.07163	15567.8625
1271.61453	16124.6625
1275.15503	16526.0625
1278.69312	16669.3625
1282.22882	16772.9625
1285.76211	17156.5625
1289.29301	17805.0625
1292.82151	18476.4625
1296.34761	19120.9625
1299.87133	20128.3625
1303.39266	21878.6625
1306.9116	24667.3625
1310.42815	28152.6625
1313.94233	30531.9625
1317.45412	30366.2625
1320.96354	28367.9625
1324.47058	25942.8625
1327.97525	23812.3625
1331.47754	22484.0625
1334.97747	21840.3625
1338.47502	21745.2625
1341.97022	22051.0625
1345.46305	22693.7625
1348.95352	23929.6625
1352.44163	25696.5625
1355.92738	28380.3625
1359.41078	32868.9625
1362.89183	37651.3625
1366.37053	37210.7625
1369.84688	31208.0625
1373.32088	25026.7625
1376.79254	21084.6625
1380.26186	19163.8625
1383.72883	18187.8625
1387.19347	17404.1625
1390.65578	16617.2625
1394.11575	15951.8625
1397.57339	15602.2625
1401.0287	15629.9625
1404.48168	15831.0625
1407.93234	16051.6625
1411.38068	16161.9625
1414.82669	16014.1625
1418.27039	15688.0625
1421.71177	15228.9625
1425.15083	14772.8625
1428.58758	14434.5625
1432.02203	14368.0625
1435.45416	14426.2625
1438.88399	14542.3625
1442.31151	14563.7625
1445.73673	14708.0625
1449.15965	14835.0625
1452.58027	14893.0625
1455.9986	14810.0625
1459.41463	14791.8625
1462.82837	14985.6625
1466.23982	15334.3625
1469.64898	15750.4625
1473.05586	16065.3625
1476.46045	16305.3625
1479.86276	16617.4625
1483.26279	17092.3625
1486.66054	17627.3625
1490.05602	18334.2625
1493.44922	19314.8625
1496.84016	20864.2625
1500.22882	23348.9625
1503.61521	26521.5625
1506.99934	30193.5625
1510.38121	33891.4625
1513.76081	36128.7625
1517.13816	34958.1625
1520.51324	30657.2625
1523.88607	25922.0625
1527.25665	22516.8625
1530.62498	20461.1625
1533.99105	19167.7625
1537.35488	18340.8625
1540.71647	17762.3625
1544.07581	17384.6625
1547.4329	17127.7625
1550.78776	16929.8625
1554.14038	16891.8625
1557.49077	17090.2625
1560.83892	17615.2625
1564.18484	18300.3625
1567.52853	19039.0625
1570.86999	19534.0625
1574.20922	19874.2625
1577.54624	19678.3625
1580.88103	18571.6625
1584.2136	17051.5625
1587.54395	16272.1625
1590.87208	16473.1625
1594.19801	17457.4625
1597.52172	18763.9625
1600.84321	19231.2625
1604.16251	18347.6625
1607.47959	16915.2625
1610.79447	15468.1625
1614.10715	14122.9625
1617.41763	13007.1625
1620.7259	12278.3625
1624.03199	11936.3625
1627.33587	11935.2625
1630.63757	12262.0625
1633.93707	12956.8625
1637.23439	14093.7625
1640.52951	15778.8625
1643.82246	18091.3625
1647.11321	20768.6625
1650.40179	23089.0625
1653.68819	22936.8625
1656.97241	19878.5625
1660.25446	16006.5625
1663.53433	13073.2625
1666.81203	11300.4625
1670.08756	10240.9625
1673.36092	9628.6625
1676.63211	9230.8625
1679.90115	8965.0625
1683.16801	8784.3625
1686.43272	8628.3625
1689.69527	8519.3625
1692.95567	8451.8625
1696.2139	8416.2625
1699.46999	8383.2625
1702.72392	8331.8625
1705.97571	8307.9625
1709.22535	8269.9625
1712.47284	8257.7625
1715.71819	8265.3625
1718.96139	8275.0625
1722.20246	8251.7625
1725.44139	8236.5625
1728.67818	8130.2625
1731.91284	8021.9625
1735.14537	7931.5625
1738.37576	7883.1625
1741.60403	7834.0625
1744.83017	7799.4625
1748.05418	7765.3625
1751.27607	7749.5625
1754.49584	7732.6625
1757.71349	7728.4625
1760.92903	7691.5625
1764.14244	7684.6625
1767.35375	7657.8625
1770.56294	7625.9625
1773.77002	7574.9625
1776.97499	7537.8625
1780.17785	7498.8625
1783.37861	7474.6625
1786.57727	7452.8625
1789.77382	7412.8625
1792.96828	7435.0625
1796.16064	7380.8625
1799.3509	7395.9625
1802.53907	7358.2625
1805.72514	7335.0625
1808.90913	7300.1625
1812.09102	7262.2625
1815.27083	7263.3625
1818.44856	7242.7625
1821.6242	7229.6625
1824.79776	7214.9625
1827.96924	7200.2625
1831.13864	7173.2625
1834.30597	7186.0625
1837.47122	7171.4625
1840.6344	7184.1625
1843.7955	7187.8625
1846.95454	7154.6625
1850.11151	7161.1625
1853.26642	7175.3625
1856.41926	7164.7625
1859.57004	7171.7625
1862.71876	7178.5625
1865.86542	7183.5625
1869.01003	7158.7625
1872.15258	7186.9625
1875.29308	7170.8625
1878.43152	7197.0625
1881.56792	7206.6625
1884.70227	7209.2625
1887.83457	7199.8625
1890.96482	7232.8625
1894.09304	7233.1625
1897.21921	7228.3625
1900.34335	7245.1625
1903.46544	7239.2625
1906.58551	7271.4625
1909.70353	7275.1625
1912.81953	7274.0625
1915.93349	7295.4625
1919.04543	7286.7625
1922.15534	7280.3625
1925.26322	7244.2625
1928.36908	7221.9625
1931.47292	7173.9625
1934.57473	7090.5625
1937.67453	7035.4625
1940.77232	6986.7625
1943.86808	6927.0625
1946.96184	6899.4625
1950.05358	6840.4625
1953.14331	6803.6625
1956.23103	6759.9625
1959.31675	6737.4625
1962.40046	6703.2625
1965.48217	6689.8625
1968.56188	6677.8625
1971.63959	6641.1625
1974.7153	6626.1625
1977.78901	6619.9625
1980.86073	6588.8625
1983.93046	6557.7625
1986.99819	6521.8625
1990.06394	6503.3625
1993.1277	6469.3625
1996.18947	6425.8625
1999.24925	6413.9625
2002.30706	6400.1625
2005.36288	6362.8625
2008.41672	6348.3625
2011.46859	6341.5625
2014.51848	6314.1625
2017.56639	6301.4625
2020.61233	6275.5625
2023.6563	6257.0625
2026.6983	6233.0625
2029.73833	6199.9625
2032.7764	6183.9625
2035.8125	6173.1625
2038.84664	6160.0625
2041.87881	6160.5625
2044.90903	6140.0625
2047.93729	6134.6625
2050.96359	6122.4625
2053.98794	6115.3625
2057.01034	6102.0625
2060.03078	6082.3625
2063.04927	6078.3625
2066.06582	6048.7625
2069.08042	6037.2625
2072.09307	6052.0625
2075.10378	6038.7625
2078.11255	6025.7625
2081.11938	6027.3625
2084.12426	6012.7625
2087.12722	5999.2625
2090.12824	6021.6625
2093.12732	5991.3625
2096.12447	6022.5625
2099.11969	6016.2625
2102.11299	6006.9625
2105.10435	6025.8625
2108.09379	5986.9625
2111.08131	6016.9625
2114.0669	6000.9625
2117.05057	6004.7625
2120.03233	6017.0625
2123.01216	6021.5625
2125.99008	6024.8625
2128.96609	6011.6625
2131.94018	6028.6625
2134.91236	6012.3625
2137.88263	6028.5625
2140.851	6027.5625
2143.81746	6042.3625
2146.78201	6005.3625
2149.74466	6003.1625
2152.7054	6007.1625
2155.66425	5992.6625
2158.6212	5971.6625
2161.57625	5962.8625
2164.52941	5984.4625
2167.48067	5975.2625
2170.43004	5956.8625
2173.37752	5955.9625
2176.32311	5962.2625
2179.26681	5956.9625
2182.20863	5945.6625
2185.14856	5952.2625
2188.08661	5957.5625
2191.02278	5951.1625
2193.95707	5935.6625
2196.88948	5912.3625
2199.82001	5916.6625
2202.74867	5908.3625
2205.67545	5908.8625
2208.60037	5896.9625
2211.52341	5875.9625
2214.44458	5864.5625
2217.36388	5859.9625
2220.28132	5840.4625
2223.1969	5835.8625
2226.11061	5815.8625
2229.02246	5789.3625
2231.93245	5783.3625
2234.84058	5779.7625
2237.74686	5759.6625
2240.65128	5730.8625
2243.55385	5741.2625
2246.45456	5731.9625
2249.35343	5738.5625
2252.25044	5730.4625
2255.14561	5730.2625
2258.03893	5736.7625
2260.93041	5730.2625
2263.82004	5716.4625
2266.70783	5695.8625
2269.59378	5688.0625
2272.4779	5681.3625
2275.36017	5657.9625
2278.24061	5648.9625
2281.11922	5622.2625
2283.996	5614.4625
2286.87094	5589.4625
2289.74405	5580.9625
2292.61534	5545.4625
2295.4848	5533.5625
2298.35243	5547.7625
2301.21824	5518.0625
2304.08223	5520.9625
2306.94439	5518.9625
2309.80474	5518.0625
2312.66327	5530.0625
2315.51999	5516.3625
2318.37489	5502.7625
2321.22797	5506.2625
2324.07925	5495.9625
2326.92871	5480.1625
2329.77637	5490.7625
2332.62222	5495.4625
2335.46626	5484.4625
2338.3085	5472.9625
2341.14893	5470.1625
2343.98756	5457.1625
2346.8244	5464.3625
2349.65943	5472.1625
2352.49267	5495.5625
2355.32411	5494.6625
2358.15376	5510.2625
2360.98161	5526.3625
2363.80768	5548.8625
2366.63195	5543.8625
2369.45444	5539.0625
2372.27514	5550.6625
2375.09405	5541.0625
2377.91118	5498.3625
2380.72652	5484.2625
2383.54009	5452.2625
2386.35187	5430.6625
2389.16188	5394.3625
2391.97011	5385.5625
2394.77657	5340.2625
2397.58125	5332.4625
2400.38416	5308.5625
2403.18529	5291.2625
2405.98466	5294.5625
2408.78226	5274.1625
2411.57809	5271.5625
2414.37216	5276.9625
2417.16446	5255.6625
2419.955	5244.5625
2422.74378	5246.6625
2425.5308	5235.3625
2428.31606	5258.4625
2431.09956	5232.6625
2433.88131	5238.5625
2436.6613	5236.8625
2439.43954	5241.4625
2442.21603	5234.9625
2444.99077	5245.4625
2447.76377	5238.9625
2450.53501	5234.0625
2453.30451	5243.9625
2456.07226	5251.2625
2458.83827	5268.2625
2461.60254	5238.4625
2464.36507	5240.4625
2467.12586	5245.4625
2469.88492	5228.3625
2472.64224	5228.2625
2475.39782	5250.1625
2478.15167	5248.5625
2480.90379	5267.5625
2483.65417	5276.1625
2486.40283	5268.2625
2489.14976	5312.9625
2491.89497	5319.2625
2494.63845	5333.4625
2497.3802	5336.0625
2500.12024	5329.4625
2502.85855	5298.1625
2505.59514	5278.6625
2508.33002	5275.1625
2511.06318	5245.0625
2513.79462	5198.1625
2516.52435	5194.1625
2519.25237	5175.5625
2521.97867	5146.7625
2524.70327	5136.9625
2527.42616	5115.6625
2530.14734	5104.9625
2532.86681	5108.4625
2535.58458	5118.1625
2538.30065	5083.6625
2541.01501	5085.9625
2543.72768	5082.4625
2546.43864	5079.3625
2549.14791	5076.3625
2551.85548	5090.5625
2554.56136	5083.6625
2557.26554	5075.7625
2559.96803	5068.2625
2562.66883	5056.7625
2565.36794	5039.5625
2568.06536	5050.9625
2570.7611	5034.6625
2573.45514	5023.8625
2576.14751	5033.5625
2578.83819	5013.6625
2581.52719	5006.3625
2584.21451	5002.7625
2586.90015	4994.3625
2589.58411	4987.3625
2592.2664	4992.3625
2594.94701	4982.4625
2597.62594	4970.4625
2600.30321	4969.8625
2602.9788	4971.6625
2605.65273	4970.8625
2608.32498	4966.5625
2610.99557	4969.5625
2613.66449	4962.9625
2616.33175	4961.0625
2618.99734	4957.9625
2621.66128	4948.7625
2624.32355	4961.2625
2626.98416	4957.2625
2629.64311	4932.4625
2632.30041	4936.4625
2634.95605	4939.2625
2637.61004	4912.0625
2640.26238	4907.7625
2642.91306	4897.0625
2645.56209	4892.3625
2648.20948	4892.5625
2650.85521	4874.5625
2653.4993	4880.8625
2656.14175	4893.0625
2658.78255	4894.1625
2661.42171	4896.1625
2664.05923	4919.2625
2666.6951	4915.0625
2669.32934	4930.7625
2671.96194	4925.5625
2674.59291	4932.1625
2677.22224	4949.1625
2679.84993	4943.4625
2682.476	4943.9625
2685.10043	4930.7625
2687.72324	4935.9625
2690.34441	4938.6625
2692.96396	4928.9625
2695.58188	4923.6625
2698.19818	4928.6625
2700.81285	4921.1625
2703.4259	4938.0625
2706.03733	4963.0625
2708.64714	4950.2625
2711.25533	4955.1625
2713.86191	4940.8625
2716.46687	4954.0625
2719.07021	4953.6625
2721.67194	4960.6625
2724.27206	4951.6625
2726.87057	4960.2625
2729.46747	4936.6625
2732.06276	4941.0625
2734.65644	4921.4625
2737.24852	4922.7625
2739.83899	4909.3625
2742.42786	4910.0625
2745.01513	4898.5625
2747.60079	4891.1625
2750.18486	4895.0625
2752.76733	4883.5625
2755.3482	4855.5625
2757.92747	4871.7625
2760.50515	4861.9625
2763.08123	4867.1625
2765.65573	4858.8625
2768.22863	4845.9625
2770.79994	4840.0625
2773.36967	4829.0625
2775.9378	4838.5625
2778.50435	4826.2625
2781.06932	4828.3625
2783.6327	4824.3625
2786.1945	4827.2625
2788.75471	4818.8625
2791.31335	4828.5625
2793.87041	4813.6625
2796.42589	4802.9625
2798.97979	4818.0625
2801.53212	4802.8625
2804.08288	4807.2625
2806.63206	4816.4625
2809.17967	4815.1625
2811.72571	4817.6625
2814.27018	4830.4625
2816.81308	4825.2625
2819.35442	4827.4625
2821.89419	4823.0625
2824.43239	4849.3625
2826.96904	4855.8625
2829.50412	4863.6625
2832.03763	4872.0625
2834.56959	4873.9625
2837.1	4885.9625
2839.62884	4917.0625
2842.15613	4952.3625
2844.68186	5014.3625
2847.20604	5095.2625
2849.72867	5152.8625
2852.24974	5172.2625
2854.76927	5176.2625
2857.28724	5179.8625
2859.80367	5154.6625
2862.31855	5150.9625
2864.83189	5113.7625
2867.34368	5111.5625
2869.85393	5097.9625
2872.36264	5096.5625
2874.8698	5100.9625
2877.37543	5083.9625
2879.87952	5099.4625
2882.38207	5092.6625
2884.88308	5071.4625
2887.38256	5060.8625
2889.88051	5067.9625
2892.37692	5068.3625
2894.8718	5065.2625
2897.36515	5073.8625
2899.85698	5082.6625
2902.34727	5088.1625
2904.83604	5079.6625
2907.32328	5092.9625
2909.809	5093.1625
2912.29319	5068.0625
2914.77587	5075.7625
2917.25702	5056.6625
2919.73665	5055.9625
2922.21476	5064.6625
2924.69136	5042.0625
2927.16644	5059.1625
2929.64	5031.8625
2932.11205	5011.5625
2934.58258	5004.9625
2937.05161	4987.1625
2939.51912	4986.4625
2941.98513	4935.8625
2944.44962	4879.7625
2946.91261	4818.9625
2949.37409	4791.3625
2951.83407	4762.0625
2954.29254	4747.8625
2956.74951	4735.0625
2959.20498	4721.4625
2961.65895	4689.2625
2964.11142	4689.6625
2966.56239	4666.0625
2969.01186	4646.4625
2971.45984	4637.0625
2973.90632	4632.4625
2976.35131	4597.2625
2978.7948	4573.9625
2981.23681	4554.5625
2983.67732	4539.0625
2986.11635	4543.0625
2988.55388	4502.7625
2990.98993	4497.4625
2993.4245	4487.9625
2995.85758	4485.3625
2998.28917	4473.2625
3000.71928	4460.8625
3003.14791	4451.4625
3005.57506	4443.8625
3008.00073	4438.2625
3010.42493	4414.2625
3012.84764	4413.7625
3015.26888	4409.0625
3017.68865	4391.3625
3020.10694	4407.4625
3022.52376	4390.9625
3024.9391	4381.0625
3027.35298	4378.3625
3029.76539	4362.8625
3032.17632	4346.7625
3034.5858	4327.2625
3036.9938	4331.8625
3039.40034	4322.3625
3041.80542	4327.7625
3044.20903	4305.5625
3046.61118	4303.4625
3049.01187	4297.3625
3051.4111	4288.5625
3053.80888	4286.2625
3056.20519	4274.1625
3058.60005	4263.3625
3060.99345	4261.1625
3063.3854	4261.0625
3065.7759	4250.5625
3068.16494	4247.6625
3070.55254	4215.1625
3072.93868	4218.4625
3075.32338	4197.2625
3077.70662	4192.2625
3080.08842	4166.6625
3082.46878	4155.3625
3084.84769	4135.6625
