Data from AgNPs_FTO_APTES_UA_2uM_CRN_200uM_R6G_10uM_NaF_0.1M_Addition_RamanShift__20__16-42-15-374.txt Node

Date: Wed Feb 02 16:42:15 GMT 2022
User: TCL
Spectrometer: QEP01345
Trigger mode: 4
Integration Time (sec): 7.000000E0
Scans to average: 10
Electric dark correction enabled: true
Nonlinearity correction enabled: false
Boxcar width: 0
XAxis mode: Raman Shifts
Number of Pixels in Spectrum: 1044
>>>>>Begin Spectral Data<<<<<
46.04893	-0.275
50.45542	1.325
54.85868	-0.575
59.25871	0.325
63.6555	71.125
68.04907	75.925
72.43941	75.925
76.82654	83.025
81.21044	86.025
85.59113	90.825
89.96862	91.725
94.34289	99.925
98.71396	98.325
103.08183	107.625
107.4465	106.525
111.80798	108.125
116.16626	108.725
120.52136	114.025
124.87327	121.625
129.222	121.225
133.56755	129.625
137.90993	135.725
142.24913	153.225
146.58517	169.425
150.91804	197.325
155.24774	234.425
159.57429	291.325
163.89768	369.225
168.21792	486.425
172.53501	660.725
176.84895	920.225
181.15975	1284.725
185.46741	1796.225
189.77193	2470.225
194.07331	3300.325
198.37157	4253.725
202.6667	5252.725
206.9587	6234.825
211.24758	7196.225
215.53334	8187.825
219.81599	9203.825
224.09553	10335.525
228.37195	11557.525
232.64527	12899.625
236.91549	14295.225
241.18261	15748.725
245.44663	17103.625
249.70755	18368.825
253.96539	19486.325
258.22014	20450.325
262.4718	21265.425
266.72039	21821.925
270.96589	22191.125
275.20832	22392.925
279.44768	22411.625
283.68397	22380.425
287.91719	22361.125
292.14735	22410.325
296.37445	22529.525
300.59849	22631.125
304.81948	22563.125
309.03742	22306.025
313.25231	21843.725
317.46415	21171.225
321.67296	20427.525
325.87872	19868.825
330.08145	19573.325
334.28114	19469.725
338.47781	19538.425
342.67145	19721.825
346.86207	19958.125
351.04966	20268.225
355.23424	20631.125
359.4158	20868.425
363.59435	21055.225
367.76989	21185.625
371.94243	21280.025
376.11196	21407.125
380.27849	21522.125
384.44203	21704.125
388.60257	21923.525
392.76012	22185.225
396.91468	22496.625
401.06626	22840.825
405.21485	23029.725
409.36047	22983.325
413.50311	22695.025
417.64277	22495.925
421.77947	22527.525
425.9132	22661.425
430.04396	22886.125
434.17176	23115.425
438.2966	23354.225
442.41849	23789.325
446.53742	24448.025
450.6534	25273.325
454.76644	25916.425
458.87653	26192.525
462.98368	26125.125
467.08789	25964.625
471.18916	25780.625
475.2875	25781.825
479.38291	25982.025
483.4754	25974.025
487.56496	25555.525
491.6516	24887.725
495.73531	24144.525
499.81612	23676.625
503.89401	23535.425
507.96899	23528.225
512.04106	23345.525
516.11023	23057.925
520.1765	22704.925
524.23987	22431.625
528.30034	22210.725
532.35792	22017.025
536.41261	21778.425
540.46441	21687.325
544.51333	21802.725
548.55936	22211.725
552.60252	22829.725
556.64279	23567.125
560.6802	24151.025
564.71473	24551.125
568.7464	25122.325
572.7752	25851.725
576.80114	26349.925
580.82422	26625.225
584.84444	26809.125
588.86181	27036.825
592.87633	27437.825
596.888	27617.225
600.89682	27499.025
604.9028	27715.025
608.90594	28880.725
612.90624	29886.125
616.90371	27881.425
620.89834	23894.925
624.89015	22184.825
628.87913	22075.025
632.86528	22353.025
636.84862	22491.125
640.82913	22197.625
644.80683	21617.225
648.78172	21044.525
652.75379	20863.625
656.72306	20867.225
660.68952	21062.725
664.65319	20997.425
668.61405	20722.625
672.57211	20662.825
676.52738	20722.825
680.47986	20750.325
684.42955	20736.025
688.37646	20671.725
692.32058	20691.725
696.26192	20829.225
700.20048	21101.825
704.13626	21282.025
708.06928	21295.425
711.99952	21252.925
715.927	21157.125
719.85171	21137.425
723.77365	21075.325
727.69284	20927.025
731.60928	20766.725
735.52295	20678.525
739.43388	20631.325
743.34206	20673.125
747.24749	20824.825
751.15017	21000.025
755.05012	21420.025
758.94733	22153.925
762.8418	23296.625
766.73354	24944.625
770.62254	26365.925
774.50882	26412.825
778.39237	25017.825
782.27321	23124.525
786.15132	21686.925
790.02671	20849.825
793.89938	20450.625
797.76935	20289.825
801.6366	20278.425
805.50115	20287.825
809.36299	20223.725
813.22213	20127.525
817.07857	20101.625
820.93231	20077.025
824.78336	19923.825
828.63172	19788.725
832.47738	19718.225
836.32036	19652.925
840.16066	19690.825
843.99827	19662.725
847.8332	19604.325
851.66546	19544.425
855.49504	19470.125
859.32195	19476.425
863.1462	19422.125
866.96777	19385.425
870.78668	19345.825
874.60293	19290.025
878.41652	19345.725
882.22745	19368.925
886.03573	19425.125
889.84136	19431.425
893.64433	19379.325
897.44466	19324.825
901.24235	19184.325
905.0374	19149.225
908.8298	19071.125
912.61957	19147.325
916.40671	19362.925
920.19121	19695.725
923.97308	19882.025
927.75233	19791.925
931.52895	19528.325
935.30295	19252.025
939.07433	18894.425
942.84309	18598.825
946.60924	18419.625
950.37278	18365.225
954.13371	18364.425
957.89203	18386.725
961.64774	18395.225
965.40086	18396.725
969.15137	18300.025
972.89929	18110.225
976.64461	17967.625
980.38733	17931.725
984.12747	17932.225
987.86502	18036.325
991.59999	18208.625
995.33237	18432.625
999.06217	18822.425
1002.78939	19340.125
1006.51404	19641.925
1010.23611	19900.425
1013.95561	20068.825
1017.67255	20091.225
1021.38692	19905.025
1025.09872	19622.825
1028.80796	19487.225
1032.51465	19598.525
1036.21877	19826.225
1039.92035	19897.425
1043.61937	19884.825
1047.31584	19717.825
1051.00976	19571.625
1054.70114	19545.125
1058.38998	19715.525
1062.07627	19975.825
1065.76003	20250.625
1069.44126	20459.025
1073.11995	20648.325
1076.79611	20831.625
1080.46974	20822.725
1084.14085	20943.025
1087.80943	21139.525
1091.47549	21380.025
1095.13903	21495.825
1098.80005	21347.625
1102.45857	20909.925
1106.11456	20510.225
1109.76805	20336.325
1113.41903	20321.825
1117.06751	20496.125
1120.71348	20727.325
1124.35696	20950.525
1127.99793	21252.325
1131.63641	21454.525
1135.2724	21378.525
1138.90589	21295.025
1142.5369	21294.925
1146.16542	21531.725
1149.79145	21866.025
1153.415	22278.125
1157.03607	22813.725
1160.65467	23589.125
1164.27079	24669.225
1167.88443	26084.725
1171.49561	27764.825
1175.10432	29816.325
1178.71056	32399.025
1182.31434	34734.925
1185.91565	36038.725
1189.51451	36181.725
1193.11091	35731.925
1196.70485	34816.825
1200.29634	33626.125
1203.88538	32554.025
1207.47197	31855.225
1211.05612	31334.825
1214.63782	30717.825
1218.21708	29926.025
1221.79391	29105.925
1225.36829	28418.625
1228.94024	27785.225
1232.50976	27159.625
1236.07685	26722.725
1239.6415	26547.925
1243.20374	26529.725
1246.76355	26734.225
1250.32093	27049.725
1253.8759	27650.725
1257.42845	28348.025
1260.97859	29163.125
1264.52631	29916.925
1268.07163	30677.425
1271.61453	31535.425
1275.15503	32547.825
1278.69312	33627.025
1282.22882	34688.025
1285.76211	35909.725
1289.29301	37416.825
1292.82151	39476.125
1296.34761	42053.925
1299.87133	44859.825
1303.39266	47698.625
1306.9116	50283.925
1310.42815	52346.825
1313.94233	53858.425
1317.45412	54296.625
1320.96354	54241.825
1324.47058	54136.525
1327.97525	54037.125
1331.47754	53937.625
1334.97747	53991.125
1338.47502	53962.825
1341.97022	53617.025
1345.46305	52458.525
1348.95352	50759.025
1352.44163	48976.825
1355.92738	47880.825
1359.41078	47891.725
1362.89183	48250.125
1366.37053	47327.425
1369.84688	44312.725
1373.32088	40452.325
1376.79254	37801.025
1380.26186	37093.825
1383.72883	37579.125
1387.19347	38368.225
1390.65578	38916.325
1394.11575	39577.425
1397.57339	40703.525
1401.0287	42086.025
1404.48168	43189.325
1407.93234	43343.125
1411.38068	42503.625
1414.82669	40600.225
1418.27039	38077.525
1421.71177	35531.725
1425.15083	33416.225
1428.58758	32126.725
1432.02203	31882.925
1435.45416	32575.225
1438.88399	33707.625
1442.31151	34948.225
1445.73673	35991.125
1449.15965	37098.225
1452.58027	38012.425
1455.9986	38677.225
1459.41463	39195.325
1462.82837	39737.225
1466.23982	40345.925
1469.64898	40726.425
1473.05586	40806.325
1476.46045	40411.025
1479.86276	39775.825
1483.26279	38779.225
1486.66054	38007.025
1490.05602	37483.025
1493.44922	37244.825
1496.84016	37039.125
1500.22882	36967.925
1503.61521	37372.825
1506.99934	38105.025
1510.38121	38933.825
1513.76081	39408.025
1517.13816	39160.125
1520.51324	38364.525
1523.88607	37748.225
1527.25665	37520.625
1530.62498	37683.625
1533.99105	37905.925
1537.35488	37880.125
1540.71647	37615.825
1544.07581	36800.125
1547.4329	35857.725
1550.78776	34916.025
1554.14038	34208.325
1557.49077	33909.525
1560.83892	33774.525
1564.18484	33696.825
1567.52853	33666.825
1570.86999	33800.225
1574.20922	34368.725
1577.54624	35165.525
1580.88103	35908.925
1584.2136	36825.225
1587.54395	38362.025
1590.87208	40418.125
1594.19801	42781.425
1597.52172	44881.625
1600.84321	45359.225
1604.16251	43381.625
1607.47959	39819.425
1610.79447	35841.725
1614.10715	32255.025
1617.41763	29360.125
1620.7259	27268.025
1624.03199	26136.325
1627.33587	25922.225
1630.63757	26660.425
1633.93707	28583.825
1637.23439	31597.425
1640.52951	35913.425
1643.82246	40797.525
1647.11321	44609.625
1650.40179	45466.725
1653.68819	42579.525
1656.97241	37159.225
1660.25446	31404.125
1663.53433	26898.425
1666.81203	23671.925
1670.08756	21680.025
1673.36092	20362.125
1676.63211	19490.325
1679.90115	18944.425
1683.16801	18563.125
1686.43272	18198.225
1689.69527	18007.125
1692.95567	17808.325
1696.2139	17711.725
1699.46999	17589.025
1702.72392	17495.325
1705.97571	17410.425
1709.22535	17302.925
1712.47284	17244.525
1715.71819	17198.525
1718.96139	17133.425
1722.20246	17031.625
1725.44139	16988.725
1728.67818	16883.825
1731.91284	16770.925
1735.14537	16675.725
1738.37576	16638.125
1741.60403	16539.925
1744.83017	16522.025
1748.05418	16499.125
1751.27607	16468.925
1754.49584	16455.225
1757.71349	16449.425
1760.92903	16421.425
1764.14244	16362.925
1767.35375	16338.125
1770.56294	16263.525
1773.77002	16238.425
1776.97499	16195.325
1780.17785	16157.925
1783.37861	16128.225
1786.57727	16080.725
1789.77382	16037.325
1792.96828	16008.925
1796.16064	15939.425
1799.3509	15920.925
1802.53907	15888.025
1805.72514	15826.425
1808.90913	15814.525
1812.09102	15750.125
1815.27083	15731.025
1818.44856	15733.225
1821.6242	15673.125
1824.79776	15662.525
1827.96924	15655.325
1831.13864	15649.425
1834.30597	15630.725
1837.47122	15643.925
1840.6344	15650.625
1843.7955	15647.225
1846.95454	15609.425
1850.11151	15619.925
1853.26642	15614.925
1856.41926	15618.125
1859.57004	15629.325
1862.71876	15597.825
1865.86542	15604.025
1869.01003	15574.025
1872.15258	15568.625
1875.29308	15548.825
1878.43152	15572.225
1881.56792	15530.025
1884.70227	15528.625
1887.83457	15531.525
1890.96482	15499.625
1894.09304	15535.325
1897.21921	15513.625
1900.34335	15475.025
1903.46544	15484.525
1906.58551	15455.125
1909.70353	15460.725
1912.81953	15395.525
1915.93349	15371.325
1919.04543	15331.325
1922.15534	15299.025
1925.26322	15271.725
1928.36908	15232.225
1931.47292	15198.325
1934.57473	15130.925
1937.67453	15093.625
1940.77232	15053.325
1943.86808	15019.225
1946.96184	14965.425
1950.05358	14925.125
1953.14331	14858.325
1956.23103	14801.425
1959.31675	14764.225
1962.40046	14713.525
1965.48217	14692.825
1968.56188	14620.425
1971.63959	14563.525
1974.7153	14514.725
1977.78901	14487.425
1980.86073	14446.625
1983.93046	14415.525
1986.99819	14343.325
1990.06394	14324.225
1993.1277	14287.325
1996.18947	14215.925
1999.24925	14150.225
2002.30706	14129.125
2005.36288	14076.225
2008.41672	14048.925
2011.46859	14023.225
2014.51848	13961.625
2017.56639	13923.625
2020.61233	13893.025
2023.6563	13851.425
2026.6983	13844.025
2029.73833	13810.625
2032.7764	13773.225
2035.8125	13755.725
2038.84664	13744.825
2041.87881	13766.225
2044.90903	13719.725
2047.93729	13699.625
2050.96359	13688.225
2053.98794	13672.325
2057.01034	13660.025
2060.03078	13648.925
2063.04927	13641.625
2066.06582	13601.525
2069.08042	13604.525
2072.09307	13585.025
2075.10378	13585.325
2078.11255	13547.225
2081.11938	13549.225
2084.12426	13534.825
2087.12722	13542.025
2090.12824	13556.525
2093.12732	13572.925
2096.12447	13530.425
2099.11969	13540.025
2102.11299	13545.825
2105.10435	13571.625
2108.09379	13566.525
2111.08131	13550.025
2114.0669	13562.425
2117.05057	13571.625
2120.03233	13577.825
2123.01216	13589.125
2125.99008	13576.425
2128.96609	13566.125
2131.94018	13590.525
2134.91236	13585.625
2137.88263	13584.425
2140.851	13597.625
2143.81746	13609.125
2146.78201	13602.325
2149.74466	13640.525
2152.7054	13617.025
2155.66425	13599.325
2158.6212	13621.025
2161.57625	13593.825
2164.52941	13602.725
2167.48067	13576.125
2170.43004	13546.725
2173.37752	13557.625
2176.32311	13543.825
2179.26681	13562.525
2182.20863	13536.525
2185.14856	13576.325
2188.08661	13541.025
2191.02278	13551.725
2193.95707	13549.025
2196.88948	13537.725
2199.82001	13532.825
2202.74867	13504.825
2205.67545	13521.025
2208.60037	13479.925
2211.52341	13466.025
2214.44458	13444.525
2217.36388	13420.025
2220.28132	13430.625
2223.1969	13386.425
2226.11061	13343.025
2229.02246	13312.425
2231.93245	13303.525
2234.84058	13272.125
2237.74686	13255.825
2240.65128	13244.425
2243.55385	13235.225
2246.45456	13241.825
2249.35343	13193.725
2252.25044	13181.525
2255.14561	13142.825
2258.03893	13143.225
2260.93041	13093.725
2263.82004	13039.025
2266.70783	13015.225
2269.59378	12979.925
2272.4779	12931.225
2275.36017	12891.725
2278.24061	12891.225
2281.11922	12874.725
2283.996	12846.625
2286.87094	12831.625
2289.74405	12774.725
2292.61534	12768.425
2295.4848	12767.025
2298.35243	12765.825
2301.21824	12748.725
2304.08223	12761.525
2306.94439	12770.725
2309.80474	12751.525
2312.66327	12748.125
2315.51999	12744.725
2318.37489	12741.425
2321.22797	12710.225
2324.07925	12702.425
2326.92871	12682.225
2329.77637	12698.225
2332.62222	12672.025
2335.46626	12688.225
2338.3085	12658.125
2341.14893	12642.325
2343.98756	12620.125
2346.8244	12645.125
2349.65943	12669.025
2352.49267	12635.225
2355.32411	12642.225
2358.15376	12625.925
2360.98161	12647.425
2363.80768	12592.325
2366.63195	12596.725
2369.45444	12600.225
2372.27514	12574.825
2375.09405	12559.725
2377.91118	12532.225
2380.72652	12515.025
2383.54009	12487.025
2386.35187	12470.125
2389.16188	12432.625
2391.97011	12415.025
2394.77657	12388.325
2397.58125	12356.425
2400.38416	12354.725
2403.18529	12341.225
2405.98466	12301.425
2408.78226	12322.425
2411.57809	12281.925
2414.37216	12287.525
2417.16446	12258.725
2419.955	12249.025
2422.74378	12239.225
2425.5308	12241.325
2428.31606	12225.425
2431.09956	12222.925
2433.88131	12205.225
2436.6613	12192.725
2439.43954	12183.325
2442.21603	12176.125
2444.99077	12152.825
2447.76377	12174.925
2450.53501	12169.125
2453.30451	12187.125
2456.07226	12151.525
2458.83827	12152.925
2461.60254	12193.525
2464.36507	12208.525
2467.12586	12178.825
2469.88492	12145.625
2472.64224	12167.625
2475.39782	12158.525
2478.15167	12173.525
2480.90379	12180.625
2483.65417	12167.025
2486.40283	12190.225
2489.14976	12178.125
2491.89497	12173.625
2494.63845	12197.225
2497.3802	12177.125
2500.12024	12189.625
2502.85855	12183.425
2505.59514	12184.625
2508.33002	12188.925
2511.06318	12169.025
2513.79462	12156.025
2516.52435	12171.625
2519.25237	12146.625
2521.97867	12132.525
2524.70327	12137.425
2527.42616	12109.025
2530.14734	12135.125
2532.86681	12094.625
2535.58458	12089.625
2538.30065	12109.625
2541.01501	12068.425
2543.72768	12050.825
2546.43864	12035.425
2549.14791	12022.825
2551.85548	12035.225
2554.56136	12016.425
2557.26554	12028.025
2559.96803	11974.425
2562.66883	12004.425
2565.36794	12015.625
2568.06536	11968.625
2570.7611	11986.425
2573.45514	11964.025
2576.14751	11969.725
2578.83819	11938.725
2581.52719	11932.725
2584.21451	11935.225
2586.90015	11955.025
2589.58411	11944.525
2592.2664	11939.225
2594.94701	11954.625
2597.62594	11948.625
2600.30321	11921.525
2602.9788	11903.025
2605.65273	11912.825
2608.32498	11925.925
2610.99557	11915.625
2613.66449	11916.825
2616.33175	11937.725
2618.99734	11956.925
2621.66128	11932.625
2624.32355	11930.425
2626.98416	11943.325
2629.64311	11963.825
2632.30041	11946.725
2634.95605	11950.525
2637.61004	11936.925
2640.26238	11937.625
2642.91306	11920.025
2645.56209	11928.225
2648.20948	11908.725
2650.85521	11901.825
2653.4993	11908.925
2656.14175	11885.125
2658.78255	11940.625
2661.42171	11922.025
2664.05923	11951.225
2666.6951	11969.025
2669.32934	11957.325
2671.96194	11949.625
2674.59291	11954.125
2677.22224	11963.925
2679.84993	11955.625
2682.476	11940.925
2685.10043	11931.725
2687.72324	11928.625
2690.34441	11931.125
2692.96396	11929.325
2695.58188	11937.225
2698.19818	11934.125
2700.81285	11934.625
2703.4259	11964.225
2706.03733	12000.625
2708.64714	11996.425
2711.25533	12000.225
2713.86191	11949.825
2716.46687	11997.925
2719.07021	11989.325
2721.67194	12030.725
2724.27206	12001.225
2726.87057	12054.825
2729.46747	12022.825
2732.06276	12029.725
2734.65644	12045.125
2737.24852	12037.925
2739.83899	12025.325
2742.42786	12026.825
2745.01513	12015.025
2747.60079	12002.225
2750.18486	12021.725
2752.76733	12026.425
2755.3482	12010.925
2757.92747	12054.825
2760.50515	12046.525
2763.08123	12078.725
2765.65573	12046.325
2768.22863	12042.225
2770.79994	12049.525
2773.36967	12041.925
2775.9378	12046.425
2778.50435	12059.125
2781.06932	12026.025
2783.6327	12051.525
2786.1945	12032.325
2788.75471	12037.025
2791.31335	11999.925
2793.87041	12015.425
2796.42589	11970.825
2798.97979	11997.025
2801.53212	11956.425
2804.08288	11943.825
2806.63206	11922.125
2809.17967	11928.225
2811.72571	11868.625
2814.27018	11882.725
2816.81308	11837.325
2819.35442	11825.025
2821.89419	11792.225
2824.43239	11792.125
2826.96904	11779.325
2829.50412	11783.725
2832.03763	11752.125
2834.56959	11760.925
2837.1	11755.225
2839.62884	11734.125
2842.15613	11749.625
2844.68186	11757.125
2847.20604	11804.425
2849.72867	11824.425
2852.24974	11815.925
2854.76927	11818.825
2857.28724	11787.625
2859.80367	11772.225
2862.31855	11765.525
2864.83189	11756.425
2867.34368	11733.525
2869.85393	11744.225
2872.36264	11726.225
2874.8698	11736.225
2877.37543	11732.525
2879.87952	11731.325
2882.38207	11738.525
2884.88308	11745.125
2887.38256	11786.125
2889.88051	11750.625
2892.37692	11766.025
2894.8718	11762.525
2897.36515	11789.125
2899.85698	11810.525
2902.34727	11808.925
2904.83604	11832.225
2907.32328	11850.325
2909.809	11853.425
2912.29319	11854.025
2914.77587	11848.425
2917.25702	11864.125
2919.73665	11811.625
2922.21476	11820.525
2924.69136	11839.525
2927.16644	11873.225
2929.64	11847.925
2932.11205	11836.125
2934.58258	11818.225
2937.05161	11821.025
2939.51912	11836.725
2941.98513	11816.325
2944.44962	11752.325
2946.91261	11690.625
2949.37409	11714.925
2951.83407	11682.325
2954.29254	11680.425
2956.74951	11669.425
2959.20498	11634.425
2961.65895	11633.225
2964.11142	11591.425
2966.56239	11571.325
2969.01186	11571.625
2971.45984	11519.825
2973.90632	11509.525
2976.35131	11449.925
2978.7948	11427.425
2981.23681	11415.325
2983.67732	11392.825
2986.11635	11350.225
2988.55388	11332.625
2990.98993	11340.625
2993.4245	11289.925
2995.85758	11248.325
2998.28917	11247.025
3000.71928	11216.825
3003.14791	11203.125
3005.57506	11196.925
3008.00073	11162.525
3010.42493	11148.525
3012.84764	11099.825
3015.26888	11092.425
3017.68865	11070.425
3020.10694	11059.825
3022.52376	11049.925
3024.9391	11010.025
3027.35298	10995.825
3029.76539	10960.525
3032.17632	11002.225
3034.5858	10990.425
3036.9938	10966.025
3039.40034	10965.525
3041.80542	10976.725
3044.20903	10942.025
3046.61118	10932.225
3049.01187	10923.625
3051.4111	10883.825
3053.80888	10835.225
3056.20519	10811.325
3058.60005	10810.925
3060.99345	10782.525
3063.3854	10771.125
3065.7759	10765.725
3068.16494	10716.225
3070.55254	10663.525
3072.93868	10633.625
3075.32338	10619.325
3077.70662	10597.425
3080.08842	10571.525
3082.46878	10518.925
3084.84769	10501.325
3087.22515	10498.125
3089.60118	10518.325
3091.97576	10506.025
3094.3489	10503.425
3096.72061	10484.725
3099.09087	10485.625
3101.4597	10466.225
3103.82709	10486.525
3106.19305	10448.225
3108.55757	10450.625
3110.92066	10405.325
3113.28232	10369.625
3115.64255	10339.825
3118.00134	10314.025
3120.35871	10282.025
3122.71466	10271.025
3125.06917	10265.125
3127.42226	10252.225
