Data from AgNPs_FTO_APTES_UA_2uM_CRN_50uM_R6G_10uM_NaF_0.1M_Addition_RamanShift__38__15-20-35-279.txt Node

Date: Wed Feb 02 15:20:35 GMT 2022
User: TCL
Spectrometer: QEP01345
Trigger mode: 4
Integration Time (sec): 7.000000E0
Scans to average: 10
Electric dark correction enabled: true
Nonlinearity correction enabled: false
Boxcar width: 0
XAxis mode: Raman Shifts
Number of Pixels in Spectrum: 1044
>>>>>Begin Spectral Data<<<<<
46.04893	0.85
50.45542	-0.25
54.85868	-0.95
59.25871	-1.35
63.6555	84.95
68.04907	89.05
72.43941	92.85
76.82654	103.55
81.21044	107.65
85.59113	113.95
89.96862	114.85
94.34289	116.35
98.71396	119.65
103.08183	125.85
107.4465	130.35
111.80798	136.35
116.16626	135.25
120.52136	139.85
124.87327	147.05
129.222	153.25
133.56755	162.85
137.90993	172.25
142.24913	190.15
146.58517	213.65
150.91804	245.35
155.24774	297.75
159.57429	368.45
163.89768	462.25
168.21792	615.95
172.53501	844.45
176.84895	1161.75
181.15975	1633.55
185.46741	2284.75
189.77193	3154.95
194.07331	4201.85
198.37157	5394.15
202.6667	6684.05
206.9587	7903.75
211.24758	9150.15
215.53334	10391.25
219.81599	11697.25
224.09553	13168.95
228.37195	14722.85
232.64527	16389.25
236.91549	18151.05
241.18261	19926.25
245.44663	21645.05
249.70755	23119.95
253.96539	24453.55
258.22014	25608.85
262.4718	26542.55
266.72039	27209.75
270.96589	27576.95
275.20832	27638.85
279.44768	27553.05
283.68397	27378.95
287.91719	27256.65
292.14735	27218.55
296.37445	27207.65
300.59849	27372.85
304.81948	27485.45
309.03742	27409.85
313.25231	27160.75
317.46415	26596.25
321.67296	25932.15
325.87872	25390.95
330.08145	25046.15
334.28114	24907.75
338.47781	25008.65
342.67145	25154.55
346.86207	25517.55
351.04966	25851.05
355.23424	26201.65
359.4158	26606.05
363.59435	26893.45
367.76989	27065.25
371.94243	27230.45
376.11196	27288.15
380.27849	27274.45
384.44203	27369.95
388.60257	27620.35
392.76012	27962.05
396.91468	28451.45
401.06626	28949.35
405.21485	29148.45
409.36047	29078.95
413.50311	28785.75
417.64277	28643.65
421.77947	28842.95
425.9132	28960.85
430.04396	29167.15
434.17176	29304.75
438.2966	29496.35
442.41849	29945.65
446.53742	30816.85
450.6534	31778.55
454.76644	32420.25
458.87653	32652.45
462.98368	32550.45
467.08789	32117.35
471.18916	31710.65
475.2875	31463.35
479.38291	31492.55
483.4754	31443.85
487.56496	31095.35
491.6516	30379.25
495.73531	29506.35
499.81612	28961.55
503.89401	28888.35
507.96899	28992.55
512.04106	28899.65
516.11023	28586.55
520.1765	28124.05
524.23987	27683.85
528.30034	27295.15
532.35792	26958.75
536.41261	26666.05
540.46441	26412.65
544.51333	26461.55
548.55936	26895.95
552.60252	27536.25
556.64279	28393.65
560.6802	29136.55
564.71473	29681.05
568.7464	30524.55
572.7752	31816.05
576.80114	33253.95
580.82422	34561.55
584.84444	35976.25
588.86181	37746.55
592.87633	38977.35
596.888	38307.25
600.89682	36015.65
604.9028	34682.55
608.90594	35441.65
612.90624	36458.95
616.90371	33864.05
620.89834	29075.85
624.89015	26987.45
628.87913	26890.55
632.86528	27119.25
636.84862	26980.15
640.82913	26463.15
644.80683	25819.25
648.78172	25426.25
652.75379	25423.55
656.72306	25660.15
660.68952	25843.65
664.65319	25643.75
668.61405	25177.15
672.57211	25116.15
676.52738	25234.05
680.47986	25282.45
684.42955	25141.05
688.37646	25016.75
692.32058	25182.05
696.26192	25560.15
700.20048	25952.05
704.13626	26284.95
708.06928	26388.65
711.99952	26434.55
715.927	26450.85
719.85171	26462.55
723.77365	26240.15
727.69284	25770.75
731.60928	25321.15
735.52295	25162.65
739.43388	25104.05
743.34206	25157.15
747.24749	25370.15
751.15017	25741.25
755.05012	26306.15
758.94733	27204.35
762.8418	28601.15
766.73354	30448.45
770.62254	31893.45
774.50882	31660.85
778.39237	30015.55
782.27321	27979.75
786.15132	26416.95
790.02671	25468.55
793.89938	25005.05
797.76935	24816.45
801.6366	24754.85
805.50115	24733.65
809.36299	24645.25
813.22213	24478.95
817.07857	24375.05
820.93231	24253.75
824.78336	24092.15
828.63172	23839.35
832.47738	23727.95
836.32036	23676.25
840.16066	23742.45
843.99827	23699.35
847.8332	23643.75
851.66546	23617.55
855.49504	23656.45
859.32195	23638.85
863.1462	23528.35
866.96777	23454.75
870.78668	23391.55
874.60293	23327.55
878.41652	23315.25
882.22745	23409.15
886.03573	23427.45
889.84136	23424.85
893.64433	23336.55
897.44466	23268.85
901.24235	23215.45
905.0374	23154.85
908.8298	23144.55
912.61957	23274.35
916.40671	23604.15
920.19121	24077.05
923.97308	24452.35
927.75233	24344.45
931.52895	23935.75
935.30295	23315.05
939.07433	22807.35
942.84309	22438.55
946.60924	22213.05
950.37278	22167.05
954.13371	22183.95
957.89203	22264.45
961.64774	22295.35
965.40086	22339.25
969.15137	22213.65
972.89929	22013.45
976.64461	21864.45
980.38733	21784.75
984.12747	21781.95
987.86502	21844.65
991.59999	21966.45
995.33237	22171.05
999.06217	22524.75
1002.78939	22977.75
1006.51404	23488.65
1010.23611	23953.95
1013.95561	24229.55
1017.67255	24289.95
1021.38692	24021.15
1025.09872	23582.25
1028.80796	23315.55
1032.51465	23289.15
1036.21877	23514.35
1039.92035	23687.45
1043.61937	23736.55
1047.31584	23726.45
1051.00976	23677.35
1054.70114	23709.35
1058.38998	23934.45
1062.07627	24240.55
1065.76003	24578.65
1069.44126	24935.25
1073.11995	25413.65
1076.79611	25724.65
1080.46974	25789.55
1084.14085	25914.65
1087.80943	26261.45
1091.47549	26574.65
1095.13903	26698.45
1098.80005	26366.45
1102.45857	25653.15
1106.11456	24962.85
1109.76805	24636.85
1113.41903	24597.55
1117.06751	24722.55
1120.71348	25012.45
1124.35696	25303.05
1127.99793	25704.05
1131.63641	25979.25
1135.2724	25943.45
1138.90589	26012.15
1142.5369	26277.85
1146.16542	26699.85
1149.79145	27224.95
1153.415	27789.95
1157.03607	28535.45
1160.65467	29770.15
1164.27079	31680.45
1167.88443	33696.75
1171.49561	35541.65
1175.10432	37735.45
1178.71056	40370.55
1182.31434	42834.85
1185.91565	43884.65
1189.51451	43489.45
1193.11091	42515.25
1196.70485	41372.25
1200.29634	40095.55
1203.88538	39451.85
1207.47197	39461.75
1211.05612	39518.55
1214.63782	38754.55
1218.21708	37294.25
1221.79391	35527.45
1225.36829	34188.35
1228.94024	33310.95
1232.50976	32659.55
1236.07685	32208.65
1239.6415	31915.35
1243.20374	32033.55
1246.76355	32344.75
1250.32093	32872.15
1253.8759	33672.45
1257.42845	34661.75
1260.97859	35779.35
1264.52631	36840.25
1268.07163	37939.95
1271.61453	39120.05
1275.15503	40385.85
1278.69312	42010.45
1282.22882	43780.25
1285.76211	45994.75
1289.29301	48633.05
1292.82151	51854.45
1296.34761	55582.55
1299.87133	59706.45
1303.39266	63397.55
1306.9116	65924.05
1310.42815	67359.65
1313.94233	67792.35
1317.45412	67339.85
1320.96354	66704.75
1324.47058	66361.95
1327.97525	66411.85
1331.47754	66318.35
1334.97747	65987.85
1338.47502	65144.45
1341.97022	63629.75
1345.46305	61730.65
1348.95352	60023.35
1352.44163	59081.95
1355.92738	59402.95
1359.41078	61013.35
1362.89183	62187.45
1366.37053	61221.15
1369.84688	57019.75
1373.32088	51179.85
1376.79254	47158.75
1380.26186	46249.75
1383.72883	47148.25
1387.19347	48016.75
1390.65578	48097.55
1394.11575	48259.55
1397.57339	49089.45
1401.0287	50324.15
1404.48168	51147.75
1407.93234	50739.05
1411.38068	49008.05
1414.82669	46465.75
1418.27039	43607.65
1421.71177	40961.55
1425.15083	38869.25
1428.58758	37938.65
1432.02203	38308.05
1435.45416	39630.05
1438.88399	41419.35
1442.31151	42881.65
1445.73673	43760.85
1449.15965	44482.25
1452.58027	44845.35
1455.9986	44878.05
1459.41463	44963.65
1462.82837	45396.85
1466.23982	46147.85
1469.64898	46857.25
1473.05586	47219.25
1476.46045	47154.15
1479.86276	46613.25
1483.26279	45784.35
1486.66054	45190.05
1490.05602	45187.65
1493.44922	45407.75
1496.84016	45722.85
1500.22882	46066.05
1503.61521	46675.85
1506.99934	47434.65
1510.38121	48140.85
1513.76081	48423.65
1517.13816	48155.35
1520.51324	47784.25
1523.88607	47842.05
1527.25665	48481.65
1530.62498	48989.45
1533.99105	49019.05
1537.35488	48258.65
1540.71647	46742.75
1544.07581	44836.75
1547.4329	43003.45
1550.78776	41388.75
1554.14038	40349.35
1557.49077	39735.25
1560.83892	39340.85
1564.18484	39166.85
1567.52853	39299.85
1570.86999	39776.55
1574.20922	40995.15
1577.54624	42390.05
1580.88103	43499.95
1584.2136	44912.55
1587.54395	47082.95
1590.87208	49968.85
1594.19801	53067.05
1597.52172	55386.15
1600.84321	55242.05
1604.16251	51663.95
1607.47959	46371.15
1610.79447	41298.25
1614.10715	37003.95
1617.41763	33800.05
1620.7259	31788.45
1624.03199	30881.95
1627.33587	31066.15
1630.63757	32464.75
1633.93707	35325.05
1637.23439	39867.95
1640.52951	46466.85
1643.82246	54102.95
1647.11321	60021.65
1650.40179	60722.15
1653.68819	55265.95
1656.97241	46617.95
1660.25446	38301.85
1663.53433	32214.85
1666.81203	28270.25
1670.08756	25747.25
1673.36092	24208.95
1676.63211	23177.95
1679.90115	22513.35
1683.16801	21970.25
1686.43272	21627.55
1689.69527	21363.45
1692.95567	21098.35
1696.2139	21002.35
1699.46999	20840.05
1702.72392	20742.85
1705.97571	20630.45
1709.22535	20481.65
1712.47284	20410.65
1715.71819	20381.75
1718.96139	20264.75
1722.20246	20184.65
1725.44139	20084.85
1728.67818	19899.85
1731.91284	19821.55
1735.14537	19670.45
1738.37576	19561.35
1741.60403	19448.75
1744.83017	19387.95
1748.05418	19355.95
1751.27607	19292.45
1754.49584	19236.55
1757.71349	19238.45
1760.92903	19222.05
1764.14244	19189.85
1767.35375	19145.95
1770.56294	19065.15
1773.77002	19018.35
1776.97499	18965.95
1780.17785	18934.75
1783.37861	18902.95
1786.57727	18850.65
1789.77382	18776.75
1792.96828	18742.65
1796.16064	18692.95
1799.3509	18632.45
1802.53907	18568.05
1805.72514	18518.95
1808.90913	18496.95
1812.09102	18461.45
1815.27083	18428.75
1818.44856	18363.25
1821.6242	18331.95
1824.79776	18306.55
1827.96924	18310.55
1831.13864	18261.95
1834.30597	18291.55
1837.47122	18307.65
1840.6344	18280.55
1843.7955	18307.45
1846.95454	18268.85
1850.11151	18267.45
1853.26642	18243.75
1856.41926	18216.15
1859.57004	18190.35
1862.71876	18158.25
1865.86542	18119.15
1869.01003	18132.35
1872.15258	18095.35
1875.29308	18060.35
1878.43152	18065.65
1881.56792	18021.05
1884.70227	17992.85
1887.83457	17971.45
1890.96482	17947.55
1894.09304	17914.65
1897.21921	17904.65
1900.34335	17890.35
1903.46544	17842.85
1906.58551	17817.75
1909.70353	17782.45
1912.81953	17747.75
1915.93349	17705.45
1919.04543	17682.75
1922.15534	17618.15
1925.26322	17608.25
1928.36908	17521.65
1931.47292	17485.75
1934.57473	17423.75
1937.67453	17369.65
1940.77232	17341.65
1943.86808	17302.25
1946.96184	17253.75
1950.05358	17175.55
1953.14331	17160.65
1956.23103	17113.05
1959.31675	17052.75
1962.40046	17019.75
1965.48217	16920.25
1968.56188	16866.85
1971.63959	16802.85
1974.7153	16795.05
1977.78901	16714.95
1980.86073	16645.75
1983.93046	16595.15
1986.99819	16538.45
1990.06394	16522.25
1993.1277	16469.85
1996.18947	16363.85
1999.24925	16352.65
2002.30706	16250.05
2005.36288	16249.65
2008.41672	16201.45
2011.46859	16142.85
2014.51848	16120.35
2017.56639	16054.05
2020.61233	15997.25
2023.6563	15945.35
2026.6983	15954.85
2029.73833	15917.45
2032.7764	15875.25
2035.8125	15849.85
2038.84664	15816.25
2041.87881	15830.05
2044.90903	15773.55
2047.93729	15736.75
2050.96359	15724.35
2053.98794	15675.85
2057.01034	15675.35
2060.03078	15678.55
2063.04927	15653.65
2066.06582	15652.65
2069.08042	15623.95
2072.09307	15600.35
2075.10378	15604.05
2078.11255	15544.25
2081.11938	15560.35
2084.12426	15536.55
2087.12722	15534.95
2090.12824	15527.85
2093.12732	15535.05
2096.12447	15557.65
2099.11969	15547.75
2102.11299	15554.15
2105.10435	15565.25
2108.09379	15545.25
2111.08131	15589.85
2114.0669	15599.25
2117.05057	15574.45
2120.03233	15607.75
2123.01216	15587.95
2125.99008	15567.75
2128.96609	15577.65
2131.94018	15559.55
2134.91236	15556.45
2137.88263	15557.85
2140.851	15570.95
2143.81746	15598.05
2146.78201	15565.85
2149.74466	15555.75
2152.7054	15565.15
2155.66425	15569.05
2158.6212	15551.95
2161.57625	15540.35
2164.52941	15520.25
2167.48067	15521.15
2170.43004	15482.85
2173.37752	15473.85
2176.32311	15495.45
2179.26681	15493.65
2182.20863	15477.05
2185.14856	15505.95
2188.08661	15487.35
2191.02278	15501.75
2193.95707	15452.15
2196.88948	15456.05
2199.82001	15429.35
2202.74867	15416.85
2205.67545	15395.45
2208.60037	15340.25
2211.52341	15290.55
2214.44458	15301.55
2217.36388	15286.75
2220.28132	15263.65
2223.1969	15269.25
2226.11061	15206.75
2229.02246	15191.65
2231.93245	15191.05
2234.84058	15168.45
2237.74686	15097.05
2240.65128	15110.15
2243.55385	15095.35
2246.45456	15063.85
2249.35343	15030.95
2252.25044	14961.65
2255.14561	14952.75
2258.03893	14922.65
2260.93041	14885.95
2263.82004	14829.55
2266.70783	14795.25
2269.59378	14744.35
2272.4779	14710.35
2275.36017	14651.45
2278.24061	14637.25
2281.11922	14587.55
2283.996	14581.05
2286.87094	14545.65
2289.74405	14513.95
2292.61534	14519.95
2295.4848	14502.15
2298.35243	14519.15
2301.21824	14479.35
2304.08223	14481.55
2306.94439	14498.35
2309.80474	14495.55
2312.66327	14456.55
2315.51999	14470.45
2318.37489	14448.05
2321.22797	14393.15
2324.07925	14401.65
2326.92871	14386.75
2329.77637	14358.55
2332.62222	14337.15
2335.46626	14361.75
2338.3085	14339.35
2341.14893	14350.25
2343.98756	14320.25
2346.8244	14314.75
2349.65943	14320.55
2352.49267	14282.35
2355.32411	14315.25
2358.15376	14287.65
2360.98161	14256.35
2363.80768	14281.65
2366.63195	14228.15
2369.45444	14244.75
2372.27514	14204.15
2375.09405	14205.85
2377.91118	14159.55
2380.72652	14146.05
2383.54009	14118.85
2386.35187	14116.75
2389.16188	14066.55
2391.97011	14018.55
2394.77657	14031.35
2397.58125	14002.65
2400.38416	13964.85
2403.18529	13943.35
2405.98466	13920.55
2408.78226	13909.75
2411.57809	13918.05
2414.37216	13882.15
2417.16446	13914.05
2419.955	13830.05
2422.74378	13866.65
2425.5308	13864.95
2428.31606	13835.65
2431.09956	13849.85
2433.88131	13812.05
2436.6613	13793.45
2439.43954	13804.25
2442.21603	13791.55
2444.99077	13760.25
2447.76377	13766.45
2450.53501	13790.85
2453.30451	13778.45
2456.07226	13755.45
2458.83827	13782.45
2461.60254	13780.25
2464.36507	13738.15
2467.12586	13745.75
2469.88492	13743.95
2472.64224	13742.95
2475.39782	13768.25
2478.15167	13784.65
2480.90379	13762.05
2483.65417	13752.75
2486.40283	13750.75
2489.14976	13743.95
2491.89497	13733.75
2494.63845	13768.25
2497.3802	13738.75
2500.12024	13747.25
2502.85855	13759.95
2505.59514	13746.45
2508.33002	13744.15
2511.06318	13735.45
2513.79462	13709.45
2516.52435	13697.45
2519.25237	13711.15
2521.97867	13665.35
2524.70327	13696.55
2527.42616	13686.55
2530.14734	13680.35
2532.86681	13642.15
2535.58458	13645.05
2538.30065	13626.55
2541.01501	13635.85
2543.72768	13586.25
2546.43864	13614.75
2549.14791	13576.65
2551.85548	13583.15
2554.56136	13554.05
2557.26554	13592.75
2559.96803	13530.15
2562.66883	13580.55
2565.36794	13561.75
2568.06536	13561.45
2570.7611	13539.65
2573.45514	13505.75
2576.14751	13525.65
2578.83819	13531.85
2581.52719	13491.85
2584.21451	13495.45
2586.90015	13468.25
2589.58411	13452.25
2592.2664	13468.15
2594.94701	13427.45
2597.62594	13443.85
2600.30321	13437.85
2602.9788	13420.65
2605.65273	13417.45
2608.32498	13428.15
2610.99557	13419.95
2613.66449	13436.95
2616.33175	13427.15
2618.99734	13446.95
2621.66128	13420.45
2624.32355	13405.15
2626.98416	13420.05
2629.64311	13394.45
2632.30041	13405.75
2634.95605	13390.85
2637.61004	13405.35
2640.26238	13371.25
2642.91306	13381.45
2645.56209	13382.95
2648.20948	13359.75
2650.85521	13364.55
2653.4993	13397.05
2656.14175	13413.75
2658.78255	13399.45
2661.42171	13398.95
2664.05923	13456.45
2666.6951	13430.75
2669.32934	13470.25
2671.96194	13432.65
2674.59291	13440.05
2677.22224	13432.95
2679.84993	13440.75
2682.476	13423.15
2685.10043	13435.55
2687.72324	13407.75
2690.34441	13426.85
2692.96396	13423.55
2695.58188	13426.75
2698.19818	13438.05
2700.81285	13445.75
2703.4259	13441.25
2706.03733	13485.45
2708.64714	13467.55
2711.25533	13465.45
2713.86191	13460.15
2716.46687	13515.65
2719.07021	13493.55
2721.67194	13538.85
2724.27206	13525.25
2726.87057	13530.65
2729.46747	13545.05
2732.06276	13549.05
2734.65644	13530.35
2737.24852	13530.05
2739.83899	13516.65
2742.42786	13499.25
2745.01513	13482.65
2747.60079	13491.35
2750.18486	13489.95
2752.76733	13508.25
2755.3482	13503.05
2757.92747	13538.45
2760.50515	13512.05
2763.08123	13550.25
2765.65573	13527.35
2768.22863	13513.45
2770.79994	13478.75
2773.36967	13488.85
2775.9378	13475.35
2778.50435	13511.95
2781.06932	13484.75
2783.6327	13460.75
2786.1945	13460.45
2788.75471	13453.55
2791.31335	13430.45
2793.87041	13447.85
2796.42589	13412.65
2798.97979	13424.75
2801.53212	13397.85
2804.08288	13378.45
2806.63206	13348.35
2809.17967	13338.25
2811.72571	13312.95
2814.27018	13297.35
2816.81308	13267.45
2819.35442	13230.15
2821.89419	13215.65
2824.43239	13203.55
2826.96904	13182.55
2829.50412	13192.15
2832.03763	13159.45
2834.56959	13177.25
2837.1	13159.05
2839.62884	13143.85
2842.15613	13142.45
2844.68186	13197.15
2847.20604	13214.75
2849.72867	13230.25
2852.24974	13205.35
2854.76927	13220.05
2857.28724	13201.85
2859.80367	13208.45
2862.31855	13129.15
2864.83189	13115.65
2867.34368	13135.05
2869.85393	13066.95
2872.36264	13093.45
2874.8698	13085.85
2877.37543	13069.75
2879.87952	13051.65
2882.38207	13075.55
2884.88308	13063.05
2887.38256	13100.35
2889.88051	13075.75
2892.37692	13101.45
2894.8718	13065.95
2897.36515	13087.55
2899.85698	13107.25
2902.34727	13126.55
2904.83604	13125.45
2907.32328	13147.55
2909.809	13148.15
2912.29319	13140.45
2914.77587	13118.45
2917.25702	13135.25
2919.73665	13090.65
2922.21476	13095.55
2924.69136	13097.15
2927.16644	13143.65
2929.64	13157.65
2932.11205	13139.75
2934.58258	13117.95
2937.05161	13087.65
2939.51912	13108.55
2941.98513	13073.05
2944.44962	13036.85
2946.91261	12956.15
2949.37409	12964.25
2951.83407	12947.05
2954.29254	12932.55
2956.74951	12918.15
2959.20498	12918.55
2961.65895	12891.55
2964.11142	12878.25
2966.56239	12836.65
2969.01186	12830.55
2971.45984	12815.15
2973.90632	12780.85
2976.35131	12742.15
2978.7948	12692.85
2981.23681	12664.75
2983.67732	12631.45
2986.11635	12614.05
2988.55388	12570.85
2990.98993	12554.55
2993.4245	12523.65
2995.85758	12486.95
2998.28917	12466.45
3000.71928	12445.15
3003.14791	12428.55
3005.57506	12383.75
3008.00073	12345.15
3010.42493	12291.65
3012.84764	12305.85
3015.26888	12273.55
3017.68865	12239.95
3020.10694	12223.35
3022.52376	12197.65
3024.9391	12185.15
3027.35298	12140.65
3029.76539	12143.15
3032.17632	12139.15
3034.5858	12145.25
3036.9938	12146.75
3039.40034	12101.45
3041.80542	12093.35
3044.20903	12070.35
3046.61118	12082.55
3049.01187	12022.65
3051.4111	12006.05
3053.80888	11952.95
3056.20519	11958.05
3058.60005	11906.15
3060.99345	11915.55
3063.3854	11870.25
3065.7759	11836.45
3068.16494	11782.55
3070.55254	11714.45
3072.93868	11717.15
3075.32338	11664.05
3077.70662	11632.85
3080.08842	11608.05
3082.46878	11610.45
3084.84769	11581.45
3087.22515	11566.75
3089.60118	11572.15
3091.97576	11568.05
3094.3489	11538.45
3096.72061	11526.25
3099.09087	11540.55
3101.4597	11499.05
3103.82709	11488.85
3106.19305	11495.95
3108.55757	11475.45
3110.92066	11416.25
3113.28232	11386.85
3115.64255	11380.65
3118.00134	11328.05
3120.35871	11268.15
3122.71466	11265.45
3125.06917	11274.85
3127.42226	11266.55
3129.77393	11255.45
3132.12417	11240.45
3134.47299	11221.35
3136.82039	11190.45
3139.16636	11210.05
3141.51092	11174.85
3143.85406	11165.35
3146.19579	11197.85
3148.53609	11173.65
3150.87499	11179.35
3153.21246	11176.65
3155.54853	11185.85
3157.88318	11133.65
3160.21642	11159.25
3162.54826	11148.95
3164.87868	11128.15
3167.2077	11139.05
3169.5353	11134.95
3171.86151	11132.95
3174.18631	11104.05
3176.5097	11110.15
3178.83169	11086.85
3181.15228	11101.65
3183.47147	11033.15
3185.78926	11041.35
3188.10565	11030.25
3190.42065	11017.85
3192.73424	11019.65
3195.04645	10979.55
3197.35725	10998.95
3199.66667	10960.75
3201.97469	10955.15
3204.28132	10956.75
3206.58656	10964.45
3208.8904	10944.45
3211.19287	10919.15
3213.49394	10938.45
3215.79363	10943.75
3218.09193	10933.25
3220.38884	10903.05
3222.68438	10938.15
3224.97853	10904.95
3227.2713	10899.05
3229.56269	10874.45
3231.8527	10887.95
3234.14133	10863.05
3236.42858	10858.85
3238.71446	10858.15
