Data from AgNPs_FTO_APTES_UA_2uM_CRN_200uM_R6G_10uM_NaF_0.1M_Addition_RamanShift__28__16-51-35-385.txt Node

Date: Wed Feb 02 16:51:35 GMT 2022
User: TCL
Spectrometer: QEP01345
Trigger mode: 4
Integration Time (sec): 7.000000E0
Scans to average: 10
Electric dark correction enabled: true
Nonlinearity correction enabled: false
Boxcar width: 0
XAxis mode: Raman Shifts
Number of Pixels in Spectrum: 1044
>>>>>Begin Spectral Data<<<<<
46.04893	-0.4875
50.45542	0.4125
54.85868	-0.1875
59.25871	0.3125
63.6555	65.8125
68.04907	69.6125
72.43941	70.0125
76.82654	80.1125
81.21044	85.2125
85.59113	86.7125
89.96862	84.5125
94.34289	86.8125
98.71396	91.7125
103.08183	98.0125
107.4465	97.7125
111.80798	102.9125
116.16626	103.5125
120.52136	105.2125
124.87327	112.8125
129.222	116.0125
133.56755	124.0125
137.90993	129.9125
142.24913	144.1125
146.58517	162.9125
150.91804	184.3125
155.24774	222.5125
159.57429	273.2125
163.89768	343.4125
168.21792	465.1125
172.53501	627.0125
176.84895	877.3125
181.15975	1221.9125
185.46741	1702.5125
189.77193	2353.0125
194.07331	3124.1125
198.37157	4040.9125
202.6667	4984.3125
206.9587	5945.8125
211.24758	6906.2125
215.53334	7847.4125
219.81599	8912.0125
224.09553	10106.6125
228.37195	11391.5125
232.64527	12817.1125
236.91549	14242.0125
241.18261	15587.6125
245.44663	16789.4125
249.70755	17772.5125
253.96539	18653.9125
258.22014	19442.6125
262.4718	20147.7125
266.72039	20690.2125
270.96589	21063.6125
275.20832	21178.9125
279.44768	21180.7125
283.68397	21093.1125
287.91719	21039.7125
292.14735	21182.0125
296.37445	21531.8125
300.59849	21952.6125
304.81948	22384.3125
309.03742	22518.3125
313.25231	22228.5125
317.46415	21289.0125
321.67296	19955.7125
325.87872	18836.9125
330.08145	18254.1125
334.28114	18153.0125
338.47781	18340.2125
342.67145	18723.4125
346.86207	19316.9125
351.04966	20114.9125
355.23424	21058.6125
359.4158	21726.1125
363.59435	22029.9125
367.76989	22087.3125
371.94243	22128.0125
376.11196	22056.3125
380.27849	22012.7125
384.44203	21934.9125
388.60257	21804.1125
392.76012	21814.5125
396.91468	22041.0125
401.06626	22539.5125
405.21485	22905.3125
409.36047	22633.7125
413.50311	21778.3125
417.64277	20990.0125
421.77947	20587.4125
425.9132	20509.0125
430.04396	20593.9125
434.17176	20800.8125
438.2966	21107.8125
442.41849	21585.4125
446.53742	22251.9125
450.6534	22989.2125
454.76644	23499.5125
458.87653	23612.5125
462.98368	23489.1125
467.08789	23275.9125
471.18916	23011.7125
475.2875	22820.9125
479.38291	22680.8125
483.4754	22436.7125
487.56496	21994.8125
491.6516	21471.3125
495.73531	21051.2125
499.81612	20833.6125
503.89401	20882.6125
507.96899	20996.2125
512.04106	21043.0125
516.11023	21028.2125
520.1765	21046.9125
524.23987	20884.6125
528.30034	20578.5125
532.35792	20267.3125
536.41261	19917.6125
540.46441	19617.6125
544.51333	19583.8125
548.55936	19829.0125
552.60252	20403.6125
556.64279	21113.7125
560.6802	21590.1125
564.71473	22046.3125
568.7464	22879.9125
572.7752	23597.0125
576.80114	23380.1125
580.82422	22755.1125
584.84444	22461.1125
588.86181	22453.8125
592.87633	22704.5125
596.888	23011.0125
600.89682	23274.2125
604.9028	24740.1125
608.90594	29112.1125
612.90624	34870.6125
616.90371	33417.0125
620.89834	24910.4125
624.89015	20806.2125
628.87913	20124.4125
632.86528	20233.4125
636.84862	20406.7125
640.82913	20042.6125
644.80683	19269.7125
648.78172	18688.0125
652.75379	18596.8125
656.72306	19093.1125
660.68952	19806.1125
664.65319	19786.3125
668.61405	19056.5125
672.57211	18740.1125
676.52738	18728.5125
680.47986	18746.3125
684.42955	18667.3125
688.37646	18582.1125
692.32058	18630.9125
696.26192	18848.0125
700.20048	19065.1125
704.13626	19293.4125
708.06928	19287.4125
711.99952	19100.2125
715.927	19028.7125
719.85171	19034.8125
723.77365	18978.8125
727.69284	18768.7125
731.60928	18599.3125
735.52295	18504.4125
739.43388	18530.0125
743.34206	18609.9125
747.24749	18687.9125
751.15017	18878.2125
755.05012	19276.2125
758.94733	20153.5125
762.8418	21900.6125
766.73354	24825.0125
770.62254	27859.2125
774.50882	29080.9125
778.39237	27549.2125
782.27321	24297.9125
786.15132	21337.1125
790.02671	19590.0125
793.89938	18776.1125
797.76935	18433.4125
801.6366	18291.5125
805.50115	18229.9125
809.36299	18153.7125
813.22213	18107.3125
817.07857	18107.1125
820.93231	18111.9125
824.78336	18093.4125
828.63172	18108.0125
832.47738	18135.5125
836.32036	18041.3125
840.16066	17978.3125
843.99827	17941.8125
847.8332	17803.6125
851.66546	17757.7125
855.49504	17721.2125
859.32195	17668.6125
863.1462	17604.5125
866.96777	17515.4125
870.78668	17516.7125
874.60293	17504.2125
878.41652	17530.6125
882.22745	17606.0125
886.03573	17652.8125
889.84136	17625.0125
893.64433	17502.9125
897.44466	17456.8125
901.24235	17432.7125
905.0374	17371.4125
908.8298	17376.6125
912.61957	17380.2125
916.40671	17526.5125
920.19121	17768.5125
923.97308	17934.3125
927.75233	17948.0125
931.52895	17971.5125
935.30295	17712.2125
939.07433	17308.1125
942.84309	16857.1125
946.60924	16658.7125
950.37278	16497.7125
954.13371	16435.2125
957.89203	16420.1125
961.64774	16423.4125
965.40086	16403.1125
969.15137	16338.5125
972.89929	16209.3125
976.64461	16166.4125
980.38733	16134.3125
984.12747	16152.0125
987.86502	16267.3125
991.59999	16379.7125
995.33237	16587.4125
999.06217	16990.1125
1002.78939	17499.8125
1006.51404	17949.1125
1010.23611	18282.6125
1013.95561	18477.8125
1017.67255	18371.8125
1021.38692	18120.8125
1025.09872	17816.8125
1028.80796	17667.0125
1032.51465	17751.3125
1036.21877	17924.5125
1039.92035	18057.5125
1043.61937	18044.2125
1047.31584	17978.9125
1051.00976	17840.0125
1054.70114	17804.6125
1058.38998	17896.4125
1062.07627	18102.5125
1065.76003	18306.5125
1069.44126	18438.3125
1073.11995	18558.5125
1076.79611	18705.9125
1080.46974	18872.5125
1084.14085	19180.1125
1087.80943	19548.4125
1091.47549	19827.8125
1095.13903	19723.4125
1098.80005	19249.4125
1102.45857	18710.8125
1106.11456	18366.6125
1109.76805	18363.0125
1113.41903	18594.5125
1117.06751	18973.0125
1120.71348	19571.3125
1124.35696	20123.1125
1127.99793	20698.8125
1131.63641	20720.0125
1135.2724	20114.9125
1138.90589	19501.8125
1142.5369	19169.0125
1146.16542	19078.1125
1149.79145	19112.1125
1153.415	19275.5125
1157.03607	19563.2125
1160.65467	20047.1125
1164.27079	20815.6125
1167.88443	22033.6125
1171.49561	23737.8125
1175.10432	26361.6125
1178.71056	29699.2125
1182.31434	32361.2125
1185.91565	33248.4125
1189.51451	32795.4125
1193.11091	31644.1125
1196.70485	29982.4125
1200.29634	28581.4125
1203.88538	27290.7125
1207.47197	25983.2125
1211.05612	24898.6125
1214.63782	24160.3125
1218.21708	23776.7125
1221.79391	23530.0125
1225.36829	23361.5125
1228.94024	23072.6125
1232.50976	22800.8125
1236.07685	22643.8125
1239.6415	22609.1125
1243.20374	22637.2125
1246.76355	22763.8125
1250.32093	23109.3125
1253.8759	23643.7125
1257.42845	24318.7125
1260.97859	25064.4125
1264.52631	25711.5125
1268.07163	26324.8125
1271.61453	27048.9125
1275.15503	27647.9125
1278.69312	28131.3125
1282.22882	28557.2125
1285.76211	29263.3125
1289.29301	30306.4125
1292.82151	31670.8125
1296.34761	33252.1125
1299.87133	35198.2125
1303.39266	37763.8125
1306.9116	41137.9125
1310.42815	44835.8125
1313.94233	47432.2125
1317.45412	47805.8125
1320.96354	46511.2125
1324.47058	44832.4125
1327.97525	43109.8125
1331.47754	41849.6125
1334.97747	41370.5125
1338.47502	41377.0125
1341.97022	41503.0125
1345.46305	41408.4125
1348.95352	41291.2125
1352.44163	41560.7125
1355.92738	42953.3125
1359.41078	46165.7125
1362.89183	49905.4125
1366.37053	49136.9125
1369.84688	43418.3125
1373.32088	37179.4125
1376.79254	33308.8125
1380.26186	31720.7125
1383.72883	31331.7125
1387.19347	31257.7125
1390.65578	31134.1125
1394.11575	31245.8125
1397.57339	31754.5125
1401.0287	32667.3125
1404.48168	33496.4125
1407.93234	33955.8125
1411.38068	33728.9125
1414.82669	32712.3125
1418.27039	31103.3125
1421.71177	29366.6125
1425.15083	27869.5125
1428.58758	26958.0125
1432.02203	26705.8125
1435.45416	26995.7125
1438.88399	27478.3125
1442.31151	27963.2125
1445.73673	28471.3125
1449.15965	29135.3125
1452.58027	29656.1125
1455.9986	30007.8125
1459.41463	30329.3125
1462.82837	30835.7125
1466.23982	31450.8125
1469.64898	31922.0125
1473.05586	32075.2125
1476.46045	31933.4125
1479.86276	31706.1125
1483.26279	31590.8125
1486.66054	31567.5125
1490.05602	31721.8125
1493.44922	32179.4125
1496.84016	32839.4125
1500.22882	34242.7125
1503.61521	36446.3125
1506.99934	39324.9125
1510.38121	42389.1125
1513.76081	44320.4125
1517.13816	43400.5125
1520.51324	40013.0125
1523.88607	36322.5125
1527.25665	33742.5125
1530.62498	32369.5125
1533.99105	31669.0125
1537.35488	31253.9125
1540.71647	30871.3125
1544.07581	30486.4125
1547.4329	29973.2125
1550.78776	29513.0125
1554.14038	29184.1125
1557.49077	29207.5125
1560.83892	29488.4125
1564.18484	29981.5125
1567.52853	30399.4125
1570.86999	30739.1125
1574.20922	31117.6125
1577.54624	31287.8125
1580.88103	30794.8125
1584.2136	30231.4125
1587.54395	30391.8125
1590.87208	31526.7125
1594.19801	33395.3125
1597.52172	35453.5125
1600.84321	36286.1125
1604.16251	34890.1125
1607.47959	32199.2125
1610.79447	29200.7125
1614.10715	26373.8125
1617.41763	24118.4125
1620.7259	22648.7125
1624.03199	21825.4125
1627.33587	21725.5125
1630.63757	22235.4125
1633.93707	23496.0125
1637.23439	25565.1125
1640.52951	28503.6125
1643.82246	32195.1125
1647.11321	35827.7125
1650.40179	37938.1125
1653.68819	36662.6125
1656.97241	32037.7125
1660.25446	26771.6125
1663.53433	22733.3125
1666.81203	20144.9125
1670.08756	18552.6125
1673.36092	17572.5125
1676.63211	16990.2125
1679.90115	16557.1125
1683.16801	16219.7125
1686.43272	16012.7125
1689.69527	15817.8125
1692.95567	15699.9125
1696.2139	15599.9125
1699.46999	15574.3125
1702.72392	15506.9125
1705.97571	15468.7125
1709.22535	15360.4125
1712.47284	15331.8125
1715.71819	15331.0125
1718.96139	15288.6125
1722.20246	15250.9125
1725.44139	15188.5125
1728.67818	15084.9125
1731.91284	15008.5125
1735.14537	14897.4125
1738.37576	14860.0125
1741.60403	14791.9125
1744.83017	14733.1125
1748.05418	14722.2125
1751.27607	14716.0125
1754.49584	14674.6125
1757.71349	14671.1125
1760.92903	14617.9125
1764.14244	14598.8125
1767.35375	14616.0125
1770.56294	14544.3125
1773.77002	14477.0125
1776.97499	14457.9125
1780.17785	14404.9125
1783.37861	14344.8125
1786.57727	14319.3125
1789.77382	14304.8125
1792.96828	14282.7125
1796.16064	14249.2125
1799.3509	14226.2125
1802.53907	14220.1125
1805.72514	14174.2125
1808.90913	14111.6125
1812.09102	14088.3125
1815.27083	14073.3125
1818.44856	14063.7125
1821.6242	14017.6125
1824.79776	13967.9125
1827.96924	13997.9125
1831.13864	13972.2125
1834.30597	13959.1125
1837.47122	13937.3125
1840.6344	13939.8125
1843.7955	13967.3125
1846.95454	13927.9125
1850.11151	13923.4125
1853.26642	13915.5125
1856.41926	13917.1125
1859.57004	13941.1125
1862.71876	13913.9125
1865.86542	13900.4125
1869.01003	13907.0125
1872.15258	13913.5125
1875.29308	13886.0125
1878.43152	13912.2125
1881.56792	13874.2125
1884.70227	13894.5125
1887.83457	13908.8125
1890.96482	13925.8125
1894.09304	13921.9125
1897.21921	13924.9125
1900.34335	13925.9125
1903.46544	13911.3125
1906.58551	13917.4125
1909.70353	13906.6125
1912.81953	13893.2125
1915.93349	13875.1125
1919.04543	13831.4125
1922.15534	13831.0125
1925.26322	13812.6125
1928.36908	13756.1125
1931.47292	13730.8125
1934.57473	13672.2125
1937.67453	13596.9125
1940.77232	13548.9125
1943.86808	13481.5125
1946.96184	13434.4125
1950.05358	13379.4125
1953.14331	13330.9125
1956.23103	13290.6125
1959.31675	13238.5125
1962.40046	13171.5125
1965.48217	13139.0125
1968.56188	13130.6125
1971.63959	13062.2125
1974.7153	13025.8125
1977.78901	12997.1125
1980.86073	12968.1125
1983.93046	12914.8125
1986.99819	12864.8125
1990.06394	12826.3125
1993.1277	12778.5125
1996.18947	12716.3125
1999.24925	12706.8125
2002.30706	12653.5125
2005.36288	12580.4125
2008.41672	12584.8125
2011.46859	12561.7125
2014.51848	12491.2125
2017.56639	12460.2125
2020.61233	12420.2125
2023.6563	12408.0125
2026.6983	12390.5125
2029.73833	12345.6125
2032.7764	12314.2125
2035.8125	12320.9125
2038.84664	12275.5125
2041.87881	12285.6125
2044.90903	12269.8125
2047.93729	12248.8125
2050.96359	12231.6125
2053.98794	12202.3125
2057.01034	12209.5125
2060.03078	12201.2125
2063.04927	12132.2125
2066.06582	12171.8125
2069.08042	12119.0125
2072.09307	12152.6125
2075.10378	12108.5125
2078.11255	12100.6125
2081.11938	12102.0125
2084.12426	12077.4125
2087.12722	12070.1125
2090.12824	12068.9125
2093.12732	12068.4125
2096.12447	12056.5125
2099.11969	12069.2125
2102.11299	12070.0125
2105.10435	12071.3125
2108.09379	12080.6125
2111.08131	12092.1125
2114.0669	12034.6125
2117.05057	12102.7125
2120.03233	12137.9125
2123.01216	12105.4125
2125.99008	12123.5125
2128.96609	12114.8125
2131.94018	12114.7125
2134.91236	12099.8125
2137.88263	12085.7125
2140.851	12115.5125
2143.81746	12143.4125
2146.78201	12128.0125
2149.74466	12148.5125
2152.7054	12132.6125
2155.66425	12092.5125
2158.6212	12119.6125
2161.57625	12105.7125
2164.52941	12095.2125
2167.48067	12080.9125
2170.43004	12088.3125
2173.37752	12063.0125
2176.32311	12044.1125
2179.26681	12071.0125
2182.20863	12060.4125
2185.14856	12077.0125
2188.08661	12059.9125
2191.02278	12065.9125
2193.95707	12031.9125
2196.88948	12012.3125
2199.82001	12038.4125
2202.74867	12014.0125
2205.67545	11996.5125
2208.60037	12007.0125
2211.52341	11984.4125
2214.44458	11962.0125
2217.36388	11924.0125
2220.28132	11907.8125
2223.1969	11912.3125
2226.11061	11872.2125
2229.02246	11836.3125
2231.93245	11800.0125
2234.84058	11797.2125
2237.74686	11751.1125
2240.65128	11747.0125
2243.55385	11730.4125
2246.45456	11770.4125
2249.35343	11695.4125
2252.25044	11684.8125
2255.14561	11713.1125
2258.03893	11683.2125
2260.93041	11684.3125
2263.82004	11625.2125
2266.70783	11594.0125
2269.59378	11582.9125
2272.4779	11557.0125
2275.36017	11494.2125
2278.24061	11484.9125
2281.11922	11495.7125
2283.996	11452.5125
2286.87094	11433.9125
2289.74405	11397.9125
2292.61534	11368.3125
2295.4848	11355.0125
2298.35243	11360.2125
2301.21824	11360.5125
2304.08223	11365.2125
2306.94439	11366.3125
2309.80474	11321.2125
2312.66327	11341.3125
2315.51999	11302.7125
2318.37489	11335.7125
2321.22797	11307.8125
2324.07925	11304.5125
2326.92871	11281.4125
2329.77637	11275.3125
2332.62222	11289.7125
2335.46626	11267.7125
2338.3085	11233.6125
2341.14893	11250.4125
2343.98756	11242.7125
2346.8244	11241.1125
2349.65943	11236.5125
2352.49267	11277.2125
2355.32411	11244.9125
2358.15376	11262.9125
2360.98161	11256.4125
2363.80768	11243.3125
2366.63195	11259.0125
2369.45444	11249.8125
2372.27514	11236.5125
2375.09405	11215.7125
2377.91118	11209.6125
2380.72652	11173.1125
2383.54009	11137.9125
2386.35187	11099.5125
2389.16188	11061.8125
2391.97011	11013.6125
2394.77657	11027.2125
2397.58125	10985.0125
2400.38416	10954.8125
2403.18529	10943.7125
2405.98466	10910.8125
2408.78226	10904.1125
2411.57809	10881.1125
2414.37216	10893.2125
2417.16446	10862.4125
2419.955	10872.4125
2422.74378	10825.9125
2425.5308	10838.9125
2428.31606	10838.6125
2431.09956	10809.3125
2433.88131	10806.7125
2436.6613	10820.1125
2439.43954	10817.1125
2442.21603	10797.8125
2444.99077	10776.1125
2447.76377	10796.2125
2450.53501	10801.4125
2453.30451	10799.9125
2456.07226	10769.8125
2458.83827	10775.2125
2461.60254	10786.1125
2464.36507	10778.7125
2467.12586	10784.4125
2469.88492	10769.3125
2472.64224	10763.5125
2475.39782	10783.3125
2478.15167	10785.0125
2480.90379	10774.7125
2483.65417	10804.9125
2486.40283	10815.2125
2489.14976	10816.9125
2491.89497	10804.7125
2494.63845	10840.2125
2497.3802	10835.2125
2500.12024	10795.4125
2502.85855	10804.2125
2505.59514	10805.7125
2508.33002	10791.0125
2511.06318	10767.9125
2513.79462	10764.7125
2516.52435	10696.4125
2519.25237	10716.7125
2521.97867	10667.2125
2524.70327	10667.6125
2527.42616	10639.6125
2530.14734	10658.7125
2532.86681	10621.6125
2535.58458	10640.3125
2538.30065	10609.6125
2541.01501	10608.8125
2543.72768	10610.9125
2546.43864	10595.8125
2549.14791	10553.0125
2551.85548	10583.3125
2554.56136	10553.1125
2557.26554	10565.8125
2559.96803	10554.0125
2562.66883	10530.2125
2565.36794	10536.9125
2568.06536	10520.5125
2570.7611	10519.5125
2573.45514	10504.4125
2576.14751	10495.2125
2578.83819	10480.7125
2581.52719	10453.8125
2584.21451	10462.6125
2586.90015	10447.5125
2589.58411	10451.3125
2592.2664	10449.7125
2594.94701	10421.4125
2597.62594	10454.3125
2600.30321	10421.7125
2602.9788	10404.1125
2605.65273	10376.5125
2608.32498	10394.4125
2610.99557	10400.1125
2613.66449	10395.0125
2616.33175	10395.2125
2618.99734	10410.8125
2621.66128	10414.3125
2624.32355	10399.0125
2626.98416	10384.0125
2629.64311	10396.4125
2632.30041	10389.6125
2634.95605	10365.9125
2637.61004	10352.9125
2640.26238	10355.7125
2642.91306	10346.8125
2645.56209	10330.1125
2648.20948	10354.6125
2650.85521	10321.8125
2653.4993	10339.9125
2656.14175	10323.9125
2658.78255	10353.5125
2661.42171	10343.3125
2664.05923	10372.2125
2666.6951	10370.6125
2669.32934	10390.9125
2671.96194	10384.1125
2674.59291	10373.8125
2677.22224	10380.5125
2679.84993	10385.0125
2682.476	10361.2125
2685.10043	10374.5125
2687.72324	10371.8125
2690.34441	10334.7125
2692.96396	10341.9125
2695.58188	10364.3125
2698.19818	10370.1125
2700.81285	10332.3125
2703.4259	10367.9125
2706.03733	10419.4125
2708.64714	10408.2125
2711.25533	10413.9125
2713.86191	10389.3125
2716.46687	10387.5125
2719.07021	10432.8125
2721.67194	10410.8125
2724.27206	10393.9125
2726.87057	10408.4125
2729.46747	10433.4125
2732.06276	10440.9125
2734.65644	10413.9125
2737.24852	10398.7125
2739.83899	10392.4125
2742.42786	10398.0125
2745.01513	10359.0125
2747.60079	10371.4125
2750.18486	10352.3125
2752.76733	10362.5125
2755.3482	10345.0125
2757.92747	10368.1125
2760.50515	10358.5125
2763.08123	10347.1125
2765.65573	10333.7125
2768.22863	10324.4125
2770.79994	10318.0125
2773.36967	10314.4125
2775.9378	10316.6125
2778.50435	10324.2125
2781.06932	10308.8125
2783.6327	10311.0125
2786.1945	10299.6125
2788.75471	10306.5125
2791.31335	10289.2125
2793.87041	10282.7125
2796.42589	10260.0125
2798.97979	10288.0125
2801.53212	10212.7125
2804.08288	10252.4125
2806.63206	10218.6125
2809.17967	10200.0125
2811.72571	10183.6125
2814.27018	10169.3125
2816.81308	10156.7125
2819.35442	10146.1125
2821.89419	10143.9125
2824.43239	10140.2125
2826.96904	10155.8125
2829.50412	10167.3125
2832.03763	10130.3125
2834.56959	10141.1125
2837.1	10130.8125
2839.62884	10154.4125
2842.15613	10154.2125
2844.68186	10203.4125
2847.20604	10250.1125
2849.72867	10301.9125
2852.24974	10299.6125
2854.76927	10318.6125
2857.28724	10304.6125
2859.80367	10279.1125
2862.31855	10252.7125
2864.83189	10226.1125
2867.34368	10234.2125
2869.85393	10244.7125
2872.36264	10233.5125
2874.8698	10232.3125
2877.37543	10224.5125
2879.87952	10223.9125
2882.38207	10211.5125
2884.88308	10217.3125
2887.38256	10196.2125
2889.88051	10219.2125
2892.37692	10215.1125
2894.8718	10220.5125
2897.36515	10220.7125
2899.85698	10214.5125
2902.34727	10261.1125
2904.83604	10247.6125
2907.32328	10279.8125
2909.809	10226.3125
2912.29319	10245.6125
2914.77587	10252.5125
2917.25702	10262.9125
2919.73665	10227.1125
2922.21476	10223.7125
2924.69136	10241.6125
2927.16644	10231.5125
2929.64	10227.0125
2932.11205	10191.8125
2934.58258	10173.3125
2937.05161	10187.6125
2939.51912	10163.9125
2941.98513	10124.1125
2944.44962	10066.7125
2946.91261	9990.5125
2949.37409	9976.1125
2951.83407	9966.3125
2954.29254	9922.5125
2956.74951	9920.2125
2959.20498	9913.5125
2961.65895	9886.5125
2964.11142	9853.2125
2966.56239	9860.8125
2969.01186	9834.2125
2971.45984	9782.1125
2973.90632	9792.9125
2976.35131	9725.8125
2978.7948	9702.5125
2981.23681	9697.3125
2983.67732	9670.2125
2986.11635	9631.7125
2988.55388	9605.3125
2990.98993	9622.1125
2993.4245	9578.2125
2995.85758	9550.3125
2998.28917	9536.6125
3000.71928	9505.2125
3003.14791	9497.7125
3005.57506	9489.7125
3008.00073	9470.9125
3010.42493	9459.7125
3012.84764	9444.8125
3015.26888	9428.8125
3017.68865	9427.4125
3020.10694	9391.7125
3022.52376	9380.6125
3024.9391	9344.9125
3027.35298	9341.5125
