Data from AgNPs_FTO_APTES_UA_2uM_CRN_200uM_R6G_10uM_NaF_0.1M_Addition_RamanShift__15__16-36-25-368.txt Node

Date: Wed Feb 02 16:36:25 GMT 2022
User: TCL
Spectrometer: QEP01345
Trigger mode: 4
Integration Time (sec): 7.000000E0
Scans to average: 10
Electric dark correction enabled: true
Nonlinearity correction enabled: false
Boxcar width: 0
XAxis mode: Raman Shifts
Number of Pixels in Spectrum: 1044
>>>>>Begin Spectral Data<<<<<
46.04893	0.475
50.45542	0.075
54.85868	-2.025
59.25871	-0.125
63.6555	64.775
68.04907	67.875
72.43941	71.575
76.82654	78.875
81.21044	83.075
85.59113	90.675
89.96862	89.375
94.34289	94.475
98.71396	91.475
103.08183	100.875
107.4465	99.375
111.80798	104.575
116.16626	105.075
120.52136	105.075
124.87327	111.875
129.222	116.975
133.56755	123.475
137.90993	129.275
142.24913	143.475
146.58517	158.575
150.91804	182.775
155.24774	217.575
159.57429	267.475
163.89768	338.475
168.21792	444.775
172.53501	603.275
176.84895	837.375
181.15975	1175.975
185.46741	1641.475
189.77193	2277.175
194.07331	3047.775
198.37157	3940.375
202.6667	4879.275
206.9587	5782.475
211.24758	6674.875
215.53334	7583.275
219.81599	8533.575
224.09553	9556.875
228.37195	10713.375
232.64527	11946.675
236.91549	13257.175
241.18261	14568.275
245.44663	15825.875
249.70755	16963.675
253.96539	17950.375
258.22014	18786.075
262.4718	19492.175
266.72039	20009.275
270.96589	20318.175
275.20832	20450.075
279.44768	20477.875
283.68397	20422.875
287.91719	20399.075
292.14735	20414.875
296.37445	20520.675
300.59849	20638.275
304.81948	20661.775
309.03742	20509.575
313.25231	20139.575
317.46415	19565.375
321.67296	18897.475
325.87872	18354.675
330.08145	18028.175
334.28114	17927.275
338.47781	18019.675
342.67145	18156.375
346.86207	18379.675
351.04966	18622.075
355.23424	18844.475
359.4158	19058.275
363.59435	19196.975
367.76989	19281.575
371.94243	19364.975
376.11196	19415.775
380.27849	19482.675
384.44203	19546.275
388.60257	19724.075
392.76012	19937.475
396.91468	20230.075
401.06626	20564.575
405.21485	20769.775
409.36047	20697.475
413.50311	20460.375
417.64277	20217.175
421.77947	20122.975
425.9132	20210.475
430.04396	20297.675
434.17176	20440.375
438.2966	20561.575
442.41849	20814.375
446.53742	21211.575
450.6534	21730.275
454.76644	22144.375
458.87653	22355.475
462.98368	22399.575
467.08789	22374.975
471.18916	22278.875
475.2875	22248.175
479.38291	22347.775
483.4754	22313.375
487.56496	22047.475
491.6516	21528.475
495.73531	21068.975
499.81612	20806.975
503.89401	20729.875
507.96899	20812.275
512.04106	20762.875
516.11023	20657.275
520.1765	20436.575
524.23987	20167.575
528.30034	19915.175
532.35792	19692.075
536.41261	19503.675
540.46441	19443.475
544.51333	19510.575
548.55936	19910.575
552.60252	20381.975
556.64279	20934.575
560.6802	21354.475
564.71473	21632.975
568.7464	22086.275
572.7752	22770.775
576.80114	23433.575
580.82422	23806.175
584.84444	24088.575
588.86181	24185.175
592.87633	24042.575
596.888	23749.975
600.89682	23445.275
604.9028	23700.775
608.90594	24884.575
612.90624	26047.475
616.90371	24565.275
620.89834	21190.975
624.89015	19662.875
628.87913	19497.575
632.86528	19697.075
636.84862	19832.675
640.82913	19660.775
644.80683	19249.075
648.78172	18916.875
652.75379	18721.375
656.72306	18824.775
660.68952	19049.975
664.65319	18974.275
668.61405	18798.575
672.57211	18739.075
676.52738	18830.575
680.47986	18836.075
684.42955	18820.975
688.37646	18697.475
692.32058	18698.675
696.26192	18843.475
700.20048	19029.575
704.13626	19145.175
708.06928	19316.975
711.99952	19260.875
715.927	19215.375
719.85171	19153.675
723.77365	19071.975
727.69284	18880.975
731.60928	18649.475
735.52295	18514.075
739.43388	18498.175
743.34206	18471.775
747.24749	18579.475
751.15017	18754.675
755.05012	19080.475
758.94733	19627.175
762.8418	20658.475
766.73354	22129.275
770.62254	23396.975
774.50882	23599.375
778.39237	22513.775
782.27321	20969.075
786.15132	19689.575
790.02671	18931.575
793.89938	18509.175
797.76935	18319.975
801.6366	18252.675
805.50115	18183.775
809.36299	18116.575
813.22213	18009.975
817.07857	18019.075
820.93231	17972.175
824.78336	17912.775
828.63172	17829.475
832.47738	17732.375
836.32036	17718.875
840.16066	17660.775
843.99827	17673.675
847.8332	17626.875
851.66546	17594.975
855.49504	17538.175
859.32195	17563.075
863.1462	17550.475
866.96777	17505.175
870.78668	17482.575
874.60293	17458.775
878.41652	17447.275
882.22745	17498.375
886.03573	17505.675
889.84136	17551.175
893.64433	17492.575
897.44466	17458.775
901.24235	17408.075
905.0374	17356.775
908.8298	17341.475
912.61957	17372.675
916.40671	17565.875
920.19121	17865.575
923.97308	17965.175
927.75233	17837.175
931.52895	17628.875
935.30295	17395.475
939.07433	17049.175
942.84309	16783.075
946.60924	16607.875
950.37278	16557.275
954.13371	16477.675
957.89203	16528.875
961.64774	16535.475
965.40086	16555.875
969.15137	16474.775
972.89929	16350.475
976.64461	16254.375
980.38733	16205.675
984.12747	16206.575
987.86502	16247.075
991.59999	16344.775
995.33237	16448.775
999.06217	16623.275
1002.78939	16897.575
1006.51404	17025.475
1010.23611	17233.375
1013.95561	17380.475
1017.67255	17433.675
1021.38692	17388.875
1025.09872	17225.575
1028.80796	17083.575
1032.51465	17071.775
1036.21877	17178.975
1039.92035	17263.875
1043.61937	17322.775
1047.31584	17305.375
1051.00976	17363.375
1054.70114	17447.775
1058.38998	17613.475
1062.07627	17849.975
1065.76003	18119.375
1069.44126	18347.275
1073.11995	18536.675
1076.79611	18690.475
1080.46974	18735.275
1084.14085	18787.375
1087.80943	18896.675
1091.47549	19084.975
1095.13903	19237.875
1098.80005	19110.375
1102.45857	18719.475
1106.11456	18269.175
1109.76805	18005.775
1113.41903	17979.675
1117.06751	18060.675
1120.71348	18261.975
1124.35696	18472.475
1127.99793	18761.675
1131.63641	18937.775
1135.2724	18841.775
1138.90589	18746.475
1142.5369	18773.675
1146.16542	18885.075
1149.79145	19182.975
1153.415	19443.775
1157.03607	19867.475
1160.65467	20416.975
1164.27079	21214.975
1167.88443	22203.475
1171.49561	23455.775
1175.10432	24950.375
1178.71056	26787.775
1182.31434	28572.175
1185.91565	29678.475
1189.51451	29969.975
1193.11091	29721.075
1196.70485	28962.275
1200.29634	27884.275
1203.88538	26978.875
1207.47197	26326.575
1211.05612	25899.375
1214.63782	25359.475
1218.21708	24690.875
1221.79391	23910.775
1225.36829	23289.075
1228.94024	22807.775
1232.50976	22444.075
1236.07685	22239.975
1239.6415	22122.575
1243.20374	22153.075
1246.76355	22287.675
1250.32093	22545.375
1253.8759	22974.575
1257.42845	23581.675
1260.97859	24203.075
1264.52631	24790.275
1268.07163	25360.775
1271.61453	25955.275
1275.15503	26642.375
1278.69312	27383.875
1282.22882	28128.575
1285.76211	29028.575
1289.29301	30101.075
1292.82151	31536.775
1296.34761	33312.575
1299.87133	35178.075
1303.39266	37010.475
1306.9116	38546.375
1310.42815	39768.975
1313.94233	40503.075
1317.45412	40546.075
1320.96354	40466.275
1324.47058	40478.275
1327.97525	40635.475
1331.47754	40779.775
1334.97747	40884.075
1338.47502	40922.175
1341.97022	40916.875
1345.46305	40684.575
1348.95352	40125.475
1352.44163	39289.075
1355.92738	38604.175
1359.41078	38592.375
1362.89183	38748.675
1366.37053	37905.375
1369.84688	35455.275
1373.32088	32489.075
1376.79254	30455.975
1380.26186	29765.375
1383.72883	29876.875
1387.19347	30207.575
1390.65578	30361.275
1394.11575	30488.075
1397.57339	30807.575
1401.0287	31125.575
1404.48168	31302.575
1407.93234	30985.875
1411.38068	30124.075
1414.82669	28831.375
1418.27039	27394.675
1421.71177	25958.475
1425.15083	24862.975
1428.58758	24272.175
1432.02203	24222.175
1435.45416	24712.675
1438.88399	25396.875
1442.31151	26123.875
1445.73673	26664.875
1449.15965	27245.075
1452.58027	27749.675
1455.9986	28158.275
1459.41463	28523.275
1462.82837	28895.975
1466.23982	29199.475
1469.64898	29387.475
1473.05586	29474.175
1476.46045	29270.475
1479.86276	29000.075
1483.26279	28599.575
1486.66054	28389.975
1490.05602	28486.675
1493.44922	28798.575
1496.84016	29317.475
1500.22882	30159.575
1503.61521	31341.975
1506.99934	32613.975
1510.38121	33708.075
1513.76081	34050.575
1517.13816	33566.375
1520.51324	32609.275
1523.88607	31813.875
1527.25665	31436.175
1530.62498	31283.875
1533.99105	31129.075
1537.35488	30735.275
1540.71647	30141.675
1544.07581	29246.875
1547.4329	28393.075
1550.78776	27623.575
1554.14038	27168.975
1557.49077	26936.175
1560.83892	26903.175
1564.18484	26988.675
1567.52853	27095.475
1570.86999	27348.975
1574.20922	27831.375
1577.54624	28378.575
1580.88103	28666.775
1584.2136	28915.975
1587.54395	29392.675
1590.87208	30271.975
1594.19801	31414.575
1597.52172	32462.875
1600.84321	32716.475
1604.16251	31400.875
1607.47959	29399.075
1610.79447	27199.075
1614.10715	25037.975
1617.41763	23212.575
1620.7259	21816.875
1624.03199	20978.275
1627.33587	20728.275
1630.63757	21140.175
1633.93707	22265.475
1637.23439	24217.875
1640.52951	27012.175
1643.82246	30303.575
1647.11321	33155.875
1650.40179	34311.975
1653.68819	32936.875
1656.97241	29545.375
1660.25446	25703.975
1663.53433	22352.275
1666.81203	19882.175
1670.08756	18254.275
1673.36092	17161.075
1676.63211	16489.775
1679.90115	16006.175
1683.16801	15707.875
1686.43272	15421.475
1689.69527	15251.675
1692.95567	15089.275
1696.2139	14997.975
1699.46999	14941.175
1702.72392	14836.875
1705.97571	14758.175
1709.22535	14670.475
1712.47284	14639.375
1715.71819	14559.975
1718.96139	14522.975
1722.20246	14476.475
1725.44139	14407.875
1728.67818	14289.175
1731.91284	14234.175
1735.14537	14139.075
1738.37576	14079.275
1741.60403	14048.075
1744.83017	13974.475
1748.05418	13990.275
1751.27607	13966.775
1754.49584	13936.475
1757.71349	13924.475
1760.92903	13949.775
1764.14244	13895.675
1767.35375	13857.975
1770.56294	13805.375
1773.77002	13748.675
1776.97499	13720.575
1780.17785	13634.075
1783.37861	13638.475
1786.57727	13581.675
1789.77382	13551.975
1792.96828	13475.675
1796.16064	13441.175
1799.3509	13407.575
1802.53907	13395.175
1805.72514	13287.175
1808.90913	13280.975
1812.09102	13254.675
1815.27083	13217.475
1818.44856	13213.775
1821.6242	13190.575
1824.79776	13173.175
1827.96924	13149.075
1831.13864	13135.875
1834.30597	13152.075
1837.47122	13129.975
1840.6344	13112.675
1843.7955	13123.775
1846.95454	13106.575
1850.11151	13100.675
1853.26642	13076.875
1856.41926	13054.175
1859.57004	13063.275
1862.71876	13012.675
1865.86542	13006.775
1869.01003	12981.975
1872.15258	12944.675
1875.29308	12949.675
1878.43152	12928.775
1881.56792	12914.375
1884.70227	12874.475
1887.83457	12867.375
1890.96482	12846.475
1894.09304	12838.275
1897.21921	12814.575
1900.34335	12792.075
1903.46544	12740.875
1906.58551	12774.375
1909.70353	12731.975
1912.81953	12674.875
1915.93349	12711.775
1919.04543	12616.275
1922.15534	12590.075
1925.26322	12574.575
1928.36908	12530.375
1931.47292	12508.175
1934.57473	12468.075
1937.67453	12432.775
1940.77232	12395.975
1943.86808	12372.575
1946.96184	12366.475
1950.05358	12305.875
1953.14331	12265.575
1956.23103	12243.375
1959.31675	12215.875
1962.40046	12143.975
1965.48217	12121.675
1968.56188	12060.175
1971.63959	12009.875
1974.7153	12004.775
1977.78901	11961.275
1980.86073	11902.775
1983.93046	11854.475
1986.99819	11819.375
1990.06394	11785.475
1993.1277	11774.775
1996.18947	11703.175
1999.24925	11696.475
2002.30706	11640.275
2005.36288	11584.975
2008.41672	11566.875
2011.46859	11536.475
2014.51848	11490.775
2017.56639	11459.175
2020.61233	11414.575
2023.6563	11363.375
2026.6983	11354.975
2029.73833	11332.975
2032.7764	11319.375
2035.8125	11291.375
2038.84664	11253.875
2041.87881	11243.375
2044.90903	11220.375
2047.93729	11218.375
2050.96359	11175.175
2053.98794	11161.675
2057.01034	11140.675
2060.03078	11151.875
2063.04927	11134.775
2066.06582	11127.375
2069.08042	11120.775
2072.09307	11124.775
2075.10378	11084.775
2078.11255	11062.875
2081.11938	11026.775
2084.12426	11076.775
2087.12722	11019.175
2090.12824	11046.775
2093.12732	11062.675
2096.12447	11037.875
2099.11969	11041.075
2102.11299	11056.275
2105.10435	11047.175
2108.09379	11033.775
2111.08131	11017.375
2114.0669	11023.175
2117.05057	11051.875
2120.03233	11084.575
2123.01216	11091.175
2125.99008	11054.675
2128.96609	11068.675
2131.94018	11060.775
2134.91236	11062.275
2137.88263	11070.275
2140.851	11077.475
2143.81746	11097.275
2146.78201	11078.075
2149.74466	11075.475
2152.7054	11067.175
2155.66425	11056.375
2158.6212	11057.575
2161.57625	11047.975
2164.52941	11040.175
2167.48067	11018.675
2170.43004	11032.175
2173.37752	11002.875
2176.32311	10998.075
2179.26681	10996.775
2182.20863	10995.575
2185.14856	10997.075
2188.08661	10992.575
2191.02278	10971.475
2193.95707	10976.575
2196.88948	10958.575
2199.82001	10945.975
2202.74867	10917.075
2205.67545	10923.375
2208.60037	10903.175
2211.52341	10854.175
2214.44458	10860.475
2217.36388	10815.375
2220.28132	10815.975
2223.1969	10816.375
2226.11061	10759.975
2229.02246	10727.075
2231.93245	10714.075
2234.84058	10691.575
2237.74686	10686.075
2240.65128	10660.075
2243.55385	10646.375
2246.45456	10636.175
2249.35343	10605.075
2252.25044	10604.575
2255.14561	10568.275
2258.03893	10565.975
2260.93041	10535.575
2263.82004	10503.075
2266.70783	10468.975
2269.59378	10441.575
2272.4779	10432.575
2275.36017	10368.675
2278.24061	10359.575
2281.11922	10346.375
2283.996	10313.475
2286.87094	10300.275
2289.74405	10265.975
2292.61534	10242.975
2295.4848	10237.675
2298.35243	10230.475
2301.21824	10220.775
2304.08223	10209.775
2306.94439	10210.075
2309.80474	10196.675
2312.66327	10195.975
2315.51999	10175.675
2318.37489	10177.775
2321.22797	10157.775
2324.07925	10141.075
2326.92871	10116.375
2329.77637	10119.875
2332.62222	10108.875
2335.46626	10087.675
2338.3085	10088.775
2341.14893	10070.675
2343.98756	10053.475
2346.8244	10024.675
2349.65943	10050.175
2352.49267	10052.875
2355.32411	10045.275
2358.15376	10031.875
2360.98161	10043.875
2363.80768	10031.375
2366.63195	9987.075
2369.45444	9998.375
2372.27514	9988.075
2375.09405	9973.975
2377.91118	9972.375
2380.72652	9929.875
2383.54009	9920.175
2386.35187	9900.275
2389.16188	9873.175
2391.97011	9862.275
2394.77657	9834.075
2397.58125	9817.675
2400.38416	9784.075
2403.18529	9771.875
2405.98466	9740.575
2408.78226	9739.575
2411.57809	9728.075
2414.37216	9709.175
2417.16446	9691.775
2419.955	9687.075
2422.74378	9700.275
2425.5308	9683.375
2428.31606	9687.675
2431.09956	9670.475
2433.88131	9647.975
2436.6613	9629.775
2439.43954	9637.475
2442.21603	9633.475
2444.99077	9595.075
2447.76377	9615.375
2450.53501	9627.175
2453.30451	9592.475
2456.07226	9600.375
2458.83827	9605.375
2461.60254	9579.375
2464.36507	9594.475
2467.12586	9558.675
2469.88492	9563.075
2472.64224	9578.275
2475.39782	9531.775
2478.15167	9559.275
2480.90379	9546.175
2483.65417	9549.975
2486.40283	9548.175
2489.14976	9540.075
2491.89497	9552.775
2494.63845	9533.475
2497.3802	9505.575
2500.12024	9505.075
2502.85855	9499.075
2505.59514	9512.675
2508.33002	9526.875
2511.06318	9496.875
2513.79462	9482.375
2516.52435	9473.675
2519.25237	9446.775
2521.97867	9425.775
2524.70327	9445.675
2527.42616	9427.575
2530.14734	9428.675
2532.86681	9399.575
2535.58458	9410.575
2538.30065	9392.075
2541.01501	9393.675
2543.72768	9341.175
2546.43864	9321.675
2549.14791	9320.375
2551.85548	9337.775
2554.56136	9315.075
2557.26554	9301.675
2559.96803	9299.775
2562.66883	9270.975
2565.36794	9285.975
2568.06536	9265.475
2570.7611	9251.875
2573.45514	9231.475
2576.14751	9242.875
2578.83819	9200.475
2581.52719	9201.175
2584.21451	9189.375
2586.90015	9171.675
2589.58411	9163.075
2592.2664	9175.675
2594.94701	9140.575
2597.62594	9140.775
2600.30321	9119.175
2602.9788	9107.175
2605.65273	9086.775
2608.32498	9099.075
2610.99557	9091.275
2613.66449	9112.975
2616.33175	9062.075
2618.99734	9076.375
2621.66128	9091.475
2624.32355	9064.775
2626.98416	9050.475
2629.64311	9041.675
2632.30041	9050.975
2634.95605	9039.275
2637.61004	9037.475
2640.26238	9018.975
2642.91306	9040.175
2645.56209	9014.975
2648.20948	9034.375
2650.85521	9018.675
2653.4993	8996.875
2656.14175	9005.275
2658.78255	9019.475
2661.42171	9010.175
2664.05923	9026.375
2666.6951	9025.975
2669.32934	9009.975
2671.96194	9003.075
2674.59291	9014.775
2677.22224	9001.375
2679.84993	9010.475
2682.476	9011.475
2685.10043	9002.975
2687.72324	8962.875
2690.34441	8988.075
2692.96396	8985.575
2695.58188	8996.575
2698.19818	8981.075
2700.81285	9002.575
2703.4259	8996.075
2706.03733	9042.175
2708.64714	9042.375
2711.25533	9024.075
2713.86191	8990.475
2716.46687	9009.575
2719.07021	9007.275
2721.67194	9016.875
2724.27206	9008.375
2726.87057	9007.275
2729.46747	9045.075
2732.06276	9022.875
2734.65644	8997.675
2737.24852	9004.275
2739.83899	8981.575
2742.42786	8965.975
2745.01513	8967.775
2747.60079	8984.675
2750.18486	8971.275
2752.76733	8963.175
2755.3482	8954.775
2757.92747	8986.475
2760.50515	8947.775
2763.08123	8962.975
2765.65573	8955.675
2768.22863	8971.875
2770.79994	8913.275
2773.36967	8917.475
2775.9378	8914.075
2778.50435	8928.575
2781.06932	8904.875
2783.6327	8896.675
2786.1945	8904.775
2788.75471	8881.575
2791.31335	8874.075
2793.87041	8876.875
2796.42589	8861.775
2798.97979	8844.975
2801.53212	8826.875
2804.08288	8820.275
2806.63206	8815.075
2809.17967	8788.375
2811.72571	8746.075
2814.27018	8760.575
2816.81308	8731.375
2819.35442	8711.175
2821.89419	8720.375
2824.43239	8683.075
2826.96904	8675.675
2829.50412	8679.175
2832.03763	8695.475
2834.56959	8668.075
2837.1	8681.175
2839.62884	8694.275
2842.15613	8671.875
2844.68186	8708.075
2847.20604	8730.275
2849.72867	8771.475
2852.24974	8727.275
2854.76927	8753.075
2857.28724	8735.275
2859.80367	8723.975
2862.31855	8714.875
2864.83189	8687.975
2867.34368	8684.575
2869.85393	8672.375
2872.36264	8658.175
2874.8698	8657.975
2877.37543	8677.275
2879.87952	8655.375
2882.38207	8668.675
2884.88308	8634.175
2887.38256	8668.375
2889.88051	8630.775
2892.37692	8638.475
2894.8718	8645.275
2897.36515	8669.275
2899.85698	8662.275
2902.34727	8672.475
2904.83604	8674.375
2907.32328	8698.975
2909.809	8679.575
2912.29319	8705.875
2914.77587	8691.475
2917.25702	8677.975
2919.73665	8675.275
2922.21476	8683.575
2924.69136	8668.875
2927.16644	8677.975
2929.64	8697.875
2932.11205	8683.175
2934.58258	8665.275
2937.05161	8658.075
2939.51912	8656.475
2941.98513	8629.975
2944.44962	8618.775
2946.91261	8560.875
2949.37409	8559.775
2951.83407	8572.375
2954.29254	8540.775
2956.74951	8514.175
2959.20498	8501.975
2961.65895	8506.775
2964.11142	8456.675
2966.56239	8440.375
2969.01186	8434.175
2971.45984	8402.075
2973.90632	8393.475
2976.35131	8363.175
2978.7948	8340.575
2981.23681	8316.275
2983.67732	8307.075
2986.11635	8276.275
2988.55388	8264.475
2990.98993	8248.575
2993.4245	8224.475
2995.85758	8205.775
2998.28917	8211.575
3000.71928	8197.675
3003.14791	8191.375
3005.57506	8175.475
3008.00073	8135.975
3010.42493	8113.075
3012.84764	8087.675
3015.26888	8096.375
3017.68865	8060.875
3020.10694	8088.475
3022.52376	8050.875
3024.9391	7994.875
3027.35298	8009.475
3029.76539	8016.275
3032.17632	7996.975
3034.5858	7979.375
3036.9938	7987.875
3039.40034	7970.475
3041.80542	7963.975
3044.20903	7936.975
3046.61118	7947.675
3049.01187	7912.075
3051.4111	7892.775
3053.80888	7869.075
3056.20519	7882.775
3058.60005	7834.575
3060.99345	7859.775
3063.3854	7821.675
3065.7759	7802.975
3068.16494	7786.275
3070.55254	7733.275
3072.93868	7748.675
3075.32338	7711.975
3077.70662	7704.575
3080.08842	7662.275
3082.46878	7671.575
3084.84769	7651.675
3087.22515	7661.375
3089.60118	7645.775
3091.97576	7664.475
3094.3489	7650.575
3096.72061	7624.675
3099.09087	7638.175
3101.4597	7620.575
3103.82709	7609.075
3106.19305	7596.175
3108.55757	7600.175
3110.92066	7576.275
3113.28232	7566.375
3115.64255	7525.175
3118.00134	7508.275
3120.35871	7498.075
3122.71466	7490.775
3125.06917	7485.075
3127.42226	7455.275
3129.77393	7468.375
3132.12417	7457.475
3134.47299	7462.575
3136.82039	7448.775
3139.16636	7444.375
3141.51092	7438.675
3143.85406	7464.375
3146.19579	7464.475
3148.53609	7456.275
3150.87499	7457.875
3153.21246	7473.575
3155.54853	7491.175
3157.88318	7473.175
3160.21642	7504.875
3162.54826	7470.675
