Data from AgNPs_FTO_APTES_UA_2uM_CRN_50uM_R6G_10uM_NaF_0.1M_Addition_RamanShift__35__15-17-05-275.txt Node

Date: Wed Feb 02 15:17:05 GMT 2022
User: TCL
Spectrometer: QEP01345
Trigger mode: 4
Integration Time (sec): 7.000000E0
Scans to average: 10
Electric dark correction enabled: true
Nonlinearity correction enabled: false
Boxcar width: 0
XAxis mode: Raman Shifts
Number of Pixels in Spectrum: 1044
>>>>>Begin Spectral Data<<<<<
46.04893	0.125
50.45542	-0.175
54.85868	-1.875
59.25871	-0.075
63.6555	87.425
68.04907	92.225
72.43941	95.525
76.82654	102.225
81.21044	106.325
85.59113	112.525
89.96862	112.725
94.34289	117.325
98.71396	120.525
103.08183	124.925
107.4465	129.325
111.80798	132.025
116.16626	132.125
120.52136	134.425
124.87327	144.325
129.222	149.225
133.56755	160.125
137.90993	164.025
142.24913	186.025
146.58517	206.625
150.91804	234.825
155.24774	283.225
159.57429	348.025
163.89768	443.525
168.21792	581.825
172.53501	795.525
176.84895	1093.425
181.15975	1534.025
185.46741	2158.325
189.77193	2956.925
194.07331	3944.125
198.37157	5077.425
202.6667	6288.525
206.9587	7465.625
211.24758	8634.625
215.53334	9847.025
219.81599	11077.925
224.09553	12471.325
228.37195	13967.525
232.64527	15613.525
236.91549	17294.025
241.18261	18998.725
245.44663	20556.425
249.70755	21941.425
253.96539	23232.225
258.22014	24304.525
262.4718	25241.725
266.72039	25881.525
270.96589	26230.625
275.20832	26279.725
279.44768	26158.925
283.68397	25980.425
287.91719	25818.725
292.14735	25688.825
296.37445	25693.225
300.59849	25817.225
304.81948	25931.925
309.03742	25954.725
313.25231	25711.925
317.46415	25216.525
321.67296	24626.525
325.87872	24086.325
330.08145	23796.625
334.28114	23726.225
338.47781	23832.525
342.67145	24122.725
346.86207	24463.925
351.04966	24807.525
355.23424	25268.925
359.4158	25710.325
363.59435	25983.825
367.76989	26224.225
371.94243	26367.425
376.11196	26487.725
380.27849	26578.225
384.44203	26674.925
388.60257	26874.825
392.76012	27162.825
396.91468	27543.025
401.06626	27977.625
405.21485	28231.525
409.36047	28180.625
413.50311	27884.925
417.64277	27687.625
421.77947	27683.725
425.9132	27753.725
430.04396	27886.325
434.17176	28097.225
438.2966	28443.825
442.41849	29013.925
446.53742	30007.025
450.6534	31114.825
454.76644	31931.825
458.87653	32187.025
462.98368	31867.325
467.08789	31354.225
471.18916	30877.125
475.2875	30489.425
479.38291	30418.525
483.4754	30262.825
487.56496	29893.925
491.6516	29271.125
495.73531	28606.725
499.81612	28169.025
503.89401	28078.125
507.96899	28091.925
512.04106	27993.825
516.11023	27711.125
520.1765	27389.825
524.23987	27141.025
528.30034	26942.625
532.35792	26706.025
536.41261	26393.125
540.46441	26059.125
544.51333	26077.425
548.55936	26377.225
552.60252	27002.625
556.64279	27773.925
560.6802	28455.025
564.71473	28961.325
568.7464	29612.125
572.7752	30542.525
576.80114	31334.525
580.82422	31911.625
584.84444	32835.025
588.86181	34052.525
592.87633	35141.725
596.888	35134.925
600.89682	33948.425
604.9028	33657.925
608.90594	35395.625
612.90624	37348.625
616.90371	35033.125
620.89834	29749.825
624.89015	27409.325
628.87913	27112.525
632.86528	27127.825
636.84862	26977.525
640.82913	26432.225
644.80683	25745.725
648.78172	25344.925
652.75379	25269.225
656.72306	25603.025
660.68952	25984.625
664.65319	25828.525
668.61405	25340.625
672.57211	25240.525
676.52738	25370.725
680.47986	25318.025
684.42955	25200.025
688.37646	25057.125
692.32058	25251.625
696.26192	25618.425
700.20048	26049.625
704.13626	26284.025
708.06928	26255.825
711.99952	26118.825
715.927	26131.725
719.85171	26269.225
723.77365	26159.225
727.69284	25768.125
731.60928	25478.325
735.52295	25322.325
739.43388	25311.625
743.34206	25425.225
747.24749	25586.025
751.15017	25872.725
755.05012	26364.725
758.94733	27203.125
762.8418	28535.725
766.73354	30424.325
770.62254	32113.625
774.50882	32200.925
778.39237	30760.625
782.27321	28633.925
786.15132	26941.525
790.02671	25935.025
793.89938	25488.025
797.76935	25285.925
801.6366	25245.225
805.50115	25234.725
809.36299	25128.925
813.22213	24998.925
817.07857	24858.325
820.93231	24770.625
824.78336	24660.125
828.63172	24614.425
832.47738	24592.025
836.32036	24699.725
840.16066	24833.525
843.99827	24857.325
847.8332	24731.325
851.66546	24610.825
855.49504	24563.725
859.32195	24533.025
863.1462	24446.625
866.96777	24315.525
870.78668	24247.725
874.60293	24218.525
878.41652	24231.425
882.22745	24315.525
886.03573	24376.825
889.84136	24369.825
893.64433	24240.125
897.44466	24106.825
901.24235	24044.925
905.0374	23988.225
908.8298	23998.725
912.61957	24126.025
916.40671	24411.925
920.19121	24817.325
923.97308	25221.725
927.75233	25281.825
931.52895	25053.225
935.30295	24641.525
939.07433	24176.525
942.84309	23839.025
946.60924	23651.125
950.37278	23582.725
954.13371	23553.125
957.89203	23450.825
961.64774	23461.725
965.40086	23454.625
969.15137	23390.825
972.89929	23305.525
976.64461	23227.725
980.38733	23282.125
984.12747	23385.525
987.86502	23541.225
991.59999	23832.025
995.33237	24249.225
999.06217	24911.525
1002.78939	25764.025
1006.51404	26313.625
1010.23611	26562.125
1013.95561	26795.625
1017.67255	26779.625
1021.38692	26436.325
1025.09872	26104.625
1028.80796	26268.725
1032.51465	27047.025
1036.21877	27884.325
1039.92035	28083.525
1043.61937	27781.525
1047.31584	27170.025
1051.00976	26421.625
1054.70114	26052.325
1058.38998	25976.925
1062.07627	26033.925
1065.76003	26169.825
1069.44126	26365.225
1073.11995	26715.425
1076.79611	27038.425
1080.46974	27149.925
1084.14085	27381.925
1087.80943	27701.125
1091.47549	27915.825
1095.13903	27892.225
1098.80005	27546.125
1102.45857	26984.325
1106.11456	26490.325
1109.76805	26311.025
1113.41903	26390.925
1117.06751	26524.925
1120.71348	26798.325
1124.35696	27050.725
1127.99793	27434.125
1131.63641	27643.525
1135.2724	27560.525
1138.90589	27497.125
1142.5369	27581.425
1146.16542	27858.325
1149.79145	28253.125
1153.415	28657.125
1157.03607	29279.625
1160.65467	30323.625
1164.27079	31891.425
1167.88443	33678.325
1171.49561	35592.425
1175.10432	38042.825
1178.71056	41032.325
1182.31434	43809.025
1185.91565	44996.425
1189.51451	44588.725
1193.11091	43329.425
1196.70485	41878.025
1200.29634	40581.225
1203.88538	39776.325
1207.47197	39287.025
1211.05612	38792.425
1214.63782	37982.125
1218.21708	37034.725
1221.79391	36144.225
1225.36829	35457.825
1228.94024	34742.325
1232.50976	33945.325
1236.07685	33267.425
1239.6415	32987.525
1243.20374	33105.525
1246.76355	33496.625
1250.32093	34125.625
1253.8759	34928.625
1257.42845	35915.925
1260.97859	36952.625
1264.52631	37962.425
1268.07163	39000.225
1271.61453	40255.925
1275.15503	41560.325
1278.69312	43020.125
1282.22882	44407.325
1285.76211	46063.525
1289.29301	48069.625
1292.82151	50653.825
1296.34761	53795.325
1299.87133	57504.825
1303.39266	61243.925
1306.9116	64541.025
1310.42815	66849.625
1313.94233	67937.325
1317.45412	67501.825
1320.96354	66367.025
1324.47058	65133.125
1327.97525	64151.525
1331.47754	63402.425
1334.97747	62794.325
1338.47502	61967.325
1341.97022	60536.425
1345.46305	58793.625
1348.95352	57239.025
1352.44163	57002.225
1355.92738	58300.625
1359.41078	60842.825
1362.89183	62840.425
1366.37053	61934.325
1369.84688	57258.125
1373.32088	51157.725
1376.79254	47013.025
1380.26186	45849.025
1383.72883	46389.625
1387.19347	46825.525
1390.65578	46794.825
1394.11575	46868.825
1397.57339	47637.125
1401.0287	48817.925
1404.48168	49782.425
1407.93234	49716.225
1411.38068	48569.225
1414.82669	46514.125
1418.27039	44270.525
1421.71177	41899.425
1425.15083	39937.225
1428.58758	38957.025
1432.02203	39192.525
1435.45416	40361.925
1438.88399	41871.225
1442.31151	43185.925
1445.73673	44100.025
1449.15965	44806.525
1452.58027	45113.725
1455.9986	44965.625
1459.41463	44928.625
1462.82837	45368.625
1466.23982	46154.125
1469.64898	47006.925
1473.05586	47496.025
1476.46045	47696.625
1479.86276	47394.825
1483.26279	46725.525
1486.66054	46151.725
1490.05602	45961.325
1493.44922	46093.125
1496.84016	46197.425
1500.22882	46419.625
1503.61521	46988.925
1506.99934	47913.325
1510.38121	48812.925
1513.76081	49151.625
1517.13816	48600.325
1520.51324	47452.125
1523.88607	46681.025
1527.25665	46517.425
1530.62498	46762.625
1533.99105	46785.925
1537.35488	46416.225
1540.71647	45463.125
1544.07581	44204.525
1547.4329	42841.725
1550.78776	41685.825
1554.14038	40904.325
1557.49077	40419.825
1560.83892	40089.425
1564.18484	40010.225
1567.52853	40087.825
1570.86999	40567.525
1574.20922	41424.525
1577.54624	42449.625
1580.88103	43250.425
1584.2136	44264.425
1587.54395	46290.625
1590.87208	49207.225
1594.19801	52400.525
1597.52172	55002.825
1600.84321	55224.025
1604.16251	52161.525
1607.47959	47186.825
1610.79447	42067.525
1614.10715	37888.925
1617.41763	34869.525
1620.7259	33061.325
1624.03199	32364.425
1627.33587	32658.325
1630.63757	34004.725
1633.93707	36524.025
1637.23439	40371.625
1640.52951	45851.725
1643.82246	52315.225
1647.11321	57214.025
1650.40179	57637.925
1653.68819	52842.025
1656.97241	45197.925
1660.25446	37967.525
1663.53433	32760.725
1666.81203	29437.925
1670.08756	27343.225
1673.36092	26128.325
1676.63211	25252.225
1679.90115	24670.625
1683.16801	24235.725
1686.43272	23924.925
1689.69527	23702.425
1692.95567	23530.125
1696.2139	23416.225
1699.46999	23347.525
1702.72392	23223.725
1705.97571	23183.225
1709.22535	23070.125
1712.47284	23001.425
1715.71819	22964.925
1718.96139	22910.625
1722.20246	22849.925
1725.44139	22735.725
1728.67818	22645.925
1731.91284	22514.025
1735.14537	22388.225
1738.37576	22285.625
1741.60403	22239.125
1744.83017	22175.525
1748.05418	22116.025
1751.27607	22077.225
1754.49584	22049.225
1757.71349	22048.925
1760.92903	21977.625
1764.14244	22007.825
1767.35375	21979.525
1770.56294	21897.625
1773.77002	21884.725
1776.97499	21860.925
1780.17785	21825.325
1783.37861	21771.425
1786.57727	21741.525
1789.77382	21691.825
1792.96828	21672.625
1796.16064	21623.925
1799.3509	21621.925
1802.53907	21554.025
1805.72514	21468.925
1808.90913	21426.425
1812.09102	21457.325
1815.27083	21367.925
1818.44856	21374.525
1821.6242	21325.725
1824.79776	21299.825
1827.96924	21309.725
1831.13864	21257.225
1834.30597	21286.525
1837.47122	21272.825
1840.6344	21261.225
1843.7955	21312.125
1846.95454	21230.525
1850.11151	21267.025
1853.26642	21247.525
1856.41926	21197.525
1859.57004	21211.625
1862.71876	21233.625
1865.86542	21199.825
1869.01003	21194.325
1872.15258	21192.625
1875.29308	21171.225
1878.43152	21155.925
1881.56792	21161.325
1884.70227	21123.925
1887.83457	21148.725
1890.96482	21095.025
1894.09304	21083.225
1897.21921	21097.625
1900.34335	21077.825
1903.46544	21056.525
1906.58551	21080.025
1909.70353	21005.125
1912.81953	21018.325
1915.93349	20961.925
1919.04543	20936.825
1922.15534	20865.525
1925.26322	20856.325
1928.36908	20823.725
1931.47292	20785.225
1934.57473	20734.225
1937.67453	20672.525
1940.77232	20613.325
1943.86808	20569.925
1946.96184	20536.325
1950.05358	20457.625
1953.14331	20464.025
1956.23103	20414.925
1959.31675	20295.625
1962.40046	20284.125
1965.48217	20223.625
1968.56188	20156.225
1971.63959	20077.425
1974.7153	20069.425
1977.78901	19985.425
1980.86073	19933.025
1983.93046	19873.425
1986.99819	19806.325
1990.06394	19763.425
1993.1277	19744.325
1996.18947	19629.725
1999.24925	19616.725
2002.30706	19552.325
2005.36288	19519.825
2008.41672	19499.425
2011.46859	19448.625
2014.51848	19384.625
2017.56639	19303.125
2020.61233	19265.925
2023.6563	19285.925
2026.6983	19233.925
2029.73833	19238.625
2032.7764	19208.925
2035.8125	19148.725
2038.84664	19136.025
2041.87881	19140.025
2044.90903	19111.125
2047.93729	19072.325
2050.96359	19045.725
2053.98794	19038.825
2057.01034	19043.625
2060.03078	19026.325
2063.04927	19031.325
2066.06582	18988.525
2069.08042	18982.325
2072.09307	19003.125
2075.10378	18953.325
2078.11255	18939.625
2081.11938	18928.225
2084.12426	18906.225
2087.12722	18892.625
2090.12824	18914.425
2093.12732	18904.325
2096.12447	18933.825
2099.11969	18961.725
2102.11299	18977.525
2105.10435	18985.025
2108.09379	18998.225
2111.08131	18998.825
2114.0669	19025.025
2117.05057	18999.225
2120.03233	19045.225
2123.01216	19051.425
2125.99008	19116.025
2128.96609	19105.925
2131.94018	19056.325
2134.91236	19080.925
2137.88263	19078.225
2140.851	19139.025
2143.81746	19167.325
2146.78201	19197.925
2149.74466	19193.525
2152.7054	19186.925
2155.66425	19160.325
2158.6212	19197.425
2161.57625	19159.125
2164.52941	19175.525
2167.48067	19175.225
2170.43004	19172.225
2173.37752	19124.925
2176.32311	19147.225
2179.26681	19170.425
2182.20863	19143.725
2185.14856	19182.925
2188.08661	19194.625
2191.02278	19170.925
2193.95707	19204.725
2196.88948	19191.825
2199.82001	19181.625
2202.74867	19183.325
2205.67545	19196.925
2208.60037	19190.125
2211.52341	19158.125
2214.44458	19138.225
2217.36388	19103.925
2220.28132	19098.525
2223.1969	19097.925
2226.11061	19053.525
2229.02246	19045.125
2231.93245	19007.725
2234.84058	18988.725
2237.74686	18944.425
2240.65128	18943.325
2243.55385	18923.925
2246.45456	18905.325
2249.35343	18859.325
2252.25044	18865.725
2255.14561	18845.625
2258.03893	18814.925
2260.93041	18759.525
2263.82004	18727.625
2266.70783	18671.325
2269.59378	18610.225
2272.4779	18588.925
2275.36017	18527.325
2278.24061	18524.125
2281.11922	18480.225
2283.996	18464.725
2286.87094	18435.125
2289.74405	18461.625
2292.61534	18465.525
2295.4848	18481.325
2298.35243	18474.325
2301.21824	18470.525
2304.08223	18502.525
2306.94439	18525.125
2309.80474	18492.625
2312.66327	18515.225
2315.51999	18486.025
2318.37489	18487.625
2321.22797	18496.125
2324.07925	18495.825
2326.92871	18456.225
2329.77637	18470.825
2332.62222	18443.525
2335.46626	18487.725
2338.3085	18446.125
2341.14893	18449.925
2343.98756	18447.625
2346.8244	18413.125
2349.65943	18447.925
2352.49267	18460.725
2355.32411	18431.825
2358.15376	18394.825
2360.98161	18378.825
2363.80768	18379.525
2366.63195	18331.225
2369.45444	18292.225
2372.27514	18306.925
2375.09405	18283.525
2377.91118	18230.725
2380.72652	18214.325
2383.54009	18231.525
2386.35187	18210.825
2389.16188	18168.125
2391.97011	18130.225
2394.77657	18144.425
2397.58125	18118.825
2400.38416	18090.925
2403.18529	18052.125
2405.98466	18044.625
2408.78226	18048.525
2411.57809	18027.625
2414.37216	18011.425
2417.16446	17991.325
2419.955	17956.925
2422.74378	17964.825
2425.5308	17952.225
2428.31606	17964.325
2431.09956	17961.525
2433.88131	17893.725
2436.6613	17944.025
2439.43954	17944.625
2442.21603	17908.325
2444.99077	17879.825
2447.76377	17871.125
2450.53501	17896.825
2453.30451	17914.025
2456.07226	17869.725
2458.83827	17898.125
2461.60254	17903.725
2464.36507	17900.325
2467.12586	17921.625
2469.88492	17915.225
2472.64224	17945.625
2475.39782	17966.425
2478.15167	17974.525
2480.90379	17994.725
2483.65417	17976.725
2486.40283	17965.125
2489.14976	18030.925
2491.89497	17990.425
2494.63845	18040.425
2497.3802	18001.525
2500.12024	17994.325
2502.85855	17977.225
2505.59514	18045.725
2508.33002	18012.425
2511.06318	18018.225
2513.79462	18002.025
2516.52435	17996.025
2519.25237	17988.125
2521.97867	17975.425
2524.70327	17966.425
2527.42616	17933.425
2530.14734	17969.625
2532.86681	17956.525
2535.58458	17926.725
2538.30065	17910.825
2541.01501	17928.125
2543.72768	17908.725
2546.43864	17900.025
2549.14791	17853.725
2551.85548	17885.825
2554.56136	17875.025
2557.26554	17893.425
2559.96803	17876.325
2562.66883	17886.225
2565.36794	17883.825
2568.06536	17893.425
2570.7611	17897.825
2573.45514	17857.925
2576.14751	17881.325
2578.83819	17833.725
2581.52719	17836.325
2584.21451	17853.525
2586.90015	17852.125
2589.58411	17836.225
2592.2664	17838.425
2594.94701	17799.925
2597.62594	17807.425
2600.30321	17790.525
2602.9788	17812.725
2605.65273	17784.025
2608.32498	17789.525
2610.99557	17800.225
2613.66449	17833.325
2616.33175	17791.025
2618.99734	17795.425
2621.66128	17803.125
2624.32355	17788.725
2626.98416	17801.525
2629.64311	17813.125
2632.30041	17809.025
2634.95605	17789.425
2637.61004	17764.025
2640.26238	17748.025
2642.91306	17761.125
2645.56209	17760.525
2648.20948	17753.525
2650.85521	17767.125
2653.4993	17737.625
2656.14175	17763.425
2658.78255	17773.425
2661.42171	17803.825
2664.05923	17830.725
2666.6951	17803.525
2669.32934	17852.325
2671.96194	17853.225
2674.59291	17858.325
2677.22224	17850.925
2679.84993	17845.125
2682.476	17840.025
2685.10043	17837.825
2687.72324	17823.025
2690.34441	17819.325
2692.96396	17823.225
2695.58188	17786.025
2698.19818	17817.325
2700.81285	17839.625
2703.4259	17855.225
2706.03733	17920.925
2708.64714	17895.525
2711.25533	17906.125
2713.86191	17893.125
2716.46687	17974.425
2719.07021	17950.825
2721.67194	18001.725
2724.27206	17996.225
2726.87057	18057.425
2729.46747	18064.025
2732.06276	18024.925
2734.65644	18015.925
2737.24852	18023.125
2739.83899	18018.125
2742.42786	18007.225
2745.01513	17974.525
2747.60079	17977.025
2750.18486	17987.225
2752.76733	17995.625
2755.3482	18031.725
2757.92747	18027.225
2760.50515	18047.825
2763.08123	18057.525
2765.65573	18048.425
2768.22863	18055.325
2770.79994	18004.925
2773.36967	18007.625
2775.9378	18018.125
2778.50435	18017.525
2781.06932	17945.925
2783.6327	18036.525
2786.1945	18025.125
2788.75471	17990.325
2791.31335	17975.825
2793.87041	17973.425
2796.42589	17948.225
2798.97979	17974.025
2801.53212	17897.925
2804.08288	17930.625
2806.63206	17885.625
2809.17967	17837.225
2811.72571	17819.125
2814.27018	17783.625
2816.81308	17786.225
2819.35442	17743.825
2821.89419	17726.625
2824.43239	17728.925
2826.96904	17705.525
2829.50412	17683.525
2832.03763	17632.325
2834.56959	17680.425
2837.1	17679.825
2839.62884	17673.425
2842.15613	17667.325
2844.68186	17704.825
2847.20604	17732.125
2849.72867	17755.325
2852.24974	17763.225
2854.76927	17734.225
2857.28724	17718.425
2859.80367	17705.625
2862.31855	17709.225
2864.83189	17696.225
2867.34368	17678.625
2869.85393	17667.325
2872.36264	17687.625
2874.8698	17650.525
2877.37543	17705.225
2879.87952	17688.025
2882.38207	17660.225
2884.88308	17693.925
2887.38256	17699.525
2889.88051	17702.325
2892.37692	17701.425
2894.8718	17735.525
2897.36515	17756.025
2899.85698	17792.925
2902.34727	17805.525
2904.83604	17813.925
2907.32328	17862.325
2909.809	17846.025
2912.29319	17827.625
2914.77587	17831.025
2917.25702	17838.025
2919.73665	17815.225
2922.21476	17792.125
2924.69136	17806.425
2927.16644	17844.325
2929.64	17875.125
2932.11205	17859.925
2934.58258	17805.825
2937.05161	17831.625
2939.51912	17829.425
2941.98513	17804.925
2944.44962	17743.225
2946.91261	17672.925
2949.37409	17726.625
2951.83407	17711.525
2954.29254	17674.425
2956.74951	17676.925
2959.20498	17674.425
2961.65895	17636.725
2964.11142	17639.025
2966.56239	17582.825
2969.01186	17589.925
2971.45984	17578.125
2973.90632	17537.925
2976.35131	17469.525
2978.7948	17432.725
2981.23681	17421.025
2983.67732	17404.325
2986.11635	17385.625
2988.55388	17318.125
2990.98993	17336.325
2993.4245	17284.925
2995.85758	17233.025
2998.28917	17236.525
3000.71928	17224.725
3003.14791	17219.325
3005.57506	17176.725
3008.00073	17102.225
3010.42493	17096.225
3012.84764	17066.825
3015.26888	17098.625
3017.68865	17052.425
3020.10694	17016.025
3022.52376	17034.325
3024.9391	16970.925
3027.35298	16976.725
3029.76539	16932.225
3032.17632	16959.925
3034.5858	16942.525
3036.9938	16936.525
3039.40034	16908.125
3041.80542	16913.025
3044.20903	16864.425
3046.61118	16879.025
3049.01187	16873.425
3051.4111	16790.725
3053.80888	16745.525
3056.20519	16746.625
3058.60005	16726.825
3060.99345	16685.025
3063.3854	16668.825
3065.7759	16644.425
3068.16494	16595.825
3070.55254	16514.925
3072.93868	16501.125
3075.32338	16429.825
3077.70662	16439.025
3080.08842	16391.225
3082.46878	16406.925
3084.84769	16404.625
3087.22515	16367.025
3089.60118	16396.125
3091.97576	16408.625
3094.3489	16341.725
3096.72061	16387.625
3099.09087	16379.525
3101.4597	16350.325
3103.82709	16346.025
3106.19305	16332.325
3108.55757	16299.325
3110.92066	16224.125
3113.28232	16240.925
3115.64255	16198.025
3118.00134	16143.625
3120.35871	16107.725
3122.71466	16091.725
3125.06917	16110.825
3127.42226	16102.525
