Data from AgNPs_FTO_APTES_UA_2uM_CRN_20uM_R6G_10uM_NaF_0.1M_Addition_RamanShift__22__14-23-25-212.txt Node

Date: Wed Feb 02 14:23:25 GMT 2022
User: TCL
Spectrometer: QEP01345
Trigger mode: 4
Integration Time (sec): 7.000000E0
Scans to average: 10
Electric dark correction enabled: true
Nonlinearity correction enabled: false
Boxcar width: 0
XAxis mode: Raman Shifts
Number of Pixels in Spectrum: 1044
>>>>>Begin Spectral Data<<<<<
46.04893	1.1125
50.45542	0.1125
54.85868	-2.3875
59.25871	-1.2875
63.6555	97.2125
68.04907	105.8125
72.43941	108.9125
76.82654	118.9125
81.21044	120.9125
85.59113	127.1125
89.96862	126.9125
94.34289	134.1125
98.71396	135.7125
103.08183	144.0125
107.4465	146.5125
111.80798	152.1125
116.16626	152.1125
120.52136	158.9125
124.87327	168.6125
129.222	171.7125
133.56755	187.6125
137.90993	198.4125
142.24913	219.1125
146.58517	250.7125
150.91804	286.2125
155.24774	341.9125
159.57429	424.1125
163.89768	541.6125
168.21792	718.2125
172.53501	973.3125
176.84895	1362.4125
181.15975	1906.3125
185.46741	2667.6125
189.77193	3675.2125
194.07331	4884.3125
198.37157	6307.7125
202.6667	7775.5125
206.9587	9233.8125
211.24758	10671.5125
215.53334	12138.8125
219.81599	13689.1125
224.09553	15433.1125
228.37195	17347.8125
232.64527	19491.0125
236.91549	21706.1125
241.18261	23833.2125
245.44663	25790.2125
249.70755	27512.6125
253.96539	29022.0125
258.22014	30378.5125
262.4718	31519.4125
266.72039	32388.3125
270.96589	32966.0125
275.20832	33196.4125
279.44768	33206.8125
283.68397	33115.1125
287.91719	33092.3125
292.14735	33195.8125
296.37445	33437.1125
300.59849	33618.1125
304.81948	33772.4125
309.03742	33602.4125
313.25231	33016.2125
317.46415	31922.4125
321.67296	30565.2125
325.87872	29415.2125
330.08145	28794.9125
334.28114	28748.5125
338.47781	28982.5125
342.67145	29365.0125
346.86207	29910.4125
351.04966	30666.3125
355.23424	31509.4125
359.4158	32155.8125
363.59435	32548.8125
367.76989	32757.4125
371.94243	32904.0125
376.11196	32994.4125
380.27849	33123.7125
384.44203	33239.0125
388.60257	33380.1125
392.76012	33672.4125
396.91468	34133.9125
401.06626	34720.3125
405.21485	35129.6125
409.36047	34904.9125
413.50311	34155.2125
417.64277	33507.1125
421.77947	33390.5125
425.9132	33475.4125
430.04396	33725.6125
434.17176	33969.4125
438.2966	34303.1125
442.41849	34979.8125
446.53742	35967.7125
450.6534	37063.9125
454.76644	37996.8125
458.87653	38391.1125
462.98368	38268.7125
467.08789	37811.5125
471.18916	37353.7125
475.2875	36963.7125
479.38291	36715.4125
483.4754	36499.3125
487.56496	35944.0125
491.6516	35195.4125
495.73531	34465.8125
499.81612	34071.1125
503.89401	34140.8125
507.96899	34230.7125
512.04106	34129.7125
516.11023	33860.6125
520.1765	33505.1125
524.23987	33192.3125
528.30034	32773.2125
532.35792	32333.3125
536.41261	31881.8125
540.46441	31506.8125
544.51333	31554.9125
548.55936	32113.9125
552.60252	32974.9125
556.64279	33972.3125
560.6802	34660.7125
564.71473	35135.2125
568.7464	35893.8125
572.7752	36906.6125
576.80114	37373.6125
580.82422	37608.0125
584.84444	37820.6125
588.86181	38002.1125
592.87633	38432.2125
596.888	38863.6125
600.89682	39268.5125
604.9028	40828.5125
608.90594	45159.5125
612.90624	49707.1125
616.90371	46509.4125
620.89834	37430.8125
624.89015	33368.0125
628.87913	32848.7125
632.86528	33040.7125
636.84862	33045.3125
640.82913	32458.8125
644.80683	31349.8125
648.78172	30453.8125
652.75379	30254.3125
656.72306	30651.4125
660.68952	31343.4125
664.65319	31248.3125
668.61405	30589.6125
672.57211	30262.8125
676.52738	30306.2125
680.47986	30349.9125
684.42955	30206.1125
688.37646	30094.3125
692.32058	30197.5125
696.26192	30522.8125
700.20048	30881.9125
704.13626	31200.6125
708.06928	31158.3125
711.99952	30892.5125
715.927	30707.2125
719.85171	30757.4125
723.77365	30643.4125
727.69284	30269.5125
731.60928	29938.6125
735.52295	29792.8125
739.43388	29861.3125
743.34206	29951.2125
747.24749	30166.7125
751.15017	30551.7125
755.05012	31181.5125
758.94733	32417.6125
762.8418	34677.3125
766.73354	38145.8125
770.62254	41435.7125
774.50882	42159.8125
778.39237	39696.4125
782.27321	35866.8125
786.15132	32836.6125
790.02671	31034.4125
793.89938	30164.6125
797.76935	29747.3125
801.6366	29649.3125
805.50115	29572.0125
809.36299	29387.4125
813.22213	29165.7125
817.07857	29096.3125
820.93231	29068.7125
824.78336	28949.2125
828.63172	28842.8125
832.47738	28781.4125
836.32036	28796.0125
840.16066	28820.8125
843.99827	28872.1125
847.8332	28752.9125
851.66546	28633.0125
855.49504	28546.5125
859.32195	28482.7125
863.1462	28347.1125
866.96777	28252.0125
870.78668	28175.3125
874.60293	28129.6125
878.41652	28121.1125
882.22745	28260.2125
886.03573	28315.3125
889.84136	28307.3125
893.64433	28205.4125
897.44466	28033.9125
901.24235	27944.3125
905.0374	27836.7125
908.8298	27797.8125
912.61957	27914.4125
916.40671	28245.6125
920.19121	28697.9125
923.97308	29083.3125
927.75233	29130.4125
931.52895	28912.9125
935.30295	28445.9125
939.07433	27814.3125
942.84309	27286.1125
946.60924	27045.8125
950.37278	26918.4125
954.13371	26814.2125
957.89203	26747.1125
961.64774	26725.6125
965.40086	26662.3125
969.15137	26604.8125
972.89929	26415.9125
976.64461	26269.4125
980.38733	26242.9125
984.12747	26353.1125
987.86502	26608.1125
991.59999	26986.1125
995.33237	27508.0125
999.06217	28433.3125
1002.78939	29594.3125
1006.51404	30410.2125
1010.23611	30874.0125
1013.95561	31218.6125
1017.67255	31229.6125
1021.38692	30844.1125
1025.09872	30423.7125
1028.80796	30514.6125
1032.51465	31141.1125
1036.21877	31908.4125
1039.92035	32057.8125
1043.61937	31679.3125
1047.31584	30930.1125
1051.00976	30124.7125
1054.70114	29718.1125
1058.38998	29720.6125
1062.07627	29940.3125
1065.76003	30292.2125
1069.44126	30592.3125
1073.11995	30999.3125
1076.79611	31273.3125
1080.46974	31473.8125
1084.14085	31713.0125
1087.80943	32175.7125
1091.47549	32531.5125
1095.13903	32485.5125
1098.80005	31997.2125
1102.45857	31200.6125
1106.11456	30527.7125
1109.76805	30361.3125
1113.41903	30485.8125
1117.06751	30893.4125
1120.71348	31369.1125
1124.35696	31897.6125
1127.99793	32416.6125
1131.63641	32665.1125
1135.2724	32368.7125
1138.90589	31967.0125
1142.5369	31809.8125
1146.16542	31814.9125
1149.79145	32009.9125
1153.415	32430.5125
1157.03607	33094.3125
1160.65467	34069.4125
1164.27079	35622.2125
1167.88443	37761.7125
1171.49561	40650.3125
1175.10432	44507.9125
1178.71056	49318.7125
1182.31434	53635.2125
1185.91565	56082.1125
1189.51451	56500.7125
1193.11091	55055.5125
1196.70485	52545.6125
1200.29634	49727.2125
1203.88538	47332.3125
1207.47197	45470.9125
1211.05612	44051.7125
1214.63782	43016.2125
1218.21708	42391.5125
1221.79391	41942.2125
1225.36829	41587.5125
1228.94024	41123.1125
1232.50976	40571.6125
1236.07685	40171.1125
1239.6415	39890.8125
1243.20374	39712.7125
1246.76355	39940.6125
1250.32093	40516.7125
1253.8759	41526.6125
1257.42845	42880.9125
1260.97859	44321.8125
1264.52631	45563.1125
1268.07163	46836.8125
1271.61453	48400.5125
1275.15503	49994.0125
1278.69312	51605.5125
1282.22882	53026.8125
1285.76211	54452.2125
1289.29301	56150.6125
1292.82151	58311.3125
1296.34761	61161.9125
1299.87133	64693.5125
1303.39266	68816.4125
1306.9116	73575.1125
1310.42815	78414.4125
1313.94233	81792.7125
1317.45412	82729.4125
1320.96354	81739.1125
1324.47058	80303.1125
1327.97525	78802.3125
1331.47754	77745.5125
1334.97747	77365.6125
1338.47502	77548.3125
1341.97022	77558.3125
1345.46305	76605.4125
1348.95352	74841.1125
1352.44163	73131.2125
1355.92738	73005.5125
1359.41078	75383.1125
1362.89183	78256.8125
1366.37053	76882.2125
1369.84688	70336.9125
1373.32088	62748.4125
1376.79254	57538.5125
1380.26186	55428.5125
1383.72883	55171.2125
1387.19347	55146.8125
1390.65578	55090.8125
1394.11575	55436.1125
1397.57339	56443.2125
1401.0287	58059.7125
1404.48168	59600.1125
1407.93234	60392.3125
1411.38068	59955.6125
1414.82669	58098.3125
1418.27039	55338.1125
1421.71177	52268.3125
1425.15083	49712.4125
1428.58758	48188.2125
1432.02203	47964.7125
1435.45416	48710.9125
1438.88399	49915.1125
1442.31151	51184.9125
1445.73673	52296.5125
1449.15965	53472.8125
1452.58027	54452.5125
1455.9986	55042.6125
1459.41463	55626.7125
1462.82837	56537.2125
1466.23982	57594.2125
1469.64898	58541.1125
1473.05586	58899.3125
1476.46045	58675.2125
1479.86276	58145.9125
1483.26279	57485.8125
1486.66054	57045.0125
1490.05602	57040.9125
1493.44922	57355.6125
1496.84016	57741.0125
1500.22882	58632.8125
1503.61521	60236.0125
1506.99934	62535.9125
1510.38121	65036.6125
1513.76081	66268.2125
1517.13816	65147.0125
1520.51324	62269.9125
1523.88607	59349.1125
1527.25665	57549.8125
1530.62498	56593.7125
1533.99105	56111.9125
1537.35488	55773.2125
1540.71647	55202.8125
1544.07581	54280.2125
1547.4329	53272.5125
1550.78776	52269.9125
1554.14038	51747.2125
1557.49077	51561.6125
1560.83892	51544.8125
1564.18484	51623.2125
1567.52853	51517.7125
1570.86999	51499.9125
1574.20922	52022.7125
1577.54624	52607.6125
1580.88103	52806.9125
1584.2136	53131.8125
1587.54395	54575.9125
1590.87208	57389.7125
1594.19801	60996.8125
1597.52172	64657.6125
1600.84321	65735.8125
1604.16251	62953.3125
1607.47959	57973.6125
1610.79447	52597.8125
1614.10715	47494.8125
1617.41763	43260.0125
1620.7259	40247.7125
1624.03199	38720.6125
1627.33587	38611.6125
1630.63757	39781.8125
1633.93707	42511.2125
1637.23439	46953.5125
1640.52951	52767.5125
1643.82246	59085.9125
1647.11321	63849.8125
1650.40179	64687.7125
1653.68819	60643.8125
1656.97241	52861.0125
1660.25446	44606.2125
1663.53433	38280.4125
1666.81203	34045.1125
1670.08756	31360.7125
1673.36092	29714.9125
1676.63211	28625.6125
1679.90115	27857.8125
1683.16801	27265.6125
1686.43272	26831.2125
1689.69527	26539.3125
1692.95567	26253.9125
1696.2139	26101.8125
1699.46999	25971.3125
1702.72392	25882.0125
1705.97571	25792.6125
1709.22535	25673.9125
1712.47284	25648.0125
1715.71819	25574.0125
1718.96139	25511.1125
1722.20246	25392.3125
1725.44139	25243.9125
1728.67818	25070.3125
1731.91284	24912.4125
1735.14537	24775.5125
1738.37576	24666.5125
1741.60403	24526.9125
1744.83017	24454.7125
1748.05418	24456.4125
1751.27607	24382.7125
1754.49584	24327.7125
1757.71349	24335.8125
1760.92903	24255.6125
1764.14244	24231.9125
1767.35375	24193.8125
1770.56294	24151.8125
1773.77002	24107.6125
1776.97499	24039.0125
1780.17785	23987.1125
1783.37861	23950.4125
1786.57727	23914.9125
1789.77382	23856.9125
1792.96828	23803.0125
1796.16064	23776.9125
1799.3509	23772.2125
1802.53907	23710.3125
1805.72514	23635.4125
1808.90913	23539.4125
1812.09102	23534.3125
1815.27083	23537.6125
1818.44856	23473.6125
1821.6242	23411.7125
1824.79776	23405.3125
1827.96924	23396.4125
1831.13864	23357.4125
1834.30597	23373.2125
1837.47122	23361.1125
1840.6344	23368.6125
1843.7955	23430.7125
1846.95454	23427.4125
1850.11151	23462.4125
1853.26642	23462.7125
1856.41926	23434.1125
1859.57004	23436.5125
1862.71876	23477.0125
1865.86542	23468.1125
1869.01003	23474.9125
1872.15258	23459.0125
1875.29308	23468.8125
1878.43152	23467.8125
1881.56792	23468.6125
1884.70227	23503.7125
1887.83457	23511.1125
1890.96482	23513.9125
1894.09304	23546.6125
1897.21921	23544.5125
1900.34335	23534.3125
1903.46544	23533.7125
1906.58551	23546.2125
1909.70353	23507.5125
1912.81953	23511.2125
1915.93349	23489.9125
1919.04543	23413.5125
1922.15534	23364.0125
1925.26322	23290.0125
1928.36908	23155.6125
1931.47292	23103.0125
1934.57473	22961.4125
1937.67453	22882.5125
1940.77232	22770.0125
1943.86808	22719.8125
1946.96184	22567.2125
1950.05358	22469.2125
1953.14331	22383.5125
1956.23103	22286.9125
1959.31675	22209.0125
1962.40046	22155.2125
1965.48217	22101.8125
1968.56188	22007.6125
1971.63959	21939.6125
1974.7153	21904.1125
1977.78901	21826.8125
1980.86073	21723.5125
1983.93046	21647.9125
1986.99819	21565.2125
1990.06394	21528.2125
1993.1277	21474.1125
1996.18947	21415.2125
1999.24925	21333.5125
2002.30706	21274.4125
2005.36288	21183.4125
2008.41672	21144.1125
2011.46859	21057.9125
2014.51848	21014.1125
2017.56639	20981.3125
2020.61233	20909.1125
2023.6563	20906.9125
2026.6983	20843.8125
2029.73833	20822.9125
2032.7764	20771.4125
2035.8125	20721.2125
2038.84664	20679.9125
2041.87881	20683.1125
2044.90903	20640.8125
2047.93729	20613.0125
2050.96359	20609.1125
2053.98794	20576.1125
2057.01034	20563.2125
2060.03078	20520.6125
2063.04927	20507.6125
2066.06582	20526.3125
2069.08042	20464.3125
2072.09307	20446.5125
2075.10378	20424.1125
2078.11255	20414.7125
2081.11938	20415.6125
2084.12426	20379.8125
2087.12722	20336.4125
2090.12824	20326.8125
2093.12732	20320.9125
2096.12447	20347.9125
2099.11969	20401.1125
2102.11299	20393.7125
2105.10435	20331.9125
2108.09379	20317.4125
2111.08131	20322.5125
2114.0669	20345.9125
2117.05057	20383.6125
2120.03233	20380.1125
2123.01216	20376.8125
2125.99008	20400.3125
2128.96609	20398.9125
2131.94018	20427.8125
2134.91236	20440.1125
2137.88263	20470.6125
2140.851	20470.6125
2143.81746	20469.2125
2146.78201	20502.8125
2149.74466	20458.8125
2152.7054	20460.8125
2155.66425	20489.6125
2158.6212	20431.4125
2161.57625	20463.5125
2164.52941	20436.1125
2167.48067	20430.4125
2170.43004	20419.0125
2173.37752	20416.6125
2176.32311	20394.3125
2179.26681	20405.8125
2182.20863	20397.0125
2185.14856	20402.0125
2188.08661	20391.5125
2191.02278	20417.4125
2193.95707	20406.2125
2196.88948	20390.4125
2199.82001	20444.1125
2202.74867	20391.3125
2205.67545	20399.1125
2208.60037	20342.8125
2211.52341	20340.2125
2214.44458	20342.7125
2217.36388	20306.1125
2220.28132	20268.5125
2223.1969	20279.8125
2226.11061	20221.0125
2229.02246	20188.3125
2231.93245	20146.5125
2234.84058	20111.7125
2237.74686	20027.7125
2240.65128	20011.6125
2243.55385	19977.1125
2246.45456	19949.4125
2249.35343	19970.4125
2252.25044	19923.1125
2255.14561	19902.2125
2258.03893	19869.4125
2260.93041	19848.8125
2263.82004	19765.0125
2266.70783	19757.6125
2269.59378	19630.4125
2272.4779	19602.6125
2275.36017	19543.1125
2278.24061	19549.0125
2281.11922	19487.0125
2283.996	19479.8125
2286.87094	19452.8125
2289.74405	19407.2125
2292.61534	19418.2125
2295.4848	19380.5125
2298.35243	19369.0125
2301.21824	19397.3125
2304.08223	19421.0125
2306.94439	19416.7125
2309.80474	19443.3125
2312.66327	19430.9125
2315.51999	19437.6125
2318.37489	19421.3125
2321.22797	19382.4125
2324.07925	19399.2125
2326.92871	19393.0125
2329.77637	19366.4125
2332.62222	19389.5125
2335.46626	19377.0125
2338.3085	19354.2125
2341.14893	19378.7125
2343.98756	19375.8125
2346.8244	19420.4125
2349.65943	19404.5125
2352.49267	19381.5125
2355.32411	19424.5125
2358.15376	19400.5125
2360.98161	19404.0125
2363.80768	19369.7125
2366.63195	19362.1125
2369.45444	19295.2125
2372.27514	19259.8125
2375.09405	19239.0125
2377.91118	19209.1125
2380.72652	19127.2125
2383.54009	19068.2125
2386.35187	19076.1125
2389.16188	19051.7125
2391.97011	18974.4125
2394.77657	18957.7125
2397.58125	18926.7125
2400.38416	18918.7125
2403.18529	18886.5125
2405.98466	18879.8125
2408.78226	18832.9125
2411.57809	18831.3125
2414.37216	18780.4125
2417.16446	18752.8125
2419.955	18703.3125
2422.74378	18699.8125
2425.5308	18674.1125
2428.31606	18706.4125
2431.09956	18658.2125
2433.88131	18627.6125
2436.6613	18631.1125
2439.43954	18619.7125
2442.21603	18622.2125
2444.99077	18578.4125
2447.76377	18621.8125
2450.53501	18589.3125
2453.30451	18572.1125
2456.07226	18588.4125
2458.83827	18617.0125
2461.60254	18591.9125
2464.36507	18618.5125
2467.12586	18585.8125
2469.88492	18613.9125
2472.64224	18598.0125
2475.39782	18648.2125
2478.15167	18646.6125
2480.90379	18675.1125
2483.65417	18652.9125
2486.40283	18700.7125
2489.14976	18697.3125
2491.89497	18748.0125
2494.63845	18758.5125
2497.3802	18734.8125
2500.12024	18735.2125
2502.85855	18782.6125
2505.59514	18774.6125
2508.33002	18745.5125
2511.06318	18720.4125
2513.79462	18723.1125
2516.52435	18670.2125
2519.25237	18702.6125
2521.97867	18648.7125
2524.70327	18657.4125
2527.42616	18627.3125
2530.14734	18589.5125
2532.86681	18603.4125
2535.58458	18574.3125
2538.30065	18582.2125
2541.01501	18570.4125
2543.72768	18540.7125
2546.43864	18546.2125
2549.14791	18481.9125
2551.85548	18511.5125
2554.56136	18497.3125
2557.26554	18522.3125
2559.96803	18476.9125
2562.66883	18472.2125
2565.36794	18429.7125
2568.06536	18441.3125
2570.7611	18432.2125
2573.45514	18411.4125
2576.14751	18443.2125
2578.83819	18411.3125
2581.52719	18392.2125
2584.21451	18396.1125
2586.90015	18394.8125
2589.58411	18378.1125
2592.2664	18388.0125
2594.94701	18394.7125
2597.62594	18423.5125
2600.30321	18373.1125
2602.9788	18404.4125
2605.65273	18377.3125
2608.32498	18394.4125
2610.99557	18442.5125
2613.66449	18419.8125
2616.33175	18410.3125
2618.99734	18411.3125
2621.66128	18432.2125
2624.32355	18449.5125
2626.98416	18461.7125
2629.64311	18486.5125
2632.30041	18486.6125
2634.95605	18486.1125
2637.61004	18442.9125
2640.26238	18405.2125
2642.91306	18403.0125
2645.56209	18354.6125
2648.20948	18355.8125
2650.85521	18343.3125
2653.4993	18379.1125
2656.14175	18393.9125
2658.78255	18385.5125
2661.42171	18383.2125
2664.05923	18426.0125
2666.6951	18464.0125
2669.32934	18461.6125
2671.96194	18495.2125
2674.59291	18479.6125
2677.22224	18470.9125
2679.84993	18467.9125
2682.476	18466.7125
2685.10043	18421.0125
2687.72324	18430.8125
2690.34441	18430.6125
2692.96396	18424.6125
2695.58188	18417.5125
2698.19818	18397.9125
2700.81285	18384.1125
2703.4259	18401.6125
2706.03733	18486.1125
2708.64714	18445.3125
2711.25533	18456.8125
2713.86191	18430.9125
2716.46687	18439.3125
2719.07021	18434.8125
2721.67194	18461.5125
2724.27206	18446.1125
2726.87057	18484.8125
2729.46747	18462.4125
2732.06276	18494.0125
2734.65644	18460.5125
2737.24852	18456.1125
2739.83899	18431.5125
2742.42786	18474.0125
2745.01513	18416.3125
2747.60079	18467.4125
2750.18486	18466.2125
2752.76733	18461.9125
2755.3482	18490.8125
2757.92747	18516.9125
2760.50515	18489.9125
2763.08123	18458.6125
2765.65573	18460.6125
2768.22863	18454.8125
2770.79994	18466.9125
2773.36967	18440.3125
2775.9378	18468.4125
2778.50435	18437.6125
2781.06932	18447.7125
2783.6327	18476.9125
2786.1945	18483.4125
2788.75471	18393.5125
2791.31335	18379.6125
2793.87041	18377.0125
2796.42589	18345.4125
2798.97979	18314.1125
2801.53212	18313.9125
2804.08288	18295.6125
2806.63206	18244.5125
2809.17967	18246.0125
2811.72571	18212.0125
2814.27018	18216.2125
2816.81308	18181.6125
2819.35442	18156.7125
2821.89419	18102.2125
2824.43239	18129.5125
2826.96904	18119.8125
2829.50412	18112.8125
2832.03763	18096.4125
2834.56959	18082.4125
2837.1	18056.3125
2839.62884	18045.7125
2842.15613	18044.3125
2844.68186	18073.6125
2847.20604	18047.6125
2849.72867	18113.5125
2852.24974	18070.6125
2854.76927	18089.8125
2857.28724	18064.4125
2859.80367	18042.5125
2862.31855	18018.6125
2864.83189	17982.4125
2867.34368	17945.3125
2869.85393	17950.0125
2872.36264	17959.2125
2874.8698	17961.0125
2877.37543	17996.3125
2879.87952	17947.3125
2882.38207	17989.2125
2884.88308	17976.9125
2887.38256	17985.6125
2889.88051	17999.3125
2892.37692	17992.3125
2894.8718	18010.8125
2897.36515	18059.8125
2899.85698	18048.6125
2902.34727	18044.8125
2904.83604	18086.0125
2907.32328	18096.9125
2909.809	18078.0125
2912.29319	18078.4125
2914.77587	18080.1125
2917.25702	18040.9125
2919.73665	18061.2125
2922.21476	18069.0125
2924.69136	18058.0125
2927.16644	18061.0125
2929.64	18026.4125
2932.11205	18047.7125
2934.58258	17978.6125
2937.05161	17967.5125
2939.51912	18011.8125
2941.98513	17933.4125
2944.44962	17898.5125
2946.91261	17831.8125
2949.37409	17835.4125
2951.83407	17836.8125
2954.29254	17810.0125
2956.74951	17779.3125
2959.20498	17773.6125
2961.65895	17701.7125
2964.11142	17710.7125
2966.56239	17640.6125
2969.01186	17646.0125
2971.45984	17606.0125
2973.90632	17573.3125
2976.35131	17510.4125
2978.7948	17468.2125
2981.23681	17412.7125
2983.67732	17396.5125
2986.11635	17329.9125
2988.55388	17323.9125
2990.98993	17268.3125
2993.4245	17198.7125
2995.85758	17150.9125
2998.28917	17138.6125
3000.71928	17108.7125
3003.14791	17077.4125
3005.57506	17084.6125
3008.00073	17003.6125
3010.42493	16966.1125
3012.84764	16939.8125
3015.26888	16950.8125
3017.68865	16859.4125
3020.10694	16880.2125
3022.52376	16799.8125
