Data from AgNPs_FTO_APTES_UA_2uM_CRN_5uM_R6G_10uM_NaF_0.1M_Addition_RamanShift__0__12-38-25-090.txt Node

Date: Wed Feb 02 12:38:25 GMT 2022
User: TCL
Spectrometer: QEP01345
Trigger mode: 4
Integration Time (sec): 7.000000E0
Scans to average: 10
Electric dark correction enabled: true
Nonlinearity correction enabled: false
Boxcar width: 0
XAxis mode: Raman Shifts
Number of Pixels in Spectrum: 1044
>>>>>Begin Spectral Data<<<<<
46.04893	0.7375
50.45542	-1.1625
54.85868	-2.1625
59.25871	-1.0625
63.6555	99.0375
68.04907	108.3375
72.43941	104.5375
76.82654	111.2375
81.21044	112.7375
85.59113	120.8375
89.96862	122.8375
94.34289	128.1375
98.71396	132.2375
103.08183	136.7375
107.4465	140.9375
111.80798	145.7375
116.16626	146.6375
120.52136	156.1375
124.87327	161.5375
129.222	173.4375
133.56755	189.0375
137.90993	199.7375
142.24913	226.6375
146.58517	259.3375
150.91804	300.9375
155.24774	367.6375
159.57429	460.2375
163.89768	596.6375
168.21792	796.2375
172.53501	1097.5375
176.84895	1538.4375
181.15975	2165.6375
185.46741	3048.3375
189.77193	4207.6375
194.07331	5630.2375
198.37157	7266.1375
202.6667	8984.5375
206.9587	10666.9375
211.24758	12363.4375
215.53334	14081.0375
219.81599	15933.1375
224.09553	17947.0375
228.37195	20230.6375
232.64527	22661.6375
236.91549	25221.5375
241.18261	27688.7375
245.44663	29919.6375
249.70755	31968.1375
253.96539	33664.7375
258.22014	35186.4375
262.4718	36434.3375
266.72039	37317.8375
270.96589	37765.7375
275.20832	37750.9375
279.44768	37419.4375
283.68397	36949.5375
287.91719	36534.8375
292.14735	36304.5375
296.37445	36337.5375
300.59849	36631.9375
304.81948	37055.6375
309.03742	37367.1375
313.25231	37283.7375
317.46415	36704.6375
321.67296	35760.1375
325.87872	34942.5375
330.08145	34450.2375
334.28114	34418.8375
338.47781	34618.4375
342.67145	35067.8375
346.86207	35738.0375
351.04966	36600.4375
355.23424	37529.2375
359.4158	38259.3375
363.59435	38784.1375
367.76989	39094.4375
371.94243	39326.8375
376.11196	39427.0375
380.27849	39542.0375
384.44203	39642.9375
388.60257	39815.5375
392.76012	40181.9375
396.91468	40578.6375
401.06626	41285.0375
405.21485	41737.0375
409.36047	41546.9375
413.50311	40876.9375
417.64277	40355.3375
421.77947	40206.8375
425.9132	40242.5375
430.04396	40371.6375
434.17176	40526.2375
438.2966	40923.1375
442.41849	41693.9375
446.53742	42942.1375
450.6534	44271.3375
454.76644	45165.2375
458.87653	45290.7375
462.98368	44890.6375
467.08789	44212.0375
471.18916	43436.3375
475.2875	42604.9375
479.38291	42090.1375
483.4754	41749.2375
487.56496	41303.1375
491.6516	40939.0375
495.73531	40561.7375
499.81612	40445.4375
503.89401	40498.5375
507.96899	40562.4375
512.04106	40514.5375
516.11023	40369.0375
520.1765	40199.5375
524.23987	40134.6375
528.30034	40075.2375
532.35792	39787.2375
536.41261	39316.2375
540.46441	38703.3375
544.51333	38410.7375
548.55936	38759.8375
552.60252	39481.1375
556.64279	40410.1375
560.6802	41132.8375
564.71473	41558.2375
568.7464	42053.4375
572.7752	42941.0375
576.80114	43444.2375
580.82422	44040.4375
584.84444	45317.0375
588.86181	47179.6375
592.87633	48918.0375
596.888	49442.7375
600.89682	48160.7375
604.9028	48355.4375
608.90594	52736.9375
612.90624	58095.0375
616.90371	55318.2375
620.89834	45949.2375
624.89015	41596.3375
628.87913	40920.3375
632.86528	40886.4375
636.84862	40644.7375
640.82913	39837.9375
644.80683	38843.5375
648.78172	38154.4375
652.75379	38250.2375
656.72306	38901.2375
660.68952	39803.6375
664.65319	39583.6375
668.61405	38729.7375
672.57211	38529.9375
676.52738	38735.8375
680.47986	38652.6375
684.42955	38297.1375
688.37646	38201.1375
692.32058	38456.4375
696.26192	39104.1375
700.20048	39783.3375
704.13626	40035.1375
708.06928	39793.5375
711.99952	39500.6375
715.927	39507.6375
719.85171	39779.8375
723.77365	39654.7375
727.69284	39086.6375
731.60928	38596.1375
735.52295	38495.7375
739.43388	38546.5375
743.34206	38653.8375
747.24749	38847.6375
751.15017	39141.3375
755.05012	39691.0375
758.94733	40725.5375
762.8418	42720.0375
766.73354	45802.3375
770.62254	48869.0375
774.50882	49795.1375
778.39237	48097.0375
782.27321	44941.2375
786.15132	42107.8375
790.02671	40216.6375
793.89938	39382.6375
797.76935	39085.9375
801.6366	38906.0375
805.50115	38804.4375
809.36299	38614.0375
813.22213	38394.7375
817.07857	38252.6375
820.93231	38145.4375
824.78336	38078.9375
828.63172	38058.8375
832.47738	38121.5375
836.32036	38320.3375
840.16066	38569.6375
843.99827	38655.2375
847.8332	38532.8375
851.66546	38284.7375
855.49504	38230.3375
859.32195	38277.3375
863.1462	38025.5375
866.96777	37981.1375
870.78668	37827.5375
874.60293	37856.9375
878.41652	37932.3375
882.22745	38151.1375
886.03573	38288.4375
889.84136	38289.6375
893.64433	38096.2375
897.44466	37869.3375
901.24235	37690.8375
905.0374	37638.2375
908.8298	37585.9375
912.61957	37691.4375
916.40671	37973.5375
920.19121	38382.4375
923.97308	38874.8375
927.75233	39189.2375
931.52895	39264.5375
935.30295	38943.2375
939.07433	38238.2375
942.84309	37642.0375
946.60924	37413.8375
950.37278	37283.0375
954.13371	37190.2375
957.89203	36964.6375
961.64774	36906.9375
965.40086	36965.5375
969.15137	36955.4375
972.89929	36898.0375
976.64461	36978.3375
980.38733	37142.9375
984.12747	37407.5375
987.86502	37783.9375
991.59999	38167.2375
995.33237	38763.0375
999.06217	39795.0375
1002.78939	40917.1375
1006.51404	41676.8375
1010.23611	42086.3375
1013.95561	42286.8375
1017.67255	42274.2375
1021.38692	41873.8375
1025.09872	41464.9375
1028.80796	41717.9375
1032.51465	42920.7375
1036.21877	44321.3375
1039.92035	44632.8375
1043.61937	44117.0375
1047.31584	43126.8375
1051.00976	41930.3375
1054.70114	41165.7375
1058.38998	40915.6375
1062.07627	40860.3375
1065.76003	40951.0375
1069.44126	41249.4375
1073.11995	41822.7375
1076.79611	42383.8375
1080.46974	42827.8375
1084.14085	43399.1375
1087.80943	43791.6375
1091.47549	44048.5375
1095.13903	43843.0375
1098.80005	43199.9375
1102.45857	42388.5375
1106.11456	41874.1375
1109.76805	41628.6375
1113.41903	41572.8375
1117.06751	41762.4375
1120.71348	42240.7375
1124.35696	42742.5375
1127.99793	43310.9375
1131.63641	43498.0375
1135.2724	43117.4375
1138.90589	42591.2375
1142.5369	42469.7375
1146.16542	42496.7375
1149.79145	42650.0375
1153.415	42840.3375
1157.03607	43188.9375
1160.65467	44167.4375
1164.27079	45821.6375
1167.88443	48000.6375
1171.49561	50612.0375
1175.10432	54085.6375
1178.71056	58634.9375
1182.31434	62763.1375
1185.91565	64657.4375
1189.51451	63978.9375
1193.11091	61821.9375
1196.70485	59316.6375
1200.29634	57065.4375
1203.88538	55380.3375
1207.47197	54077.7375
1211.05612	52950.2375
1214.63782	51991.5375
1218.21708	51218.9375
1221.79391	50720.8375
1225.36829	50403.8375
1228.94024	49892.2375
1232.50976	48989.8375
1236.07685	48188.6375
1239.6415	47716.9375
1243.20374	47764.2375
1246.76355	48183.9375
1250.32093	48992.4375
1253.8759	49983.7375
1257.42845	51263.9375
1260.97859	52786.0375
1264.52631	54347.1375
1268.07163	55857.6375
1271.61453	57457.4375
1275.15503	59127.5375
1278.69312	60565.2375
1282.22882	62018.7375
1285.76211	63680.0375
1289.29301	65586.2375
1292.82151	67924.3375
1296.34761	70854.8375
1299.87133	74648.9375
1303.39266	79288.2375
1306.9116	84314.0375
1310.42815	88701.2375
1313.94233	90700.9375
1317.45412	89724.7375
1320.96354	86829.2375
1324.47058	83490.9375
1327.97525	80619.1375
1331.47754	78673.7375
1334.97747	77303.9375
1338.47502	76252.5375
1341.97022	74906.2375
1345.46305	73682.6375
1348.95352	73687.4375
1352.44163	75161.8375
1355.92738	78662.0375
1359.41078	84263.7375
1362.89183	89153.5375
1366.37053	88317.1375
1369.84688	80831.9375
1373.32088	71325.3375
1376.79254	64678.6375
1380.26186	62104.2375
1383.72883	61738.4375
1387.19347	61297.9375
1390.65578	60164.5375
1394.11575	59387.2375
1397.57339	59554.0375
1401.0287	60246.8375
1404.48168	60936.5375
1407.93234	61036.8375
1411.38068	60232.5375
1414.82669	59057.2375
1418.27039	57589.8375
1421.71177	55819.7375
1425.15083	54387.9375
1428.58758	53653.9375
1432.02203	54169.2375
1435.45416	55405.6375
1438.88399	56671.1375
1442.31151	57580.7375
1445.73673	57982.3375
1449.15965	58251.6375
1452.58027	58071.8375
1455.9986	57562.4375
1459.41463	57366.5375
1462.82837	57933.3375
1466.23982	58951.9375
1469.64898	60125.6375
1473.05586	61100.1375
1476.46045	61689.1375
1479.86276	61893.9375
1483.26279	61809.6375
1486.66054	61784.8375
1490.05602	62329.7375
1493.44922	63209.5375
1496.84016	64011.8375
1500.22882	65157.5375
1503.61521	67105.0375
1506.99934	69462.0375
1510.38121	71856.6375
1513.76081	72968.9375
1517.13816	71681.1375
1520.51324	68496.5375
1523.88607	65359.7375
1527.25665	63540.7375
1530.62498	62558.6375
1533.99105	61844.6375
1537.35488	61011.8375
1540.71647	59953.1375
1544.07581	58675.3375
1547.4329	57583.2375
1550.78776	56505.2375
1554.14038	55854.4375
1557.49077	55464.1375
1560.83892	55271.3375
1564.18484	55391.7375
1567.52853	55736.3375
1570.86999	56272.4375
1574.20922	57098.4375
1577.54624	57719.4375
1580.88103	57753.0375
1584.2136	57942.3375
1587.54395	59487.3375
1590.87208	62521.9375
1594.19801	66473.2375
1597.52172	70214.7375
1600.84321	71252.0375
1604.16251	68300.5375
1607.47959	62868.1375
1610.79447	57168.9375
1614.10715	52320.5375
1617.41763	48797.2375
1620.7259	46725.0375
1624.03199	45858.7375
1627.33587	46219.0375
1630.63757	47538.7375
1633.93707	50107.5375
1637.23439	54129.0375
1640.52951	60255.3375
1643.82246	67779.9375
1647.11321	74099.4375
1650.40179	75538.4375
1653.68819	70511.0375
1656.97241	61411.1375
1660.25446	52755.1375
1663.53433	46707.5375
1666.81203	42982.9375
1670.08756	40813.0375
1673.36092	39459.8375
1676.63211	38546.5375
1679.90115	37944.8375
1683.16801	37441.7375
1686.43272	37083.1375
1689.69527	36884.9375
1692.95567	36692.8375
1696.2139	36570.0375
1699.46999	36509.2375
1702.72392	36451.8375
1705.97571	36340.2375
1709.22535	36227.6375
1712.47284	36275.9375
1715.71819	36311.8375
1718.96139	36258.8375
1722.20246	36139.4375
1725.44139	36025.1375
1728.67818	35852.9375
1731.91284	35710.6375
1735.14537	35549.1375
1738.37576	35422.7375
1741.60403	35330.2375
1744.83017	35222.1375
1748.05418	35217.0375
1751.27607	35135.7375
1754.49584	35087.7375
1757.71349	35139.7375
1760.92903	35065.2375
1764.14244	35080.2375
1767.35375	35040.6375
1770.56294	34940.4375
1773.77002	34894.1375
1776.97499	34864.7375
1780.17785	34821.5375
1783.37861	34875.2375
1786.57727	34806.7375
1789.77382	34722.3375
1792.96828	34687.4375
1796.16064	34614.7375
1799.3509	34551.6375
1802.53907	34419.1375
1805.72514	34388.3375
1808.90913	34321.5375
1812.09102	34341.4375
1815.27083	34309.7375
1818.44856	34224.0375
1821.6242	34224.6375
1824.79776	34215.4375
1827.96924	34193.1375
1831.13864	34206.0375
1834.30597	34179.2375
1837.47122	34098.9375
1840.6344	34048.5375
1843.7955	34093.8375
1846.95454	34034.7375
1850.11151	34067.5375
1853.26642	34046.4375
1856.41926	34026.4375
1859.57004	34003.4375
1862.71876	34065.1375
1865.86542	34053.1375
1869.01003	34009.6375
1872.15258	34036.3375
1875.29308	34019.0375
1878.43152	34005.3375
1881.56792	33980.6375
1884.70227	33894.4375
1887.83457	33934.8375
1890.96482	33900.2375
1894.09304	33846.1375
1897.21921	33880.4375
1900.34335	33874.3375
1903.46544	33805.2375
1906.58551	33802.2375
1909.70353	33738.2375
1912.81953	33707.9375
1915.93349	33688.7375
1919.04543	33612.2375
1922.15534	33525.9375
1925.26322	33493.7375
1928.36908	33477.2375
1931.47292	33402.7375
1934.57473	33305.5375
1937.67453	33191.8375
1940.77232	33140.6375
1943.86808	33064.4375
1946.96184	32977.9375
1950.05358	32901.4375
1953.14331	32830.2375
1956.23103	32741.9375
1959.31675	32708.8375
1962.40046	32616.9375
1965.48217	32555.4375
1968.56188	32462.7375
1971.63959	32394.7375
1974.7153	32375.4375
1977.78901	32286.0375
1980.86073	32140.7375
1983.93046	32056.8375
1986.99819	31914.8375
1990.06394	31863.5375
1993.1277	31750.4375
1996.18947	31666.0375
1999.24925	31593.7375
2002.30706	31558.0375
2005.36288	31464.7375
2008.41672	31390.3375
2011.46859	31338.7375
2014.51848	31281.7375
2017.56639	31217.1375
2020.61233	31199.0375
2023.6563	31093.3375
2026.6983	31085.4375
2029.73833	31023.2375
2032.7764	30953.1375
2035.8125	30952.3375
2038.84664	30879.9375
2041.87881	30828.0375
2044.90903	30822.1375
2047.93729	30793.5375
2050.96359	30734.7375
2053.98794	30667.7375
2057.01034	30654.0375
2060.03078	30653.3375
2063.04927	30596.5375
2066.06582	30640.6375
2069.08042	30592.2375
2072.09307	30553.0375
2075.10378	30630.1375
2078.11255	30646.8375
2081.11938	30674.2375
2084.12426	30618.0375
2087.12722	30611.9375
2090.12824	30581.0375
2093.12732	30597.3375
2096.12447	30611.8375
2099.11969	30607.3375
2102.11299	30642.6375
2105.10435	30666.5375
2108.09379	30706.6375
2111.08131	30740.9375
2114.0669	30682.8375
2117.05057	30694.6375
2120.03233	30797.2375
2123.01216	30809.4375
2125.99008	30804.4375
2128.96609	30864.2375
2131.94018	30860.4375
2134.91236	30918.7375
2137.88263	30938.3375
2140.851	30949.2375
2143.81746	30978.0375
2146.78201	31031.8375
2149.74466	30980.2375
2152.7054	31043.6375
2155.66425	31035.4375
2158.6212	31071.3375
2161.57625	31088.3375
2164.52941	31087.7375
2167.48067	31039.7375
2170.43004	31053.9375
2173.37752	30993.0375
2176.32311	31029.3375
2179.26681	31063.2375
2182.20863	31113.5375
2185.14856	31160.7375
2188.08661	31124.5375
2191.02278	31219.3375
2193.95707	31151.1375
2196.88948	31129.0375
2199.82001	31145.2375
2202.74867	31106.2375
2205.67545	31185.7375
2208.60037	31114.4375
2211.52341	31090.6375
2214.44458	31060.6375
2217.36388	31048.9375
2220.28132	31012.6375
2223.1969	30944.2375
2226.11061	30949.1375
2229.02246	30869.7375
2231.93245	30870.2375
2234.84058	30807.7375
2237.74686	30830.6375
2240.65128	30764.4375
2243.55385	30698.8375
2246.45456	30677.7375
2249.35343	30627.3375
2252.25044	30618.8375
2255.14561	30562.3375
2258.03893	30530.9375
2260.93041	30432.1375
2263.82004	30359.2375
2266.70783	30341.6375
2269.59378	30277.8375
2272.4779	30203.6375
2275.36017	30115.8375
2278.24061	30136.9375
2281.11922	30073.7375
2283.996	30050.5375
2286.87094	30054.2375
2289.74405	30006.3375
2292.61534	29985.3375
2295.4848	29970.2375
2298.35243	29995.8375
2301.21824	29965.0375
2304.08223	29981.0375
2306.94439	30030.1375
2309.80474	30039.5375
2312.66327	30091.3375
2315.51999	30031.0375
2318.37489	30074.5375
2321.22797	30047.3375
2324.07925	30021.2375
2326.92871	30016.5375
2329.77637	29994.7375
2332.62222	29964.4375
2335.46626	29891.8375
2338.3085	29894.0375
2341.14893	29894.6375
2343.98756	29858.1375
2346.8244	29901.7375
2349.65943	29882.3375
2352.49267	29852.8375
2355.32411	29914.8375
2358.15376	29940.9375
2360.98161	29890.8375
2363.80768	29897.1375
2366.63195	29823.2375
2369.45444	29777.6375
2372.27514	29735.7375
2375.09405	29662.0375
2377.91118	29632.4375
2380.72652	29611.2375
2383.54009	29503.5375
2386.35187	29521.1375
2389.16188	29456.5375
2391.97011	29495.7375
2394.77657	29427.6375
2397.58125	29399.9375
2400.38416	29303.2375
2403.18529	29246.0375
2405.98466	29237.5375
2408.78226	29222.6375
2411.57809	29213.0375
2414.37216	29171.7375
2417.16446	29219.3375
2419.955	29120.5375
2422.74378	29145.6375
2425.5308	29069.1375
2428.31606	29112.4375
2431.09956	29123.2375
2433.88131	29083.0375
2436.6613	29068.7375
2439.43954	29065.9375
2442.21603	29096.3375
2444.99077	29027.3375
2447.76377	29037.4375
2450.53501	29021.9375
2453.30451	29009.6375
2456.07226	29002.7375
2458.83827	29013.9375
2461.60254	28978.0375
2464.36507	28978.2375
2467.12586	28993.1375
2469.88492	28981.8375
2472.64224	28924.4375
2475.39782	29011.2375
2478.15167	29006.4375
2480.90379	28967.8375
2483.65417	29023.6375
2486.40283	29014.2375
2489.14976	29072.7375
2491.89497	29041.3375
2494.63845	29078.8375
2497.3802	29046.0375
2500.12024	29007.2375
2502.85855	29023.3375
2505.59514	29020.5375
2508.33002	28995.7375
2511.06318	28984.7375
2513.79462	28976.9375
2516.52435	28980.4375
2519.25237	28912.3375
2521.97867	28891.5375
2524.70327	28857.8375
2527.42616	28862.5375
2530.14734	28856.0375
2532.86681	28773.2375
2535.58458	28804.6375
2538.30065	28796.5375
2541.01501	28799.7375
2543.72768	28777.2375
2546.43864	28763.2375
2549.14791	28659.7375
2551.85548	28695.8375
2554.56136	28694.1375
2557.26554	28707.0375
2559.96803	28656.5375
2562.66883	28625.8375
2565.36794	28596.7375
2568.06536	28603.1375
2570.7611	28592.6375
2573.45514	28585.1375
2576.14751	28532.3375
2578.83819	28480.8375
2581.52719	28523.7375
2584.21451	28498.1375
2586.90015	28485.7375
2589.58411	28443.9375
2592.2664	28395.4375
2594.94701	28322.7375
2597.62594	28368.5375
2600.30321	28266.2375
2602.9788	28305.0375
2605.65273	28267.9375
2608.32498	28276.2375
2610.99557	28231.0375
2613.66449	28227.3375
2616.33175	28224.7375
2618.99734	28239.8375
2621.66128	28244.2375
2624.32355	28237.0375
2626.98416	28193.7375
2629.64311	28169.4375
2632.30041	28143.2375
2634.95605	28188.4375
2637.61004	28085.4375
2640.26238	28023.5375
2642.91306	28027.1375
2645.56209	28018.0375
2648.20948	28030.2375
2650.85521	27992.9375
2653.4993	27983.1375
2656.14175	28022.8375
2658.78255	27989.9375
2661.42171	28009.0375
2664.05923	28047.4375
2666.6951	28070.5375
2669.32934	28062.0375
2671.96194	28104.0375
2674.59291	28122.4375
2677.22224	28093.6375
2679.84993	28093.8375
2682.476	28049.2375
2685.10043	28030.4375
2687.72324	28028.1375
2690.34441	28052.4375
2692.96396	28056.3375
2695.58188	28123.1375
2698.19818	28069.8375
2700.81285	28084.9375
2703.4259	28099.8375
2706.03733	28155.0375
2708.64714	28128.0375
2711.25533	28105.8375
2713.86191	28148.4375
2716.46687	28217.0375
2719.07021	28200.3375
2721.67194	28245.4375
2724.27206	28166.0375
2726.87057	28227.4375
2729.46747	28200.0375
2732.06276	28248.2375
2734.65644	28216.9375
2737.24852	28274.4375
2739.83899	28231.1375
2742.42786	28269.8375
2745.01513	28128.5375
2747.60079	28137.3375
2750.18486	28158.9375
2752.76733	28194.3375
2755.3482	28097.4375
2757.92747	28102.6375
2760.50515	28082.8375
2763.08123	28079.1375
2765.65573	28062.3375
2768.22863	28050.5375
2770.79994	28017.9375
2773.36967	28016.0375
2775.9378	28014.6375
2778.50435	28047.9375
2781.06932	27980.3375
2783.6327	27985.4375
2786.1945	27909.4375
2788.75471	27876.4375
2791.31335	27842.1375
2793.87041	27809.2375
2796.42589	27798.5375
2798.97979	27818.1375
2801.53212	27775.0375
2804.08288	27728.0375
2806.63206	27679.9375
2809.17967	27617.5375
2811.72571	27544.4375
2814.27018	27530.9375
2816.81308	27478.5375
2819.35442	27458.2375
2821.89419	27412.4375
2824.43239	27407.6375
2826.96904	27394.2375
2829.50412	27388.4375
2832.03763	27368.8375
2834.56959	27400.1375
2837.1	27325.2375
2839.62884	27320.8375
2842.15613	27285.4375
2844.68186	27374.0375
2847.20604	27396.6375
2849.72867	27415.3375
2852.24974	27409.1375
2854.76927	27387.0375
2857.28724	27370.0375
2859.80367	27300.2375
2862.31855	27307.5375
2864.83189	27288.3375
2867.34368	27233.4375
2869.85393	27259.0375
2872.36264	27224.6375
2874.8698	27267.9375
2877.37543	27284.0375
2879.87952	27304.7375
2882.38207	27274.2375
2884.88308	27237.9375
2887.38256	27284.3375
2889.88051	27324.0375
2892.37692	27364.3375
2894.8718	27362.0375
2897.36515	27413.0375
2899.85698	27369.6375
2902.34727	27420.5375
2904.83604	27453.4375
2907.32328	27474.0375
2909.809	27404.5375
2912.29319	27448.3375
2914.77587	27450.9375
2917.25702	27464.4375
2919.73665	27433.0375
2922.21476	27467.2375
2924.69136	27436.9375
2927.16644	27444.7375
2929.64	27366.3375
2932.11205	27356.7375
2934.58258	27232.1375
2937.05161	27326.3375
2939.51912	27297.0375
2941.98513	27254.2375
2944.44962	27188.4375
2946.91261	27109.1375
2949.37409	27185.8375
2951.83407	27164.5375
2954.29254	27150.1375
2956.74951	27078.7375
2959.20498	27098.1375
2961.65895	27082.0375
2964.11142	27093.6375
2966.56239	27035.0375
2969.01186	27016.2375
2971.45984	26947.5375
2973.90632	26944.4375
2976.35131	26893.7375
2978.7948	26859.2375
2981.23681	26809.1375
2983.67732	26707.2375
2986.11635	26670.0375
2988.55388	26583.0375
2990.98993	26542.3375
2993.4245	26490.9375
2995.85758	26475.5375
2998.28917	26401.4375
3000.71928	26452.0375
3003.14791	26369.5375
3005.57506	26339.8375
3008.00073	26257.9375
3010.42493	26252.4375
3012.84764	26217.2375
3015.26888	26221.2375
3017.68865	26186.3375
3020.10694	26152.5375
3022.52376	26100.3375
