Data from AgNPs_FTO_APTES_UA_2uM_CRN_2uM_R6G_10uM_NaF_0.1M_Addition_RamanShift__0__11-58-45-043.txt Node

Date: Wed Feb 02 11:58:45 GMT 2022
User: TCL
Spectrometer: QEP01345
Trigger mode: 4
Integration Time (sec): 7.000000E0
Scans to average: 10
Electric dark correction enabled: true
Nonlinearity correction enabled: false
Boxcar width: 0
XAxis mode: Raman Shifts
Number of Pixels in Spectrum: 1044
>>>>>Begin Spectral Data<<<<<
46.04893	0.825
50.45542	0.325
54.85868	-0.275
59.25871	-0.275
63.6555	45.325
68.04907	47.625
72.43941	50.725
76.82654	54.825
81.21044	55.525
85.59113	59.425
89.96862	62.325
94.34289	61.725
98.71396	61.825
103.08183	64.225
107.4465	68.025
111.80798	69.325
116.16626	71.725
120.52136	71.125
124.87327	75.325
129.222	78.725
133.56755	84.325
137.90993	90.025
142.24913	102.725
146.58517	113.025
150.91804	127.625
155.24774	158.025
159.57429	191.125
163.89768	247.625
168.21792	324.225
172.53501	442.425
176.84895	613.825
181.15975	864.625
185.46741	1216.725
189.77193	1677.525
194.07331	2246.425
198.37157	2892.225
202.6667	3578.525
206.9587	4244.825
211.24758	4942.025
215.53334	5615.825
219.81599	6337.325
224.09553	7148.125
228.37195	8044.725
232.64527	9021.625
236.91549	9992.825
241.18261	10969.325
245.44663	11849.525
249.70755	12630.925
253.96539	13339.625
258.22014	13907.425
262.4718	14430.525
266.72039	14769.825
270.96589	14910.225
275.20832	14899.925
279.44768	14754.225
283.68397	14556.725
287.91719	14366.425
292.14735	14257.525
296.37445	14250.925
300.59849	14394.925
304.81948	14626.325
309.03742	14736.825
313.25231	14743.925
317.46415	14483.525
321.67296	14053.225
325.87872	13695.225
330.08145	13544.725
334.28114	13533.025
338.47781	13642.225
342.67145	13766.825
346.86207	13995.825
351.04966	14343.725
355.23424	14746.325
359.4158	15060.725
363.59435	15324.525
367.76989	15441.425
371.94243	15522.025
376.11196	15585.825
380.27849	15610.925
384.44203	15644.125
388.60257	15700.325
392.76012	15782.525
396.91468	15914.725
401.06626	16194.925
405.21485	16370.225
409.36047	16391.825
413.50311	16167.325
417.64277	15988.825
421.77947	15976.925
425.9132	16105.025
430.04396	16248.325
434.17176	16372.625
438.2966	16439.325
442.41849	16720.425
446.53742	17216.825
450.6534	17804.525
454.76644	18186.825
458.87653	18229.025
462.98368	17950.525
467.08789	17613.825
471.18916	17176.025
475.2875	16843.725
479.38291	16638.225
483.4754	16532.225
487.56496	16376.725
491.6516	16252.925
495.73531	16115.525
499.81612	16061.425
503.89401	16043.825
507.96899	16032.725
512.04106	15966.125
516.11023	15915.925
520.1765	15948.725
524.23987	15950.525
528.30034	15924.925
532.35792	15832.125
536.41261	15603.225
540.46441	15320.025
544.51333	15210.525
548.55936	15302.825
552.60252	15559.025
556.64279	15911.325
560.6802	16122.925
564.71473	16292.525
568.7464	16508.225
572.7752	16810.025
576.80114	16862.225
580.82422	16890.025
584.84444	17249.525
588.86181	17757.325
592.87633	18512.025
596.888	18972.425
600.89682	18888.425
604.9028	19270.525
608.90594	21138.325
612.90624	23374.025
616.90371	22358.525
620.89834	18479.425
624.89015	16608.125
628.87913	16387.025
632.86528	16322.525
636.84862	16128.325
640.82913	15788.525
644.80683	15354.325
648.78172	15073.325
652.75379	15080.125
656.72306	15364.125
660.68952	15776.725
664.65319	15726.725
668.61405	15373.325
672.57211	15297.625
676.52738	15350.525
680.47986	15295.325
684.42955	15190.425
688.37646	15178.725
692.32058	15329.325
696.26192	15633.725
700.20048	15928.625
704.13626	16146.325
708.06928	16059.325
711.99952	15883.925
715.927	15789.525
719.85171	15811.725
723.77365	15737.225
727.69284	15513.125
731.60928	15301.125
735.52295	15276.825
739.43388	15306.325
743.34206	15342.625
747.24749	15392.925
751.15017	15495.825
755.05012	15643.925
758.94733	16044.925
762.8418	16765.925
766.73354	18010.825
770.62254	19284.625
774.50882	19866.725
778.39237	19295.525
782.27321	18020.025
786.15132	16783.825
790.02671	15974.825
793.89938	15580.925
797.76935	15496.025
801.6366	15465.725
805.50115	15416.825
809.36299	15350.925
813.22213	15237.425
817.07857	15206.125
820.93231	15181.825
824.78336	15205.325
828.63172	15235.125
832.47738	15274.625
836.32036	15381.825
840.16066	15470.925
843.99827	15521.725
847.8332	15430.325
851.66546	15319.625
855.49504	15249.325
859.32195	15254.725
863.1462	15162.925
866.96777	15115.225
870.78668	15052.425
874.60293	15048.025
878.41652	15062.725
882.22745	15190.125
886.03573	15232.925
889.84136	15259.525
893.64433	15176.025
897.44466	15046.525
901.24235	15011.425
905.0374	14976.825
908.8298	14937.725
912.61957	14992.825
916.40671	15081.425
920.19121	15243.425
923.97308	15458.325
927.75233	15591.325
931.52895	15677.625
935.30295	15554.925
939.07433	15263.525
942.84309	15021.625
946.60924	14882.525
950.37278	14857.425
954.13371	14772.325
957.89203	14675.725
961.64774	14609.025
965.40086	14573.325
969.15137	14541.325
972.89929	14513.925
976.64461	14534.125
980.38733	14586.725
984.12747	14675.325
987.86502	14881.225
991.59999	15112.825
995.33237	15417.725
999.06217	15920.925
1002.78939	16464.825
1006.51404	16745.225
1010.23611	16831.225
1013.95561	16909.125
1017.67255	16879.925
1021.38692	16721.625
1025.09872	16562.325
1028.80796	16800.125
1032.51465	17438.425
1036.21877	18095.225
1039.92035	18180.425
1043.61937	17855.825
1047.31584	17351.225
1051.00976	16741.325
1054.70114	16371.025
1058.38998	16221.425
1062.07627	16149.025
1065.76003	16135.125
1069.44126	16168.425
1073.11995	16299.825
1076.79611	16496.225
1080.46974	16707.625
1084.14085	16948.125
1087.80943	17128.225
1091.47549	17224.425
1095.13903	17110.925
1098.80005	16815.825
1102.45857	16514.425
1106.11456	16388.425
1109.76805	16335.425
1113.41903	16401.525
1117.06751	16516.825
1120.71348	16677.925
1124.35696	16871.025
1127.99793	17083.425
1131.63641	17138.525
1135.2724	16955.825
1138.90589	16673.625
1142.5369	16547.025
1146.16542	16507.625
1149.79145	16517.525
1153.415	16567.025
1157.03607	16706.625
1160.65467	16956.725
1164.27079	17433.325
1167.88443	18220.025
1171.49561	19267.725
1175.10432	20774.825
1178.71056	22661.925
1182.31434	24490.125
1185.91565	25389.625
1189.51451	25161.525
1193.11091	24181.725
1196.70485	22932.525
1200.29634	21809.225
1203.88538	21074.725
1207.47197	20393.525
1211.05612	19861.425
1214.63782	19613.925
1218.21708	19558.925
1221.79391	19698.125
1225.36829	19818.525
1228.94024	19663.025
1232.50976	19224.825
1236.07685	18833.125
1239.6415	18668.425
1243.20374	18637.325
1246.76355	18835.525
1250.32093	19165.925
1253.8759	19627.525
1257.42845	20180.925
1260.97859	20745.225
1264.52631	21327.625
1268.07163	21895.825
1271.61453	22461.525
1275.15503	23098.025
1278.69312	23597.925
1282.22882	24037.025
1285.76211	24524.525
1289.29301	25058.125
1292.82151	25725.525
1296.34761	26714.025
1299.87133	28027.125
1303.39266	29809.825
1306.9116	32016.125
1310.42815	34113.025
1313.94233	35338.325
1317.45412	35036.125
1320.96354	33634.525
1324.47058	32005.425
1327.97525	30524.425
1331.47754	29264.925
1334.97747	28624.325
1338.47502	28198.625
1341.97022	27724.825
1345.46305	27350.025
1348.95352	27405.725
1352.44163	28141.925
1355.92738	29750.625
1359.41078	32232.325
1362.89183	34482.225
1366.37053	34404.125
1369.84688	31516.625
1373.32088	27671.025
1376.79254	25066.325
1380.26186	24087.825
1383.72883	23911.525
1387.19347	23785.725
1390.65578	23227.225
1394.11575	22782.925
1397.57339	22715.825
1401.0287	22951.825
1404.48168	23255.525
1407.93234	23324.925
1411.38068	23112.325
1414.82669	22653.625
1418.27039	22042.025
1421.71177	21381.025
1425.15083	20808.725
1428.58758	20544.725
1432.02203	20692.225
1435.45416	21092.725
1438.88399	21509.425
1442.31151	21788.325
1445.73673	22026.525
1449.15965	22153.625
1452.58027	22071.525
1455.9986	21799.525
1459.41463	21748.425
1462.82837	21902.225
1466.23982	22342.325
1469.64898	22778.225
1473.05586	23114.825
1476.46045	23345.125
1479.86276	23501.425
1483.26279	23542.325
1486.66054	23541.925
1490.05602	23699.425
1493.44922	23952.125
1496.84016	24132.725
1500.22882	24539.725
1503.61521	25220.325
1506.99934	26220.525
1510.38121	27268.425
1513.76081	27754.225
1517.13816	27232.725
1520.51324	25907.925
1523.88607	24554.125
1527.25665	23697.525
1530.62498	23266.725
1533.99105	22979.725
1537.35488	22787.425
1540.71647	22495.325
1544.07581	22160.525
1547.4329	21785.525
1550.78776	21461.025
1554.14038	21159.625
1557.49077	21015.625
1560.83892	20905.425
1564.18484	20934.125
1567.52853	21057.525
1570.86999	21321.125
1574.20922	21613.925
1577.54624	21805.525
1580.88103	21730.025
1584.2136	21681.825
1587.54395	22142.225
1590.87208	23360.225
1594.19801	24993.225
1597.52172	26644.925
1600.84321	27403.525
1604.16251	26436.825
1607.47959	24273.125
1610.79447	21977.725
1614.10715	20035.025
1617.41763	18719.125
1620.7259	17933.525
1624.03199	17716.925
1627.33587	17867.825
1630.63757	18451.525
1633.93707	19414.825
1637.23439	20925.225
1640.52951	23096.525
1643.82246	25761.725
1647.11321	28015.925
1650.40179	28742.425
1653.68819	27184.425
1656.97241	24061.025
1660.25446	21002.525
1663.53433	18845.425
1666.81203	17465.825
1670.08756	16559.325
1673.36092	15922.325
1676.63211	15436.225
1679.90115	15182.225
1683.16801	14972.325
1686.43272	14900.725
1689.69527	14905.025
1692.95567	15148.925
1696.2139	15572.425
1699.46999	16061.325
1702.72392	16114.025
1705.97571	15644.725
1709.22535	15054.225
1712.47284	14710.325
1715.71819	14500.025
1718.96139	14360.225
1722.20246	14280.625
1725.44139	14213.225
1728.67818	14162.125
1731.91284	14062.525
1735.14537	14038.225
1738.37576	14024.825
1741.60403	14031.425
1744.83017	14036.125
1748.05418	14108.925
1751.27607	14255.625
1754.49584	14470.125
1757.71349	14782.125
1760.92903	14978.525
1764.14244	14952.225
1767.35375	14909.825
1770.56294	14878.325
1773.77002	14713.825
1776.97499	14389.725
1780.17785	14073.325
1783.37861	13882.625
1786.57727	13795.125
1789.77382	13707.925
1792.96828	13658.625
1796.16064	13588.725
1799.3509	13567.125
1802.53907	13520.325
1805.72514	13474.025
1808.90913	13451.225
1812.09102	13415.125
1815.27083	13419.525
1818.44856	13396.625
1821.6242	13391.725
1824.79776	13367.125
1827.96924	13330.125
1831.13864	13329.525
1834.30597	13312.425
1837.47122	13292.725
1840.6344	13287.925
1843.7955	13274.625
1846.95454	13269.025
1850.11151	13252.525
1853.26642	13247.625
1856.41926	13238.225
1859.57004	13276.825
1862.71876	13253.725
1865.86542	13274.225
1869.01003	13244.225
1872.15258	13252.125
1875.29308	13232.725
1878.43152	13231.825
1881.56792	13251.025
1884.70227	13261.525
1887.83457	13243.425
1890.96482	13261.025
1894.09304	13239.025
1897.21921	13231.825
1900.34335	13224.625
1903.46544	13246.225
1906.58551	13214.825
1909.70353	13216.725
1912.81953	13200.625
1915.93349	13178.425
1919.04543	13138.825
1922.15534	13156.025
1925.26322	13125.225
1928.36908	13084.325
1931.47292	13063.925
1934.57473	13059.225
1937.67453	12991.125
1940.77232	12958.125
1943.86808	12932.125
1946.96184	12908.125
1950.05358	12864.025
1953.14331	12841.625
1956.23103	12795.625
1959.31675	12780.525
1962.40046	12720.625
1965.48217	12713.825
1968.56188	12662.725
1971.63959	12665.725
1974.7153	12624.725
1977.78901	12584.525
1980.86073	12540.725
1983.93046	12499.225
1986.99819	12458.825
1990.06394	12406.725
1993.1277	12393.625
1996.18947	12366.325
1999.24925	12346.525
2002.30706	12323.825
2005.36288	12276.825
2008.41672	12264.125
2011.46859	12236.025
2014.51848	12192.325
2017.56639	12180.425
2020.61233	12175.925
2023.6563	12163.425
2026.6983	12128.025
2029.73833	12130.625
2032.7764	12082.025
2035.8125	12068.825
2038.84664	12039.525
2041.87881	12078.525
2044.90903	12050.125
2047.93729	12035.225
2050.96359	12021.925
2053.98794	12035.325
2057.01034	12031.625
2060.03078	11985.525
2063.04927	11994.025
2066.06582	11984.125
2069.08042	11965.525
2072.09307	11935.125
2075.10378	11905.825
2078.11255	11962.025
2081.11938	11950.125
2084.12426	11928.325
2087.12722	11936.125
2090.12824	11917.125
2093.12732	11924.925
2096.12447	11958.825
2099.11969	11943.925
2102.11299	11970.625
2105.10435	11975.725
2108.09379	11992.325
2111.08131	11998.325
2114.0669	11984.025
2117.05057	11994.125
2120.03233	12027.325
2123.01216	12035.125
2125.99008	12044.825
2128.96609	12047.825
2131.94018	12052.825
2134.91236	12055.125
2137.88263	12076.025
2140.851	12067.125
2143.81746	12062.025
2146.78201	12097.625
2149.74466	12087.425
2152.7054	12116.725
2155.66425	12118.325
2158.6212	12120.425
2161.57625	12120.325
2164.52941	12164.125
2167.48067	12122.125
2170.43004	12119.225
2173.37752	12138.425
2176.32311	12096.225
2179.26681	12132.925
2182.20863	12169.825
2185.14856	12167.125
2188.08661	12157.325
2191.02278	12187.525
2193.95707	12175.925
2196.88948	12161.325
2199.82001	12158.325
2202.74867	12176.825
2205.67545	12154.725
2208.60037	12161.225
2211.52341	12136.125
2214.44458	12162.325
2217.36388	12127.725
2220.28132	12138.225
2223.1969	12101.625
2226.11061	12080.625
2229.02246	12066.825
2231.93245	12037.325
2234.84058	12036.525
2237.74686	12013.825
2240.65128	12003.925
2243.55385	11994.825
2246.45456	11981.025
2249.35343	11944.725
2252.25044	11941.125
2255.14561	11914.325
2258.03893	11994.925
2260.93041	12088.525
2263.82004	11976.725
2266.70783	11883.525
2269.59378	11848.825
2272.4779	11799.125
2275.36017	11750.225
2278.24061	11761.425
2281.11922	11714.625
2283.996	11732.625
2286.87094	11707.225
2289.74405	11703.625
2292.61534	11689.925
2295.4848	11672.125
2298.35243	11659.725
2301.21824	11668.625
2304.08223	11680.725
2306.94439	11725.225
2309.80474	11723.325
2312.66327	11729.325
2315.51999	11715.625
2318.37489	11741.825
2321.22797	11723.225
2324.07925	11738.325
2326.92871	11730.225
2329.77637	11732.225
2332.62222	11721.125
2335.46626	11709.225
2338.3085	11696.825
2341.14893	11704.225
2343.98756	11708.125
2346.8244	11708.425
2349.65943	11716.625
2352.49267	11682.125
2355.32411	11690.325
2358.15376	11689.025
2360.98161	11688.125
2363.80768	11638.225
2366.63195	11621.925
2369.45444	11638.025
2372.27514	11585.425
2375.09405	11547.725
2377.91118	11550.025
2380.72652	11509.925
2383.54009	11514.025
2386.35187	11489.925
2389.16188	11476.925
2391.97011	11474.625
2394.77657	11457.125
2397.58125	11417.725
2400.38416	11412.325
2403.18529	11400.625
2405.98466	11391.225
2408.78226	11387.725
2411.57809	11363.625
2414.37216	11364.825
2417.16446	11359.425
2419.955	11339.225
2422.74378	11324.325
2425.5308	11298.725
2428.31606	11307.725
2431.09956	11339.525
2433.88131	11275.225
2436.6613	11308.025
2439.43954	11299.425
2442.21603	11318.225
2444.99077	11283.325
2447.76377	11279.225
2450.53501	11287.825
2453.30451	11275.625
2456.07226	11262.225
2458.83827	11260.625
2461.60254	11279.025
2464.36507	11279.325
2467.12586	11252.425
2469.88492	11264.525
2472.64224	11301.725
2475.39782	11380.825
2478.15167	11405.525
2480.90379	11319.325
2483.65417	11320.825
2486.40283	11323.825
2489.14976	11281.925
2491.89497	11294.425
2494.63845	11406.125
2497.3802	11419.625
2500.12024	11348.425
2502.85855	11305.225
2505.59514	11283.825
2508.33002	11244.425
2511.06318	11239.025
2513.79462	11249.325
2516.52435	11232.325
2519.25237	11226.825
2521.97867	11192.825
2524.70327	11199.825
2527.42616	11193.125
2530.14734	11213.425
2532.86681	11174.125
2535.58458	11148.825
2538.30065	11157.025
2541.01501	11156.625
2543.72768	11132.025
2546.43864	11158.225
2549.14791	11130.025
2551.85548	11092.325
2554.56136	11095.225
2557.26554	11105.925
2559.96803	11102.625
2562.66883	11079.025
2565.36794	11072.125
2568.06536	11086.025
2570.7611	11042.625
2573.45514	11054.325
2576.14751	11035.825
2578.83819	11025.825
2581.52719	11034.225
2584.21451	11031.325
2586.90015	11032.025
2589.58411	11036.125
2592.2664	10998.625
2594.94701	10987.425
2597.62594	10984.625
2600.30321	10963.425
2602.9788	10941.425
2605.65273	10942.425
2608.32498	10959.225
2610.99557	10926.425
2613.66449	10948.125
2616.33175	10936.825
2618.99734	10952.625
2621.66128	10928.425
2624.32355	10948.325
2626.98416	10931.825
2629.64311	10923.225
2632.30041	10937.125
2634.95605	10917.725
2637.61004	10872.625
2640.26238	10873.725
2642.91306	10859.225
2645.56209	10851.625
2648.20948	10878.925
2650.85521	10858.025
2653.4993	10820.125
2656.14175	10808.025
2658.78255	10807.125
2661.42171	10807.225
2664.05923	10831.325
2666.6951	10825.625
2669.32934	10825.525
2671.96194	10859.725
2674.59291	10827.125
2677.22224	10855.125
2679.84993	10843.225
2682.476	10847.025
2685.10043	10849.725
2687.72324	10842.225
2690.34441	10824.525
2692.96396	10829.625
2695.58188	10843.625
2698.19818	10823.825
2700.81285	10858.325
2703.4259	11072.825
2706.03733	11605.725
2708.64714	11277.825
2711.25533	11065.925
2713.86191	11002.825
2716.46687	10997.125
2719.07021	10957.425
2721.67194	10903.425
2724.27206	10924.825
2726.87057	10918.725
2729.46747	10920.325
2732.06276	10935.225
2734.65644	10911.225
2737.24852	10917.725
2739.83899	10894.725
2742.42786	10933.025
2745.01513	10881.725
2747.60079	10878.625
2750.18486	10853.425
2752.76733	10853.825
2755.3482	10874.025
2757.92747	10836.925
2760.50515	10842.525
2763.08123	10865.025
2765.65573	10857.525
2768.22863	10864.725
2770.79994	10837.925
2773.36967	10827.625
2775.9378	10847.125
2778.50435	10844.525
2781.06932	10813.825
2783.6327	10823.125
2786.1945	10804.325
2788.75471	10778.025
2791.31335	10772.025
2793.87041	10763.325
2796.42589	10734.625
2798.97979	10760.425
2801.53212	10735.825
2804.08288	10725.725
2806.63206	10688.325
2809.17967	10675.925
2811.72571	10628.425
2814.27018	10630.625
2816.81308	10624.125
2819.35442	10625.625
2821.89419	10594.025
2824.43239	10614.525
2826.96904	10591.525
2829.50412	10591.025
2832.03763	10609.025
2834.56959	10623.525
2837.1	10609.125
2839.62884	10634.825
2842.15613	10649.825
2844.68186	10649.425
2847.20604	10694.825
2849.72867	10722.225
2852.24974	10753.925
2854.76927	10852.525
2857.28724	10981.225
2859.80367	10842.725
2862.31855	10774.225
2864.83189	10748.225
2867.34368	10720.025
2869.85393	10713.225
2872.36264	10673.325
2874.8698	10705.625
2877.37543	10716.225
2879.87952	10716.225
2882.38207	10715.525
2884.88308	10700.025
2887.38256	10715.925
2889.88051	10705.225
2892.37692	10761.725
2894.8718	10758.625
2897.36515	10774.425
2899.85698	10754.025
2902.34727	10786.625
2904.83604	10790.725
2907.32328	10813.425
2909.809	10775.525
2912.29319	10804.125
2914.77587	10796.425
2917.25702	10789.925
2919.73665	10772.725
2922.21476	10773.025
2924.69136	10776.625
2927.16644	10769.225
2929.64	10755.025
2932.11205	10689.525
2934.58258	10690.525
2937.05161	10709.025
2939.51912	10670.225
2941.98513	10643.025
2944.44962	10633.925
2946.91261	10584.525
2949.37409	10598.225
2951.83407	10605.925
2954.29254	10557.125
2956.74951	10558.525
2959.20498	10531.425
2961.65895	10507.425
2964.11142	10502.725
2966.56239	10497.225
2969.01186	10456.525
2971.45984	10439.125
2973.90632	10422.525
2976.35131	10420.225
2978.7948	10378.325
2981.23681	10364.525
2983.67732	10319.325
2986.11635	10280.025
2988.55388	10285.025
2990.98993	10254.525
2993.4245	10243.825
2995.85758	10216.025
2998.28917	10209.525
3000.71928	10225.025
3003.14791	10201.025
3005.57506	10199.125
3008.00073	10139.625
3010.42493	10146.525
3012.84764	10158.025
3015.26888	10140.225
3017.68865	10112.225
3020.10694	10096.325
3022.52376	10078.325
3024.9391	10072.825
3027.35298	10070.725
3029.76539	10072.525
3032.17632	10056.425
3034.5858	10057.425
3036.9938	10038.725
3039.40034	10011.725
3041.80542	10015.725
3044.20903	10005.825
3046.61118	9975.625
3049.01187	9961.325
3051.4111	9977.725
3053.80888	9961.125
3056.20519	9961.325
3058.60005	9928.825
3060.99345	9896.825
3063.3854	9874.425
3065.7759	9879.625
3068.16494	9862.325
3070.55254	9851.625
3072.93868	9826.025
3075.32338	9817.125
3077.70662	9809.225
3080.08842	9767.425
3082.46878	9771.825
3084.84769	9764.525
3087.22515	9745.725
3089.60118	9749.025
3091.97576	9750.425
3094.3489	9735.125
3096.72061	9745.325
3099.09087	9729.125
3101.4597	9698.125
3103.82709	9704.425
3106.19305	9699.825
3108.55757	9711.425
3110.92066	9646.825
3113.28232	9676.725
3115.64255	9643.725
3118.00134	9611.125
3120.35871	9631.425
3122.71466	9591.325
3125.06917	9583.425
3127.42226	9579.825
3129.77393	9595.425
3132.12417	9592.325
3134.47299	9574.025
