Data from AgNPs_FTO_APTES_UA_2uM_CRN_0uM_R6G_10uM_NaF_0.1M_Addition_RamanShift__56__11-09-44-987.txt Node

Date: Wed Feb 02 11:09:44 GMT 2022
User: TCL
Spectrometer: QEP01345
Trigger mode: 4
Integration Time (sec): 7.000000E0
Scans to average: 10
Electric dark correction enabled: true
Nonlinearity correction enabled: false
Boxcar width: 0
XAxis mode: Raman Shifts
Number of Pixels in Spectrum: 1044
>>>>>Begin Spectral Data<<<<<
46.04893	-0.175
50.45542	0.525
54.85868	-0.775
59.25871	0.825
63.6555	52.825
68.04907	56.425
72.43941	57.225
76.82654	60.325
81.21044	68.925
85.59113	70.025
89.96862	72.225
94.34289	71.425
98.71396	75.725
103.08183	78.525
107.4465	82.025
111.80798	81.225
116.16626	81.425
120.52136	87.725
124.87327	89.825
129.222	93.425
133.56755	103.525
137.90993	104.625
142.24913	122.425
146.58517	140.025
150.91804	159.025
155.24774	200.725
159.57429	249.525
163.89768	322.825
168.21792	422.925
172.53501	577.225
176.84895	807.425
181.15975	1125.925
185.46741	1574.525
189.77193	2170.225
194.07331	2902.925
198.37157	3710.525
202.6667	4588.425
206.9587	5451.425
211.24758	6305.625
215.53334	7190.825
219.81599	8179.125
224.09553	9308.425
228.37195	10580.025
232.64527	11903.325
236.91549	13184.425
241.18261	14383.525
245.44663	15410.925
249.70755	16216.225
253.96539	16946.225
258.22014	17630.025
262.4718	18272.225
266.72039	18689.025
270.96589	18940.325
275.20832	18999.425
279.44768	18952.225
283.68397	18853.125
287.91719	18764.925
292.14735	18867.225
296.37445	19096.325
300.59849	19486.625
304.81948	20016.125
309.03742	20381.525
313.25231	20308.225
317.46415	19423.325
321.67296	17991.925
325.87872	16752.525
330.08145	16135.525
334.28114	16029.325
338.47781	16235.125
342.67145	16622.525
346.86207	17248.125
351.04966	18132.025
355.23424	19176.225
359.4158	20019.925
363.59435	20405.625
367.76989	20383.725
371.94243	20260.725
376.11196	20077.025
380.27849	19939.825
384.44203	19742.825
388.60257	19591.725
392.76012	19547.325
396.91468	19827.025
401.06626	20326.625
405.21485	20750.625
409.36047	20510.725
413.50311	19578.225
417.64277	18745.125
421.77947	18377.825
425.9132	18236.325
430.04396	18287.825
434.17176	18325.925
438.2966	18554.725
442.41849	18994.125
446.53742	19599.025
450.6534	20299.725
454.76644	20722.725
458.87653	20816.925
462.98368	20690.625
467.08789	20407.525
471.18916	20030.725
475.2875	19690.425
479.38291	19484.625
483.4754	19275.325
487.56496	18982.525
491.6516	18637.125
495.73531	18427.625
499.81612	18349.525
503.89401	18517.125
507.96899	18606.725
512.04106	18653.325
516.11023	18622.225
520.1765	18562.925
524.23987	18402.825
528.30034	18023.725
532.35792	17621.125
536.41261	17173.825
540.46441	16801.825
544.51333	16651.525
548.55936	16881.625
552.60252	17420.425
556.64279	18112.225
560.6802	18573.425
564.71473	19090.825
568.7464	20115.025
572.7752	21031.025
576.80114	20740.925
580.82422	20151.325
584.84444	19888.925
588.86181	19778.825
592.87633	19912.925
596.888	20128.325
600.89682	20576.625
604.9028	22376.925
608.90594	27351.425
612.90624	33622.125
616.90371	32022.125
620.89834	22888.825
624.89015	18421.525
628.87913	17676.825
632.86528	17774.425
636.84862	17857.225
640.82913	17459.725
644.80683	16655.525
648.78172	16030.725
652.75379	16052.225
656.72306	16642.725
660.68952	17465.725
664.65319	17427.625
668.61405	16647.425
672.57211	16215.025
676.52738	16175.425
680.47986	16141.825
684.42955	15978.825
688.37646	15874.625
692.32058	15964.925
696.26192	16154.025
700.20048	16464.925
704.13626	16789.625
708.06928	16870.725
711.99952	16691.125
715.927	16507.025
719.85171	16453.125
723.77365	16373.425
727.69284	16120.225
731.60928	15860.925
735.52295	15820.725
739.43388	15916.325
743.34206	16025.225
747.24749	16142.925
751.15017	16380.525
755.05012	16846.725
758.94733	17684.025
762.8418	19591.325
766.73354	22878.225
770.62254	26195.125
774.50882	27396.525
778.39237	25793.025
782.27321	22484.825
786.15132	19325.025
790.02671	17422.325
793.89938	16481.725
797.76935	16117.925
801.6366	15917.225
805.50115	15829.625
809.36299	15688.725
813.22213	15570.625
817.07857	15529.525
820.93231	15515.225
824.78336	15506.925
828.63172	15617.125
832.47738	15651.225
836.32036	15648.525
840.16066	15601.025
843.99827	15517.025
847.8332	15415.525
851.66546	15332.925
855.49504	15305.525
859.32195	15278.325
863.1462	15148.425
866.96777	15085.225
870.78668	15030.425
874.60293	15018.525
878.41652	15047.325
882.22745	15144.925
886.03573	15253.225
889.84136	15234.525
893.64433	15161.425
897.44466	15075.625
901.24235	15057.325
905.0374	15002.225
908.8298	14971.625
912.61957	14985.425
916.40671	15159.225
920.19121	15404.925
923.97308	15682.325
927.75233	15841.825
931.52895	15877.625
935.30295	15576.025
939.07433	15057.125
942.84309	14612.325
946.60924	14351.325
950.37278	14242.525
954.13371	14150.525
957.89203	14073.825
961.64774	14031.325
965.40086	14037.625
969.15137	13984.725
972.89929	13934.425
976.64461	13895.425
980.38733	13892.325
984.12747	13939.425
987.86502	14090.825
991.59999	14219.425
995.33237	14476.525
999.06217	14896.825
1002.78939	15533.725
1006.51404	16117.925
1010.23611	16556.125
1013.95561	16760.125
1017.67255	16586.025
1021.38692	16223.425
1025.09872	15847.525
1028.80796	15652.225
1032.51465	15810.725
1036.21877	16052.325
1039.92035	16168.025
1043.61937	16183.425
1047.31584	15955.125
1051.00976	15765.425
1054.70114	15653.925
1058.38998	15640.625
1062.07627	15751.625
1065.76003	15908.125
1069.44126	16149.725
1073.11995	16468.225
1076.79611	16694.325
1080.46974	16870.925
1084.14085	17233.725
1087.80943	17698.625
1091.47549	17988.225
1095.13903	17756.825
1098.80005	17171.325
1102.45857	16526.825
1106.11456	16094.425
1109.76805	15976.425
1113.41903	16155.425
1117.06751	16522.025
1120.71348	17103.825
1124.35696	17769.425
1127.99793	18423.825
1131.63641	18589.925
1135.2724	17961.125
1138.90589	17294.225
1142.5369	16905.525
1146.16542	16713.225
1149.79145	16639.925
1153.415	16728.125
1157.03607	16989.525
1160.65467	17492.225
1164.27079	18320.025
1167.88443	19558.725
1171.49561	21446.725
1175.10432	24342.025
1178.71056	28010.825
1182.31434	30929.225
1185.91565	32158.325
1189.51451	31955.825
1193.11091	30575.725
1196.70485	28412.525
1200.29634	26376.625
1203.88538	24663.525
1207.47197	22972.025
1211.05612	21624.625
1214.63782	20983.425
1218.21708	20823.825
1221.79391	21012.325
1225.36829	21210.225
1228.94024	21223.025
1232.50976	21139.325
1236.07685	20973.125
1239.6415	20685.325
1243.20374	20395.725
1246.76355	20302.325
1250.32093	20428.925
1253.8759	20889.525
1257.42845	21669.625
1260.97859	22516.425
1264.52631	23379.225
1268.07163	24297.225
1271.61453	25189.025
1275.15503	26003.525
1278.69312	26654.525
1282.22882	27115.525
1285.76211	27847.325
1289.29301	28956.125
1292.82151	30126.725
1296.34761	31449.625
1299.87133	33249.525
1303.39266	35684.925
1306.9116	39253.725
1310.42815	43464.825
1313.94233	46875.625
1317.45412	47603.025
1320.96354	46296.325
1324.47058	44150.825
1327.97525	41937.925
1331.47754	40102.025
1334.97747	38860.425
1338.47502	38234.625
1341.97022	37851.625
1345.46305	37622.925
1348.95352	37723.425
1352.44163	38374.225
1355.92738	40298.225
1359.41078	44153.825
1362.89183	48685.425
1366.37053	48756.325
1369.84688	43173.825
1373.32088	36634.725
1376.79254	32345.225
1380.26186	30239.125
1383.72883	29403.025
1387.19347	28731.025
1390.65578	28146.425
1394.11575	27844.425
1397.57339	28083.025
1401.0287	28760.025
1404.48168	29475.125
1407.93234	29866.125
1411.38068	29666.625
1414.82669	28745.025
1418.27039	27382.825
1421.71177	25947.025
1425.15083	24770.125
1428.58758	24048.225
1432.02203	23848.225
1435.45416	24107.825
1438.88399	24430.625
1442.31151	24761.425
1445.73673	25102.425
1449.15965	25549.425
1452.58027	25877.025
1455.9986	26061.925
1459.41463	26222.525
1462.82837	26661.825
1466.23982	27127.425
1469.64898	27545.625
1473.05586	27736.725
1476.46045	27696.225
1479.86276	27707.025
1483.26279	27763.325
1486.66054	28053.725
1490.05602	28605.425
1493.44922	29296.825
1496.84016	30307.125
1500.22882	31955.325
1503.61521	34385.425
1506.99934	37412.925
1510.38121	40684.225
1513.76081	43030.425
1517.13816	42484.425
1520.51324	39011.425
1523.88607	34929.025
1527.25665	31914.425
1530.62498	30204.025
1533.99105	29147.225
1537.35488	28454.025
1540.71647	27970.825
1544.07581	27532.725
1547.4329	26966.925
1550.78776	26461.325
1554.14038	26205.025
1557.49077	26286.925
1560.83892	26690.825
1564.18484	27139.325
1567.52853	27564.625
1570.86999	27865.725
1574.20922	28251.625
1577.54624	28421.425
1580.88103	27760.925
1584.2136	26860.125
1587.54395	26800.825
1590.87208	27965.825
1594.19801	29957.825
1597.52172	32149.925
1600.84321	32993.825
1604.16251	31457.925
1607.47959	28715.425
1610.79447	25732.525
1614.10715	23033.725
1617.41763	20902.725
1620.7259	19596.325
1624.03199	18927.725
1627.33587	18912.425
1630.63757	19519.925
1633.93707	20891.525
1637.23439	23091.825
1640.52951	26140.525
1643.82246	29703.125
1647.11321	33033.025
1650.40179	34900.025
1653.68819	33606.125
1656.97241	29242.625
1660.25446	23984.825
1663.53433	20028.725
1666.81203	17524.225
1670.08756	16037.925
1673.36092	15113.625
1676.63211	14587.325
1679.90115	14216.225
1683.16801	13895.025
1686.43272	13681.625
1689.69527	13555.325
1692.95567	13452.525
1696.2139	13379.025
1699.46999	13346.525
1702.72392	13325.225
1705.97571	13289.525
1709.22535	13229.825
1712.47284	13189.425
1715.71819	13194.425
1718.96139	13201.625
1722.20246	13170.825
1725.44139	13117.025
1728.67818	12992.225
1731.91284	12898.425
1735.14537	12795.325
1738.37576	12708.725
1741.60403	12661.925
1744.83017	12619.025
1748.05418	12565.625
1751.27607	12530.925
1754.49584	12484.625
1757.71349	12484.325
1760.92903	12510.925
1764.14244	12492.325
1767.35375	12458.225
1770.56294	12438.125
1773.77002	12378.325
1776.97499	12343.025
1780.17785	12297.125
1783.37861	12290.325
1786.57727	12259.025
1789.77382	12244.525
1792.96828	12218.125
1796.16064	12193.225
1799.3509	12194.225
1802.53907	12175.725
1805.72514	12151.325
1808.90913	12124.725
1812.09102	12092.825
1815.27083	12064.725
1818.44856	12040.925
1821.6242	12020.525
1824.79776	12008.725
1827.96924	12009.425
1831.13864	11980.425
1834.30597	11980.225
1837.47122	11985.725
1840.6344	11971.925
1843.7955	12017.725
1846.95454	12011.925
1850.11151	12005.525
1853.26642	12027.425
1856.41926	12035.025
1859.57004	12052.725
1862.71876	12027.725
1865.86542	12073.225
1869.01003	12074.225
1872.15258	12098.525
1875.29308	12117.025
1878.43152	12144.425
1881.56792	12159.825
1884.70227	12182.525
1887.83457	12201.425
1890.96482	12200.325
1894.09304	12245.525
1897.21921	12278.425
1900.34335	12309.725
1903.46544	12343.425
1906.58551	12352.625
1909.70353	12353.125
1912.81953	12404.725
1915.93349	12406.225
1919.04543	12373.625
1922.15534	12349.825
1925.26322	12329.125
1928.36908	12249.025
1931.47292	12197.825
1934.57473	12076.825
1937.67453	11987.025
1940.77232	11889.825
1943.86808	11802.125
1946.96184	11713.325
1950.05358	11633.725
1953.14331	11555.525
1956.23103	11514.325
1959.31675	11428.625
1962.40046	11420.125
1965.48217	11376.025
1968.56188	11314.525
1971.63959	11279.425
1974.7153	11265.825
1977.78901	11192.825
1980.86073	11191.525
1983.93046	11146.425
1986.99819	11088.425
1990.06394	11074.525
1993.1277	11043.125
1996.18947	10996.725
1999.24925	10947.425
2002.30706	10909.725
2005.36288	10869.725
2008.41672	10837.725
2011.46859	10819.925
2014.51848	10797.425
2017.56639	10725.125
2020.61233	10706.725
2023.6563	10658.925
2026.6983	10657.825
2029.73833	10659.725
2032.7764	10641.325
2035.8125	10599.725
2038.84664	10586.725
2041.87881	10588.525
2044.90903	10565.025
2047.93729	10567.725
2050.96359	10532.925
2053.98794	10531.525
2057.01034	10480.825
2060.03078	10513.925
2063.04927	10464.125
2066.06582	10473.825
2069.08042	10442.725
2072.09307	10449.725
2075.10378	10447.025
2078.11255	10445.125
2081.11938	10445.025
2084.12426	10450.225
2087.12722	10453.725
2090.12824	10432.325
2093.12732	10445.025
2096.12447	10464.725
2099.11969	10434.925
2102.11299	10463.825
2105.10435	10462.725
2108.09379	10446.725
2111.08131	10440.225
2114.0669	10435.725
2117.05057	10438.225
2120.03233	10420.325
2123.01216	10466.125
2125.99008	10451.325
2128.96609	10452.225
2131.94018	10442.125
2134.91236	10493.425
2137.88263	10468.225
2140.851	10489.925
2143.81746	10508.625
2146.78201	10482.425
2149.74466	10474.025
2152.7054	10452.425
2155.66425	10444.425
2158.6212	10470.725
2161.57625	10494.625
2164.52941	10466.025
2167.48067	10476.225
2170.43004	10458.925
2173.37752	10493.625
2176.32311	10467.625
2179.26681	10483.625
2182.20863	10454.625
2185.14856	10484.925
2188.08661	10495.225
2191.02278	10469.825
2193.95707	10446.725
2196.88948	10453.625
2199.82001	10457.625
2202.74867	10419.825
2205.67545	10449.525
2208.60037	10455.125
2211.52341	10438.525
2214.44458	10420.825
2217.36388	10387.625
2220.28132	10364.525
2223.1969	10335.325
2226.11061	10319.625
2229.02246	10294.325
2231.93245	10297.125
2234.84058	10293.425
2237.74686	10235.425
2240.65128	10272.925
2243.55385	10241.725
2246.45456	10222.225
2249.35343	10195.625
2252.25044	10167.925
2255.14561	10183.825
2258.03893	10191.025
2260.93041	10178.925
2263.82004	10161.325
2266.70783	10149.025
2269.59378	10119.125
2272.4779	10110.325
2275.36017	10077.725
2278.24061	10045.025
2281.11922	10022.725
2283.996	10025.225
2286.87094	10007.625
2289.74405	10002.125
2292.61534	9947.025
2295.4848	9954.625
2298.35243	9953.925
2301.21824	9943.025
2304.08223	9918.525
2306.94439	9940.825
2309.80474	9918.925
2312.66327	9949.025
2315.51999	9958.425
2318.37489	9944.325
2321.22797	9925.125
2324.07925	9922.025
2326.92871	9918.925
2329.77637	9900.325
2332.62222	9876.125
2335.46626	9886.225
2338.3085	9894.525
2341.14893	9884.025
2343.98756	9894.425
2346.8244	9907.525
2349.65943	9892.025
2352.49267	9918.925
2355.32411	9920.225
2358.15376	9942.725
2360.98161	9954.925
2363.80768	9941.825
2366.63195	9930.925
2369.45444	9956.425
2372.27514	9923.325
2375.09405	9913.125
2377.91118	9877.825
2380.72652	9865.925
2383.54009	9813.525
2386.35187	9807.925
2389.16188	9737.225
2391.97011	9728.325
2394.77657	9705.325
2397.58125	9698.725
2400.38416	9683.625
2403.18529	9633.825
2405.98466	9647.025
2408.78226	9611.625
2411.57809	9576.525
2414.37216	9610.825
2417.16446	9604.025
2419.955	9602.825
2422.74378	9559.325
2425.5308	9554.925
2428.31606	9578.225
2431.09956	9557.525
2433.88131	9527.525
2436.6613	9556.925
2439.43954	9544.925
2442.21603	9536.825
2444.99077	9538.625
2447.76377	9559.825
2450.53501	9545.025
2453.30451	9572.925
2456.07226	9578.425
2458.83827	9588.025
2461.60254	9582.325
2464.36507	9573.625
2467.12586	9558.825
2469.88492	9554.225
2472.64224	9559.825
2475.39782	9574.125
2478.15167	9583.825
2480.90379	9576.425
2483.65417	9623.325
2486.40283	9606.725
2489.14976	9610.725
2491.89497	9624.225
2494.63845	9659.125
2497.3802	9651.525
2500.12024	9633.725
2502.85855	9657.025
2505.59514	9617.625
2508.33002	9639.525
2511.06318	9573.425
2513.79462	9572.025
2516.52435	9542.525
2519.25237	9538.425
2521.97867	9510.525
2524.70327	9492.125
2527.42616	9471.825
2530.14734	9467.025
2532.86681	9436.325
2535.58458	9451.525
2538.30065	9442.225
2541.01501	9437.825
2543.72768	9423.425
2546.43864	9409.025
2549.14791	9421.525
2551.85548	9420.025
2554.56136	9398.225
2557.26554	9414.725
2559.96803	9396.225
2562.66883	9381.925
2565.36794	9398.625
2568.06536	9411.725
2570.7611	9385.925
2573.45514	9372.525
2576.14751	9351.925
2578.83819	9322.025
2581.52719	9363.825
2584.21451	9340.925
2586.90015	9366.525
2589.58411	9315.925
2592.2664	9330.425
2594.94701	9301.525
2597.62594	9323.625
2600.30321	9286.425
2602.9788	9310.925
2605.65273	9293.325
2608.32498	9299.825
2610.99557	9294.125
2613.66449	9316.725
2616.33175	9315.225
2618.99734	9305.425
2621.66128	9323.725
2624.32355	9327.325
2626.98416	9309.525
2629.64311	9324.925
2632.30041	9314.725
2634.95605	9296.525
2637.61004	9301.625
2640.26238	9300.225
2642.91306	9280.725
2645.56209	9258.325
2648.20948	9255.825
2650.85521	9228.725
2653.4993	9245.225
2656.14175	9249.325
2658.78255	9265.125
2661.42171	9248.525
2664.05923	9265.725
2666.6951	9271.425
2669.32934	9297.525
2671.96194	9283.525
2674.59291	9321.925
2677.22224	9305.725
2679.84993	9296.125
2682.476	9308.325
2685.10043	9307.225
2687.72324	9275.325
2690.34441	9298.425
2692.96396	9285.825
2695.58188	9304.725
2698.19818	9260.325
2700.81285	9292.225
2703.4259	9273.825
2706.03733	9303.125
2708.64714	9287.925
2711.25533	9307.325
2713.86191	9293.725
2716.46687	9343.925
2719.07021	9340.725
2721.67194	9312.425
2724.27206	9341.025
2726.87057	9335.425
2729.46747	9326.825
2732.06276	9343.525
2734.65644	9336.425
2737.24852	9342.225
2739.83899	9324.225
2742.42786	9331.325
2745.01513	9288.525
2747.60079	9305.825
2750.18486	9309.325
2752.76733	9326.725
2755.3482	9295.725
2757.92747	9311.825
2760.50515	9287.825
2763.08123	9299.725
2765.65573	9280.225
2768.22863	9290.625
2770.79994	9264.425
2773.36967	9286.225
2775.9378	9302.525
2778.50435	9296.725
2781.06932	9305.125
2783.6327	9286.225
2786.1945	9281.425
2788.75471	9286.925
2791.31335	9257.025
2793.87041	9272.525
2796.42589	9233.525
2798.97979	9233.825
2801.53212	9236.425
2804.08288	9232.025
2806.63206	9223.725
2809.17967	9224.625
2811.72571	9213.625
2814.27018	9249.725
2816.81308	9230.825
2819.35442	9226.025
2821.89419	9251.825
2824.43239	9248.425
2826.96904	9223.025
2829.50412	9236.425
2832.03763	9244.825
2834.56959	9224.025
2837.1	9232.825
2839.62884	9276.325
2842.15613	9314.925
2844.68186	9382.325
2847.20604	9458.225
2849.72867	9516.225
2852.24974	9528.125
2854.76927	9539.125
2857.28724	9496.125
2859.80367	9484.025
2862.31855	9449.525
2864.83189	9431.125
2867.34368	9444.425
2869.85393	9437.325
2872.36264	9438.025
2874.8698	9430.725
2877.37543	9469.825
2879.87952	9457.625
2882.38207	9435.025
2884.88308	9435.125
2887.38256	9429.425
2889.88051	9437.325
2892.37692	9443.725
2894.8718	9430.825
2897.36515	9452.825
2899.85698	9434.025
2902.34727	9482.025
2904.83604	9455.025
2907.32328	9469.925
2909.809	9447.125
2912.29319	9459.525
2914.77587	9453.725
2917.25702	9452.925
2919.73665	9457.425
2922.21476	9448.125
2924.69136	9431.325
2927.16644	9408.825
2929.64	9410.625
2932.11205	9379.225
2934.58258	9370.825
2937.05161	9336.725
2939.51912	9305.425
2941.98513	9252.725
2944.44962	9206.925
2946.91261	9116.225
2949.37409	9097.225
2951.83407	9097.925
2954.29254	9054.125
2956.74951	9017.125
2959.20498	8989.525
2961.65895	8950.225
2964.11142	8938.925
2966.56239	8923.525
2969.01186	8907.925
2971.45984	8879.625
2973.90632	8840.825
2976.35131	8796.525
2978.7948	8757.125
2981.23681	8738.725
2983.67732	8730.525
2986.11635	8675.825
2988.55388	8655.825
2990.98993	8634.225
2993.4245	8610.625
2995.85758	8592.725
2998.28917	8586.025
3000.71928	8567.825
3003.14791	8581.325
3005.57506	8568.525
3008.00073	8516.325
3010.42493	8505.925
3012.84764	8495.025
3015.26888	8502.325
3017.68865	8489.625
3020.10694	8448.925
3022.52376	8435.925
3024.9391	8435.725
3027.35298	8414.225
3029.76539	8393.125
3032.17632	8377.425
3034.5858	8343.525
3036.9938	8363.725
3039.40034	8346.925
3041.80542	8341.125
3044.20903	8328.225
3046.61118	8332.825
3049.01187	8300.425
3051.4111	8267.525
3053.80888	8276.525
3056.20519	8261.625
3058.60005	8207.625
3060.99345	8217.025
3063.3854	8200.925
3065.7759	8181.225
3068.16494	8174.725
3070.55254	8130.625
3072.93868	8122.025
3075.32338	8092.525
3077.70662	8063.825
3080.08842	8034.225
3082.46878	8063.325
3084.84769	8026.025
3087.22515	8031.525
3089.60118	8001.125
3091.97576	7994.925
3094.3489	8011.525
3096.72061	7976.225
3099.09087	7991.325
3101.4597	7976.225
3103.82709	7975.825
3106.19305	7942.325
3108.55757	7937.825
3110.92066	7927.325
3113.28232	7915.525
3115.64255	7872.825
3118.00134	7879.525
3120.35871	7873.425
3122.71466	7855.825
3125.06917	7835.525
3127.42226	7823.925
3129.77393	7841.825
3132.12417	7826.225
3134.47299	7829.525
3136.82039	7832.825
3139.16636	7842.025
3141.51092	7824.825
3143.85406	7831.425
3146.19579	7833.225
3148.53609	7850.725
3150.87499	7859.825
3153.21246	7850.225
3155.54853	7854.625
3157.88318	7858.125
3160.21642	7859.225
3162.54826	7837.425
3164.87868	7821.925
3167.2077	7824.425
