Data from AgNPs_FTO_APTES_UA_2uM_CRN_0uM_R6G_10uM_NaF_0.1M_Addition_RamanShift__45__10-56-54-972.txt Node

Date: Wed Feb 02 10:56:54 GMT 2022
User: TCL
Spectrometer: QEP01345
Trigger mode: 4
Integration Time (sec): 7.000000E0
Scans to average: 10
Electric dark correction enabled: true
Nonlinearity correction enabled: false
Boxcar width: 0
XAxis mode: Raman Shifts
Number of Pixels in Spectrum: 1044
>>>>>Begin Spectral Data<<<<<
46.04893	-0.275
50.45542	1.625
54.85868	-0.975
59.25871	-0.575
63.6555	65.325
68.04907	66.925
72.43941	68.825
76.82654	74.125
81.21044	76.725
85.59113	80.825
89.96862	82.725
94.34289	84.725
98.71396	86.125
103.08183	94.225
107.4465	97.725
111.80798	99.025
116.16626	103.325
120.52136	105.325
124.87327	109.425
129.222	116.225
133.56755	129.725
137.90993	134.025
142.24913	159.225
146.58517	177.625
150.91804	209.125
155.24774	255.225
159.57429	319.625
163.89768	410.725
168.21792	550.525
172.53501	761.725
176.84895	1057.525
181.15975	1492.225
185.46741	2097.525
189.77193	2881.825
194.07331	3853.725
198.37157	4948.125
202.6667	6099.925
206.9587	7267.625
211.24758	8382.925
215.53334	9531.925
219.81599	10749.125
224.09553	12151.925
228.37195	13685.025
232.64527	15316.825
236.91549	16980.125
241.18261	18641.925
245.44663	20154.325
249.70755	21505.425
253.96539	22697.325
258.22014	23838.525
262.4718	24652.425
266.72039	25272.225
270.96589	25493.225
275.20832	25612.225
279.44768	25489.925
283.68397	25307.625
287.91719	25194.725
292.14735	25163.325
296.37445	25190.325
300.59849	25265.525
304.81948	25431.625
309.03742	25396.825
313.25231	25070.325
317.46415	24388.025
321.67296	23474.925
325.87872	22667.725
330.08145	22210.925
334.28114	22021.325
338.47781	22101.325
342.67145	22311.325
346.86207	22663.625
351.04966	23127.925
355.23424	23583.525
359.4158	24064.325
363.59435	24398.825
367.76989	24574.325
371.94243	24698.825
376.11196	24730.925
380.27849	24696.025
384.44203	24800.725
388.60257	25028.725
392.76012	25379.725
396.91468	25784.725
401.06626	26264.025
405.21485	26498.525
409.36047	26306.925
413.50311	25873.825
417.64277	25569.025
421.77947	25550.325
425.9132	25660.725
430.04396	25701.225
434.17176	25786.325
438.2966	25804.125
442.41849	26161.225
446.53742	26751.125
450.6534	27499.325
454.76644	27997.225
458.87653	28322.225
462.98368	28375.925
467.08789	28171.725
471.18916	27963.225
475.2875	27844.225
479.38291	28050.825
483.4754	28260.225
487.56496	28141.125
491.6516	27617.425
495.73531	26881.425
499.81612	26354.625
503.89401	26290.825
507.96899	26315.725
512.04106	26160.225
516.11023	25817.825
520.1765	25350.725
524.23987	24904.825
528.30034	24474.925
532.35792	24169.125
536.41261	23826.625
540.46441	23528.325
544.51333	23548.325
548.55936	23987.025
552.60252	24725.125
556.64279	25623.025
560.6802	26257.325
564.71473	26767.925
568.7464	27552.325
572.7752	28674.525
576.80114	29648.425
580.82422	30449.025
584.84444	31151.225
588.86181	31876.525
592.87633	32133.225
596.888	31503.125
600.89682	30414.425
604.9028	30620.325
608.90594	33062.725
612.90624	35594.025
616.90371	33169.425
620.89834	27225.425
624.89015	24403.025
628.87913	24033.225
632.86528	24285.925
636.84862	24391.325
640.82913	23966.525
644.80683	23329.525
648.78172	22790.125
652.75379	22677.325
656.72306	22874.925
660.68952	23238.425
664.65319	23029.425
668.61405	22561.025
672.57211	22392.125
676.52738	22484.625
680.47986	22420.125
684.42955	22260.025
688.37646	22139.325
692.32058	22278.825
696.26192	22608.925
700.20048	23063.825
704.13626	23371.325
708.06928	23536.725
711.99952	23481.625
715.927	23438.025
719.85171	23513.225
723.77365	23398.325
727.69284	22955.625
731.60928	22541.925
735.52295	22381.925
739.43388	22355.525
743.34206	22420.625
747.24749	22578.525
751.15017	22876.725
755.05012	23410.025
758.94733	24336.225
762.8418	25855.725
766.73354	28156.325
770.62254	30165.325
774.50882	30348.625
778.39237	28587.325
782.27321	26298.825
786.15132	24466.425
790.02671	23284.525
793.89938	22702.725
797.76935	22432.925
801.6366	22346.625
805.50115	22321.525
809.36299	22223.825
813.22213	22071.225
817.07857	22028.025
820.93231	21962.225
824.78336	21722.125
828.63172	21566.625
832.47738	21393.325
836.32036	21359.725
840.16066	21374.625
843.99827	21366.425
847.8332	21306.325
851.66546	21279.425
855.49504	21316.125
859.32195	21319.825
863.1462	21263.125
866.96777	21152.325
870.78668	21108.625
874.60293	21123.025
878.41652	21106.625
882.22745	21214.725
886.03573	21333.225
889.84136	21358.025
893.64433	21360.325
897.44466	21352.625
901.24235	21339.525
905.0374	21223.525
908.8298	21142.725
912.61957	21156.925
916.40671	21422.625
920.19121	21812.625
923.97308	22151.725
927.75233	22204.425
931.52895	21953.225
935.30295	21452.825
939.07433	20872.425
942.84309	20395.925
946.60924	20145.725
950.37278	20054.125
954.13371	20012.725
957.89203	20067.825
961.64774	20042.025
965.40086	20037.425
969.15137	20002.925
972.89929	19878.725
976.64461	19711.525
980.38733	19611.125
984.12747	19593.425
987.86502	19652.325
991.59999	19764.125
995.33237	19958.725
999.06217	20321.325
1002.78939	20787.725
1006.51404	21239.125
1010.23611	21669.625
1013.95561	22003.125
1017.67255	22069.825
1021.38692	21813.625
1025.09872	21429.225
1028.80796	21214.925
1032.51465	21348.725
1036.21877	21559.125
1039.92035	21652.225
1043.61937	21602.325
1047.31584	21482.925
1051.00976	21364.925
1054.70114	21379.225
1058.38998	21511.125
1062.07627	21771.125
1065.76003	22082.225
1069.44126	22538.325
1073.11995	23001.425
1076.79611	23386.025
1080.46974	23571.125
1084.14085	23759.125
1087.80943	24056.125
1091.47549	24450.825
1095.13903	24637.225
1098.80005	24315.425
1102.45857	23536.725
1106.11456	22749.325
1109.76805	22320.825
1113.41903	22209.125
1117.06751	22267.525
1120.71348	22536.125
1124.35696	22849.225
1127.99793	23237.725
1131.63641	23555.225
1135.2724	23519.625
1138.90589	23434.325
1142.5369	23495.525
1146.16542	23740.725
1149.79145	24063.425
1153.415	24499.525
1157.03607	25059.225
1160.65467	26094.725
1164.27079	27650.625
1167.88443	29541.925
1171.49561	31624.925
1175.10432	34283.825
1178.71056	37568.025
1182.31434	40695.325
1185.91565	42395.425
1189.51451	42448.225
1193.11091	41488.125
1196.70485	39716.125
1200.29634	37710.225
1203.88538	36227.525
1207.47197	35409.125
1211.05612	34891.425
1214.63782	34163.125
1218.21708	33060.825
1221.79391	31909.525
1225.36829	31046.525
1228.94024	30369.625
1232.50976	29811.225
1236.07685	29330.825
1239.6415	29002.725
1243.20374	28942.325
1246.76355	29035.325
1250.32093	29438.425
1253.8759	30242.725
1257.42845	31325.725
1260.97859	32611.625
1264.52631	33856.125
1268.07163	35013.025
1271.61453	36209.825
1275.15503	37441.125
1278.69312	38840.825
1282.22882	40298.125
1285.76211	41964.225
1289.29301	44093.425
1292.82151	46587.325
1296.34761	49569.125
1299.87133	52983.325
1303.39266	56382.925
1306.9116	59274.525
1310.42815	61373.125
1313.94233	62429.225
1317.45412	62248.125
1320.96354	61754.625
1324.47058	61611.925
1327.97525	61739.725
1331.47754	61609.725
1334.97747	61128.825
1338.47502	60152.425
1341.97022	58788.225
1345.46305	57156.725
1348.95352	55505.525
1352.44163	54197.125
1355.92738	54028.025
1359.41078	55410.425
1362.89183	57334.625
1366.37053	57230.825
1369.84688	53442.025
1373.32088	47779.825
1376.79254	43554.425
1380.26186	41908.425
1383.72883	41998.525
1387.19347	42325.525
1390.65578	42263.125
1394.11575	42334.225
1397.57339	43028.225
1401.0287	43968.025
1404.48168	44690.625
1407.93234	44383.825
1411.38068	42864.325
1414.82669	40601.325
1418.27039	38144.225
1421.71177	35875.225
1425.15083	34131.425
1428.58758	33219.525
1432.02203	33376.225
1435.45416	34487.425
1438.88399	35793.125
1442.31151	36943.025
1445.73673	37941.525
1449.15965	38724.825
1452.58027	39321.425
1455.9986	39592.025
1459.41463	39877.925
1462.82837	40310.925
1466.23982	40850.625
1469.64898	41125.325
1473.05586	41206.025
1476.46045	40934.425
1479.86276	40408.025
1483.26279	39922.525
1486.66054	39754.325
1490.05602	39995.525
1493.44922	40639.625
1496.84016	41474.525
1500.22882	42569.725
1503.61521	44139.525
1506.99934	45773.425
1510.38121	47335.525
1513.76081	47816.125
1517.13816	47127.225
1520.51324	45566.625
1523.88607	44194.425
1527.25665	43576.425
1530.62498	43454.425
1533.99105	43164.525
1537.35488	42474.625
1540.71647	41356.725
1544.07581	39846.525
1547.4329	38248.825
1550.78776	36974.525
1554.14038	36136.225
1557.49077	35849.325
1560.83892	35799.325
1564.18484	35935.925
1567.52853	36109.025
1570.86999	36612.025
1574.20922	37550.525
1577.54624	38599.125
1580.88103	39370.925
1584.2136	40248.725
1587.54395	41818.725
1590.87208	44181.025
1594.19801	46677.025
1597.52172	48581.225
1600.84321	48140.225
1604.16251	44854.825
1607.47959	40271.525
1610.79447	36015.525
1614.10715	32323.125
1617.41763	29474.725
1620.7259	27564.925
1624.03199	26600.325
1627.33587	26630.125
1630.63757	27699.925
1633.93707	29965.225
1637.23439	33755.125
1640.52951	39210.525
1643.82246	45536.625
1647.11321	50661.225
1650.40179	51891.525
1653.68819	48135.625
1656.97241	41186.125
1660.25446	33935.325
1663.53433	28424.925
1666.81203	24782.925
1670.08756	22539.925
1673.36092	21127.625
1676.63211	20221.825
1679.90115	19618.625
1683.16801	19152.425
1686.43272	18845.625
1689.69527	18584.625
1692.95567	18405.725
1696.2139	18275.225
1699.46999	18211.325
1702.72392	18097.025
1705.97571	18024.525
1709.22535	17915.825
1712.47284	17880.825
1715.71819	17836.725
1718.96139	17761.625
1722.20246	17683.425
1725.44139	17542.625
1728.67818	17434.325
1731.91284	17276.025
1735.14537	17175.425
1738.37576	17078.925
1741.60403	16979.325
1744.83017	16945.425
1748.05418	16890.725
1751.27607	16815.025
1754.49584	16747.625
1757.71349	16757.525
1760.92903	16743.025
1764.14244	16703.725
1767.35375	16672.125
1770.56294	16603.625
1773.77002	16608.025
1776.97499	16578.925
1780.17785	16506.925
1783.37861	16483.725
1786.57727	16445.725
1789.77382	16394.825
1792.96828	16377.925
1796.16064	16340.125
1799.3509	16338.225
1802.53907	16309.525
1805.72514	16246.425
1808.90913	16198.625
1812.09102	16180.225
1815.27083	16152.425
1818.44856	16137.925
1821.6242	16122.925
1824.79776	16126.625
1827.96924	16099.025
1831.13864	16093.225
1834.30597	16102.825
1837.47122	16136.225
1840.6344	16152.525
1843.7955	16169.925
1846.95454	16210.025
1850.11151	16171.325
1853.26642	16163.625
1856.41926	16157.625
1859.57004	16122.625
1862.71876	16096.925
1865.86542	16100.625
1869.01003	16067.925
1872.15258	16051.525
1875.29308	16033.125
1878.43152	16013.925
1881.56792	15985.825
1884.70227	15970.925
1887.83457	15924.925
1890.96482	15872.625
1894.09304	15839.225
1897.21921	15817.325
1900.34335	15781.825
1903.46544	15749.325
1906.58551	15755.225
1909.70353	15709.825
1912.81953	15652.125
1915.93349	15610.425
1919.04543	15548.625
1922.15534	15513.525
1925.26322	15452.925
1928.36908	15422.825
1931.47292	15352.525
1934.57473	15290.125
1937.67453	15252.825
1940.77232	15209.425
1943.86808	15166.125
1946.96184	15106.825
1950.05358	15089.125
1953.14331	15015.825
1956.23103	14931.525
1959.31675	14913.825
1962.40046	14889.825
1965.48217	14847.325
1968.56188	14764.825
1971.63959	14722.025
1974.7153	14652.125
1977.78901	14617.025
1980.86073	14566.525
1983.93046	14549.625
1986.99819	14468.725
1990.06394	14462.825
1993.1277	14418.325
1996.18947	14333.325
1999.24925	14307.525
2002.30706	14246.925
2005.36288	14191.125
2008.41672	14171.225
2011.46859	14105.425
2014.51848	14089.125
2017.56639	14012.525
2020.61233	13969.125
2023.6563	13949.525
2026.6983	13944.625
2029.73833	13925.525
2032.7764	13878.925
2035.8125	13866.825
2038.84664	13838.225
2041.87881	13822.125
2044.90903	13760.325
2047.93729	13765.025
2050.96359	13769.225
2053.98794	13723.725
2057.01034	13685.925
2060.03078	13715.925
2063.04927	13638.525
2066.06582	13643.125
2069.08042	13616.325
2072.09307	13648.725
2075.10378	13631.625
2078.11255	13633.625
2081.11938	13635.925
2084.12426	13607.825
2087.12722	13610.225
2090.12824	13607.325
2093.12732	13583.125
2096.12447	13649.225
2099.11969	13650.225
2102.11299	13651.025
2105.10435	13619.625
2108.09379	13601.625
2111.08131	13632.325
2114.0669	13591.725
2117.05057	13639.825
2120.03233	13613.825
2123.01216	13600.025
2125.99008	13614.625
2128.96609	13622.225
2131.94018	13631.125
2134.91236	13622.725
2137.88263	13629.325
2140.851	13666.625
2143.81746	13625.925
2146.78201	13622.525
2149.74466	13617.625
2152.7054	13623.525
2155.66425	13597.025
2158.6212	13603.225
2161.57625	13627.925
2164.52941	13612.125
2167.48067	13589.725
2170.43004	13592.325
2173.37752	13618.725
2176.32311	13547.425
2179.26681	13585.325
2182.20863	13565.425
2185.14856	13589.225
2188.08661	13600.225
2191.02278	13569.025
2193.95707	13575.125
2196.88948	13512.825
2199.82001	13529.725
2202.74867	13481.725
2205.67545	13502.325
2208.60037	13496.025
2211.52341	13474.625
2214.44458	13461.725
2217.36388	13416.525
2220.28132	13410.525
2223.1969	13365.925
2226.11061	13321.525
2229.02246	13319.125
2231.93245	13316.325
2234.84058	13310.625
2237.74686	13267.725
2240.65128	13242.325
2243.55385	13222.025
2246.45456	13227.925
2249.35343	13147.925
2252.25044	13109.525
2255.14561	13102.225
2258.03893	13097.025
2260.93041	13045.825
2263.82004	13041.825
2266.70783	13010.025
2269.59378	12976.325
2272.4779	12948.825
2275.36017	12925.925
2278.24061	12897.125
2281.11922	12847.025
2283.996	12848.325
2286.87094	12832.625
2289.74405	12816.025
2292.61534	12792.425
2295.4848	12737.525
2298.35243	12755.725
2301.21824	12768.125
2304.08223	12717.325
2306.94439	12727.225
2309.80474	12749.625
2312.66327	12750.825
2315.51999	12697.225
2318.37489	12716.225
2321.22797	12676.425
2324.07925	12689.325
2326.92871	12657.525
2329.77637	12639.225
2332.62222	12655.525
2335.46626	12615.025
2338.3085	12631.125
2341.14893	12641.625
2343.98756	12613.025
2346.8244	12646.825
2349.65943	12615.925
2352.49267	12611.825
2355.32411	12624.625
2358.15376	12621.625
2360.98161	12636.125
2363.80768	12604.625
2366.63195	12613.025
2369.45444	12612.925
2372.27514	12572.925
2375.09405	12536.425
2377.91118	12523.825
2380.72652	12480.025
2383.54009	12478.925
2386.35187	12440.025
2389.16188	12404.925
2391.97011	12333.825
2394.77657	12332.625
2397.58125	12327.925
2400.38416	12306.025
2403.18529	12275.025
2405.98466	12260.225
2408.78226	12240.025
2411.57809	12214.825
2414.37216	12206.225
2417.16446	12202.825
2419.955	12185.825
2422.74378	12209.425
2425.5308	12161.625
2428.31606	12194.125
2431.09956	12162.625
2433.88131	12157.725
2436.6613	12165.125
2439.43954	12159.025
2442.21603	12142.925
2444.99077	12155.025
2447.76377	12170.525
2450.53501	12136.725
2453.30451	12178.225
2456.07226	12112.125
2458.83827	12157.325
2461.60254	12171.625
2464.36507	12139.625
2467.12586	12149.925
2469.88492	12113.225
2472.64224	12146.925
2475.39782	12131.525
2478.15167	12122.225
2480.90379	12120.025
2483.65417	12140.825
2486.40283	12128.525
2489.14976	12140.625
2491.89497	12139.925
2494.63845	12167.125
2497.3802	12127.125
2500.12024	12159.725
2502.85855	12141.925
2505.59514	12139.525
2508.33002	12144.525
2511.06318	12097.025
2513.79462	12073.725
2516.52435	12100.825
2519.25237	12059.325
2521.97867	12041.625
2524.70327	12035.525
2527.42616	12037.325
2530.14734	12010.925
2532.86681	12009.625
2535.58458	11990.825
2538.30065	11954.525
2541.01501	11959.525
2543.72768	11948.225
2546.43864	11913.125
2549.14791	11902.425
2551.85548	11894.525
2554.56136	11880.625
2557.26554	11860.225
2559.96803	11867.125
2562.66883	11847.925
2565.36794	11854.525
2568.06536	11889.025
2570.7611	11824.625
2573.45514	11834.025
2576.14751	11823.425
2578.83819	11821.725
2581.52719	11806.025
2584.21451	11803.725
2586.90015	11787.925
2589.58411	11780.825
2592.2664	11764.325
2594.94701	11739.425
2597.62594	11738.725
2600.30321	11720.425
2602.9788	11716.525
2605.65273	11734.925
2608.32498	11727.525
2610.99557	11716.225
2613.66449	11700.325
2616.33175	11706.025
2618.99734	11726.625
2621.66128	11736.925
2624.32355	11714.225
2626.98416	11722.125
2629.64311	11704.225
2632.30041	11696.625
2634.95605	11699.925
2637.61004	11706.325
2640.26238	11677.025
2642.91306	11665.525
2645.56209	11649.925
2648.20948	11643.425
2650.85521	11639.225
2653.4993	11656.825
2656.14175	11661.025
2658.78255	11683.525
2661.42171	11694.725
2664.05923	11680.925
2666.6951	11642.525
2669.32934	11696.425
2671.96194	11719.125
2674.59291	11724.625
2677.22224	11716.725
2679.84993	11693.725
2682.476	11712.625
2685.10043	11698.525
2687.72324	11668.625
2690.34441	11672.725
2692.96396	11661.825
2695.58188	11675.625
2698.19818	11662.925
2700.81285	11671.125
2703.4259	11671.025
2706.03733	11709.025
2708.64714	11684.125
2711.25533	11710.125
2713.86191	11669.825
2716.46687	11721.025
2719.07021	11737.425
2721.67194	11729.925
2724.27206	11696.125
2726.87057	11696.925
2729.46747	11689.225
2732.06276	11708.425
2734.65644	11701.825
2737.24852	11716.725
2739.83899	11697.725
2742.42786	11718.425
2745.01513	11695.625
2747.60079	11698.025
2750.18486	11730.825
2752.76733	11724.825
2755.3482	11697.525
2757.92747	11705.925
2760.50515	11695.025
2763.08123	11700.125
2765.65573	11673.225
2768.22863	11682.325
2770.79994	11666.125
2773.36967	11659.525
2775.9378	11711.925
2778.50435	11681.025
2781.06932	11667.725
2783.6327	11667.125
2786.1945	11637.125
2788.75471	11627.025
2791.31335	11618.025
2793.87041	11600.925
2796.42589	11588.225
2798.97979	11573.225
2801.53212	11592.925
2804.08288	11548.925
2806.63206	11516.625
2809.17967	11538.425
2811.72571	11487.125
2814.27018	11518.425
2816.81308	11470.625
2819.35442	11468.325
2821.89419	11457.225
2824.43239	11433.825
2826.96904	11436.825
2829.50412	11402.825
2832.03763	11396.825
2834.56959	11396.325
2837.1	11387.025
2839.62884	11408.125
2842.15613	11407.625
2844.68186	11439.825
2847.20604	11462.925
2849.72867	11492.725
2852.24974	11521.025
2854.76927	11506.925
2857.28724	11464.625
2859.80367	11435.625
2862.31855	11412.625
2864.83189	11397.425
2867.34368	11407.625
2869.85393	11407.325
2872.36264	11420.825
2874.8698	11426.325
2877.37543	11418.525
2879.87952	11434.525
2882.38207	11459.825
2884.88308	11467.625
2887.38256	11485.125
2889.88051	11455.325
2892.37692	11462.725
2894.8718	11451.125
2897.36515	11478.925
2899.85698	11452.025
2902.34727	11502.725
2904.83604	11511.525
2907.32328	11542.425
2909.809	11524.525
2912.29319	11525.025
2914.77587	11504.325
2917.25702	11546.325
2919.73665	11493.125
2922.21476	11511.825
2924.69136	11513.425
2927.16644	11508.925
2929.64	11492.425
2932.11205	11485.525
2934.58258	11453.425
2937.05161	11450.625
2939.51912	11452.225
2941.98513	11407.525
2944.44962	11371.425
2946.91261	11330.125
2949.37409	11311.125
2951.83407	11291.325
2954.29254	11300.025
2956.74951	11231.925
2959.20498	11200.125
2961.65895	11161.625
2964.11142	11191.625
2966.56239	11169.925
2969.01186	11162.825
2971.45984	11125.925
2973.90632	11085.725
2976.35131	11049.825
2978.7948	11027.325
2981.23681	10970.325
2983.67732	10950.525
2986.11635	10908.025
2988.55388	10902.925
2990.98993	10855.525
2993.4245	10824.625
2995.85758	10785.725
2998.28917	10779.925
3000.71928	10773.925
3003.14791	10754.225
3005.57506	10746.225
3008.00073	10690.925
3010.42493	10691.625
3012.84764	10683.425
3015.26888	10639.225
3017.68865	10629.325
3020.10694	10614.625
3022.52376	10592.025
3024.9391	10589.425
3027.35298	10574.525
3029.76539	10573.525
3032.17632	10528.025
3034.5858	10511.225
3036.9938	10500.725
3039.40034	10490.525
3041.80542	10501.525
3044.20903	10479.125
3046.61118	10478.125
3049.01187	10455.825
3051.4111	10425.425
3053.80888	10405.325
3056.20519	10381.925
3058.60005	10345.125
3060.99345	10341.125
3063.3854	10319.725
3065.7759	10257.825
3068.16494	10240.025
3070.55254	10235.525
3072.93868	10214.125
3075.32338	10175.225
3077.70662	10140.625
3080.08842	10108.325
3082.46878	10129.325
3084.84769	10106.625
3087.22515	10074.725
3089.60118	10085.425
3091.97576	10088.025
3094.3489	10091.525
3096.72061	10085.425
3099.09087	10072.225
3101.4597	10026.125
3103.82709	10021.725
3106.19305	10000.225
3108.55757	10010.625
3110.92066	9976.725
3113.28232	9931.825
3115.64255	9886.825
3118.00134	9897.025
3120.35871	9890.925
3122.71466	9891.825
3125.06917	9858.525
3127.42226	9831.425
3129.77393	9824.025
