Data from AgNPs_FTO_APTES_UA_2uM_CRN_1uM_R6G_10uM_NaF_0.1M_Addition_RamanShift__15__11-36-35-018.txt Node

Date: Wed Feb 02 11:36:35 GMT 2022
User: TCL
Spectrometer: QEP01345
Trigger mode: 4
Integration Time (sec): 7.000000E0
Scans to average: 10
Electric dark correction enabled: true
Nonlinearity correction enabled: false
Boxcar width: 0
XAxis mode: Raman Shifts
Number of Pixels in Spectrum: 1044
>>>>>Begin Spectral Data<<<<<
46.04893	-0.275
50.45542	0.625
54.85868	-1.075
59.25871	-0.275
63.6555	90.125
68.04907	95.825
72.43941	102.125
76.82654	103.325
81.21044	108.825
85.59113	112.625
89.96862	121.825
94.34289	121.125
98.71396	124.925
103.08183	133.125
107.4465	133.725
111.80798	140.125
116.16626	142.325
120.52136	150.225
124.87327	157.025
129.222	160.325
133.56755	175.025
137.90993	189.125
142.24913	214.825
146.58517	241.425
150.91804	283.325
155.24774	342.025
159.57429	433.025
163.89768	553.025
168.21792	742.825
172.53501	1018.625
176.84895	1427.825
181.15975	2010.925
185.46741	2815.025
189.77193	3896.825
194.07331	5221.925
198.37157	6695.125
202.6667	8264.425
206.9587	9864.925
211.24758	11400.725
215.53334	12981.825
219.81599	14657.825
224.09553	16537.725
228.37195	18600.925
232.64527	20815.625
236.91549	23090.325
241.18261	25373.125
245.44663	27489.825
249.70755	29390.525
253.96539	31006.825
258.22014	32432.325
262.4718	33529.825
266.72039	34306.625
270.96589	34732.425
275.20832	34735.325
279.44768	34478.225
283.68397	34144.025
287.91719	33885.425
292.14735	33748.425
296.37445	33701.225
300.59849	33915.725
304.81948	34079.025
309.03742	34151.425
313.25231	33820.825
317.46415	32985.225
321.67296	31897.025
325.87872	30943.525
330.08145	30401.525
334.28114	30237.825
338.47781	30424.025
342.67145	30740.025
346.86207	31231.525
351.04966	31877.925
355.23424	32549.425
359.4158	33215.125
363.59435	33621.925
367.76989	33924.425
371.94243	34057.925
376.11196	34111.025
380.27849	34120.025
384.44203	34184.725
388.60257	34454.025
392.76012	34844.625
396.91468	35341.525
401.06626	35977.525
405.21485	36298.825
409.36047	36062.825
413.50311	35385.425
417.64277	34848.025
421.77947	34741.025
425.9132	34754.325
430.04396	34852.925
434.17176	34920.225
438.2966	34999.525
442.41849	35405.025
446.53742	36177.825
450.6534	36989.525
454.76644	37703.425
458.87653	37962.725
462.98368	38020.225
467.08789	37905.825
471.18916	37530.125
475.2875	37352.725
479.38291	37375.725
483.4754	37399.925
487.56496	37310.625
491.6516	36796.125
495.73531	36053.025
499.81612	35550.725
503.89401	35519.025
507.96899	35648.225
512.04106	35556.125
516.11023	35376.825
520.1765	34943.825
524.23987	34520.025
528.30034	34103.825
532.35792	33700.725
536.41261	33226.325
540.46441	32869.425
544.51333	32853.925
548.55936	33276.225
552.60252	34107.725
556.64279	35070.325
560.6802	35769.325
564.71473	36257.625
568.7464	37086.025
572.7752	38303.125
576.80114	39369.525
580.82422	40318.125
584.84444	41243.525
588.86181	42217.125
592.87633	42690.425
596.888	41931.525
600.89682	40593.425
604.9028	40922.925
608.90594	44379.025
612.90624	48327.025
616.90371	45503.725
620.89834	37755.625
624.89015	34087.025
628.87913	33571.025
632.86528	33855.925
636.84862	34058.225
640.82913	33593.025
644.80683	32737.925
648.78172	32051.425
652.75379	31902.225
656.72306	32299.925
660.68952	32903.225
664.65319	32696.025
668.61405	32063.225
672.57211	31883.625
676.52738	31973.925
680.47986	31960.825
684.42955	31727.125
688.37646	31564.725
692.32058	31673.125
696.26192	32125.825
700.20048	32656.225
704.13626	33007.825
708.06928	33063.225
711.99952	33030.625
715.927	32955.025
719.85171	33026.925
723.77365	32870.825
727.69284	32352.225
731.60928	31888.825
735.52295	31652.825
739.43388	31629.725
743.34206	31693.825
747.24749	31823.525
751.15017	32158.925
755.05012	32834.825
758.94733	33759.025
762.8418	35710.025
766.73354	38571.625
770.62254	41273.625
774.50882	41814.325
778.39237	39870.725
782.27321	37014.925
786.15132	34634.625
790.02671	32981.325
793.89938	32195.525
797.76935	31814.525
801.6366	31620.125
805.50115	31534.425
809.36299	31350.525
813.22213	31149.725
817.07857	31096.225
820.93231	30999.225
824.78336	30849.425
828.63172	30626.625
832.47738	30499.925
836.32036	30493.825
840.16066	30474.425
843.99827	30454.725
847.8332	30467.825
851.66546	30397.025
855.49504	30389.125
859.32195	30432.825
863.1462	30378.125
866.96777	30262.625
870.78668	30233.325
874.60293	30220.625
878.41652	30325.425
882.22745	30431.225
886.03573	30611.825
889.84136	30690.425
893.64433	30604.225
897.44466	30580.725
901.24235	30570.425
905.0374	30421.025
908.8298	30354.125
912.61957	30370.425
916.40671	30639.125
920.19121	31043.725
923.97308	31426.425
927.75233	31504.925
931.52895	31277.725
935.30295	30750.025
939.07433	30073.025
942.84309	29520.925
946.60924	29195.825
950.37278	29037.025
954.13371	28996.825
957.89203	28981.625
961.64774	28948.325
965.40086	28935.125
969.15137	28913.625
972.89929	28747.525
976.64461	28584.225
980.38733	28529.025
984.12747	28479.225
987.86502	28575.825
991.59999	28725.525
995.33237	28980.425
999.06217	29436.725
1002.78939	29956.925
1006.51404	30453.125
1010.23611	30947.025
1013.95561	31324.525
1017.67255	31399.125
1021.38692	31128.125
1025.09872	30675.425
1028.80796	30367.125
1032.51465	30488.025
1036.21877	30756.125
1039.92035	30951.525
1043.61937	31008.825
1047.31584	30876.525
1051.00976	30764.125
1054.70114	30788.725
1058.38998	30916.025
1062.07627	31253.325
1065.76003	31610.025
1069.44126	32118.625
1073.11995	32713.625
1076.79611	33281.425
1080.46974	33559.125
1084.14085	33748.225
1087.80943	34099.325
1091.47549	34533.925
1095.13903	34705.425
1098.80005	34263.425
1102.45857	33395.325
1106.11456	32559.025
1109.76805	32009.325
1113.41903	31844.525
1117.06751	31868.225
1120.71348	32200.625
1124.35696	32583.125
1127.99793	33067.425
1131.63641	33458.325
1135.2724	33334.425
1138.90589	33081.725
1142.5369	33101.025
1146.16542	33214.125
1149.79145	33507.825
1153.415	33866.125
1157.03607	34520.425
1160.65467	35516.025
1164.27079	37198.825
1167.88443	39265.025
1171.49561	41621.625
1175.10432	44789.725
1178.71056	48705.725
1182.31434	52345.525
1185.91565	54261.825
1189.51451	54273.725
1193.11091	52969.325
1196.70485	50728.625
1200.29634	48305.825
1203.88538	46553.025
1207.47197	45580.825
1211.05612	44841.425
1214.63782	44064.925
1218.21708	42903.825
1221.79391	41559.925
1225.36829	40508.325
1228.94024	39909.125
1232.50976	39385.325
1236.07685	38944.225
1239.6415	38700.325
1243.20374	38585.125
1246.76355	38800.725
1250.32093	39272.725
1253.8759	40167.325
1257.42845	41384.525
1260.97859	42843.725
1264.52631	44270.725
1268.07163	45655.025
1271.61453	46987.725
1275.15503	48381.225
1278.69312	49857.625
1282.22882	51328.325
1285.76211	53093.825
1289.29301	55148.525
1292.82151	57609.525
1296.34761	60548.425
1299.87133	64033.825
1303.39266	67631.525
1306.9116	70905.825
1310.42815	73505.825
1313.94233	74741.525
1317.45412	74390.525
1320.96354	73574.125
1324.47058	73191.625
1327.97525	72959.725
1331.47754	72687.225
1334.97747	72122.525
1338.47502	71252.525
1341.97022	70092.625
1345.46305	68937.725
1348.95352	67791.225
1352.44163	66977.725
1355.92738	67283.525
1359.41078	69394.825
1362.89183	72005.725
1366.37053	71794.925
1369.84688	66839.725
1373.32088	59847.425
1376.79254	54746.825
1380.26186	52489.825
1383.72883	52153.225
1387.19347	52100.225
1390.65578	51759.225
1394.11575	51651.225
1397.57339	52051.625
1401.0287	52800.825
1404.48168	53277.925
1407.93234	52782.425
1411.38068	51424.225
1414.82669	49322.925
1418.27039	47063.625
1421.71177	45013.925
1425.15083	43382.725
1428.58758	42617.725
1432.02203	42911.225
1435.45416	43898.525
1438.88399	45159.125
1442.31151	46117.125
1445.73673	46861.125
1449.15965	47589.625
1452.58027	48068.725
1455.9986	48320.625
1459.41463	48632.125
1462.82837	49147.025
1466.23982	49806.325
1469.64898	50315.125
1473.05586	50526.025
1476.46045	50330.425
1479.86276	49983.625
1483.26279	49678.925
1486.66054	49769.725
1490.05602	50367.825
1493.44922	51292.925
1496.84016	52594.725
1500.22882	54402.625
1503.61521	56865.525
1506.99934	59442.625
1510.38121	61524.725
1513.76081	62005.625
1517.13816	60698.925
1520.51324	58251.225
1523.88607	56068.725
1527.25665	54827.425
1530.62498	54272.625
1533.99105	53511.525
1537.35488	52591.325
1540.71647	51111.825
1544.07581	49476.525
1547.4329	47786.925
1550.78776	46480.925
1554.14038	45784.225
1557.49077	45593.825
1560.83892	45684.125
1564.18484	45939.725
1567.52853	46350.825
1570.86999	46962.425
1574.20922	48009.625
1577.54624	49014.225
1580.88103	49444.625
1584.2136	49858.025
1587.54395	51050.625
1590.87208	53086.125
1594.19801	55438.025
1597.52172	57426.725
1600.84321	57276.525
1604.16251	54032.925
1607.47959	49489.325
1610.79447	45367.525
1614.10715	41505.525
1617.41763	38418.725
1620.7259	36255.725
1624.03199	35198.625
1627.33587	35145.425
1630.63757	36277.725
1633.93707	38680.825
1637.23439	42622.825
1640.52951	48547.725
1643.82246	55619.725
1647.11321	61440.125
1650.40179	63212.625
1653.68819	59543.225
1656.97241	51957.025
1660.25446	43901.925
1663.53433	37710.225
1666.81203	33522.325
1670.08756	30939.925
1673.36092	29344.425
1676.63211	28339.825
1679.90115	27587.525
1683.16801	27083.625
1686.43272	26718.125
1689.69527	26439.225
1692.95567	26253.025
1696.2139	26120.425
1699.46999	25985.425
1702.72392	25866.325
1705.97571	25789.825
1709.22535	25719.125
1712.47284	25640.525
1715.71819	25540.325
1718.96139	25517.025
1722.20246	25370.525
1725.44139	25253.525
1728.67818	25070.525
1731.91284	24930.225
1735.14537	24758.625
1738.37576	24659.525
1741.60403	24555.425
1744.83017	24453.625
1748.05418	24397.725
1751.27607	24335.025
1754.49584	24300.325
1757.71349	24274.925
1760.92903	24262.225
1764.14244	24236.525
1767.35375	24186.625
1770.56294	24108.825
1773.77002	24105.725
1776.97499	24071.425
1780.17785	23967.525
1783.37861	23962.325
1786.57727	23878.925
1789.77382	23787.325
1792.96828	23803.925
1796.16064	23706.125
1799.3509	23684.225
1802.53907	23643.725
1805.72514	23595.225
1808.90913	23525.825
1812.09102	23467.325
1815.27083	23415.125
1818.44856	23375.225
1821.6242	23383.625
1824.79776	23374.825
1827.96924	23354.025
1831.13864	23329.925
1834.30597	23407.725
1837.47122	23384.425
1840.6344	23420.825
1843.7955	23505.125
1846.95454	23441.125
1850.11151	23398.225
1853.26642	23372.725
1856.41926	23361.625
1859.57004	23380.425
1862.71876	23319.625
1865.86542	23248.825
1869.01003	23225.125
1872.15258	23198.625
1875.29308	23184.925
1878.43152	23166.125
1881.56792	23069.925
1884.70227	23037.925
1887.83457	22982.625
1890.96482	22930.725
1894.09304	22911.025
1897.21921	22854.425
1900.34335	22832.225
1903.46544	22724.025
1906.58551	22729.325
1909.70353	22669.825
1912.81953	22571.325
1915.93349	22526.825
1919.04543	22490.425
1922.15534	22430.925
1925.26322	22333.325
1928.36908	22260.025
1931.47292	22206.225
1934.57473	22112.725
1937.67453	22063.925
1940.77232	22007.125
1943.86808	21933.725
1946.96184	21904.125
1950.05358	21824.625
1953.14331	21779.025
1956.23103	21697.325
1959.31675	21655.225
1962.40046	21574.925
1965.48217	21530.425
1968.56188	21442.925
1971.63959	21371.025
1974.7153	21280.425
1977.78901	21207.725
1980.86073	21162.425
1983.93046	21096.725
1986.99819	20995.825
1990.06394	20939.025
1993.1277	20889.625
1996.18947	20791.125
1999.24925	20715.725
2002.30706	20696.725
2005.36288	20577.725
2008.41672	20532.125
2011.46859	20487.725
2014.51848	20424.125
2017.56639	20327.325
2020.61233	20279.125
2023.6563	20262.725
2026.6983	20217.325
2029.73833	20155.725
2032.7764	20104.125
2035.8125	20067.025
2038.84664	20014.325
2041.87881	20024.925
2044.90903	19975.925
2047.93729	19942.325
2050.96359	19903.825
2053.98794	19858.625
2057.01034	19841.125
2060.03078	19788.725
2063.04927	19749.225
2066.06582	19743.125
2069.08042	19731.525
2072.09307	19738.125
2075.10378	19692.925
2078.11255	19696.525
2081.11938	19722.025
2084.12426	19712.425
2087.12722	19669.225
2090.12824	19640.925
2093.12732	19662.125
2096.12447	19704.425
2099.11969	19697.525
2102.11299	19730.525
2105.10435	19738.125
2108.09379	19694.225
2111.08131	19715.825
2114.0669	19722.425
2117.05057	19777.625
2120.03233	19740.825
2123.01216	19741.025
2125.99008	19747.525
2128.96609	19707.025
2131.94018	19740.025
2134.91236	19712.825
2137.88263	19724.425
2140.851	19762.225
2143.81746	19748.625
2146.78201	19723.525
2149.74466	19734.825
2152.7054	19691.725
2155.66425	19717.525
2158.6212	19708.125
2161.57625	19677.825
2164.52941	19680.925
2167.48067	19634.825
2170.43004	19661.725
2173.37752	19604.025
2176.32311	19652.225
2179.26681	19680.725
2182.20863	19639.425
2185.14856	19617.725
2188.08661	19608.025
2191.02278	19602.325
2193.95707	19622.125
2196.88948	19583.525
2199.82001	19533.725
2202.74867	19536.025
2205.67545	19546.925
2208.60037	19497.825
2211.52341	19483.525
2214.44458	19459.825
2217.36388	19408.825
2220.28132	19353.025
2223.1969	19328.325
2226.11061	19273.425
2229.02246	19228.825
2231.93245	19203.325
2234.84058	19180.125
2237.74686	19154.425
2240.65128	19139.525
2243.55385	19119.625
2246.45456	19105.125
2249.35343	19002.225
2252.25044	19034.925
2255.14561	18975.625
2258.03893	18978.025
2260.93041	18913.225
2263.82004	18864.325
2266.70783	18821.425
2269.59378	18753.225
2272.4779	18736.825
2275.36017	18685.625
2278.24061	18628.925
2281.11922	18616.025
2283.996	18568.625
2286.87094	18542.325
2289.74405	18465.525
2292.61534	18416.525
2295.4848	18385.025
2298.35243	18382.925
2301.21824	18415.825
2304.08223	18391.525
2306.94439	18350.625
2309.80474	18359.925
2312.66327	18353.625
2315.51999	18332.925
2318.37489	18334.325
2321.22797	18306.625
2324.07925	18247.525
2326.92871	18245.625
2329.77637	18237.325
2332.62222	18242.825
2335.46626	18216.425
2338.3085	18170.425
2341.14893	18175.825
2343.98756	18132.925
2346.8244	18151.525
2349.65943	18107.925
2352.49267	18085.825
2355.32411	18123.925
2358.15376	18077.825
2360.98161	18100.225
2363.80768	18072.725
2366.63195	18068.025
2369.45444	18043.425
2372.27514	18018.025
2375.09405	17995.925
2377.91118	17956.925
2380.72652	17913.525
2383.54009	17857.125
2386.35187	17841.825
2389.16188	17767.625
2391.97011	17729.725
2394.77657	17708.725
2397.58125	17683.425
2400.38416	17673.625
2403.18529	17614.425
2405.98466	17603.925
2408.78226	17565.025
2411.57809	17518.225
2414.37216	17483.025
2417.16446	17527.925
2419.955	17497.925
2422.74378	17477.325
2425.5308	17487.225
2428.31606	17465.725
2431.09956	17436.925
2433.88131	17399.025
2436.6613	17414.825
2439.43954	17405.525
2442.21603	17374.225
2444.99077	17383.425
2447.76377	17388.325
2450.53501	17378.525
2453.30451	17341.425
2456.07226	17364.525
2458.83827	17368.225
2461.60254	17340.625
2464.36507	17350.525
2467.12586	17284.525
2469.88492	17278.825
2472.64224	17281.325
2475.39782	17253.225
2478.15167	17263.425
2480.90379	17255.425
2483.65417	17236.525
2486.40283	17248.425
2489.14976	17275.225
2491.89497	17243.025
2494.63845	17229.025
2497.3802	17208.025
2500.12024	17216.125
2502.85855	17172.325
2505.59514	17187.125
2508.33002	17155.625
2511.06318	17134.925
2513.79462	17124.725
2516.52435	17065.025
2519.25237	17057.725
2521.97867	17045.625
2524.70327	17018.925
2527.42616	16988.425
2530.14734	16973.425
2532.86681	16992.025
2535.58458	16976.725
2538.30065	16914.425
2541.01501	16885.225
2543.72768	16885.825
2546.43864	16850.825
2549.14791	16811.225
2551.85548	16809.825
2554.56136	16827.725
2557.26554	16807.625
2559.96803	16808.225
2562.66883	16730.325
2565.36794	16732.525
2568.06536	16716.825
2570.7611	16735.625
2573.45514	16677.125
2576.14751	16665.925
2578.83819	16633.625
2581.52719	16667.025
2584.21451	16608.125
2586.90015	16596.625
2589.58411	16546.725
2592.2664	16540.225
2594.94701	16475.325
2597.62594	16476.125
2600.30321	16428.225
2602.9788	16460.125
2605.65273	16438.925
2608.32498	16450.025
2610.99557	16405.025
2613.66449	16421.125
2616.33175	16426.825
2618.99734	16408.125
2621.66128	16387.425
2624.32355	16375.725
2626.98416	16371.125
2629.64311	16343.625
2632.30041	16303.725
2634.95605	16311.425
2637.61004	16310.925
2640.26238	16286.025
2642.91306	16243.925
2645.56209	16225.425
2648.20948	16250.425
2650.85521	16248.225
2653.4993	16228.325
2656.14175	16222.525
2658.78255	16262.025
2661.42171	16221.425
2664.05923	16257.625
2666.6951	16240.425
2669.32934	16247.225
2671.96194	16246.225
2674.59291	16253.225
2677.22224	16235.525
2679.84993	16245.025
2682.476	16224.825
2685.10043	16264.125
2687.72324	16219.025
2690.34441	16177.125
2692.96396	16176.825
2695.58188	16212.325
2698.19818	16167.125
2700.81285	16185.325
2703.4259	16180.325
2706.03733	16207.825
2708.64714	16232.725
2711.25533	16230.325
2713.86191	16215.125
2716.46687	16221.125
2719.07021	16210.925
2721.67194	16225.125
2724.27206	16196.825
2726.87057	16193.125
2729.46747	16172.925
2732.06276	16227.025
2734.65644	16237.425
2737.24852	16218.925
2739.83899	16201.925
2742.42786	16202.125
2745.01513	16140.625
2747.60079	16138.025
2750.18486	16132.625
2752.76733	16152.125
2755.3482	16109.625
2757.92747	16105.925
2760.50515	16074.725
2763.08123	16079.825
2765.65573	16062.225
2768.22863	16038.225
2770.79994	16034.525
2773.36967	16022.725
2775.9378	15975.625
2778.50435	15974.925
2781.06932	15942.725
2783.6327	15967.425
2786.1945	15925.325
2788.75471	15945.125
2791.31335	15892.825
2793.87041	15877.325
2796.42589	15816.325
2798.97979	15802.625
2801.53212	15802.725
2804.08288	15779.025
2806.63206	15750.625
2809.17967	15719.125
2811.72571	15686.125
2814.27018	15670.425
2816.81308	15662.825
2819.35442	15665.925
2821.89419	15653.925
2824.43239	15638.825
2826.96904	15619.925
2829.50412	15598.625
2832.03763	15534.225
2834.56959	15499.925
2837.1	15488.325
2839.62884	15532.625
2842.15613	15531.325
2844.68186	15563.725
2847.20604	15595.225
2849.72867	15560.325
2852.24974	15580.025
2854.76927	15559.025
2857.28724	15537.725
2859.80367	15539.225
2862.31855	15481.525
2864.83189	15457.725
2867.34368	15445.525
2869.85393	15437.725
2872.36264	15447.925
2874.8698	15458.325
2877.37543	15464.525
2879.87952	15481.925
2882.38207	15494.125
2884.88308	15469.025
2887.38256	15465.325
2889.88051	15496.525
2892.37692	15483.625
2894.8718	15494.925
2897.36515	15504.725
2899.85698	15488.525
2902.34727	15519.625
2904.83604	15523.625
2907.32328	15575.325
2909.809	15495.825
2912.29319	15553.925
2914.77587	15531.625
2917.25702	15552.825
2919.73665	15522.725
2922.21476	15479.125
2924.69136	15491.325
2927.16644	15491.625
2929.64	15460.125
2932.11205	15493.725
2934.58258	15418.525
2937.05161	15429.725
2939.51912	15424.425
2941.98513	15406.325
2944.44962	15328.025
2946.91261	15238.625
2949.37409	15258.825
2951.83407	15225.225
2954.29254	15213.025
2956.74951	15169.025
2959.20498	15154.125
2961.65895	15107.725
2964.11142	15096.525
2966.56239	15049.225
2969.01186	15070.425
2971.45984	14963.225
2973.90632	14970.725
2976.35131	14941.425
2978.7948	14898.625
2981.23681	14843.925
2983.67732	14813.325
2986.11635	14745.625
2988.55388	14724.025
2990.98993	14703.125
2993.4245	14651.525
2995.85758	14598.725
2998.28917	14591.325
3000.71928	14564.925
3003.14791	14523.925
3005.57506	14493.825
3008.00073	14466.525
3010.42493	14452.725
3012.84764	14417.525
3015.26888	14392.125
3017.68865	14381.825
3020.10694	14337.325
3022.52376	14319.725
3024.9391	14287.825
3027.35298	14252.025
3029.76539	14242.725
3032.17632	14205.725
3034.5858	14186.025
3036.9938	14207.625
3039.40034	14189.325
3041.80542	14138.925
3044.20903	14103.725
3046.61118	14108.225
3049.01187	14073.325
3051.4111	14051.925
3053.80888	14016.225
3056.20519	13960.425
3058.60005	13943.125
3060.99345	13901.525
3063.3854	13882.725
3065.7759	13846.625
3068.16494	13809.225
3070.55254	13769.925
3072.93868	13764.125
3075.32338	13710.525
3077.70662	13697.725
3080.08842	13623.125
3082.46878	13658.825
3084.84769	13618.825
3087.22515	13588.625
3089.60118	13598.625
3091.97576	13574.125
3094.3489	13531.125
3096.72061	13558.525
3099.09087	13551.825
3101.4597	13526.525
3103.82709	13494.725
3106.19305	13463.725
3108.55757	13443.925
3110.92066	13408.225
3113.28232	13392.025
3115.64255	13314.825
3118.00134	13290.725
3120.35871	13297.125
3122.71466	13245.525
3125.06917	13209.125
3127.42226	13224.225
