Data from AgNPs_FTO_APTES_UA_2uM_CRN_5uM_R6G_10uM_NaF_0.1M_Addition_RamanShift__24__13-06-25-123.txt Node

Date: Wed Feb 02 13:06:25 GMT 2022
User: TCL
Spectrometer: QEP01345
Trigger mode: 4
Integration Time (sec): 7.000000E0
Scans to average: 10
Electric dark correction enabled: true
Nonlinearity correction enabled: false
Boxcar width: 0
XAxis mode: Raman Shifts
Number of Pixels in Spectrum: 1044
>>>>>Begin Spectral Data<<<<<
46.04893	-0.25
50.45542	1.55
54.85868	-2.35
59.25871	-1.25
63.6555	80.05
68.04907	89.95
72.43941	89.25
76.82654	94.95
81.21044	98.45
85.59113	100.35
89.96862	103.05
94.34289	104.55
98.71396	112.75
103.08183	114.85
107.4465	121.25
111.80798	123.85
116.16626	124.45
120.52136	131.55
124.87327	138.35
129.222	146.15
133.56755	162.55
137.90993	174.45
142.24913	193.85
146.58517	221.05
150.91804	259.65
155.24774	312.45
159.57429	397.45
163.89768	513.45
168.21792	684.75
172.53501	933.75
176.84895	1318.45
181.15975	1859.25
185.46741	2603.45
189.77193	3572.65
194.07331	4805.75
198.37157	6157.75
202.6667	7604.15
206.9587	9042.25
211.24758	10447.35
215.53334	11908.25
219.81599	13524.35
224.09553	15298.35
228.37195	17254.25
232.64527	19420.95
236.91549	21669.15
241.18261	23804.25
245.44663	25648.95
249.70755	27316.65
253.96539	28666.75
258.22014	29986.35
262.4718	31117.65
266.72039	31958.65
270.96589	32529.05
275.20832	32749.55
279.44768	32696.75
283.68397	32560.85
287.91719	32503.25
292.14735	32630.85
296.37445	32903.75
300.59849	33357.05
304.81948	33778.35
309.03742	33950.95
313.25231	33570.95
317.46415	32310.35
321.67296	30589.15
325.87872	29188.65
330.08145	28509.95
334.28114	28399.05
338.47781	28724.35
342.67145	29273.85
346.86207	30102.95
351.04966	31207.55
355.23424	32527.65
359.4158	33459.55
363.59435	33965.25
367.76989	34162.45
371.94243	34222.35
376.11196	34195.65
380.27849	34107.95
384.44203	34053.65
388.60257	34010.75
392.76012	34148.85
396.91468	34597.25
401.06626	35362.75
405.21485	35961.05
409.36047	35619.05
413.50311	34527.95
417.64277	33551.75
421.77947	33167.15
425.9132	33137.35
430.04396	33318.95
434.17176	33464.55
438.2966	33816.25
442.41849	34395.75
446.53742	35329.25
450.6534	36313.05
454.76644	37127.45
458.87653	37435.55
462.98368	37294.75
467.08789	36912.35
471.18916	36230.95
475.2875	35611.75
479.38291	35165.55
483.4754	34722.55
487.56496	34318.05
491.6516	33828.75
495.73531	33532.75
499.81612	33449.95
503.89401	33615.75
507.96899	33792.85
512.04106	33858.95
516.11023	33856.65
520.1765	33717.95
524.23987	33510.45
528.30034	33015.75
532.35792	32550.55
536.41261	32060.05
540.46441	31623.65
544.51333	31554.35
548.55936	32027.05
552.60252	32907.35
556.64279	33828.65
560.6802	34289.45
564.71473	34672.95
568.7464	35517.05
572.7752	36369.45
576.80114	36441.95
580.82422	36258.25
584.84444	36236.85
588.86181	36160.05
592.87633	36288.65
596.888	36716.25
600.89682	37459.75
604.9028	40188.85
608.90594	46889.15
612.90624	54531.15
616.90371	51586.05
620.89834	39802.05
624.89015	34440.05
628.87913	33620.95
632.86528	33688.15
636.84862	33673.55
640.82913	33001.25
644.80683	31888.05
648.78172	31006.65
652.75379	31024.15
656.72306	31771.65
660.68952	32800.65
664.65319	32679.45
668.61405	31809.85
672.57211	31346.85
676.52738	31295.95
680.47986	31255.35
684.42955	31076.05
688.37646	31052.15
692.32058	31175.15
696.26192	31485.35
700.20048	31936.25
704.13626	32238.95
708.06928	32214.55
711.99952	31891.35
715.927	31758.85
719.85171	31755.45
723.77365	31615.75
727.69284	31208.25
731.60928	30879.35
735.52295	30794.05
739.43388	30900.45
743.34206	31023.45
747.24749	31315.45
751.15017	31682.75
755.05012	32361.15
758.94733	33717.45
762.8418	36316.75
766.73354	40581.05
770.62254	44824.75
774.50882	46155.65
778.39237	43553.45
782.27321	38957.15
786.15132	34950.65
790.02671	32693.65
793.89938	31569.45
797.76935	31098.85
801.6366	30900.65
805.50115	30743.25
809.36299	30585.25
813.22213	30409.85
817.07857	30323.55
820.93231	30318.45
824.78336	30359.25
828.63172	30358.95
832.47738	30386.45
836.32036	30445.45
840.16066	30465.15
843.99827	30424.45
847.8332	30384.55
851.66546	30245.15
855.49504	30205.25
859.32195	30049.85
863.1462	29917.95
866.96777	29757.55
870.78668	29685.75
874.60293	29704.75
878.41652	29780.45
882.22745	29935.85
886.03573	30005.55
889.84136	29996.25
893.64433	29832.45
897.44466	29700.25
901.24235	29704.25
905.0374	29586.85
908.8298	29607.05
912.61957	29681.65
916.40671	29972.15
920.19121	30415.15
923.97308	30775.25
927.75233	30956.75
931.52895	30945.45
935.30295	30585.35
939.07433	29867.35
942.84309	29299.85
946.60924	28944.35
950.37278	28763.65
954.13371	28614.45
957.89203	28445.75
961.64774	28382.95
965.40086	28318.45
969.15137	28239.45
972.89929	28140.75
976.64461	28093.15
980.38733	28089.05
984.12747	28250.25
987.86502	28472.55
991.59999	28875.45
995.33237	29400.35
999.06217	30323.55
1002.78939	31472.25
1006.51404	32360.95
1010.23611	32968.85
1013.95561	33363.05
1017.67255	33332.75
1021.38692	32968.65
1025.09872	32615.95
1028.80796	32763.25
1032.51465	33512.55
1036.21877	34366.75
1039.92035	34473.75
1043.61937	33969.15
1047.31584	33146.95
1051.00976	32336.95
1054.70114	31821.05
1058.38998	31791.55
1062.07627	31945.75
1065.76003	32269.05
1069.44126	32484.15
1073.11995	32839.75
1076.79611	33097.35
1080.46974	33343.35
1084.14085	33763.75
1087.80943	34314.25
1091.47549	34674.35
1095.13903	34402.25
1098.80005	33653.05
1102.45857	32784.25
1106.11456	32281.55
1109.76805	32167.15
1113.41903	32424.45
1117.06751	32947.05
1120.71348	33648.35
1124.35696	34389.85
1127.99793	35158.85
1131.63641	35286.75
1135.2724	34645.15
1138.90589	33790.55
1142.5369	33328.35
1146.16542	33092.05
1149.79145	33032.55
1153.415	33227.55
1157.03607	33727.45
1160.65467	34511.75
1164.27079	35815.55
1167.88443	37695.65
1171.49561	40403.55
1175.10432	44390.55
1178.71056	49520.55
1182.31434	53909.85
1185.91565	56200.15
1189.51451	56300.75
1193.11091	54211.05
1196.70485	50944.15
1200.29634	47953.85
1203.88538	45458.95
1207.47197	43270.45
1211.05612	41581.35
1214.63782	40520.95
1218.21708	40183.55
1221.79391	40241.45
1225.36829	40396.75
1228.94024	40537.85
1232.50976	40497.55
1236.07685	40392.65
1239.6415	40132.15
1243.20374	39844.45
1246.76355	39829.05
1250.32093	40310.35
1253.8759	41199.85
1257.42845	42571.05
1260.97859	43932.35
1264.52631	45106.85
1268.07163	46364.05
1271.61453	47677.95
1275.15503	49145.65
1278.69312	50396.25
1282.22882	51471.55
1285.76211	52730.35
1289.29301	54061.55
1292.82151	55575.15
1296.34761	57220.85
1299.87133	59818.15
1303.39266	63449.65
1306.9116	68798.65
1310.42815	74681.05
1313.94233	78986.95
1317.45412	79760.35
1320.96354	77963.35
1324.47058	75253.25
1327.97525	72483.35
1331.47754	70573.65
1334.97747	69675.75
1338.47502	69644.85
1341.97022	69936.15
1345.46305	69835.05
1348.95352	69448.55
1352.44163	69447.75
1355.92738	71349.35
1359.41078	76202.25
1362.89183	81567.05
1366.37053	80136.55
1369.84688	71893.55
1373.32088	62686.75
1376.79254	56784.05
1380.26186	54066.65
1383.72883	53058.75
1387.19347	52185.25
1390.65578	51171.75
1394.11575	50743.65
1397.57339	51117.95
1401.0287	52073.35
1404.48168	53325.85
1407.93234	54286.95
1411.38068	54410.15
1414.82669	53662.85
1418.27039	51869.55
1421.71177	49825.45
1425.15083	48101.45
1428.58758	47044.05
1432.02203	46728.15
1435.45416	47026.25
1438.88399	47593.25
1442.31151	48050.25
1445.73673	48654.95
1449.15965	49205.15
1452.58027	49540.95
1455.9986	49663.25
1459.41463	49876.75
1462.82837	50559.35
1466.23982	51474.55
1469.64898	52469.75
1473.05586	53068.35
1476.46045	53442.45
1479.86276	53509.35
1483.26279	53739.65
1486.66054	54076.85
1490.05602	54764.85
1493.44922	55837.65
1496.84016	57121.25
1500.22882	59137.05
1503.61521	62046.55
1506.99934	65795.35
1510.38121	69849.25
1513.76081	72291.55
1517.13816	70964.75
1520.51324	66592.65
1523.88607	61554.05
1527.25665	58005.05
1530.62498	55739.85
1533.99105	54298.75
1537.35488	53393.65
1540.71647	52719.05
1544.07581	52117.55
1547.4329	51467.75
1550.78776	50812.55
1554.14038	50384.75
1557.49077	50535.95
1560.83892	50932.55
1564.18484	51416.05
1567.52853	51615.25
1570.86999	51633.95
1574.20922	51828.65
1577.54624	51950.45
1580.88103	51303.55
1584.2136	50605.75
1587.54395	51187.75
1590.87208	53282.45
1594.19801	56563.35
1597.52172	59982.45
1600.84321	61272.95
1604.16251	58862.75
1607.47959	54584.15
1610.79447	50095.15
1614.10715	45888.25
1617.41763	42541.15
1620.7259	40172.05
1624.03199	39013.25
1627.33587	39064.65
1630.63757	40168.85
1633.93707	42543.35
1637.23439	46072.85
1640.52951	50502.75
1643.82246	55318.55
1647.11321	59251.75
1650.40179	60834.35
1653.68819	58153.85
1656.97241	51523.85
1660.25446	44248.05
1663.53433	38609.25
1666.81203	35049.75
1670.08756	32843.45
1673.36092	31405.85
1676.63211	30555.85
1679.90115	29906.15
1683.16801	29454.55
1686.43272	29069.45
1689.69527	28816.55
1692.95567	28627.45
1696.2139	28471.65
1699.46999	28406.35
1702.72392	28326.25
1705.97571	28206.25
1709.22535	28157.65
1712.47284	28171.65
1715.71819	28212.65
1718.96139	28097.25
1722.20246	28035.25
1725.44139	27933.15
1728.67818	27812.25
1731.91284	27612.45
1735.14537	27454.65
1738.37576	27368.05
1741.60403	27283.05
1744.83017	27238.15
1748.05418	27135.45
1751.27607	27140.95
1754.49584	27064.95
1757.71349	27061.75
1760.92903	27030.05
1764.14244	27013.05
1767.35375	26992.85
1770.56294	26952.85
1773.77002	26871.55
1776.97499	26832.15
1780.17785	26755.95
1783.37861	26751.65
1786.57727	26710.05
1789.77382	26659.35
1792.96828	26620.85
1796.16064	26574.15
1799.3509	26557.85
1802.53907	26484.75
1805.72514	26450.15
1808.90913	26372.75
1812.09102	26393.35
1815.27083	26360.25
1818.44856	26337.55
1821.6242	26283.65
1824.79776	26304.65
1827.96924	26314.25
1831.13864	26328.35
1834.30597	26265.35
1837.47122	26219.05
1840.6344	26240.25
1843.7955	26287.65
1846.95454	26278.85
1850.11151	26339.95
1853.26642	26346.45
1856.41926	26336.05
1859.57004	26396.45
1862.71876	26419.95
1865.86542	26453.85
1869.01003	26460.15
1872.15258	26469.55
1875.29308	26508.45
1878.43152	26551.15
1881.56792	26552.95
1884.70227	26585.75
1887.83457	26654.35
1890.96482	26694.25
1894.09304	26658.75
1897.21921	26719.95
1900.34335	26774.05
1903.46544	26751.35
1906.58551	26776.35
1909.70353	26749.35
1912.81953	26753.75
1915.93349	26725.35
1919.04543	26693.35
1922.15534	26680.75
1925.26322	26612.75
1928.36908	26502.55
1931.47292	26400.55
1934.57473	26228.15
1937.67453	26041.25
1940.77232	25862.95
1943.86808	25770.65
1946.96184	25641.35
1950.05358	25517.65
1953.14331	25370.05
1956.23103	25306.35
1959.31675	25228.15
1962.40046	25131.35
1965.48217	25020.95
1968.56188	24956.05
1971.63959	24864.15
1974.7153	24842.85
1977.78901	24729.95
1980.86073	24666.65
1983.93046	24561.55
1986.99819	24477.65
1990.06394	24343.05
1993.1277	24315.45
1996.18947	24223.85
1999.24925	24216.85
2002.30706	24117.55
2005.36288	24092.35
2008.41672	23993.35
2011.46859	23926.25
2014.51848	23884.45
2017.56639	23835.05
2020.61233	23771.65
2023.6563	23732.65
2026.6983	23695.25
2029.73833	23621.75
2032.7764	23585.35
2035.8125	23553.05
2038.84664	23496.45
2041.87881	23523.75
2044.90903	23462.75
2047.93729	23413.65
2050.96359	23376.55
2053.98794	23367.05
2057.01034	23325.35
2060.03078	23307.75
2063.04927	23269.95
2066.06582	23242.15
2069.08042	23258.95
2072.09307	23224.35
2075.10378	23188.55
2078.11255	23207.45
2081.11938	23177.15
2084.12426	23160.75
2087.12722	23181.35
2090.12824	23132.75
2093.12732	23113.85
2096.12447	23138.65
2099.11969	23174.35
2102.11299	23134.15
2105.10435	23178.05
2108.09379	23167.25
2111.08131	23144.75
2114.0669	23128.05
2117.05057	23202.95
2120.03233	23181.85
2123.01216	23239.55
2125.99008	23214.15
2128.96609	23239.65
2131.94018	23237.15
2134.91236	23243.55
2137.88263	23225.85
2140.851	23250.35
2143.81746	23329.75
2146.78201	23317.95
2149.74466	23300.85
2152.7054	23301.35
2155.66425	23316.55
2158.6212	23346.25
2161.57625	23304.65
2164.52941	23336.45
2167.48067	23297.75
2170.43004	23268.65
2173.37752	23261.35
2176.32311	23292.25
2179.26681	23270.25
2182.20863	23303.55
2185.14856	23372.35
2188.08661	23322.45
2191.02278	23333.35
2193.95707	23306.05
2196.88948	23259.15
2199.82001	23293.55
2202.74867	23317.85
2205.67545	23300.95
2208.60037	23255.95
2211.52341	23235.85
2214.44458	23215.85
2217.36388	23207.95
2220.28132	23168.65
2223.1969	23141.55
2226.11061	23093.65
2229.02246	23051.35
2231.93245	23025.15
2234.84058	22961.95
2237.74686	22926.25
2240.65128	22907.35
2243.55385	22867.35
2246.45456	22845.35
2249.35343	22806.55
2252.25044	22787.15
2255.14561	22744.45
2258.03893	22716.65
2260.93041	22657.55
2263.82004	22628.65
2266.70783	22559.35
2269.59378	22495.45
2272.4779	22479.05
2275.36017	22419.65
2278.24061	22389.65
2281.11922	22354.05
2283.996	22293.05
2286.87094	22286.55
2289.74405	22232.45
2292.61534	22246.65
2295.4848	22162.45
2298.35243	22206.85
2301.21824	22201.75
2304.08223	22211.05
2306.94439	22229.25
2309.80474	22239.35
2312.66327	22230.35
2315.51999	22232.65
2318.37489	22271.85
2321.22797	22234.75
2324.07925	22236.65
2326.92871	22234.15
2329.77637	22217.95
2332.62222	22203.75
2335.46626	22202.85
2338.3085	22173.85
2341.14893	22170.15
2343.98756	22191.95
2346.8244	22172.95
2349.65943	22197.25
2352.49267	22210.65
2355.32411	22271.05
2358.15376	22232.55
2360.98161	22236.35
2363.80768	22224.55
2366.63195	22197.65
2369.45444	22169.25
2372.27514	22111.15
2375.09405	22077.85
2377.91118	21992.55
2380.72652	21957.65
2383.54009	21905.55
2386.35187	21852.95
2389.16188	21776.85
2391.97011	21794.15
2394.77657	21764.95
2397.58125	21712.95
2400.38416	21673.25
2403.18529	21612.35
2405.98466	21562.85
2408.78226	21558.95
2411.57809	21522.65
2414.37216	21503.95
2417.16446	21479.95
2419.955	21426.35
2422.74378	21421.55
2425.5308	21350.65
2428.31606	21396.45
2431.09956	21369.95
2433.88131	21372.85
2436.6613	21378.45
2439.43954	21355.65
2442.21603	21351.05
2444.99077	21315.75
2447.76377	21338.95
2450.53501	21342.85
2453.30451	21360.75
2456.07226	21293.35
2458.83827	21319.45
2461.60254	21287.85
2464.36507	21296.75
2467.12586	21286.75
2469.88492	21259.65
2472.64224	21298.65
2475.39782	21334.15
2478.15167	21314.95
2480.90379	21320.45
2483.65417	21352.85
2486.40283	21376.25
2489.14976	21380.15
2491.89497	21421.25
2494.63845	21426.75
2497.3802	21409.05
2500.12024	21409.05
2502.85855	21426.35
2505.59514	21420.05
2508.33002	21426.75
2511.06318	21352.95
2513.79462	21355.75
2516.52435	21301.25
2519.25237	21268.15
2521.97867	21212.65
2524.70327	21184.05
2527.42616	21190.65
2530.14734	21213.85
2532.86681	21132.75
2535.58458	21127.35
2538.30065	21122.35
2541.01501	21116.25
2543.72768	21106.55
2546.43864	21132.25
2549.14791	21073.15
2551.85548	21122.95
2554.56136	21061.25
2557.26554	21025.15
2559.96803	21019.75
2562.66883	20987.45
2565.36794	20921.15
2568.06536	20936.55
2570.7611	20934.55
2573.45514	20920.95
2576.14751	20893.15
2578.83819	20844.15
2581.52719	20875.35
2584.21451	20861.45
2586.90015	20875.45
2589.58411	20855.65
2592.2664	20881.35
2594.94701	20846.95
2597.62594	20826.65
2600.30321	20808.65
2602.9788	20830.85
2605.65273	20802.05
2608.32498	20792.45
2610.99557	20771.55
2613.66449	20830.75
2616.33175	20789.15
2618.99734	20864.75
2621.66128	20856.05
2624.32355	20850.45
2626.98416	20864.25
2629.64311	20830.55
2632.30041	20841.05
2634.95605	20846.35
2637.61004	20801.55
2640.26238	20748.05
2642.91306	20756.15
2645.56209	20748.85
2648.20948	20703.55
2650.85521	20696.45
2653.4993	20702.35
2656.14175	20685.25
2658.78255	20669.65
2661.42171	20666.65
2664.05923	20695.75
2666.6951	20746.15
2669.32934	20734.95
2671.96194	20741.05
2674.59291	20794.05
2677.22224	20744.25
2679.84993	20785.55
2682.476	20730.55
2685.10043	20733.85
2687.72324	20747.65
2690.34441	20714.65
2692.96396	20762.15
2695.58188	20764.55
2698.19818	20727.25
2700.81285	20739.45
2703.4259	20696.45
2706.03733	20761.25
2708.64714	20713.25
2711.25533	20719.45
2713.86191	20703.55
2716.46687	20787.05
2719.07021	20785.85
2721.67194	20796.65
2724.27206	20753.45
2726.87057	20732.15
2729.46747	20765.65
2732.06276	20779.35
2734.65644	20740.65
2737.24852	20757.25
2739.83899	20758.65
2742.42786	20769.45
2745.01513	20715.65
2747.60079	20682.05
2750.18486	20694.05
2752.76733	20720.45
2755.3482	20690.65
2757.92747	20684.15
2760.50515	20641.85
2763.08123	20686.65
2765.65573	20632.45
2768.22863	20640.65
2770.79994	20599.25
2773.36967	20585.95
2775.9378	20623.05
2778.50435	20605.15
2781.06932	20583.75
2783.6327	20572.15
2786.1945	20544.05
2788.75471	20519.05
2791.31335	20468.55
2793.87041	20467.55
2796.42589	20438.35
2798.97979	20473.75
2801.53212	20433.65
2804.08288	20393.55
2806.63206	20344.15
2809.17967	20288.05
2811.72571	20248.95
2814.27018	20244.35
2816.81308	20211.05
2819.35442	20204.15
2821.89419	20184.55
2824.43239	20188.25
2826.96904	20214.45
2829.50412	20167.25
2832.03763	20162.75
2834.56959	20170.45
2837.1	20161.55
2839.62884	20152.35
2842.15613	20136.05
2844.68186	20164.55
2847.20604	20205.25
2849.72867	20230.75
2852.24974	20183.25
2854.76927	20193.75
2857.28724	20165.45
2859.80367	20145.25
2862.31855	20102.75
2864.83189	20121.85
2867.34368	20059.85
2869.85393	20092.25
2872.36264	20045.05
2874.8698	20093.15
2877.37543	20050.75
2879.87952	20087.35
2882.38207	20049.85
2884.88308	20029.95
2887.38256	20056.25
2889.88051	20038.45
2892.37692	20080.55
2894.8718	20071.55
2897.36515	20126.15
2899.85698	20081.85
2902.34727	20116.65
2904.83604	20124.85
2907.32328	20182.95
2909.809	20188.35
2912.29319	20167.05
2914.77587	20155.45
2917.25702	20127.05
2919.73665	20154.85
2922.21476	20152.65
2924.69136	20120.05
2927.16644	20133.55
2929.64	20102.25
2932.11205	20036.05
2934.58258	19968.05
2937.05161	19982.15
2939.51912	19969.25
2941.98513	19939.05
2944.44962	19900.15
2946.91261	19834.05
2949.37409	19858.45
2951.83407	19845.85
2954.29254	19814.85
2956.74951	19776.95
2959.20498	19762.25
2961.65895	19728.55
2964.11142	19708.25
2966.56239	19645.05
2969.01186	19675.25
2971.45984	19613.25
2973.90632	19583.45
2976.35131	19519.35
2978.7948	19483.95
2981.23681	19415.35
2983.67732	19405.65
2986.11635	19342.25
2988.55388	19261.75
2990.98993	19243.55
2993.4245	19165.85
2995.85758	19160.25
2998.28917	19116.05
3000.71928	19103.75
3003.14791	19058.35
3005.57506	19076.95
3008.00073	18998.55
3010.42493	18966.85
3012.84764	18930.45
3015.26888	18933.55
3017.68865	18930.65
3020.10694	18863.45
3022.52376	18827.45
3024.9391	18799.35
3027.35298	18777.65
3029.76539	18738.25
3032.17632	18733.35
3034.5858	18683.75
3036.9938	18633.65
3039.40034	18634.85
3041.80542	18625.55
3044.20903	18604.65
3046.61118	18556.05
3049.01187	18522.05
3051.4111	18510.75
3053.80888	18438.15
3056.20519	18414.25
3058.60005	18374.15
3060.99345	18304.15
3063.3854	18310.65
3065.7759	18218.55
3068.16494	18175.85
3070.55254	18090.15
3072.93868	18084.65
3075.32338	18037.25
3077.70662	18028.05
3080.08842	17944.45
3082.46878	17924.55
3084.84769	17867.45
3087.22515	17869.45
3089.60118	17857.85
3091.97576	17850.75
3094.3489	17824.75
3096.72061	17781.35
3099.09087	17784.85
3101.4597	17760.55
3103.82709	17743.35
3106.19305	17692.75
3108.55757	17679.35
3110.92066	17617.85
3113.28232	17591.65
3115.64255	17586.05
3118.00134	17572.95
3120.35871	17514.95
3122.71466	17474.05
3125.06917	17424.15
3127.42226	17391.95
3129.77393	17407.65
3132.12417	17370.95
3134.47299	17353.85
3136.82039	17390.15
3139.16636	17373.65
3141.51092	17360.95
3143.85406	17343.55
3146.19579	17332.95
3148.53609	17312.15
3150.87499	17346.85
3153.21246	17345.15
3155.54853	17344.85
3157.88318	17317.15
3160.21642	17311.95
3162.54826	17310.55
3164.87868	17328.55
3167.2077	17259.35
3169.5353	17251.35
3171.86151	17236.05
3174.18631	17227.75
3176.5097	17219.95
3178.83169	17214.25
3181.15228	17216.75
3183.47147	17161.55
3185.78926	17131.75
3188.10565	17110.35
3190.42065	17116.15
3192.73424	17156.25
3195.04645	17143.35
3197.35725	17167.15
3199.66667	17161.25
3201.97469	17128.25
3204.28132	17146.85
3206.58656	17151.05
3208.8904	17152.15
3211.19287	17175.55
3213.49394	17160.45
3215.79363	17177.95
3218.09193	17173.45
3220.38884	17152.55
3222.68438	17172.45
3224.97853	17124.95
3227.2713	17095.35
3229.56269	17075.45
3231.8527	17076.35
3234.14133	17009.45
3236.42858	17016.45
3238.71446	16988.75
