Data from AgNPs_FTO_APTES_UA_2uM_CRN_100uM_R6G_10uM_NaF_0.1M_Addition_RamanShift__27__16-09-35-336.txt Node

Date: Wed Feb 02 16:09:35 GMT 2022
User: TCL
Spectrometer: QEP01345
Trigger mode: 4
Integration Time (sec): 7.000000E0
Scans to average: 10
Electric dark correction enabled: true
Nonlinearity correction enabled: false
Boxcar width: 0
XAxis mode: Raman Shifts
Number of Pixels in Spectrum: 1044
>>>>>Begin Spectral Data<<<<<
46.04893	-0.775
50.45542	0.825
54.85868	-1.175
59.25871	0.025
63.6555	72.625
68.04907	79.125
72.43941	82.225
76.82654	87.925
81.21044	91.825
85.59113	96.325
89.96862	100.825
94.34289	100.125
98.71396	105.225
103.08183	113.025
107.4465	112.225
111.80798	109.125
116.16626	115.725
120.52136	119.825
124.87327	125.925
129.222	128.125
133.56755	138.925
137.90993	146.825
142.24913	162.725
146.58517	179.925
150.91804	207.025
155.24774	247.725
159.57429	303.825
163.89768	386.725
168.21792	511.225
172.53501	697.025
176.84895	971.425
181.15975	1350.125
185.46741	1884.125
189.77193	2584.125
194.07331	3472.925
198.37157	4478.525
202.6667	5526.925
206.9587	6557.825
211.24758	7623.425
215.53334	8697.025
219.81599	9847.725
224.09553	11160.125
228.37195	12613.025
232.64527	14157.225
236.91549	15751.725
241.18261	17231.925
245.44663	18585.425
249.70755	19710.225
253.96539	20698.325
258.22014	21573.125
262.4718	22384.925
266.72039	22971.125
270.96589	23409.925
275.20832	23546.325
279.44768	23532.425
283.68397	23413.325
287.91719	23347.225
292.14735	23501.525
296.37445	23866.825
300.59849	24353.025
304.81948	24763.325
309.03742	24866.225
313.25231	24472.725
317.46415	23405.525
321.67296	21916.825
325.87872	20723.825
330.08145	20104.225
334.28114	20002.925
338.47781	20196.325
342.67145	20588.425
346.86207	21227.025
351.04966	22118.525
355.23424	23021.525
359.4158	23721.125
363.59435	24176.825
367.76989	24228.725
371.94243	24293.825
376.11196	24226.425
380.27849	24209.025
384.44203	24159.525
388.60257	24060.225
392.76012	24064.625
396.91468	24297.325
401.06626	24794.625
405.21485	25157.025
409.36047	24861.925
413.50311	23911.325
417.64277	23052.025
421.77947	22589.225
425.9132	22498.725
430.04396	22646.225
434.17176	22852.725
438.2966	23133.625
442.41849	23669.925
446.53742	24414.725
450.6534	25249.725
454.76644	25850.225
458.87653	26042.825
462.98368	25904.625
467.08789	25617.425
471.18916	25405.825
475.2875	25225.325
479.38291	25149.225
483.4754	24910.925
487.56496	24364.025
491.6516	23763.625
495.73531	23232.525
499.81612	22894.125
503.89401	22992.425
507.96899	23069.725
512.04106	23089.425
516.11023	23099.425
520.1765	23013.225
524.23987	22804.425
528.30034	22439.025
532.35792	22109.725
536.41261	21734.525
540.46441	21412.525
544.51333	21393.925
548.55936	21702.825
552.60252	22325.625
556.64279	23123.725
560.6802	23704.925
564.71473	24169.525
568.7464	25003.525
572.7752	25781.625
576.80114	25602.125
580.82422	25031.225
584.84444	24773.325
588.86181	24819.225
592.87633	25140.325
596.888	25513.825
600.89682	25817.225
604.9028	27421.725
608.90594	32103.625
612.90624	38152.525
616.90371	36309.225
620.89834	27076.625
624.89015	22682.125
628.87913	21942.125
632.86528	22099.425
636.84862	22258.225
640.82913	21847.225
644.80683	20927.625
648.78172	20258.525
652.75379	20153.525
656.72306	20647.625
660.68952	21396.425
664.65319	21346.425
668.61405	20582.425
672.57211	20222.325
676.52738	20226.125
680.47986	20233.125
684.42955	20118.025
688.37646	20020.025
692.32058	20109.625
696.26192	20316.525
700.20048	20586.125
704.13626	20778.325
708.06928	20761.925
711.99952	20571.025
715.927	20481.725
719.85171	20533.525
723.77365	20469.725
727.69284	20260.125
731.60928	20096.425
735.52295	19985.025
739.43388	20026.225
743.34206	20045.625
747.24749	20141.325
751.15017	20361.425
755.05012	20848.025
758.94733	21796.525
762.8418	23757.125
766.73354	26981.525
770.62254	30249.125
774.50882	31525.225
778.39237	29829.825
782.27321	26230.925
786.15132	22950.625
790.02671	21089.125
793.89938	20188.625
797.76935	19826.925
801.6366	19651.825
805.50115	19591.225
809.36299	19551.725
813.22213	19481.525
817.07857	19484.425
820.93231	19465.925
824.78336	19440.325
828.63172	19440.525
832.47738	19452.425
836.32036	19358.425
840.16066	19290.925
843.99827	19217.025
847.8332	19140.225
851.66546	19069.425
855.49504	19003.425
859.32195	18955.025
863.1462	18868.725
866.96777	18803.925
870.78668	18728.325
874.60293	18766.825
878.41652	18787.825
882.22745	18866.425
886.03573	18946.425
889.84136	18887.725
893.64433	18779.425
897.44466	18725.825
901.24235	18668.925
905.0374	18596.825
908.8298	18569.725
912.61957	18636.725
916.40671	18824.325
920.19121	19059.225
923.97308	19235.525
927.75233	19302.725
931.52895	19307.525
935.30295	19043.025
939.07433	18585.925
942.84309	18113.925
946.60924	17857.025
950.37278	17683.225
954.13371	17631.025
957.89203	17654.125
961.64774	17658.725
965.40086	17618.925
969.15137	17523.825
972.89929	17416.725
976.64461	17283.425
980.38733	17261.825
984.12747	17331.725
987.86502	17408.525
991.59999	17570.825
995.33237	17841.625
999.06217	18282.325
1002.78939	18845.925
1006.51404	19335.425
1010.23611	19705.925
1013.95561	19908.925
1017.67255	19841.025
1021.38692	19583.525
1025.09872	19257.825
1028.80796	19095.125
1032.51465	19247.225
1036.21877	19500.325
1039.92035	19634.725
1043.61937	19559.625
1047.31584	19421.625
1051.00976	19246.025
1054.70114	19235.825
1058.38998	19249.325
1062.07627	19452.625
1065.76003	19671.425
1069.44126	19844.825
1073.11995	19998.125
1076.79611	20209.225
1080.46974	20366.425
1084.14085	20674.625
1087.80943	21097.225
1091.47549	21387.625
1095.13903	21298.625
1098.80005	20823.125
1102.45857	20221.025
1106.11456	19855.825
1109.76805	19810.825
1113.41903	20059.125
1117.06751	20481.325
1120.71348	21086.825
1124.35696	21670.625
1127.99793	22285.225
1131.63641	22384.625
1135.2724	21768.525
1138.90589	21102.125
1142.5369	20769.525
1146.16542	20682.825
1149.79145	20752.425
1153.415	20979.425
1157.03607	21306.725
1160.65467	21870.825
1164.27079	22812.325
1167.88443	24210.425
1171.49561	26157.125
1175.10432	29098.325
1178.71056	32895.225
1182.31434	35886.525
1185.91565	37034.825
1189.51451	36616.125
1193.11091	35271.725
1196.70485	33389.925
1200.29634	31666.325
1203.88538	30263.525
1207.47197	28836.425
1211.05612	27667.225
1214.63782	26840.825
1218.21708	26279.325
1221.79391	25913.425
1225.36829	25685.225
1228.94024	25310.925
1232.50976	24965.425
1236.07685	24738.525
1239.6415	24713.525
1243.20374	24717.225
1246.76355	24882.125
1250.32093	25234.625
1253.8759	25852.025
1257.42845	26700.625
1260.97859	27532.825
1264.52631	28246.625
1268.07163	28994.125
1271.61453	29837.625
1275.15503	30606.925
1278.69312	31256.925
1282.22882	31780.025
1285.76211	32646.925
1289.29301	33872.125
1292.82151	35526.025
1296.34761	37399.325
1299.87133	39782.725
1303.39266	42668.125
1306.9116	46433.325
1310.42815	50470.925
1313.94233	53359.925
1317.45412	53818.925
1320.96354	52498.425
1324.47058	50689.625
1327.97525	48903.325
1331.47754	47609.225
1334.97747	47051.125
1338.47502	47055.525
1341.97022	47185.625
1345.46305	46915.525
1348.95352	46503.525
1352.44163	46549.125
1355.92738	47908.825
1359.41078	51412.725
1362.89183	55400.525
1366.37053	54627.125
1369.84688	48282.725
1373.32088	41372.525
1376.79254	36983.425
1380.26186	35226.125
1383.72883	34845.725
1387.19347	34930.625
1390.65578	34908.125
1394.11575	35087.625
1397.57339	35754.825
1401.0287	36870.225
1404.48168	37895.025
1407.93234	38356.625
1411.38068	38016.325
1414.82669	36770.025
1418.27039	34874.425
1421.71177	32812.925
1425.15083	31018.125
1428.58758	29893.025
1432.02203	29587.625
1435.45416	29922.725
1438.88399	30566.525
1442.31151	31247.825
1445.73673	31861.225
1449.15965	32696.325
1452.58027	33433.425
1455.9986	33878.925
1459.41463	34369.725
1462.82837	35038.125
1466.23982	35743.925
1469.64898	36265.225
1473.05586	36370.125
1476.46045	36199.525
1479.86276	35842.425
1483.26279	35575.225
1486.66054	35417.125
1490.05602	35578.725
1493.44922	35954.525
1496.84016	36628.625
1500.22882	38096.925
1503.61521	40378.925
1506.99934	43447.925
1510.38121	46802.525
1513.76081	48804.625
1517.13816	47784.925
1520.51324	44098.025
1523.88607	40127.325
1527.25665	37362.725
1530.62498	35962.425
1533.99105	35261.825
1537.35488	34775.925
1540.71647	34405.325
1544.07581	33861.325
1547.4329	33272.025
1550.78776	32724.325
1554.14038	32385.925
1557.49077	32403.625
1560.83892	32711.425
1564.18484	33184.525
1567.52853	33597.825
1570.86999	33920.225
1574.20922	34378.825
1577.54624	34663.325
1580.88103	34273.425
1584.2136	33746.225
1587.54395	34092.725
1590.87208	35474.625
1594.19801	37626.125
1597.52172	39935.825
1600.84321	40727.025
1604.16251	39114.025
1607.47959	36002.825
1610.79447	32546.325
1614.10715	29319.725
1617.41763	26715.725
1620.7259	24932.925
1624.03199	24017.325
1627.33587	23866.225
1630.63757	24498.025
1633.93707	25990.725
1637.23439	28476.625
1640.52951	32007.725
1643.82246	36365.125
1647.11321	40592.825
1650.40179	42858.125
1653.68819	41317.125
1656.97241	35965.525
1660.25446	29860.925
1663.53433	25139.125
1666.81203	22077.525
1670.08756	20259.325
1673.36092	19103.625
1676.63211	18369.025
1679.90115	17879.925
1683.16801	17506.425
1686.43272	17237.625
1689.69527	17008.725
1692.95567	16857.025
1696.2139	16776.025
1699.46999	16700.425
1702.72392	16613.425
1705.97571	16546.225
1709.22535	16494.525
1712.47284	16418.025
1715.71819	16397.825
1718.96139	16371.825
1722.20246	16320.625
1725.44139	16224.525
1728.67818	16175.725
1731.91284	16078.425
1735.14537	15946.625
1738.37576	15877.825
1741.60403	15831.025
1744.83017	15750.225
1748.05418	15734.825
1751.27607	15687.725
1754.49584	15661.025
1757.71349	15672.925
1760.92903	15610.225
1764.14244	15608.125
1767.35375	15571.425
1770.56294	15540.325
1773.77002	15477.225
1776.97499	15433.425
1780.17785	15391.225
1783.37861	15329.325
1786.57727	15318.425
1789.77382	15258.525
1792.96828	15262.025
1796.16064	15232.125
1799.3509	15188.625
1802.53907	15164.225
1805.72514	15130.225
1808.90913	15079.825
1812.09102	15019.425
1815.27083	15018.125
1818.44856	14993.225
1821.6242	14974.225
1824.79776	14927.925
1827.96924	14945.725
1831.13864	14924.025
1834.30597	14905.225
1837.47122	14885.725
1840.6344	14892.625
1843.7955	14911.725
1846.95454	14914.925
1850.11151	14878.225
1853.26642	14880.625
1856.41926	14896.825
1859.57004	14852.225
1862.71876	14870.625
1865.86542	14880.025
1869.01003	14848.425
1872.15258	14863.525
1875.29308	14853.325
1878.43152	14870.825
1881.56792	14868.025
1884.70227	14877.125
1887.83457	14884.725
1890.96482	14851.825
1894.09304	14861.625
1897.21921	14853.825
1900.34335	14862.825
1903.46544	14830.925
1906.58551	14884.125
1909.70353	14832.225
1912.81953	14831.425
1915.93349	14826.625
1919.04543	14784.725
1922.15534	14762.425
1925.26322	14724.525
1928.36908	14693.625
1931.47292	14644.425
1934.57473	14565.425
1937.67453	14508.325
1940.77232	14461.525
1943.86808	14408.925
1946.96184	14334.925
1950.05358	14299.425
1953.14331	14243.825
1956.23103	14172.025
1959.31675	14178.025
1962.40046	14088.425
1965.48217	14048.625
1968.56188	13990.825
1971.63959	13977.625
1974.7153	13928.025
1977.78901	13895.125
1980.86073	13851.925
1983.93046	13780.725
1986.99819	13716.525
1990.06394	13682.925
1993.1277	13653.025
1996.18947	13612.725
1999.24925	13539.925
2002.30706	13509.925
2005.36288	13466.025
2008.41672	13435.325
2011.46859	13405.325
2014.51848	13360.225
2017.56639	13314.825
2020.61233	13267.025
2023.6563	13249.525
2026.6983	13226.525
2029.73833	13188.525
2032.7764	13184.225
2035.8125	13156.925
2038.84664	13125.425
2041.87881	13125.225
2044.90903	13084.325
2047.93729	13097.325
2050.96359	13074.625
2053.98794	13054.525
2057.01034	13043.225
2060.03078	13015.425
2063.04927	13006.425
2066.06582	12985.925
2069.08042	12959.225
2072.09307	12954.925
2075.10378	12929.525
2078.11255	12907.125
2081.11938	12906.425
2084.12426	12887.925
2087.12722	12896.625
2090.12824	12867.125
2093.12732	12884.325
2096.12447	12877.225
2099.11969	12892.725
2102.11299	12910.625
2105.10435	12906.625
2108.09379	12890.925
2111.08131	12908.425
2114.0669	12895.525
2117.05057	12907.425
2120.03233	12952.825
2123.01216	12962.625
2125.99008	12927.925
2128.96609	12925.925
2131.94018	12941.325
2134.91236	12940.325
2137.88263	12929.525
2140.851	12949.425
2143.81746	12982.925
2146.78201	12974.325
2149.74466	12954.125
2152.7054	12929.025
2155.66425	12910.625
2158.6212	12920.325
2161.57625	12918.625
2164.52941	12924.825
2167.48067	12883.325
2170.43004	12906.525
2173.37752	12892.125
2176.32311	12880.425
2179.26681	12877.925
2182.20863	12885.825
2185.14856	12904.325
2188.08661	12885.025
2191.02278	12885.225
2193.95707	12868.425
2196.88948	12859.925
2199.82001	12842.225
2202.74867	12830.825
2205.67545	12833.925
2208.60037	12820.325
2211.52341	12778.825
2214.44458	12788.925
2217.36388	12758.725
2220.28132	12717.225
2223.1969	12711.625
2226.11061	12693.425
2229.02246	12647.425
2231.93245	12646.725
2234.84058	12620.225
2237.74686	12590.025
2240.65128	12575.825
2243.55385	12567.825
2246.45456	12575.025
2249.35343	12531.825
2252.25044	12493.825
2255.14561	12502.025
2258.03893	12510.225
2260.93041	12476.625
2263.82004	12436.025
2266.70783	12410.425
2269.59378	12392.425
2272.4779	12324.525
2275.36017	12276.125
2278.24061	12253.825
2281.11922	12249.825
2283.996	12242.525
2286.87094	12207.125
2289.74405	12154.925
2292.61534	12164.625
2295.4848	12129.325
2298.35243	12133.825
2301.21824	12130.725
2304.08223	12131.125
2306.94439	12143.625
2309.80474	12134.625
2312.66327	12137.025
2315.51999	12117.325
2318.37489	12159.425
2321.22797	12115.325
2324.07925	12107.625
2326.92871	12099.425
2329.77637	12093.025
2332.62222	12073.425
2335.46626	12046.825
2338.3085	12051.825
2341.14893	12039.525
2343.98756	12062.725
2346.8244	12041.225
2349.65943	12077.425
2352.49267	12067.525
2355.32411	12080.925
2358.15376	12105.025
2360.98161	12072.525
2363.80768	12070.125
2366.63195	12076.625
2369.45444	12073.725
2372.27514	12068.725
2375.09405	12033.725
2377.91118	11996.125
2380.72652	12014.325
2383.54009	11936.325
2386.35187	11921.125
2389.16188	11859.025
2391.97011	11856.725
2394.77657	11816.325
2397.58125	11778.925
2400.38416	11759.925
2403.18529	11752.725
2405.98466	11704.225
2408.78226	11680.025
2411.57809	11691.225
2414.37216	11710.725
2417.16446	11704.425
2419.955	11666.825
2422.74378	11645.025
2425.5308	11631.825
2428.31606	11629.025
2431.09956	11633.925
2433.88131	11616.625
2436.6613	11611.625
2439.43954	11615.625
2442.21603	11609.125
2444.99077	11591.025
2447.76377	11601.625
2450.53501	11592.525
2453.30451	11604.025
2456.07226	11594.125
2458.83827	11584.325
2461.60254	11607.925
2464.36507	11607.525
2467.12586	11591.825
2469.88492	11571.525
2472.64224	11586.225
2475.39782	11598.125
2478.15167	11616.325
2480.90379	11602.625
2483.65417	11640.325
2486.40283	11626.325
2489.14976	11673.625
2491.89497	11649.625
2494.63845	11677.425
2497.3802	11678.525
2500.12024	11670.425
2502.85855	11644.725
2505.59514	11640.225
2508.33002	11614.625
2511.06318	11596.725
2513.79462	11589.125
2516.52435	11554.025
2519.25237	11568.625
2521.97867	11505.225
2524.70327	11492.525
2527.42616	11495.225
2530.14734	11467.025
2532.86681	11469.125
2535.58458	11474.125
2538.30065	11457.925
2541.01501	11440.725
2543.72768	11421.725
2546.43864	11418.725
2549.14791	11422.825
2551.85548	11416.325
2554.56136	11390.625
2557.26554	11400.725
2559.96803	11374.925
2562.66883	11376.425
2565.36794	11401.325
2568.06536	11371.625
2570.7611	11355.125
2573.45514	11342.825
2576.14751	11347.025
2578.83819	11317.325
2581.52719	11321.725
2584.21451	11309.625
2586.90015	11305.025
2589.58411	11290.125
2592.2664	11303.525
2594.94701	11283.325
2597.62594	11314.625
2600.30321	11287.425
2602.9788	11284.025
2605.65273	11246.525
2608.32498	11273.125
2610.99557	11303.325
2613.66449	11287.925
2616.33175	11298.625
2618.99734	11282.525
2621.66128	11281.525
2624.32355	11258.625
2626.98416	11270.225
2629.64311	11280.625
2632.30041	11275.125
2634.95605	11289.725
2637.61004	11230.125
2640.26238	11244.225
2642.91306	11229.625
2645.56209	11219.625
2648.20948	11241.625
2650.85521	11221.725
2653.4993	11194.925
2656.14175	11203.225
2658.78255	11255.725
2661.42171	11211.225
2664.05923	11285.725
2666.6951	11264.625
2669.32934	11267.125
2671.96194	11270.325
2674.59291	11271.925
2677.22224	11266.725
2679.84993	11260.725
2682.476	11277.125
2685.10043	11279.325
2687.72324	11259.625
2690.34441	11222.225
2692.96396	11236.825
2695.58188	11245.525
2698.19818	11234.225
2700.81285	11253.825
2703.4259	11256.025
2706.03733	11303.725
2708.64714	11263.425
2711.25533	11295.225
2713.86191	11284.625
2716.46687	11291.725
2719.07021	11297.025
2721.67194	11329.325
2724.27206	11320.325
2726.87057	11326.325
2729.46747	11322.625
2732.06276	11322.925
2734.65644	11313.225
2737.24852	11313.725
2739.83899	11307.125
2742.42786	11279.725
2745.01513	11269.525
2747.60079	11280.425
2750.18486	11254.825
2752.76733	11289.325
2755.3482	11272.025
2757.92747	11291.925
2760.50515	11275.325
2763.08123	11309.625
2765.65573	11257.225
2768.22863	11272.925
2770.79994	11223.925
2773.36967	11246.725
2775.9378	11248.225
2778.50435	11264.025
2781.06932	11233.225
2783.6327	11222.025
2786.1945	11228.125
2788.75471	11220.725
2791.31335	11202.525
2793.87041	11210.625
2796.42589	11175.325
2798.97979	11184.725
2801.53212	11140.125
2804.08288	11159.725
2806.63206	11136.125
2809.17967	11138.125
2811.72571	11090.725
2814.27018	11095.725
2816.81308	11074.925
2819.35442	11061.525
2821.89419	11040.725
2824.43239	11077.625
2826.96904	11021.625
2829.50412	11056.525
2832.03763	11025.725
2834.56959	11032.425
2837.1	11034.525
2839.62884	11021.625
2842.15613	11038.125
2844.68186	11099.725
2847.20604	11149.125
2849.72867	11164.225
2852.24974	11170.025
2854.76927	11171.025
2857.28724	11151.825
2859.80367	11126.525
2862.31855	11107.325
2864.83189	11106.625
2867.34368	11071.625
2869.85393	11102.825
2872.36264	11110.925
2874.8698	11100.225
2877.37543	11093.925
2879.87952	11122.725
2882.38207	11095.725
2884.88308	11100.325
2887.38256	11070.225
2889.88051	11071.925
2892.37692	11080.625
2894.8718	11078.925
2897.36515	11105.825
2899.85698	11097.925
2902.34727	11150.025
2904.83604	11122.725
2907.32328	11135.925
2909.809	11131.725
2912.29319	11121.125
2914.77587	11137.925
2917.25702	11110.125
2919.73665	11117.025
2922.21476	11111.325
2924.69136	11081.925
2927.16644	11129.225
2929.64	11104.125
2932.11205	11097.925
2934.58258	11071.525
2937.05161	11056.625
2939.51912	11060.925
2941.98513	11013.625
2944.44962	10951.025
2946.91261	10877.625
2949.37409	10878.625
2951.83407	10831.025
2954.29254	10851.925
2956.74951	10827.325
2959.20498	10810.625
2961.65895	10789.425
2964.11142	10785.325
2966.56239	10743.225
2969.01186	10727.725
2971.45984	10693.225
2973.90632	10669.625
2976.35131	10628.725
2978.7948	10598.525
2981.23681	10579.425
2983.67732	10550.025
2986.11635	10535.525
2988.55388	10526.425
2990.98993	10490.925
2993.4245	10471.025
2995.85758	10454.825
2998.28917	10428.225
3000.71928	10427.525
3003.14791	10382.425
3005.57506	10382.925
3008.00073	10338.925
3010.42493	10312.825
3012.84764	10304.725
3015.26888	10317.325
3017.68865	10277.025
3020.10694	10258.925
3022.52376	10235.325
3024.9391	10213.425
3027.35298	10201.025
3029.76539	10193.525
3032.17632	10192.625
3034.5858	10167.325
3036.9938	10160.925
3039.40034	10161.025
3041.80542	10147.525
3044.20903	10099.025
3046.61118	10116.525
3049.01187	10082.225
3051.4111	10036.625
3053.80888	10025.125
3056.20519	10000.725
3058.60005	9998.025
3060.99345	9982.725
3063.3854	9942.225
3065.7759	9897.025
3068.16494	9868.625
3070.55254	9843.925
3072.93868	9841.325
3075.32338	9787.225
3077.70662	9770.525
3080.08842	9728.525
3082.46878	9743.225
3084.84769	9675.725
3087.22515	9689.825
3089.60118	9692.525
3091.97576	9675.625
3094.3489	9662.825
3096.72061	9651.525
3099.09087	9669.525
3101.4597	9652.925
3103.82709	9649.725
3106.19305	9610.225
3108.55757	9601.425
3110.92066	9567.725
3113.28232	9540.925
3115.64255	9531.025
3118.00134	9498.725
3120.35871	9455.625
3122.71466	9445.625
3125.06917	9430.225
3127.42226	9390.425
3129.77393	9421.025
3132.12417	9410.325
