Data from AgNPs_FTO_APTES_UA_2uM_CRN_500uM_R6G_10uM_NaF_0.1M_Addition_RamanShift__1__16-59-45-395.txt Node

Date: Wed Feb 02 16:59:45 GMT 2022
User: TCL
Spectrometer: QEP01345
Trigger mode: 4
Integration Time (sec): 7.000000E0
Scans to average: 10
Electric dark correction enabled: true
Nonlinearity correction enabled: false
Boxcar width: 0
XAxis mode: Raman Shifts
Number of Pixels in Spectrum: 1044
>>>>>Begin Spectral Data<<<<<
46.04893	-0.175
50.45542	1.125
54.85868	-0.875
59.25871	0.225
63.6555	63.925
68.04907	68.125
72.43941	72.125
76.82654	75.125
81.21044	79.725
85.59113	87.425
89.96862	84.025
94.34289	89.925
98.71396	94.725
103.08183	99.725
107.4465	100.925
111.80798	101.325
116.16626	104.125
120.52136	108.125
124.87327	111.925
129.222	112.925
133.56755	121.925
137.90993	130.725
142.24913	140.325
146.58517	160.125
150.91804	181.525
155.24774	219.625
159.57429	264.225
163.89768	342.025
168.21792	447.325
172.53501	611.125
176.84895	845.025
181.15975	1179.125
185.46741	1654.025
189.77193	2264.525
194.07331	3036.925
198.37157	3890.125
202.6667	4816.925
206.9587	5720.325
211.24758	6637.625
215.53334	7526.425
219.81599	8517.025
224.09553	9557.625
228.37195	10725.125
232.64527	11970.025
236.91549	13260.525
241.18261	14525.925
245.44663	15752.725
249.70755	16789.925
253.96539	17727.425
258.22014	18524.225
262.4718	19148.225
266.72039	19603.925
270.96589	19852.825
275.20832	19942.525
279.44768	19868.425
283.68397	19706.125
287.91719	19623.525
292.14735	19537.025
296.37445	19633.325
300.59849	19757.425
304.81948	19955.925
309.03742	19935.625
313.25231	19763.125
317.46415	19290.725
321.67296	18728.225
325.87872	18183.925
330.08145	17891.225
334.28114	17756.925
338.47781	17800.725
342.67145	17942.625
346.86207	18264.125
351.04966	18624.825
355.23424	18952.225
359.4158	19292.725
363.59435	19498.025
367.76989	19657.525
371.94243	19721.925
376.11196	19741.825
380.27849	19797.125
384.44203	19912.025
388.60257	20081.625
392.76012	20338.325
396.91468	20620.425
401.06626	20934.225
405.21485	21186.925
409.36047	21144.525
413.50311	20822.325
417.64277	20544.125
421.77947	20408.325
425.9132	20396.825
430.04396	20526.225
434.17176	20608.925
438.2966	20802.625
442.41849	21228.125
446.53742	21939.425
450.6534	22725.925
454.76644	23196.625
458.87653	23336.225
462.98368	23130.825
467.08789	22913.025
471.18916	22660.825
475.2875	22542.125
479.38291	22592.025
483.4754	22661.425
487.56496	22336.725
491.6516	21734.325
495.73531	21048.625
499.81612	20590.225
503.89401	20474.625
507.96899	20451.725
512.04106	20413.725
516.11023	20191.625
520.1765	19954.125
524.23987	19736.725
528.30034	19543.025
532.35792	19394.925
536.41261	19130.025
540.46441	18897.925
544.51333	18893.925
548.55936	19176.325
552.60252	19756.325
556.64279	20462.025
560.6802	21031.125
564.71473	21446.025
568.7464	22098.025
572.7752	22981.325
576.80114	23621.025
580.82422	24112.225
584.84444	24689.625
588.86181	25588.925
592.87633	26309.225
596.888	25955.825
600.89682	24687.525
604.9028	24204.325
608.90594	25667.825
612.90624	27570.025
616.90371	25903.725
620.89834	21448.825
624.89015	19360.725
628.87913	19093.125
632.86528	19231.525
636.84862	19267.725
640.82913	18944.325
644.80683	18451.725
648.78172	18147.625
652.75379	18094.625
656.72306	18278.225
660.68952	18512.625
664.65319	18401.625
668.61405	18026.225
672.57211	17937.425
676.52738	18021.825
680.47986	18059.125
684.42955	18008.225
688.37646	17893.125
692.32058	17951.625
696.26192	18197.925
700.20048	18450.225
704.13626	18648.925
708.06928	18717.425
711.99952	18717.525
715.927	18701.725
719.85171	18774.125
723.77365	18678.625
727.69284	18414.725
731.60928	18148.525
735.52295	18099.125
739.43388	18066.425
743.34206	18122.025
747.24749	18239.925
751.15017	18487.125
755.05012	18849.325
758.94733	19496.225
762.8418	20612.125
766.73354	22210.325
770.62254	23662.025
774.50882	23905.625
778.39237	22848.625
782.27321	21021.525
786.15132	19491.625
790.02671	18571.025
793.89938	18117.825
797.76935	17949.825
801.6366	17878.525
805.50115	17792.825
809.36299	17723.225
813.22213	17650.025
817.07857	17643.325
820.93231	17593.025
824.78336	17440.125
828.63172	17345.725
832.47738	17241.625
836.32036	17255.825
840.16066	17230.325
843.99827	17215.225
847.8332	17187.725
851.66546	17147.425
855.49504	17081.825
859.32195	17101.825
863.1462	17019.925
866.96777	16989.125
870.78668	16945.125
874.60293	16927.525
878.41652	16943.825
882.22745	16987.925
886.03573	17099.125
889.84136	17073.525
893.64433	16998.225
897.44466	16898.425
901.24235	16873.825
905.0374	16814.325
908.8298	16789.825
912.61957	16812.225
916.40671	17046.825
920.19121	17320.625
923.97308	17502.625
927.75233	17530.325
931.52895	17330.225
935.30295	16985.225
939.07433	16613.325
942.84309	16302.525
946.60924	16136.325
950.37278	16054.725
954.13371	16081.625
957.89203	16145.825
961.64774	16119.225
965.40086	16125.625
969.15137	16051.925
972.89929	15907.525
976.64461	15768.625
980.38733	15738.525
984.12747	15757.525
987.86502	15796.425
991.59999	15928.025
995.33237	16068.725
999.06217	16343.525
1002.78939	16702.325
1006.51404	17011.225
1010.23611	17294.225
1013.95561	17498.525
1017.67255	17519.725
1021.38692	17380.125
1025.09872	17039.825
1028.80796	16810.725
1032.51465	16815.325
1036.21877	16936.125
1039.92035	17072.925
1043.61937	17130.025
1047.31584	17092.425
1051.00976	17061.225
1054.70114	17103.225
1058.38998	17161.825
1062.07627	17388.325
1065.76003	17589.725
1069.44126	17756.825
1073.11995	18022.325
1076.79611	18200.225
1080.46974	18284.525
1084.14085	18424.225
1087.80943	18603.925
1091.47549	18890.725
1095.13903	19074.125
1098.80005	18857.925
1102.45857	18375.225
1106.11456	17987.325
1109.76805	17765.025
1113.41903	17797.525
1117.06751	17912.525
1120.71348	18234.225
1124.35696	18512.325
1127.99793	18860.325
1131.63641	19086.625
1135.2724	18915.625
1138.90589	18744.125
1142.5369	18832.725
1146.16542	19034.225
1149.79145	19372.025
1153.415	19712.925
1157.03607	20149.525
1160.65467	20886.425
1164.27079	21969.125
1167.88443	23355.625
1171.49561	24792.525
1175.10432	26685.325
1178.71056	29049.925
1182.31434	31138.525
1185.91565	31878.525
1189.51451	31416.025
1193.11091	30369.125
1196.70485	29247.325
1200.29634	28213.725
1203.88538	27515.725
1207.47197	27214.825
1211.05612	26941.125
1214.63782	26394.925
1218.21708	25589.625
1221.79391	24697.025
1225.36829	24087.525
1228.94024	23657.825
1232.50976	23184.725
1236.07685	22751.125
1239.6415	22524.225
1243.20374	22503.725
1246.76355	22741.625
1250.32093	23022.525
1253.8759	23525.325
1257.42845	24171.825
1260.97859	24895.025
1264.52631	25543.425
1268.07163	26273.325
1271.61453	27031.225
1275.15503	27858.525
1278.69312	28775.625
1282.22882	29888.825
1285.76211	31274.025
1289.29301	33071.425
1292.82151	35282.525
1296.34761	37827.625
1299.87133	40436.225
1303.39266	42960.625
1306.9116	45118.325
1310.42815	46799.825
1313.94233	47895.825
1317.45412	47808.425
1320.96354	46985.225
1324.47058	46181.525
1327.97525	45468.025
1331.47754	44868.225
1334.97747	44363.025
1338.47502	43595.125
1341.97022	42584.825
1345.46305	41503.925
1348.95352	40802.625
1352.44163	40706.925
1355.92738	41682.925
1359.41078	43628.125
1362.89183	45277.825
1366.37053	44559.625
1369.84688	40790.725
1373.32088	36059.225
1376.79254	32959.625
1380.26186	32185.625
1383.72883	32566.425
1387.19347	32925.125
1390.65578	32943.225
1394.11575	33200.925
1397.57339	33793.125
1401.0287	34615.125
1404.48168	35040.425
1407.93234	34673.825
1411.38068	33520.125
1414.82669	31906.025
1418.27039	30026.025
1421.71177	28326.325
1425.15083	26839.825
1428.58758	26161.325
1432.02203	26285.725
1435.45416	27137.625
1438.88399	28157.825
1442.31151	28980.325
1445.73673	29608.525
1449.15965	30148.725
1452.58027	30503.525
1455.9986	30555.225
1459.41463	30680.325
1462.82837	30904.825
1466.23982	31302.925
1469.64898	31690.925
1473.05586	31877.425
1476.46045	31857.825
1479.86276	31489.825
1483.26279	31093.025
1486.66054	30813.525
1490.05602	30817.625
1493.44922	31108.825
1496.84016	31573.025
1500.22882	32257.125
1503.61521	33339.525
1506.99934	34627.125
1510.38121	35789.125
1513.76081	36226.525
1517.13816	35654.125
1520.51324	34354.825
1523.88607	33355.925
1527.25665	32921.225
1530.62498	33017.925
1533.99105	32884.525
1537.35488	32435.325
1540.71647	31560.225
1544.07581	30425.025
1547.4329	29314.325
1550.78776	28326.825
1554.14038	27623.525
1557.49077	27344.325
1560.83892	27280.725
1564.18484	27337.325
1567.52853	27582.925
1570.86999	28139.025
1574.20922	28964.925
1577.54624	29767.225
1580.88103	30302.425
1584.2136	30853.025
1587.54395	31937.425
1590.87208	33528.325
1594.19801	35390.825
1597.52172	37003.325
1600.84321	37193.725
1604.16251	35205.725
1607.47959	31917.025
1610.79447	28462.025
1614.10715	25488.625
1617.41763	23318.925
1620.7259	22002.225
1624.03199	21453.225
1627.33587	21522.825
1630.63757	22400.325
1633.93707	24108.925
1637.23439	27030.625
1640.52951	31093.425
1643.82246	36100.325
1647.11321	40303.325
1650.40179	41299.225
1653.68819	38090.425
1656.97241	32436.025
1660.25446	26835.625
1663.53433	22639.525
1666.81203	19968.225
1670.08756	18280.325
1673.36092	17230.225
1676.63211	16598.325
1679.90115	16139.525
1683.16801	15769.425
1686.43272	15541.525
1689.69527	15366.525
1692.95567	15212.025
1696.2139	15128.525
1699.46999	15062.525
1702.72392	14983.825
1705.97571	14918.625
1709.22535	14837.025
1712.47284	14832.725
1715.71819	14739.825
1718.96139	14693.025
1722.20246	14655.625
1725.44139	14518.525
1728.67818	14442.825
1731.91284	14381.525
1735.14537	14292.125
1738.37576	14242.725
1741.60403	14166.225
1744.83017	14139.525
1748.05418	14098.025
1751.27607	14090.825
1754.49584	14073.425
1757.71349	14075.925
1760.92903	14060.425
1764.14244	14005.725
1767.35375	14003.625
1770.56294	13950.825
1773.77002	13922.425
1776.97499	13879.525
1780.17785	13840.125
1783.37861	13791.125
1786.57727	13762.925
1789.77382	13716.025
1792.96828	13690.725
1796.16064	13643.525
1799.3509	13616.425
1802.53907	13591.925
1805.72514	13553.425
1808.90913	13510.025
1812.09102	13510.325
1815.27083	13465.925
1818.44856	13429.425
1821.6242	13395.625
1824.79776	13379.425
1827.96924	13349.625
1831.13864	13347.725
1834.30597	13334.425
1837.47122	13361.925
1840.6344	13334.825
1843.7955	13353.425
1846.95454	13305.825
1850.11151	13325.125
1853.26642	13277.225
1856.41926	13304.625
1859.57004	13281.325
1862.71876	13277.225
1865.86542	13246.225
1869.01003	13247.025
1872.15258	13220.725
1875.29308	13217.625
1878.43152	13219.725
1881.56792	13193.625
1884.70227	13152.025
1887.83457	13131.825
1890.96482	13119.525
1894.09304	13105.125
1897.21921	13068.725
1900.34335	13088.125
1903.46544	13067.825
1906.58551	13028.325
1909.70353	13029.725
1912.81953	13018.825
1915.93349	12987.125
1919.04543	12953.025
1922.15534	12914.125
1925.26322	12879.825
1928.36908	12852.525
1931.47292	12836.325
1934.57473	12802.025
1937.67453	12742.925
1940.77232	12690.825
1943.86808	12664.425
1946.96184	12637.925
1950.05358	12606.625
1953.14331	12587.825
1956.23103	12521.325
1959.31675	12486.625
1962.40046	12455.325
1965.48217	12428.725
1968.56188	12391.225
1971.63959	12360.525
1974.7153	12304.425
1977.78901	12285.025
1980.86073	12253.625
1983.93046	12197.325
1986.99819	12163.825
1990.06394	12126.125
1993.1277	12110.725
1996.18947	12053.425
1999.24925	12008.725
2002.30706	11991.825
2005.36288	11922.525
2008.41672	11915.925
2011.46859	11862.225
2014.51848	11806.025
2017.56639	11780.525
2020.61233	11756.725
2023.6563	11770.925
2026.6983	11753.025
2029.73833	11695.725
2032.7764	11672.525
2035.8125	11658.125
2038.84664	11617.025
2041.87881	11622.025
2044.90903	11579.125
2047.93729	11565.125
2050.96359	11573.225
2053.98794	11565.025
2057.01034	11556.125
2060.03078	11537.225
2063.04927	11511.625
2066.06582	11501.525
2069.08042	11470.425
2072.09307	11468.325
2075.10378	11457.525
2078.11255	11457.525
2081.11938	11470.725
2084.12426	11461.225
2087.12722	11450.725
2090.12824	11435.425
2093.12732	11437.325
2096.12447	11476.425
2099.11969	11430.725
2102.11299	11438.325
2105.10435	11426.825
2108.09379	11445.025
2111.08131	11451.925
2114.0669	11471.425
2117.05057	11456.625
2120.03233	11469.525
2123.01216	11486.725
2125.99008	11480.125
2128.96609	11458.425
2131.94018	11456.725
2134.91236	11482.125
2137.88263	11497.225
2140.851	11498.825
2143.81746	11483.125
2146.78201	11453.525
2149.74466	11488.925
2152.7054	11458.525
2155.66425	11451.425
2158.6212	11489.125
2161.57625	11467.325
2164.52941	11465.525
2167.48067	11407.725
2170.43004	11436.725
2173.37752	11406.225
2176.32311	11430.225
2179.26681	11420.825
2182.20863	11410.425
2185.14856	11435.825
2188.08661	11430.125
2191.02278	11415.925
2193.95707	11382.325
2196.88948	11375.925
2199.82001	11386.325
2202.74867	11369.425
2205.67545	11355.625
2208.60037	11336.225
2211.52341	11318.725
2214.44458	11304.025
2217.36388	11276.525
2220.28132	11275.525
2223.1969	11249.525
2226.11061	11227.725
2229.02246	11208.925
2231.93245	11210.025
2234.84058	11172.725
2237.74686	11161.525
2240.65128	11167.125
2243.55385	11149.525
2246.45456	11116.925
2249.35343	11096.825
2252.25044	11080.125
2255.14561	11029.725
2258.03893	11033.125
2260.93041	10993.125
2263.82004	10948.325
2266.70783	10937.525
2269.59378	10920.725
2272.4779	10896.625
2275.36017	10849.725
2278.24061	10844.225
2281.11922	10820.025
2283.996	10821.625
2286.87094	10793.625
2289.74405	10774.725
2292.61534	10770.125
2295.4848	10757.925
2298.35243	10749.225
2301.21824	10721.725
2304.08223	10725.525
2306.94439	10723.825
2309.80474	10738.625
2312.66327	10713.825
2315.51999	10672.125
2318.37489	10699.225
2321.22797	10668.425
2324.07925	10668.325
2326.92871	10656.925
2329.77637	10635.625
2332.62222	10627.625
2335.46626	10597.325
2338.3085	10596.025
2341.14893	10587.925
2343.98756	10585.925
2346.8244	10593.925
2349.65943	10584.525
2352.49267	10569.425
2355.32411	10592.525
2358.15376	10583.525
2360.98161	10560.125
2363.80768	10539.125
2366.63195	10564.325
2369.45444	10547.025
2372.27514	10532.925
2375.09405	10519.625
2377.91118	10505.225
2380.72652	10483.025
2383.54009	10449.625
2386.35187	10458.125
2389.16188	10423.825
2391.97011	10398.625
2394.77657	10357.625
2397.58125	10369.625
2400.38416	10329.025
2403.18529	10288.525
2405.98466	10310.525
2408.78226	10298.625
2411.57809	10284.025
2414.37216	10274.325
2417.16446	10277.025
2419.955	10253.825
2422.74378	10257.125
2425.5308	10249.325
2428.31606	10253.125
2431.09956	10242.425
2433.88131	10215.425
2436.6613	10204.925
2439.43954	10187.425
2442.21603	10194.725
2444.99077	10170.625
2447.76377	10193.925
2450.53501	10185.125
2453.30451	10197.425
2456.07226	10184.125
2458.83827	10166.425
2461.60254	10172.825
2464.36507	10171.025
2467.12586	10162.425
2469.88492	10167.925
2472.64224	10149.725
2475.39782	10180.525
2478.15167	10176.125
2480.90379	10175.225
2483.65417	10151.625
2486.40283	10158.825
2489.14976	10172.825
2491.89497	10165.125
2494.63845	10180.325
2497.3802	10171.725
2500.12024	10133.225
2502.85855	10156.025
2505.59514	10156.525
2508.33002	10137.925
2511.06318	10117.825
2513.79462	10113.525
2516.52435	10096.825
2519.25237	10098.925
2521.97867	10074.625
2524.70327	10086.725
2527.42616	10028.825
2530.14734	10010.825
2532.86681	10021.325
2535.58458	10003.625
2538.30065	9995.325
2541.01501	10006.925
2543.72768	9965.925
2546.43864	9968.025
2549.14791	9964.825
2551.85548	9978.825
2554.56136	9931.925
2557.26554	9944.025
2559.96803	9925.525
2562.66883	9917.025
2565.36794	9941.325
2568.06536	9925.525
2570.7611	9917.825
2573.45514	9898.125
2576.14751	9873.625
2578.83819	9866.825
2581.52719	9867.125
2584.21451	9867.525
2586.90015	9849.425
2589.58411	9859.625
2592.2664	9834.825
2594.94701	9835.025
2597.62594	9816.525
2600.30321	9818.325
2602.9788	9824.725
2605.65273	9814.825
2608.32498	9819.025
2610.99557	9793.825
2613.66449	9811.025
2616.33175	9802.925
2618.99734	9780.225
2621.66128	9789.125
2624.32355	9802.125
2626.98416	9785.425
2629.64311	9769.525
2632.30041	9771.925
2634.95605	9750.925
2637.61004	9743.325
2640.26238	9723.325
2642.91306	9730.125
2645.56209	9735.025
2648.20948	9714.425
2650.85521	9715.025
2653.4993	9716.425
2656.14175	9713.525
2658.78255	9740.525
2661.42171	9752.225
2664.05923	9748.025
2666.6951	9741.425
2669.32934	9756.925
2671.96194	9759.825
2674.59291	9774.225
2677.22224	9733.525
2679.84993	9744.425
2682.476	9752.325
2685.10043	9766.625
2687.72324	9757.125
2690.34441	9741.125
2692.96396	9746.325
2695.58188	9749.125
2698.19818	9748.225
2700.81285	9767.625
2703.4259	9763.325
2706.03733	9802.325
2708.64714	9778.125
2711.25533	9813.625
2713.86191	9770.425
2716.46687	9778.025
2719.07021	9749.925
2721.67194	9808.625
2724.27206	9778.025
2726.87057	9801.125
2729.46747	9785.825
2732.06276	9796.225
2734.65644	9814.225
2737.24852	9791.825
2739.83899	9767.625
2742.42786	9795.725
2745.01513	9772.725
2747.60079	9775.925
2750.18486	9742.925
2752.76733	9777.025
2755.3482	9777.525
2757.92747	9761.525
2760.50515	9764.025
2763.08123	9772.625
2765.65573	9762.525
2768.22863	9763.325
2770.79994	9756.725
2773.36967	9746.825
2775.9378	9742.425
2778.50435	9739.025
2781.06932	9738.625
2783.6327	9734.425
2786.1945	9731.425
2788.75471	9705.725
2791.31335	9700.625
2793.87041	9693.825
2796.42589	9668.025
2798.97979	9632.625
2801.53212	9640.725
2804.08288	9642.825
2806.63206	9609.925
2809.17967	9585.825
2811.72571	9571.325
2814.27018	9567.725
2816.81308	9566.425
2819.35442	9530.025
2821.89419	9545.425
2824.43239	9535.125
2826.96904	9536.525
2829.50412	9524.825
2832.03763	9500.525
2834.56959	9520.625
2837.1	9532.325
2839.62884	9544.525
2842.15613	9553.625
2844.68186	9589.725
2847.20604	9613.425
2849.72867	9656.825
2852.24974	9644.925
2854.76927	9629.025
2857.28724	9614.325
2859.80367	9610.225
2862.31855	9577.925
2864.83189	9559.225
2867.34368	9550.325
2869.85393	9541.725
2872.36264	9539.225
2874.8698	9583.425
2877.37543	9549.525
2879.87952	9544.725
2882.38207	9528.825
2884.88308	9527.725
2887.38256	9515.525
2889.88051	9512.625
2892.37692	9531.025
2894.8718	9559.525
2897.36515	9569.025
2899.85698	9565.525
2902.34727	9570.825
2904.83604	9572.425
2907.32328	9595.025
2909.809	9601.425
2912.29319	9589.825
2914.77587	9573.725
2917.25702	9590.425
2919.73665	9572.925
2922.21476	9577.525
2924.69136	9585.525
2927.16644	9577.925
2929.64	9557.525
2932.11205	9532.125
2934.58258	9521.025
2937.05161	9544.625
2939.51912	9523.925
2941.98513	9502.325
2944.44962	9482.425
2946.91261	9421.225
2949.37409	9422.925
2951.83407	9402.325
2954.29254	9379.025
2956.74951	9373.825
2959.20498	9338.125
2961.65895	9354.925
2964.11142	9328.825
2966.56239	9293.625
2969.01186	9307.925
2971.45984	9248.125
2973.90632	9251.925
2976.35131	9208.325
2978.7948	9171.125
2981.23681	9164.625
2983.67732	9162.125
2986.11635	9134.625
2988.55388	9110.125
2990.98993	9065.425
2993.4245	9052.125
2995.85758	9033.225
2998.28917	9005.525
3000.71928	8992.425
3003.14791	8983.825
3005.57506	8960.625
3008.00073	8942.425
3010.42493	8936.025
3012.84764	8923.725
3015.26888	8932.425
3017.68865	8877.825
3020.10694	8856.325
3022.52376	8855.125
3024.9391	8840.725
3027.35298	8830.425
3029.76539	8801.425
3032.17632	8812.825
3034.5858	8780.725
3036.9938	8764.225
3039.40034	8774.425
3041.80542	8776.625
3044.20903	8745.325
3046.61118	8744.625
3049.01187	8724.725
3051.4111	8712.225
3053.80888	8695.225
3056.20519	8706.825
3058.60005	8663.925
3060.99345	8651.325
3063.3854	8636.125
3065.7759	8587.825
3068.16494	8585.825
3070.55254	8540.925
3072.93868	8535.925
3075.32338	8522.425
3077.70662	8490.125
3080.08842	8469.925
3082.46878	8440.725
3084.84769	8429.825
3087.22515	8453.725
3089.60118	8456.625
3091.97576	8429.125
3094.3489	8414.625
3096.72061	8388.825
3099.09087	8401.525
3101.4597	8390.325
3103.82709	8385.125
3106.19305	8353.025
3108.55757	8376.225
3110.92066	8348.625
3113.28232	8321.625
3115.64255	8291.325
3118.00134	8283.825
3120.35871	8284.925
3122.71466	8251.925
3125.06917	8244.725
3127.42226	8217.225
3129.77393	8248.725
3132.12417	8219.925
3134.47299	8212.525
3136.82039	8237.325
3139.16636	8201.425
3141.51092	8223.725
3143.85406	8221.825
3146.19579	8220.325
3148.53609	8214.325
3150.87499	8223.025
3153.21246	8240.225
3155.54853	8212.925
