Data from AgNPs_FTO_APTES_UA_2uM_CRN_0uM_R6G_10uM_NaF_0.1M_Addition_RamanShift__50__11-02-44-979.txt Node

Date: Wed Feb 02 11:02:44 GMT 2022
User: TCL
Spectrometer: QEP01345
Trigger mode: 4
Integration Time (sec): 7.000000E0
Scans to average: 10
Electric dark correction enabled: true
Nonlinearity correction enabled: false
Boxcar width: 0
XAxis mode: Raman Shifts
Number of Pixels in Spectrum: 1044
>>>>>Begin Spectral Data<<<<<
46.04893	-0.4875
50.45542	1.9125
54.85868	-0.9875
59.25871	-0.1875
63.6555	69.7125
68.04907	72.6125
72.43941	73.5125
76.82654	79.7125
81.21044	85.8125
85.59113	86.4125
89.96862	88.4125
94.34289	92.5125
98.71396	93.8125
103.08183	102.3125
107.4465	102.1125
111.80798	106.3125
116.16626	108.4125
120.52136	111.9125
124.87327	119.5125
129.222	126.3125
133.56755	134.1125
137.90993	146.5125
142.24913	165.9125
146.58517	188.0125
150.91804	223.1125
155.24774	271.6125
159.57429	337.2125
163.89768	443.1125
168.21792	588.5125
172.53501	810.0125
176.84895	1132.8125
181.15975	1591.3125
185.46741	2235.4125
189.77193	3078.7125
194.07331	4099.5125
198.37157	5267.2125
202.6667	6467.8125
206.9587	7706.0125
211.24758	8885.3125
215.53334	10113.4125
219.81599	11423.5125
224.09553	12914.1125
228.37195	14579.0125
232.64527	16336.0125
236.91549	18136.1125
241.18261	19896.3125
245.44663	21478.1125
249.70755	22799.8125
253.96539	24031.5125
258.22014	25097.9125
262.4718	26068.7125
266.72039	26781.0125
270.96589	27152.4125
275.20832	27340.0125
279.44768	27255.7125
283.68397	27136.2125
287.91719	27116.0125
292.14735	27117.7125
296.37445	27251.6125
300.59849	27413.9125
304.81948	27606.1125
309.03742	27589.5125
313.25231	27212.8125
317.46415	26241.7125
321.67296	24936.8125
325.87872	23773.4125
330.08145	23211.7125
334.28114	23072.9125
338.47781	23241.0125
342.67145	23555.6125
346.86207	24061.9125
351.04966	24791.4125
355.23424	25564.2125
359.4158	26217.6125
363.59435	26536.8125
367.76989	26661.3125
371.94243	26731.8125
376.11196	26747.4125
380.27849	26766.9125
384.44203	26805.8125
388.60257	26961.4125
392.76012	27236.2125
396.91468	27623.8125
401.06626	28141.2125
405.21485	28537.7125
409.36047	28312.1125
413.50311	27586.6125
417.64277	27009.2125
421.77947	26814.6125
425.9132	26906.5125
430.04396	27075.0125
434.17176	27195.1125
438.2966	27339.7125
442.41849	27856.9125
446.53742	28622.7125
450.6534	29477.4125
454.76644	30169.6125
458.87653	30463.3125
462.98368	30376.2125
467.08789	30063.5125
471.18916	29707.0125
475.2875	29477.8125
479.38291	29456.9125
483.4754	29469.1125
487.56496	29222.0125
491.6516	28642.1125
495.73531	28048.2125
499.81612	27642.1125
503.89401	27634.1125
507.96899	27608.6125
512.04106	27462.5125
516.11023	27138.7125
520.1765	26799.9125
524.23987	26459.8125
528.30034	26026.8125
532.35792	25542.0125
536.41261	25063.2125
540.46441	24672.5125
544.51333	24682.3125
548.55936	25065.0125
552.60252	25981.5125
556.64279	26898.8125
560.6802	27520.9125
564.71473	28076.8125
568.7464	28953.4125
572.7752	30031.4125
576.80114	30421.6125
580.82422	30516.0125
584.84444	30689.6125
588.86181	30791.3125
592.87633	31065.4125
596.888	31323.4125
600.89682	31511.3125
604.9028	32913.5125
608.90594	37068.3125
612.90624	41631.8125
616.90371	39001.4125
620.89834	30384.1125
624.89015	26467.8125
628.87913	25938.9125
632.86528	26177.6125
636.84862	26100.7125
640.82913	25575.1125
644.80683	24631.2125
648.78172	23797.5125
652.75379	23567.8125
656.72306	23955.8125
660.68952	24652.5125
664.65319	24607.0125
668.61405	23941.6125
672.57211	23604.7125
676.52738	23594.5125
680.47986	23549.5125
684.42955	23372.3125
688.37646	23248.9125
692.32058	23328.1125
696.26192	23609.2125
700.20048	24081.6125
704.13626	24381.0125
708.06928	24523.1125
711.99952	24322.3125
715.927	24162.0125
719.85171	24141.0125
723.77365	24002.0125
727.69284	23673.0125
731.60928	23322.3125
735.52295	23208.6125
739.43388	23291.1125
743.34206	23380.8125
747.24749	23524.9125
751.15017	23895.9125
755.05012	24501.5125
758.94733	25578.0125
762.8418	27584.4125
766.73354	30949.0125
770.62254	34218.2125
774.50882	34987.3125
778.39237	32737.8125
782.27321	29260.0125
786.15132	26424.6125
790.02671	24673.5125
793.89938	23802.3125
797.76935	23443.7125
801.6366	23321.4125
805.50115	23238.5125
809.36299	23077.1125
813.22213	22899.1125
817.07857	22824.6125
820.93231	22784.5125
824.78336	22649.2125
828.63172	22536.8125
832.47738	22491.9125
836.32036	22489.4125
840.16066	22557.6125
843.99827	22560.1125
847.8332	22516.3125
851.66546	22321.6125
855.49504	22250.4125
859.32195	22196.7125
863.1462	22080.9125
866.96777	21946.6125
870.78668	21902.2125
874.60293	21881.1125
878.41652	21838.3125
882.22745	21950.2125
886.03573	22055.0125
889.84136	22108.3125
893.64433	22020.7125
897.44466	21959.1125
901.24235	21888.3125
905.0374	21739.8125
908.8298	21665.1125
912.61957	21711.8125
916.40671	21947.1125
920.19121	22374.5125
923.97308	22795.7125
927.75233	22975.3125
931.52895	22841.4125
935.30295	22425.8125
939.07433	21722.1125
942.84309	21163.6125
946.60924	20868.3125
950.37278	20748.2125
954.13371	20672.8125
957.89203	20582.0125
961.64774	20539.0125
965.40086	20558.4125
969.15137	20462.0125
972.89929	20321.4125
976.64461	20221.0125
980.38733	20184.0125
984.12747	20264.6125
987.86502	20431.0125
991.59999	20662.2125
995.33237	21113.9125
999.06217	21875.7125
1002.78939	22836.9125
1006.51404	23558.7125
1010.23611	23974.0125
1013.95561	24213.1125
1017.67255	24205.9125
1021.38692	23817.0125
1025.09872	23433.0125
1028.80796	23460.4125
1032.51465	24023.1125
1036.21877	24590.9125
1039.92035	24699.5125
1043.61937	24316.2125
1047.31584	23742.0125
1051.00976	23150.2125
1054.70114	22867.4125
1058.38998	22865.8125
1062.07627	23065.0125
1065.76003	23250.4125
1069.44126	23600.1125
1073.11995	24043.9125
1076.79611	24352.8125
1080.46974	24564.2125
1084.14085	24835.5125
1087.80943	25276.9125
1091.47549	25613.1125
1095.13903	25583.4125
1098.80005	25123.9125
1102.45857	24174.9125
1106.11456	23521.6125
1109.76805	23198.7125
1113.41903	23270.1125
1117.06751	23570.5125
1120.71348	24019.9125
1124.35696	24521.6125
1127.99793	25064.2125
1131.63641	25377.2125
1135.2724	25061.9125
1138.90589	24702.8125
1142.5369	24494.5125
1146.16542	24497.2125
1149.79145	24643.8125
1153.415	24935.5125
1157.03607	25416.5125
1160.65467	26312.1125
1164.27079	27663.8125
1167.88443	29625.7125
1171.49561	32267.6125
1175.10432	35911.8125
1178.71056	40435.4125
1182.31434	44552.2125
1185.91565	46791.3125
1189.51451	47004.0125
1193.11091	45593.4125
1196.70485	43049.1125
1200.29634	40315.0125
1203.88538	38042.3125
1207.47197	36234.8125
1211.05612	34845.8125
1214.63782	33884.1125
1218.21708	33278.8125
1221.79391	33093.4125
1225.36829	32932.2125
1228.94024	32650.0125
1232.50976	32095.2125
1236.07685	31631.1125
1239.6415	31135.2125
1243.20374	30807.2125
1246.76355	30689.9125
1250.32093	30980.2125
1253.8759	31824.7125
1257.42845	33059.1125
1260.97859	34419.9125
1264.52631	35762.6125
1268.07163	37079.7125
1271.61453	38580.3125
1275.15503	40111.7125
1278.69312	41541.0125
1282.22882	42808.4125
1285.76211	44117.9125
1289.29301	45816.5125
1292.82151	47881.2125
1296.34761	50430.7125
1299.87133	53663.4125
1303.39266	57539.2125
1306.9116	61909.3125
1310.42815	66574.4125
1313.94233	70096.9125
1317.45412	70979.4125
1320.96354	69936.4125
1324.47058	68330.9125
1327.97525	66539.9125
1331.47754	65037.6125
1334.97747	63947.3125
1338.47502	63152.3125
1341.97022	62304.2125
1345.46305	61020.5125
1348.95352	59441.8125
1352.44163	58230.7125
1355.92738	58579.4125
1359.41078	61306.9125
1362.89183	64992.3125
1366.37053	64860.3125
1369.84688	59465.0125
1373.32088	52333.6125
1376.79254	47259.0125
1380.26186	44989.3125
1383.72883	44465.3125
1387.19347	44295.0125
1390.65578	44110.8125
1394.11575	44202.1125
1397.57339	45068.6125
1401.0287	46386.0125
1404.48168	47635.0125
1407.93234	47985.0125
1411.38068	47233.2125
1414.82669	45264.1125
1418.27039	42708.9125
1421.71177	40085.6125
1425.15083	37965.1125
1428.58758	36773.4125
1432.02203	36528.5125
1435.45416	37155.2125
1438.88399	38211.6125
1442.31151	39200.3125
1445.73673	40185.3125
1449.15965	41263.4125
1452.58027	42040.4125
1455.9986	42579.5125
1459.41463	43004.4125
1462.82837	43624.4125
1466.23982	44440.4125
1469.64898	44950.9125
1473.05586	45090.6125
1476.46045	44871.6125
1479.86276	44384.5125
1483.26279	43942.0125
1486.66054	43790.5125
1490.05602	44087.6125
1493.44922	44642.2125
1496.84016	45400.6125
1500.22882	46573.7125
1503.61521	48563.8125
1506.99934	51055.8125
1510.38121	53762.0125
1513.76081	55279.2125
1517.13816	54375.8125
1520.51324	51459.8125
1523.88607	48350.5125
1527.25665	46274.3125
1530.62498	45175.3125
1533.99105	44500.0125
1537.35488	44009.5125
1540.71647	43430.7125
1544.07581	42453.4125
1547.4329	41367.7125
1550.78776	40390.7125
1554.14038	39772.9125
1557.49077	39667.6125
1560.83892	39777.3125
1564.18484	40049.0125
1567.52853	40191.8125
1570.86999	40402.1125
1574.20922	41044.3125
1577.54624	41759.8125
1580.88103	41907.4125
1584.2136	42065.0125
1587.54395	43255.6125
1590.87208	45678.3125
1594.19801	48749.2125
1597.52172	51776.5125
1600.84321	52566.6125
1604.16251	49672.9125
1607.47959	44846.2125
1610.79447	39942.8125
1614.10715	35598.6125
1617.41763	32145.9125
1620.7259	29846.1125
1624.03199	28635.5125
1627.33587	28667.8125
1630.63757	29665.8125
1633.93707	32088.8125
1637.23439	35920.2125
1640.52951	41112.7125
1643.82246	46841.7125
1647.11321	51348.3125
1650.40179	52714.0125
1653.68819	49404.3125
1656.97241	42628.9125
1660.25446	35288.8125
1663.53433	29559.0125
1666.81203	25818.5125
1670.08756	23513.0125
1673.36092	22105.1125
1676.63211	21148.7125
1679.90115	20556.1125
1683.16801	20056.8125
1686.43272	19765.7125
1689.69527	19543.6125
1692.95567	19348.7125
1696.2139	19222.3125
1699.46999	19137.1125
1702.72392	19063.2125
1705.97571	18996.8125
1709.22535	18918.0125
1712.47284	18884.0125
1715.71819	18852.8125
1718.96139	18782.2125
1722.20246	18687.9125
1725.44139	18585.2125
1728.67818	18451.9125
1731.91284	18278.4125
1735.14537	18173.2125
1738.37576	18083.5125
1741.60403	17984.1125
1744.83017	17917.2125
1748.05418	17904.0125
1751.27607	17811.4125
1754.49584	17799.9125
1757.71349	17789.0125
1760.92903	17742.8125
1764.14244	17720.6125
1767.35375	17709.9125
1770.56294	17658.1125
1773.77002	17654.5125
1776.97499	17584.4125
1780.17785	17527.7125
1783.37861	17527.1125
1786.57727	17504.5125
1789.77382	17417.2125
1792.96828	17442.2125
1796.16064	17423.7125
1799.3509	17330.7125
1802.53907	17341.5125
1805.72514	17340.3125
1808.90913	17254.7125
1812.09102	17233.6125
1815.27083	17203.7125
1818.44856	17168.5125
1821.6242	17169.8125
1824.79776	17174.9125
1827.96924	17127.2125
1831.13864	17135.4125
1834.30597	17159.3125
1837.47122	17157.8125
1840.6344	17192.4125
1843.7955	17222.4125
1846.95454	17229.1125
1850.11151	17253.6125
1853.26642	17245.4125
1856.41926	17242.2125
1859.57004	17292.6125
1862.71876	17273.7125
1865.86542	17287.2125
1869.01003	17304.6125
1872.15258	17315.0125
1875.29308	17331.6125
1878.43152	17363.9125
1881.56792	17393.7125
1884.70227	17415.8125
1887.83457	17416.0125
1890.96482	17395.2125
1894.09304	17448.3125
1897.21921	17459.9125
1900.34335	17469.8125
1903.46544	17492.2125
1906.58551	17515.2125
1909.70353	17505.5125
1912.81953	17499.1125
1915.93349	17442.3125
1919.04543	17390.9125
1922.15534	17340.0125
1925.26322	17230.1125
1928.36908	17179.5125
1931.47292	17087.7125
1934.57473	16964.6125
1937.67453	16862.3125
1940.77232	16762.3125
1943.86808	16706.1125
1946.96184	16577.2125
1950.05358	16476.3125
1953.14331	16416.4125
1956.23103	16310.0125
1959.31675	16282.9125
1962.40046	16211.5125
1965.48217	16142.3125
1968.56188	16089.2125
1971.63959	16024.0125
1974.7153	15981.8125
1977.78901	15898.4125
1980.86073	15868.3125
1983.93046	15823.7125
1986.99819	15752.0125
1990.06394	15731.0125
1993.1277	15703.1125
1996.18947	15626.9125
1999.24925	15525.6125
2002.30706	15494.0125
2005.36288	15417.4125
2008.41672	15414.0125
2011.46859	15376.9125
2014.51848	15347.3125
2017.56639	15292.8125
2020.61233	15235.8125
2023.6563	15205.1125
2026.6983	15187.9125
2029.73833	15185.7125
2032.7764	15139.6125
2035.8125	15133.1125
2038.84664	15123.2125
2041.87881	15079.9125
2044.90903	15065.8125
2047.93729	15048.9125
2050.96359	15012.7125
2053.98794	15018.2125
2057.01034	14992.1125
2060.03078	14956.4125
2063.04927	14925.3125
2066.06582	14909.1125
2069.08042	14912.4125
2072.09307	14925.4125
2075.10378	14895.3125
2078.11255	14891.7125
2081.11938	14879.7125
2084.12426	14903.6125
2087.12722	14889.6125
2090.12824	14863.6125
2093.12732	14883.5125
2096.12447	14892.3125
2099.11969	14907.1125
2102.11299	14876.3125
2105.10435	14891.0125
2108.09379	14883.5125
2111.08131	14895.5125
2114.0669	14873.6125
2117.05057	14880.0125
2120.03233	14900.2125
2123.01216	14925.9125
2125.99008	14907.3125
2128.96609	14915.9125
2131.94018	14935.3125
2134.91236	14926.7125
2137.88263	14927.3125
2140.851	14944.2125
2143.81746	14976.1125
2146.78201	14961.2125
2149.74466	14949.3125
2152.7054	14973.6125
2155.66425	14959.9125
2158.6212	14966.3125
2161.57625	14944.2125
2164.52941	14946.5125
2167.48067	14933.5125
2170.43004	14955.3125
2173.37752	14928.9125
2176.32311	14922.6125
2179.26681	14957.1125
2182.20863	14953.5125
2185.14856	14961.6125
2188.08661	14965.0125
2191.02278	14967.0125
2193.95707	14956.2125
2196.88948	14949.4125
2199.82001	14926.8125
2202.74867	14931.2125
2205.67545	14941.9125
2208.60037	14935.4125
2211.52341	14911.4125
2214.44458	14925.0125
2217.36388	14871.8125
2220.28132	14866.4125
2223.1969	14837.8125
2226.11061	14802.2125
2229.02246	14768.6125
2231.93245	14784.9125
2234.84058	14720.0125
2237.74686	14709.6125
2240.65128	14697.7125
2243.55385	14642.5125
2246.45456	14652.6125
2249.35343	14610.5125
2252.25044	14560.4125
2255.14561	14575.6125
2258.03893	14550.1125
2260.93041	14504.1125
2263.82004	14520.9125
2266.70783	14498.8125
2269.59378	14467.0125
2272.4779	14404.8125
2275.36017	14410.8125
2278.24061	14362.4125
2281.11922	14312.3125
2283.996	14327.6125
2286.87094	14303.0125
2289.74405	14279.8125
2292.61534	14270.9125
2295.4848	14231.5125
2298.35243	14229.5125
2301.21824	14231.1125
2304.08223	14230.6125
2306.94439	14229.7125
2309.80474	14267.1125
2312.66327	14291.8125
2315.51999	14275.6125
2318.37489	14282.1125
2321.22797	14261.5125
2324.07925	14282.1125
2326.92871	14246.2125
2329.77637	14230.6125
2332.62222	14239.6125
2335.46626	14283.0125
2338.3085	14250.1125
2341.14893	14253.6125
2343.98756	14315.0125
2346.8244	14301.0125
2349.65943	14312.7125
2352.49267	14300.9125
2355.32411	14306.6125
2358.15376	14301.6125
2360.98161	14297.3125
2363.80768	14288.1125
2366.63195	14315.0125
2369.45444	14290.9125
2372.27514	14250.2125
2375.09405	14199.8125
2377.91118	14185.8125
2380.72652	14115.6125
2383.54009	14088.3125
2386.35187	14079.8125
2389.16188	14025.1125
2391.97011	13980.4125
2394.77657	13979.8125
2397.58125	13969.3125
2400.38416	13941.4125
2403.18529	13932.1125
2405.98466	13869.4125
2408.78226	13834.5125
2411.57809	13826.3125
2414.37216	13808.6125
2417.16446	13794.8125
2419.955	13778.4125
2422.74378	13764.6125
2425.5308	13776.6125
2428.31606	13763.6125
2431.09956	13777.6125
2433.88131	13699.5125
2436.6613	13734.9125
2439.43954	13750.5125
2442.21603	13736.7125
2444.99077	13756.4125
2447.76377	13752.6125
2450.53501	13754.4125
2453.30451	13769.1125
2456.07226	13768.1125
2458.83827	13768.8125
2461.60254	13788.9125
2464.36507	13780.4125
2467.12586	13787.5125
2469.88492	13771.5125
2472.64224	13790.5125
2475.39782	13797.5125
2478.15167	13818.8125
2480.90379	13819.8125
2483.65417	13856.9125
2486.40283	13856.4125
2489.14976	13839.8125
2491.89497	13893.6125
2494.63845	13900.9125
2497.3802	13921.1125
2500.12024	13938.7125
2502.85855	13916.6125
2505.59514	13918.3125
2508.33002	13908.0125
2511.06318	13844.9125
2513.79462	13848.2125
2516.52435	13808.3125
2519.25237	13821.9125
2521.97867	13800.7125
2524.70327	13782.1125
2527.42616	13775.4125
2530.14734	13762.7125
2532.86681	13762.9125
2535.58458	13724.0125
2538.30065	13715.3125
2541.01501	13724.4125
2543.72768	13703.3125
2546.43864	13675.8125
2549.14791	13684.9125
2551.85548	13679.8125
2554.56136	13676.2125
2557.26554	13661.9125
2559.96803	13622.8125
2562.66883	13642.6125
2565.36794	13672.9125
2568.06536	13635.3125
2570.7611	13646.2125
2573.45514	13627.0125
2576.14751	13631.7125
2578.83819	13623.0125
2581.52719	13636.3125
2584.21451	13615.3125
2586.90015	13645.8125
2589.58411	13602.4125
2592.2664	13625.1125
2594.94701	13612.6125
2597.62594	13629.2125
2600.30321	13567.1125
2602.9788	13582.0125
2605.65273	13582.2125
2608.32498	13618.6125
2610.99557	13598.1125
2613.66449	13638.3125
2616.33175	13631.5125
2618.99734	13645.6125
2621.66128	13660.8125
2624.32355	13679.1125
2626.98416	13680.0125
2629.64311	13694.8125
2632.30041	13698.6125
2634.95605	13673.8125
2637.61004	13668.9125
2640.26238	13639.4125
2642.91306	13637.8125
2645.56209	13593.4125
2648.20948	13617.8125
2650.85521	13602.2125
2653.4993	13603.2125
2656.14175	13609.4125
2658.78255	13631.2125
2661.42171	13619.8125
2664.05923	13627.3125
2666.6951	13621.8125
2669.32934	13646.6125
2671.96194	13661.4125
2674.59291	13674.7125
2677.22224	13652.5125
2679.84993	13646.6125
2682.476	13687.9125
2685.10043	13646.6125
2687.72324	13615.0125
2690.34441	13618.4125
2692.96396	13582.9125
2695.58188	13630.1125
2698.19818	13612.9125
2700.81285	13627.6125
2703.4259	13584.1125
2706.03733	13609.2125
2708.64714	13619.4125
2711.25533	13639.0125
2713.86191	13611.4125
2716.46687	13662.2125
2719.07021	13657.3125
2721.67194	13661.0125
2724.27206	13628.6125
2726.87057	13636.3125
2729.46747	13641.7125
2732.06276	13685.8125
2734.65644	13655.2125
2737.24852	13676.9125
2739.83899	13634.2125
2742.42786	13648.6125
2745.01513	13660.7125
2747.60079	13645.8125
2750.18486	13680.4125
2752.76733	13677.7125
2755.3482	13684.8125
2757.92747	13683.4125
2760.50515	13679.5125
2763.08123	13678.9125
2765.65573	13657.9125
2768.22863	13657.7125
2770.79994	13657.8125
2773.36967	13687.9125
2775.9378	13650.6125
2778.50435	13675.7125
2781.06932	13671.8125
2783.6327	13660.9125
2786.1945	13651.2125
2788.75471	13632.5125
2791.31335	13607.9125
2793.87041	13609.8125
2796.42589	13583.9125
2798.97979	13597.9125
2801.53212	13556.9125
2804.08288	13534.3125
2806.63206	13504.8125
2809.17967	13516.5125
2811.72571	13506.6125
2814.27018	13494.4125
2816.81308	13502.0125
2819.35442	13503.6125
2821.89419	13489.8125
2824.43239	13499.4125
2826.96904	13453.9125
2829.50412	13460.9125
2832.03763	13407.8125
2834.56959	13444.4125
2837.1	13422.7125
2839.62884	13444.9125
2842.15613	13470.4125
2844.68186	13518.7125
2847.20604	13547.5125
2849.72867	13574.7125
2852.24974	13597.1125
2854.76927	13605.7125
2857.28724	13576.4125
2859.80367	13542.2125
2862.31855	13536.5125
2864.83189	13535.6125
2867.34368	13487.2125
2869.85393	13555.5125
2872.36264	13532.4125
2874.8698	13564.5125
2877.37543	13547.7125
2879.87952	13568.2125
2882.38207	13593.2125
2884.88308	13603.9125
2887.38256	13628.6125
2889.88051	13604.9125
2892.37692	13607.8125
2894.8718	13606.8125
2897.36515	13621.6125
2899.85698	13621.2125
2902.34727	13655.1125
2904.83604	13675.7125
2907.32328	13708.3125
2909.809	13702.3125
2912.29319	13710.7125
2914.77587	13716.6125
2917.25702	13691.1125
2919.73665	13689.0125
2922.21476	13674.6125
2924.69136	13677.8125
2927.16644	13637.2125
2929.64	13635.9125
2932.11205	13603.9125
2934.58258	13589.0125
2937.05161	13585.3125
2939.51912	13561.8125
2941.98513	13517.2125
2944.44962	13492.2125
2946.91261	13410.5125
2949.37409	13405.7125
2951.83407	13380.7125
2954.29254	13357.0125
2956.74951	13331.7125
2959.20498	13292.4125
2961.65895	13259.1125
2964.11142	13267.8125
2966.56239	13207.3125
2969.01186	13202.9125
2971.45984	13158.1125
2973.90632	13120.0125
2976.35131	13079.2125
2978.7948	13022.9125
2981.23681	12990.6125
2983.67732	12955.1125
2986.11635	12927.6125
2988.55388	12888.8125
2990.98993	12868.4125
2993.4245	12835.5125
2995.85758	12824.2125
2998.28917	12764.9125
3000.71928	12746.3125
3003.14791	12767.5125
3005.57506	12745.8125
3008.00073	12698.9125
3010.42493	12700.9125
3012.84764	12645.6125
3015.26888	12670.3125
3017.68865	12604.8125
3020.10694	12568.0125
3022.52376	12541.6125
