Data from AgNPs_FTO_APTES_UA_2uM_CRN_20uM_R6G_10uM_NaF_0.1M_Addition_RamanShift__27__14-29-15-219.txt Node

Date: Wed Feb 02 14:29:15 GMT 2022
User: TCL
Spectrometer: QEP01345
Trigger mode: 4
Integration Time (sec): 7.000000E0
Scans to average: 10
Electric dark correction enabled: true
Nonlinearity correction enabled: false
Boxcar width: 0
XAxis mode: Raman Shifts
Number of Pixels in Spectrum: 1044
>>>>>Begin Spectral Data<<<<<
46.04893	1.1125
50.45542	1.3125
54.85868	-1.9875
59.25871	-1.2875
63.6555	84.9125
68.04907	93.0125
72.43941	90.6125
76.82654	102.7125
81.21044	104.0125
85.59113	109.5125
89.96862	115.0125
94.34289	117.0125
98.71396	118.7125
103.08183	127.2125
107.4465	128.9125
111.80798	128.6125
116.16626	135.7125
120.52136	140.6125
124.87327	144.2125
129.222	149.3125
133.56755	163.9125
137.90993	172.9125
142.24913	190.6125
146.58517	210.7125
150.91804	244.4125
155.24774	291.7125
159.57429	356.5125
163.89768	458.9125
168.21792	604.8125
172.53501	818.6125
176.84895	1135.6125
181.15975	1587.7125
185.46741	2225.1125
189.77193	3056.2125
194.07331	4080.2125
198.37157	5241.3125
202.6667	6477.2125
206.9587	7709.3125
211.24758	8912.7125
215.53334	10203.9125
219.81599	11568.1125
224.09553	13162.3125
228.37195	14864.5125
232.64527	16751.8125
236.91549	18660.4125
241.18261	20437.9125
245.44663	21922.0125
249.70755	23086.7125
253.96539	24218.0125
258.22014	25184.2125
262.4718	26109.3125
266.72039	26822.8125
270.96589	27277.8125
275.20832	27484.9125
279.44768	27424.3125
283.68397	27285.9125
287.91719	27255.1125
292.14735	27485.8125
296.37445	27910.4125
300.59849	28537.5125
304.81948	29208.3125
309.03742	29591.5125
313.25231	29317.2125
317.46415	27978.9125
321.67296	26069.6125
325.87872	24436.7125
330.08145	23622.6125
334.28114	23471.4125
338.47781	23728.3125
342.67145	24265.8125
346.86207	25083.3125
351.04966	26300.4125
355.23424	27623.2125
359.4158	28629.4125
363.59435	29088.2125
367.76989	29164.6125
371.94243	29103.4125
376.11196	28946.1125
380.27849	28772.0125
384.44203	28539.6125
388.60257	28354.8125
392.76012	28335.8125
396.91468	28701.4125
401.06626	29384.4125
405.21485	29905.6125
409.36047	29497.8125
413.50311	28219.9125
417.64277	27087.0125
421.77947	26521.0125
425.9132	26332.6125
430.04396	26423.2125
434.17176	26567.8125
438.2966	26879.9125
442.41849	27484.0125
446.53742	28301.2125
450.6534	29203.2125
454.76644	29851.5125
458.87653	30047.2125
462.98368	29883.4125
467.08789	29487.8125
471.18916	28957.5125
475.2875	28387.5125
479.38291	27995.5125
483.4754	27650.9125
487.56496	27150.8125
491.6516	26643.4125
495.73531	26314.4125
499.81612	26188.7125
503.89401	26419.8125
507.96899	26641.6125
512.04106	26697.4125
516.11023	26730.0125
520.1765	26728.4125
524.23987	26484.9125
528.30034	25994.5125
532.35792	25486.1125
536.41261	24938.1125
540.46441	24485.8125
544.51333	24380.2125
548.55936	24782.3125
552.60252	25548.5125
556.64279	26480.2125
560.6802	27057.7125
564.71473	27492.1125
568.7464	28580.4125
572.7752	29526.3125
576.80114	29270.2125
580.82422	28657.0125
584.84444	28306.2125
588.86181	28197.5125
592.87633	28241.0125
596.888	28578.3125
600.89682	29296.3125
604.9028	31915.5125
608.90594	38821.3125
612.90624	47373.0125
616.90371	44814.6125
620.89834	32319.3125
624.89015	26388.8125
628.87913	25389.8125
632.86528	25561.9125
636.84862	25841.0125
640.82913	25332.2125
644.80683	24124.0125
648.78172	23323.2125
652.75379	23251.2125
656.72306	24075.3125
660.68952	25168.2125
664.65319	25032.0125
668.61405	23980.0125
672.57211	23457.9125
676.52738	23456.3125
680.47986	23429.2125
684.42955	23244.1125
688.37646	23120.7125
692.32058	23232.5125
696.26192	23529.2125
700.20048	23884.7125
704.13626	24127.1125
708.06928	24184.3125
711.99952	23921.7125
715.927	23766.6125
719.85171	23820.7125
723.77365	23703.7125
727.69284	23384.8125
731.60928	23031.2125
735.52295	22916.5125
739.43388	22982.1125
743.34206	23087.9125
747.24749	23282.7125
751.15017	23575.4125
755.05012	24148.4125
758.94733	25459.0125
762.8418	28122.0125
766.73354	32549.1125
770.62254	37039.9125
774.50882	38575.2125
778.39237	36172.2125
782.27321	31452.0125
786.15132	27189.1125
790.02671	24747.4125
793.89938	23567.6125
797.76935	23053.8125
801.6366	22810.5125
805.50115	22690.6125
809.36299	22494.3125
813.22213	22361.0125
817.07857	22286.5125
820.93231	22316.4125
824.78336	22288.6125
828.63172	22351.3125
832.47738	22360.0125
836.32036	22333.4125
840.16066	22246.6125
843.99827	22167.9125
847.8332	22080.3125
851.66546	22013.2125
855.49504	21966.7125
859.32195	21906.1125
863.1462	21754.7125
866.96777	21633.3125
870.78668	21580.0125
874.60293	21595.0125
878.41652	21636.0125
882.22745	21748.8125
886.03573	21832.1125
889.84136	21794.4125
893.64433	21669.6125
897.44466	21560.8125
901.24235	21503.3125
905.0374	21473.9125
908.8298	21441.3125
912.61957	21505.2125
916.40671	21717.7125
920.19121	22069.0125
923.97308	22361.7125
927.75233	22479.8125
931.52895	22439.6125
935.30295	22112.8125
939.07433	21452.1125
942.84309	20865.4125
946.60924	20568.3125
950.37278	20426.0125
954.13371	20280.2125
957.89203	20258.0125
961.64774	20179.5125
965.40086	20156.1125
969.15137	20085.3125
972.89929	19961.7125
976.64461	19916.4125
980.38733	19903.2125
984.12747	19963.6125
987.86502	20125.1125
991.59999	20373.9125
995.33237	20675.5125
999.06217	21297.7125
1002.78939	22126.2125
1006.51404	22840.1125
1010.23611	23406.8125
1013.95561	23757.7125
1017.67255	23719.0125
1021.38692	23321.1125
1025.09872	22910.3125
1028.80796	22768.6125
1032.51465	23016.0125
1036.21877	23389.2125
1039.92035	23510.1125
1043.61937	23445.2125
1047.31584	23072.4125
1051.00976	22706.9125
1054.70114	22538.0125
1058.38998	22550.5125
1062.07627	22766.8125
1065.76003	22991.2125
1069.44126	23317.3125
1073.11995	23584.4125
1076.79611	23867.7125
1080.46974	24133.9125
1084.14085	24548.6125
1087.80943	25191.7125
1091.47549	25523.3125
1095.13903	25328.3125
1098.80005	24615.7125
1102.45857	23819.8125
1106.11456	23276.2125
1109.76805	23176.9125
1113.41903	23473.8125
1117.06751	24082.9125
1120.71348	24815.4125
1124.35696	25625.8125
1127.99793	26477.8125
1131.63641	26557.1125
1135.2724	25752.9125
1138.90589	24902.3125
1142.5369	24399.9125
1146.16542	24162.5125
1149.79145	24097.8125
1153.415	24272.5125
1157.03607	24729.8125
1160.65467	25441.2125
1164.27079	26572.7125
1167.88443	28215.5125
1171.49561	30684.2125
1175.10432	34433.0125
1178.71056	39245.7125
1182.31434	43132.6125
1185.91565	44822.6125
1189.51451	44553.2125
1193.11091	42676.6125
1196.70485	39954.1125
1200.29634	37409.0125
1203.88538	35267.8125
1207.47197	33180.3125
1211.05612	31403.9125
1214.63782	30454.2125
1218.21708	30010.5125
1221.79391	29948.0125
1225.36829	29996.1125
1228.94024	29950.6125
1232.50976	29827.1125
1236.07685	29777.3125
1239.6415	29562.7125
1243.20374	29485.2125
1246.76355	29557.7125
1250.32093	29997.5125
1253.8759	30780.2125
1257.42845	31805.8125
1260.97859	32986.7125
1264.52631	33976.0125
1268.07163	35050.4125
1271.61453	36174.4125
1275.15503	37211.9125
1278.69312	38011.8125
1282.22882	38585.2125
1285.76211	39538.1125
1289.29301	40861.4125
1292.82151	42310.4125
1296.34761	44054.2125
1299.87133	46401.4125
1303.39266	49702.3125
1306.9116	54375.1125
1310.42815	59810.2125
1313.94233	63875.8125
1317.45412	64527.4125
1320.96354	62649.8125
1324.47058	59936.8125
1327.97525	57409.9125
1331.47754	55453.3125
1334.97747	54619.5125
1338.47502	54487.8125
1341.97022	54849.6125
1345.46305	55013.9125
1348.95352	55205.1125
1352.44163	55852.2125
1355.92738	58151.2125
1359.41078	63263.5125
1362.89183	69101.7125
1366.37053	68212.6125
1369.84688	59904.2125
1373.32088	50742.0125
1376.79254	44940.6125
1380.26186	42335.7125
1383.72883	41296.4125
1387.19347	40628.9125
1390.65578	39929.4125
1394.11575	39554.4125
1397.57339	39828.1125
1401.0287	40662.1125
1404.48168	41755.7125
1407.93234	42479.4125
1411.38068	42553.2125
1414.82669	41641.1125
1418.27039	40010.3125
1421.71177	38065.8125
1425.15083	36412.5125
1428.58758	35315.0125
1432.02203	35029.7125
1435.45416	35315.5125
1438.88399	35864.6125
1442.31151	36371.8125
1445.73673	36894.0125
1449.15965	37514.6125
1452.58027	38007.8125
1455.9986	38232.2125
1459.41463	38491.0125
1462.82837	39101.0125
1466.23982	39897.0125
1469.64898	40714.0125
1473.05586	41200.1125
1476.46045	41246.0125
1479.86276	41308.9125
1483.26279	41512.2125
1486.66054	41824.2125
1490.05602	42455.5125
1493.44922	43308.2125
1496.84016	44716.5125
1500.22882	46907.0125
1503.61521	50324.6125
1506.99934	54522.5125
1510.38121	59072.1125
1513.76081	62009.2125
1517.13816	60778.7125
1520.51324	55920.2125
1523.88607	50430.2125
1527.25665	46399.2125
1530.62498	43959.7125
1533.99105	42452.6125
1537.35488	41568.6125
1540.71647	40814.8125
1544.07581	40171.6125
1547.4329	39541.7125
1550.78776	38950.4125
1554.14038	38697.6125
1557.49077	38881.2125
1560.83892	39375.6125
1564.18484	40068.9125
1567.52853	40539.4125
1570.86999	40855.4125
1574.20922	41162.6125
1577.54624	41182.7125
1580.88103	40167.8125
1584.2136	39024.9125
1587.54395	38926.7125
1590.87208	40412.5125
1594.19801	43015.1125
1597.52172	46021.8125
1600.84321	47113.1125
1604.16251	45201.8125
1607.47959	41745.1125
1610.79447	38017.9125
1614.10715	34447.9125
1617.41763	31483.1125
1620.7259	29482.1125
1624.03199	28414.6125
1627.33587	28308.2125
1630.63757	29081.6125
1633.93707	30911.2125
1637.23439	33855.9125
1640.52951	37836.6125
1643.82246	42592.0125
1647.11321	47145.3125
1650.40179	49885.5125
1653.68819	48161.2125
1656.97241	42041.9125
1660.25446	34894.8125
1663.53433	29379.9125
1666.81203	25871.7125
1670.08756	23723.2125
1673.36092	22410.4125
1676.63211	21532.0125
1679.90115	20956.5125
1683.16801	20562.6125
1686.43272	20234.2125
1689.69527	20015.3125
1692.95567	19842.2125
1696.2139	19742.2125
1699.46999	19665.7125
1702.72392	19592.3125
1705.97571	19510.7125
1709.22535	19453.0125
1712.47284	19401.2125
1715.71819	19398.8125
1718.96139	19375.9125
1722.20246	19319.8125
1725.44139	19206.0125
1728.67818	19073.7125
1731.91284	18933.2125
1735.14537	18816.1125
1738.37576	18701.7125
1741.60403	18633.9125
1744.83017	18529.2125
1748.05418	18475.8125
1751.27607	18458.5125
1754.49584	18413.5125
1757.71349	18396.2125
1760.92903	18373.3125
1764.14244	18347.0125
1767.35375	18277.9125
1770.56294	18261.0125
1773.77002	18198.6125
1776.97499	18142.1125
1780.17785	18083.7125
1783.37861	18053.6125
1786.57727	18046.4125
1789.77382	17943.0125
1792.96828	17943.3125
1796.16064	17944.0125
1799.3509	17970.7125
1802.53907	17865.3125
1805.72514	17799.2125
1808.90913	17762.0125
1812.09102	17701.4125
1815.27083	17683.1125
1818.44856	17683.5125
1821.6242	17672.3125
1824.79776	17624.1125
1827.96924	17596.6125
1831.13864	17587.5125
1834.30597	17575.3125
1837.47122	17577.9125
1840.6344	17561.5125
1843.7955	17548.0125
1846.95454	17597.8125
1850.11151	17589.4125
1853.26642	17585.8125
1856.41926	17587.7125
1859.57004	17602.3125
1862.71876	17611.7125
1865.86542	17609.7125
1869.01003	17642.8125
1872.15258	17641.4125
1875.29308	17636.8125
1878.43152	17639.3125
1881.56792	17692.8125
1884.70227	17719.3125
1887.83457	17735.7125
1890.96482	17743.2125
1894.09304	17775.2125
1897.21921	17794.9125
1900.34335	17786.3125
1903.46544	17783.7125
1906.58551	17837.9125
1909.70353	17830.9125
1912.81953	17800.2125
1915.93349	17829.6125
1919.04543	17791.9125
1922.15534	17777.2125
1925.26322	17719.4125
1928.36908	17635.8125
1931.47292	17516.7125
1934.57473	17398.6125
1937.67453	17310.6125
1940.77232	17224.4125
1943.86808	17134.0125
1946.96184	17057.2125
1950.05358	16949.4125
1953.14331	16846.4125
1956.23103	16777.5125
1959.31675	16721.4125
1962.40046	16672.9125
1965.48217	16597.2125
1968.56188	16581.1125
1971.63959	16500.1125
1974.7153	16470.0125
1977.78901	16410.8125
1980.86073	16345.5125
1983.93046	16297.9125
1986.99819	16219.7125
1990.06394	16184.5125
1993.1277	16127.4125
1996.18947	16051.2125
1999.24925	16034.2125
2002.30706	15983.6125
2005.36288	15903.2125
2008.41672	15911.0125
2011.46859	15838.8125
2014.51848	15805.8125
2017.56639	15742.2125
2020.61233	15716.3125
2023.6563	15653.6125
2026.6983	15680.6125
2029.73833	15571.8125
2032.7764	15612.9125
2035.8125	15536.4125
2038.84664	15509.1125
2041.87881	15472.7125
2044.90903	15467.2125
2047.93729	15448.5125
2050.96359	15421.9125
2053.98794	15377.5125
2057.01034	15393.8125
2060.03078	15380.7125
2063.04927	15332.9125
2066.06582	15328.9125
2069.08042	15281.7125
2072.09307	15303.3125
2075.10378	15277.0125
2078.11255	15259.7125
2081.11938	15238.1125
2084.12426	15230.7125
2087.12722	15214.2125
2090.12824	15202.4125
2093.12732	15209.3125
2096.12447	15202.4125
2099.11969	15214.7125
2102.11299	15253.3125
2105.10435	15214.3125
2108.09379	15203.7125
2111.08131	15197.0125
2114.0669	15197.9125
2117.05057	15246.8125
2120.03233	15221.4125
2123.01216	15261.2125
2125.99008	15265.8125
2128.96609	15245.7125
2131.94018	15290.1125
2134.91236	15292.2125
2137.88263	15311.6125
2140.851	15273.8125
2143.81746	15308.5125
2146.78201	15310.7125
2149.74466	15268.0125
2152.7054	15257.0125
2155.66425	15268.5125
2158.6212	15270.7125
2161.57625	15261.9125
2164.52941	15249.6125
2167.48067	15241.4125
2170.43004	15214.8125
2173.37752	15208.0125
2176.32311	15202.3125
2179.26681	15216.2125
2182.20863	15228.9125
2185.14856	15236.0125
2188.08661	15217.0125
2191.02278	15247.0125
2193.95707	15210.2125
2196.88948	15197.8125
2199.82001	15189.9125
2202.74867	15186.7125
2205.67545	15201.7125
2208.60037	15148.9125
2211.52341	15158.3125
2214.44458	15154.8125
2217.36388	15105.7125
2220.28132	15096.0125
2223.1969	15052.0125
2226.11061	15033.4125
2229.02246	14978.8125
2231.93245	14965.6125
2234.84058	14933.5125
2237.74686	14897.1125
2240.65128	14857.1125
2243.55385	14877.7125
2246.45456	14858.3125
2249.35343	14825.4125
2252.25044	14833.8125
2255.14561	14825.7125
2258.03893	14804.4125
2260.93041	14757.1125
2263.82004	14755.5125
2266.70783	14717.1125
2269.59378	14661.2125
2272.4779	14607.5125
2275.36017	14601.2125
2278.24061	14526.1125
2281.11922	14531.9125
2283.996	14505.9125
2286.87094	14486.1125
2289.74405	14436.2125
2292.61534	14438.9125
2295.4848	14401.4125
2298.35243	14425.4125
2301.21824	14389.4125
2304.08223	14402.4125
2306.94439	14417.0125
2309.80474	14415.3125
2312.66327	14392.0125
2315.51999	14417.3125
2318.37489	14385.9125
2321.22797	14385.9125
2324.07925	14375.1125
2326.92871	14363.7125
2329.77637	14385.3125
2332.62222	14345.7125
2335.46626	14345.5125
2338.3085	14333.4125
2341.14893	14324.0125
2343.98756	14351.1125
2346.8244	14379.5125
2349.65943	14377.6125
2352.49267	14373.4125
2355.32411	14391.1125
2358.15376	14396.8125
2360.98161	14387.3125
2363.80768	14381.6125
2366.63195	14382.8125
2369.45444	14382.9125
2372.27514	14346.2125
2375.09405	14313.6125
2377.91118	14285.9125
2380.72652	14213.4125
2383.54009	14202.3125
2386.35187	14178.2125
2389.16188	14100.6125
2391.97011	14085.2125
2394.77657	14019.4125
2397.58125	14004.9125
2400.38416	13981.7125
2403.18529	13957.1125
2405.98466	13955.1125
2408.78226	13920.4125
2411.57809	13894.7125
2414.37216	13889.5125
2417.16446	13846.4125
2419.955	13831.8125
2422.74378	13838.5125
2425.5308	13841.0125
2428.31606	13839.3125
2431.09956	13805.2125
2433.88131	13789.9125
2436.6613	13803.5125
2439.43954	13789.7125
2442.21603	13768.2125
2444.99077	13773.6125
2447.76377	13760.9125
2450.53501	13780.0125
2453.30451	13771.2125
2456.07226	13775.5125
2458.83827	13776.1125
2461.60254	13774.9125
2464.36507	13793.8125
2467.12586	13767.5125
2469.88492	13748.9125
2472.64224	13778.4125
2475.39782	13741.3125
2478.15167	13825.4125
2480.90379	13804.9125
2483.65417	13820.9125
2486.40283	13861.8125
2489.14976	13903.0125
2491.89497	13876.8125
2494.63845	13901.0125
2497.3802	13952.7125
2500.12024	13886.6125
2502.85855	13918.8125
2505.59514	13871.4125
2508.33002	13859.9125
2511.06318	13801.9125
2513.79462	13781.2125
2516.52435	13748.6125
2519.25237	13745.3125
2521.97867	13732.4125
2524.70327	13716.1125
2527.42616	13671.9125
2530.14734	13672.7125
2532.86681	13681.1125
2535.58458	13662.5125
2538.30065	13624.3125
2541.01501	13619.8125
2543.72768	13598.3125
2546.43864	13600.1125
2549.14791	13583.3125
2551.85548	13599.5125
2554.56136	13601.2125
2557.26554	13586.0125
2559.96803	13583.0125
2562.66883	13538.8125
2565.36794	13518.3125
2568.06536	13522.1125
2570.7611	13494.8125
2573.45514	13489.5125
2576.14751	13503.0125
2578.83819	13483.0125
2581.52719	13478.4125
2584.21451	13441.1125
2586.90015	13463.1125
2589.58411	13444.8125
2592.2664	13472.5125
2594.94701	13431.4125
2597.62594	13465.6125
2600.30321	13433.6125
2602.9788	13443.5125
2605.65273	13411.6125
2608.32498	13454.6125
2610.99557	13440.4125
2613.66449	13437.1125
2616.33175	13413.0125
2618.99734	13460.7125
2621.66128	13446.2125
2624.32355	13467.6125
2626.98416	13491.2125
2629.64311	13480.9125
2632.30041	13458.8125
2634.95605	13445.5125
2637.61004	13431.0125
2640.26238	13392.6125
2642.91306	13409.3125
2645.56209	13367.1125
2648.20948	13395.0125
2650.85521	13386.9125
2653.4993	13368.8125
2656.14175	13372.2125
2658.78255	13400.3125
2661.42171	13396.8125
2664.05923	13402.3125
2666.6951	13418.0125
2669.32934	13442.4125
2671.96194	13445.4125
2674.59291	13460.9125
2677.22224	13484.0125
2679.84993	13447.3125
2682.476	13445.3125
2685.10043	13465.5125
2687.72324	13436.3125
2690.34441	13439.0125
2692.96396	13420.3125
2695.58188	13416.5125
2698.19818	13419.3125
2700.81285	13422.6125
2703.4259	13428.7125
2706.03733	13481.6125
2708.64714	13470.3125
2711.25533	13452.9125
2713.86191	13435.9125
2716.46687	13442.3125
2719.07021	13452.7125
2721.67194	13481.3125
2724.27206	13465.2125
2726.87057	13451.6125
2729.46747	13475.2125
2732.06276	13458.5125
2734.65644	13448.5125
2737.24852	13450.1125
2739.83899	13428.1125
2742.42786	13429.5125
2745.01513	13409.4125
2747.60079	13437.3125
2750.18486	13412.9125
2752.76733	13400.3125
2755.3482	13412.9125
2757.92747	13425.8125
2760.50515	13410.7125
2763.08123	13428.2125
2765.65573	13365.0125
2768.22863	13385.6125
2770.79994	13351.6125
2773.36967	13363.4125
2775.9378	13377.9125
2778.50435	13377.7125
2781.06932	13343.2125
2783.6327	13359.1125
2786.1945	13351.4125
2788.75471	13331.9125
2791.31335	13304.6125
2793.87041	13277.5125
2796.42589	13253.0125
2798.97979	13248.2125
2801.53212	13237.1125
2804.08288	13247.3125
2806.63206	13215.5125
2809.17967	13208.0125
2811.72571	13169.6125
2814.27018	13189.1125
2816.81308	13192.4125
2819.35442	13163.7125
2821.89419	13153.0125
2824.43239	13165.9125
2826.96904	13152.2125
2829.50412	13183.4125
2832.03763	13149.2125
2834.56959	13171.2125
2837.1	13152.4125
2839.62884	13180.4125
2842.15613	13187.1125
2844.68186	13233.1125
2847.20604	13242.2125
2849.72867	13293.7125
2852.24974	13299.5125
2854.76927	13290.4125
2857.28724	13267.3125
2859.80367	13263.8125
2862.31855	13228.7125
2864.83189	13201.3125
2867.34368	13179.1125
2869.85393	13172.9125
2872.36264	13190.2125
2874.8698	13154.0125
2877.37543	13179.9125
2879.87952	13174.2125
2882.38207	13162.1125
2884.88308	13171.6125
2887.38256	13180.2125
2889.88051	13168.6125
2892.37692	13181.5125
2894.8718	13158.3125
2897.36515	13185.6125
2899.85698	13158.0125
2902.34727	13225.7125
2904.83604	13205.6125
2907.32328	13222.1125
2909.809	13206.4125
2912.29319	13201.0125
2914.77587	13232.0125
2917.25702	13201.1125
2919.73665	13168.6125
2922.21476	13196.8125
2924.69136	13218.9125
2927.16644	13197.1125
2929.64	13171.4125
2932.11205	13169.7125
2934.58258	13108.6125
2937.05161	13109.7125
2939.51912	13107.4125
2941.98513	13017.6125
2944.44962	13014.3125
2946.91261	12921.0125
2949.37409	12919.9125
2951.83407	12902.5125
2954.29254	12884.2125
2956.74951	12853.5125
2959.20498	12838.7125
2961.65895	12813.9125
2964.11142	12807.4125
2966.56239	12789.0125
2969.01186	12761.6125
2971.45984	12732.5125
2973.90632	12686.1125
2976.35131	12641.3125
2978.7948	12621.3125
2981.23681	12580.2125
2983.67732	12566.2125
2986.11635	12520.8125
2988.55388	12467.1125
2990.98993	12480.7125
2993.4245	12446.5125
2995.85758	12431.4125
2998.28917	12376.4125
3000.71928	12354.4125
3003.14791	12318.9125
3005.57506	12349.8125
3008.00073	12286.6125
3010.42493	12290.1125
3012.84764	12249.3125
3015.26888	12224.7125
3017.68865	12213.8125
3020.10694	12199.6125
3022.52376	12154.8125
