Data from AgNPs_FTO_APTES_UA_2uM_CRN_50uM_R6G_10uM_NaF_0.1M_Addition_RamanShift__4__14-40-55-232.txt Node

Date: Wed Feb 02 14:40:55 GMT 2022
User: TCL
Spectrometer: QEP01345
Trigger mode: 4
Integration Time (sec): 7.000000E0
Scans to average: 10
Electric dark correction enabled: true
Nonlinearity correction enabled: false
Boxcar width: 0
XAxis mode: Raman Shifts
Number of Pixels in Spectrum: 1044
>>>>>Begin Spectral Data<<<<<
46.04893	-0.2875
50.45542	0.8125
54.85868	-1.9875
59.25871	-1.6875
63.6555	94.0125
68.04907	100.9125
72.43941	102.1125
76.82654	114.6125
81.21044	115.2125
85.59113	122.4125
89.96862	123.9125
94.34289	125.4125
98.71396	132.0125
103.08183	144.2125
107.4465	138.9125
111.80798	143.3125
116.16626	147.5125
120.52136	157.3125
124.87327	180.2125
129.222	168.0125
133.56755	183.1125
137.90993	190.0125
142.24913	208.2125
146.58517	236.0125
150.91804	273.6125
155.24774	325.5125
159.57429	408.9125
163.89768	518.8125
168.21792	686.9125
172.53501	929.7125
176.84895	1291.5125
181.15975	1821.2125
185.46741	2530.8125
189.77193	3492.4125
194.07331	4657.9125
198.37157	5993.3125
202.6667	7399.7125
206.9587	8758.4125
211.24758	10141.9125
215.53334	11496.8125
219.81599	12998.6125
224.09553	14640.0125
228.37195	16408.2125
232.64527	18312.4125
236.91549	20265.3125
241.18261	22245.8125
245.44663	24069.0125
249.70755	25750.1125
253.96539	27220.6125
258.22014	28425.5125
262.4718	29452.6125
266.72039	30193.5125
270.96589	30622.9125
275.20832	30663.5125
279.44768	30545.9125
283.68397	30312.2125
287.91719	30195.1125
292.14735	30112.5125
296.37445	30145.1125
300.59849	30288.1125
304.81948	30479.0125
309.03742	30423.4125
313.25231	30156.1125
317.46415	29512.1125
321.67296	28768.4125
325.87872	28119.7125
330.08145	27700.2125
334.28114	27564.5125
338.47781	27662.5125
342.67145	27900.9125
346.86207	28319.4125
351.04966	28804.2125
355.23424	29283.1125
359.4158	29832.0125
363.59435	30201.8125
367.76989	30463.7125
371.94243	30661.2125
376.11196	30733.3125
380.27849	30822.9125
384.44203	30911.1125
388.60257	31271.8125
392.76012	31631.4125
396.91468	32104.4125
401.06626	32629.8125
405.21485	32959.8125
409.36047	32879.9125
413.50311	32589.7125
417.64277	32491.1125
421.77947	32695.5125
425.9132	32848.6125
430.04396	33032.0125
434.17176	33188.9125
438.2966	33355.9125
442.41849	33862.2125
446.53742	34938.7125
450.6534	36168.3125
454.76644	37038.6125
458.87653	37288.1125
462.98368	36930.8125
467.08789	36350.1125
471.18916	35708.4125
475.2875	35216.5125
479.38291	35060.2125
483.4754	34953.9125
487.56496	34586.0125
491.6516	33849.9125
495.73531	33071.3125
499.81612	32621.9125
503.89401	32663.6125
507.96899	32656.5125
512.04106	32524.4125
516.11023	32094.5125
520.1765	31576.9125
524.23987	31153.7125
528.30034	30796.3125
532.35792	30467.8125
536.41261	30053.2125
540.46441	29733.1125
544.51333	29764.7125
548.55936	30158.1125
552.60252	30954.0125
556.64279	31953.8125
560.6802	32841.5125
564.71473	33366.9125
568.7464	34170.9125
572.7752	35469.1125
576.80114	36820.7125
580.82422	38133.0125
584.84444	39807.6125
588.86181	41764.6125
592.87633	43015.3125
596.888	42295.4125
600.89682	39953.0125
604.9028	39084.4125
608.90594	41025.4125
612.90624	43049.0125
616.90371	39952.7125
620.89834	33657.4125
624.89015	30910.3125
628.87913	30568.6125
632.86528	30664.8125
636.84862	30385.7125
640.82913	29766.4125
644.80683	28976.1125
648.78172	28567.9125
652.75379	28551.5125
656.72306	28846.9125
660.68952	29220.7125
664.65319	28919.7125
668.61405	28336.2125
672.57211	28250.2125
676.52738	28351.4125
680.47986	28412.1125
684.42955	28155.6125
688.37646	27985.7125
692.32058	28220.2125
696.26192	28731.2125
700.20048	29297.5125
704.13626	29610.2125
708.06928	29629.0125
711.99952	29555.5125
715.927	29586.9125
719.85171	29751.5125
723.77365	29643.1125
727.69284	29078.2125
731.60928	28590.7125
735.52295	28356.4125
739.43388	28346.0125
743.34206	28456.0125
747.24749	28676.7125
751.15017	29095.1125
755.05012	29733.5125
758.94733	30827.6125
762.8418	32448.4125
766.73354	34713.7125
770.62254	36539.4125
774.50882	36378.4125
778.39237	34403.8125
782.27321	32007.6125
786.15132	30113.9125
790.02671	28958.3125
793.89938	28457.3125
797.76935	28260.6125
801.6366	28271.5125
805.50115	28236.2125
809.36299	28067.4125
813.22213	27793.2125
817.07857	27573.4125
820.93231	27409.2125
824.78336	27206.7125
828.63172	26999.8125
832.47738	26902.7125
836.32036	26979.4125
840.16066	27114.7125
843.99827	27180.3125
847.8332	27061.5125
851.66546	26963.7125
855.49504	26939.7125
859.32195	26877.4125
863.1462	26758.4125
866.96777	26607.1125
870.78668	26542.6125
874.60293	26497.4125
878.41652	26525.0125
882.22745	26639.3125
886.03573	26730.9125
889.84136	26693.9125
893.64433	26574.6125
897.44466	26463.8125
901.24235	26353.2125
905.0374	26295.9125
908.8298	26274.6125
912.61957	26380.4125
916.40671	26742.6125
920.19121	27264.7125
923.97308	27735.3125
927.75233	27796.4125
931.52895	27408.3125
935.30295	26805.2125
939.07433	26239.6125
942.84309	25769.0125
946.60924	25553.1125
950.37278	25478.6125
954.13371	25543.7125
957.89203	25509.2125
961.64774	25553.1125
965.40086	25597.5125
969.15137	25472.7125
972.89929	25250.3125
976.64461	25143.9125
980.38733	25062.5125
984.12747	25134.3125
987.86502	25314.4125
991.59999	25604.1125
995.33237	26083.4125
999.06217	26815.9125
1002.78939	27770.3125
1006.51404	28426.4125
1010.23611	28847.3125
1013.95561	29165.7125
1017.67255	29283.6125
1021.38692	28844.6125
1025.09872	28355.1125
1028.80796	28367.1125
1032.51465	29039.5125
1036.21877	29821.5125
1039.92035	30147.3125
1043.61937	29895.7125
1047.31584	29265.5125
1051.00976	28558.1125
1054.70114	28168.7125
1058.38998	28160.0125
1062.07627	28298.2125
1065.76003	28549.5125
1069.44126	28935.5125
1073.11995	29437.9125
1076.79611	29813.3125
1080.46974	30056.1125
1084.14085	30300.5125
1087.80943	30739.8125
1091.47549	31016.1125
1095.13903	31079.4125
1098.80005	30611.0125
1102.45857	29738.8125
1106.11456	29094.7125
1109.76805	28765.6125
1113.41903	28796.5125
1117.06751	28986.1125
1120.71348	29298.5125
1124.35696	29566.3125
1127.99793	30033.6125
1131.63641	30345.2125
1135.2724	30308.7125
1138.90589	30382.7125
1142.5369	30542.0125
1146.16542	31014.1125
1149.79145	31477.8125
1153.415	32023.3125
1157.03607	32945.7125
1160.65467	34498.4125
1164.27079	36830.8125
1167.88443	39374.7125
1171.49561	41793.3125
1175.10432	44676.4125
1178.71056	48374.7125
1182.31434	51892.3125
1185.91565	53476.3125
1189.51451	52868.1125
1193.11091	51307.2125
1196.70485	49474.4125
1200.29634	47599.3125
1203.88538	46551.3125
1207.47197	46178.4125
1211.05612	45813.1125
1214.63782	44921.3125
1218.21708	43458.3125
1221.79391	41816.0125
1225.36829	40698.9125
1228.94024	39746.6125
1232.50976	38821.9125
1236.07685	38016.4125
1239.6415	37677.7125
1243.20374	37741.5125
1246.76355	38183.8125
1250.32093	38918.4125
1253.8759	39961.8125
1257.42845	41294.1125
1260.97859	42715.4125
1264.52631	44098.6125
1268.07163	45600.0125
1271.61453	47134.6125
1275.15503	48865.4125
1278.69312	50865.8125
1282.22882	52897.9125
1285.76211	55318.5125
1289.29301	58189.1125
1292.82151	61671.5125
1296.34761	65991.7125
1299.87133	70928.7125
1303.39266	75950.1125
1306.9116	79932.3125
1310.42815	82519.1125
1313.94233	83420.8125
1317.45412	82553.9125
1320.96354	80969.1125
1324.47058	79790.9125
1327.97525	79102.5125
1331.47754	78637.2125
1334.97747	78145.2125
1338.47502	76948.5125
1341.97022	74883.7125
1345.46305	72410.3125
1348.95352	70470.4125
1352.44163	69900.3125
1355.92738	71321.7125
1359.41078	74343.4125
1362.89183	76522.8125
1366.37053	75369.4125
1369.84688	69750.2125
1373.32088	61781.7125
1376.79254	56277.4125
1380.26186	54752.5125
1383.72883	55561.1125
1387.19347	56156.1125
1390.65578	55923.0125
1394.11575	55956.0125
1397.57339	57043.1125
1401.0287	58806.2125
1404.48168	60105.2125
1407.93234	60132.0125
1411.38068	58603.4125
1414.82669	55947.9125
1418.27039	52787.0125
1421.71177	49779.8125
1425.15083	47157.5125
1428.58758	45999.9125
1432.02203	46487.9125
1435.45416	48174.1125
1438.88399	50391.4125
1442.31151	52041.4125
1445.73673	53134.7125
1449.15965	53855.0125
1452.58027	54024.5125
1455.9986	53674.0125
1459.41463	53582.1125
1462.82837	54063.2125
1466.23982	55166.3125
1469.64898	56154.1125
1473.05586	56866.9125
1476.46045	57044.7125
1479.86276	56533.4125
1483.26279	55616.9125
1486.66054	54953.3125
1490.05602	54843.5125
1493.44922	55073.5125
1496.84016	55230.8125
1500.22882	55422.8125
1503.61521	56005.1125
1506.99934	56886.0125
1510.38121	57670.9125
1513.76081	57866.8125
1517.13816	57267.5125
1520.51324	56346.6125
1523.88607	55940.7125
1527.25665	56321.3125
1530.62498	56827.9125
1533.99105	56963.1125
1537.35488	56347.9125
1540.71647	54951.0125
1544.07581	53004.0125
1547.4329	51017.0125
1550.78776	49255.3125
1554.14038	47976.6125
1557.49077	47203.3125
1560.83892	46662.9125
1564.18484	46428.7125
1567.52853	46382.1125
1570.86999	46880.7125
1574.20922	48130.1125
1577.54624	49555.8125
1580.88103	50831.8125
1584.2136	52544.3125
1587.54395	55449.5125
1590.87208	59480.2125
1594.19801	63840.7125
1597.52172	67410.2125
1600.84321	67695.0125
1604.16251	63327.2125
1607.47959	56622.0125
1610.79447	49874.7125
1614.10715	44267.7125
1617.41763	40179.3125
1620.7259	37676.0125
1624.03199	36550.6125
1627.33587	36882.8125
1630.63757	38625.0125
1633.93707	42079.8125
1637.23439	47583.7125
1640.52951	55447.3125
1643.82246	64557.2125
1647.11321	71308.5125
1650.40179	71553.9125
1653.68819	64693.0125
1656.97241	54105.7125
1660.25446	44404.9125
1663.53433	37400.8125
1666.81203	33010.6125
1670.08756	30259.1125
1673.36092	28571.0125
1676.63211	27459.2125
1679.90115	26684.5125
1683.16801	26106.9125
1686.43272	25734.0125
1689.69527	25402.7125
1692.95567	25189.1125
1696.2139	25047.1125
1699.46999	24884.7125
1702.72392	24769.4125
1705.97571	24653.9125
1709.22535	24556.6125
1712.47284	24514.3125
1715.71819	24419.2125
1718.96139	24316.7125
1722.20246	24197.9125
1725.44139	24099.9125
1728.67818	23926.5125
1731.91284	23786.5125
1735.14537	23621.2125
1738.37576	23495.7125
1741.60403	23390.2125
1744.83017	23310.8125
1748.05418	23265.1125
1751.27607	23206.2125
1754.49584	23170.1125
1757.71349	23143.3125
1760.92903	23126.1125
1764.14244	23103.2125
1767.35375	23071.0125
1770.56294	23021.7125
1773.77002	22980.7125
1776.97499	22908.6125
1780.17785	22863.8125
1783.37861	22843.3125
1786.57727	22776.2125
1789.77382	22733.4125
1792.96828	22669.9125
1796.16064	22629.0125
1799.3509	22619.4125
1802.53907	22565.8125
1805.72514	22433.1125
1808.90913	22401.6125
1812.09102	22361.8125
1815.27083	22347.4125
1818.44856	22339.6125
1821.6242	22312.0125
1824.79776	22291.8125
1827.96924	22292.2125
1831.13864	22256.9125
1834.30597	22309.8125
1837.47122	22306.6125
1840.6344	22328.1125
1843.7955	22319.9125
1846.95454	22298.8125
1850.11151	22279.6125
1853.26642	22311.2125
1856.41926	22266.3125
1859.57004	22244.3125
1862.71876	22200.5125
1865.86542	22198.4125
1869.01003	22209.7125
1872.15258	22148.4125
1875.29308	22168.9125
1878.43152	22140.9125
1881.56792	22124.5125
1884.70227	22084.2125
1887.83457	22100.0125
1890.96482	22087.4125
1894.09304	22025.9125
1897.21921	22057.9125
1900.34335	21975.2125
1903.46544	21946.6125
1906.58551	21901.4125
1909.70353	21901.2125
1912.81953	21856.3125
1915.93349	21787.1125
1919.04543	21748.2125
1922.15534	21713.4125
1925.26322	21635.9125
1928.36908	21610.0125
1931.47292	21534.1125
1934.57473	21471.1125
1937.67453	21410.9125
1940.77232	21356.1125
1943.86808	21320.8125
1946.96184	21282.4125
1950.05358	21187.3125
1953.14331	21155.2125
1956.23103	21136.4125
1959.31675	21033.3125
1962.40046	21000.4125
1965.48217	20932.0125
1968.56188	20829.3125
1971.63959	20773.8125
1974.7153	20703.5125
1977.78901	20672.0125
1980.86073	20606.0125
1983.93046	20497.8125
1986.99819	20472.0125
1990.06394	20422.3125
1993.1277	20358.3125
1996.18947	20232.9125
1999.24925	20217.4125
2002.30706	20169.5125
2005.36288	20160.1125
2008.41672	20106.5125
2011.46859	20031.5125
2014.51848	19944.6125
2017.56639	19932.1125
2020.61233	19866.0125
2023.6563	19843.7125
2026.6983	19881.1125
2029.73833	19799.5125
2032.7764	19773.7125
2035.8125	19751.8125
2038.84664	19710.5125
2041.87881	19733.0125
2044.90903	19657.4125
2047.93729	19648.9125
2050.96359	19610.3125
2053.98794	19593.9125
2057.01034	19609.2125
2060.03078	19572.4125
2063.04927	19526.9125
2066.06582	19524.4125
2069.08042	19540.8125
2072.09307	19514.0125
2075.10378	19495.2125
2078.11255	19444.0125
2081.11938	19452.6125
2084.12426	19471.1125
2087.12722	19440.1125
2090.12824	19481.0125
2093.12732	19453.4125
2096.12447	19461.4125
2099.11969	19463.4125
2102.11299	19484.7125
2105.10435	19510.6125
2108.09379	19507.7125
2111.08131	19515.4125
2114.0669	19536.0125
2117.05057	19550.1125
2120.03233	19545.9125
2123.01216	19558.4125
2125.99008	19562.0125
2128.96609	19595.1125
2131.94018	19574.7125
2134.91236	19550.6125
2137.88263	19576.0125
2140.851	19645.3125
2143.81746	19593.5125
2146.78201	19665.4125
2149.74466	19641.1125
2152.7054	19648.3125
2155.66425	19623.8125
2158.6212	19646.1125
2161.57625	19626.4125
2164.52941	19608.4125
2167.48067	19567.7125
2170.43004	19553.1125
2173.37752	19549.8125
2176.32311	19567.0125
2179.26681	19589.2125
2182.20863	19566.0125
2185.14856	19619.0125
2188.08661	19616.1125
2191.02278	19601.6125
2193.95707	19607.7125
2196.88948	19619.2125
2199.82001	19615.0125
2202.74867	19555.9125
2205.67545	19566.4125
2208.60037	19538.6125
2211.52341	19533.2125
2214.44458	19493.2125
2217.36388	19490.4125
2220.28132	19493.6125
2223.1969	19434.6125
2226.11061	19419.7125
2229.02246	19373.4125
2231.93245	19353.2125
2234.84058	19342.8125
2237.74686	19307.7125
2240.65128	19324.6125
2243.55385	19286.9125
2246.45456	19264.3125
2249.35343	19214.9125
2252.25044	19192.0125
2255.14561	19131.3125
2258.03893	19093.8125
2260.93041	19077.5125
2263.82004	18991.6125
2266.70783	18956.9125
2269.59378	18914.0125
2272.4779	18867.6125
2275.36017	18824.1125
2278.24061	18803.5125
2281.11922	18767.3125
2283.996	18748.8125
2286.87094	18735.8125
2289.74405	18702.4125
2292.61534	18736.1125
2295.4848	18720.5125
2298.35243	18712.5125
2301.21824	18702.8125
2304.08223	18733.9125
2306.94439	18774.0125
2309.80474	18761.2125
2312.66327	18757.8125
2315.51999	18758.8125
2318.37489	18758.0125
2321.22797	18718.0125
2324.07925	18703.8125
2326.92871	18694.8125
2329.77637	18694.3125
2332.62222	18701.6125
2335.46626	18689.9125
2338.3085	18709.0125
2341.14893	18705.4125
2343.98756	18702.0125
2346.8244	18710.1125
2349.65943	18714.0125
2352.49267	18671.6125
2355.32411	18665.5125
2358.15376	18667.9125
2360.98161	18653.6125
2363.80768	18628.3125
2366.63195	18613.9125
2369.45444	18593.4125
2372.27514	18573.6125
2375.09405	18521.9125
2377.91118	18516.7125
2380.72652	18484.3125
2383.54009	18444.7125
2386.35187	18443.8125
2389.16188	18376.6125
2391.97011	18402.9125
2394.77657	18346.3125
2397.58125	18360.1125
2400.38416	18316.1125
2403.18529	18286.0125
2405.98466	18276.7125
2408.78226	18227.2125
2411.57809	18242.9125
2414.37216	18208.7125
2417.16446	18202.4125
2419.955	18184.4125
2422.74378	18188.2125
2425.5308	18204.9125
2428.31606	18147.8125
2431.09956	18159.9125
2433.88131	18122.7125
2436.6613	18139.2125
2439.43954	18120.6125
2442.21603	18139.1125
2444.99077	18063.0125
2447.76377	18152.0125
2450.53501	18140.0125
2453.30451	18136.9125
2456.07226	18123.9125
2458.83827	18126.5125
2461.60254	18178.9125
2464.36507	18164.1125
2467.12586	18174.2125
2469.88492	18180.7125
2472.64224	18151.0125
2475.39782	18187.0125
2478.15167	18227.4125
2480.90379	18182.8125
2483.65417	18234.6125
2486.40283	18237.3125
2489.14976	18236.3125
2491.89497	18230.4125
2494.63845	18278.5125
2497.3802	18277.8125
2500.12024	18252.7125
2502.85855	18260.0125
2505.59514	18264.6125
2508.33002	18312.8125
2511.06318	18291.8125
2513.79462	18247.1125
2516.52435	18267.0125
2519.25237	18243.2125
2521.97867	18204.2125
2524.70327	18249.6125
2527.42616	18226.5125
2530.14734	18226.7125
2532.86681	18228.3125
2535.58458	18198.9125
2538.30065	18176.0125
2541.01501	18211.7125
2543.72768	18177.4125
2546.43864	18178.4125
2549.14791	18131.7125
2551.85548	18164.6125
2554.56136	18181.1125
2557.26554	18157.1125
2559.96803	18128.9125
2562.66883	18152.4125
2565.36794	18147.1125
2568.06536	18190.0125
2570.7611	18190.5125
2573.45514	18153.3125
2576.14751	18177.2125
2578.83819	18141.9125
2581.52719	18162.0125
2584.21451	18148.5125
2586.90015	18166.1125
2589.58411	18141.8125
2592.2664	18166.5125
2594.94701	18108.0125
2597.62594	18132.4125
2600.30321	18112.7125
2602.9788	18113.5125
2605.65273	18102.4125
2608.32498	18155.6125
2610.99557	18147.2125
2613.66449	18166.1125
2616.33175	18164.3125
2618.99734	18209.8125
2621.66128	18177.5125
2624.32355	18192.7125
2626.98416	18162.0125
2629.64311	18185.8125
2632.30041	18193.1125
2634.95605	18176.9125
2637.61004	18187.1125
2640.26238	18135.4125
2642.91306	18197.9125
2645.56209	18161.7125
2648.20948	18176.3125
2650.85521	18141.3125
2653.4993	18181.0125
2656.14175	18178.5125
2658.78255	18192.9125
2661.42171	18206.1125
2664.05923	18265.9125
2666.6951	18254.9125
2669.32934	18283.9125
2671.96194	18290.5125
2674.59291	18243.5125
2677.22224	18284.8125
2679.84993	18281.5125
2682.476	18244.5125
2685.10043	18237.0125
2687.72324	18207.2125
2690.34441	18247.1125
2692.96396	18220.2125
2695.58188	18240.7125
2698.19818	18216.0125
2700.81285	18250.1125
2703.4259	18281.4125
2706.03733	18325.0125
2708.64714	18336.8125
2711.25533	18395.9125
2713.86191	18352.0125
2716.46687	18382.1125
2719.07021	18372.8125
2721.67194	18426.4125
2724.27206	18426.8125
2726.87057	18467.3125
2729.46747	18460.8125
2732.06276	18497.1125
2734.65644	18479.3125
2737.24852	18464.1125
2739.83899	18463.7125
2742.42786	18448.6125
2745.01513	18417.2125
2747.60079	18435.4125
2750.18486	18433.3125
2752.76733	18447.0125
2755.3482	18470.5125
2757.92747	18499.0125
2760.50515	18544.3125
2763.08123	18543.9125
2765.65573	18489.5125
2768.22863	18518.3125
2770.79994	18505.5125
2773.36967	18500.8125
2775.9378	18543.9125
2778.50435	18515.0125
2781.06932	18518.3125
2783.6327	18529.6125
2786.1945	18539.2125
2788.75471	18498.6125
2791.31335	18494.6125
2793.87041	18465.1125
2796.42589	18451.9125
2798.97979	18473.7125
2801.53212	18416.0125
2804.08288	18428.2125
2806.63206	18359.7125
2809.17967	18333.1125
2811.72571	18331.5125
2814.27018	18299.1125
2816.81308	18262.0125
2819.35442	18230.6125
2821.89419	18221.0125
2824.43239	18233.7125
2826.96904	18219.2125
2829.50412	18207.2125
2832.03763	18194.6125
2834.56959	18202.0125
2837.1	18163.3125
2839.62884	18182.7125
2842.15613	18163.3125
2844.68186	18238.4125
2847.20604	18200.3125
2849.72867	18211.1125
2852.24974	18194.7125
2854.76927	18215.9125
2857.28724	18210.9125
2859.80367	18204.0125
2862.31855	18168.5125
2864.83189	18191.2125
2867.34368	18229.2125
2869.85393	18205.0125
2872.36264	18136.7125
2874.8698	18123.8125
2877.37543	18127.9125
2879.87952	18154.6125
2882.38207	18129.8125
2884.88308	18141.1125
2887.38256	18170.5125
2889.88051	18164.3125
2892.37692	18193.8125
2894.8718	18199.8125
2897.36515	18240.4125
2899.85698	18195.6125
2902.34727	18281.6125
2904.83604	18308.3125
2907.32328	18304.5125
2909.809	18320.1125
2912.29319	18294.0125
2914.77587	18294.6125
2917.25702	18303.6125
2919.73665	18296.3125
2922.21476	18269.3125
2924.69136	18277.5125
2927.16644	18351.6125
2929.64	18324.3125
2932.11205	18325.5125
2934.58258	18258.9125
2937.05161	18278.1125
2939.51912	18351.8125
2941.98513	18281.9125
2944.44962	18215.1125
2946.91261	18132.0125
2949.37409	18202.8125
2951.83407	18194.9125
2954.29254	18195.0125
2956.74951	18126.5125
2959.20498	18138.5125
2961.65895	18123.0125
2964.11142	18099.5125
2966.56239	18061.9125
2969.01186	18063.7125
2971.45984	18037.5125
2973.90632	17964.1125
2976.35131	17910.2125
2978.7948	17895.8125
2981.23681	17892.0125
2983.67732	17859.0125
2986.11635	17805.8125
2988.55388	17784.9125
2990.98993	17720.0125
2993.4245	17675.2125
2995.85758	17698.0125
2998.28917	17636.3125
3000.71928	17660.9125
3003.14791	17572.5125
3005.57506	17546.3125
3008.00073	17510.3125
3010.42493	17482.3125
3012.84764	17461.0125
3015.26888	17449.3125
3017.68865	17378.2125
3020.10694	17376.6125
3022.52376	17359.5125
