Data from AgNPs_FTO_APTES_UA_2uM_CRN_1uM_R6G_10uM_NaF_0.1M_Addition_RamanShift__12__11-33-05-013.txt Node

Date: Wed Feb 02 11:33:05 GMT 2022
User: TCL
Spectrometer: QEP01345
Trigger mode: 4
Integration Time (sec): 7.000000E0
Scans to average: 10
Electric dark correction enabled: true
Nonlinearity correction enabled: false
Boxcar width: 0
XAxis mode: Raman Shifts
Number of Pixels in Spectrum: 1044
>>>>>Begin Spectral Data<<<<<
46.04893	0.725
50.45542	0.125
54.85868	-0.475
59.25871	-0.375
63.6555	87.025
68.04907	95.225
72.43941	94.025
76.82654	101.625
81.21044	103.325
85.59113	107.425
89.96862	107.625
94.34289	112.125
98.71396	118.425
103.08183	125.725
107.4465	128.425
111.80798	132.225
116.16626	133.825
120.52136	138.025
124.87327	148.225
129.222	153.825
133.56755	166.325
137.90993	178.625
142.24913	201.925
146.58517	229.925
150.91804	269.525
155.24774	331.825
159.57429	416.025
163.89768	535.925
168.21792	716.825
172.53501	974.725
176.84895	1366.025
181.15975	1927.925
185.46741	2702.925
189.77193	3738.925
194.07331	5009.625
198.37157	6472.925
202.6667	7993.825
206.9587	9545.825
211.24758	11020.925
215.53334	12538.025
219.81599	14126.525
224.09553	15885.725
228.37195	17853.025
232.64527	19979.325
236.91549	22193.625
241.18261	24467.725
245.44663	26584.425
249.70755	28505.625
253.96539	30147.825
258.22014	31507.925
262.4718	32461.625
266.72039	33107.025
270.96589	33351.925
275.20832	33261.525
279.44768	32891.325
283.68397	32456.325
287.91719	32112.225
292.14735	31802.125
296.37445	31604.325
300.59849	31625.925
304.81948	31677.525
309.03742	31715.725
313.25231	31540.925
317.46415	31050.225
321.67296	30344.025
325.87872	29699.225
330.08145	29336.125
334.28114	29152.325
338.47781	29303.225
342.67145	29505.125
346.86207	29889.025
351.04966	30312.725
355.23424	30780.525
359.4158	31228.425
363.59435	31507.425
367.76989	31674.325
371.94243	31762.725
376.11196	31667.825
380.27849	31567.525
384.44203	31587.125
388.60257	31744.725
392.76012	32118.825
396.91468	32655.325
401.06626	33244.825
405.21485	33567.825
409.36047	33404.525
413.50311	32911.125
417.64277	32579.925
421.77947	32635.825
425.9132	32900.525
430.04396	33069.525
434.17176	33163.625
438.2966	33206.425
442.41849	33486.625
446.53742	34041.825
450.6534	34738.525
454.76644	35176.025
458.87653	35295.725
462.98368	35282.025
467.08789	35191.825
471.18916	34894.325
475.2875	34519.925
479.38291	34405.825
483.4754	34367.925
487.56496	34243.225
491.6516	33828.525
495.73531	33394.625
499.81612	32920.525
503.89401	32948.625
507.96899	33034.425
512.04106	33087.925
516.11023	32911.625
520.1765	32573.825
524.23987	32206.325
528.30034	31892.225
532.35792	31551.225
536.41261	31220.925
540.46441	30940.825
544.51333	30867.225
548.55936	31268.425
552.60252	31932.425
556.64279	32668.425
560.6802	33217.925
564.71473	33670.625
568.7464	34404.025
572.7752	35743.525
576.80114	37336.025
580.82422	38812.125
584.84444	40224.825
588.86181	42169.425
592.87633	44008.225
596.888	43757.925
600.89682	41216.725
604.9028	39666.625
608.90594	41078.825
612.90624	43084.525
616.90371	40520.925
620.89834	34937.125
624.89015	32442.125
628.87913	32237.625
632.86528	32633.625
636.84862	32575.125
640.82913	31867.025
644.80683	30824.525
648.78172	30220.525
652.75379	30117.425
656.72306	30394.725
660.68952	30802.525
664.65319	30639.725
668.61405	30204.625
672.57211	30056.125
676.52738	30144.225
680.47986	30092.925
684.42955	29895.425
688.37646	29796.525
692.32058	29882.825
696.26192	30299.025
700.20048	30709.625
704.13626	31054.025
708.06928	31296.625
711.99952	31334.525
715.927	31201.825
719.85171	31081.625
723.77365	30765.525
727.69284	30215.125
731.60928	29700.025
735.52295	29521.825
739.43388	29473.025
743.34206	29542.225
747.24749	29742.925
751.15017	30157.525
755.05012	30819.125
758.94733	31621.725
762.8418	33174.725
766.73354	35438.825
770.62254	37477.825
774.50882	37568.925
778.39237	35838.825
782.27321	33630.425
786.15132	31864.325
790.02671	30604.925
793.89938	29952.125
797.76935	29544.925
801.6366	29365.925
805.50115	29212.225
809.36299	29086.525
813.22213	28944.125
817.07857	28960.325
820.93231	28874.525
824.78336	28715.625
828.63172	28595.325
832.47738	28499.325
836.32036	28419.425
840.16066	28398.625
843.99827	28394.825
847.8332	28334.025
851.66546	28374.325
855.49504	28468.225
859.32195	28474.625
863.1462	28417.625
866.96777	28312.025
870.78668	28320.425
874.60293	28373.725
878.41652	28479.825
882.22745	28532.025
886.03573	28687.825
889.84136	28763.325
893.64433	28785.825
897.44466	28808.825
901.24235	28871.325
905.0374	28959.825
908.8298	28956.925
912.61957	29007.925
916.40671	29391.025
920.19121	29827.625
923.97308	30251.725
927.75233	30301.625
931.52895	29965.725
935.30295	29195.525
939.07433	28455.225
942.84309	27919.725
946.60924	27549.025
950.37278	27347.825
954.13371	27271.425
957.89203	27219.825
961.64774	27156.725
965.40086	27117.925
969.15137	26994.025
972.89929	26820.625
976.64461	26598.225
980.38733	26456.225
984.12747	26457.325
987.86502	26441.925
991.59999	26539.525
995.33237	26694.725
999.06217	26994.025
1002.78939	27457.725
1006.51404	27912.025
1010.23611	28508.725
1013.95561	28809.725
1017.67255	28875.825
1021.38692	28584.325
1025.09872	28133.025
1028.80796	27744.925
1032.51465	27629.525
1036.21877	27628.525
1039.92035	27800.225
1043.61937	27965.025
1047.31584	28125.825
1051.00976	28265.125
1054.70114	28388.225
1058.38998	28563.225
1062.07627	28877.725
1065.76003	29228.125
1069.44126	29724.225
1073.11995	30348.425
1076.79611	30880.825
1080.46974	31066.425
1084.14085	31068.825
1087.80943	31351.625
1091.47549	31710.125
1095.13903	31955.825
1098.80005	31501.225
1102.45857	30610.025
1106.11456	29738.425
1109.76805	29224.225
1113.41903	28957.225
1117.06751	28960.225
1120.71348	29302.925
1124.35696	29572.825
1127.99793	29974.325
1131.63641	30335.325
1135.2724	30305.225
1138.90589	30243.525
1142.5369	30372.025
1146.16542	30630.625
1149.79145	30965.825
1153.415	31366.425
1157.03607	31930.325
1160.65467	32850.925
1164.27079	34211.825
1167.88443	35972.525
1171.49561	37886.825
1175.10432	40203.425
1178.71056	43138.525
1182.31434	45831.425
1185.91565	47204.725
1189.51451	47258.925
1193.11091	46457.725
1196.70485	44824.825
1200.29634	42953.925
1203.88538	41526.025
1207.47197	40986.325
1211.05612	40724.625
1214.63782	40170.025
1218.21708	38983.825
1221.79391	37615.025
1225.36829	36494.225
1228.94024	35875.525
1232.50976	35549.725
1236.07685	35162.325
1239.6415	34942.225
1243.20374	34847.425
1246.76355	34970.325
1250.32093	35349.825
1253.8759	36035.225
1257.42845	37097.325
1260.97859	38415.825
1264.52631	39655.325
1268.07163	40888.725
1271.61453	42141.725
1275.15503	43498.825
1278.69312	45079.125
1282.22882	46860.525
1285.76211	48917.425
1289.29301	51008.525
1292.82151	53296.925
1296.34761	55939.025
1299.87133	58869.725
1303.39266	61665.525
1306.9116	63748.725
1310.42815	65113.125
1313.94233	65447.025
1317.45412	64922.325
1320.96354	64290.025
1324.47058	63986.725
1327.97525	63977.325
1331.47754	63684.425
1334.97747	63049.625
1338.47502	62233.425
1341.97022	61454.325
1345.46305	60722.925
1348.95352	60114.225
1352.44163	59660.325
1355.92738	60086.725
1359.41078	61698.925
1362.89183	63614.725
1366.37053	63595.525
1369.84688	59843.725
1373.32088	54067.825
1376.79254	49515.425
1380.26186	47546.025
1383.72883	47214.525
1387.19347	47050.025
1390.65578	46434.925
1394.11575	46145.025
1397.57339	46452.225
1401.0287	47028.725
1404.48168	47320.225
1407.93234	46688.925
1411.38068	45272.925
1414.82669	43418.225
1418.27039	41476.325
1421.71177	39891.425
1425.15083	38617.025
1428.58758	38093.125
1432.02203	38475.425
1435.45416	39399.825
1438.88399	40373.025
1442.31151	41039.125
1445.73673	41506.125
1449.15965	42062.625
1452.58027	42433.725
1455.9986	42701.525
1459.41463	43020.425
1462.82837	43607.525
1466.23982	44303.425
1469.64898	44831.825
1473.05586	45057.025
1476.46045	45029.625
1479.86276	44863.025
1483.26279	44855.925
1486.66054	45020.025
1490.05602	45670.525
1493.44922	46775.725
1496.84016	48112.025
1500.22882	49528.525
1503.61521	51080.225
1506.99934	52447.225
1510.38121	53463.725
1513.76081	53636.725
1517.13816	53127.925
1520.51324	52226.125
1523.88607	51509.625
1527.25665	51235.225
1530.62498	50870.025
1533.99105	49933.525
1537.35488	48502.725
1540.71647	46658.525
1544.07581	44739.625
1547.4329	43005.025
1550.78776	41715.025
1554.14038	40994.125
1557.49077	40775.125
1560.83892	40819.425
1564.18484	41024.225
1567.52853	41226.725
1570.86999	41778.125
1574.20922	42633.525
1577.54624	43602.725
1580.88103	44055.025
1584.2136	44586.825
1587.54395	45828.825
1590.87208	47669.425
1594.19801	49646.925
1597.52172	51195.725
1600.84321	50661.825
1604.16251	47572.825
1607.47959	43603.525
1610.79447	39850.225
1614.10715	36663.725
1617.41763	34075.325
1620.7259	32423.125
1624.03199	31588.525
1627.33587	31749.925
1630.63757	32859.725
1633.93707	35289.025
1637.23439	39302.325
1640.52951	45301.925
1643.82246	52593.925
1647.11321	58498.925
1650.40179	59819.925
1653.68819	55487.025
1656.97241	47745.325
1660.25446	40046.625
1663.53433	34186.425
1666.81203	30425.025
1670.08756	28126.425
1673.36092	26681.225
1676.63211	25770.325
1679.90115	25162.025
1683.16801	24650.825
1686.43272	24312.825
1689.69527	24061.425
1692.95567	23878.025
1696.2139	23743.325
1699.46999	23597.925
1702.72392	23456.625
1705.97571	23365.225
1709.22535	23281.025
1712.47284	23233.325
1715.71819	23148.725
1718.96139	23109.525
1722.20246	23007.725
1725.44139	22864.925
1728.67818	22694.125
1731.91284	22569.725
1735.14537	22435.525
1738.37576	22287.525
1741.60403	22177.125
1744.83017	22114.225
1748.05418	22076.225
1751.27607	21974.325
1754.49584	21935.525
1757.71349	21923.325
1760.92903	21874.425
1764.14244	21884.725
1767.35375	21819.625
1770.56294	21780.825
1773.77002	21704.825
1776.97499	21687.325
1780.17785	21601.725
1783.37861	21553.725
1786.57727	21513.025
1789.77382	21453.625
1792.96828	21420.125
1796.16064	21368.025
1799.3509	21306.625
1802.53907	21254.225
1805.72514	21226.625
1808.90913	21163.225
1812.09102	21126.325
1815.27083	21077.325
1818.44856	21014.925
1821.6242	20978.325
1824.79776	21034.125
1827.96924	20981.225
1831.13864	20987.425
1834.30597	21027.325
1837.47122	21027.025
1840.6344	21024.525
1843.7955	21057.525
1846.95454	21044.525
1850.11151	21041.925
1853.26642	21067.125
1856.41926	21008.625
1859.57004	20987.225
1862.71876	20979.525
1865.86542	20862.225
1869.01003	20831.725
1872.15258	20821.725
1875.29308	20816.725
1878.43152	20729.025
1881.56792	20662.925
1884.70227	20625.925
1887.83457	20564.525
1890.96482	20564.525
1894.09304	20496.625
1897.21921	20495.125
1900.34335	20400.925
1903.46544	20344.725
1906.58551	20326.125
1909.70353	20238.225
1912.81953	20227.525
1915.93349	20152.725
1919.04543	20100.525
1922.15534	20054.725
1925.26322	19974.825
1928.36908	19905.525
1931.47292	19810.825
1934.57473	19730.125
1937.67453	19686.925
1940.77232	19630.525
1943.86808	19555.425
1946.96184	19542.525
1950.05358	19434.525
1953.14331	19398.325
1956.23103	19341.525
1959.31675	19305.725
1962.40046	19247.625
1965.48217	19150.725
1968.56188	19094.625
1971.63959	18985.525
1974.7153	18927.925
1977.78901	18821.325
1980.86073	18782.725
1983.93046	18711.825
1986.99819	18620.225
1990.06394	18580.725
1993.1277	18544.225
1996.18947	18424.125
1999.24925	18382.625
2002.30706	18332.525
2005.36288	18225.925
2008.41672	18203.225
2011.46859	18173.225
2014.51848	18063.225
2017.56639	18009.925
2020.61233	17956.125
2023.6563	17924.825
2026.6983	17865.225
2029.73833	17830.425
2032.7764	17760.225
2035.8125	17743.025
2038.84664	17657.925
2041.87881	17672.125
2044.90903	17685.425
2047.93729	17642.925
2050.96359	17621.625
2053.98794	17557.925
2057.01034	17556.625
2060.03078	17518.225
2063.04927	17518.225
2066.06582	17508.325
2069.08042	17502.825
2072.09307	17530.625
2075.10378	17490.525
2078.11255	17510.225
2081.11938	17568.225
2084.12426	17493.325
2087.12722	17462.625
2090.12824	17450.925
2093.12732	17491.325
2096.12447	17525.225
2099.11969	17494.225
2102.11299	17519.125
2105.10435	17481.225
2108.09379	17481.425
2111.08131	17475.325
2114.0669	17496.925
2117.05057	17496.425
2120.03233	17440.625
2123.01216	17416.225
2125.99008	17396.625
2128.96609	17370.625
2131.94018	17374.525
2134.91236	17334.825
2137.88263	17349.825
2140.851	17313.525
2143.81746	17294.725
2146.78201	17252.225
2149.74466	17252.125
2152.7054	17267.125
2155.66425	17216.925
2158.6212	17209.525
2161.57625	17223.425
2164.52941	17193.125
2167.48067	17185.525
2170.43004	17180.725
2173.37752	17135.725
2176.32311	17159.225
2179.26681	17154.625
2182.20863	17122.925
2185.14856	17124.025
2188.08661	17077.425
2191.02278	17087.025
2193.95707	17044.125
2196.88948	17051.625
2199.82001	17032.125
2202.74867	17002.725
2205.67545	17012.025
2208.60037	16975.325
2211.52341	16931.525
2214.44458	16914.025
2217.36388	16859.125
2220.28132	16848.425
2223.1969	16803.225
2226.11061	16735.825
2229.02246	16707.125
2231.93245	16715.925
2234.84058	16679.225
2237.74686	16702.225
2240.65128	16659.325
2243.55385	16640.925
2246.45456	16594.525
2249.35343	16560.425
2252.25044	16476.025
2255.14561	16448.425
2258.03893	16441.325
2260.93041	16381.525
2263.82004	16300.125
2266.70783	16290.125
2269.59378	16201.925
2272.4779	16194.925
2275.36017	16123.825
2278.24061	16093.525
2281.11922	16047.525
2283.996	16026.825
2286.87094	16025.525
2289.74405	15926.425
2292.61534	15904.525
2295.4848	15857.825
2298.35243	15884.825
2301.21824	15852.225
2304.08223	15835.425
2306.94439	15801.225
2309.80474	15786.025
2312.66327	15791.825
2315.51999	15761.425
2318.37489	15727.825
2321.22797	15723.825
2324.07925	15668.525
2326.92871	15632.725
2329.77637	15652.925
2332.62222	15632.625
2335.46626	15624.425
2338.3085	15575.725
2341.14893	15582.225
2343.98756	15566.825
2346.8244	15524.425
2349.65943	15511.325
2352.49267	15493.525
2355.32411	15481.225
2358.15376	15508.425
2360.98161	15533.925
2363.80768	15465.725
2366.63195	15460.425
2369.45444	15474.025
2372.27514	15481.525
2375.09405	15409.825
2377.91118	15397.225
2380.72652	15352.025
2383.54009	15306.625
2386.35187	15287.925
2389.16188	15221.825
2391.97011	15169.225
2394.77657	15140.725
2397.58125	15108.425
2400.38416	15103.825
2403.18529	15043.925
2405.98466	15069.525
2408.78226	15015.525
2411.57809	15005.725
2414.37216	14952.025
2417.16446	14970.025
2419.955	14960.725
2422.74378	14960.925
2425.5308	14920.625
2428.31606	14944.325
2431.09956	14905.425
2433.88131	14856.925
2436.6613	14854.825
2439.43954	14809.725
2442.21603	14833.025
2444.99077	14823.225
2447.76377	14816.625
2450.53501	14799.125
2453.30451	14785.325
2456.07226	14759.225
2458.83827	14792.225
2461.60254	14779.425
2464.36507	14752.025
2467.12586	14712.825
2469.88492	14707.225
2472.64224	14679.225
2475.39782	14684.925
2478.15167	14672.425
2480.90379	14670.725
2483.65417	14633.425
2486.40283	14649.725
2489.14976	14650.825
2491.89497	14638.525
2494.63845	14628.825
2497.3802	14581.525
2500.12024	14559.925
2502.85855	14577.525
2505.59514	14566.725
2508.33002	14531.525
2511.06318	14508.625
2513.79462	14527.525
2516.52435	14480.825
2519.25237	14478.225
2521.97867	14440.525
2524.70327	14434.925
2527.42616	14397.325
2530.14734	14384.925
2532.86681	14384.725
2535.58458	14384.225
2538.30065	14317.925
2541.01501	14326.025
2543.72768	14263.225
2546.43864	14279.325
2549.14791	14244.725
2551.85548	14220.125
2554.56136	14218.625
2557.26554	14174.525
2559.96803	14158.025
2562.66883	14162.325
2565.36794	14127.925
2568.06536	14163.625
2570.7611	14121.925
2573.45514	14106.525
2576.14751	14078.725
2578.83819	14053.325
2581.52719	14043.825
2584.21451	14042.025
2586.90015	14009.225
2589.58411	13980.925
2592.2664	13951.525
2594.94701	13922.625
2597.62594	13908.625
2600.30321	13895.625
2602.9788	13850.025
2605.65273	13858.525
2608.32498	13866.825
2610.99557	13810.225
2613.66449	13854.225
2616.33175	13811.925
2618.99734	13828.525
2621.66128	13817.625
2624.32355	13802.425
2626.98416	13771.925
2629.64311	13744.725
2632.30041	13735.625
2634.95605	13692.925
2637.61004	13719.425
2640.26238	13688.725
2642.91306	13674.525
2645.56209	13696.425
2648.20948	13684.225
2650.85521	13665.725
2653.4993	13662.925
2656.14175	13649.925
2658.78255	13685.225
2661.42171	13695.925
2664.05923	13687.425
2666.6951	13650.025
2669.32934	13671.025
2671.96194	13659.725
2674.59291	13677.125
2677.22224	13639.625
2679.84993	13688.825
2682.476	13668.825
2685.10043	13669.725
2687.72324	13625.325
2690.34441	13617.225
2692.96396	13629.825
2695.58188	13636.225
2698.19818	13628.525
2700.81285	13640.525
2703.4259	13603.225
2706.03733	13637.225
2708.64714	13587.625
2711.25533	13624.325
2713.86191	13598.625
2716.46687	13633.725
2719.07021	13607.425
2721.67194	13593.325
2724.27206	13565.225
2726.87057	13600.925
2729.46747	13600.525
2732.06276	13582.925
2734.65644	13605.625
2737.24852	13617.025
2739.83899	13599.025
2742.42786	13580.225
2745.01513	13553.825
2747.60079	13556.525
2750.18486	13519.125
2752.76733	13542.925
2755.3482	13514.125
2757.92747	13492.125
2760.50515	13477.125
2763.08123	13454.525
2765.65573	13468.125
2768.22863	13430.925
2770.79994	13413.125
2773.36967	13424.725
2775.9378	13342.825
2778.50435	13355.625
2781.06932	13362.825
2783.6327	13354.425
2786.1945	13331.425
2788.75471	13337.325
2791.31335	13279.425
2793.87041	13282.425
2796.42589	13263.825
2798.97979	13225.025
2801.53212	13200.325
2804.08288	13179.325
2806.63206	13186.125
2809.17967	13149.925
2811.72571	13113.725
2814.27018	13079.725
2816.81308	13096.825
2819.35442	13063.325
2821.89419	13052.825
2824.43239	13075.425
2826.96904	13032.125
2829.50412	13000.325
2832.03763	12935.725
2834.56959	12963.325
2837.1	12927.325
2839.62884	12947.425
2842.15613	12970.625
2844.68186	12993.425
2847.20604	13012.725
2849.72867	13005.025
2852.24974	13001.425
2854.76927	13002.025
2857.28724	12977.925
2859.80367	12970.525
2862.31855	12940.825
2864.83189	12900.125
2867.34368	12888.325
2869.85393	12862.125
2872.36264	12857.225
2874.8698	12842.525
2877.37543	12876.425
2879.87952	12881.825
2882.38207	12898.725
2884.88308	12882.025
2887.38256	12875.825
2889.88051	12875.325
2892.37692	12876.525
2894.8718	12874.725
2897.36515	12892.825
2899.85698	12916.025
2902.34727	12910.325
2904.83604	12903.925
2907.32328	12954.125
2909.809	12921.325
2912.29319	12902.625
2914.77587	12910.625
2917.25702	12909.425
2919.73665	12881.925
2922.21476	12849.825
2924.69136	12849.025
2927.16644	12913.725
2929.64	12872.525
2932.11205	12837.825
2934.58258	12802.325
2937.05161	12815.625
2939.51912	12813.225
2941.98513	12778.725
2944.44962	12745.325
2946.91261	12644.925
2949.37409	12658.725
2951.83407	12662.825
2954.29254	12639.225
2956.74951	12598.925
2959.20498	12560.725
2961.65895	12535.125
2964.11142	12542.825
2966.56239	12508.825
2969.01186	12483.925
2971.45984	12429.625
2973.90632	12401.125
2976.35131	12378.425
2978.7948	12322.425
2981.23681	12303.925
2983.67732	12238.325
2986.11635	12177.125
2988.55388	12151.225
2990.98993	12127.425
2993.4245	12081.725
2995.85758	12048.925
2998.28917	12019.325
3000.71928	11998.225
3003.14791	11970.125
3005.57506	11958.825
3008.00073	11935.025
3010.42493	11900.825
3012.84764	11855.225
3015.26888	11850.925
3017.68865	11829.325
3020.10694	11797.325
3022.52376	11753.525
3024.9391	11721.625
3027.35298	11713.925
3029.76539	11675.225
3032.17632	11648.025
3034.5858	11622.825
3036.9938	11632.125
3039.40034	11630.225
3041.80542	11596.325
3044.20903	11578.225
3046.61118	11557.725
3049.01187	11510.825
3051.4111	11519.225
3053.80888	11466.525
3056.20519	11438.425
3058.60005	11379.925
3060.99345	11354.125
3063.3854	11354.925
3065.7759	11335.525
3068.16494	11285.825
3070.55254	11221.925
3072.93868	11248.225
3075.32338	11210.525
3077.70662	11180.525
3080.08842	11141.025
3082.46878	11135.725
3084.84769	11120.725
3087.22515	11113.525
3089.60118	11086.825
3091.97576	11084.025
3094.3489	11069.025
3096.72061	11050.125
3099.09087	11046.925
3101.4597	11026.525
3103.82709	11001.425
3106.19305	10994.325
3108.55757	10954.425
3110.92066	10923.725
3113.28232	10902.825
3115.64255	10871.025
3118.00134	10854.625
3120.35871	10811.125
3122.71466	10795.325
3125.06917	10769.925
3127.42226	10749.625
