Data from AgNPs_FTO_APTES_UA_2uM_CRN_1uM_R6G_10uM_NaF_0.1M_Addition_RamanShift__21__11-43-35-026.txt Node

Date: Wed Feb 02 11:43:35 GMT 2022
User: TCL
Spectrometer: QEP01345
Trigger mode: 4
Integration Time (sec): 7.000000E0
Scans to average: 10
Electric dark correction enabled: true
Nonlinearity correction enabled: false
Boxcar width: 0
XAxis mode: Raman Shifts
Number of Pixels in Spectrum: 1044
>>>>>Begin Spectral Data<<<<<
46.04893	0.475
50.45542	2.175
54.85868	-2.025
59.25871	-0.225
63.6555	93.975
68.04907	97.975
72.43941	103.075
76.82654	113.275
81.21044	117.275
85.59113	119.475
89.96862	120.675
94.34289	124.675
98.71396	130.675
103.08183	139.075
107.4465	138.175
111.80798	140.875
116.16626	147.475
120.52136	153.875
124.87327	162.775
129.222	168.975
133.56755	183.275
137.90993	197.475
142.24913	220.675
146.58517	256.175
150.91804	294.675
155.24774	356.175
159.57429	446.375
163.89768	575.275
168.21792	763.075
172.53501	1048.775
176.84895	1461.675
181.15975	2041.975
185.46741	2878.375
189.77193	3960.075
194.07331	5289.775
198.37157	6807.175
202.6667	8369.675
206.9587	9974.175
211.24758	11508.675
215.53334	13112.075
219.81599	14843.475
224.09553	16798.175
228.37195	18952.275
232.64527	21221.075
236.91549	23612.075
241.18261	25911.475
245.44663	27973.275
249.70755	29652.875
253.96539	31251.175
258.22014	32563.775
262.4718	33706.275
266.72039	34597.975
270.96589	35117.075
275.20832	35228.375
279.44768	35090.475
283.68397	34842.675
287.91719	34766.475
292.14735	34738.975
296.37445	34965.775
300.59849	35353.375
304.81948	35738.675
309.03742	35872.175
313.25231	35452.875
317.46415	34221.175
321.67296	32507.975
325.87872	30996.875
330.08145	30253.375
334.28114	30105.775
338.47781	30381.875
342.67145	30844.575
346.86207	31564.075
351.04966	32600.675
355.23424	33711.975
359.4158	34637.875
363.59435	35130.075
367.76989	35381.475
371.94243	35477.175
376.11196	35480.175
380.27849	35476.575
384.44203	35568.175
388.60257	35625.475
392.76012	35892.975
396.91468	36361.375
401.06626	37149.475
405.21485	37614.875
409.36047	37281.075
413.50311	36282.175
417.64277	35378.775
421.77947	35024.775
425.9132	35057.475
430.04396	35256.375
434.17176	35445.975
438.2966	35692.175
442.41849	36398.375
446.53742	37503.975
450.6534	38817.975
454.76644	39688.375
458.87653	39984.475
462.98368	39799.275
467.08789	39348.775
471.18916	38665.975
475.2875	38102.675
479.38291	37849.075
483.4754	37647.375
487.56496	37203.775
491.6516	36628.675
495.73531	35953.175
499.81612	35552.975
503.89401	35589.275
507.96899	35687.775
512.04106	35566.675
516.11023	35399.375
520.1765	35076.775
524.23987	34745.275
528.30034	34292.075
532.35792	33721.575
536.41261	33064.575
540.46441	32436.975
544.51333	32371.275
548.55936	32876.075
552.60252	33911.475
556.64279	34989.475
560.6802	35663.975
564.71473	36247.975
568.7464	37366.475
572.7752	38599.875
576.80114	38986.975
580.82422	39081.675
584.84444	39274.275
588.86181	39518.375
592.87633	40065.575
596.888	40470.975
600.89682	40797.275
604.9028	42800.675
608.90594	48763.775
612.90624	55625.875
616.90371	52391.775
620.89834	40628.875
624.89015	35156.875
628.87913	34448.075
632.86528	34567.075
636.84862	34453.075
640.82913	33756.075
644.80683	32450.975
648.78172	31323.275
652.75379	31134.875
656.72306	31744.575
660.68952	32759.375
664.65319	32702.975
668.61405	31749.575
672.57211	31255.975
676.52738	31201.975
680.47986	31166.575
684.42955	30961.175
688.37646	30807.475
692.32058	30923.975
696.26192	31324.975
700.20048	31803.675
704.13626	32211.975
708.06928	32259.475
711.99952	31912.875
715.927	31759.975
719.85171	31713.575
723.77365	31575.175
727.69284	31190.275
731.60928	30715.575
735.52295	30659.375
739.43388	30766.375
743.34206	30901.575
747.24749	31111.975
751.15017	31492.475
755.05012	32254.275
758.94733	33591.875
762.8418	36234.675
766.73354	40554.775
770.62254	45010.775
774.50882	46341.475
778.39237	43596.775
782.27321	38938.475
786.15132	34963.875
790.02671	32576.775
793.89938	31421.475
797.76935	30969.475
801.6366	30793.975
805.50115	30653.375
809.36299	30374.875
813.22213	30125.875
817.07857	30054.975
820.93231	30011.275
824.78336	29883.175
828.63172	29841.175
832.47738	29894.575
836.32036	29916.475
840.16066	29956.475
843.99827	30000.675
847.8332	29928.375
851.66546	29692.075
855.49504	29623.275
859.32195	29551.975
863.1462	29364.075
866.96777	29181.675
870.78668	29048.475
874.60293	29041.975
878.41652	29133.975
882.22745	29205.775
886.03573	29390.475
889.84136	29410.775
893.64433	29288.875
897.44466	29124.575
901.24235	29043.675
905.0374	28921.875
908.8298	28833.475
912.61957	28881.275
916.40671	29138.075
920.19121	29663.575
923.97308	30220.175
927.75233	30524.875
931.52895	30444.175
935.30295	29978.775
939.07433	29127.375
942.84309	28380.975
946.60924	27961.675
950.37278	27821.175
954.13371	27692.375
957.89203	27534.775
961.64774	27432.375
965.40086	27335.375
969.15137	27237.375
972.89929	27139.075
976.64461	26997.275
980.38733	26973.175
984.12747	27093.475
987.86502	27380.475
991.59999	27799.775
995.33237	28471.275
999.06217	29662.475
1002.78939	31051.975
1006.51404	32017.975
1010.23611	32577.675
1013.95561	32877.475
1017.67255	32767.475
1021.38692	32256.175
1025.09872	31731.675
1028.80796	31961.275
1032.51465	32946.675
1036.21877	33904.675
1039.92035	34116.675
1043.61937	33562.975
1047.31584	32559.275
1051.00976	31438.075
1054.70114	30928.075
1058.38998	30751.275
1062.07627	30900.975
1065.76003	31134.275
1069.44126	31425.475
1073.11995	31948.175
1076.79611	32418.675
1080.46974	32623.975
1084.14085	32954.575
1087.80943	33564.075
1091.47549	33975.875
1095.13903	33843.775
1098.80005	33071.375
1102.45857	32076.775
1106.11456	31351.275
1109.76805	31090.575
1113.41903	31147.275
1117.06751	31560.775
1120.71348	32236.475
1124.35696	32912.975
1127.99793	33696.675
1131.63641	34064.375
1135.2724	33512.075
1138.90589	32892.475
1142.5369	32548.475
1146.16542	32404.875
1149.79145	32418.175
1153.415	32730.875
1157.03607	33235.075
1160.65467	34231.575
1164.27079	35874.175
1167.88443	38276.475
1171.49561	41608.675
1175.10432	46313.875
1178.71056	52308.575
1182.31434	57570.575
1185.91565	60466.075
1189.51451	60447.875
1193.11091	58092.875
1196.70485	54351.875
1200.29634	50764.075
1203.88538	47915.075
1207.47197	45589.575
1211.05612	43831.975
1214.63782	42755.175
1218.21708	42248.275
1221.79391	42224.375
1225.36829	42310.375
1228.94024	42212.075
1232.50976	41652.575
1236.07685	41072.175
1239.6415	40571.375
1243.20374	40038.575
1246.76355	39952.675
1250.32093	40317.775
1253.8759	41384.775
1257.42845	42952.175
1260.97859	44637.875
1264.52631	46274.575
1268.07163	47947.575
1271.61453	49857.075
1275.15503	51848.675
1278.69312	53671.075
1282.22882	55150.075
1285.76211	56653.175
1289.29301	58439.075
1292.82151	60643.875
1296.34761	63324.275
1299.87133	67087.775
1303.39266	71752.775
1306.9116	77745.975
1310.42815	84053.675
1313.94233	88642.875
1317.45412	89539.575
1320.96354	87751.575
1324.47058	85067.575
1327.97525	82165.375
1331.47754	79886.975
1334.97747	78348.175
1338.47502	77498.975
1341.97022	76832.175
1345.46305	75623.775
1348.95352	74099.275
1352.44163	73330.275
1355.92738	74790.375
1359.41078	79404.475
1362.89183	84900.475
1366.37053	84653.575
1369.84688	76794.375
1373.32088	67073.975
1376.79254	60140.275
1380.26186	56970.675
1383.72883	56000.975
1387.19347	55452.375
1390.65578	54917.375
1394.11575	54942.975
1397.57339	55946.875
1401.0287	57503.775
1404.48168	59023.575
1407.93234	59670.675
1411.38068	59155.875
1414.82669	57361.075
1418.27039	54580.475
1421.71177	51675.775
1425.15083	49332.475
1428.58758	47944.875
1432.02203	47704.875
1435.45416	48318.775
1438.88399	49255.775
1442.31151	50243.175
1445.73673	51201.075
1449.15965	52230.675
1452.58027	53020.375
1455.9986	53478.675
1459.41463	53973.475
1462.82837	54774.775
1466.23982	55950.175
1469.64898	56832.075
1473.05586	57246.975
1476.46045	57021.575
1479.86276	56602.075
1483.26279	56366.675
1486.66054	56394.175
1490.05602	56940.875
1493.44922	57834.075
1496.84016	58817.475
1500.22882	60479.175
1503.61521	63063.975
1506.99934	66552.575
1510.38121	70102.475
1513.76081	72018.575
1517.13816	70407.375
1520.51324	66137.375
1523.88607	61714.775
1527.25665	58641.975
1530.62498	56825.575
1533.99105	55760.175
1537.35488	55005.375
1540.71647	54225.875
1544.07581	53252.475
1547.4329	52206.175
1550.78776	51168.975
1554.14038	50673.075
1557.49077	50700.675
1560.83892	50933.875
1564.18484	51226.375
1567.52853	51406.575
1570.86999	51686.875
1574.20922	52219.875
1577.54624	52791.875
1580.88103	52630.575
1584.2136	52380.975
1587.54395	53632.675
1590.87208	56567.575
1594.19801	60508.775
1597.52172	64545.375
1600.84321	65793.175
1604.16251	62474.675
1607.47959	56810.675
1610.79447	50848.975
1614.10715	45572.075
1617.41763	41366.075
1620.7259	38613.575
1624.03199	37243.675
1627.33587	37303.275
1630.63757	38767.975
1633.93707	41730.775
1637.23439	46405.875
1640.52951	52615.075
1643.82246	59540.875
1647.11321	64888.375
1650.40179	66440.275
1653.68819	62488.775
1656.97241	54092.875
1660.25446	45034.575
1663.53433	38085.275
1666.81203	33615.975
1670.08756	30838.075
1673.36092	29160.175
1676.63211	28092.175
1679.90115	27330.175
1683.16801	26814.475
1686.43272	26400.275
1689.69527	26138.875
1692.95567	25948.075
1696.2139	25793.375
1699.46999	25647.675
1702.72392	25544.675
1705.97571	25488.075
1709.22535	25390.275
1712.47284	25341.975
1715.71819	25307.575
1718.96139	25209.675
1722.20246	25203.375
1725.44139	25025.775
1728.67818	24863.175
1731.91284	24616.175
1735.14537	24521.675
1738.37576	24344.575
1741.60403	24283.375
1744.83017	24165.575
1748.05418	24101.875
1751.27607	24092.375
1754.49584	24037.775
1757.71349	24024.475
1760.92903	24013.975
1764.14244	23965.075
1767.35375	23926.575
1770.56294	23855.575
1773.77002	23865.875
1776.97499	23759.075
1780.17785	23717.375
1783.37861	23696.075
1786.57727	23654.575
1789.77382	23580.375
1792.96828	23571.975
1796.16064	23532.375
1799.3509	23476.875
1802.53907	23446.675
1805.72514	23431.775
1808.90913	23334.475
1812.09102	23259.875
1815.27083	23252.275
1818.44856	23237.975
1821.6242	23203.975
1824.79776	23265.275
1827.96924	23247.475
1831.13864	23276.275
1834.30597	23241.875
1837.47122	23239.975
1840.6344	23304.075
1843.7955	23343.475
1846.95454	23278.875
1850.11151	23280.775
1853.26642	23301.475
1856.41926	23318.575
1859.57004	23349.775
1862.71876	23309.975
1865.86542	23364.575
1869.01003	23372.675
1872.15258	23384.875
1875.29308	23453.275
1878.43152	23480.575
1881.56792	23519.175
1884.70227	23542.275
1887.83457	23585.475
1890.96482	23612.675
1894.09304	23640.375
1897.21921	23659.475
1900.34335	23667.675
1903.46544	23680.475
1906.58551	23739.075
1909.70353	23707.975
1912.81953	23693.975
1915.93349	23646.175
1919.04543	23630.975
1922.15534	23558.275
1925.26322	23413.975
1928.36908	23279.875
1931.47292	23115.475
1934.57473	22963.675
1937.67453	22800.175
1940.77232	22689.775
1943.86808	22589.975
1946.96184	22436.475
1950.05358	22306.475
1953.14331	22212.075
1956.23103	22094.675
1959.31675	22034.475
1962.40046	21982.975
1965.48217	21861.275
1968.56188	21760.175
1971.63959	21710.875
1974.7153	21630.375
1977.78901	21563.975
1980.86073	21484.775
1983.93046	21434.775
1986.99819	21350.875
1990.06394	21272.275
1993.1277	21224.075
1996.18947	21115.875
1999.24925	21080.375
2002.30706	20969.175
2005.36288	20922.675
2008.41672	20856.575
2011.46859	20794.875
2014.51848	20724.875
2017.56639	20706.775
2020.61233	20605.575
2023.6563	20593.475
2026.6983	20597.875
2029.73833	20485.975
2032.7764	20480.875
2035.8125	20467.975
2038.84664	20440.075
2041.87881	20415.575
2044.90903	20398.975
2047.93729	20377.075
2050.96359	20339.575
2053.98794	20295.675
2057.01034	20293.675
2060.03078	20237.475
2063.04927	20201.675
2066.06582	20193.275
2069.08042	20174.775
2072.09307	20163.175
2075.10378	20088.875
2078.11255	20144.875
2081.11938	20125.075
2084.12426	20111.075
2087.12722	20072.475
2090.12824	20038.175
2093.12732	20028.675
2096.12447	20074.675
2099.11969	20089.375
2102.11299	20073.875
2105.10435	20102.275
2108.09379	20062.175
2111.08131	20104.075
2114.0669	20114.775
2117.05057	20101.975
2120.03233	20111.575
2123.01216	20128.975
2125.99008	20118.075
2128.96609	20135.875
2131.94018	20121.875
2134.91236	20124.775
2137.88263	20168.675
2140.851	20161.075
2143.81746	20185.475
2146.78201	20164.975
2149.74466	20166.475
2152.7054	20165.475
2155.66425	20162.875
2158.6212	20195.375
2161.57625	20147.575
2164.52941	20155.875
2167.48067	20115.675
2170.43004	20143.875
2173.37752	20111.075
2176.32311	20148.575
2179.26681	20152.575
2182.20863	20153.475
2185.14856	20174.375
2188.08661	20169.475
2191.02278	20151.775
2193.95707	20133.275
2196.88948	20152.375
2199.82001	20153.875
2202.74867	20150.375
2205.67545	20153.075
2208.60037	20169.475
2211.52341	20118.575
2214.44458	20093.575
2217.36388	20093.975
2220.28132	20057.075
2223.1969	19958.275
2226.11061	19987.475
2229.02246	19898.775
2231.93245	19913.175
2234.84058	19841.875
2237.74686	19812.275
2240.65128	19840.275
2243.55385	19742.675
2246.45456	19758.675
2249.35343	19722.075
2252.25044	19671.275
2255.14561	19668.875
2258.03893	19659.475
2260.93041	19615.275
2263.82004	19554.575
2266.70783	19541.875
2269.59378	19447.575
2272.4779	19423.475
2275.36017	19366.275
2278.24061	19369.875
2281.11922	19290.575
2283.996	19271.875
2286.87094	19267.875
2289.74405	19213.975
2292.61534	19180.075
2295.4848	19161.775
2298.35243	19171.675
2301.21824	19196.875
2304.08223	19218.475
2306.94439	19236.375
2309.80474	19226.975
2312.66327	19257.175
2315.51999	19241.475
2318.37489	19264.575
2321.22797	19243.575
2324.07925	19251.075
2326.92871	19192.475
2329.77637	19229.275
2332.62222	19220.275
2335.46626	19240.575
2338.3085	19244.175
2341.14893	19233.475
2343.98756	19250.975
2346.8244	19282.775
2349.65943	19266.075
2352.49267	19257.375
2355.32411	19283.075
2358.15376	19240.775
2360.98161	19266.375
2363.80768	19201.075
2366.63195	19192.775
2369.45444	19176.175
2372.27514	19169.075
2375.09405	19116.575
2377.91118	19089.475
2380.72652	18988.675
2383.54009	18960.975
2386.35187	18925.075
2389.16188	18820.675
2391.97011	18825.675
2394.77657	18786.875
2397.58125	18783.075
2400.38416	18762.575
2403.18529	18700.075
2405.98466	18679.475
2408.78226	18608.875
2411.57809	18574.975
2414.37216	18558.275
2417.16446	18536.675
2419.955	18514.875
2422.74378	18531.175
2425.5308	18501.075
2428.31606	18498.975
2431.09956	18469.675
2433.88131	18439.075
2436.6613	18440.975
2439.43954	18450.475
2442.21603	18474.375
2444.99077	18444.275
2447.76377	18453.875
2450.53501	18430.775
2453.30451	18467.175
2456.07226	18482.475
2458.83827	18490.575
2461.60254	18466.975
2464.36507	18490.075
2467.12586	18461.475
2469.88492	18472.475
2472.64224	18500.875
2475.39782	18516.875
2478.15167	18511.275
2480.90379	18497.875
2483.65417	18545.575
2486.40283	18563.175
2489.14976	18619.975
2491.89497	18571.675
2494.63845	18615.775
2497.3802	18569.675
2500.12024	18594.275
2502.85855	18591.175
2505.59514	18600.475
2508.33002	18555.975
2511.06318	18549.775
2513.79462	18523.275
2516.52435	18478.675
2519.25237	18466.075
2521.97867	18459.675
2524.70327	18403.575
2527.42616	18369.375
2530.14734	18391.875
2532.86681	18334.375
2535.58458	18373.275
2538.30065	18320.275
2541.01501	18356.075
2543.72768	18288.675
2546.43864	18317.075
2549.14791	18302.875
2551.85548	18304.675
2554.56136	18298.175
2557.26554	18285.075
2559.96803	18239.975
2562.66883	18243.875
2565.36794	18250.775
2568.06536	18240.175
2570.7611	18222.375
2573.45514	18193.375
2576.14751	18204.975
2578.83819	18191.875
2581.52719	18221.275
2584.21451	18243.775
2586.90015	18239.875
2589.58411	18241.275
2592.2664	18220.275
2594.94701	18215.375
2597.62594	18169.175
2600.30321	18162.975
2602.9788	18178.375
2605.65273	18180.375
2608.32498	18175.875
2610.99557	18208.475
2613.66449	18207.275
2616.33175	18230.375
2618.99734	18253.075
2621.66128	18241.275
2624.32355	18275.775
2626.98416	18270.875
2629.64311	18234.175
2632.30041	18248.975
2634.95605	18240.475
2637.61004	18229.075
2640.26238	18191.375
2642.91306	18172.275
2645.56209	18142.875
2648.20948	18138.375
2650.85521	18106.975
2653.4993	18130.875
2656.14175	18114.675
2658.78255	18139.775
2661.42171	18117.275
2664.05923	18145.575
2666.6951	18127.975
2669.32934	18179.975
2671.96194	18199.575
2674.59291	18201.075
2677.22224	18175.675
2679.84993	18169.375
2682.476	18182.575
2685.10043	18150.675
2687.72324	18133.375
2690.34441	18104.975
2692.96396	18089.675
2695.58188	18125.975
2698.19818	18075.975
2700.81285	18117.575
2703.4259	18063.175
2706.03733	18128.175
2708.64714	18092.975
2711.25533	18119.875
2713.86191	18121.675
2716.46687	18155.575
2719.07021	18124.775
2721.67194	18151.275
2724.27206	18107.975
2726.87057	18152.075
2729.46747	18141.675
2732.06276	18158.875
2734.65644	18163.975
2737.24852	18160.875
2739.83899	18137.675
2742.42786	18154.175
2745.01513	18136.975
2747.60079	18141.675
2750.18486	18134.775
2752.76733	18138.675
2755.3482	18138.775
2757.92747	18148.475
2760.50515	18134.175
2763.08123	18126.175
2765.65573	18149.575
2768.22863	18143.475
2770.79994	18098.375
2773.36967	18087.075
2775.9378	18088.275
2778.50435	18079.675
2781.06932	18095.975
2783.6327	18080.975
2786.1945	18077.975
2788.75471	18116.375
2791.31335	18033.575
2793.87041	18015.875
2796.42589	17964.675
2798.97979	17960.575
2801.53212	17933.775
2804.08288	17927.875
2806.63206	17892.675
2809.17967	17883.875
2811.72571	17837.175
2814.27018	17841.275
2816.81308	17827.275
2819.35442	17845.575
2821.89419	17855.975
2824.43239	17865.475
2826.96904	17849.275
2829.50412	17822.375
2832.03763	17750.275
2834.56959	17781.775
2837.1	17724.975
2839.62884	17778.175
2842.15613	17815.175
2844.68186	17850.375
2847.20604	17886.375
2849.72867	17909.575
2852.24974	17883.075
2854.76927	17879.775
2857.28724	17870.175
2859.80367	17859.775
2862.31855	17853.975
2864.83189	17807.875
2867.34368	17814.575
2869.85393	17809.775
2872.36264	17792.175
2874.8698	17826.575
2877.37543	17846.375
2879.87952	17857.075
2882.38207	17875.475
2884.88308	17873.775
2887.38256	17902.075
2889.88051	17873.175
2892.37692	17896.775
2894.8718	17892.775
2897.36515	17911.675
2899.85698	17896.475
2902.34727	17986.275
2904.83604	17969.975
2907.32328	18032.275
2909.809	17986.275
2912.29319	17974.175
2914.77587	18009.875
2917.25702	17994.775
2919.73665	17956.075
2922.21476	17966.875
2924.69136	17949.375
2927.16644	17938.175
2929.64	17915.375
2932.11205	17887.875
2934.58258	17821.075
2937.05161	17862.875
2939.51912	17841.475
2941.98513	17774.275
2944.44962	17722.375
2946.91261	17602.175
2949.37409	17619.875
2951.83407	17613.175
2954.29254	17615.375
2956.74951	17562.275
2959.20498	17502.475
2961.65895	17447.075
2964.11142	17451.375
2966.56239	17405.575
2969.01186	17406.575
2971.45984	17307.475
2973.90632	17256.975
2976.35131	17205.075
2978.7948	17142.975
2981.23681	17077.875
2983.67732	17051.775
2986.11635	16984.175
2988.55388	16957.075
2990.98993	16925.675
2993.4245	16885.575
2995.85758	16837.375
2998.28917	16786.675
3000.71928	16807.875
3003.14791	16762.875
3005.57506	16761.175
3008.00073	16672.475
3010.42493	16653.975
3012.84764	16635.175
3015.26888	16651.375
3017.68865	16585.175
3020.10694	16556.475
3022.52376	16501.275
3024.9391	16489.175
3027.35298	16454.175
3029.76539	16380.275
3032.17632	16401.075
3034.5858	16382.175
3036.9938	16391.275
3039.40034	16336.575
3041.80542	16353.075
3044.20903	16322.175
3046.61118	16314.875
3049.01187	16259.775
3051.4111	16260.075
3053.80888	16200.075
3056.20519	16156.575
3058.60005	16072.775
3060.99345	16083.075
3063.3854	16044.175
3065.7759	16012.375
3068.16494	15975.575
3070.55254	15938.475
3072.93868	15894.475
3075.32338	15871.575
3077.70662	15830.775
3080.08842	15776.975
3082.46878	15768.975
3084.84769	15732.075
3087.22515	15707.975
3089.60118	15688.075
3091.97576	15690.775
3094.3489	15683.575
3096.72061	15668.575
3099.09087	15683.375
3101.4597	15631.875
3103.82709	15580.475
3106.19305	15566.375
3108.55757	15546.675
3110.92066	15487.575
3113.28232	15452.875
3115.64255	15395.075
3118.00134	15391.875
3120.35871	15358.975
3122.71466	15346.675
3125.06917	15317.375
3127.42226	15312.375
