Data from AgNPs_FTO_APTES_UA_2uM_CRN_10uM_R6G_10uM_NaF_0.1M_Addition_RamanShift__7__13-26-15-145.txt Node

Date: Wed Feb 02 13:26:15 GMT 2022
User: TCL
Spectrometer: QEP01345
Trigger mode: 4
Integration Time (sec): 7.000000E0
Scans to average: 10
Electric dark correction enabled: true
Nonlinearity correction enabled: false
Boxcar width: 0
XAxis mode: Raman Shifts
Number of Pixels in Spectrum: 1044
>>>>>Begin Spectral Data<<<<<
46.04893	0.2625
50.45542	0.2625
54.85868	-1.1375
59.25871	-1.3375
63.6555	93.1625
68.04907	99.3625
72.43941	101.4625
76.82654	112.4625
81.21044	111.9625
85.59113	117.8625
89.96862	121.6625
94.34289	128.2625
98.71396	129.5625
103.08183	138.2625
107.4465	140.4625
111.80798	145.0625
116.16626	144.7625
120.52136	151.4625
124.87327	159.6625
129.222	166.4625
133.56755	182.4625
137.90993	195.3625
142.24913	218.1625
146.58517	247.2625
150.91804	284.8625
155.24774	346.3625
159.57429	432.0625
163.89768	558.4625
168.21792	740.8625
172.53501	1022.3625
176.84895	1424.2625
181.15975	1991.3625
185.46741	2796.3625
189.77193	3853.7625
194.07331	5152.6625
198.37157	6631.2625
202.6667	8207.9625
206.9587	9736.2625
211.24758	11256.2625
215.53334	12788.1625
219.81599	14395.5625
224.09553	16156.9625
228.37195	18136.5625
232.64527	20321.8625
236.91549	22537.7625
241.18261	24767.2625
245.44663	26896.3625
249.70755	28753.3625
253.96539	30375.1625
258.22014	31810.0625
262.4718	32885.9625
266.72039	33719.2625
270.96589	34083.0625
275.20832	34071.8625
279.44768	33867.9625
283.68397	33523.0625
287.91719	33268.1625
292.14735	33105.3625
296.37445	33150.7625
300.59849	33170.4625
304.81948	33355.6625
309.03742	33458.9625
313.25231	33315.9625
317.46415	32788.7625
321.67296	32017.2625
325.87872	31368.1625
330.08145	31015.5625
334.28114	30913.0625
338.47781	31057.6625
342.67145	31387.3625
346.86207	31747.8625
351.04966	32288.3625
355.23424	32850.0625
359.4158	33334.7625
363.59435	33698.9625
367.76989	33929.8625
371.94243	34129.7625
376.11196	34190.7625
380.27849	34237.6625
384.44203	34359.0625
388.60257	34621.5625
392.76012	35078.7625
396.91468	35638.0625
401.06626	36247.5625
405.21485	36590.3625
409.36047	36440.6625
413.50311	36147.8625
417.64277	35996.8625
421.77947	36196.9625
425.9132	36390.0625
430.04396	36532.4625
434.17176	36688.7625
438.2966	36796.9625
442.41849	37259.6625
446.53742	38126.0625
450.6534	39058.8625
454.76644	39679.3625
458.87653	39914.5625
462.98368	39716.7625
467.08789	39252.1625
471.18916	38689.0625
475.2875	38130.7625
479.38291	37815.0625
483.4754	37674.9625
487.56496	37333.6625
491.6516	36825.4625
495.73531	36177.0625
499.81612	35842.8625
503.89401	35926.6625
507.96899	36133.0625
512.04106	36165.0625
516.11023	35858.8625
520.1765	35371.6625
524.23987	34948.1625
528.30034	34552.6625
532.35792	34191.7625
536.41261	33755.0625
540.46441	33438.8625
544.51333	33442.2625
548.55936	33839.8625
552.60252	34559.3625
556.64279	35468.8625
560.6802	36148.4625
564.71473	36660.8625
568.7464	37409.6625
572.7752	38735.9625
576.80114	40280.6625
580.82422	41946.5625
584.84444	43903.8625
588.86181	46465.4625
592.87633	48442.7625
596.888	47787.2625
600.89682	44954.9625
604.9028	43403.8625
608.90594	44947.5625
612.90624	47033.9625
616.90371	43941.4625
620.89834	37625.6625
624.89015	34795.1625
628.87913	34615.8625
632.86528	34887.9625
636.84862	34822.3625
640.82913	34102.1625
644.80683	33192.7625
648.78172	32726.3625
652.75379	32796.2625
656.72306	33163.2625
660.68952	33513.3625
664.65319	33262.6625
668.61405	32698.8625
672.57211	32633.3625
676.52738	32761.6625
680.47986	32777.6625
684.42955	32513.8625
688.37646	32400.3625
692.32058	32571.8625
696.26192	33108.1625
700.20048	33645.8625
704.13626	34014.5625
708.06928	34130.2625
711.99952	34043.7625
715.927	34026.3625
719.85171	34152.0625
723.77365	33935.2625
727.69284	33264.6625
731.60928	32733.3625
735.52295	32483.7625
739.43388	32437.2625
743.34206	32548.9625
747.24749	32795.9625
751.15017	33224.8625
755.05012	33856.9625
758.94733	34955.6625
762.8418	36591.6625
766.73354	38854.5625
770.62254	40832.3625
774.50882	40914.1625
778.39237	38960.4625
782.27321	36504.5625
786.15132	34498.4625
790.02671	33300.9625
793.89938	32630.2625
797.76935	32384.4625
801.6366	32276.1625
805.50115	32192.9625
809.36299	32031.1625
813.22213	31804.3625
817.07857	31586.9625
820.93231	31482.8625
824.78336	31306.0625
828.63172	31093.2625
832.47738	30981.8625
836.32036	30943.4625
840.16066	30977.9625
843.99827	31004.2625
847.8332	30976.0625
851.66546	30965.7625
855.49504	30977.2625
859.32195	30953.3625
863.1462	30885.4625
866.96777	30795.5625
870.78668	30750.7625
874.60293	30732.6625
878.41652	30761.1625
882.22745	30865.8625
886.03573	30906.1625
889.84136	30932.3625
893.64433	30825.1625
897.44466	30707.8625
901.24235	30650.4625
905.0374	30622.5625
908.8298	30574.7625
912.61957	30644.2625
916.40671	31048.3625
920.19121	31496.2625
923.97308	31963.3625
927.75233	31983.7625
931.52895	31586.2625
935.30295	30892.5625
939.07433	30201.6625
942.84309	29772.8625
946.60924	29535.6625
950.37278	29508.5625
954.13371	29569.4625
957.89203	29569.9625
961.64774	29558.9625
965.40086	29625.0625
969.15137	29562.4625
972.89929	29295.0625
976.64461	29174.8625
980.38733	29095.1625
984.12747	29076.1625
987.86502	29253.0625
991.59999	29492.6625
995.33237	29757.4625
999.06217	30197.4625
1002.78939	30932.9625
1006.51404	31647.0625
1010.23611	32261.6625
1013.95561	32672.7625
1017.67255	32698.7625
1021.38692	32266.1625
1025.09872	31661.8625
1028.80796	31324.6625
1032.51465	31363.2625
1036.21877	31606.0625
1039.92035	31846.4625
1043.61937	31907.2625
1047.31584	31794.0625
1051.00976	31627.9625
1054.70114	31556.6625
1058.38998	31776.3625
1062.07627	32106.3625
1065.76003	32500.0625
1069.44126	33028.4625
1073.11995	33650.5625
1076.79611	34205.2625
1080.46974	34456.6625
1084.14085	34567.1625
1087.80943	34939.2625
1091.47549	35343.5625
1095.13903	35567.9625
1098.80005	35018.3625
1102.45857	34070.5625
1106.11456	33161.1625
1109.76805	32781.0625
1113.41903	32650.5625
1117.06751	32786.4625
1120.71348	33152.8625
1124.35696	33476.8625
1127.99793	33940.2625
1131.63641	34215.1625
1135.2724	34155.2625
1138.90589	34149.9625
1142.5369	34365.6625
1146.16542	34756.8625
1149.79145	35166.0625
1153.415	35653.5625
1157.03607	36347.3625
1160.65467	37651.6625
1164.27079	39645.3625
1167.88443	41930.9625
1171.49561	44169.3625
1175.10432	46840.5625
1178.71056	50062.5625
1182.31434	53202.8625
1185.91565	54668.5625
1189.51451	54267.7625
1193.11091	52980.1625
1196.70485	51343.8625
1200.29634	49544.5625
1203.88538	48335.5625
1207.47197	48063.4625
1211.05612	47884.1625
1214.63782	47235.0625
1218.21708	45817.6625
1221.79391	44120.8625
1225.36829	42780.7625
1228.94024	41996.7625
1232.50976	41389.9625
1236.07685	40825.5625
1239.6415	40477.6625
1243.20374	40477.8625
1246.76355	40779.4625
1250.32093	41482.2625
1253.8759	42448.4625
1257.42845	43694.9625
1260.97859	45097.9625
1264.52631	46642.2625
1268.07163	48091.6625
1271.61453	49575.8625
1275.15503	51074.1625
1278.69312	52796.6625
1282.22882	54666.3625
1285.76211	57035.1625
1289.29301	59681.4625
1292.82151	62763.4625
1296.34761	66502.2625
1299.87133	70684.0625
1303.39266	74684.7625
1306.9116	77832.3625
1310.42815	79806.8625
1313.94233	80464.3625
1317.45412	79770.9625
1320.96354	78470.8625
1324.47058	77765.7625
1327.97525	77571.9625
1331.47754	77353.9625
1334.97747	76825.3625
1338.47502	75742.5625
1341.97022	74173.4625
1345.46305	72414.5625
1348.95352	70924.8625
1352.44163	70377.2625
1355.92738	71579.6625
1359.41078	74284.2625
1362.89183	76690.2625
1366.37053	76224.6625
1369.84688	71182.1625
1373.32088	63599.9625
1376.79254	57948.8625
1380.26186	56098.1625
1383.72883	56406.9625
1387.19347	56762.6625
1390.65578	56314.9625
1394.11575	56116.9625
1397.57339	56731.5625
1401.0287	57941.5625
1404.48168	58909.0625
1407.93234	58813.6625
1411.38068	57357.8625
1414.82669	55039.3625
1418.27039	52453.2625
1421.71177	49947.3625
1425.15083	47935.7625
1428.58758	47171.3625
1432.02203	47774.0625
1435.45416	49370.9625
1438.88399	51113.0625
1442.31151	52366.6625
1445.73673	53097.4625
1449.15965	53479.0625
1452.58027	53544.0625
1455.9986	53342.2625
1459.41463	53411.8625
1462.82837	54150.9625
1466.23982	55203.5625
1469.64898	56091.7625
1473.05586	56714.9625
1476.46045	56745.0625
1479.86276	56367.7625
1483.26279	55838.0625
1486.66054	55479.9625
1490.05602	55799.3625
1493.44922	56460.8625
1496.84016	57132.3625
1500.22882	57942.1625
1503.61521	59000.5625
1506.99934	60099.5625
1510.38121	61012.0625
1513.76081	61238.8625
1517.13816	60441.7625
1520.51324	59406.5625
1523.88607	58880.2625
1527.25665	59040.6625
1530.62498	59279.4625
1533.99105	58898.6625
1537.35488	57795.0625
1540.71647	56015.9625
1544.07581	54050.8625
1547.4329	52072.0625
1550.78776	50581.3625
1554.14038	49523.6625
1557.49077	48895.5625
1560.83892	48577.6625
1564.18484	48482.7625
1567.52853	48418.7625
1570.86999	48862.2625
1574.20922	50011.5625
1577.54624	51185.4625
1580.88103	52092.7625
1584.2136	53293.1625
1587.54395	55529.3625
1590.87208	58924.2625
1594.19801	62713.5625
1597.52172	65806.0625
1600.84321	65840.4625
1604.16251	61928.1625
1607.47959	56123.3625
1610.79447	50428.3625
1614.10715	45564.8625
1617.41763	41919.5625
1620.7259	39514.2625
1624.03199	38439.1625
1627.33587	38644.5625
1630.63757	40076.1625
1633.93707	43207.0625
1637.23439	48484.2625
1640.52951	56104.7625
1643.82246	65231.0625
1647.11321	72088.7625
1650.40179	72812.5625
1653.68819	66473.4625
1656.97241	56507.5625
1660.25446	47073.9625
1663.53433	40233.5625
1666.81203	35827.7625
1670.08756	33115.0625
1673.36092	31457.4625
1676.63211	30336.1625
1679.90115	29550.1625
1683.16801	29043.5625
1686.43272	28597.6625
1689.69527	28317.4625
1692.95567	28049.1625
1696.2139	27882.1625
1699.46999	27784.4625
1702.72392	27680.9625
1705.97571	27563.0625
1709.22535	27428.5625
1712.47284	27358.0625
1715.71819	27309.5625
1718.96139	27255.6625
1722.20246	27108.2625
1725.44139	26983.3625
1728.67818	26819.7625
1731.91284	26652.4625
1735.14537	26432.4625
1738.37576	26343.4625
1741.60403	26199.7625
1744.83017	26150.6625
1748.05418	26080.8625
1751.27607	26027.7625
1754.49584	25958.9625
1757.71349	25954.1625
1760.92903	25903.3625
1764.14244	25856.9625
1767.35375	25824.6625
1770.56294	25802.3625
1773.77002	25741.8625
1776.97499	25644.1625
1780.17785	25565.6625
1783.37861	25509.6625
1786.57727	25489.4625
1789.77382	25409.3625
1792.96828	25363.2625
1796.16064	25317.1625
1799.3509	25333.7625
1802.53907	25230.9625
1805.72514	25167.5625
1808.90913	25074.8625
1812.09102	24997.2625
1815.27083	24998.5625
1818.44856	24978.4625
1821.6242	24914.2625
1824.79776	24930.0625
1827.96924	24923.5625
1831.13864	24896.5625
1834.30597	24870.7625
1837.47122	24900.2625
1840.6344	24934.1625
1843.7955	24922.2625
1846.95454	24943.5625
1850.11151	24918.7625
1853.26642	24886.1625
1856.41926	24877.3625
1859.57004	24811.9625
1862.71876	24810.0625
1865.86542	24805.3625
1869.01003	24738.0625
1872.15258	24666.4625
1875.29308	24630.4625
1878.43152	24606.6625
1881.56792	24602.3625
1884.70227	24592.8625
1887.83457	24538.3625
1890.96482	24508.0625
1894.09304	24464.3625
1897.21921	24457.6625
1900.34335	24422.2625
1903.46544	24350.2625
1906.58551	24320.8625
1909.70353	24253.8625
1912.81953	24175.1625
1915.93349	24120.3625
1919.04543	24075.1625
1922.15534	24039.5625
1925.26322	23951.9625
1928.36908	23897.1625
1931.47292	23841.8625
1934.57473	23752.4625
1937.67453	23700.0625
1940.77232	23648.9625
1943.86808	23560.2625
1946.96184	23547.8625
1950.05358	23470.2625
1953.14331	23404.3625
1956.23103	23325.4625
1959.31675	23249.2625
1962.40046	23168.8625
1965.48217	23151.8625
1968.56188	23060.2625
1971.63959	23008.5625
1974.7153	22914.0625
1977.78901	22844.5625
1980.86073	22723.2625
1983.93046	22673.0625
1986.99819	22614.9625
1990.06394	22561.0625
1993.1277	22488.4625
1996.18947	22423.6625
1999.24925	22364.1625
2002.30706	22273.4625
2005.36288	22191.6625
2008.41672	22120.3625
2011.46859	22093.5625
2014.51848	21982.0625
2017.56639	21967.6625
2020.61233	21946.2625
2023.6563	21890.8625
2026.6983	21853.1625
2029.73833	21778.9625
2032.7764	21719.5625
2035.8125	21693.7625
2038.84664	21681.9625
2041.87881	21635.3625
2044.90903	21562.3625
2047.93729	21550.0625
2050.96359	21535.4625
2053.98794	21465.2625
2057.01034	21498.5625
2060.03078	21471.6625
2063.04927	21419.7625
2066.06582	21402.8625
2069.08042	21406.9625
2072.09307	21374.2625
2075.10378	21338.5625
2078.11255	21337.9625
2081.11938	21333.1625
2084.12426	21298.7625
2087.12722	21263.0625
2090.12824	21301.7625
2093.12732	21312.9625
2096.12447	21306.8625
2099.11969	21327.1625
2102.11299	21340.0625
2105.10435	21338.1625
2108.09379	21319.8625
2111.08131	21318.0625
2114.0669	21334.3625
2117.05057	21351.3625
2120.03233	21339.5625
2123.01216	21361.2625
2125.99008	21390.4625
2128.96609	21385.2625
2131.94018	21416.1625
2134.91236	21425.5625
2137.88263	21424.0625
2140.851	21402.5625
2143.81746	21451.5625
2146.78201	21413.8625
2149.74466	21421.3625
2152.7054	21429.8625
2155.66425	21388.1625
2158.6212	21380.8625
2161.57625	21356.3625
2164.52941	21368.0625
2167.48067	21347.9625
2170.43004	21325.8625
2173.37752	21294.3625
2176.32311	21327.4625
2179.26681	21336.0625
2182.20863	21318.3625
2185.14856	21329.8625
2188.08661	21315.5625
2191.02278	21351.5625
2193.95707	21320.7625
2196.88948	21275.3625
2199.82001	21283.1625
2202.74867	21255.1625
2205.67545	21254.1625
2208.60037	21212.3625
2211.52341	21150.5625
2214.44458	21142.8625
2217.36388	21092.5625
2220.28132	21061.2625
2223.1969	21013.5625
2226.11061	21030.4625
2229.02246	20962.5625
2231.93245	20972.3625
2234.84058	20936.1625
2237.74686	20903.5625
2240.65128	20895.3625
2243.55385	20837.2625
2246.45456	20795.7625
2249.35343	20769.3625
2252.25044	20720.9625
2255.14561	20661.4625
2258.03893	20656.4625
2260.93041	20582.3625
2263.82004	20531.1625
2266.70783	20445.1625
2269.59378	20402.5625
2272.4779	20372.1625
2275.36017	20322.0625
2278.24061	20273.8625
2281.11922	20231.6625
2283.996	20182.7625
2286.87094	20175.5625
2289.74405	20140.4625
2292.61534	20138.8625
2295.4848	20119.0625
2298.35243	20130.6625
2301.21824	20134.4625
2304.08223	20065.3625
2306.94439	20067.6625
2309.80474	20069.8625
2312.66327	20047.6625
2315.51999	20025.5625
2318.37489	20005.5625
2321.22797	19950.9625
2324.07925	19948.5625
2326.92871	19924.6625
2329.77637	19951.3625
2332.62222	19909.8625
2335.46626	19881.7625
2338.3085	19852.1625
2341.14893	19864.5625
2343.98756	19857.7625
2346.8244	19883.8625
2349.65943	19861.8625
2352.49267	19831.1625
2355.32411	19818.8625
2358.15376	19806.3625
2360.98161	19811.2625
2363.80768	19792.4625
2366.63195	19760.2625
2369.45444	19747.7625
2372.27514	19705.9625
2375.09405	19691.1625
2377.91118	19644.2625
2380.72652	19589.1625
2383.54009	19542.4625
2386.35187	19581.6625
2389.16188	19473.9625
2391.97011	19463.2625
2394.77657	19421.4625
2397.58125	19425.1625
2400.38416	19417.0625
2403.18529	19393.5625
2405.98466	19346.4625
2408.78226	19324.7625
2411.57809	19317.6625
2414.37216	19282.8625
2417.16446	19286.7625
2419.955	19258.5625
2422.74378	19263.2625
2425.5308	19234.2625
2428.31606	19250.1625
2431.09956	19225.5625
2433.88131	19158.7625
2436.6613	19186.0625
2439.43954	19127.2625
2442.21603	19109.0625
2444.99077	19101.7625
2447.76377	19099.3625
2450.53501	19090.1625
2453.30451	19111.4625
2456.07226	19077.0625
2458.83827	19107.8625
2461.60254	19084.4625
2464.36507	19097.1625
2467.12586	19091.8625
2469.88492	19089.0625
2472.64224	19088.7625
2475.39782	19042.0625
2478.15167	19101.0625
2480.90379	19049.1625
2483.65417	19046.7625
2486.40283	19054.1625
2489.14976	19066.1625
2491.89497	19058.1625
2494.63845	19096.1625
2497.3802	19049.4625
2500.12024	19084.0625
2502.85855	19062.3625
2505.59514	19067.3625
2508.33002	19055.0625
2511.06318	19043.5625
2513.79462	19000.5625
2516.52435	18997.2625
2519.25237	18972.3625
2521.97867	18968.6625
2524.70327	18975.5625
2527.42616	18978.1625
2530.14734	18954.1625
2532.86681	18889.5625
2535.58458	18884.6625
2538.30065	18851.5625
2541.01501	18851.8625
2543.72768	18804.3625
2546.43864	18839.9625
2549.14791	18767.9625
2551.85548	18809.9625
2554.56136	18772.5625
2557.26554	18762.7625
2559.96803	18749.5625
2562.66883	18703.9625
2565.36794	18709.0625
2568.06536	18714.5625
2570.7611	18660.9625
2573.45514	18649.8625
2576.14751	18637.4625
2578.83819	18668.3625
2581.52719	18615.4625
2584.21451	18607.2625
2586.90015	18578.1625
2589.58411	18547.9625
2592.2664	18544.5625
2594.94701	18547.2625
2597.62594	18546.1625
2600.30321	18528.3625
2602.9788	18519.3625
2605.65273	18467.9625
2608.32498	18492.5625
2610.99557	18493.2625
2613.66449	18480.4625
2616.33175	18495.3625
2618.99734	18486.7625
2621.66128	18483.2625
2624.32355	18447.0625
2626.98416	18431.3625
2629.64311	18415.5625
2632.30041	18421.5625
2634.95605	18410.8625
2637.61004	18388.1625
2640.26238	18345.1625
2642.91306	18359.9625
2645.56209	18302.9625
2648.20948	18306.3625
2650.85521	18358.0625
2653.4993	18395.7625
2656.14175	18367.4625
2658.78255	18413.6625
2661.42171	18381.4625
2664.05923	18432.3625
2666.6951	18424.1625
2669.32934	18430.2625
2671.96194	18405.5625
2674.59291	18401.9625
2677.22224	18428.0625
2679.84993	18403.2625
2682.476	18391.3625
2685.10043	18405.8625
2687.72324	18382.2625
2690.34441	18376.0625
2692.96396	18375.2625
2695.58188	18407.4625
2698.19818	18391.2625
2700.81285	18422.2625
2703.4259	18403.1625
2706.03733	18452.1625
2708.64714	18433.7625
2711.25533	18432.2625
2713.86191	18426.6625
2716.46687	18375.7625
2719.07021	18433.0625
2721.67194	18436.8625
2724.27206	18429.5625
2726.87057	18468.1625
2729.46747	18515.7625
2732.06276	18488.5625
2734.65644	18459.6625
2737.24852	18475.9625
2739.83899	18430.9625
2742.42786	18425.5625
2745.01513	18433.3625
2747.60079	18442.3625
2750.18486	18393.6625
2752.76733	18448.7625
2755.3482	18439.7625
2757.92747	18435.1625
2760.50515	18412.9625
2763.08123	18407.5625
2765.65573	18398.7625
2768.22863	18352.2625
2770.79994	18337.5625
2773.36967	18313.8625
2775.9378	18310.6625
2778.50435	18308.5625
2781.06932	18334.8625
2783.6327	18363.0625
2786.1945	18323.7625
2788.75471	18303.3625
2791.31335	18244.7625
2793.87041	18210.2625
2796.42589	18179.6625
2798.97979	18168.1625
2801.53212	18150.0625
2804.08288	18152.9625
2806.63206	18075.4625
2809.17967	18063.6625
2811.72571	17985.5625
2814.27018	18009.6625
2816.81308	17997.7625
2819.35442	17921.5625
2821.89419	17901.0625
2824.43239	17900.1625
2826.96904	17882.4625
2829.50412	17901.8625
2832.03763	17817.8625
2834.56959	17832.0625
2837.1	17842.9625
2839.62884	17821.4625
2842.15613	17792.4625
2844.68186	17840.1625
2847.20604	17839.4625
2849.72867	17850.7625
2852.24974	17860.3625
2854.76927	17837.1625
2857.28724	17806.6625
2859.80367	17794.3625
2862.31855	17783.5625
2864.83189	17717.0625
2867.34368	17711.3625
2869.85393	17667.5625
2872.36264	17681.4625
2874.8698	17681.2625
2877.37543	17677.2625
2879.87952	17667.3625
2882.38207	17679.5625
2884.88308	17651.1625
2887.38256	17685.4625
2889.88051	17669.2625
2892.37692	17699.1625
2894.8718	17675.6625
2897.36515	17677.2625
2899.85698	17681.0625
2902.34727	17706.9625
2904.83604	17706.9625
2907.32328	17752.8625
2909.809	17736.4625
2912.29319	17681.8625
2914.77587	17695.1625
2917.25702	17680.0625
2919.73665	17643.3625
2922.21476	17688.1625
2924.69136	17659.7625
2927.16644	17707.3625
2929.64	17683.2625
2932.11205	17689.2625
2934.58258	17620.2625
2937.05161	17621.6625
2939.51912	17643.1625
2941.98513	17588.7625
2944.44962	17570.9625
2946.91261	17502.2625
2949.37409	17503.7625
2951.83407	17470.9625
2954.29254	17475.2625
2956.74951	17464.6625
2959.20498	17434.1625
2961.65895	17390.4625
2964.11142	17379.4625
2966.56239	17322.2625
2969.01186	17333.0625
2971.45984	17282.9625
2973.90632	17243.5625
2976.35131	17170.7625
2978.7948	17157.0625
2981.23681	17120.0625
2983.67732	17084.5625
2986.11635	17019.2625
2988.55388	16981.1625
2990.98993	16953.7625
2993.4245	16916.9625
2995.85758	16873.6625
2998.28917	16837.6625
3000.71928	16800.4625
3003.14791	16787.1625
3005.57506	16745.4625
3008.00073	16741.1625
3010.42493	16723.6625
3012.84764	16660.5625
3015.26888	16614.8625
3017.68865	16579.9625
3020.10694	16574.4625
3022.52376	16534.9625
