Data from AgNPs_FTO_APTES_UA_2uM_CRN_0uM_R6G_10uM_NaF_0.1M_Addition_RamanShift__10__10-16-04-924.txt Node

Date: Wed Feb 02 10:16:04 GMT 2022
User: TCL
Spectrometer: QEP01345
Trigger mode: 4
Integration Time (sec): 7.000000E0
Scans to average: 10
Electric dark correction enabled: true
Nonlinearity correction enabled: false
Boxcar width: 0
XAxis mode: Raman Shifts
Number of Pixels in Spectrum: 1044
>>>>>Begin Spectral Data<<<<<
46.04893	1.775
50.45542	0.175
54.85868	-1.025
59.25871	1.275
63.6555	23.975
68.04907	27.975
72.43941	28.475
76.82654	33.775
81.21044	35.375
85.59113	38.975
89.96862	39.475
94.34289	41.475
98.71396	43.875
103.08183	47.175
107.4465	45.075
111.80798	45.375
116.16626	46.275
120.52136	48.275
124.87327	45.875
129.222	43.175
133.56755	48.875
137.90993	49.575
142.24913	51.575
146.58517	55.975
150.91804	57.875
155.24774	67.775
159.57429	76.975
163.89768	92.375
168.21792	114.775
172.53501	151.575
176.84895	197.375
181.15975	265.675
185.46741	368.475
189.77193	505.675
194.07331	691.375
198.37157	895.275
202.6667	1119.775
206.9587	1349.175
211.24758	1581.475
215.53334	1816.975
219.81599	2057.675
224.09553	2336.275
228.37195	2636.975
232.64527	2947.775
236.91549	3306.875
241.18261	3638.175
245.44663	3964.575
249.70755	4249.875
253.96539	4470.475
258.22014	4634.175
262.4718	4762.275
266.72039	4778.575
270.96589	4755.975
275.20832	4657.175
279.44768	4515.075
283.68397	4329.275
287.91719	4161.375
292.14735	4025.975
296.37445	3930.275
300.59849	3841.875
304.81948	3796.275
309.03742	3766.075
313.25231	3709.875
317.46415	3609.875
321.67296	3505.875
325.87872	3397.275
330.08145	3340.375
334.28114	3292.975
338.47781	3307.875
342.67145	3324.675
346.86207	3360.875
351.04966	3407.475
355.23424	3450.675
359.4158	3476.975
363.59435	3498.375
367.76989	3506.275
371.94243	3469.675
376.11196	3464.075
380.27849	3448.675
384.44203	3422.275
388.60257	3398.775
392.76012	3401.575
396.91468	3415.575
401.06626	3429.775
405.21485	3439.875
409.36047	3427.475
413.50311	3366.875
417.64277	3320.075
421.77947	3289.275
425.9132	3270.075
430.04396	3264.975
434.17176	3271.175
438.2966	3279.975
442.41849	3334.875
446.53742	3362.575
450.6534	3413.375
454.76644	3435.475
458.87653	3457.975
462.98368	3446.575
467.08789	3444.375
471.18916	3411.875
475.2875	3404.375
479.38291	3364.275
483.4754	3349.775
487.56496	3336.675
491.6516	3330.175
495.73531	3331.975
499.81612	3317.075
503.89401	3343.975
507.96899	3362.175
512.04106	3393.975
516.11023	3403.075
520.1765	3415.375
524.23987	3412.875
528.30034	3397.575
532.35792	3369.875
536.41261	3352.075
540.46441	3336.075
544.51333	3325.875
548.55936	3353.475
552.60252	3378.675
556.64279	3411.175
560.6802	3452.375
564.71473	3462.775
568.7464	3503.775
572.7752	3526.075
576.80114	3490.275
580.82422	3461.875
584.84444	3441.875
588.86181	3448.575
592.87633	3484.575
596.888	3534.175
600.89682	3618.375
604.9028	3839.775
608.90594	4342.775
612.90624	5039.175
616.90371	5130.475
620.89834	4409.175
624.89015	3906.975
628.87913	3700.375
632.86528	3576.575
636.84862	3500.975
640.82913	3429.475
644.80683	3339.775
648.78172	3286.775
652.75379	3279.975
656.72306	3325.375
660.68952	3398.775
664.65319	3401.375
668.61405	3371.675
672.57211	3390.875
676.52738	3441.575
680.47986	3528.675
684.42955	3570.275
688.37646	3574.775
692.32058	3564.975
696.26192	3527.775
700.20048	3513.275
704.13626	3517.875
708.06928	3504.775
711.99952	3488.975
715.927	3462.075
719.85171	3439.575
723.77365	3438.675
727.69284	3413.775
731.60928	3389.375
735.52295	3371.875
739.43388	3363.375
743.34206	3367.975
747.24749	3336.975
751.15017	3361.375
755.05012	3376.375
758.94733	3408.975
762.8418	3539.675
766.73354	3755.475
770.62254	4053.075
774.50882	4234.375
778.39237	4167.975
782.27321	3882.475
786.15132	3642.475
790.02671	3463.175
793.89938	3417.175
797.76935	3382.575
801.6366	3392.675
805.50115	3379.575
809.36299	3382.875
813.22213	3384.875
817.07857	3376.375
820.93231	3377.675
824.78336	3363.775
828.63172	3364.675
832.47738	3355.275
836.32036	3350.875
840.16066	3350.675
843.99827	3356.775
847.8332	3361.475
851.66546	3360.475
855.49504	3364.775
859.32195	3375.475
863.1462	3383.975
866.96777	3391.575
870.78668	3427.075
874.60293	3433.575
878.41652	3470.275
882.22745	3501.575
886.03573	3557.075
889.84136	3635.175
893.64433	3699.275
897.44466	3757.175
901.24235	3822.575
905.0374	3908.275
908.8298	4009.775
912.61957	4150.975
916.40671	4298.575
920.19121	4432.275
923.97308	4552.975
927.75233	4645.575
931.52895	4641.575
935.30295	4546.175
939.07433	4391.475
942.84309	4198.675
946.60924	4059.275
950.37278	3926.275
954.13371	3843.175
957.89203	3746.875
961.64774	3683.375
965.40086	3613.175
969.15137	3538.575
972.89929	3498.375
976.64461	3452.875
980.38733	3405.275
984.12747	3378.375
987.86502	3363.775
991.59999	3357.875
995.33237	3363.275
999.06217	3369.475
1002.78939	3396.875
1006.51404	3407.375
1010.23611	3414.875
1013.95561	3455.975
1017.67255	3445.975
1021.38692	3441.275
1025.09872	3415.575
1028.80796	3411.675
1032.51465	3406.475
1036.21877	3437.875
1039.92035	3464.975
1043.61937	3491.775
1047.31584	3537.675
1051.00976	3578.875
1054.70114	3595.175
1058.38998	3600.775
1062.07627	3591.675
1065.76003	3571.175
1069.44126	3531.575
1073.11995	3493.375
1076.79611	3467.475
1080.46974	3458.075
1084.14085	3467.475
1087.80943	3485.475
1091.47549	3468.275
1095.13903	3437.175
1098.80005	3379.875
1102.45857	3333.675
1106.11456	3295.275
1109.76805	3268.875
1113.41903	3290.075
1117.06751	3320.875
1120.71348	3363.575
1124.35696	3439.275
1127.99793	3513.875
1131.63641	3560.875
1135.2724	3473.275
1138.90589	3381.475
1142.5369	3310.675
1146.16542	3258.975
1149.79145	3222.975
1153.415	3210.475
1157.03607	3194.875
1160.65467	3222.475
1164.27079	3265.375
1167.88443	3356.475
1171.49561	3475.875
1175.10432	3666.275
1178.71056	3959.075
1182.31434	4208.975
1185.91565	4332.675
1189.51451	4308.875
1193.11091	4172.875
1196.70485	3985.975
1200.29634	3836.075
1203.88538	3693.175
1207.47197	3567.675
1211.05612	3464.475
1214.63782	3399.375
1218.21708	3366.175
1221.79391	3361.775
1225.36829	3396.075
1228.94024	3412.375
1232.50976	3426.475
1236.07685	3445.875
1239.6415	3440.275
1243.20374	3424.475
1246.76355	3415.275
1250.32093	3439.475
1253.8759	3454.475
1257.42845	3507.675
1260.97859	3565.275
1264.52631	3642.875
1268.07163	3712.375
1271.61453	3773.075
1275.15503	3826.275
1278.69312	3850.775
1282.22882	3870.475
1285.76211	3919.375
1289.29301	4014.175
1292.82151	4120.375
1296.34761	4233.075
1299.87133	4343.375
1303.39266	4523.575
1306.9116	4768.875
1310.42815	5045.875
1313.94233	5185.075
1317.45412	5130.475
1320.96354	4914.875
1324.47058	4681.975
1327.97525	4494.175
1331.47754	4384.775
1334.97747	4332.175
1338.47502	4329.675
1341.97022	4401.475
1345.46305	4502.475
1348.95352	4684.675
1352.44163	4926.875
1355.92738	5267.575
1359.41078	5715.175
1362.89183	6190.275
1366.37053	6319.475
1369.84688	5821.975
1373.32088	5176.175
1376.79254	4769.175
1380.26186	4572.075
1383.72883	4488.775
1387.19347	4462.975
1390.65578	4401.275
1394.11575	4375.075
1397.57339	4333.975
1401.0287	4302.275
1404.48168	4282.875
1407.93234	4224.575
1411.38068	4147.775
1414.82669	4080.775
1418.27039	4041.875
1421.71177	3991.975
1425.15083	3944.575
1428.58758	3898.375
1432.02203	3844.275
1435.45416	3833.175
1438.88399	3849.075
1442.31151	3831.775
1445.73673	3812.375
1449.15965	3809.175
1452.58027	3771.175
1455.9986	3767.475
1459.41463	3762.675
1462.82837	3764.975
1466.23982	3781.175
1469.64898	3805.475
1473.05586	3830.775
1476.46045	3822.075
1479.86276	3860.475
1483.26279	3873.775
1486.66054	3919.875
1490.05602	3967.175
1493.44922	4063.175
1496.84016	4188.675
1500.22882	4406.975
1503.61521	4711.775
1506.99934	5123.475
1510.38121	5463.175
1513.76081	5595.475
1517.13816	5382.875
1520.51324	4955.875
1523.88607	4521.775
1527.25665	4192.875
1530.62498	4050.575
1533.99105	3927.575
1537.35488	3866.675
1540.71647	3813.175
1544.07581	3781.075
1547.4329	3746.775
1550.78776	3755.575
1554.14038	3733.375
1557.49077	3759.275
1560.83892	3766.875
1564.18484	3798.375
1567.52853	3833.075
1570.86999	3892.575
1574.20922	3924.475
1577.54624	3932.775
1580.88103	3826.375
1584.2136	3673.375
1587.54395	3557.375
1590.87208	3519.775
1594.19801	3537.375
1597.52172	3584.875
1600.84321	3648.475
1604.16251	3588.775
1607.47959	3489.575
1610.79447	3437.275
1614.10715	3345.475
1617.41763	3263.975
1620.7259	3192.775
1624.03199	3161.775
1627.33587	3164.075
1630.63757	3181.775
1633.93707	3218.375
1637.23439	3290.675
1640.52951	3422.675
1643.82246	3608.775
1647.11321	3861.975
1650.40179	4039.475
1653.68819	3999.375
1656.97241	3717.775
1660.25446	3337.675
1663.53433	3027.775
1666.81203	2859.375
1670.08756	2725.375
1673.36092	2632.775
1676.63211	2602.275
1679.90115	2561.675
1683.16801	2511.775
1686.43272	2480.275
1689.69527	2456.975
1692.95567	2410.775
1696.2139	2378.175
1699.46999	2380.175
1702.72392	2346.975
1705.97571	2343.775
1709.22535	2347.375
1712.47284	2336.075
1715.71819	2330.675
1718.96139	2318.075
1722.20246	2311.475
1725.44139	2298.775
1728.67818	2293.275
1731.91284	2276.575
1735.14537	2265.675
1738.37576	2253.975
1741.60403	2245.575
1744.83017	2244.775
1748.05418	2238.475
1751.27607	2244.875
1754.49584	2239.075
1757.71349	2237.375
1760.92903	2235.975
1764.14244	2223.275
1767.35375	2212.275
1770.56294	2195.275
1773.77002	2180.675
1776.97499	2169.175
1780.17785	2170.075
1783.37861	2166.775
1786.57727	2151.175
1789.77382	2142.575
1792.96828	2143.375
1796.16064	2122.275
1799.3509	2130.475
1802.53907	2129.775
1805.72514	2119.575
1808.90913	2096.675
1812.09102	2106.975
1815.27083	2084.775
1818.44856	2090.275
1821.6242	2088.575
1824.79776	2089.575
1827.96924	2072.375
1831.13864	2079.475
1834.30597	2067.775
1837.47122	2069.975
1840.6344	2065.175
1843.7955	2071.675
1846.95454	2053.375
1850.11151	2062.675
1853.26642	2061.975
1856.41926	2050.775
1859.57004	2051.675
1862.71876	2038.575
1865.86542	2044.075
1869.01003	2039.075
1872.15258	2034.575
1875.29308	2021.975
1878.43152	2014.875
1881.56792	2018.375
1884.70227	2009.475
1887.83457	2013.975
1890.96482	2005.075
1894.09304	1993.875
1897.21921	1999.875
1900.34335	2005.875
1903.46544	2001.875
1906.58551	2000.675
1909.70353	1994.275
1912.81953	1990.375
1915.93349	1980.875
1919.04543	1981.175
1922.15534	1975.075
1925.26322	1976.075
1928.36908	1969.775
1931.47292	1963.475
1934.57473	1957.475
1937.67453	1961.875
1940.77232	1941.075
1943.86808	1956.575
1946.96184	1944.175
1950.05358	1942.075
1953.14331	1924.275
1956.23103	1924.075
1959.31675	1912.275
1962.40046	1905.175
1965.48217	1901.375
1968.56188	1894.575
1971.63959	1888.675
1974.7153	1885.175
1977.78901	1874.575
1980.86073	1870.675
1983.93046	1873.175
1986.99819	1869.575
1990.06394	1860.175
1993.1277	1856.375
1996.18947	1846.675
1999.24925	1844.275
2002.30706	1830.475
2005.36288	1808.875
2008.41672	1829.675
2011.46859	1815.775
2014.51848	1808.275
2017.56639	1806.275
2020.61233	1801.975
2023.6563	1793.975
2026.6983	1785.175
2029.73833	1787.075
2032.7764	1793.475
2035.8125	1787.075
2038.84664	1783.775
2041.87881	1793.475
2044.90903	1786.875
2047.93729	1784.875
2050.96359	1800.675
2053.98794	1789.975
2057.01034	1797.875
2060.03078	1805.775
2063.04927	1807.275
2066.06582	1816.475
2069.08042	1812.975
2072.09307	1826.675
2075.10378	1837.175
2078.11255	1848.375
2081.11938	1854.975
2084.12426	1851.575
2087.12722	1862.775
2090.12824	1862.175
2093.12732	1858.575
2096.12447	1872.575
2099.11969	1871.975
2102.11299	1869.775
2105.10435	1865.975
2108.09379	1858.175
2111.08131	1855.775
2114.0669	1841.675
2117.05057	1839.575
2120.03233	1835.375
2123.01216	1823.575
2125.99008	1819.375
2128.96609	1816.075
2131.94018	1802.475
2134.91236	1797.475
2137.88263	1787.875
2140.851	1774.375
2143.81746	1769.175
2146.78201	1774.875
2149.74466	1765.275
2152.7054	1755.675
2155.66425	1752.075
2158.6212	1742.575
2161.57625	1738.975
2164.52941	1742.075
2167.48067	1739.175
2170.43004	1734.175
2173.37752	1724.975
2176.32311	1728.175
2179.26681	1727.575
2182.20863	1720.475
2185.14856	1719.375
2188.08661	1708.675
2191.02278	1719.375
2193.95707	1714.475
2196.88948	1716.275
2199.82001	1714.375
2202.74867	1717.375
2205.67545	1712.275
2208.60037	1710.075
2211.52341	1704.175
2214.44458	1697.775
2217.36388	1709.875
2220.28132	1689.275
2223.1969	1687.075
2226.11061	1676.375
2229.02246	1680.275
2231.93245	1669.375
2234.84058	1668.575
2237.74686	1660.275
2240.65128	1656.975
2243.55385	1655.175
2246.45456	1659.175
2249.35343	1662.275
2252.25044	1650.275
2255.14561	1656.675
2258.03893	1648.975
2260.93041	1649.275
2263.82004	1639.875
2266.70783	1636.975
2269.59378	1633.075
2272.4779	1624.975
2275.36017	1619.575
2278.24061	1618.675
2281.11922	1604.575
2283.996	1621.775
2286.87094	1614.575
2289.74405	1602.175
2292.61534	1595.075
2295.4848	1606.875
2298.35243	1585.375
2301.21824	1594.775
2304.08223	1582.875
2306.94439	1579.975
2309.80474	1581.175
2312.66327	1583.775
2315.51999	1580.175
2318.37489	1585.375
2321.22797	1574.475
2324.07925	1574.375
2326.92871	1564.075
2329.77637	1559.175
2332.62222	1556.575
2335.46626	1559.275
2338.3085	1554.175
2341.14893	1553.475
2343.98756	1550.775
2346.8244	1546.775
2349.65943	1551.075
2352.49267	1549.375
2355.32411	1544.875
2358.15376	1546.775
2360.98161	1548.975
2363.80768	1552.775
2366.63195	1536.175
2369.45444	1546.175
2372.27514	1544.775
2375.09405	1546.075
2377.91118	1527.875
2380.72652	1539.375
2383.54009	1528.175
2386.35187	1526.575
2389.16188	1516.675
2391.97011	1508.975
2394.77657	1503.775
2397.58125	1503.075
2400.38416	1499.975
2403.18529	1505.475
2405.98466	1493.575
2408.78226	1484.675
2411.57809	1484.375
2414.37216	1485.475
2417.16446	1484.075
2419.955	1482.275
2422.74378	1477.975
2425.5308	1474.075
2428.31606	1477.975
2431.09956	1478.175
2433.88131	1470.475
2436.6613	1473.275
2439.43954	1470.575
2442.21603	1466.675
2444.99077	1462.775
2447.76377	1465.975
2450.53501	1462.575
2453.30451	1459.175
2456.07226	1457.975
2458.83827	1454.775
2461.60254	1461.475
2464.36507	1456.475
2467.12586	1450.375
2469.88492	1451.975
2472.64224	1446.375
2475.39782	1435.775
2478.15167	1443.875
2480.90379	1448.075
2483.65417	1443.675
2486.40283	1449.375
2489.14976	1450.275
2491.89497	1442.175
2494.63845	1434.875
2497.3802	1427.875
2500.12024	1427.175
2502.85855	1433.275
2505.59514	1439.275
2508.33002	1422.075
2511.06318	1431.675
2513.79462	1414.875
2516.52435	1417.675
2519.25237	1417.675
2521.97867	1411.775
2524.70327	1407.475
2527.42616	1408.075
2530.14734	1402.075
2532.86681	1389.775
2535.58458	1400.475
2538.30065	1391.875
2541.01501	1388.975
2543.72768	1388.075
2546.43864	1384.475
2549.14791	1379.075
2551.85548	1379.175
2554.56136	1376.075
2557.26554	1374.675
2559.96803	1373.075
2562.66883	1357.975
2565.36794	1381.375
2568.06536	1369.875
2570.7611	1368.075
2573.45514	1364.075
2576.14751	1354.675
2578.83819	1354.775
2581.52719	1355.875
2584.21451	1360.175
2586.90015	1350.875
2589.58411	1336.575
2592.2664	1348.375
2594.94701	1344.975
2597.62594	1334.775
2600.30321	1336.075
2602.9788	1333.375
2605.65273	1333.775
2608.32498	1335.975
2610.99557	1332.475
2613.66449	1328.275
2616.33175	1331.075
2618.99734	1321.975
2621.66128	1324.175
2624.32355	1325.175
2626.98416	1322.375
2629.64311	1322.675
2632.30041	1315.575
2634.95605	1308.375
2637.61004	1317.475
2640.26238	1303.175
2642.91306	1309.775
2645.56209	1317.675
2648.20948	1303.575
2650.85521	1306.275
2653.4993	1298.475
2656.14175	1306.175
2658.78255	1306.975
2661.42171	1304.875
2664.05923	1302.275
2666.6951	1314.575
2669.32934	1310.975
2671.96194	1307.375
2674.59291	1317.875
2677.22224	1309.075
2679.84993	1312.475
2682.476	1305.775
2685.10043	1311.575
2687.72324	1305.975
2690.34441	1315.675
2692.96396	1313.975
2695.58188	1322.075
2698.19818	1318.575
2700.81285	1315.575
2703.4259	1308.675
2706.03733	1293.375
2708.64714	1299.975
2711.25533	1316.575
2713.86191	1305.675
2716.46687	1309.775
2719.07021	1317.975
2721.67194	1316.475
2724.27206	1314.975
2726.87057	1310.875
2729.46747	1310.675
2732.06276	1315.175
2734.65644	1306.975
2737.24852	1317.175
2739.83899	1314.275
2742.42786	1323.575
2745.01513	1308.275
2747.60079	1310.275
2750.18486	1304.175
2752.76733	1309.375
2755.3482	1310.275
2757.92747	1306.075
2760.50515	1308.675
2763.08123	1312.275
2765.65573	1310.075
2768.22863	1305.475
2770.79994	1298.575
2773.36967	1294.575
2775.9378	1302.775
2778.50435	1311.275
2781.06932	1295.375
2783.6327	1291.575
2786.1945	1298.675
2788.75471	1291.675
2791.31335	1291.275
2793.87041	1293.075
2796.42589	1297.675
2798.97979	1295.775
2801.53212	1284.875
2804.08288	1282.975
2806.63206	1293.175
2809.17967	1281.275
2811.72571	1271.775
2814.27018	1283.075
2816.81308	1276.775
2819.35442	1278.775
2821.89419	1273.375
2824.43239	1277.075
2826.96904	1280.175
2829.50412	1273.075
2832.03763	1275.775
2834.56959	1286.475
2837.1	1287.375
2839.62884	1290.075
2842.15613	1305.775
2844.68186	1336.775
2847.20604	1352.375
2849.72867	1365.775
2852.24974	1382.475
2854.76927	1365.875
2857.28724	1374.075
2859.80367	1387.075
2862.31855	1397.275
2864.83189	1400.275
2867.34368	1397.975
2869.85393	1414.175
2872.36264	1417.675
2874.8698	1435.075
2877.37543	1431.575
2879.87952	1436.575
2882.38207	1448.375
2884.88308	1452.075
2887.38256	1465.875
2889.88051	1470.975
2892.37692	1481.075
2894.8718	1482.475
2897.36515	1496.775
2899.85698	1497.775
2902.34727	1512.375
2904.83604	1515.875
2907.32328	1535.275
2909.809	1540.175
2912.29319	1542.875
2914.77587	1547.975
2917.25702	1547.975
2919.73665	1549.775
2922.21476	1549.875
2924.69136	1550.275
2927.16644	1564.875
2929.64	1563.275
2932.11205	1560.575
2934.58258	1554.575
2937.05161	1548.875
2939.51912	1546.175
2941.98513	1513.775
2944.44962	1512.775
2946.91261	1489.175
2949.37409	1470.575
2951.83407	1449.375
2954.29254	1436.675
2956.74951	1414.775
2959.20498	1403.375
2961.65895	1390.475
2964.11142	1378.575
2966.56239	1362.375
2969.01186	1352.575
2971.45984	1341.475
2973.90632	1332.575
2976.35131	1315.675
2978.7948	1304.175
2981.23681	1294.075
2983.67732	1289.775
2986.11635	1278.175
2988.55388	1277.875
2990.98993	1266.175
2993.4245	1256.575
2995.85758	1251.775
2998.28917	1247.675
3000.71928	1246.575
3003.14791	1248.575
3005.57506	1247.875
3008.00073	1240.775
3010.42493	1238.675
3012.84764	1232.475
3015.26888	1238.175
3017.68865	1235.475
3020.10694	1238.675
3022.52376	1228.475
3024.9391	1223.175
3027.35298	1227.575
3029.76539	1224.575
3032.17632	1227.775
3034.5858	1224.375
3036.9938	1220.275
3039.40034	1225.475
3041.80542	1226.475
3044.20903	1221.075
3046.61118	1218.475
3049.01187	1220.375
3051.4111	1214.675
3053.80888	1223.175
3056.20519	1213.275
3058.60005	1205.475
3060.99345	1226.675
3063.3854	1219.875
3065.7759	1221.075
3068.16494	1215.475
3070.55254	1217.275
3072.93868	1218.475
3075.32338	1221.675
3077.70662	1218.675
3080.08842	1218.075
3082.46878	1227.275
3084.84769	1223.075
3087.22515	1220.675
3089.60118	1226.675
3091.97576	1235.575
3094.3489	1238.975
3096.72061	1248.375
3099.09087	1240.575
3101.4597	1248.075
3103.82709	1247.275
3106.19305	1260.375
3108.55757	1255.175
3110.92066	1264.775
3113.28232	1248.175
3115.64255	1267.675
3118.00134	1269.675
3120.35871	1264.475
3122.71466	1273.075
3125.06917	1277.675
3127.42226	1276.375
3129.77393	1280.675
3132.12417	1287.375
3134.47299	1301.575
3136.82039	1301.375
3139.16636	1305.275
3141.51092	1314.875
3143.85406	1316.675
3146.19579	1323.875
3148.53609	1330.775
3150.87499	1333.675
3153.21246	1349.275
3155.54853	1350.075
3157.88318	1352.675
3160.21642	1368.475
3162.54826	1371.575
3164.87868	1372.975
3167.2077	1375.675
3169.5353	1378.675
3171.86151	1387.575
3174.18631	1383.475
3176.5097	1389.075
3178.83169	1406.875
3181.15228	1399.575
3183.47147	1394.075
3185.78926	1411.575
3188.10565	1417.775
3190.42065	1415.775
3192.73424	1435.475
3195.04645	1430.475
3197.35725	1435.275
3199.66667	1438.875
3201.97469	1444.575
3204.28132	1446.575
3206.58656	1458.475
3208.8904	1461.475
3211.19287	1463.475
3213.49394	1468.075
3215.79363	1462.875
3218.09193	1471.375
3220.38884	1478.075
3222.68438	1468.575
3224.97853	1474.275
3227.2713	1478.175
3229.56269	1473.875
3231.8527	1481.875
3234.14133	1489.575
3236.42858	1473.975
