Data from AgNPs_FTO_APTES_UA_2uM_CRN_500uM_R6G_10uM_NaF_0.1M_Addition_RamanShift__30__17-33-35-434.txt Node

Date: Wed Feb 02 17:33:35 GMT 2022
User: TCL
Spectrometer: QEP01345
Trigger mode: 4
Integration Time (sec): 7.000000E0
Scans to average: 10
Electric dark correction enabled: true
Nonlinearity correction enabled: false
Boxcar width: 0
XAxis mode: Raman Shifts
Number of Pixels in Spectrum: 1044
>>>>>Begin Spectral Data<<<<<
46.04893	0.2125
50.45542	1.4125
54.85868	-0.8875
59.25871	0.0125
63.6555	41.5125
68.04907	45.5125
72.43941	47.5125
76.82654	52.1125
81.21044	53.6125
85.59113	59.6125
89.96862	62.9125
94.34289	61.5125
98.71396	65.7125
103.08183	71.9125
107.4465	69.2125
111.80798	70.9125
116.16626	71.5125
120.52136	71.4125
124.87327	72.7125
129.222	72.8125
133.56755	80.5125
137.90993	79.6125
142.24913	90.9125
146.58517	96.9125
150.91804	106.2125
155.24774	123.7125
159.57429	149.3125
163.89768	184.9125
168.21792	233.7125
172.53501	315.5125
176.84895	427.5125
181.15975	596.2125
185.46741	836.7125
189.77193	1133.5125
194.07331	1513.5125
198.37157	1949.9125
202.6667	2410.4125
206.9587	2843.6125
211.24758	3288.6125
215.53334	3764.6125
219.81599	4257.4125
224.09553	4849.7125
228.37195	5483.6125
232.64527	6170.8125
236.91549	6856.4125
241.18261	7487.9125
245.44663	8022.6125
249.70755	8498.7125
253.96539	8874.9125
258.22014	9212.2125
262.4718	9519.6125
266.72039	9732.4125
270.96589	9892.5125
275.20832	9977.8125
279.44768	9956.6125
283.68397	9917.8125
287.91719	9933.1125
292.14735	10001.4125
296.37445	10195.0125
300.59849	10403.1125
304.81948	10676.0125
309.03742	10874.9125
313.25231	10798.4125
317.46415	10264.3125
321.67296	9501.8125
325.87872	8881.0125
330.08145	8571.0125
334.28114	8514.5125
338.47781	8646.8125
342.67145	8851.8125
346.86207	9186.4125
351.04966	9694.2125
355.23424	10228.2125
359.4158	10630.2125
363.59435	10787.0125
367.76989	10783.9125
371.94243	10695.5125
376.11196	10617.3125
380.27849	10534.7125
384.44203	10424.6125
388.60257	10312.2125
392.76012	10277.5125
396.91468	10420.4125
401.06626	10701.6125
405.21485	10972.8125
409.36047	10826.8125
413.50311	10356.3125
417.64277	9892.3125
421.77947	9613.5125
425.9132	9514.5125
430.04396	9529.7125
434.17176	9557.7125
438.2966	9623.3125
442.41849	9790.4125
446.53742	10048.3125
450.6534	10292.6125
454.76644	10449.3125
458.87653	10512.1125
462.98368	10465.8125
467.08789	10353.2125
471.18916	10208.2125
475.2875	10025.9125
479.38291	9871.8125
483.4754	9742.8125
487.56496	9594.3125
491.6516	9482.8125
495.73531	9422.5125
499.81612	9446.7125
503.89401	9539.0125
507.96899	9626.2125
512.04106	9698.6125
516.11023	9740.4125
520.1765	9764.2125
524.23987	9724.8125
528.30034	9544.9125
532.35792	9347.8125
536.41261	9177.7125
540.46441	8971.0125
544.51333	8905.8125
548.55936	9044.3125
552.60252	9317.8125
556.64279	9608.5125
560.6802	9735.4125
564.71473	9949.0125
568.7464	10378.1125
572.7752	10650.8125
576.80114	10416.4125
580.82422	10104.9125
584.84444	9949.0125
588.86181	9806.3125
592.87633	9738.3125
596.888	9797.4125
600.89682	10083.0125
604.9028	11105.5125
608.90594	13738.5125
612.90624	17261.4125
616.90371	16691.9125
620.89834	12000.5125
624.89015	9664.6125
628.87913	9214.2125
632.86528	9256.7125
636.84862	9385.4125
640.82913	9285.2125
644.80683	8915.5125
648.78172	8649.8125
652.75379	8675.4125
656.72306	9014.1125
660.68952	9450.1125
664.65319	9407.2125
668.61405	9044.4125
672.57211	8799.2125
676.52738	8812.5125
680.47986	8823.3125
684.42955	8771.2125
688.37646	8729.5125
692.32058	8772.3125
696.26192	8861.4125
700.20048	8993.8125
704.13626	9107.8125
708.06928	9133.4125
711.99952	9005.1125
715.927	8923.3125
719.85171	8899.5125
723.77365	8863.9125
727.69284	8734.6125
731.60928	8625.7125
735.52295	8578.4125
739.43388	8568.8125
743.34206	8621.9125
747.24749	8665.7125
751.15017	8765.8125
755.05012	8968.0125
758.94733	9428.6125
762.8418	10454.5125
766.73354	12158.0125
770.62254	13858.5125
774.50882	14576.1125
778.39237	13822.3125
782.27321	12055.3125
786.15132	10300.9125
790.02671	9298.0125
793.89938	8840.0125
797.76935	8620.0125
801.6366	8541.5125
805.50115	8473.5125
809.36299	8435.2125
813.22213	8415.9125
817.07857	8396.2125
820.93231	8383.6125
824.78336	8424.4125
828.63172	8486.3125
832.47738	8475.7125
836.32036	8429.0125
840.16066	8376.4125
843.99827	8319.1125
847.8332	8275.7125
851.66546	8253.2125
855.49504	8225.7125
859.32195	8187.4125
863.1462	8159.7125
866.96777	8118.9125
870.78668	8099.0125
874.60293	8124.2125
878.41652	8124.1125
882.22745	8161.7125
886.03573	8175.6125
889.84136	8193.0125
893.64433	8132.6125
897.44466	8114.6125
901.24235	8114.2125
905.0374	8066.4125
908.8298	8063.7125
912.61957	8080.6125
916.40671	8155.7125
920.19121	8263.8125
923.97308	8296.7125
927.75233	8364.2125
931.52895	8365.0125
935.30295	8258.6125
939.07433	7993.8125
942.84309	7804.5125
946.60924	7651.8125
950.37278	7563.1125
954.13371	7536.8125
957.89203	7493.4125
961.64774	7484.0125
965.40086	7451.9125
969.15137	7422.5125
972.89929	7387.4125
976.64461	7374.8125
980.38733	7354.8125
984.12747	7369.7125
987.86502	7359.5125
991.59999	7426.3125
995.33237	7488.0125
999.06217	7627.0125
1002.78939	7792.8125
1006.51404	7944.5125
1010.23611	8122.8125
1013.95561	8205.3125
1017.67255	8166.2125
1021.38692	8060.0125
1025.09872	7915.5125
1028.80796	7837.3125
1032.51465	7852.0125
1036.21877	7959.8125
1039.92035	8085.5125
1043.61937	8195.1125
1047.31584	8181.4125
1051.00976	8183.6125
1054.70114	8215.3125
1058.38998	8272.4125
1062.07627	8334.2125
1065.76003	8435.9125
1069.44126	8503.6125
1073.11995	8572.5125
1076.79611	8659.9125
1080.46974	8731.7125
1084.14085	8905.0125
1087.80943	9135.2125
1091.47549	9244.4125
1095.13903	9148.5125
1098.80005	8874.8125
1102.45857	8568.0125
1106.11456	8357.5125
1109.76805	8329.3125
1113.41903	8440.3125
1117.06751	8672.3125
1120.71348	9002.2125
1124.35696	9401.7125
1127.99793	9727.0125
1131.63641	9739.2125
1135.2724	9296.5125
1138.90589	8885.0125
1142.5369	8694.6125
1146.16542	8566.4125
1149.79145	8528.5125
1153.415	8551.9125
1157.03607	8682.3125
1160.65467	8865.1125
1164.27079	9211.2125
1167.88443	9693.3125
1171.49561	10460.7125
1175.10432	11725.9125
1178.71056	13341.0125
1182.31434	14441.1125
1185.91565	14572.0125
1189.51451	14198.9125
1193.11091	13518.1125
1196.70485	12722.1125
1200.29634	12057.8125
1203.88538	11471.3125
1207.47197	10777.8125
1211.05612	10189.6125
1214.63782	9855.4125
1218.21708	9778.8125
1221.79391	9768.8125
1225.36829	9819.2125
1228.94024	9859.3125
1232.50976	9902.4125
1236.07685	9923.3125
1239.6415	9916.2125
1243.20374	9917.8125
1246.76355	9980.8125
1250.32093	10090.2125
1253.8759	10294.2125
1257.42845	10604.0125
1260.97859	10906.4125
1264.52631	11209.6125
1268.07163	11489.9125
1271.61453	11782.8125
1275.15503	12009.4125
1278.69312	12094.7125
1282.22882	12147.8125
1285.76211	12390.4125
1289.29301	12793.5125
1292.82151	13231.3125
1296.34761	13685.3125
1299.87133	14337.9125
1303.39266	15375.6125
1306.9116	16932.0125
1310.42815	18740.9125
1313.94233	19935.6125
1317.45412	19833.5125
1320.96354	18914.4125
1324.47058	17771.7125
1327.97525	16791.9125
1331.47754	16134.8125
1334.97747	15865.3125
1338.47502	15855.3125
1341.97022	16032.0125
1345.46305	16383.3125
1348.95352	16838.4125
1352.44163	17558.5125
1355.92738	18787.0125
1359.41078	21008.6125
1362.89183	23194.8125
1366.37053	22723.6125
1369.84688	19662.8125
1373.32088	16602.4125
1376.79254	14650.5125
1380.26186	13667.6125
1383.72883	13154.8125
1387.19347	12848.5125
1390.65578	12453.6125
1394.11575	12161.6125
1397.57339	12049.8125
1401.0287	12113.7125
1404.48168	12262.0125
1407.93234	12366.8125
1411.38068	12374.8125
1414.82669	12167.3125
1418.27039	11840.7125
1421.71177	11420.0125
1425.15083	11030.8125
1428.58758	10782.6125
1432.02203	10728.9125
1435.45416	10793.9125
1438.88399	10850.2125
1442.31151	10884.9125
1445.73673	10959.3125
1449.15965	11071.0125
1452.58027	11145.2125
1455.9986	11135.5125
1459.41463	11213.8125
1462.82837	11355.4125
1466.23982	11595.0125
1469.64898	11863.3125
1473.05586	12016.5125
1476.46045	12098.9125
1479.86276	12234.4125
1483.26279	12434.8125
1486.66054	12693.6125
1490.05602	13048.7125
1493.44922	13543.1125
1496.84016	14288.4125
1500.22882	15561.3125
1503.61521	17195.7125
1506.99934	19026.1125
1510.38121	20835.6125
1513.76081	21907.7125
1517.13816	21249.7125
1520.51324	19169.9125
1523.88607	16828.9125
1527.25665	15214.5125
1530.62498	14249.7125
1533.99105	13715.1125
1537.35488	13313.5125
1540.71647	13033.2125
1544.07581	12802.4125
1547.4329	12652.6125
1550.78776	12468.4125
1554.14038	12406.5125
1557.49077	12469.4125
1560.83892	12738.3125
1564.18484	13048.8125
1567.52853	13481.3125
1570.86999	13767.3125
1574.20922	13902.2125
1577.54624	13776.5125
1580.88103	13238.1125
1584.2136	12456.6125
1587.54395	12067.9125
1590.87208	12241.8125
1594.19801	12816.4125
1597.52172	13564.9125
1600.84321	13862.1125
1604.16251	13346.2125
1607.47959	12443.5125
1610.79447	11511.2125
1614.10715	10609.1125
1617.41763	9904.4125
1620.7259	9435.0125
1624.03199	9163.4125
1627.33587	9152.1125
1630.63757	9319.3125
1633.93707	9671.3125
1637.23439	10307.7125
1640.52951	11248.3125
1643.82246	12543.9125
1647.11321	14060.4125
1650.40179	15215.0125
1653.68819	14980.9125
1656.97241	13309.3125
1660.25446	11209.7125
1663.53433	9587.4125
1666.81203	8589.0125
1670.08756	7989.3125
1673.36092	7602.8125
1676.63211	7356.2125
1679.90115	7193.0125
1683.16801	7053.8125
1686.43272	6954.2125
1689.69527	6872.3125
1692.95567	6837.6125
1696.2139	6807.2125
1699.46999	6785.8125
1702.72392	6746.6125
1705.97571	6706.4125
1709.22535	6677.8125
1712.47284	6655.8125
1715.71819	6653.9125
1718.96139	6660.2125
1722.20246	6628.4125
1725.44139	6597.1125
1728.67818	6560.2125
1731.91284	6503.7125
1735.14537	6458.3125
1738.37576	6417.9125
1741.60403	6383.7125
1744.83017	6343.6125
1748.05418	6321.3125
1751.27607	6326.6125
1754.49584	6317.7125
1757.71349	6309.2125
1760.92903	6305.4125
1764.14244	6266.8125
1767.35375	6266.4125
1770.56294	6253.4125
1773.77002	6223.7125
1776.97499	6168.9125
1780.17785	6145.7125
1783.37861	6122.0125
1786.57727	6097.8125
1789.77382	6077.6125
1792.96828	6080.0125
1796.16064	6056.1125
1799.3509	6039.4125
1802.53907	6032.0125
1805.72514	6007.4125
1808.90913	6007.3125
1812.09102	5979.7125
1815.27083	5956.3125
1818.44856	5958.5125
1821.6242	5922.9125
1824.79776	5924.8125
1827.96924	5908.2125
1831.13864	5902.1125
1834.30597	5902.4125
1837.47122	5903.9125
1840.6344	5892.8125
1843.7955	5898.7125
1846.95454	5883.6125
1850.11151	5883.1125
1853.26642	5877.4125
1856.41926	5875.0125
1859.57004	5853.7125
1862.71876	5852.7125
1865.86542	5851.6125
1869.01003	5844.7125
1872.15258	5860.6125
1875.29308	5849.9125
1878.43152	5863.8125
1881.56792	5846.3125
1884.70227	5854.3125
1887.83457	5856.8125
1890.96482	5856.4125
1894.09304	5858.5125
1897.21921	5839.4125
1900.34335	5864.7125
1903.46544	5843.6125
1906.58551	5857.3125
1909.70353	5856.2125
1912.81953	5848.6125
1915.93349	5861.7125
1919.04543	5850.0125
1922.15534	5834.7125
1925.26322	5836.0125
1928.36908	5807.2125
1931.47292	5781.7125
1934.57473	5751.9125
1937.67453	5710.1125
1940.77232	5668.6125
1943.86808	5641.4125
1946.96184	5622.7125
1950.05358	5598.5125
1953.14331	5568.3125
1956.23103	5556.3125
1959.31675	5532.1125
1962.40046	5508.2125
1965.48217	5490.1125
1968.56188	5471.8125
1971.63959	5448.7125
1974.7153	5466.4125
1977.78901	5414.1125
1980.86073	5416.4125
1983.93046	5368.3125
1986.99819	5352.3125
1990.06394	5345.9125
1993.1277	5330.9125
1996.18947	5291.8125
1999.24925	5282.7125
2002.30706	5273.0125
2005.36288	5254.5125
2008.41672	5242.4125
2011.46859	5217.4125
2014.51848	5206.3125
2017.56639	5174.6125
2020.61233	5169.5125
2023.6563	5148.5125
2026.6983	5156.4125
2029.73833	5126.3125
2032.7764	5112.6125
2035.8125	5107.2125
2038.84664	5089.2125
2041.87881	5086.5125
2044.90903	5067.7125
2047.93729	5047.5125
2050.96359	5036.5125
2053.98794	5048.3125
2057.01034	5025.6125
2060.03078	5027.1125
2063.04927	5015.8125
2066.06582	5003.1125
2069.08042	5004.0125
2072.09307	4998.5125
2075.10378	4990.3125
2078.11255	4989.4125
2081.11938	4987.5125
2084.12426	4980.0125
2087.12722	4986.0125
2090.12824	4966.3125
2093.12732	4973.8125
2096.12447	4971.1125
2099.11969	4966.6125
2102.11299	4968.9125
2105.10435	4978.1125
2108.09379	4970.0125
2111.08131	4976.8125
2114.0669	4975.9125
2117.05057	4972.2125
2120.03233	4990.1125
2123.01216	4983.2125
2125.99008	4986.9125
2128.96609	4981.8125
2131.94018	4990.5125
2134.91236	4981.3125
2137.88263	5001.6125
2140.851	4990.8125
2143.81746	4980.0125
2146.78201	4990.6125
2149.74466	4969.6125
2152.7054	4984.0125
2155.66425	4975.3125
2158.6212	4953.3125
2161.57625	4958.5125
2164.52941	4963.5125
2167.48067	4965.7125
2170.43004	4940.0125
2173.37752	4951.1125
2176.32311	4944.0125
2179.26681	4939.2125
2182.20863	4941.6125
2185.14856	4946.1125
2188.08661	4945.8125
2191.02278	4930.2125
2193.95707	4924.8125
2196.88948	4917.7125
2199.82001	4904.6125
2202.74867	4899.1125
2205.67545	4891.1125
2208.60037	4899.2125
2211.52341	4874.2125
2214.44458	4869.8125
2217.36388	4852.4125
2220.28132	4846.1125
2223.1969	4827.1125
2226.11061	4835.7125
2229.02246	4811.3125
2231.93245	4810.7125
2234.84058	4806.2125
2237.74686	4784.7125
2240.65128	4786.9125
2243.55385	4773.5125
2246.45456	4753.1125
2249.35343	4758.6125
2252.25044	4756.3125
2255.14561	4729.5125
2258.03893	4749.0125
2260.93041	4733.3125
2263.82004	4728.4125
2266.70783	4719.7125
2269.59378	4694.3125
2272.4779	4715.1125
2275.36017	4679.0125
2278.24061	4663.5125
2281.11922	4644.5125
2283.996	4647.6125
2286.87094	4638.6125
2289.74405	4612.1125
2292.61534	4610.6125
2295.4848	4606.6125
2298.35243	4596.5125
2301.21824	4582.6125
2304.08223	4581.9125
2306.94439	4550.8125
2309.80474	4578.2125
2312.66327	4560.0125
2315.51999	4575.3125
2318.37489	4555.8125
2321.22797	4555.9125
2324.07925	4536.8125
2326.92871	4548.7125
2329.77637	4538.0125
2332.62222	4538.8125
2335.46626	4520.2125
2338.3085	4521.1125
2341.14893	4513.0125
2343.98756	4507.4125
2346.8244	4500.2125
2349.65943	4490.2125
2352.49267	4509.6125
2355.32411	4524.2125
2358.15376	4518.4125
2360.98161	4539.7125
2363.80768	4529.0125
2366.63195	4527.1125
2369.45444	4525.9125
2372.27514	4516.9125
2375.09405	4513.3125
2377.91118	4509.1125
2380.72652	4479.5125
2383.54009	4476.4125
2386.35187	4465.9125
2389.16188	4437.7125
2391.97011	4433.5125
2394.77657	4399.3125
2397.58125	4380.7125
2400.38416	4394.2125
2403.18529	4371.3125
2405.98466	4347.8125
2408.78226	4359.5125
2411.57809	4347.4125
2414.37216	4348.5125
2417.16446	4343.2125
2419.955	4333.7125
2422.74378	4336.4125
2425.5308	4338.3125
2428.31606	4313.2125
2431.09956	4307.4125
2433.88131	4316.9125
2436.6613	4311.6125
2439.43954	4315.2125
2442.21603	4301.5125
2444.99077	4299.1125
2447.76377	4299.5125
2450.53501	4298.7125
2453.30451	4307.3125
2456.07226	4297.5125
2458.83827	4311.8125
2461.60254	4291.3125
2464.36507	4299.3125
2467.12586	4302.6125
2469.88492	4286.7125
2472.64224	4287.4125
2475.39782	4285.5125
2478.15167	4298.3125
2480.90379	4294.5125
2483.65417	4291.9125
2486.40283	4299.3125
2489.14976	4303.7125
2491.89497	4313.2125
2494.63845	4329.7125
2497.3802	4310.4125
2500.12024	4298.3125
2502.85855	4292.3125
2505.59514	4287.5125
2508.33002	4269.9125
2511.06318	4261.2125
2513.79462	4249.9125
2516.52435	4220.4125
2519.25237	4220.3125
2521.97867	4189.5125
2524.70327	4199.0125
2527.42616	4192.5125
2530.14734	4171.2125
2532.86681	4166.6125
2535.58458	4158.5125
2538.30065	4179.7125
2541.01501	4164.1125
2543.72768	4150.0125
2546.43864	4150.7125
2549.14791	4142.8125
2551.85548	4145.0125
2554.56136	4146.4125
2557.26554	4136.7125
2559.96803	4133.2125
2562.66883	4120.6125
2565.36794	4122.0125
2568.06536	4117.9125
2570.7611	4114.3125
2573.45514	4097.8125
2576.14751	4103.0125
2578.83819	4089.8125
2581.52719	4087.5125
2584.21451	4070.5125
2586.90015	4073.2125
2589.58411	4054.7125
2592.2664	4053.4125
2594.94701	4056.4125
2597.62594	4047.8125
2600.30321	4058.0125
2602.9788	4054.3125
2605.65273	4043.2125
2608.32498	4039.6125
2610.99557	4034.6125
2613.66449	4039.6125
2616.33175	4034.5125
2618.99734	4022.9125
2621.66128	4026.4125
2624.32355	4020.9125
2626.98416	4010.7125
2629.64311	4003.7125
2632.30041	4005.6125
2634.95605	3990.7125
2637.61004	3988.7125
2640.26238	3977.0125
2642.91306	3979.6125
2645.56209	3966.5125
2648.20948	3962.2125
2650.85521	3962.0125
2653.4993	3967.0125
2656.14175	3964.8125
2658.78255	3969.7125
2661.42171	3984.3125
2664.05923	3974.5125
2666.6951	3974.1125
2669.32934	3979.7125
2671.96194	3986.9125
2674.59291	3986.3125
2677.22224	3991.4125
2679.84993	3993.0125
2682.476	4002.3125
2685.10043	3990.1125
2687.72324	3991.1125
2690.34441	3995.3125
2692.96396	3980.7125
2695.58188	3997.5125
2698.19818	3989.9125
2700.81285	3996.6125
2703.4259	4004.0125
2706.03733	4015.3125
2708.64714	3996.5125
2711.25533	4017.4125
2713.86191	4001.4125
2716.46687	4027.6125
2719.07021	4026.5125
2721.67194	4019.0125
2724.27206	4019.7125
2726.87057	4014.6125
2729.46747	4019.5125
2732.06276	4008.5125
2734.65644	4004.9125
2737.24852	4002.1125
2739.83899	3981.5125
2742.42786	3988.0125
2745.01513	3981.8125
2747.60079	3960.9125
2750.18486	3957.3125
2752.76733	3970.4125
2755.3482	3956.8125
2757.92747	3960.6125
2760.50515	3940.4125
2763.08123	3941.1125
2765.65573	3940.7125
2768.22863	3929.3125
2770.79994	3951.5125
2773.36967	3927.0125
2775.9378	3919.7125
2778.50435	3928.9125
2781.06932	3901.6125
2783.6327	3922.8125
2786.1945	3919.5125
2788.75471	3923.4125
2791.31335	3911.2125
2793.87041	3921.2125
2796.42589	3910.8125
2798.97979	3911.4125
2801.53212	3905.4125
2804.08288	3906.8125
2806.63206	3914.7125
2809.17967	3903.8125
2811.72571	3893.0125
2814.27018	3915.2125
2816.81308	3916.9125
2819.35442	3917.9125
2821.89419	3923.4125
2824.43239	3924.2125
2826.96904	3926.4125
2829.50412	3932.4125
2832.03763	3945.0125
2834.56959	3941.8125
2837.1	3968.9125
2839.62884	4002.1125
2842.15613	4034.6125
2844.68186	4124.6125
2847.20604	4204.6125
2849.72867	4278.2125
2852.24974	4292.1125
2854.76927	4297.1125
2857.28724	4277.0125
2859.80367	4269.1125
2862.31855	4252.5125
2864.83189	4212.8125
2867.34368	4203.6125
2869.85393	4212.3125
2872.36264	4200.4125
2874.8698	4211.1125
2877.37543	4196.5125
2879.87952	4182.5125
2882.38207	4197.2125
2884.88308	4190.0125
2887.38256	4189.3125
2889.88051	4177.5125
2892.37692	4188.9125
2894.8718	4184.4125
2897.36515	4194.4125
2899.85698	4212.1125
2902.34727	4206.9125
2904.83604	4218.4125
2907.32328	4231.2125
2909.809	4215.6125
2912.29319	4222.2125
2914.77587	4203.2125
2917.25702	4184.5125
2919.73665	4191.0125
2922.21476	4189.9125
2924.69136	4182.5125
2927.16644	4178.7125
2929.64	4168.8125
2932.11205	4156.8125
2934.58258	4139.5125
2937.05161	4133.1125
2939.51912	4098.4125
2941.98513	4062.9125
2944.44962	4006.1125
2946.91261	3964.5125
2949.37409	3931.5125
2951.83407	3886.8125
2954.29254	3875.7125
2956.74951	3857.5125
2959.20498	3842.8125
2961.65895	3814.3125
2964.11142	3824.7125
2966.56239	3788.2125
2969.01186	3769.0125
2971.45984	3757.2125
2973.90632	3740.5125
2976.35131	3708.2125
2978.7948	3703.5125
2981.23681	3693.8125
2983.67732	3693.8125
2986.11635	3668.5125
2988.55388	3665.1125
2990.98993	3654.6125
2993.4245	3638.8125
2995.85758	3648.4125
2998.28917	3618.3125
3000.71928	3611.5125
3003.14791	3604.3125
3005.57506	3610.2125
3008.00073	3595.8125
3010.42493	3587.0125
3012.84764	3572.1125
3015.26888	3588.1125
3017.68865	3563.6125
3020.10694	3573.7125
3022.52376	3568.4125
3024.9391	3556.3125
3027.35298	3556.1125
3029.76539	3550.9125
3032.17632	3544.3125
3034.5858	3543.3125
3036.9938	3525.4125
3039.40034	3516.6125
3041.80542	3518.3125
3044.20903	3505.2125
3046.61118	3505.7125
3049.01187	3506.7125
3051.4111	3493.5125
3053.80888	3496.9125
3056.20519	3498.0125
3058.60005	3487.0125
3060.99345	3486.3125
3063.3854	3495.6125
3065.7759	3473.1125
3068.16494	3467.6125
3070.55254	3455.7125
3072.93868	3460.4125
3075.32338	3446.4125
3077.70662	3432.3125
3080.08842	3411.8125
3082.46878	3423.1125
3084.84769	3402.7125
3087.22515	3391.3125
3089.60118	3401.4125
3091.97576	3392.3125
3094.3489	3396.0125
3096.72061	3399.5125
3099.09087	3382.8125
3101.4597	3380.9125
3103.82709	3394.2125
3106.19305	3380.4125
