Data from AgNPs_FTO_APTES_UA_2uM_CRN_100uM_R6G_10uM_NaF_0.1M_Addition_RamanShift__21__16-02-35-328.txt Node

Date: Wed Feb 02 16:02:35 GMT 2022
User: TCL
Spectrometer: QEP01345
Trigger mode: 4
Integration Time (sec): 7.000000E0
Scans to average: 10
Electric dark correction enabled: true
Nonlinearity correction enabled: false
Boxcar width: 0
XAxis mode: Raman Shifts
Number of Pixels in Spectrum: 1044
>>>>>Begin Spectral Data<<<<<
46.04893	0.975
50.45542	0.075
54.85868	-1.325
59.25871	-0.825
63.6555	76.475
68.04907	78.675
72.43941	81.675
76.82654	90.275
81.21044	94.475
85.59113	97.675
89.96862	101.075
94.34289	107.175
98.71396	108.575
103.08183	115.975
107.4465	117.075
111.80798	121.875
116.16626	123.275
120.52136	128.175
124.87327	127.175
129.222	134.275
133.56755	144.875
137.90993	150.275
142.24913	163.375
146.58517	183.575
150.91804	204.175
155.24774	249.875
159.57429	304.375
163.89768	388.875
168.21792	501.175
172.53501	683.875
176.84895	950.575
181.15975	1332.975
185.46741	1852.975
189.77193	2544.775
194.07331	3420.375
198.37157	4382.975
202.6667	5417.275
206.9587	6421.975
211.24758	7399.175
215.53334	8438.275
219.81599	9493.975
224.09553	10676.475
228.37195	11948.075
232.64527	13367.775
236.91549	14816.675
241.18261	16284.275
245.44663	17724.575
249.70755	19033.075
253.96539	20151.175
258.22014	21133.175
262.4718	21930.475
266.72039	22548.775
270.96589	22931.775
275.20832	23099.375
279.44768	23148.775
283.68397	23135.775
287.91719	23106.075
292.14735	23156.475
296.37445	23299.175
300.59849	23380.475
304.81948	23290.375
309.03742	23013.175
313.25231	22506.475
317.46415	21817.875
321.67296	21019.475
325.87872	20426.575
330.08145	20086.475
334.28114	20021.475
338.47781	20095.475
342.67145	20322.175
346.86207	20560.875
351.04966	20920.575
355.23424	21260.075
359.4158	21551.575
363.59435	21724.375
367.76989	21787.075
371.94243	21937.675
376.11196	22046.575
380.27849	22207.275
384.44203	22366.675
388.60257	22575.075
392.76012	22845.375
396.91468	23148.375
401.06626	23506.375
405.21485	23721.675
409.36047	23657.275
413.50311	23352.475
417.64277	23116.175
421.77947	23083.975
425.9132	23185.975
430.04396	23400.375
434.17176	23609.675
438.2966	23836.575
442.41849	24312.875
446.53742	25001.175
450.6534	25836.175
454.76644	26499.875
458.87653	26770.575
462.98368	26769.475
467.08789	26524.775
471.18916	26366.875
475.2875	26300.675
479.38291	26532.375
483.4754	26429.475
487.56496	26033.475
491.6516	25263.875
495.73531	24562.575
499.81612	24139.475
503.89401	24063.575
507.96899	24048.775
512.04106	23891.175
516.11023	23589.675
520.1765	23242.075
524.23987	22955.375
528.30034	22696.575
532.35792	22500.575
536.41261	22310.975
540.46441	22171.875
544.51333	22263.375
548.55936	22691.775
552.60252	23320.875
556.64279	24049.975
560.6802	24561.075
564.71473	24969.375
568.7464	25512.275
572.7752	26136.975
576.80114	26652.875
580.82422	26920.075
584.84444	27121.175
588.86181	27414.675
592.87633	27875.175
596.888	28196.175
600.89682	28218.475
604.9028	28612.675
608.90594	29965.475
612.90624	31122.075
616.90371	28954.975
620.89834	24645.075
624.89015	22749.875
628.87913	22647.075
632.86528	22923.975
636.84862	23061.875
640.82913	22745.575
644.80683	22107.975
648.78172	21460.175
652.75379	21267.275
656.72306	21334.575
660.68952	21553.175
664.65319	21514.975
668.61405	21225.675
672.57211	21139.275
676.52738	21198.575
680.47986	21230.375
684.42955	21159.675
688.37646	21067.975
692.32058	21133.575
696.26192	21257.075
700.20048	21518.375
704.13626	21735.475
708.06928	21693.575
711.99952	21618.075
715.927	21534.075
719.85171	21510.675
723.77365	21460.975
727.69284	21305.275
731.60928	21141.075
735.52295	21062.075
739.43388	21031.475
743.34206	21073.975
747.24749	21175.175
751.15017	21428.675
755.05012	21864.475
758.94733	22632.475
762.8418	23898.375
766.73354	25613.975
770.62254	27179.675
774.50882	27323.075
778.39237	25842.375
782.27321	23813.575
786.15132	22209.275
790.02671	21244.175
793.89938	20805.775
797.76935	20601.575
801.6366	20606.775
805.50115	20587.275
809.36299	20545.975
813.22213	20439.275
817.07857	20423.075
820.93231	20372.475
824.78336	20287.175
828.63172	20161.975
832.47738	20081.675
836.32036	20073.975
840.16066	20053.975
843.99827	20035.675
847.8332	19967.775
851.66546	19910.775
855.49504	19884.075
859.32195	19830.975
863.1462	19783.875
866.96777	19733.275
870.78668	19670.475
874.60293	19615.275
878.41652	19653.975
882.22745	19692.475
886.03573	19692.975
889.84136	19726.775
893.64433	19666.075
897.44466	19573.475
901.24235	19495.075
905.0374	19426.575
908.8298	19404.275
912.61957	19454.775
916.40671	19720.975
920.19121	20079.275
923.97308	20254.575
927.75233	20173.875
931.52895	19945.775
935.30295	19683.175
939.07433	19261.175
942.84309	18965.375
946.60924	18728.075
950.37278	18681.275
954.13371	18716.575
957.89203	18708.975
961.64774	18714.575
965.40086	18729.075
969.15137	18602.175
972.89929	18426.475
976.64461	18310.175
980.38733	18251.175
984.12747	18287.675
987.86502	18390.275
991.59999	18577.375
995.33237	18839.175
999.06217	19284.575
1002.78939	19815.375
1006.51404	20210.575
1010.23611	20412.875
1013.95561	20616.275
1017.67255	20635.075
1021.38692	20401.475
1025.09872	20146.675
1028.80796	20079.075
1032.51465	20232.275
1036.21877	20506.375
1039.92035	20574.175
1043.61937	20511.075
1047.31584	20327.275
1051.00976	20122.575
1054.70114	20094.675
1058.38998	20211.375
1062.07627	20481.775
1065.76003	20717.575
1069.44126	20973.075
1073.11995	21187.875
1076.79611	21362.375
1080.46974	21372.775
1084.14085	21457.375
1087.80943	21658.775
1091.47549	21910.775
1095.13903	22035.875
1098.80005	21819.675
1102.45857	21378.475
1106.11456	20941.675
1109.76805	20714.875
1113.41903	20766.775
1117.06751	20956.775
1120.71348	21214.175
1124.35696	21468.375
1127.99793	21777.775
1131.63641	21985.675
1135.2724	21874.475
1138.90589	21742.775
1142.5369	21752.775
1146.16542	21938.175
1149.79145	22272.475
1153.415	22641.575
1157.03607	23186.675
1160.65467	23973.375
1164.27079	25061.675
1167.88443	26510.075
1171.49561	28301.975
1175.10432	30507.975
1178.71056	33208.675
1182.31434	35644.675
1185.91565	36999.475
1189.51451	37166.775
1193.11091	36556.775
1196.70485	35562.275
1200.29634	34122.175
1203.88538	32868.675
1207.47197	32103.975
1211.05612	31519.675
1214.63782	30879.975
1218.21708	30068.075
1221.79391	29313.675
1225.36829	28734.475
1228.94024	28115.275
1232.50976	27546.675
1236.07685	27158.275
1239.6415	26956.675
1243.20374	26989.975
1246.76355	27158.875
1250.32093	27509.475
1253.8759	28097.475
1257.42845	28919.075
1260.97859	29696.875
1264.52631	30431.175
1268.07163	31183.275
1271.61453	32062.075
1275.15503	33110.775
1278.69312	34265.775
1282.22882	35346.575
1285.76211	36560.375
1289.29301	38075.875
1292.82151	40086.975
1296.34761	42684.175
1299.87133	45518.475
1303.39266	48383.075
1306.9116	50952.675
1310.42815	53255.275
1313.94233	54862.275
1317.45412	55346.675
1320.96354	55259.875
1324.47058	55108.575
1327.97525	54894.575
1331.47754	54734.175
1334.97747	54682.375
1338.47502	54788.375
1341.97022	54391.075
1345.46305	53337.475
1348.95352	51590.975
1352.44163	49817.675
1355.92738	48804.475
1359.41078	49069.475
1362.89183	49643.875
1366.37053	48747.975
1369.84688	45504.475
1373.32088	41530.675
1376.79254	38776.775
1380.26186	37891.375
1383.72883	38245.175
1387.19347	38952.575
1390.65578	39486.775
1394.11575	40055.975
1397.57339	41163.575
1401.0287	42596.075
1404.48168	43718.875
1407.93234	43908.975
1411.38068	43036.275
1414.82669	41112.475
1418.27039	38581.675
1421.71177	36051.175
1425.15083	33998.075
1428.58758	32741.275
1432.02203	32511.375
1435.45416	33096.875
1438.88399	34252.975
1442.31151	35380.075
1445.73673	36458.475
1449.15965	37533.975
1452.58027	38488.275
1455.9986	39190.175
1459.41463	39847.775
1462.82837	40489.075
1466.23982	41205.675
1469.64898	41672.075
1473.05586	41795.075
1476.46045	41458.775
1479.86276	40717.575
1483.26279	39834.075
1486.66054	39025.075
1490.05602	38604.475
1493.44922	38333.275
1496.84016	38228.175
1500.22882	38283.575
1503.61521	38799.275
1506.99934	39688.875
1510.38121	40659.975
1513.76081	41142.575
1517.13816	40692.275
1520.51324	39749.075
1523.88607	38874.075
1527.25665	38474.375
1530.62498	38508.875
1533.99105	38677.775
1537.35488	38607.475
1540.71647	38254.175
1544.07581	37456.775
1547.4329	36521.575
1550.78776	35673.975
1554.14038	35044.075
1557.49077	34781.375
1560.83892	34696.575
1564.18484	34615.875
1567.52853	34577.975
1570.86999	34681.775
1574.20922	35240.675
1577.54624	35955.675
1580.88103	36538.275
1584.2136	37362.575
1587.54395	38814.175
1590.87208	40873.775
1594.19801	43167.475
1597.52172	45308.275
1600.84321	45777.675
1604.16251	43806.375
1607.47959	40225.675
1610.79447	36423.575
1614.10715	32837.175
1617.41763	29838.675
1620.7259	27791.775
1624.03199	26634.175
1627.33587	26443.975
1630.63757	27248.875
1633.93707	29129.075
1637.23439	32233.275
1640.52951	36625.875
1643.82246	41490.875
1647.11321	45310.375
1650.40179	46159.875
1653.68819	43255.975
1656.97241	37785.675
1660.25446	31964.675
1663.53433	27333.375
1666.81203	24093.575
1670.08756	22093.075
1673.36092	20772.875
1676.63211	19916.175
1679.90115	19345.875
1683.16801	18911.375
1686.43272	18586.875
1689.69527	18351.475
1692.95567	18163.275
1696.2139	18040.275
1699.46999	17931.075
1702.72392	17822.275
1705.97571	17752.975
1709.22535	17630.875
1712.47284	17577.675
1715.71819	17512.075
1718.96139	17438.975
1722.20246	17377.975
1725.44139	17290.675
1728.67818	17193.375
1731.91284	17100.775
1735.14537	17046.775
1738.37576	16940.175
1741.60403	16853.575
1744.83017	16819.375
1748.05418	16811.975
1751.27607	16801.775
1754.49584	16768.075
1757.71349	16755.875
1760.92903	16715.175
1764.14244	16675.475
1767.35375	16650.575
1770.56294	16600.775
1773.77002	16518.075
1776.97499	16478.275
1780.17785	16475.775
1783.37861	16418.475
1786.57727	16379.675
1789.77382	16341.075
1792.96828	16315.675
1796.16064	16258.875
1799.3509	16244.175
1802.53907	16180.575
1805.72514	16106.275
1808.90913	16117.975
1812.09102	16089.075
1815.27083	16033.175
1818.44856	16016.675
1821.6242	15973.175
1824.79776	15963.375
1827.96924	15983.875
1831.13864	15929.475
1834.30597	15955.075
1837.47122	15946.775
1840.6344	15913.875
1843.7955	15956.075
1846.95454	15914.175
1850.11151	15934.475
1853.26642	15962.675
1856.41926	15892.875
1859.57004	15932.575
1862.71876	15913.875
1865.86542	15880.175
1869.01003	15909.275
1872.15258	15857.475
1875.29308	15890.675
1878.43152	15857.475
1881.56792	15859.375
1884.70227	15795.875
1887.83457	15830.375
1890.96482	15811.375
1894.09304	15841.575
1897.21921	15829.075
1900.34335	15809.575
1903.46544	15769.975
1906.58551	15772.575
1909.70353	15744.475
1912.81953	15714.875
1915.93349	15710.875
1919.04543	15665.575
1922.15534	15603.275
1925.26322	15594.575
1928.36908	15554.475
1931.47292	15513.275
1934.57473	15460.575
1937.67453	15427.775
1940.77232	15368.175
1943.86808	15311.875
1946.96184	15289.975
1950.05358	15227.375
1953.14331	15190.675
1956.23103	15119.075
1959.31675	15038.775
1962.40046	15024.075
1965.48217	14971.075
1968.56188	14900.675
1971.63959	14870.775
1974.7153	14831.675
1977.78901	14814.575
1980.86073	14721.975
1983.93046	14659.675
1986.99819	14637.075
1990.06394	14607.575
1993.1277	14584.375
1996.18947	14488.975
1999.24925	14462.875
2002.30706	14430.075
2005.36288	14371.075
2008.41672	14365.275
2011.46859	14267.575
2014.51848	14270.075
2017.56639	14216.575
2020.61233	14172.475
2023.6563	14153.475
2026.6983	14148.175
2029.73833	14097.975
2032.7764	14095.675
2035.8125	14058.975
2038.84664	14016.475
2041.87881	14033.575
2044.90903	14020.075
2047.93729	13998.375
2050.96359	13965.675
2053.98794	13925.975
2057.01034	13951.375
2060.03078	13928.575
2063.04927	13889.275
2066.06582	13893.075
2069.08042	13882.975
2072.09307	13889.775
2075.10378	13865.775
2078.11255	13829.575
2081.11938	13834.375
2084.12426	13829.375
2087.12722	13799.475
2090.12824	13806.675
2093.12732	13804.375
2096.12447	13797.475
2099.11969	13819.275
2102.11299	13806.875
2105.10435	13810.075
2108.09379	13845.575
2111.08131	13797.975
2114.0669	13825.375
2117.05057	13840.475
2120.03233	13848.475
2123.01216	13828.875
2125.99008	13862.275
2128.96609	13851.975
2131.94018	13853.375
2134.91236	13837.875
2137.88263	13860.075
2140.851	13869.075
2143.81746	13889.975
2146.78201	13893.775
2149.74466	13873.275
2152.7054	13897.775
2155.66425	13862.475
2158.6212	13862.275
2161.57625	13862.475
2164.52941	13867.375
2167.48067	13847.475
2170.43004	13832.275
2173.37752	13829.775
2176.32311	13811.775
2179.26681	13828.075
2182.20863	13819.175
2185.14856	13833.375
2188.08661	13826.275
2191.02278	13794.875
2193.95707	13804.275
2196.88948	13802.875
2199.82001	13803.075
2202.74867	13785.275
2205.67545	13791.775
2208.60037	13772.475
2211.52341	13715.875
2214.44458	13730.675
2217.36388	13717.475
2220.28132	13699.275
2223.1969	13675.975
2226.11061	13657.175
2229.02246	13612.275
2231.93245	13597.675
2234.84058	13534.875
2237.74686	13514.275
2240.65128	13515.575
2243.55385	13510.575
2246.45456	13470.375
2249.35343	13439.175
2252.25044	13432.275
2255.14561	13407.775
2258.03893	13400.775
2260.93041	13348.675
2263.82004	13324.375
2266.70783	13271.075
2269.59378	13225.375
2272.4779	13209.675
2275.36017	13181.175
2278.24061	13151.975
2281.11922	13129.075
2283.996	13142.975
2286.87094	13114.075
2289.74405	13048.575
2292.61534	13047.275
2295.4848	13004.875
2298.35243	13037.175
2301.21824	13061.675
2304.08223	13023.475
2306.94439	13028.675
2309.80474	13011.875
2312.66327	13029.975
2315.51999	13008.475
2318.37489	13028.075
2321.22797	12991.275
2324.07925	12971.775
2326.92871	12973.675
2329.77637	12957.275
2332.62222	12940.075
2335.46626	12953.875
2338.3085	12932.175
2341.14893	12947.075
2343.98756	12937.775
2346.8244	12903.475
2349.65943	12943.275
2352.49267	12920.675
2355.32411	12909.175
2358.15376	12925.475
2360.98161	12910.975
2363.80768	12894.175
2366.63195	12873.275
2369.45444	12859.375
2372.27514	12832.675
2375.09405	12842.075
2377.91118	12823.475
2380.72652	12803.175
2383.54009	12764.775
2386.35187	12744.275
2389.16188	12728.875
2391.97011	12684.175
2394.77657	12683.375
2397.58125	12662.575
2400.38416	12631.075
2403.18529	12601.875
2405.98466	12588.675
2408.78226	12564.875
2411.57809	12561.875
2414.37216	12547.575
2417.16446	12546.075
2419.955	12522.675
2422.74378	12522.775
2425.5308	12519.275
2428.31606	12492.375
2431.09956	12470.275
2433.88131	12464.375
2436.6613	12477.575
2439.43954	12475.375
2442.21603	12466.675
2444.99077	12430.975
2447.76377	12451.075
2450.53501	12438.675
2453.30451	12466.675
2456.07226	12414.975
2458.83827	12428.875
2461.60254	12424.775
2464.36507	12453.475
2467.12586	12411.975
2469.88492	12406.775
2472.64224	12425.275
2475.39782	12434.875
2478.15167	12460.075
2480.90379	12430.175
2483.65417	12464.475
2486.40283	12472.475
2489.14976	12470.675
2491.89497	12453.175
2494.63845	12487.175
2497.3802	12486.975
2500.12024	12468.575
2502.85855	12465.275
2505.59514	12462.875
2508.33002	12470.775
2511.06318	12455.875
2513.79462	12441.975
2516.52435	12448.075
2519.25237	12439.675
2521.97867	12416.875
2524.70327	12433.875
2527.42616	12389.875
2530.14734	12404.475
2532.86681	12370.975
2535.58458	12396.775
2538.30065	12377.775
2541.01501	12385.475
2543.72768	12345.775
2546.43864	12319.575
2549.14791	12283.575
2551.85548	12317.175
2554.56136	12305.275
2557.26554	12309.375
2559.96803	12288.375
2562.66883	12294.875
2565.36794	12254.275
2568.06536	12255.175
2570.7611	12257.375
2573.45514	12290.175
2576.14751	12251.375
2578.83819	12232.075
2581.52719	12226.175
2584.21451	12242.575
2586.90015	12229.375
2589.58411	12240.175
2592.2664	12245.875
2594.94701	12206.575
2597.62594	12228.975
2600.30321	12192.175
2602.9788	12206.775
2605.65273	12185.375
2608.32498	12203.775
2610.99557	12214.775
2613.66449	12229.575
2616.33175	12213.675
2618.99734	12202.475
2621.66128	12232.575
2624.32355	12228.475
2626.98416	12223.775
2629.64311	12220.775
2632.30041	12235.975
2634.95605	12238.575
2637.61004	12223.375
2640.26238	12193.075
2642.91306	12216.675
2645.56209	12223.675
2648.20948	12212.375
2650.85521	12199.275
2653.4993	12198.875
2656.14175	12210.975
2658.78255	12228.375
2661.42171	12235.275
2664.05923	12253.375
2666.6951	12272.075
2669.32934	12257.775
2671.96194	12238.475
2674.59291	12244.475
2677.22224	12251.075
2679.84993	12271.975
2682.476	12210.575
2685.10043	12247.075
2687.72324	12208.175
2690.34441	12218.675
2692.96396	12244.075
2695.58188	12198.875
2698.19818	12197.775
2700.81285	12215.775
2703.4259	12235.675
2706.03733	12296.975
2708.64714	12264.875
2711.25533	12258.275
2713.86191	12260.375
2716.46687	12296.875
2719.07021	12267.775
2721.67194	12304.175
2724.27206	12292.775
2726.87057	12317.775
2729.46747	12318.375
2732.06276	12347.175
2734.65644	12332.475
2737.24852	12277.975
2739.83899	12303.475
2742.42786	12318.275
2745.01513	12302.475
2747.60079	12313.475
2750.18486	12312.075
2752.76733	12297.375
2755.3482	12330.775
2757.92747	12326.175
2760.50515	12345.175
2763.08123	12354.575
2765.65573	12329.275
2768.22863	12341.975
2770.79994	12294.175
2773.36967	12325.875
2775.9378	12331.175
2778.50435	12300.175
2781.06932	12327.875
2783.6327	12323.775
2786.1945	12324.775
2788.75471	12319.275
2791.31335	12310.575
2793.87041	12290.675
2796.42589	12276.175
2798.97979	12297.175
2801.53212	12249.175
2804.08288	12237.875
2806.63206	12201.375
2809.17967	12212.075
2811.72571	12172.175
2814.27018	12158.575
2816.81308	12114.275
2819.35442	12104.275
2821.89419	12087.375
2824.43239	12087.775
2826.96904	12070.475
2829.50412	12059.975
2832.03763	12018.875
2834.56959	12047.175
2837.1	12026.875
2839.62884	12057.175
2842.15613	12021.275
2844.68186	12065.275
2847.20604	12074.175
2849.72867	12120.375
2852.24974	12091.875
2854.76927	12096.075
2857.28724	12084.975
2859.80367	12051.975
2862.31855	12047.575
2864.83189	12029.675
2867.34368	12016.275
2869.85393	12027.575
2872.36264	12009.775
2874.8698	12011.175
2877.37543	12050.375
2879.87952	12114.475
2882.38207	12069.775
2884.88308	12046.675
2887.38256	12054.775
2889.88051	12050.475
2892.37692	12047.975
2894.8718	12048.975
2897.36515	12081.275
2899.85698	12069.075
2902.34727	12101.275
2904.83604	12097.375
2907.32328	12127.875
2909.809	12105.975
2912.29319	12134.275
2914.77587	12125.175
2917.25702	12132.575
2919.73665	12115.475
2922.21476	12093.975
2924.69136	12101.875
2927.16644	12141.575
2929.64	12139.675
2932.11205	12126.575
2934.58258	12104.875
2937.05161	12097.975
2939.51912	12112.575
2941.98513	12076.975
2944.44962	12051.275
2946.91261	11994.475
2949.37409	11983.575
2951.83407	11973.375
2954.29254	11958.675
2956.74951	11927.575
2959.20498	11934.175
2961.65895	11905.075
2964.11142	11878.275
2966.56239	11859.775
2969.01186	11841.075
2971.45984	11804.675
2973.90632	11779.675
2976.35131	11721.875
2978.7948	11706.575
2981.23681	11656.775
2983.67732	11636.475
2986.11635	11635.775
2988.55388	11588.075
2990.98993	11600.875
2993.4245	11580.075
2995.85758	11513.875
2998.28917	11508.275
3000.71928	11489.375
3003.14791	11474.875
3005.57506	11450.975
3008.00073	11428.075
3010.42493	11391.575
3012.84764	11400.875
3015.26888	11373.575
3017.68865	11344.275
3020.10694	11321.375
3022.52376	11299.575
3024.9391	11297.175
3027.35298	11256.175
3029.76539	11251.375
3032.17632	11249.675
3034.5858	11220.475
3036.9938	11248.175
3039.40034	11201.175
3041.80542	11209.775
3044.20903	11190.875
3046.61118	11182.975
3049.01187	11190.075
3051.4111	11139.575
3053.80888	11096.075
3056.20519	11096.575
3058.60005	11057.975
3060.99345	11030.475
3063.3854	11029.975
3065.7759	10987.575
3068.16494	10964.075
3070.55254	10886.575
3072.93868	10900.775
3075.32338	10862.575
3077.70662	10833.675
3080.08842	10794.875
3082.46878	10787.475
3084.84769	10781.275
3087.22515	10759.775
3089.60118	10753.875
3091.97576	10748.975
3094.3489	10761.775
3096.72061	10744.675
3099.09087	10742.975
3101.4597	10706.775
3103.82709	10733.175
3106.19305	10693.675
3108.55757	10686.575
3110.92066	10652.675
3113.28232	10612.875
3115.64255	10586.475
3118.00134	10559.575
3120.35871	10525.175
3122.71466	10522.275
3125.06917	10518.375
3127.42226	10464.775
