Data from AgNPs_FTO_APTES_UA_2uM_CRN_1uM_R6G_10uM_NaF_0.1M_Addition_RamanShift__26__11-49-25-033.txt Node

Date: Wed Feb 02 11:49:25 GMT 2022
User: TCL
Spectrometer: QEP01345
Trigger mode: 4
Integration Time (sec): 7.000000E0
Scans to average: 10
Electric dark correction enabled: true
Nonlinearity correction enabled: false
Boxcar width: 0
XAxis mode: Raman Shifts
Number of Pixels in Spectrum: 1044
>>>>>Begin Spectral Data<<<<<
46.04893	0.4125
50.45542	-0.0875
54.85868	-0.1875
59.25871	-0.2875
63.6555	78.0125
68.04907	83.1125
72.43941	81.9125
76.82654	90.3125
81.21044	93.8125
85.59113	99.5125
89.96862	101.0125
94.34289	105.1125
98.71396	109.0125
103.08183	117.9125
107.4465	119.4125
111.80798	117.9125
116.16626	120.2125
120.52136	127.1125
124.87327	130.0125
129.222	138.8125
133.56755	149.2125
137.90993	163.4125
142.24913	178.8125
146.58517	197.6125
150.91804	228.8125
155.24774	275.9125
159.57429	346.9125
163.89768	435.3125
168.21792	577.5125
172.53501	777.4125
176.84895	1092.0125
181.15975	1525.3125
185.46741	2130.3125
189.77193	2942.1125
194.07331	3919.1125
198.37157	5026.5125
202.6667	6225.7125
206.9587	7370.5125
211.24758	8523.4125
215.53334	9753.1125
219.81599	11109.7125
224.09553	12629.9125
228.37195	14326.1125
232.64527	16113.7125
236.91549	17916.7125
241.18261	19534.3125
245.44663	20948.2125
249.70755	22092.9125
253.96539	23083.8125
258.22014	24005.3125
262.4718	24806.0125
266.72039	25448.5125
270.96589	25804.2125
275.20832	25823.5125
279.44768	25722.1125
283.68397	25529.8125
287.91719	25439.3125
292.14735	25504.1125
296.37445	25860.7125
300.59849	26494.4125
304.81948	27235.0125
309.03742	27829.8125
313.25231	27625.2125
317.46415	26396.5125
321.67296	24538.5125
325.87872	23006.2125
330.08145	22175.3125
334.28114	22057.9125
338.47781	22324.3125
342.67145	22849.8125
346.86207	23708.6125
351.04966	24941.8125
355.23424	26363.3125
359.4158	27468.8125
363.59435	28001.1125
367.76989	28073.8125
371.94243	27917.8125
376.11196	27699.2125
380.27849	27561.8125
384.44203	27369.6125
388.60257	27054.7125
392.76012	27015.3125
396.91468	27371.6125
401.06626	28095.8125
405.21485	28652.9125
409.36047	28259.9125
413.50311	27057.6125
417.64277	25918.8125
421.77947	25373.4125
425.9132	25211.6125
430.04396	25265.5125
434.17176	25344.3125
438.2966	25629.8125
442.41849	26249.2125
446.53742	27115.4125
450.6534	28042.1125
454.76644	28643.2125
458.87653	28772.3125
462.98368	28556.5125
467.08789	28131.5125
471.18916	27620.0125
475.2875	26999.1125
479.38291	26591.1125
483.4754	26235.4125
487.56496	25879.1125
491.6516	25479.3125
495.73531	25259.7125
499.81612	25130.5125
503.89401	25362.1125
507.96899	25552.9125
512.04106	25687.8125
516.11023	25801.0125
520.1765	25754.8125
524.23987	25557.6125
528.30034	25120.6125
532.35792	24618.2125
536.41261	24055.9125
540.46441	23472.4125
544.51333	23283.7125
548.55936	23553.4125
552.60252	24281.9125
556.64279	25089.9125
560.6802	25621.0125
564.71473	26222.4125
568.7464	27398.3125
572.7752	28483.5125
576.80114	28173.3125
580.82422	27536.7125
584.84444	27302.9125
588.86181	27254.1125
592.87633	27364.0125
596.888	27664.1125
600.89682	28310.2125
604.9028	30790.6125
608.90594	37596.6125
612.90624	46191.0125
616.90371	44075.5125
620.89834	31709.7125
624.89015	25820.2125
628.87913	24769.9125
632.86528	24958.8125
636.84862	25060.2125
640.82913	24548.1125
644.80683	23407.1125
648.78172	22632.3125
652.75379	22630.7125
656.72306	23480.5125
660.68952	24627.2125
664.65319	24505.8125
668.61405	23479.6125
672.57211	22917.8125
676.52738	22888.4125
680.47986	22805.1125
684.42955	22598.1125
688.37646	22492.5125
692.32058	22573.2125
696.26192	22845.4125
700.20048	23286.0125
704.13626	23598.7125
708.06928	23685.6125
711.99952	23460.8125
715.927	23228.5125
719.85171	23229.3125
723.77365	23171.2125
727.69284	22751.6125
731.60928	22464.8125
735.52295	22418.8125
739.43388	22478.9125
743.34206	22642.1125
747.24749	22839.1125
751.15017	23148.9125
755.05012	23711.2125
758.94733	24837.3125
762.8418	27318.1125
766.73354	31580.7125
770.62254	36035.5125
774.50882	37807.8125
778.39237	35755.0125
782.27321	31329.1125
786.15132	27059.5125
790.02671	24531.0125
793.89938	23326.1125
797.76935	22817.2125
801.6366	22616.7125
805.50115	22407.5125
809.36299	22216.6125
813.22213	22034.9125
817.07857	22004.5125
820.93231	21984.2125
824.78336	21998.5125
828.63172	22141.0125
832.47738	22217.4125
836.32036	22241.9125
840.16066	22171.7125
843.99827	22068.6125
847.8332	21978.2125
851.66546	21877.6125
855.49504	21860.7125
859.32195	21796.8125
863.1462	21652.0125
866.96777	21543.5125
870.78668	21486.6125
874.60293	21473.6125
878.41652	21608.5125
882.22745	21712.6125
886.03573	21861.4125
889.84136	21819.4125
893.64433	21672.2125
897.44466	21612.4125
901.24235	21575.2125
905.0374	21538.6125
908.8298	21448.2125
912.61957	21491.2125
916.40671	21675.9125
920.19121	22003.3125
923.97308	22341.8125
927.75233	22612.6125
931.52895	22708.3125
935.30295	22376.1125
939.07433	21644.4125
942.84309	21086.7125
946.60924	20745.3125
950.37278	20574.5125
954.13371	20463.7125
957.89203	20338.0125
961.64774	20299.6125
965.40086	20212.9125
969.15137	20181.8125
972.89929	20081.0125
976.64461	20064.7125
980.38733	20075.1125
984.12747	20177.3125
987.86502	20369.9125
991.59999	20600.7125
995.33237	20976.5125
999.06217	21604.2125
1002.78939	22485.0125
1006.51404	23275.9125
1010.23611	23778.2125
1013.95561	24044.7125
1017.67255	23951.4125
1021.38692	23498.5125
1025.09872	22999.5125
1028.80796	22823.2125
1032.51465	23169.5125
1036.21877	23496.6125
1039.92035	23656.4125
1043.61937	23544.6125
1047.31584	23196.2125
1051.00976	22838.9125
1054.70114	22645.5125
1058.38998	22599.6125
1062.07627	22734.7125
1065.76003	22948.0125
1069.44126	23211.7125
1073.11995	23631.5125
1076.79611	23923.1125
1080.46974	24160.0125
1084.14085	24574.5125
1087.80943	25224.0125
1091.47549	25543.7125
1095.13903	25257.1125
1098.80005	24501.7125
1102.45857	23627.9125
1106.11456	23112.9125
1109.76805	23010.6125
1113.41903	23278.9125
1117.06751	23812.8125
1120.71348	24582.3125
1124.35696	25461.2125
1127.99793	26340.1125
1131.63641	26482.9125
1135.2724	25629.9125
1138.90589	24708.2125
1142.5369	24146.2125
1146.16542	23837.7125
1149.79145	23727.7125
1153.415	23832.2125
1157.03607	24146.6125
1160.65467	24750.6125
1164.27079	25849.6125
1167.88443	27440.2125
1171.49561	29830.7125
1175.10432	33594.6125
1178.71056	38421.9125
1182.31434	42402.1125
1185.91565	44112.6125
1189.51451	43747.4125
1193.11091	41722.9125
1196.70485	38651.6125
1200.29634	35853.1125
1203.88538	33617.6125
1207.47197	31462.9125
1211.05612	29816.6125
1214.63782	28978.9125
1218.21708	28817.7125
1221.79391	29048.2125
1225.36829	29318.8125
1228.94024	29523.1125
1232.50976	29551.2125
1236.07685	29407.3125
1239.6415	29039.6125
1243.20374	28639.9125
1246.76355	28480.4125
1250.32093	28694.6125
1253.8759	29356.6125
1257.42845	30370.8125
1260.97859	31515.8125
1264.52631	32620.1125
1268.07163	33776.7125
1271.61453	34976.2125
1275.15503	36122.3125
1278.69312	36972.8125
1282.22882	37650.4125
1285.76211	38551.3125
1289.29301	39861.0125
1292.82151	41344.0125
1296.34761	42910.8125
1299.87133	45004.0125
1303.39266	48217.7125
1306.9116	52908.0125
1310.42815	58551.0125
1313.94233	62880.1125
1317.45412	63611.2125
1320.96354	61661.8125
1324.47058	58642.9125
1327.97525	55596.3125
1331.47754	53204.8125
1334.97747	51643.5125
1338.47502	50964.4125
1341.97022	50682.4125
1345.46305	50606.7125
1348.95352	50906.5125
1352.44163	52080.2125
1355.92738	54918.1125
1359.41078	60324.0125
1362.89183	66422.5125
1366.37053	66340.8125
1369.84688	58631.9125
1373.32088	49857.5125
1376.79254	43956.2125
1380.26186	41200.4125
1383.72883	39866.5125
1387.19347	38929.5125
1390.65578	37926.1125
1394.11575	37399.4125
1397.57339	37702.0125
1401.0287	38464.0125
1404.48168	39388.8125
1407.93234	39987.2125
1411.38068	40031.3125
1414.82669	39147.0125
1418.27039	37616.4125
1421.71177	35969.5125
1425.15083	34623.5125
1428.58758	33734.5125
1432.02203	33555.4125
1435.45416	33832.9125
1438.88399	34086.1125
1442.31151	34397.3125
1445.73673	34730.5125
1449.15965	35172.8125
1452.58027	35456.4125
1455.9986	35550.0125
1459.41463	35734.7125
1462.82837	36298.1125
1466.23982	36958.9125
1469.64898	37613.3125
1473.05586	38079.8125
1476.46045	38126.8125
1479.86276	38202.7125
1483.26279	38482.8125
1486.66054	38904.4125
1490.05602	39702.4125
1493.44922	40749.4125
1496.84016	42171.0125
1500.22882	44384.6125
1503.61521	47710.4125
1506.99934	51740.4125
1510.38121	56086.4125
1513.76081	58829.6125
1517.13816	57665.1125
1520.51324	52861.8125
1523.88607	47412.1125
1527.25665	43400.4125
1530.62498	41039.3125
1533.99105	39586.1125
1537.35488	38695.5125
1540.71647	38054.4125
1544.07581	37451.0125
1547.4329	36851.5125
1550.78776	36346.8125
1554.14038	36079.5125
1557.49077	36241.2125
1560.83892	36726.7125
1564.18484	37310.4125
1567.52853	37809.6125
1570.86999	38245.5125
1574.20922	38634.3125
1577.54624	38731.7125
1580.88103	37780.7125
1584.2136	36508.0125
1587.54395	36451.1125
1590.87208	37873.5125
1594.19801	40487.5125
1597.52172	43370.2125
1600.84321	44564.3125
1604.16251	42812.8125
1607.47959	39350.1125
1610.79447	35556.6125
1614.10715	32121.0125
1617.41763	29385.7125
1620.7259	27726.3125
1624.03199	26911.9125
1627.33587	26891.8125
1630.63757	27791.8125
1633.93707	29628.9125
1637.23439	32485.2125
1640.52951	36396.8125
1643.82246	40962.4125
1647.11321	45111.6125
1650.40179	47397.3125
1653.68819	45722.5125
1656.97241	39972.0125
1660.25446	33268.5125
1663.53433	28135.9125
1666.81203	24910.9125
1670.08756	23079.7125
1673.36092	21962.5125
1676.63211	21222.7125
1679.90115	20690.9125
1683.16801	20366.6125
1686.43272	20104.2125
1689.69527	19926.2125
1692.95567	19777.8125
1696.2139	19688.4125
1699.46999	19628.4125
1702.72392	19551.9125
1705.97571	19547.3125
1709.22535	19464.4125
1712.47284	19470.0125
1715.71819	19481.3125
1718.96139	19448.3125
1722.20246	19437.9125
1725.44139	19332.3125
1728.67818	19217.7125
1731.91284	19074.3125
1735.14537	18941.7125
1738.37576	18832.6125
1741.60403	18724.1125
1744.83017	18715.6125
1748.05418	18651.0125
1751.27607	18572.1125
1754.49584	18559.6125
1757.71349	18530.7125
1760.92903	18529.3125
1764.14244	18492.0125
1767.35375	18494.5125
1770.56294	18444.3125
1773.77002	18428.1125
1776.97499	18398.5125
1780.17785	18310.9125
1783.37861	18319.4125
1786.57727	18286.3125
1789.77382	18243.8125
1792.96828	18178.7125
1796.16064	18193.9125
1799.3509	18142.3125
1802.53907	18135.4125
1805.72514	18089.9125
1808.90913	18051.6125
1812.09102	18019.9125
1815.27083	17994.3125
1818.44856	17982.4125
1821.6242	17973.0125
1824.79776	17919.1125
1827.96924	17886.6125
1831.13864	17870.5125
1834.30597	17900.5125
1837.47122	17885.9125
1840.6344	17908.8125
1843.7955	17919.0125
1846.95454	17906.8125
1850.11151	17911.1125
1853.26642	17916.5125
1856.41926	17971.3125
1859.57004	17972.4125
1862.71876	18012.9125
1865.86542	18029.2125
1869.01003	18036.9125
1872.15258	18057.7125
1875.29308	18114.5125
1878.43152	18125.1125
1881.56792	18157.4125
1884.70227	18218.3125
1887.83457	18223.2125
1890.96482	18246.1125
1894.09304	18284.6125
1897.21921	18347.4125
1900.34335	18338.9125
1903.46544	18380.2125
1906.58551	18430.6125
1909.70353	18427.9125
1912.81953	18429.3125
1915.93349	18456.1125
1919.04543	18453.9125
1922.15534	18429.3125
1925.26322	18335.5125
1928.36908	18222.3125
1931.47292	18079.7125
1934.57473	17960.8125
1937.67453	17865.5125
1940.77232	17747.4125
1943.86808	17619.0125
1946.96184	17521.4125
1950.05358	17388.2125
1953.14331	17306.7125
1956.23103	17204.2125
1959.31675	17151.5125
1962.40046	17085.5125
1965.48217	17006.5125
1968.56188	16926.0125
1971.63959	16887.7125
1974.7153	16837.0125
1977.78901	16800.4125
1980.86073	16745.0125
1983.93046	16682.7125
1986.99819	16603.1125
1990.06394	16572.9125
1993.1277	16520.7125
1996.18947	16449.8125
1999.24925	16366.3125
2002.30706	16327.4125
2005.36288	16278.6125
2008.41672	16287.8125
2011.46859	16219.3125
2014.51848	16168.7125
2017.56639	16095.3125
2020.61233	16081.2125
2023.6563	16014.2125
2026.6983	16020.6125
2029.73833	15975.0125
2032.7764	15911.8125
2035.8125	15919.4125
2038.84664	15886.9125
2041.87881	15889.5125
2044.90903	15878.6125
2047.93729	15829.0125
2050.96359	15828.3125
2053.98794	15749.4125
2057.01034	15781.3125
2060.03078	15731.5125
2063.04927	15714.8125
2066.06582	15701.8125
2069.08042	15667.8125
2072.09307	15645.2125
2075.10378	15645.8125
2078.11255	15657.2125
2081.11938	15665.1125
2084.12426	15605.5125
2087.12722	15638.8125
2090.12824	15600.2125
2093.12732	15607.9125
2096.12447	15627.0125
2099.11969	15627.6125
2102.11299	15650.3125
2105.10435	15661.8125
2108.09379	15626.9125
2111.08131	15634.1125
2114.0669	15673.5125
2117.05057	15663.0125
2120.03233	15676.9125
2123.01216	15678.4125
2125.99008	15698.0125
2128.96609	15686.2125
2131.94018	15693.5125
2134.91236	15738.0125
2137.88263	15702.6125
2140.851	15712.7125
2143.81746	15741.7125
2146.78201	15733.8125
2149.74466	15726.3125
2152.7054	15736.5125
2155.66425	15710.0125
2158.6212	15720.8125
2161.57625	15725.0125
2164.52941	15714.1125
2167.48067	15681.2125
2170.43004	15695.9125
2173.37752	15681.0125
2176.32311	15683.9125
2179.26681	15727.5125
2182.20863	15701.6125
2185.14856	15714.5125
2188.08661	15687.5125
2191.02278	15698.6125
2193.95707	15668.2125
2196.88948	15678.1125
2199.82001	15672.3125
2202.74867	15650.3125
2205.67545	15671.9125
2208.60037	15658.5125
2211.52341	15632.4125
2214.44458	15614.7125
2217.36388	15584.3125
2220.28132	15581.9125
2223.1969	15498.9125
2226.11061	15514.6125
2229.02246	15462.2125
2231.93245	15434.1125
2234.84058	15441.2125
2237.74686	15373.3125
2240.65128	15396.8125
2243.55385	15360.5125
2246.45456	15327.2125
2249.35343	15327.0125
2252.25044	15308.3125
2255.14561	15315.9125
2258.03893	15289.2125
2260.93041	15292.9125
2263.82004	15239.1125
2266.70783	15216.6125
2269.59378	15192.9125
2272.4779	15161.2125
2275.36017	15102.8125
2278.24061	15087.8125
2281.11922	15039.7125
2283.996	15028.5125
2286.87094	15003.3125
2289.74405	14949.5125
2292.61534	14922.1125
2295.4848	14915.9125
2298.35243	14917.6125
2301.21824	14935.9125
2304.08223	14916.9125
2306.94439	14917.2125
2309.80474	14923.6125
2312.66327	14950.6125
2315.51999	14925.1125
2318.37489	14906.9125
2321.22797	14916.6125
2324.07925	14884.6125
2326.92871	14853.6125
2329.77637	14852.8125
2332.62222	14863.1125
2335.46626	14865.9125
2338.3085	14832.0125
2341.14893	14859.8125
2343.98756	14862.0125
2346.8244	14855.4125
2349.65943	14842.1125
2352.49267	14857.5125
2355.32411	14885.9125
2358.15376	14867.5125
2360.98161	14851.6125
2363.80768	14862.9125
2366.63195	14867.4125
2369.45444	14851.6125
2372.27514	14837.9125
2375.09405	14832.2125
2377.91118	14788.5125
2380.72652	14729.9125
2383.54009	14669.9125
2386.35187	14641.4125
2389.16188	14589.5125
2391.97011	14564.9125
2394.77657	14523.4125
2397.58125	14561.7125
2400.38416	14502.7125
2403.18529	14464.3125
2405.98466	14401.8125
2408.78226	14375.7125
2411.57809	14379.6125
2414.37216	14342.4125
2417.16446	14358.0125
2419.955	14355.7125
2422.74378	14379.3125
2425.5308	14323.6125
2428.31606	14316.3125
2431.09956	14325.6125
2433.88131	14281.1125
2436.6613	14277.5125
2439.43954	14301.8125
2442.21603	14278.7125
2444.99077	14295.7125
2447.76377	14265.1125
2450.53501	14289.3125
2453.30451	14284.4125
2456.07226	14268.9125
2458.83827	14273.8125
2461.60254	14298.8125
2464.36507	14301.4125
2467.12586	14259.9125
2469.88492	14276.9125
2472.64224	14284.4125
2475.39782	14269.2125
2478.15167	14317.6125
2480.90379	14310.4125
2483.65417	14312.0125
2486.40283	14332.3125
2489.14976	14356.2125
2491.89497	14343.4125
2494.63845	14372.5125
2497.3802	14360.3125
2500.12024	14379.2125
2502.85855	14336.2125
2505.59514	14327.7125
2508.33002	14325.2125
2511.06318	14272.7125
2513.79462	14260.0125
2516.52435	14226.3125
2519.25237	14197.6125
2521.97867	14172.8125
2524.70327	14154.3125
2527.42616	14134.5125
2530.14734	14127.9125
2532.86681	14121.9125
2535.58458	14075.4125
2538.30065	14071.6125
2541.01501	14076.8125
2543.72768	14056.2125
2546.43864	14056.8125
2549.14791	14030.2125
2551.85548	14036.8125
2554.56136	14033.2125
2557.26554	14044.0125
2559.96803	13983.7125
2562.66883	14004.6125
2565.36794	13966.8125
2568.06536	13981.7125
2570.7611	13967.4125
2573.45514	13932.7125
2576.14751	13918.5125
2578.83819	13938.6125
2581.52719	13930.0125
2584.21451	13942.5125
2586.90015	13900.0125
2589.58411	13899.3125
2592.2664	13890.8125
2594.94701	13878.3125
2597.62594	13860.4125
2600.30321	13850.4125
2602.9788	13848.4125
2605.65273	13851.2125
2608.32498	13848.9125
2610.99557	13845.4125
2613.66449	13861.6125
2616.33175	13839.3125
2618.99734	13854.2125
2621.66128	13858.9125
2624.32355	13875.4125
2626.98416	13870.4125
2629.64311	13836.2125
2632.30041	13824.1125
2634.95605	13825.1125
2637.61004	13807.5125
2640.26238	13761.9125
2642.91306	13771.1125
2645.56209	13772.5125
2648.20948	13776.6125
2650.85521	13742.6125
2653.4993	13724.6125
2656.14175	13748.4125
2658.78255	13739.6125
2661.42171	13749.4125
2664.05923	13748.8125
2666.6951	13735.5125
2669.32934	13784.9125
2671.96194	13792.2125
2674.59291	13791.2125
2677.22224	13802.1125
2679.84993	13809.6125
2682.476	13805.4125
2685.10043	13783.6125
2687.72324	13776.9125
2690.34441	13792.7125
2692.96396	13745.4125
2695.58188	13794.5125
2698.19818	13768.9125
2700.81285	13772.6125
2703.4259	13787.9125
2706.03733	13791.4125
2708.64714	13803.1125
2711.25533	13804.3125
2713.86191	13772.3125
2716.46687	13841.1125
2719.07021	13782.6125
2721.67194	13827.6125
2724.27206	13816.9125
2726.87057	13818.2125
2729.46747	13812.2125
2732.06276	13834.9125
2734.65644	13824.6125
2737.24852	13801.2125
2739.83899	13795.1125
2742.42786	13808.8125
2745.01513	13757.7125
2747.60079	13773.3125
2750.18486	13767.9125
2752.76733	13759.7125
2755.3482	13756.4125
2757.92747	13754.8125
2760.50515	13759.2125
2763.08123	13716.8125
2765.65573	13719.9125
2768.22863	13739.4125
2770.79994	13685.5125
2773.36967	13725.2125
2775.9378	13722.3125
2778.50435	13707.1125
2781.06932	13668.7125
2783.6327	13689.1125
2786.1945	13696.4125
2788.75471	13681.1125
2791.31335	13658.9125
2793.87041	13645.5125
2796.42589	13590.1125
2798.97979	13575.4125
2801.53212	13608.0125
2804.08288	13581.4125
2806.63206	13531.6125
2809.17967	13517.7125
2811.72571	13566.4125
2814.27018	13545.6125
2816.81308	13574.0125
2819.35442	13560.0125
2821.89419	13552.3125
2824.43239	13585.8125
2826.96904	13561.4125
2829.50412	13600.2125
2832.03763	13526.5125
2834.56959	13550.4125
2837.1	13552.4125
2839.62884	13570.6125
2842.15613	13586.8125
2844.68186	13711.4125
2847.20604	13771.9125
2849.72867	13820.6125
2852.24974	13824.2125
2854.76927	13833.5125
2857.28724	13805.7125
2859.80367	13768.9125
2862.31855	13741.0125
2864.83189	13732.8125
2867.34368	13710.3125
2869.85393	13738.4125
2872.36264	13693.0125
2874.8698	13711.1125
2877.37543	13729.1125
2879.87952	13728.0125
2882.38207	13739.4125
2884.88308	13707.1125
2887.38256	13728.9125
2889.88051	13727.8125
2892.37692	13731.5125
2894.8718	13724.9125
2897.36515	13722.6125
2899.85698	13718.3125
2902.34727	13726.0125
2904.83604	13728.0125
2907.32328	13762.1125
2909.809	13751.3125
2912.29319	13783.9125
2914.77587	13772.9125
2917.25702	13749.7125
2919.73665	13746.9125
2922.21476	13727.5125
2924.69136	13689.5125
2927.16644	13712.6125
2929.64	13675.8125
2932.11205	13655.7125
2934.58258	13595.3125
2937.05161	13572.8125
2939.51912	13567.9125
2941.98513	13515.9125
2944.44962	13448.4125
2946.91261	13343.2125
2949.37409	13332.8125
2951.83407	13296.7125
2954.29254	13261.7125
2956.74951	13234.7125
2959.20498	13199.2125
2961.65895	13175.5125
2964.11142	13143.0125
2966.56239	13116.2125
2969.01186	13123.3125
2971.45984	13032.1125
2973.90632	13007.0125
2976.35131	12971.6125
2978.7948	12935.3125
2981.23681	12885.8125
2983.67732	12835.8125
2986.11635	12805.4125
2988.55388	12763.5125
2990.98993	12734.9125
2993.4245	12690.9125
2995.85758	12680.1125
2998.28917	12641.4125
3000.71928	12642.5125
3003.14791	12634.4125
3005.57506	12592.4125
3008.00073	12547.1125
3010.42493	12537.4125
3012.84764	12526.8125
3015.26888	12522.8125
3017.68865	12479.4125
3020.10694	12474.8125
3022.52376	12428.2125
