Data from AgNPs_FTO_APTES_UA_2uM_CRN_2uM_R6G_10uM_NaF_0.1M_Addition_RamanShift__13__12-13-55-061.txt Node

Date: Wed Feb 02 12:13:55 GMT 2022
User: TCL
Spectrometer: QEP01345
Trigger mode: 4
Integration Time (sec): 7.000000E0
Scans to average: 10
Electric dark correction enabled: true
Nonlinearity correction enabled: false
Boxcar width: 0
XAxis mode: Raman Shifts
Number of Pixels in Spectrum: 1044
>>>>>Begin Spectral Data<<<<<
46.04893	0.875
50.45542	0.475
54.85868	-0.925
59.25871	-1.025
63.6555	108.875
68.04907	116.875
72.43941	113.275
76.82654	129.975
81.21044	129.075
85.59113	134.475
89.96862	136.275
94.34289	142.275
98.71396	149.975
103.08183	157.575
107.4465	159.275
111.80798	159.875
116.16626	168.875
120.52136	177.875
124.87327	186.975
129.222	192.875
133.56755	209.175
137.90993	226.075
142.24913	251.175
146.58517	292.675
150.91804	343.075
155.24774	416.075
159.57429	515.175
163.89768	677.075
168.21792	893.075
172.53501	1226.375
176.84895	1719.775
181.15975	2411.775
185.46741	3394.975
189.77193	4703.575
194.07331	6319.075
198.37157	8145.775
202.6667	10059.375
206.9587	11970.175
211.24758	13835.675
215.53334	15663.375
219.81599	17651.575
224.09553	19799.575
228.37195	22149.975
232.64527	24754.175
236.91549	27570.575
241.18261	30366.275
245.44663	33047.575
249.70755	35488.575
253.96539	37621.375
258.22014	39384.475
262.4718	40763.175
266.72039	41707.475
270.96589	42149.375
275.20832	42165.975
279.44768	41839.075
283.68397	41471.075
287.91719	41120.775
292.14735	40811.475
296.37445	40592.175
300.59849	40517.875
304.81948	40516.675
309.03742	40510.175
313.25231	40230.875
317.46415	39702.475
321.67296	38915.075
325.87872	38263.675
330.08145	37822.775
334.28114	37743.075
338.47781	37971.575
342.67145	38264.175
346.86207	38748.075
351.04966	39307.075
355.23424	39815.075
359.4158	40312.275
363.59435	40670.575
367.76989	40990.275
371.94243	41167.475
376.11196	41262.375
380.27849	41251.175
384.44203	41392.075
388.60257	41630.675
392.76012	42106.675
396.91468	42744.375
401.06626	43493.975
405.21485	43890.275
409.36047	43753.475
413.50311	43231.375
417.64277	43021.375
421.77947	43113.375
425.9132	43392.675
430.04396	43616.075
434.17176	43755.075
438.2966	43892.675
442.41849	44319.075
446.53742	45035.175
450.6534	45823.175
454.76644	46378.675
458.87653	46680.775
462.98368	46741.375
467.08789	46592.675
471.18916	46205.575
475.2875	45765.675
479.38291	45646.275
483.4754	45607.275
487.56496	45393.775
491.6516	44898.175
495.73531	44348.575
499.81612	43928.975
503.89401	44038.375
507.96899	44117.175
512.04106	44188.375
516.11023	44035.475
520.1765	43622.275
524.23987	43160.075
528.30034	42715.175
532.35792	42300.175
536.41261	41920.975
540.46441	41654.575
544.51333	41657.675
548.55936	42120.375
552.60252	42880.875
556.64279	43672.675
560.6802	44317.875
564.71473	44896.675
568.7464	45690.675
572.7752	47165.175
576.80114	48939.875
580.82422	50668.675
584.84444	52196.075
588.86181	53845.775
592.87633	55333.175
596.888	55028.475
600.89682	52761.075
604.9028	51657.775
608.90594	53253.175
612.90624	55197.975
616.90371	52185.875
620.89834	46063.275
624.89015	43450.275
628.87913	43280.175
632.86528	43756.075
636.84862	43707.375
640.82913	42982.475
644.80683	41917.175
648.78172	41193.175
652.75379	41093.975
656.72306	41357.975
660.68952	41846.675
664.65319	41722.375
668.61405	41313.975
672.57211	41219.675
676.52738	41284.375
680.47986	41304.675
684.42955	41047.675
688.37646	40932.175
692.32058	41108.575
696.26192	41466.575
700.20048	41968.175
704.13626	42347.975
708.06928	42583.975
711.99952	42474.975
715.927	42381.675
719.85171	42271.775
723.77365	41945.275
727.69284	41405.875
731.60928	40789.275
735.52295	40540.075
739.43388	40496.975
743.34206	40575.475
747.24749	40816.475
751.15017	41219.175
755.05012	41961.275
758.94733	42960.275
762.8418	44664.175
766.73354	47115.175
770.62254	49209.775
774.50882	49376.075
778.39237	47496.175
782.27321	45068.375
786.15132	43036.275
790.02671	41724.175
793.89938	40963.975
797.76935	40513.775
801.6366	40357.275
805.50115	40184.875
809.36299	40066.975
813.22213	39840.575
817.07857	39767.475
820.93231	39763.775
824.78336	39632.975
828.63172	39407.975
832.47738	39282.275
836.32036	39282.975
840.16066	39258.575
843.99827	39172.975
847.8332	39148.675
851.66546	39207.375
855.49504	39323.675
859.32195	39368.575
863.1462	39224.675
866.96777	39194.475
870.78668	39197.075
874.60293	39226.175
878.41652	39240.275
882.22745	39413.975
886.03573	39494.875
889.84136	39548.375
893.64433	39506.975
897.44466	39402.575
901.24235	39427.575
905.0374	39434.475
908.8298	39465.475
912.61957	39558.075
916.40671	39920.675
920.19121	40461.575
923.97308	40861.975
927.75233	40833.775
931.52895	40320.975
935.30295	39644.775
939.07433	38934.175
942.84309	38339.375
946.60924	37974.875
950.37278	37801.975
954.13371	37747.275
957.89203	37788.175
961.64774	37667.875
965.40086	37702.175
969.15137	37587.575
972.89929	37366.075
976.64461	37191.075
980.38733	37042.775
984.12747	37008.275
987.86502	37080.275
991.59999	37188.175
995.33237	37440.375
999.06217	37761.775
1002.78939	38260.475
1006.51404	38851.875
1010.23611	39536.475
1013.95561	39923.275
1017.67255	39942.175
1021.38692	39617.375
1025.09872	39119.375
1028.80796	38642.075
1032.51465	38413.975
1036.21877	38481.575
1039.92035	38622.075
1043.61937	38766.575
1047.31584	38923.475
1051.00976	39080.675
1054.70114	39337.375
1058.38998	39545.975
1062.07627	39949.075
1065.76003	40499.975
1069.44126	41097.475
1073.11995	41706.475
1076.79611	42244.575
1080.46974	42512.375
1084.14085	42666.175
1087.80943	42939.075
1091.47549	43398.875
1095.13903	43657.475
1098.80005	43317.275
1102.45857	42332.675
1106.11456	41374.475
1109.76805	40742.675
1113.41903	40452.275
1117.06751	40427.775
1120.71348	40669.675
1124.35696	40960.075
1127.99793	41418.475
1131.63641	41754.875
1135.2724	41733.675
1138.90589	41691.475
1142.5369	41860.475
1146.16542	42163.875
1149.79145	42565.475
1153.415	43038.875
1157.03607	43554.775
1160.65467	44574.575
1164.27079	46086.175
1167.88443	48081.275
1171.49561	50247.875
1175.10432	52761.375
1178.71056	55834.775
1182.31434	58694.875
1185.91565	60421.575
1189.51451	60907.775
1193.11091	60386.375
1196.70485	58931.075
1200.29634	56939.075
1203.88538	55450.075
1207.47197	54706.375
1211.05612	54420.475
1214.63782	53851.975
1218.21708	52546.075
1221.79391	50904.775
1225.36829	49523.175
1228.94024	48615.475
1232.50976	48170.675
1236.07685	47886.575
1239.6415	47611.275
1243.20374	47555.275
1246.76355	47804.375
1250.32093	48373.275
1253.8759	49218.375
1257.42845	50382.975
1260.97859	51838.875
1264.52631	53195.775
1268.07163	54593.775
1271.61453	55925.275
1275.15503	57368.975
1278.69312	58922.775
1282.22882	60722.575
1285.76211	62842.075
1289.29301	65064.375
1292.82151	67564.875
1296.34761	70399.175
1299.87133	73544.175
1303.39266	76516.375
1306.9116	78959.775
1310.42815	80582.475
1313.94233	81209.675
1317.45412	80942.075
1320.96354	80548.875
1324.47058	80458.475
1327.97525	80656.675
1331.47754	80840.275
1334.97747	80780.775
1338.47502	80421.675
1341.97022	80073.875
1345.46305	79663.075
1348.95352	78942.175
1352.44163	77988.475
1355.92738	77469.075
1359.41078	78136.475
1362.89183	79037.575
1366.37053	78082.375
1369.84688	74034.675
1373.32088	68119.875
1376.79254	63631.275
1380.26186	61792.075
1383.72883	61651.675
1387.19347	61624.675
1390.65578	61128.775
1394.11575	60714.875
1397.57339	60898.475
1401.0287	61422.175
1404.48168	61778.275
1407.93234	61227.275
1411.38068	59775.375
1414.82669	57850.375
1418.27039	55670.975
1421.71177	53619.475
1425.15083	52111.775
1428.58758	51418.475
1432.02203	51764.975
1435.45416	52837.775
1438.88399	54059.575
1442.31151	55098.475
1445.73673	55741.375
1449.15965	56350.875
1452.58027	56846.875
1455.9986	57128.575
1459.41463	57669.975
1462.82837	58407.875
1466.23982	59284.675
1469.64898	59763.975
1473.05586	60059.275
1476.46045	60031.775
1479.86276	59786.475
1483.26279	59424.975
1486.66054	59394.775
1490.05602	59813.575
1493.44922	60813.675
1496.84016	62076.375
1500.22882	63497.575
1503.61521	65135.075
1506.99934	66609.775
1510.38121	67656.175
1513.76081	67860.575
1517.13816	67314.975
1520.51324	66514.375
1523.88607	65950.375
1527.25665	65815.175
1530.62498	65612.675
1533.99105	64878.675
1537.35488	63514.275
1540.71647	61706.375
1544.07581	59702.675
1547.4329	57812.675
1550.78776	56261.175
1554.14038	55380.875
1557.49077	55068.175
1560.83892	54913.875
1564.18484	54910.075
1567.52853	55088.175
1570.86999	55539.375
1574.20922	56491.475
1577.54624	57560.175
1580.88103	58061.775
1584.2136	58763.575
1587.54395	60087.275
1590.87208	62211.175
1594.19801	64723.775
1597.52172	66717.375
1600.84321	66612.275
1604.16251	63551.775
1607.47959	59105.975
1610.79447	54829.775
1614.10715	50916.775
1617.41763	47687.075
1620.7259	45348.475
1624.03199	44192.175
1627.33587	44195.775
1630.63757	45380.875
1633.93707	48005.675
1637.23439	52595.775
1640.52951	59142.175
1643.82246	66889.975
1647.11321	72942.275
1650.40179	74189.175
1653.68819	69497.175
1656.97241	61159.075
1660.25446	52791.675
1663.53433	46245.475
1666.81203	41927.675
1670.08756	39226.175
1673.36092	37482.175
1676.63211	36376.875
1679.90115	35610.075
1683.16801	34991.575
1686.43272	34539.075
1689.69527	34244.575
1692.95567	33955.275
1696.2139	33795.675
1699.46999	33602.875
1702.72392	33501.775
1705.97571	33382.075
1709.22535	33237.875
1712.47284	33160.075
1715.71819	33125.175
1718.96139	33044.875
1722.20246	32878.975
1725.44139	32775.675
1728.67818	32603.875
1731.91284	32388.975
1735.14537	32226.575
1738.37576	32066.275
1741.60403	31966.475
1744.83017	31833.975
1748.05418	31776.475
1751.27607	31710.975
1754.49584	31600.275
1757.71349	31604.575
1760.92903	31536.375
1764.14244	31550.075
1767.35375	31472.475
1770.56294	31418.775
1773.77002	31335.875
1776.97499	31307.575
1780.17785	31226.475
1783.37861	31124.375
1786.57727	31091.375
1789.77382	31023.175
1792.96828	30917.675
1796.16064	30869.575
1799.3509	30825.575
1802.53907	30702.175
1805.72514	30587.975
1808.90913	30545.875
1812.09102	30519.575
1815.27083	30462.275
1818.44856	30449.375
1821.6242	30425.375
1824.79776	30413.175
1827.96924	30374.675
1831.13864	30370.475
1834.30597	30354.275
1837.47122	30345.175
1840.6344	30281.175
1843.7955	30349.575
1846.95454	30291.175
1850.11151	30251.875
1853.26642	30288.375
1856.41926	30229.475
1859.57004	30241.675
1862.71876	30194.275
1865.86542	30150.975
1869.01003	30102.975
1872.15258	30027.875
1875.29308	29976.875
1878.43152	29897.675
1881.56792	29832.875
1884.70227	29790.375
1887.83457	29775.675
1890.96482	29705.375
1894.09304	29626.575
1897.21921	29605.275
1900.34335	29531.175
1903.46544	29476.475
1906.58551	29439.475
1909.70353	29348.275
1912.81953	29278.675
1915.93349	29172.575
1919.04543	29071.275
1922.15534	29030.375
1925.26322	28943.775
1928.36908	28885.575
1931.47292	28809.575
1934.57473	28733.975
1937.67453	28575.375
1940.77232	28487.575
1943.86808	28441.875
1946.96184	28354.975
1950.05358	28251.575
1953.14331	28187.775
1956.23103	28118.875
1959.31675	28029.975
1962.40046	27904.975
1965.48217	27795.875
1968.56188	27744.575
1971.63959	27642.175
1974.7153	27534.275
1977.78901	27444.675
1980.86073	27310.175
1983.93046	27220.475
1986.99819	27118.075
1990.06394	27049.075
1993.1277	26973.475
1996.18947	26871.675
1999.24925	26791.575
2002.30706	26721.475
2005.36288	26621.475
2008.41672	26558.775
2011.46859	26493.275
2014.51848	26420.975
2017.56639	26350.075
2020.61233	26277.475
2023.6563	26265.675
2026.6983	26170.875
2029.73833	26058.375
2032.7764	25995.275
2035.8125	25906.875
2038.84664	25884.475
2041.87881	25790.575
2044.90903	25796.675
2047.93729	25697.675
2050.96359	25657.075
2053.98794	25643.475
2057.01034	25597.475
2060.03078	25577.875
2063.04927	25494.975
2066.06582	25540.475
2069.08042	25478.675
2072.09307	25429.675
2075.10378	25456.875
2078.11255	25485.775
2081.11938	25463.675
2084.12426	25441.775
2087.12722	25382.475
2090.12824	25388.575
2093.12732	25373.775
2096.12447	25362.575
2099.11969	25371.275
2102.11299	25418.575
2105.10435	25379.875
2108.09379	25371.675
2111.08131	25359.975
2114.0669	25342.075
2117.05057	25372.275
2120.03233	25403.575
2123.01216	25399.575
2125.99008	25365.175
2128.96609	25364.175
2131.94018	25379.675
2134.91236	25375.175
2137.88263	25334.475
2140.851	25280.975
2143.81746	25308.375
2146.78201	25302.675
2149.74466	25310.875
2152.7054	25329.075
2155.66425	25304.875
2158.6212	25331.775
2161.57625	25293.975
2164.52941	25274.175
2167.48067	25261.375
2170.43004	25230.975
2173.37752	25186.575
2176.32311	25178.775
2179.26681	25237.575
2182.20863	25259.975
2185.14856	25205.975
2188.08661	25200.175
2191.02278	25184.575
2193.95707	25116.175
2196.88948	25090.475
2199.82001	25092.475
2202.74867	25041.675
2205.67545	24985.275
2208.60037	24942.475
2211.52341	24908.875
2214.44458	24853.975
2217.36388	24805.175
2220.28132	24777.175
2223.1969	24659.975
2226.11061	24647.775
2229.02246	24627.175
2231.93245	24584.175
2234.84058	24603.175
2237.74686	24583.675
2240.65128	24489.375
2243.55385	24415.775
2246.45456	24408.275
2249.35343	24315.075
2252.25044	24272.375
2255.14561	24210.675
2258.03893	24167.775
2260.93041	24090.475
2263.82004	24013.875
2266.70783	23938.975
2269.59378	23852.475
2272.4779	23793.475
2275.36017	23754.075
2278.24061	23690.875
2281.11922	23624.475
2283.996	23581.075
2286.87094	23592.875
2289.74405	23513.375
2292.61534	23478.075
2295.4848	23401.375
2298.35243	23358.275
2301.21824	23330.675
2304.08223	23308.275
2306.94439	23292.775
2309.80474	23326.475
2312.66327	23273.375
2315.51999	23236.375
2318.37489	23241.375
2321.22797	23158.275
2324.07925	23153.675
2326.92871	23082.175
2329.77637	23099.375
2332.62222	23006.375
2335.46626	22988.375
2338.3085	22945.775
2341.14893	22922.075
2343.98756	22900.975
2346.8244	22871.275
2349.65943	22856.375
2352.49267	22852.575
2355.32411	22885.575
2358.15376	22880.275
2360.98161	22882.275
2363.80768	22852.775
2366.63195	22814.475
2369.45444	22753.175
2372.27514	22702.575
2375.09405	22650.475
2377.91118	22599.275
2380.72652	22528.475
2383.54009	22518.175
2386.35187	22476.875
2389.16188	22462.675
2391.97011	22401.975
2394.77657	22368.975
2397.58125	22283.675
2400.38416	22237.175
2403.18529	22190.475
2405.98466	22124.175
2408.78226	22151.475
2411.57809	22133.975
2414.37216	22145.875
2417.16446	22138.375
2419.955	22085.275
2422.74378	22033.175
2425.5308	22042.675
2428.31606	21998.775
2431.09956	21999.175
2433.88131	21983.075
2436.6613	21942.875
2439.43954	21929.575
2442.21603	21900.675
2444.99077	21899.475
2447.76377	21881.875
2450.53501	21837.775
2453.30451	21876.775
2456.07226	21820.475
2458.83827	21820.375
2461.60254	21769.675
2464.36507	21761.875
2467.12586	21708.975
2469.88492	21708.475
2472.64224	21674.875
2475.39782	21677.875
2478.15167	21676.075
2480.90379	21610.075
2483.65417	21609.875
2486.40283	21608.275
2489.14976	21586.575
2491.89497	21535.675
2494.63845	21558.775
2497.3802	21541.775
2500.12024	21505.175
2502.85855	21507.175
2505.59514	21479.575
2508.33002	21468.475
2511.06318	21455.975
2513.79462	21432.775
2516.52435	21396.275
2519.25237	21374.775
2521.97867	21353.675
2524.70327	21317.175
2527.42616	21271.275
2530.14734	21294.575
2532.86681	21230.775
2535.58458	21215.675
2538.30065	21177.975
2541.01501	21149.075
2543.72768	21101.675
2546.43864	21113.575
2549.14791	21034.275
2551.85548	21016.575
2554.56136	21042.975
2557.26554	20996.275
2559.96803	20972.175
2562.66883	20918.075
2565.36794	20887.475
2568.06536	20827.375
2570.7611	20815.175
2573.45514	20795.475
2576.14751	20736.275
2578.83819	20715.175
2581.52719	20697.475
2584.21451	20669.575
2586.90015	20650.875
2589.58411	20611.575
2592.2664	20580.075
2594.94701	20513.675
2597.62594	20526.375
2600.30321	20453.975
2602.9788	20490.075
2605.65273	20426.875
2608.32498	20394.075
2610.99557	20380.975
2613.66449	20387.875
2616.33175	20361.675
2618.99734	20334.175
2621.66128	20300.675
2624.32355	20316.275
2626.98416	20283.875
2629.64311	20231.675
2632.30041	20219.475
2634.95605	20208.675
2637.61004	20182.775
2640.26238	20162.075
2642.91306	20173.475
2645.56209	20173.275
2648.20948	20128.375
2650.85521	20185.475
2653.4993	20171.375
2656.14175	20114.875
2658.78255	20103.975
2661.42171	20083.975
2664.05923	20078.675
2666.6951	20126.775
2669.32934	20104.375
2671.96194	20096.675
2674.59291	20119.375
2677.22224	20113.175
2679.84993	20109.775
2682.476	20075.475
2685.10043	20073.175
2687.72324	20080.575
2690.34441	20082.375
2692.96396	20097.075
2695.58188	20065.775
2698.19818	20102.275
2700.81285	20074.975
2703.4259	20057.275
2706.03733	20098.675
2708.64714	20056.675
2711.25533	20002.875
2713.86191	20008.875
2716.46687	20083.075
2719.07021	20087.275
2721.67194	20084.975
2724.27206	20073.475
2726.87057	20057.475
2729.46747	20076.275
2732.06276	20079.975
2734.65644	20054.275
2737.24852	20062.375
2739.83899	20057.675
2742.42786	20064.575
2745.01513	20011.575
2747.60079	19952.375
2750.18486	19935.075
2752.76733	19893.275
2755.3482	19890.075
2757.92747	19867.475
2760.50515	19886.875
2763.08123	19870.175
2765.65573	19832.575
2768.22863	19815.375
2770.79994	19780.775
2773.36967	19756.675
2775.9378	19754.175
2778.50435	19712.975
2781.06932	19667.775
2783.6327	19653.775
2786.1945	19629.175
2788.75471	19574.475
2791.31335	19548.675
2793.87041	19530.075
2796.42589	19488.575
2798.97979	19498.275
2801.53212	19473.975
2804.08288	19452.175
2806.63206	19380.775
2809.17967	19330.575
2811.72571	19222.875
2814.27018	19231.875
2816.81308	19185.575
2819.35442	19140.975
2821.89419	19104.575
2824.43239	19100.875
2826.96904	19079.075
2829.50412	19063.575
2832.03763	19030.675
2834.56959	19049.775
2837.1	19022.875
2839.62884	18997.975
2842.15613	18964.375
2844.68186	19037.675
2847.20604	19011.375
2849.72867	19017.975
2852.24974	18991.675
2854.76927	18979.475
2857.28724	18942.075
2859.80367	18928.175
2862.31855	18846.375
2864.83189	18849.175
2867.34368	18815.575
2869.85393	18802.775
2872.36264	18750.375
2874.8698	18741.075
2877.37543	18797.075
2879.87952	18788.475
2882.38207	18774.475
2884.88308	18740.775
2887.38256	18738.875
2889.88051	18693.375
2892.37692	18732.975
2894.8718	18744.575
2897.36515	18758.075
2899.85698	18764.775
2902.34727	18745.075
2904.83604	18735.475
2907.32328	18755.575
2909.809	18720.775
2912.29319	18755.175
2914.77587	18713.875
2917.25702	18729.175
2919.73665	18680.375
2922.21476	18700.275
2924.69136	18682.775
2927.16644	18696.975
2929.64	18661.475
2932.11205	18635.375
2934.58258	18562.575
2937.05161	18557.875
2939.51912	18534.075
2941.98513	18507.475
2944.44962	18471.375
2946.91261	18398.375
2949.37409	18441.775
2951.83407	18427.275
2954.29254	18409.975
2956.74951	18368.075
2959.20498	18344.675
2961.65895	18293.275
2964.11142	18307.875
2966.56239	18227.275
2969.01186	18230.475
2971.45984	18144.075
2973.90632	18121.775
2976.35131	18091.875
2978.7948	18080.675
2981.23681	17978.175
2983.67732	17929.775
2986.11635	17854.175
2988.55388	17806.175
2990.98993	17820.375
2993.4245	17739.975
2995.85758	17710.375
2998.28917	17657.675
3000.71928	17648.075
3003.14791	17585.775
3005.57506	17544.075
3008.00073	17468.075
3010.42493	17478.175
3012.84764	17424.675
3015.26888	17403.375
3017.68865	17367.575
3020.10694	17328.575
3022.52376	17282.875
3024.9391	17257.375
3027.35298	17253.675
3029.76539	17228.175
3032.17632	17186.475
3034.5858	17139.375
3036.9938	17100.975
3039.40034	17103.275
3041.80542	17075.675
3044.20903	17027.475
3046.61118	17018.875
3049.01187	16977.375
3051.4111	16949.975
3053.80888	16859.175
3056.20519	16870.475
3058.60005	16782.975
3060.99345	16764.975
3063.3854	16717.075
3065.7759	16644.775
3068.16494	16613.375
3070.55254	16519.275
3072.93868	16527.475
3075.32338	16509.175
3077.70662	16474.675
3080.08842	16415.675
3082.46878	16365.075
3084.84769	16366.775
3087.22515	16334.175
3089.60118	16288.475
3091.97576	16270.475
3094.3489	16266.775
3096.72061	16279.875
3099.09087	16239.675
3101.4597	16188.475
3103.82709	16178.675
3106.19305	16128.375
3108.55757	16102.875
3110.92066	16048.175
3113.28232	16038.275
3115.64255	16019.575
3118.00134	15971.675
3120.35871	15930.075
3122.71466	15874.275
3125.06917	15810.375
