Data from AgNPs_FTO_APTES_UA_2uM_CRN_500uM_R6G_10uM_NaF_0.1M_Addition_RamanShift__12__17-12-35-412.txt Node

Date: Wed Feb 02 17:12:35 GMT 2022
User: TCL
Spectrometer: QEP01345
Trigger mode: 4
Integration Time (sec): 7.000000E0
Scans to average: 10
Electric dark correction enabled: true
Nonlinearity correction enabled: false
Boxcar width: 0
XAxis mode: Raman Shifts
Number of Pixels in Spectrum: 1044
>>>>>Begin Spectral Data<<<<<
46.04893	0.6
50.45542	0.4
54.85868	-1
59.25871	0.1
63.6555	56.8
68.04907	61.8
72.43941	65.5
76.82654	72.8
81.21044	75.5
85.59113	76.9
89.96862	78.7
94.34289	82.4
98.71396	85.8
103.08183	89.3
107.4465	91.7
111.80798	93.6
116.16626	95.9
120.52136	100.8
124.87327	99.7
129.222	103.1
133.56755	113.8
137.90993	114.4
142.24913	129.6
146.58517	147.8
150.91804	167.4
155.24774	203
159.57429	248.8
163.89768	312.9
168.21792	410.8
172.53501	562.2
176.84895	780.2
181.15975	1093.6
185.46741	1532.8
189.77193	2118.9
194.07331	2837.5
198.37157	3652.2
202.6667	4518.3
206.9587	5376
211.24758	6214.8
215.53334	7036.6
219.81599	7932.3
224.09553	8859.2
228.37195	9894.7
232.64527	11068.8
236.91549	12221.4
241.18261	13429.6
245.44663	14614.7
249.70755	15656.2
253.96539	16595.1
258.22014	17355.5
262.4718	17988.6
266.72039	18366.2
270.96589	18616.5
275.20832	18717.1
279.44768	18682.2
283.68397	18615.3
287.91719	18547.8
292.14735	18513.8
296.37445	18577.6
300.59849	18651.7
304.81948	18713.9
309.03742	18656.4
313.25231	18504.1
317.46415	18081.6
321.67296	17549.2
325.87872	17110.3
330.08145	16792.4
334.28114	16700.3
338.47781	16730.9
342.67145	16853.1
346.86207	17031.9
351.04966	17160
355.23424	17333
359.4158	17514.6
363.59435	17625.6
367.76989	17697.6
371.94243	17725.2
376.11196	17735.5
380.27849	17703.8
384.44203	17780.2
388.60257	17859.7
392.76012	18124.6
396.91468	18413
401.06626	18709.9
405.21485	18937.9
409.36047	18933.8
413.50311	18776.8
417.64277	18656.2
421.77947	18669.3
425.9132	18794.1
430.04396	18934.2
434.17176	19063.2
438.2966	19134.1
442.41849	19397.7
446.53742	19791.7
450.6534	20295.3
454.76644	20612.1
458.87653	20765
462.98368	20797.8
467.08789	20742.1
471.18916	20615.2
475.2875	20484.6
479.38291	20467.9
483.4754	20509
487.56496	20284.7
491.6516	19916.9
495.73531	19415.4
499.81612	19090.1
503.89401	18974
507.96899	19039.2
512.04106	19016.4
516.11023	18916.1
520.1765	18669.4
524.23987	18403.7
528.30034	18157
532.35792	17916.1
536.41261	17742.5
540.46441	17587.3
544.51333	17682.1
548.55936	17992.5
552.60252	18420.7
556.64279	18962.1
560.6802	19409.5
564.71473	19770.7
568.7464	20335.1
572.7752	21274.9
576.80114	22327
580.82422	23267.3
584.84444	23844.8
588.86181	24473.5
592.87633	24947.9
596.888	24598.8
600.89682	23402.3
604.9028	22626.2
608.90594	22809.4
612.90624	23138.6
616.90371	21655.6
620.89834	19058
624.89015	18002
628.87913	17986.4
632.86528	18249
636.84862	18265.3
640.82913	17967.5
644.80683	17506.3
648.78172	17183.7
652.75379	17137.4
656.72306	17174.4
660.68952	17317.7
664.65319	17251
668.61405	17122.3
672.57211	17087.1
676.52738	17138.9
680.47986	17175.3
684.42955	17153.1
688.37646	17068.5
692.32058	17088.2
696.26192	17248.8
700.20048	17503
704.13626	17675.3
708.06928	17805.6
711.99952	17858.6
715.927	17781.1
719.85171	17693.1
723.77365	17488.3
727.69284	17185.9
731.60928	16975.4
735.52295	16808.3
739.43388	16777.7
743.34206	16731
747.24749	16887.1
751.15017	17121.3
755.05012	17495.7
758.94733	18084
762.8418	18966.6
766.73354	20167
770.62254	21085.2
774.50882	21030
778.39237	20020.8
782.27321	18757.7
786.15132	17730.6
790.02671	17090.1
793.89938	16744.4
797.76935	16598.3
801.6366	16511.9
805.50115	16439
809.36299	16374.4
813.22213	16265.5
817.07857	16265.5
820.93231	16288.1
824.78336	16196.8
828.63172	16063.4
832.47738	15939.6
836.32036	15896.4
840.16066	15843.1
843.99827	15834
847.8332	15832.5
851.66546	15862.8
855.49504	15865.1
859.32195	15824.5
863.1462	15771.1
866.96777	15748.9
870.78668	15707.2
874.60293	15723.4
878.41652	15708.4
882.22745	15713.5
886.03573	15755.6
889.84136	15770.7
893.64433	15711.1
897.44466	15697.3
901.24235	15658.9
905.0374	15614
908.8298	15630.7
912.61957	15749.4
916.40671	15997.5
920.19121	16311.6
923.97308	16532.6
927.75233	16387
931.52895	16098
935.30295	15734.2
939.07433	15371.3
942.84309	15062.1
946.60924	14911.1
950.37278	14856.6
954.13371	14808.5
957.89203	14839.3
961.64774	14850.2
965.40086	14814.3
969.15137	14776.9
972.89929	14661.3
976.64461	14498.3
980.38733	14449.7
984.12747	14419.4
987.86502	14415.1
991.59999	14480.2
995.33237	14541.3
999.06217	14660.1
1002.78939	14855.8
1006.51404	15030.6
1010.23611	15270.2
1013.95561	15447.3
1017.67255	15512
1021.38692	15455.9
1025.09872	15288.2
1028.80796	15084.5
1032.51465	15000
1036.21877	15016.5
1039.92035	15068.7
1043.61937	15209.4
1047.31584	15306
1051.00976	15381.2
1054.70114	15524.3
1058.38998	15729.6
1062.07627	15984.8
1065.76003	16284.7
1069.44126	16544.8
1073.11995	16797.8
1076.79611	16969.9
1080.46974	17018.8
1084.14085	17019.3
1087.80943	17133.9
1091.47549	17294.6
1095.13903	17506.7
1098.80005	17392.2
1102.45857	16920.5
1106.11456	16410.5
1109.76805	16136.2
1113.41903	16007.3
1117.06751	16043.6
1120.71348	16232.4
1124.35696	16412.7
1127.99793	16732.9
1131.63641	16896.8
1135.2724	16909.3
1138.90589	16874.1
1142.5369	16994.6
1146.16542	17235.7
1149.79145	17524.7
1153.415	17893.1
1157.03607	18314.2
1160.65467	18893.1
1164.27079	19765.4
1167.88443	20752.7
1171.49561	21814.1
1175.10432	23055.4
1178.71056	24444.5
1182.31434	25853.5
1185.91565	26797.9
1189.51451	27074.2
1193.11091	26804.1
1196.70485	26197.8
1200.29634	25426.4
1203.88538	24789.7
1207.47197	24666.4
1211.05612	24667.7
1214.63782	24378.8
1218.21708	23632
1221.79391	22520.7
1225.36829	21574.2
1228.94024	20954.3
1232.50976	20550.2
1236.07685	20316.3
1239.6415	20190.9
1243.20374	20195.4
1246.76355	20347.5
1250.32093	20667.1
1253.8759	21078.9
1257.42845	21655.7
1260.97859	22307.6
1264.52631	22963.5
1268.07163	23558.8
1271.61453	24246.2
1275.15503	24990.4
1278.69312	25867
1282.22882	26856.3
1285.76211	27983.6
1289.29301	29318.9
1292.82151	30961.1
1296.34761	32865.7
1299.87133	34848.5
1303.39266	36618.9
1306.9116	37901
1310.42815	38612.3
1313.94233	38826.3
1317.45412	38629.2
1320.96354	38411.7
1324.47058	38405.3
1327.97525	38674.7
1331.47754	38870.9
1334.97747	38987.3
1338.47502	38908.2
1341.97022	38652.1
1345.46305	38307.8
1348.95352	37780.3
1352.44163	37042.5
1355.92738	36532.8
1359.41078	36539.8
1362.89183	36564.8
1366.37053	35756.6
1369.84688	33650.7
1373.32088	30946
1376.79254	28938.3
1380.26186	28313.5
1383.72883	28583.7
1387.19347	28903.7
1390.65578	28946.7
1394.11575	29003.1
1397.57339	29210.8
1401.0287	29575.3
1404.48168	29770.8
1407.93234	29384.2
1411.38068	28382.8
1414.82669	27010.1
1418.27039	25527.6
1421.71177	24084.7
1425.15083	22989.7
1428.58758	22360
1432.02203	22412.6
1435.45416	22995.7
1438.88399	23767.6
1442.31151	24337.3
1445.73673	24826.1
1449.15965	25288.7
1452.58027	25733
1455.9986	26077.7
1459.41463	26390.9
1462.82837	26687.2
1466.23982	27010.3
1469.64898	27372.8
1473.05586	27533.2
1476.46045	27503.4
1479.86276	27290.4
1483.26279	27009.3
1486.66054	26799.5
1490.05602	26853.4
1493.44922	27169.2
1496.84016	27623.3
1500.22882	28246.1
1503.61521	28994.4
1506.99934	29810.5
1510.38121	30373.2
1513.76081	30625.2
1517.13816	30537.8
1520.51324	30478.4
1523.88607	30499.9
1527.25665	30726.1
1530.62498	30856.7
1533.99105	30648.2
1537.35488	30026.4
1540.71647	29084.8
1544.07581	27896.5
1547.4329	26814.6
1550.78776	25811.3
1554.14038	25142.3
1557.49077	24816.7
1560.83892	24585.9
1564.18484	24572.1
1567.52853	24579.7
1570.86999	24854.1
1574.20922	25475.4
1577.54624	26146.9
1580.88103	26597.5
1584.2136	27068.8
1587.54395	27773
1590.87208	28893.5
1594.19801	30223.5
1597.52172	31447.7
1600.84321	31520.2
1604.16251	30013.9
1607.47959	27647.7
1610.79447	25251.4
1614.10715	23011.5
1617.41763	21157.5
1620.7259	19872.1
1624.03199	19106.6
1627.33587	18957.2
1630.63757	19389
1633.93707	20627.7
1637.23439	22730.1
1640.52951	25823.3
1643.82246	29663.1
1647.11321	33212.1
1650.40179	34680.1
1653.68819	33143.6
1656.97241	29390.7
1660.25446	25059.8
1663.53433	21330.9
1666.81203	18603.9
1670.08756	16758.1
1673.36092	15566.2
1676.63211	14831.8
1679.90115	14287.5
1683.16801	13969.1
1686.43272	13669.8
1689.69527	13466.5
1692.95567	13308.7
1696.2139	13218.1
1699.46999	13131.4
1702.72392	13031.1
1705.97571	12971
1709.22535	12883.3
1712.47284	12813.5
1715.71819	12739
1718.96139	12671.6
1722.20246	12635.3
1725.44139	12509.7
1728.67818	12452.1
1731.91284	12358.7
1735.14537	12281.9
1738.37576	12250.4
1741.60403	12188.7
1744.83017	12132.2
1748.05418	12085.9
1751.27607	12066
1754.49584	12056.3
1757.71349	12042.3
1760.92903	12047
1764.14244	12036.7
1767.35375	11993.9
1770.56294	11948.8
1773.77002	11914
1776.97499	11838.4
1780.17785	11802.2
1783.37861	11765.4
1786.57727	11712.5
1789.77382	11671.3
1792.96828	11636
1796.16064	11581
1799.3509	11573
1802.53907	11514.2
1805.72514	11471.2
1808.90913	11455.1
1812.09102	11381.5
1815.27083	11362.2
1818.44856	11347.6
1821.6242	11310.5
1824.79776	11299.5
1827.96924	11271.8
1831.13864	11257.6
1834.30597	11264.3
1837.47122	11276
1840.6344	11241.4
1843.7955	11245.6
1846.95454	11209.2
1850.11151	11218.4
1853.26642	11217.9
1856.41926	11200.8
1859.57004	11177.3
1862.71876	11145.5
1865.86542	11108.7
1869.01003	11108.6
1872.15258	11067
1875.29308	11046.6
1878.43152	11039.4
1881.56792	11014.7
1884.70227	11001.3
1887.83457	10966.3
1890.96482	10955.1
1894.09304	10913.1
1897.21921	10919
1900.34335	10876.3
1903.46544	10862.7
1906.58551	10877.7
1909.70353	10831.7
1912.81953	10793.2
1915.93349	10798
1919.04543	10720.9
1922.15534	10711.7
1925.26322	10688.4
1928.36908	10654.6
1931.47292	10612.2
1934.57473	10586.3
1937.67453	10561.8
1940.77232	10497.3
1943.86808	10472.2
1946.96184	10462.5
1950.05358	10417.3
1953.14331	10385.3
1956.23103	10373.7
1959.31675	10330.3
1962.40046	10288
1965.48217	10248.6
1968.56188	10194.5
1971.63959	10151.9
1974.7153	10132.2
1977.78901	10110.7
1980.86073	10101
1983.93046	10039.5
1986.99819	9989.3
1990.06394	9989.1
1993.1277	9924.5
1996.18947	9880.6
1999.24925	9846
2002.30706	9842.1
2005.36288	9767.6
2008.41672	9735.5
2011.46859	9703.8
2014.51848	9663.1
2017.56639	9635.7
2020.61233	9630.6
2023.6563	9618.2
2026.6983	9586.6
2029.73833	9553
2032.7764	9528.9
2035.8125	9504.8
2038.84664	9447.9
2041.87881	9443.3
2044.90903	9392.7
2047.93729	9377
2050.96359	9381.4
2053.98794	9359.2
2057.01034	9366.1
2060.03078	9339.9
2063.04927	9315.2
2066.06582	9323.3
2069.08042	9293.3
2072.09307	9277.2
2075.10378	9253.7
2078.11255	9279.2
2081.11938	9259.8
2084.12426	9233.3
2087.12722	9261.2
2090.12824	9245
2093.12732	9228.3
2096.12447	9249
2099.11969	9220.4
2102.11299	9243.9
2105.10435	9230.1
2108.09379	9220.4
2111.08131	9225
2114.0669	9229.3
2117.05057	9237.8
2120.03233	9244.8
2123.01216	9229
2125.99008	9206.5
2128.96609	9218.2
2131.94018	9208.6
2134.91236	9192.8
2137.88263	9198.4
2140.851	9184.8
2143.81746	9180.5
2146.78201	9172.4
2149.74466	9173.4
2152.7054	9180.4
2155.66425	9140.1
2158.6212	9164.5
2161.57625	9145.2
2164.52941	9124.4
2167.48067	9107.1
2170.43004	9115.6
2173.37752	9109.1
2176.32311	9098.2
2179.26681	9089.1
2182.20863	9088.2
2185.14856	9084
2188.08661	9056.2
2191.02278	9082.7
2193.95707	9026.1
2196.88948	9040.1
2199.82001	9035.3
2202.74867	8983.8
2205.67545	8989.1
2208.60037	8964.3
2211.52341	8942
2214.44458	8940.7
2217.36388	8914.7
2220.28132	8891.5
2223.1969	8876.2
2226.11061	8879.9
2229.02246	8849.8
2231.93245	8839.7
2234.84058	8831.7
2237.74686	8803.6
2240.65128	8801.4
2243.55385	8789.1
2246.45456	8745.4
2249.35343	8725.6
2252.25044	8698.3
2255.14561	8655
2258.03893	8634.4
2260.93041	8606
2263.82004	8593.7
2266.70783	8553
2269.59378	8528.5
2272.4779	8496.7
2275.36017	8482.6
2278.24061	8458.2
2281.11922	8421.9
2283.996	8421.6
2286.87094	8397.5
2289.74405	8391.1
2292.61534	8374.7
2295.4848	8347
2298.35243	8351.3
2301.21824	8337.8
2304.08223	8315.6
2306.94439	8305.6
2309.80474	8288.3
2312.66327	8275.4
2315.51999	8292.5
2318.37489	8248.1
2321.22797	8232.4
2324.07925	8228.2
2326.92871	8228.2
2329.77637	8195.6
2332.62222	8175.4
2335.46626	8175.2
2338.3085	8173.5
2341.14893	8132.8
2343.98756	8142.1
2346.8244	8137.6
2349.65943	8116.1
2352.49267	8115.4
2355.32411	8132.6
2358.15376	8099.5
2360.98161	8102.6
2363.80768	8100.5
2366.63195	8103.6
2369.45444	8096.9
2372.27514	8066.4
2375.09405	8064
2377.91118	8044.7
2380.72652	8035.8
2383.54009	7987
2386.35187	7996.1
2389.16188	7957.4
2391.97011	7924.8
2394.77657	7929.5
2397.58125	7916.7
2400.38416	7895.4
2403.18529	7870.2
2405.98466	7850.3
2408.78226	7854.3
2411.57809	7843
2414.37216	7818.9
2417.16446	7825.7
2419.955	7809.5
2422.74378	7801.9
2425.5308	7801.5
2428.31606	7795.3
2431.09956	7783.6
2433.88131	7778.2
2436.6613	7760.3
2439.43954	7736
2442.21603	7732.6
2444.99077	7720.6
2447.76377	7729.2
2450.53501	7714.7
2453.30451	7711.9
2456.07226	7700.3
2458.83827	7726.1
2461.60254	7693.9
2464.36507	7696.3
2467.12586	7684.1
2469.88492	7671.5
2472.64224	7670.3
2475.39782	7668.5
2478.15167	7663.8
2480.90379	7658.7
2483.65417	7654.2
2486.40283	7645.2
2489.14976	7629
2491.89497	7623.7
2494.63845	7642.9
2497.3802	7622.1
2500.12024	7630.6
2502.85855	7626.1
2505.59514	7626.5
2508.33002	7609.4
2511.06318	7581.4
2513.79462	7598.8
2516.52435	7568.3
2519.25237	7551.9
2521.97867	7562.6
2524.70327	7555.1
2527.42616	7532.9
2530.14734	7523.8
2532.86681	7518.9
2535.58458	7516.8
2538.30065	7490.2
2541.01501	7486.3
2543.72768	7468.2
2546.43864	7446.7
2549.14791	7442.2
2551.85548	7427.5
2554.56136	7420.5
2557.26554	7413.5
2559.96803	7410.1
2562.66883	7393.7
2565.36794	7398.1
2568.06536	7402.8
2570.7611	7381.5
2573.45514	7350.1
2576.14751	7353.2
2578.83819	7328.3
2581.52719	7331.5
2584.21451	7330.7
2586.90015	7298.3
2589.58411	7301.9
2592.2664	7286.2
2594.94701	7285.1
2597.62594	7302.5
2600.30321	7273.7
2602.9788	7289.1
2605.65273	7263.4
2608.32498	7248
2610.99557	7246.7
2613.66449	7245.5
2616.33175	7244.7
2618.99734	7267.9
2621.66128	7238.6
2624.32355	7243.9
2626.98416	7253.4
2629.64311	7228.1
2632.30041	7208.6
2634.95605	7197.9
2637.61004	7203.2
2640.26238	7197.8
2642.91306	7170.9
2645.56209	7170.8
2648.20948	7180.1
2650.85521	7183.1
2653.4993	7180
2656.14175	7178.6
2658.78255	7189.7
2661.42171	7171
2664.05923	7181.8
2666.6951	7190.3
2669.32934	7187.2
2671.96194	7175.6
2674.59291	7170.8
2677.22224	7171.4
2679.84993	7169.5
2682.476	7176.5
2685.10043	7186.1
2687.72324	7176.2
2690.34441	7186.9
2692.96396	7173.4
2695.58188	7163.6
2698.19818	7145
2700.81285	7164.7
2703.4259	7173.4
2706.03733	7181.8
2708.64714	7185
2711.25533	7174.7
2713.86191	7172.1
2716.46687	7184.5
2719.07021	7157.9
2721.67194	7166.2
2724.27206	7174.4
2726.87057	7190.2
2729.46747	7195.7
2732.06276	7201.5
2734.65644	7166.2
2737.24852	7156.7
2739.83899	7150.5
2742.42786	7141.2
2745.01513	7139.7
2747.60079	7146.7
2750.18486	7118.5
2752.76733	7149.6
2755.3482	7128.7
2757.92747	7130.7
2760.50515	7110.3
2763.08123	7120.4
2765.65573	7115.3
2768.22863	7111.2
2770.79994	7081.4
2773.36967	7103.7
2775.9378	7077.3
2778.50435	7089.9
2781.06932	7085.2
2783.6327	7072.8
2786.1945	7065.2
2788.75471	7079.1
2791.31335	7043.5
2793.87041	7055.7
2796.42589	6997.7
2798.97979	7025.4
2801.53212	7011
2804.08288	7005.6
2806.63206	6978.4
2809.17967	6973.3
2811.72571	6949.1
2814.27018	6958.9
2816.81308	6941.8
2819.35442	6927.7
2821.89419	6921.4
2824.43239	6903.9
2826.96904	6900.2
2829.50412	6887.2
2832.03763	6875.4
2834.56959	6882.2
2837.1	6889.6
2839.62884	6901.6
2842.15613	6917.4
2844.68186	6949
2847.20604	6975.8
2849.72867	7003.6
2852.24974	6999.1
2854.76927	6967.5
2857.28724	6957.6
2859.80367	6947.6
2862.31855	6951.1
2864.83189	6918.3
2867.34368	6906
2869.85393	6915.4
2872.36264	6900.3
2874.8698	6908.9
2877.37543	6895.9
2879.87952	6883.6
2882.38207	6873
2884.88308	6847.9
2887.38256	6877.7
2889.88051	6854.4
2892.37692	6850.6
2894.8718	6854
2897.36515	6890.1
2899.85698	6875.7
2902.34727	6888.9
2904.83604	6887.2
2907.32328	6903.8
2909.809	6896.1
2912.29319	6896.5
2914.77587	6899.7
2917.25702	6872.1
2919.73665	6880.3
2922.21476	6881.3
2924.69136	6869.5
2927.16644	6874
2929.64	6866.1
2932.11205	6849.7
2934.58258	6822.2
2937.05161	6856.2
2939.51912	6850.7
2941.98513	6821.9
2944.44962	6824.9
2946.91261	6759.3
2949.37409	6741.4
2951.83407	6739
2954.29254	6721
2956.74951	6708.6
2959.20498	6679.8
2961.65895	6679.2
2964.11142	6662.6
2966.56239	6648.5
2969.01186	6615.4
2971.45984	6594
2973.90632	6581.7
2976.35131	6547.8
2978.7948	6540.2
2981.23681	6531.4
2983.67732	6502.6
2986.11635	6488.7
2988.55388	6475.3
2990.98993	6458
2993.4245	6423.5
2995.85758	6383.4
2998.28917	6373
3000.71928	6353.7
3003.14791	6348.2
3005.57506	6354.3
3008.00073	6330.6
3010.42493	6299.5
3012.84764	6296.5
3015.26888	6287.8
3017.68865	6277.8
3020.10694	6263.8
3022.52376	6238.5
3024.9391	6213.2
3027.35298	6195.6
3029.76539	6220.4
3032.17632	6199.8
3034.5858	6160.4
3036.9938	6177
3039.40034	6142.8
3041.80542	6156.2
3044.20903	6146.5
3046.61118	6141.7
3049.01187	6124
3051.4111	6125.9
3053.80888	6108.5
3056.20519	6105.6
3058.60005	6055.7
3060.99345	6065.1
3063.3854	6037.5
3065.7759	6031.8
3068.16494	6008.8
3070.55254	5967.2
3072.93868	5969
3075.32338	5939.5
3077.70662	5926.7
3080.08842	5897
3082.46878	5917
3084.84769	5905.2
3087.22515	5900.2
3089.60118	5886.8
3091.97576	5863
3094.3489	5861.9
3096.72061	5844.2
3099.09087	5865.3
3101.4597	5829.4
3103.82709	5840
3106.19305	5829.2
3108.55757	5825.2
3110.92066	5806.5
3113.28232	5804.8
3115.64255	5786.9
3118.00134	5755.2
3120.35871	5742.5
3122.71466	5737.2
3125.06917	5739
3127.42226	5731.1
3129.77393	5733.1
3132.12417	5714.3
3134.47299	5719.1
3136.82039	5715.1
3139.16636	5715.2
3141.51092	5718.4
3143.85406	5730.9
3146.19579	5724.3
3148.53609	5729.2
3150.87499	5716.3
3153.21246	5708
3155.54853	5717
3157.88318	5715.4
3160.21642	5721
3162.54826	5717.8
3164.87868	5693.2
3167.2077	5688.3
3169.5353	5691.9
3171.86151	5690.1
3174.18631	5691.3
3176.5097	5680.6
3178.83169	5666.4
3181.15228	5674.8
3183.47147	5670.6
3185.78926	5664
3188.10565	5669.5
3190.42065	5628.2
3192.73424	5648.5
3195.04645	5652.1
3197.35725	5647.3
3199.66667	5645.2
3201.97469	5633.9
3204.28132	5636.4
3206.58656	5634.3
3208.8904	5637.2
3211.19287	5631.9
3213.49394	5634.8
3215.79363	5611.6
3218.09193	5612.8
3220.38884	5612.6
3222.68438	5617
3224.97853	5613
3227.2713	5613.2
3229.56269	5586.7
3231.8527	5591.1
3234.14133	5583.5
3236.42858	5577.5
3238.71446	5566.6
3240.99896	5557.5
3243.28209	5548.3
3245.56384	5529.7
3247.84423	5545.6
3250.12324	5531.4
3252.40088	5517.6
3254.67715	5510.8
3256.95205	5484.5
3259.22558	5484.8
3261.49775	5461.1
3263.76855	5463.2
3266.03799	5435.7
3268.30606	5421
3270.57277	5406.3
3272.83812	5408.5
3275.10211	5397.3
3277.36474	5372.9
3279.62601	5372.3
3281.88593	5366.5
3284.14448	5373.5
3286.40168	5374.2
3288.65753	5384.4
3290.91202	5355.9
3293.16516	5327.9
3295.41695	5321.8
3297.66738	5301.3
3299.91647	5253.2
3302.16421	5247.5
3304.4106	5215.3
3306.65564	5191.7
3308.89933	5151.5
3311.14169	5104.7
3313.38269	5062.3
3315.62236	5019
3317.86068	4983.8
3320.09766	4933.4
3322.3333	4858.2
3324.5676	4888.1
3326.80056	4792
3329.03219	4757.9
3331.26248	0.9
3333.49143	-0.4
3335.71905	-0.7
