Data from AgNPs_FTO_APTES_UA_2uM_CRN_0uM_R6G_10uM_NaF_0.1M_Addition_RamanShift__1__10-05-34-912.txt Node

Date: Wed Feb 02 10:05:34 GMT 2022
User: TCL
Spectrometer: QEP01345
Trigger mode: 4
Integration Time (sec): 7.000000E0
Scans to average: 10
Electric dark correction enabled: true
Nonlinearity correction enabled: false
Boxcar width: 0
XAxis mode: Raman Shifts
Number of Pixels in Spectrum: 1044
>>>>>Begin Spectral Data<<<<<
46.04893	0.5625
50.45542	0.8625
54.85868	-1.0375
59.25871	-0.0375
63.6555	29.4625
68.04907	34.0625
72.43941	33.2625
76.82654	40.0625
81.21044	42.8625
85.59113	47.5625
89.96862	44.6625
94.34289	49.9625
98.71396	48.6625
103.08183	54.4625
107.4465	49.9625
111.80798	51.2625
116.16626	51.5625
120.52136	50.2625
124.87327	52.0625
129.222	49.9625
133.56755	57.4625
137.90993	54.7625
142.24913	61.1625
146.58517	64.1625
150.91804	65.2625
155.24774	74.7625
159.57429	87.5625
163.89768	106.6625
168.21792	131.6625
172.53501	164.7625
176.84895	219.1625
181.15975	298.0625
185.46741	409.9625
189.77193	559.9625
194.07331	755.6625
198.37157	980.4625
202.6667	1240.0625
206.9587	1494.9625
211.24758	1741.1625
215.53334	1996.2625
219.81599	2252.0625
224.09553	2531.8625
228.37195	2831.0625
232.64527	3173.2625
236.91549	3497.7625
241.18261	3854.4625
245.44663	4174.4625
249.70755	4455.7625
253.96539	4695.6625
258.22014	4855.3625
262.4718	4939.3625
266.72039	4960.1625
270.96589	4936.6625
275.20832	4832.8625
279.44768	4711.2625
283.68397	4566.6625
287.91719	4425.8625
292.14735	4295.1625
296.37445	4199.2625
300.59849	4147.0625
304.81948	4115.5625
309.03742	4089.0625
313.25231	4077.3625
317.46415	4045.7625
321.67296	3986.1625
325.87872	3928.3625
330.08145	3919.4625
334.28114	3932.3625
338.47781	3925.6625
342.67145	3933.0625
346.86207	3938.1625
351.04966	3932.0625
355.23424	3930.2625
359.4158	3903.4625
363.59435	3860.0625
367.76989	3797.7625
371.94243	3734.6625
376.11196	3674.0625
380.27849	3632.7625
384.44203	3596.9625
388.60257	3573.0625
392.76012	3551.7625
396.91468	3567.9625
401.06626	3565.6625
405.21485	3564.9625
409.36047	3563.9625
413.50311	3526.3625
417.64277	3487.7625
421.77947	3479.7625
425.9132	3496.4625
430.04396	3521.4625
434.17176	3526.8625
438.2966	3586.2625
442.41849	3626.9625
446.53742	3663.5625
450.6534	3712.7625
454.76644	3745.4625
458.87653	3764.3625
462.98368	3765.7625
467.08789	3744.6625
471.18916	3745.9625
475.2875	3742.0625
479.38291	3740.3625
483.4754	3729.0625
487.56496	3705.1625
491.6516	3710.8625
495.73531	3698.7625
499.81612	3688.5625
503.89401	3709.6625
507.96899	3723.6625
512.04106	3743.5625
516.11023	3741.0625
520.1765	3742.0625
524.23987	3735.1625
528.30034	3709.8625
532.35792	3665.5625
536.41261	3635.7625
540.46441	3596.9625
544.51333	3550.1625
548.55936	3552.1625
552.60252	3545.8625
556.64279	3575.0625
560.6802	3584.4625
564.71473	3606.6625
568.7464	3608.4625
572.7752	3627.0625
576.80114	3606.0625
580.82422	3568.5625
584.84444	3563.9625
588.86181	3586.0625
592.87633	3637.6625
596.888	3702.3625
600.89682	3763.4625
604.9028	3930.4625
608.90594	4276.8625
612.90624	4729.7625
616.90371	4804.8625
620.89834	4283.1625
624.89015	3902.0625
628.87913	3742.5625
632.86528	3659.7625
636.84862	3634.5625
640.82913	3601.8625
644.80683	3573.4625
648.78172	3566.1625
652.75379	3593.8625
656.72306	3635.1625
660.68952	3701.2625
664.65319	3740.1625
668.61405	3736.5625
672.57211	3776.3625
676.52738	3858.6625
680.47986	3953.0625
684.42955	4022.5625
688.37646	4022.0625
692.32058	4026.7625
696.26192	3975.8625
700.20048	3985.1625
704.13626	4021.2625
708.06928	4020.1625
711.99952	4014.5625
715.927	4017.6625
719.85171	3992.2625
723.77365	3962.3625
727.69284	3930.0625
731.60928	3901.8625
735.52295	3890.2625
739.43388	3875.0625
743.34206	3834.3625
747.24749	3831.3625
751.15017	3812.2625
755.05012	3827.8625
758.94733	3841.9625
762.8418	3938.5625
766.73354	4056.4625
770.62254	4251.6625
774.50882	4366.0625
778.39237	4308.5625
782.27321	4151.8625
786.15132	3961.9625
790.02671	3888.8625
793.89938	3849.6625
797.76935	3847.1625
801.6366	3859.7625
805.50115	3862.4625
809.36299	3854.4625
813.22213	3835.9625
817.07857	3836.3625
820.93231	3812.9625
824.78336	3802.0625
828.63172	3808.9625
832.47738	3783.6625
836.32036	3801.9625
840.16066	3791.7625
843.99827	3817.2625
847.8332	3810.5625
851.66546	3788.0625
855.49504	3766.8625
859.32195	3760.8625
863.1462	3769.3625
866.96777	3791.3625
870.78668	3818.6625
874.60293	3859.8625
878.41652	3916.1625
882.22745	3967.7625
886.03573	4060.4625
889.84136	4140.8625
893.64433	4209.5625
897.44466	4241.7625
901.24235	4272.7625
905.0374	4302.6625
908.8298	4364.0625
912.61957	4476.2625
916.40671	4662.5625
920.19121	4837.6625
923.97308	5020.9625
927.75233	5126.2625
931.52895	5154.4625
935.30295	5065.8625
939.07433	4869.8625
942.84309	4699.6625
946.60924	4548.1625
950.37278	4435.6625
954.13371	4348.7625
957.89203	4266.8625
961.64774	4189.5625
965.40086	4127.0625
969.15137	4058.2625
972.89929	3988.5625
976.64461	3933.6625
980.38733	3882.3625
984.12747	3844.3625
987.86502	3834.5625
991.59999	3839.2625
995.33237	3858.4625
999.06217	3894.3625
1002.78939	3943.6625
1006.51404	3972.8625
1010.23611	4003.8625
1013.95561	4011.2625
1017.67255	3982.5625
1021.38692	3950.3625
1025.09872	3931.3625
1028.80796	3915.2625
1032.51465	3919.2625
1036.21877	3949.3625
1039.92035	3980.9625
1043.61937	4042.0625
1047.31584	4092.9625
1051.00976	4134.9625
1054.70114	4176.5625
1058.38998	4205.8625
1062.07627	4226.5625
1065.76003	4193.9625
1069.44126	4119.4625
1073.11995	4059.6625
1076.79611	4015.1625
1080.46974	3984.2625
1084.14085	3954.7625
1087.80943	3930.0625
1091.47549	3918.3625
1095.13903	3886.0625
1098.80005	3840.2625
1102.45857	3816.1625
1106.11456	3792.6625
1109.76805	3776.6625
1113.41903	3784.4625
1117.06751	3827.3625
1120.71348	3862.9625
1124.35696	3922.3625
1127.99793	3989.5625
1131.63641	4044.1625
1135.2724	3979.3625
1138.90589	3891.7625
1142.5369	3845.3625
1146.16542	3783.3625
1149.79145	3735.0625
1153.415	3695.1625
1157.03607	3679.7625
1160.65467	3688.5625
1164.27079	3732.5625
1167.88443	3798.3625
1171.49561	3934.9625
1175.10432	4144.0625
1178.71056	4465.5625
1182.31434	4790.9625
1185.91565	5024.6625
1189.51451	5127.1625
1193.11091	5036.5625
1196.70485	4838.1625
1200.29634	4575.9625
1203.88538	4354.9625
1207.47197	4135.6625
1211.05612	3977.2625
1214.63782	3922.2625
1218.21708	3927.3625
1221.79391	3948.9625
1225.36829	4041.4625
1228.94024	4108.8625
1232.50976	4141.4625
1236.07685	4123.2625
1239.6415	4079.7625
1243.20374	4049.3625
1246.76355	4030.9625
1250.32093	4036.4625
1253.8759	4065.4625
1257.42845	4102.7625
1260.97859	4165.5625
1264.52631	4230.8625
1268.07163	4298.3625
1271.61453	4359.2625
1275.15503	4424.2625
1278.69312	4488.4625
1282.22882	4559.7625
1285.76211	4664.5625
1289.29301	4786.8625
1292.82151	4916.6625
1296.34761	5033.1625
1299.87133	5133.0625
1303.39266	5234.6625
1306.9116	5417.4625
1310.42815	5573.1625
1313.94233	5681.0625
1317.45412	5627.6625
1320.96354	5457.5625
1324.47058	5297.1625
1327.97525	5185.1625
1331.47754	5126.3625
1334.97747	5153.3625
1338.47502	5205.7625
1341.97022	5304.0625
1345.46305	5431.0625
1348.95352	5608.4625
1352.44163	5829.0625
1355.92738	6143.9625
1359.41078	6466.5625
1362.89183	6874.3625
1366.37053	7017.6625
1369.84688	6709.1625
1373.32088	6308.9625
1376.79254	6038.8625
1380.26186	5947.9625
1383.72883	5913.6625
1387.19347	5926.7625
1390.65578	5900.2625
1394.11575	5903.2625
1397.57339	5893.4625
1401.0287	5851.2625
1404.48168	5814.5625
1407.93234	5734.2625
1411.38068	5666.1625
1414.82669	5616.5625
1418.27039	5549.9625
1421.71177	5468.5625
1425.15083	5381.3625
1428.58758	5300.9625
1432.02203	5217.3625
1435.45416	5171.2625
1438.88399	5151.3625
1442.31151	5120.5625
1445.73673	5091.6625
1449.15965	5070.4625
1452.58027	5030.7625
1455.9986	4993.8625
1459.41463	4990.6625
1462.82837	5002.4625
1466.23982	5057.8625
1469.64898	5099.7625
1473.05586	5144.0625
1476.46045	5208.5625
1479.86276	5239.0625
1483.26279	5250.1625
1486.66054	5270.8625
1490.05602	5281.3625
1493.44922	5333.1625
1496.84016	5372.3625
1500.22882	5475.0625
1503.61521	5621.0625
1506.99934	5806.8625
1510.38121	5988.5625
1513.76081	6037.8625
1517.13816	5877.6625
1520.51324	5584.8625
1523.88607	5245.1625
1527.25665	5043.3625
1530.62498	4886.8625
1533.99105	4800.7625
1537.35488	4733.2625
1540.71647	4667.7625
1544.07581	4629.2625
1547.4329	4591.2625
1550.78776	4536.4625
1554.14038	4516.2625
1557.49077	4491.8625
1560.83892	4474.8625
1564.18484	4485.8625
1567.52853	4471.2625
1570.86999	4481.0625
1574.20922	4463.9625
1577.54624	4429.4625
1580.88103	4358.1625
1584.2136	4238.9625
1587.54395	4133.4625
1590.87208	4081.6625
1594.19801	4066.5625
1597.52172	4122.1625
1600.84321	4117.5625
1604.16251	4068.7625
1607.47959	3986.8625
1610.79447	3917.2625
1614.10715	3841.4625
1617.41763	3769.9625
1620.7259	3742.3625
1624.03199	3710.4625
1627.33587	3697.6625
1630.63757	3697.0625
1633.93707	3715.6625
1637.23439	3734.5625
1640.52951	3782.0625
1643.82246	3877.3625
1647.11321	3997.0625
1650.40179	4102.2625
1653.68819	4010.3625
1656.97241	3773.4625
1660.25446	3484.7625
1663.53433	3248.1625
1666.81203	3095.4625
1670.08756	2997.0625
1673.36092	2896.2625
1676.63211	2839.3625
1679.90115	2793.8625
1683.16801	2746.7625
1686.43272	2696.2625
1689.69527	2657.0625
1692.95567	2624.5625
1696.2139	2587.1625
1699.46999	2559.5625
1702.72392	2542.0625
1705.97571	2521.1625
1709.22535	2495.5625
1712.47284	2483.6625
1715.71819	2466.6625
1718.96139	2461.5625
1722.20246	2441.3625
1725.44139	2427.4625
1728.67818	2413.3625
1731.91284	2393.0625
1735.14537	2390.4625
1738.37576	2380.6625
1741.60403	2371.7625
1744.83017	2365.8625
1748.05418	2365.5625
1751.27607	2351.6625
1754.49584	2352.0625
1757.71349	2349.1625
1760.92903	2340.9625
1764.14244	2331.3625
1767.35375	2317.1625
1770.56294	2309.5625
1773.77002	2285.5625
1776.97499	2270.3625
1780.17785	2252.7625
1783.37861	2266.8625
1786.57727	2253.3625
1789.77382	2255.2625
1792.96828	2233.9625
1796.16064	2230.9625
1799.3509	2226.5625
1802.53907	2223.6625
1805.72514	2206.6625
1808.90913	2197.5625
1812.09102	2184.8625
1815.27083	2190.1625
1818.44856	2180.5625
1821.6242	2187.0625
1824.79776	2177.2625
1827.96924	2174.3625
1831.13864	2166.1625
1834.30597	2168.9625
1837.47122	2159.3625
1840.6344	2153.4625
1843.7955	2160.6625
1846.95454	2160.4625
1850.11151	2160.6625
1853.26642	2136.4625
1856.41926	2151.8625
1859.57004	2133.4625
1862.71876	2139.3625
1865.86542	2117.7625
1869.01003	2123.3625
1872.15258	2116.2625
1875.29308	2112.2625
1878.43152	2110.4625
1881.56792	2116.4625
1884.70227	2115.7625
1887.83457	2098.8625
1890.96482	2095.1625
1894.09304	2095.2625
1897.21921	2085.3625
1900.34335	2096.1625
1903.46544	2096.7625
1906.58551	2095.4625
1909.70353	2085.0625
1912.81953	2086.9625
1915.93349	2080.9625
1919.04543	2082.2625
1922.15534	2067.3625
1925.26322	2066.2625
1928.36908	2062.7625
1931.47292	2064.6625
1934.57473	2051.1625
1937.67453	2051.6625
1940.77232	2044.2625
1943.86808	2037.2625
1946.96184	2033.9625
1950.05358	2025.8625
1953.14331	2018.0625
1956.23103	2019.9625
1959.31675	2000.8625
1962.40046	1999.8625
1965.48217	1995.7625
1968.56188	1985.6625
1971.63959	1987.0625
1974.7153	1987.0625
1977.78901	1969.3625
1980.86073	1970.1625
1983.93046	1959.5625
1986.99819	1954.7625
1990.06394	1946.1625
1993.1277	1946.9625
1996.18947	1934.3625
1999.24925	1930.3625
2002.30706	1917.9625
2005.36288	1918.6625
2008.41672	1915.4625
2011.46859	1914.9625
2014.51848	1906.5625
2017.56639	1889.3625
2020.61233	1895.2625
2023.6563	1885.9625
2026.6983	1871.4625
2029.73833	1879.8625
2032.7764	1867.0625
2035.8125	1873.5625
2038.84664	1861.8625
2041.87881	1870.0625
2044.90903	1861.4625
2047.93729	1865.5625
2050.96359	1872.1625
2053.98794	1864.5625
2057.01034	1861.2625
2060.03078	1863.7625
2063.04927	1861.0625
2066.06582	1873.7625
2069.08042	1879.6625
2072.09307	1894.9625
2075.10378	1888.9625
2078.11255	1901.1625
2081.11938	1914.1625
2084.12426	1921.9625
2087.12722	1940.1625
2090.12824	1944.6625
2093.12732	1961.8625
2096.12447	1970.5625
2099.11969	1980.1625
2102.11299	1985.0625
2105.10435	1992.5625
2108.09379	1998.6625
2111.08131	1991.9625
2114.0669	1986.9625
2117.05057	1980.6625
2120.03233	1973.6625
2123.01216	1960.3625
2125.99008	1952.8625
2128.96609	1940.6625
2131.94018	1933.5625
2134.91236	1924.7625
2137.88263	1908.9625
2140.851	1902.3625
2143.81746	1888.8625
2146.78201	1877.6625
2149.74466	1867.0625
2152.7054	1862.8625
2155.66425	1855.7625
2158.6212	1848.0625
2161.57625	1847.9625
2164.52941	1834.6625
2167.48067	1828.5625
2170.43004	1839.6625
2173.37752	1827.4625
2176.32311	1820.7625
2179.26681	1804.7625
2182.20863	1812.5625
2185.14856	1812.3625
2188.08661	1803.3625
2191.02278	1803.9625
2193.95707	1810.5625
2196.88948	1804.6625
2199.82001	1802.7625
2202.74867	1795.8625
2205.67545	1799.9625
2208.60037	1785.6625
2211.52341	1795.2625
2214.44458	1793.3625
2217.36388	1795.4625
2220.28132	1784.3625
2223.1969	1772.5625
2226.11061	1762.9625
2229.02246	1748.2625
2231.93245	1761.5625
2234.84058	1753.2625
2237.74686	1750.6625
2240.65128	1740.0625
2243.55385	1740.3625
2246.45456	1736.5625
2249.35343	1730.0625
2252.25044	1728.9625
2255.14561	1724.1625
2258.03893	1719.7625
2260.93041	1718.4625
2263.82004	1720.6625
2266.70783	1720.0625
2269.59378	1704.5625
2272.4779	1709.5625
2275.36017	1697.7625
2278.24061	1701.2625
2281.11922	1695.7625
2283.996	1704.8625
2286.87094	1697.6625
2289.74405	1689.0625
2292.61534	1689.0625
2295.4848	1688.2625
2298.35243	1677.0625
2301.21824	1676.3625
2304.08223	1676.1625
2306.94439	1669.7625
2309.80474	1668.0625
2312.66327	1672.5625
2315.51999	1665.9625
2318.37489	1665.5625
2321.22797	1663.7625
2324.07925	1655.7625
2326.92871	1659.4625
2329.77637	1659.0625
2332.62222	1658.7625
2335.46626	1654.9625
2338.3085	1651.7625
2341.14893	1640.2625
2343.98756	1644.9625
2346.8244	1628.6625
2349.65943	1633.6625
2352.49267	1634.3625
2355.32411	1624.6625
2358.15376	1631.0625
2360.98161	1637.5625
2363.80768	1637.5625
2366.63195	1628.0625
2369.45444	1621.8625
2372.27514	1625.1625
2375.09405	1629.5625
2377.91118	1615.0625
2380.72652	1615.9625
2383.54009	1611.1625
2386.35187	1616.1625
2389.16188	1604.1625
2391.97011	1598.9625
2394.77657	1590.0625
2397.58125	1592.3625
2400.38416	1590.2625
2403.18529	1588.0625
2405.98466	1577.5625
2408.78226	1580.5625
2411.57809	1571.7625
2414.37216	1563.0625
2417.16446	1580.6625
2419.955	1564.4625
2422.74378	1572.8625
2425.5308	1553.4625
2428.31606	1564.8625
2431.09956	1563.2625
2433.88131	1547.7625
2436.6613	1549.1625
2439.43954	1539.6625
2442.21603	1549.1625
2444.99077	1550.1625
2447.76377	1549.1625
2450.53501	1539.9625
2453.30451	1546.7625
2456.07226	1546.8625
2458.83827	1540.7625
2461.60254	1535.1625
2464.36507	1535.0625
2467.12586	1519.8625
2469.88492	1523.1625
2472.64224	1529.3625
2475.39782	1528.3625
2478.15167	1522.7625
2480.90379	1523.2625
2483.65417	1525.2625
2486.40283	1519.8625
2489.14976	1518.7625
2491.89497	1518.4625
2494.63845	1519.3625
2497.3802	1519.3625
2500.12024	1515.6625
2502.85855	1514.7625
2505.59514	1516.3625
2508.33002	1502.5625
2511.06318	1501.7625
2513.79462	1501.9625
2516.52435	1498.7625
2519.25237	1491.0625
2521.97867	1488.1625
2524.70327	1483.3625
2527.42616	1480.7625
2530.14734	1477.5625
2532.86681	1477.7625
2535.58458	1482.7625
2538.30065	1481.6625
2541.01501	1462.0625
2543.72768	1468.3625
2546.43864	1461.9625
2549.14791	1463.0625
2551.85548	1457.2625
2554.56136	1454.4625
2557.26554	1459.8625
2559.96803	1454.1625
2562.66883	1448.2625
2565.36794	1444.8625
2568.06536	1454.6625
2570.7611	1441.6625
2573.45514	1444.4625
2576.14751	1435.6625
2578.83819	1442.5625
2581.52719	1445.6625
2584.21451	1437.7625
2586.90015	1437.0625
2589.58411	1426.5625
2592.2664	1428.7625
2594.94701	1427.9625
2597.62594	1425.3625
2600.30321	1416.1625
2602.9788	1418.7625
2605.65273	1408.5625
2608.32498	1412.6625
2610.99557	1411.6625
2613.66449	1413.6625
2616.33175	1408.8625
2618.99734	1407.1625
2621.66128	1411.8625
2624.32355	1410.2625
2626.98416	1409.1625
2629.64311	1402.3625
2632.30041	1411.0625
2634.95605	1396.3625
2637.61004	1403.1625
2640.26238	1402.1625
2642.91306	1399.7625
2645.56209	1405.2625
2648.20948	1401.5625
2650.85521	1391.3625
2653.4993	1398.9625
2656.14175	1392.4625
2658.78255	1410.0625
2661.42171	1404.0625
2664.05923	1400.1625
2666.6951	1400.8625
2669.32934	1405.7625
2671.96194	1400.2625
2674.59291	1416.7625
2677.22224	1402.4625
2679.84993	1413.5625
2682.476	1420.5625
2685.10043	1407.5625
2687.72324	1412.5625
2690.34441	1428.5625
2692.96396	1422.1625
2695.58188	1417.8625
2698.19818	1413.4625
2700.81285	1423.3625
2703.4259	1421.1625
2706.03733	1416.0625
2708.64714	1415.7625
2711.25533	1422.3625
2713.86191	1412.2625
2716.46687	1430.7625
2719.07021	1429.8625
2721.67194	1424.1625
2724.27206	1430.7625
2726.87057	1437.7625
2729.46747	1428.7625
2732.06276	1431.5625
2734.65644	1431.1625
2737.24852	1436.9625
2739.83899	1435.6625
2742.42786	1438.5625
2745.01513	1432.5625
2747.60079	1441.4625
2750.18486	1431.7625
2752.76733	1437.7625
2755.3482	1443.0625
2757.92747	1452.5625
2760.50515	1453.6625
2763.08123	1454.0625
2765.65573	1448.4625
2768.22863	1445.4625
2770.79994	1443.7625
2773.36967	1443.0625
2775.9378	1453.0625
2778.50435	1437.4625
2781.06932	1438.5625
2783.6327	1453.7625
2786.1945	1446.6625
2788.75471	1448.7625
2791.31335	1454.8625
2793.87041	1441.6625
2796.42589	1445.0625
2798.97979	1457.8625
2801.53212	1447.7625
2804.08288	1444.3625
2806.63206	1444.8625
2809.17967	1448.8625
2811.72571	1434.8625
2814.27018	1444.8625
2816.81308	1435.3625
2819.35442	1432.9625
2821.89419	1436.1625
2824.43239	1426.7625
2826.96904	1433.9625
2829.50412	1420.1625
2832.03763	1434.5625
2834.56959	1442.5625
2837.1	1436.4625
2839.62884	1449.3625
2842.15613	1466.5625
2844.68186	1490.7625
2847.20604	1521.7625
2849.72867	1535.9625
2852.24974	1560.6625
2854.76927	1563.6625
2857.28724	1571.8625
2859.80367	1581.0625
2862.31855	1599.8625
2864.83189	1602.3625
2867.34368	1605.1625
2869.85393	1633.2625
2872.36264	1641.5625
2874.8698	1659.5625
2877.37543	1664.7625
2879.87952	1675.8625
2882.38207	1699.6625
2884.88308	1707.2625
2887.38256	1714.2625
2889.88051	1714.5625
2892.37692	1726.0625
2894.8718	1740.3625
2897.36515	1750.7625
2899.85698	1750.8625
2902.34727	1757.4625
2904.83604	1752.9625
2907.32328	1771.0625
2909.809	1785.7625
2912.29319	1787.4625
2914.77587	1804.7625
2917.25702	1808.2625
2919.73665	1814.8625
2922.21476	1819.7625
2924.69136	1817.0625
2927.16644	1825.6625
2929.64	1831.0625
2932.11205	1822.8625
2934.58258	1830.4625
2937.05161	1827.1625
2939.51912	1807.4625
2941.98513	1780.6625
2944.44962	1768.1625
2946.91261	1731.6625
2949.37409	1708.9625
2951.83407	1670.3625
2954.29254	1648.5625
2956.74951	1621.7625
2959.20498	1603.5625
2961.65895	1571.4625
2964.11142	1553.8625
2966.56239	1533.5625
2969.01186	1510.2625
2971.45984	1498.8625
2973.90632	1469.9625
2976.35131	1462.3625
2978.7948	1441.9625
2981.23681	1427.7625
2983.67732	1418.4625
2986.11635	1412.4625
2988.55388	1393.1625
2990.98993	1384.3625
2993.4245	1380.5625
2995.85758	1362.4625
2998.28917	1360.6625
3000.71928	1361.0625
3003.14791	1353.3625
3005.57506	1352.7625
3008.00073	1341.5625
3010.42493	1346.0625
3012.84764	1343.7625
3015.26888	1340.2625
3017.68865	1331.4625
3020.10694	1334.6625
3022.52376	1329.2625
3024.9391	1326.6625
3027.35298	1326.2625
3029.76539	1324.8625
3032.17632	1320.0625
3034.5858	1312.6625
3036.9938	1323.7625
3039.40034	1321.6625
3041.80542	1313.8625
3044.20903	1309.9625
3046.61118	1315.9625
3049.01187	1316.2625
3051.4111	1312.9625
3053.80888	1310.6625
3056.20519	1306.7625
3058.60005	1305.0625
3060.99345	1313.2625
3063.3854	1310.7625
3065.7759	1303.8625
3068.16494	1305.3625
3070.55254	1297.3625
3072.93868	1311.9625
3075.32338	1305.5625
3077.70662	1307.2625
3080.08842	1310.2625
3082.46878	1312.8625
3084.84769	1310.0625
3087.22515	1316.9625
3089.60118	1317.6625
3091.97576	1320.4625
3094.3489	1319.8625
3096.72061	1332.8625
3099.09087	1336.3625
3101.4597	1334.9625
3103.82709	1333.6625
3106.19305	1346.9625
3108.55757	1346.9625
3110.92066	1356.1625
3113.28232	1354.9625
3115.64255	1350.8625
3118.00134	1360.4625
3120.35871	1362.3625
3122.71466	1361.8625
3125.06917	1358.1625
