Data from AgNPs_FTO_APTES_UA_2uM_CRN_100uM_R6G_10uM_NaF_0.1M_Addition_RamanShift__28__16-10-45-338.txt Node

Date: Wed Feb 02 16:10:45 GMT 2022
User: TCL
Spectrometer: QEP01345
Trigger mode: 4
Integration Time (sec): 7.000000E0
Scans to average: 10
Electric dark correction enabled: true
Nonlinearity correction enabled: false
Boxcar width: 0
XAxis mode: Raman Shifts
Number of Pixels in Spectrum: 1044
>>>>>Begin Spectral Data<<<<<
46.04893	0.3125
50.45542	0.1125
54.85868	-2.1875
59.25871	-0.8875
63.6555	71.4125
68.04907	80.1125
72.43941	80.6125
76.82654	90.6125
81.21044	94.3125
85.59113	100.5125
89.96862	98.5125
94.34289	102.1125
98.71396	105.1125
103.08183	113.2125
107.4465	113.8125
111.80798	116.1125
116.16626	115.2125
120.52136	120.4125
124.87327	123.9125
129.222	132.1125
133.56755	139.2125
137.90993	146.5125
142.24913	159.9125
146.58517	177.7125
150.91804	206.0125
155.24774	246.9125
159.57429	303.7125
163.89768	385.6125
168.21792	501.7125
172.53501	686.8125
176.84895	957.1125
181.15975	1327.3125
185.46741	1860.6125
189.77193	2554.7125
194.07331	3415.2125
198.37157	4408.0125
202.6667	5424.9125
206.9587	6481.1125
211.24758	7502.6125
215.53334	8557.4125
219.81599	9739.3125
224.09553	11024.5125
228.37195	12480.5125
232.64527	13985.0125
236.91549	15531.0125
241.18261	17026.8125
245.44663	18346.6125
249.70755	19386.6125
253.96539	20403.9125
258.22014	21241.5125
262.4718	21996.0125
266.72039	22617.3125
270.96589	23021.3125
275.20832	23142.3125
279.44768	23185.7125
283.68397	23017.1125
287.91719	22995.4125
292.14735	23139.2125
296.37445	23505.0125
300.59849	23994.4125
304.81948	24434.3125
309.03742	24580.3125
313.25231	24190.5125
317.46415	23151.1125
321.67296	21652.3125
325.87872	20424.3125
330.08145	19808.8125
334.28114	19670.1125
338.47781	19903.2125
342.67145	20302.0125
346.86207	20906.1125
351.04966	21806.8125
355.23424	22810.8125
359.4158	23550.3125
363.59435	23885.1125
367.76989	23999.5125
371.94243	24042.3125
376.11196	23988.5125
380.27849	23913.1125
384.44203	23885.7125
388.60257	23751.5125
392.76012	23767.9125
396.91468	23955.1125
401.06626	24494.2125
405.21485	24846.3125
409.36047	24503.7125
413.50311	23582.5125
417.64277	22651.4125
421.77947	22238.8125
425.9132	22155.9125
430.04396	22242.1125
434.17176	22470.4125
438.2966	22758.3125
442.41849	23260.4125
446.53742	24016.2125
450.6534	24841.3125
454.76644	25439.2125
458.87653	25639.2125
462.98368	25498.9125
467.08789	25237.8125
471.18916	25003.1125
475.2875	24802.8125
479.38291	24751.1125
483.4754	24469.7125
487.56496	23953.2125
491.6516	23336.2125
495.73531	22774.2125
499.81612	22544.7125
503.89401	22597.1125
507.96899	22690.7125
512.04106	22729.6125
516.11023	22726.8125
520.1765	22666.0125
524.23987	22468.9125
528.30034	22100.9125
532.35792	21739.6125
536.41261	21343.7125
540.46441	21012.9125
544.51333	20993.2125
548.55936	21301.9125
552.60252	21942.9125
556.64279	22719.7125
560.6802	23320.1125
564.71473	23736.9125
568.7464	24662.1125
572.7752	25435.1125
576.80114	25209.7125
580.82422	24623.9125
584.84444	24350.8125
588.86181	24424.2125
592.87633	24743.1125
596.888	25080.6125
600.89682	25419.8125
604.9028	27049.3125
608.90594	31825.0125
612.90624	37985.7125
616.90371	36249.9125
620.89834	26803.5125
624.89015	22295.2125
628.87913	21546.9125
632.86528	21703.2125
636.84862	21885.4125
640.82913	21477.4125
644.80683	20580.5125
648.78172	19898.8125
652.75379	19826.0125
656.72306	20304.2125
660.68952	21062.7125
664.65319	20993.4125
668.61405	20250.3125
672.57211	19862.6125
676.52738	19841.2125
680.47986	19893.5125
684.42955	19759.7125
688.37646	19675.9125
692.32058	19727.0125
696.26192	19966.7125
700.20048	20208.5125
704.13626	20389.3125
708.06928	20403.0125
711.99952	20239.4125
715.927	20115.6125
719.85171	20146.1125
723.77365	20110.5125
727.69284	19903.7125
731.60928	19713.5125
735.52295	19644.0125
739.43388	19657.3125
743.34206	19724.3125
747.24749	19804.1125
751.15017	20034.9125
755.05012	20483.3125
758.94733	21463.5125
762.8418	23434.8125
766.73354	26671.9125
770.62254	30067.0125
774.50882	31357.2125
778.39237	29640.3125
782.27321	25985.1125
786.15132	22674.5125
790.02671	20766.7125
793.89938	19868.5125
797.76935	19498.9125
801.6366	19314.7125
805.50115	19267.7125
809.36299	19196.3125
813.22213	19134.9125
817.07857	19143.0125
820.93231	19130.0125
824.78336	19110.1125
828.63172	19115.1125
832.47738	19109.8125
836.32036	19038.9125
840.16066	18963.9125
843.99827	18893.1125
847.8332	18818.7125
851.66546	18711.3125
855.49504	18675.0125
859.32195	18623.6125
863.1462	18531.9125
866.96777	18419.7125
870.78668	18460.5125
874.60293	18408.1125
878.41652	18460.2125
882.22745	18533.0125
886.03573	18626.2125
889.84136	18579.7125
893.64433	18478.9125
897.44466	18365.1125
901.24235	18330.6125
905.0374	18291.2125
908.8298	18264.3125
912.61957	18274.5125
916.40671	18495.1125
920.19121	18778.6125
923.97308	18929.3125
927.75233	19004.9125
931.52895	18998.2125
935.30295	18736.8125
939.07433	18231.1125
942.84309	17767.0125
946.60924	17477.7125
950.37278	17337.0125
954.13371	17299.3125
957.89203	17286.1125
961.64774	17304.8125
965.40086	17260.2125
969.15137	17176.3125
972.89929	17067.5125
976.64461	16961.4125
980.38733	16935.6125
984.12747	16987.3125
987.86502	17086.7125
991.59999	17246.3125
995.33237	17473.9125
999.06217	17930.9125
1002.78939	18513.9125
1006.51404	19010.6125
1010.23611	19397.7125
1013.95561	19601.3125
1017.67255	19536.7125
1021.38692	19223.5125
1025.09872	18907.8125
1028.80796	18759.5125
1032.51465	18872.9125
1036.21877	19115.5125
1039.92035	19214.3125
1043.61937	19182.8125
1047.31584	19065.4125
1051.00976	18891.3125
1054.70114	18836.7125
1058.38998	18936.4125
1062.07627	19140.9125
1065.76003	19324.0125
1069.44126	19492.1125
1073.11995	19681.3125
1076.79611	19846.4125
1080.46974	20053.6125
1084.14085	20360.4125
1087.80943	20805.3125
1091.47549	21098.3125
1095.13903	20965.9125
1098.80005	20484.3125
1102.45857	19898.2125
1106.11456	19520.1125
1109.76805	19461.6125
1113.41903	19726.9125
1117.06751	20172.0125
1120.71348	20770.0125
1124.35696	21379.8125
1127.99793	22036.5125
1131.63641	22075.4125
1135.2724	21481.5125
1138.90589	20774.4125
1142.5369	20423.8125
1146.16542	20345.4125
1149.79145	20425.2125
1153.415	20614.7125
1157.03607	20983.2125
1160.65467	21511.4125
1164.27079	22459.2125
1167.88443	23804.6125
1171.49561	25824.5125
1175.10432	28757.7125
1178.71056	32493.9125
1182.31434	35616.4125
1185.91565	36692.4125
1189.51451	36222.0125
1193.11091	34781.2125
1196.70485	32990.9125
1200.29634	31217.2125
1203.88538	29797.8125
1207.47197	28378.5125
1211.05612	27189.4125
1214.63782	26358.6125
1218.21708	25861.0125
1221.79391	25509.7125
1225.36829	25251.0125
1228.94024	24900.6125
1232.50976	24531.7125
1236.07685	24351.2125
1239.6415	24312.7125
1243.20374	24338.2125
1246.76355	24502.2125
1250.32093	24849.9125
1253.8759	25478.1125
1257.42845	26283.9125
1260.97859	27078.3125
1264.52631	27828.3125
1268.07163	28586.5125
1271.61453	29423.1125
1275.15503	30165.3125
1278.69312	30760.5125
1282.22882	31279.2125
1285.76211	32163.4125
1289.29301	33399.9125
1292.82151	34990.7125
1296.34761	36850.3125
1299.87133	39235.5125
1303.39266	42174.1125
1306.9116	45923.9125
1310.42815	50053.0125
1313.94233	53088.9125
1317.45412	53461.9125
1320.96354	52084.3125
1324.47058	50159.7125
1327.97525	48310.9125
1331.47754	46972.7125
1334.97747	46376.2125
1338.47502	46347.4125
1341.97022	46486.2125
1345.46305	46239.2125
1348.95352	45939.9125
1352.44163	46100.3125
1355.92738	47536.2125
1359.41078	51083.0125
1362.89183	55331.4125
1366.37053	54558.5125
1369.84688	48058.9125
1373.32088	40989.9125
1376.79254	36608.1125
1380.26186	34812.8125
1383.72883	34467.9125
1387.19347	34476.3125
1390.65578	34414.9125
1394.11575	34634.8125
1397.57339	35278.7125
1401.0287	36376.6125
1404.48168	37395.3125
1407.93234	37853.7125
1411.38068	37515.9125
1414.82669	36254.1125
1418.27039	34351.2125
1421.71177	32290.8125
1425.15083	30576.5125
1428.58758	29440.1125
1432.02203	29155.7125
1435.45416	29463.8125
1438.88399	30086.3125
1442.31151	30772.4125
1445.73673	31391.3125
1449.15965	32213.6125
1452.58027	32891.3125
1455.9986	33344.1125
1459.41463	33849.1125
1462.82837	34508.4125
1466.23982	35209.9125
1469.64898	35662.0125
1473.05586	35844.7125
1476.46045	35646.5125
1479.86276	35319.8125
1483.26279	35035.4125
1486.66054	34942.2125
1490.05602	35049.3125
1493.44922	35416.2125
1496.84016	36194.5125
1500.22882	37662.1125
1503.61521	40119.8125
1506.99934	43292.4125
1510.38121	46629.4125
1513.76081	48714.9125
1517.13816	47755.8125
1520.51324	43936.8125
1523.88607	39874.8125
1527.25665	37064.9125
1530.62498	35527.9125
1533.99105	34771.0125
1537.35488	34332.1125
1540.71647	33884.9125
1544.07581	33410.1125
1547.4329	32854.9125
1550.78776	32264.4125
1554.14038	31922.1125
1557.49077	31982.4125
1560.83892	32274.9125
1564.18484	32790.2125
1567.52853	33189.9125
1570.86999	33546.2125
1574.20922	34019.6125
1577.54624	34288.9125
1580.88103	33887.4125
1584.2136	33304.2125
1587.54395	33606.9125
1590.87208	34964.9125
1594.19801	37086.2125
1597.52172	39385.0125
1600.84321	40238.4125
1604.16251	38621.8125
1607.47959	35507.9125
1610.79447	32061.2125
1614.10715	28869.9125
1617.41763	26305.9125
1620.7259	24568.8125
1624.03199	23566.2125
1627.33587	23459.2125
1630.63757	24135.6125
1633.93707	25587.0125
1637.23439	28088.9125
1640.52951	31556.8125
1643.82246	35919.2125
1647.11321	40182.6125
1650.40179	42506.7125
1653.68819	40940.9125
1656.97241	35643.0125
1660.25446	29554.2125
1663.53433	24812.2125
1666.81203	21768.0125
1670.08756	19956.3125
1673.36092	18783.8125
1676.63211	18046.1125
1679.90115	17582.3125
1683.16801	17187.9125
1686.43272	16905.1125
1689.69527	16743.3125
1692.95567	16569.5125
1696.2139	16489.2125
1699.46999	16418.1125
1702.72392	16324.1125
1705.97571	16276.3125
1709.22535	16228.1125
1712.47284	16150.6125
1715.71819	16135.5125
1718.96139	16095.4125
1722.20246	16058.4125
1725.44139	15980.3125
1728.67818	15886.9125
1731.91284	15759.3125
1735.14537	15675.0125
1738.37576	15610.6125
1741.60403	15538.0125
1744.83017	15485.6125
1748.05418	15449.4125
1751.27607	15439.7125
1754.49584	15402.7125
1757.71349	15387.4125
1760.92903	15378.1125
1764.14244	15325.5125
1767.35375	15308.5125
1770.56294	15291.5125
1773.77002	15190.3125
1776.97499	15150.5125
1780.17785	15123.5125
1783.37861	15068.8125
1786.57727	15063.3125
1789.77382	15021.2125
1792.96828	15011.6125
1796.16064	14976.4125
1799.3509	14922.0125
1802.53907	14936.4125
1805.72514	14855.9125
1808.90913	14821.7125
1812.09102	14753.1125
1815.27083	14757.9125
1818.44856	14719.1125
1821.6242	14699.1125
1824.79776	14712.4125
1827.96924	14678.0125
1831.13864	14626.0125
1834.30597	14638.5125
1837.47122	14600.5125
1840.6344	14613.5125
1843.7955	14644.4125
1846.95454	14628.0125
1850.11151	14634.9125
1853.26642	14629.8125
1856.41926	14645.0125
1859.57004	14615.7125
1862.71876	14580.8125
1865.86542	14597.6125
1869.01003	14601.7125
1872.15258	14625.9125
1875.29308	14600.5125
1878.43152	14606.6125
1881.56792	14595.2125
1884.70227	14607.1125
1887.83457	14588.6125
1890.96482	14605.8125
1894.09304	14568.2125
1897.21921	14618.0125
1900.34335	14627.5125
1903.46544	14589.9125
1906.58551	14626.5125
1909.70353	14592.1125
1912.81953	14596.5125
1915.93349	14566.0125
1919.04543	14538.6125
1922.15534	14498.5125
1925.26322	14472.6125
1928.36908	14448.5125
1931.47292	14368.8125
1934.57473	14333.5125
1937.67453	14237.2125
1940.77232	14203.4125
1943.86808	14151.9125
1946.96184	14122.2125
1950.05358	14025.0125
1953.14331	13976.0125
1956.23103	13967.3125
1959.31675	13893.2125
1962.40046	13851.6125
1965.48217	13822.2125
1968.56188	13766.1125
1971.63959	13719.6125
1974.7153	13697.3125
1977.78901	13643.6125
1980.86073	13592.6125
1983.93046	13523.1125
1986.99819	13467.3125
1990.06394	13452.4125
1993.1277	13426.4125
1996.18947	13351.1125
1999.24925	13341.9125
2002.30706	13262.7125
2005.36288	13217.1125
2008.41672	13206.2125
2011.46859	13165.7125
2014.51848	13125.6125
2017.56639	13099.5125
2020.61233	13053.3125
2023.6563	13017.3125
2026.6983	13012.0125
2029.73833	12954.9125
2032.7764	12938.5125
2035.8125	12924.0125
2038.84664	12887.9125
2041.87881	12914.3125
2044.90903	12870.0125
2047.93729	12837.2125
2050.96359	12824.5125
2053.98794	12801.8125
2057.01034	12820.1125
2060.03078	12798.5125
2063.04927	12788.4125
2066.06582	12746.3125
2069.08042	12715.1125
2072.09307	12731.5125
2075.10378	12718.0125
2078.11255	12691.9125
2081.11938	12675.0125
2084.12426	12667.2125
2087.12722	12644.0125
2090.12824	12653.3125
2093.12732	12673.2125
2096.12447	12673.6125
2099.11969	12659.3125
2102.11299	12649.9125
2105.10435	12686.2125
2108.09379	12657.7125
2111.08131	12682.3125
2114.0669	12686.9125
2117.05057	12699.1125
2120.03233	12703.2125
2123.01216	12717.5125
2125.99008	12711.2125
2128.96609	12704.9125
2131.94018	12705.9125
2134.91236	12708.0125
2137.88263	12728.8125
2140.851	12715.7125
2143.81746	12742.9125
2146.78201	12743.1125
2149.74466	12720.7125
2152.7054	12714.3125
2155.66425	12700.9125
2158.6212	12720.6125
2161.57625	12712.3125
2164.52941	12700.0125
2167.48067	12677.2125
2170.43004	12691.7125
2173.37752	12657.9125
2176.32311	12645.3125
2179.26681	12659.4125
2182.20863	12664.9125
2185.14856	12683.0125
2188.08661	12665.3125
2191.02278	12644.1125
2193.95707	12646.9125
2196.88948	12633.4125
2199.82001	12621.9125
2202.74867	12614.9125
2205.67545	12606.0125
2208.60037	12610.4125
2211.52341	12569.3125
2214.44458	12580.4125
2217.36388	12544.1125
2220.28132	12525.1125
2223.1969	12495.3125
2226.11061	12481.0125
2229.02246	12424.9125
2231.93245	12418.0125
2234.84058	12418.6125
2237.74686	12383.5125
2240.65128	12362.0125
2243.55385	12318.2125
2246.45456	12319.4125
2249.35343	12286.5125
2252.25044	12311.1125
2255.14561	12281.9125
2258.03893	12280.9125
2260.93041	12260.8125
2263.82004	12224.5125
2266.70783	12207.7125
2269.59378	12163.6125
2272.4779	12122.7125
2275.36017	12102.6125
2278.24061	12061.9125
2281.11922	12053.4125
2283.996	12007.8125
2286.87094	12004.7125
2289.74405	11960.4125
2292.61534	11976.7125
2295.4848	11943.4125
2298.35243	11972.9125
2301.21824	11923.0125
2304.08223	11932.1125
2306.94439	11963.9125
2309.80474	11951.8125
2312.66327	11926.3125
2315.51999	11924.9125
2318.37489	11896.9125
2321.22797	11916.8125
2324.07925	11890.2125
2326.92871	11874.0125
2329.77637	11859.1125
2332.62222	11855.0125
2335.46626	11845.5125
2338.3085	11863.0125
2341.14893	11852.5125
2343.98756	11851.9125
2346.8244	11853.2125
2349.65943	11849.9125
2352.49267	11860.0125
2355.32411	11895.2125
2358.15376	11879.1125
2360.98161	11889.8125
2363.80768	11850.1125
2366.63195	11851.2125
2369.45444	11867.0125
2372.27514	11866.2125
2375.09405	11815.4125
2377.91118	11812.0125
2380.72652	11774.5125
2383.54009	11747.8125
2386.35187	11704.7125
2389.16188	11651.2125
2391.97011	11593.8125
2394.77657	11618.1125
2397.58125	11567.1125
2400.38416	11589.9125
2403.18529	11535.6125
2405.98466	11506.2125
2408.78226	11501.9125
2411.57809	11510.8125
2414.37216	11476.8125
2417.16446	11473.6125
2419.955	11432.6125
2422.74378	11437.7125
2425.5308	11437.8125
2428.31606	11428.2125
2431.09956	11421.4125
2433.88131	11421.0125
2436.6613	11388.9125
2439.43954	11419.8125
2442.21603	11401.0125
2444.99077	11374.9125
2447.76377	11413.6125
2450.53501	11414.8125
2453.30451	11393.9125
2456.07226	11379.8125
2458.83827	11390.0125
2461.60254	11383.2125
2464.36507	11380.0125
2467.12586	11371.8125
2469.88492	11392.0125
2472.64224	11372.7125
2475.39782	11391.1125
2478.15167	11388.4125
2480.90379	11419.5125
2483.65417	11438.4125
2486.40283	11437.6125
2489.14976	11460.3125
2491.89497	11460.9125
2494.63845	11501.3125
2497.3802	11471.6125
2500.12024	11443.8125
2502.85855	11442.5125
2505.59514	11451.4125
2508.33002	11428.4125
2511.06318	11412.3125
2513.79462	11378.9125
2516.52435	11348.3125
2519.25237	11344.7125
2521.97867	11305.4125
2524.70327	11288.6125
2527.42616	11313.6125
2530.14734	11299.3125
2532.86681	11242.7125
2535.58458	11268.5125
2538.30065	11257.9125
2541.01501	11230.6125
2543.72768	11239.3125
2546.43864	11213.2125
2549.14791	11185.8125
2551.85548	11205.7125
2554.56136	11205.4125
2557.26554	11207.3125
2559.96803	11193.3125
2562.66883	11184.4125
2565.36794	11188.8125
2568.06536	11184.9125
2570.7611	11163.3125
2573.45514	11146.7125
2576.14751	11139.1125
2578.83819	11117.9125
2581.52719	11117.6125
2584.21451	11120.3125
2586.90015	11117.2125
2589.58411	11107.9125
2592.2664	11094.6125
2594.94701	11067.9125
2597.62594	11094.4125
2600.30321	11092.9125
2602.9788	11088.3125
2605.65273	11045.4125
2608.32498	11066.6125
2610.99557	11081.1125
2613.66449	11077.6125
2616.33175	11073.8125
2618.99734	11089.5125
2621.66128	11092.8125
2624.32355	11110.3125
2626.98416	11079.5125
2629.64311	11079.0125
2632.30041	11091.8125
2634.95605	11080.4125
2637.61004	11041.3125
2640.26238	11040.0125
2642.91306	11048.4125
2645.56209	11031.6125
2648.20948	11037.0125
2650.85521	11026.3125
2653.4993	11020.1125
2656.14175	11042.3125
2658.78255	11047.8125
2661.42171	11027.8125
2664.05923	11086.4125
2666.6951	11057.3125
2669.32934	11109.2125
2671.96194	11077.0125
2674.59291	11110.5125
2677.22224	11086.6125
2679.84993	11094.3125
2682.476	11076.2125
2685.10043	11061.1125
2687.72324	11053.3125
2690.34441	11061.5125
2692.96396	11039.4125
2695.58188	11045.6125
2698.19818	11039.6125
2700.81285	11050.9125
2703.4259	11059.5125
2706.03733	11104.5125
2708.64714	11095.6125
2711.25533	11091.1125
2713.86191	11065.6125
2716.46687	11102.6125
2719.07021	11104.1125
2721.67194	11128.5125
2724.27206	11106.6125
2726.87057	11134.1125
2729.46747	11162.2125
2732.06276	11116.2125
2734.65644	11112.3125
2737.24852	11112.6125
2739.83899	11105.4125
2742.42786	11111.1125
2745.01513	11084.0125
2747.60079	11084.2125
2750.18486	11085.4125
2752.76733	11096.2125
2755.3482	11059.8125
2757.92747	11069.6125
2760.50515	11078.6125
2763.08123	11071.7125
2765.65573	11080.8125
2768.22863	11067.3125
2770.79994	11062.2125
2773.36967	11052.5125
2775.9378	11046.1125
2778.50435	11042.7125
2781.06932	11015.9125
2783.6327	11057.6125
2786.1945	11038.0125
2788.75471	11034.6125
2791.31335	11017.5125
2793.87041	11008.1125
2796.42589	11013.8125
2798.97979	10994.1125
2801.53212	10978.2125
2804.08288	10984.4125
2806.63206	10931.5125
2809.17967	10936.9125
2811.72571	10885.7125
2814.27018	10925.2125
2816.81308	10893.6125
2819.35442	10878.3125
2821.89419	10869.8125
2824.43239	10866.0125
2826.96904	10872.1125
2829.50412	10872.7125
2832.03763	10854.8125
2834.56959	10832.8125
2837.1	10841.7125
2839.62884	10870.0125
2842.15613	10859.8125
2844.68186	10901.1125
2847.20604	10946.5125
2849.72867	10994.6125
2852.24974	11001.4125
2854.76927	11000.7125
2857.28724	10962.8125
2859.80367	10952.1125
2862.31855	10938.6125
2864.83189	10930.0125
2867.34368	10948.9125
2869.85393	10917.2125
2872.36264	10908.7125
2874.8698	10920.8125
2877.37543	10933.7125
2879.87952	10898.0125
2882.38207	10915.4125
2884.88308	10900.2125
2887.38256	10901.0125
2889.88051	10898.3125
2892.37692	10879.0125
2894.8718	10907.8125
2897.36515	10892.1125
2899.85698	10915.2125
2902.34727	10930.9125
2904.83604	10943.3125
2907.32328	10949.8125
2909.809	10986.6125
2912.29319	10956.8125
2914.77587	10938.4125
2917.25702	10969.8125
2919.73665	10951.9125
2922.21476	10955.8125
2924.69136	10933.7125
2927.16644	10939.4125
2929.64	10944.3125
2932.11205	10927.1125
2934.58258	10878.9125
2937.05161	10892.9125
2939.51912	10881.9125
2941.98513	10831.1125
2944.44962	10785.8125
2946.91261	10710.2125
2949.37409	10706.7125
2951.83407	10666.8125
2954.29254	10685.8125
2956.74951	10649.1125
2959.20498	10638.4125
2961.65895	10596.7125
2964.11142	10570.8125
2966.56239	10576.3125
2969.01186	10548.6125
2971.45984	10489.1125
2973.90632	10486.5125
2976.35131	10433.9125
2978.7948	10404.0125
2981.23681	10401.1125
2983.67732	10385.2125
2986.11635	10349.2125
2988.55388	10343.1125
2990.98993	10329.8125
2993.4245	10300.9125
2995.85758	10281.4125
2998.28917	10261.8125
3000.71928	10236.6125
3003.14791	10211.1125
3005.57506	10207.6125
3008.00073	10163.8125
3010.42493	10144.6125
3012.84764	10118.8125
3015.26888	10136.5125
3017.68865	10110.1125
3020.10694	10078.8125
3022.52376	10062.0125
