Data from AgNPs_FTO_APTES_UA_2uM_CRN_0uM_R6G_10uM_NaF_0.1M_Addition_RamanShift__55__11-08-34-986.txt Node

Date: Wed Feb 02 11:08:34 GMT 2022
User: TCL
Spectrometer: QEP01345
Trigger mode: 4
Integration Time (sec): 7.000000E0
Scans to average: 10
Electric dark correction enabled: true
Nonlinearity correction enabled: false
Boxcar width: 0
XAxis mode: Raman Shifts
Number of Pixels in Spectrum: 1044
>>>>>Begin Spectral Data<<<<<
46.04893	-0.2125
50.45542	-0.7125
54.85868	-1.5125
59.25871	-0.0125
63.6555	58.5875
68.04907	63.0875
72.43941	62.2875
76.82654	69.1875
81.21044	68.3875
85.59113	74.7875
89.96862	75.6875
94.34289	75.7875
98.71396	76.2875
103.08183	86.7875
107.4465	84.6875
111.80798	87.2875
116.16626	87.7875
120.52136	94.5875
124.87327	96.9875
129.222	101.5875
133.56755	111.4875
137.90993	118.4875
142.24913	132.7875
146.58517	147.5875
150.91804	175.1875
155.24774	216.4875
159.57429	268.6875
163.89768	346.8875
168.21792	465.2875
172.53501	632.0875
176.84895	877.6875
181.15975	1241.5875
185.46741	1743.6875
189.77193	2379.2875
194.07331	3174.5875
198.37157	4083.0875
202.6667	5036.7875
206.9587	5980.2875
211.24758	6913.1875
215.53334	7871.9875
219.81599	8968.1875
224.09553	10174.7875
228.37195	11544.7875
232.64527	12996.4875
236.91549	14402.6875
241.18261	15738.4875
245.44663	16863.6875
249.70755	17828.5875
253.96539	18668.3875
258.22014	19441.6875
262.4718	20133.4875
266.72039	20645.4875
270.96589	20924.7875
275.20832	21029.2875
279.44768	20984.8875
283.68397	20867.3875
287.91719	20836.9875
292.14735	20909.2875
296.37445	21126.1875
300.59849	21505.6875
304.81948	21984.2875
309.03742	22312.8875
313.25231	22129.6875
317.46415	21212.3875
321.67296	19751.0875
325.87872	18499.0875
330.08145	17914.2875
334.28114	17824.4875
338.47781	18024.6875
342.67145	18431.2875
346.86207	19058.7875
351.04966	19968.4875
355.23424	21034.2875
359.4158	21826.2875
363.59435	22229.6875
367.76989	22269.6875
371.94243	22130.5875
376.11196	21990.0875
380.27849	21871.1875
384.44203	21709.6875
388.60257	21554.2875
392.76012	21581.6875
396.91468	21883.0875
401.06626	22458.5875
405.21485	22874.8875
409.36047	22611.9875
413.50311	21693.2875
417.64277	20876.7875
421.77947	20513.5875
425.9132	20486.8875
430.04396	20533.1875
434.17176	20592.0875
438.2966	20794.4875
442.41849	21239.2875
446.53742	21900.7875
450.6534	22644.8875
454.76644	23116.1875
458.87653	23246.9875
462.98368	23096.9875
467.08789	22823.2875
471.18916	22450.4875
475.2875	22103.4875
479.38291	21857.3875
483.4754	21672.2875
487.56496	21372.0875
491.6516	21026.1875
495.73531	20765.7875
499.81612	20698.4875
503.89401	20837.4875
507.96899	20955.6875
512.04106	20947.6875
516.11023	20945.3875
520.1765	20777.0875
524.23987	20591.0875
528.30034	20237.5875
532.35792	19837.4875
536.41261	19399.5875
540.46441	18990.6875
544.51333	18838.3875
548.55936	19101.0875
552.60252	19703.3875
556.64279	20405.7875
560.6802	20899.9875
564.71473	21451.5875
568.7464	22505.7875
572.7752	23403.1875
576.80114	23225.4875
580.82422	22662.3875
584.84444	22420.7875
588.86181	22390.5875
592.87633	22472.7875
596.888	22757.0875
600.89682	23196.3875
604.9028	25037.1875
608.90594	30025.7875
612.90624	36258.2875
616.90371	34510.4875
620.89834	25254.8875
624.89015	20771.7875
628.87913	19986.4875
632.86528	20115.5875
636.84862	20219.9875
640.82913	19793.7875
644.80683	18935.8875
648.78172	18256.3875
652.75379	18212.9875
656.72306	18832.8875
660.68952	19708.4875
664.65319	19629.7875
668.61405	18908.7875
672.57211	18508.2875
676.52738	18431.3875
680.47986	18391.5875
684.42955	18219.1875
688.37646	18120.1875
692.32058	18180.7875
696.26192	18416.8875
700.20048	18776.2875
704.13626	19084.6875
708.06928	19193.0875
711.99952	18997.6875
715.927	18816.4875
719.85171	18784.4875
723.77365	18665.6875
727.69284	18362.1875
731.60928	18135.0875
735.52295	18047.0875
739.43388	18107.2875
743.34206	18244.5875
747.24749	18376.4875
751.15017	18683.3875
755.05012	19140.1875
758.94733	20038.4875
762.8418	22017.9875
766.73354	25398.3875
770.62254	28796.0875
774.50882	29968.6875
778.39237	28264.1875
782.27321	24843.8875
786.15132	21634.4875
790.02671	19686.5875
793.89938	18771.1875
797.76935	18359.4875
801.6366	18184.8875
805.50115	18046.0875
809.36299	17931.8875
813.22213	17814.1875
817.07857	17753.1875
820.93231	17724.1875
824.78336	17737.9875
828.63172	17814.7875
832.47738	17875.3875
836.32036	17856.4875
840.16066	17846.8875
843.99827	17744.1875
847.8332	17672.9875
851.66546	17562.4875
855.49504	17534.3875
859.32195	17479.1875
863.1462	17363.5875
866.96777	17250.6875
870.78668	17236.6875
874.60293	17210.8875
878.41652	17263.2875
882.22745	17360.3875
886.03573	17469.1875
889.84136	17461.0875
893.64433	17325.4875
897.44466	17281.9875
901.24235	17242.1875
905.0374	17199.6875
908.8298	17144.6875
912.61957	17175.4875
916.40671	17373.0875
920.19121	17670.2875
923.97308	17969.4875
927.75233	18140.2875
931.52895	18147.7875
935.30295	17824.9875
939.07433	17290.0875
942.84309	16813.9875
946.60924	16530.9875
950.37278	16388.4875
954.13371	16288.0875
957.89203	16230.7875
961.64774	16203.4875
965.40086	16163.6875
969.15137	16158.0875
972.89929	16074.1875
976.64461	16038.3875
980.38733	16019.8875
984.12747	16119.7875
987.86502	16235.3875
991.59999	16435.2875
995.33237	16707.6875
999.06217	17218.2875
1002.78939	17900.9875
1006.51404	18505.8875
1010.23611	18962.7875
1013.95561	19163.4875
1017.67255	19061.0875
1021.38692	18658.2875
1025.09872	18261.1875
1028.80796	18116.6875
1032.51465	18325.1875
1036.21877	18605.3875
1039.92035	18714.5875
1043.61937	18620.1875
1047.31584	18414.8875
1051.00976	18168.4875
1054.70114	17987.5875
1058.38998	17997.3875
1062.07627	18112.9875
1065.76003	18340.7875
1069.44126	18603.4875
1073.11995	18983.4875
1076.79611	19149.4875
1080.46974	19334.5875
1084.14085	19652.1875
1087.80943	20128.3875
1091.47549	20420.8875
1095.13903	20258.2875
1098.80005	19657.4875
1102.45857	19003.6875
1106.11456	18468.4875
1109.76805	18318.6875
1113.41903	18544.0875
1117.06751	18935.7875
1120.71348	19488.4875
1124.35696	20152.0875
1127.99793	20807.3875
1131.63641	20969.4875
1135.2724	20346.6875
1138.90589	19655.0875
1142.5369	19306.0875
1146.16542	19095.6875
1149.79145	19062.4875
1153.415	19186.1875
1157.03607	19458.1875
1160.65467	20021.9875
1164.27079	20914.5875
1167.88443	22228.0875
1171.49561	24220.9875
1175.10432	27292.0875
1178.71056	31192.4875
1182.31434	34318.3875
1185.91565	35700.8875
1189.51451	35605.6875
1193.11091	34210.6875
1196.70485	31950.7875
1200.29634	29711.5875
1203.88538	27864.3875
1207.47197	26066.5875
1211.05612	24661.6875
1214.63782	23943.9875
1218.21708	23771.7875
1221.79391	23962.0875
1225.36829	24137.9875
1228.94024	24191.5875
1232.50976	24096.7875
1236.07685	23939.9875
1239.6415	23595.2875
1243.20374	23285.8875
1246.76355	23090.6875
1250.32093	23256.5875
1253.8759	23810.3875
1257.42845	24657.3875
1260.97859	25621.2875
1264.52631	26501.4875
1268.07163	27442.5875
1271.61453	28441.0875
1275.15503	29381.7875
1278.69312	30098.2875
1282.22882	30701.7875
1285.76211	31498.1875
1289.29301	32678.7875
1292.82151	33975.3875
1296.34761	35431.4875
1299.87133	37346.6875
1303.39266	39999.6875
1306.9116	43726.2875
1310.42815	48217.3875
1313.94233	51796.6875
1317.45412	52644.9875
1320.96354	51316.2875
1324.47058	49219.3875
1327.97525	46965.3875
1331.47754	45095.8875
1334.97747	43817.4875
1338.47502	43137.6875
1341.97022	42716.2875
1345.46305	42360.3875
1348.95352	42262.1875
1352.44163	42741.5875
1355.92738	44541.2875
1359.41078	48318.4875
1362.89183	52835.2875
1366.37053	52841.0875
1369.84688	47129.8875
1373.32088	40426.9875
1376.79254	35957.1875
1380.26186	33869.3875
1383.72883	32969.4875
1387.19347	32340.5875
1390.65578	31722.5875
1394.11575	31464.6875
1397.57339	31760.5875
1401.0287	32513.5875
1404.48168	33300.1875
1407.93234	33722.0875
1411.38068	33544.7875
1414.82669	32489.3875
1418.27039	30952.1875
1421.71177	29338.9875
1425.15083	28035.2875
1428.58758	27274.1875
1432.02203	27071.5875
1435.45416	27333.2875
1438.88399	27745.0875
1442.31151	28042.8875
1445.73673	28505.9875
1449.15965	28965.5875
1452.58027	29355.6875
1455.9986	29533.7875
1459.41463	29773.7875
1462.82837	30248.0875
1466.23982	30732.3875
1469.64898	31184.3875
1473.05586	31374.2875
1476.46045	31338.8875
1479.86276	31354.4875
1483.26279	31411.3875
1486.66054	31672.1875
1490.05602	32212.4875
1493.44922	32960.0875
1496.84016	34007.3875
1500.22882	35569.6875
1503.61521	38044.2875
1506.99934	41052.1875
1510.38121	44421.6875
1513.76081	46650.3875
1517.13816	46083.0875
1520.51324	42603.5875
1523.88607	38535.1875
1527.25665	35605.6875
1530.62498	33838.9875
1533.99105	32782.0875
1537.35488	32131.8875
1540.71647	31603.1875
1544.07581	31124.7875
1547.4329	30477.8875
1550.78776	30006.0875
1554.14038	29688.3875
1557.49077	29732.9875
1560.83892	30135.8875
1564.18484	30577.2875
1567.52853	30952.6875
1570.86999	31237.2875
1574.20922	31603.9875
1577.54624	31790.5875
1580.88103	31193.9875
1584.2136	30305.7875
1587.54395	30429.0875
1590.87208	31757.8875
1594.19801	33919.9875
1597.52172	36238.9875
1600.84321	37136.1875
1604.16251	35517.5875
1607.47959	32478.1875
1610.79447	29160.7875
1614.10715	26227.6875
1617.41763	23973.0875
1620.7259	22453.2875
1624.03199	21707.3875
1627.33587	21710.7875
1630.63757	22403.3875
1633.93707	23931.6875
1637.23439	26349.6875
1640.52951	29679.9875
1643.82246	33457.4875
1647.11321	36871.7875
1650.40179	38664.0875
1653.68819	37179.7875
1656.97241	32455.9875
1660.25446	26932.5875
1663.53433	22691.4875
1666.81203	20008.9875
1670.08756	18481.9875
1673.36092	17505.2875
1676.63211	16891.6875
1679.90115	16454.2875
1683.16801	16158.1875
1686.43272	15937.7875
1689.69527	15775.7875
1692.95567	15647.4875
1696.2139	15593.7875
1699.46999	15544.4875
1702.72392	15446.3875
1705.97571	15426.2875
1709.22535	15397.0875
1712.47284	15388.2875
1715.71819	15368.5875
1718.96139	15375.3875
1722.20246	15327.5875
1725.44139	15268.9875
1728.67818	15164.7875
1731.91284	15039.0875
1735.14537	14939.2875
1738.37576	14864.5875
1741.60403	14782.7875
1744.83017	14738.7875
1748.05418	14719.0875
1751.27607	14679.0875
1754.49584	14595.1875
1757.71349	14627.5875
1760.92903	14585.4875
1764.14244	14609.5875
1767.35375	14561.8875
1770.56294	14519.1875
1773.77002	14486.0875
1776.97499	14474.0875
1780.17785	14439.2875
1783.37861	14409.6875
1786.57727	14390.8875
1789.77382	14362.1875
1792.96828	14342.8875
1796.16064	14301.7875
1799.3509	14295.5875
1802.53907	14286.8875
1805.72514	14238.1875
1808.90913	14206.4875
1812.09102	14204.5875
1815.27083	14155.2875
1818.44856	14162.7875
1821.6242	14141.0875
1824.79776	14103.5875
1827.96924	14110.1875
1831.13864	14080.7875
1834.30597	14095.5875
1837.47122	14091.0875
1840.6344	14086.0875
1843.7955	14115.6875
1846.95454	14086.7875
1850.11151	14110.7875
1853.26642	14126.9875
1856.41926	14134.9875
1859.57004	14152.2875
1862.71876	14154.8875
1865.86542	14190.8875
1869.01003	14213.8875
1872.15258	14233.7875
1875.29308	14255.5875
1878.43152	14255.3875
1881.56792	14318.2875
1884.70227	14316.8875
1887.83457	14349.7875
1890.96482	14360.8875
1894.09304	14384.2875
1897.21921	14413.6875
1900.34335	14471.8875
1903.46544	14496.8875
1906.58551	14502.6875
1909.70353	14528.7875
1912.81953	14567.2875
1915.93349	14535.0875
1919.04543	14531.1875
1922.15534	14470.0875
1925.26322	14464.4875
1928.36908	14376.6875
1931.47292	14293.2875
1934.57473	14173.5875
1937.67453	14095.4875
1940.77232	13989.5875
1943.86808	13919.0875
1946.96184	13796.2875
1950.05358	13714.1875
1953.14331	13607.7875
1956.23103	13560.7875
1959.31675	13493.6875
1962.40046	13463.8875
1965.48217	13399.8875
1968.56188	13360.6875
1971.63959	13308.1875
1974.7153	13253.3875
1977.78901	13193.0875
1980.86073	13198.2875
1983.93046	13140.2875
1986.99819	13072.7875
1990.06394	13068.2875
1993.1277	13009.0875
1996.18947	12942.7875
1999.24925	12883.5875
2002.30706	12855.6875
2005.36288	12841.0875
2008.41672	12805.8875
2011.46859	12761.0875
2014.51848	12729.8875
2017.56639	12678.6875
2020.61233	12664.1875
2023.6563	12610.7875
2026.6983	12577.4875
2029.73833	12585.4875
2032.7764	12544.0875
2035.8125	12539.2875
2038.84664	12493.3875
2041.87881	12485.7875
2044.90903	12473.4875
2047.93729	12450.1875
2050.96359	12435.9875
2053.98794	12404.5875
2057.01034	12414.5875
2060.03078	12393.2875
2063.04927	12389.3875
2066.06582	12364.9875
2069.08042	12372.7875
2072.09307	12339.8875
2075.10378	12354.9875
2078.11255	12354.5875
2081.11938	12342.5875
2084.12426	12321.7875
2087.12722	12346.8875
2090.12824	12311.6875
2093.12732	12342.4875
2096.12447	12345.0875
2099.11969	12340.1875
2102.11299	12372.2875
2105.10435	12356.5875
2108.09379	12353.6875
2111.08131	12332.4875
2114.0669	12349.0875
2117.05057	12360.9875
2120.03233	12378.1875
2123.01216	12389.1875
2125.99008	12397.7875
2128.96609	12390.3875
2131.94018	12375.7875
2134.91236	12403.6875
2137.88263	12412.1875
2140.851	12415.2875
2143.81746	12407.4875
2146.78201	12424.0875
2149.74466	12427.4875
2152.7054	12404.5875
2155.66425	12405.7875
2158.6212	12392.4875
2161.57625	12421.1875
2164.52941	12404.7875
2167.48067	12403.8875
2170.43004	12415.4875
2173.37752	12391.0875
2176.32311	12386.1875
2179.26681	12400.8875
2182.20863	12411.4875
2185.14856	12396.5875
2188.08661	12424.3875
2191.02278	12416.2875
2193.95707	12393.5875
2196.88948	12396.6875
2199.82001	12367.7875
2202.74867	12354.8875
2205.67545	12379.7875
2208.60037	12374.3875
2211.52341	12352.0875
2214.44458	12350.0875
2217.36388	12311.3875
2220.28132	12297.3875
2223.1969	12256.7875
2226.11061	12240.4875
2229.02246	12206.7875
2231.93245	12226.1875
2234.84058	12195.1875
2237.74686	12159.4875
2240.65128	12167.3875
2243.55385	12119.6875
2246.45456	12138.9875
2249.35343	12108.0875
2252.25044	12076.6875
2255.14561	12099.4875
2258.03893	12074.2875
2260.93041	12039.8875
2263.82004	12072.7875
2266.70783	12033.3875
2269.59378	12003.5875
2272.4779	11983.0875
2275.36017	11924.3875
2278.24061	11913.9875
2281.11922	11905.6875
2283.996	11899.7875
2286.87094	11882.9875
2289.74405	11833.2875
2292.61534	11804.7875
2295.4848	11799.8875
2298.35243	11811.5875
2301.21824	11801.6875
2304.08223	11787.7875
2306.94439	11766.4875
2309.80474	11793.4875
2312.66327	11803.2875
2315.51999	11773.3875
2318.37489	11777.8875
2321.22797	11785.1875
2324.07925	11758.3875
2326.92871	11770.3875
2329.77637	11771.9875
2332.62222	11748.2875
2335.46626	11734.3875
2338.3085	11746.3875
2341.14893	11759.8875
2343.98756	11748.8875
2346.8244	11758.2875
2349.65943	11775.9875
2352.49267	11777.5875
2355.32411	11761.9875
2358.15376	11770.5875
2360.98161	11788.6875
2363.80768	11774.0875
2366.63195	11775.7875
2369.45444	11802.4875
2372.27514	11772.5875
2375.09405	11748.3875
2377.91118	11711.5875
2380.72652	11686.7875
2383.54009	11662.7875
2386.35187	11609.8875
2389.16188	11583.8875
2391.97011	11548.2875
2394.77657	11536.7875
2397.58125	11514.3875
2400.38416	11500.1875
2403.18529	11481.5875
2405.98466	11443.1875
2408.78226	11432.4875
2411.57809	11414.2875
2414.37216	11386.9875
2417.16446	11393.9875
2419.955	11372.8875
2422.74378	11380.4875
2425.5308	11352.3875
2428.31606	11366.2875
2431.09956	11373.3875
2433.88131	11359.9875
2436.6613	11349.1875
2439.43954	11340.7875
2442.21603	11338.3875
2444.99077	11339.0875
2447.76377	11342.5875
2450.53501	11348.7875
2453.30451	11376.0875
2456.07226	11364.9875
2458.83827	11379.7875
2461.60254	11383.6875
2464.36507	11331.1875
2467.12586	11346.9875
2469.88492	11345.4875
2472.64224	11354.6875
2475.39782	11351.0875
2478.15167	11361.7875
2480.90379	11376.1875
2483.65417	11386.1875
2486.40283	11405.4875
2489.14976	11416.9875
2491.89497	11415.7875
2494.63845	11440.1875
2497.3802	11444.2875
2500.12024	11426.5875
2502.85855	11461.1875
2505.59514	11401.1875
2508.33002	11415.3875
2511.06318	11380.3875
2513.79462	11364.1875
2516.52435	11317.7875
2519.25237	11322.8875
2521.97867	11296.1875
2524.70327	11274.8875
2527.42616	11271.9875
2530.14734	11230.7875
2532.86681	11259.7875
2535.58458	11193.0875
2538.30065	11194.8875
2541.01501	11194.8875
2543.72768	11187.7875
2546.43864	11190.9875
2549.14791	11185.2875
2551.85548	11195.1875
2554.56136	11157.0875
2557.26554	11157.9875
2559.96803	11136.9875
2562.66883	11125.6875
2565.36794	11133.3875
2568.06536	11138.0875
2570.7611	11136.2875
2573.45514	11105.3875
2576.14751	11109.0875
2578.83819	11072.9875
2581.52719	11117.1875
2584.21451	11079.7875
2586.90015	11105.9875
2589.58411	11079.9875
2592.2664	11070.9875
2594.94701	11056.4875
2597.62594	11073.1875
2600.30321	11053.9875
2602.9788	11041.9875
2605.65273	11022.5875
2608.32498	11060.0875
2610.99557	11045.5875
2613.66449	11035.6875
2616.33175	11025.9875
2618.99734	11043.1875
2621.66128	11059.7875
2624.32355	11063.4875
2626.98416	11052.0875
2629.64311	11073.5875
2632.30041	11046.6875
2634.95605	11058.3875
2637.61004	11041.1875
2640.26238	11037.8875
2642.91306	10999.4875
2645.56209	10994.5875
2648.20948	11000.1875
2650.85521	10987.6875
2653.4993	10979.9875
2656.14175	10984.4875
2658.78255	10981.1875
2661.42171	10999.7875
2664.05923	11009.2875
2666.6951	10996.1875
2669.32934	11029.9875
2671.96194	11039.4875
2674.59291	11053.4875
2677.22224	11024.2875
2679.84993	11021.7875
2682.476	11041.5875
2685.10043	11040.5875
2687.72324	11029.8875
2690.34441	11026.9875
2692.96396	11018.8875
2695.58188	11026.5875
2698.19818	11029.2875
2700.81285	11031.7875
2703.4259	10999.2875
2706.03733	11035.3875
2708.64714	11023.3875
2711.25533	11062.0875
2713.86191	11048.8875
2716.46687	11067.0875
2719.07021	11067.0875
2721.67194	11067.1875
2724.27206	11041.4875
2726.87057	11060.8875
2729.46747	11043.0875
2732.06276	11062.0875
2734.65644	11056.5875
2737.24852	11067.5875
2739.83899	11031.6875
2742.42786	11072.9875
2745.01513	11031.9875
2747.60079	11029.1875
2750.18486	11037.3875
2752.76733	11047.0875
2755.3482	11033.9875
2757.92747	11050.8875
2760.50515	11025.9875
2763.08123	11029.0875
2765.65573	11024.4875
2768.22863	11015.8875
2770.79994	10992.6875
2773.36967	11018.9875
2775.9378	10999.6875
2778.50435	10998.1875
2781.06932	11008.8875
2783.6327	11031.1875
2786.1945	11007.8875
2788.75471	11002.2875
2791.31335	10983.7875
2793.87041	10951.0875
2796.42589	10935.1875
2798.97979	10939.4875
2801.53212	10921.0875
2804.08288	10946.9875
2806.63206	10910.0875
2809.17967	10902.2875
2811.72571	10904.0875
2814.27018	10902.6875
2816.81308	10882.7875
2819.35442	10897.9875
2821.89419	10921.5875
2824.43239	10902.3875
2826.96904	10903.6875
2829.50412	10921.4875
2832.03763	10902.8875
2834.56959	10906.5875
2837.1	10899.0875
2839.62884	10953.4875
2842.15613	10961.2875
2844.68186	11026.4875
2847.20604	11122.5875
2849.72867	11172.6875
2852.24974	11188.8875
2854.76927	11194.5875
2857.28724	11152.3875
2859.80367	11115.9875
2862.31855	11108.7875
2864.83189	11085.1875
2867.34368	11081.9875
2869.85393	11091.8875
2872.36264	11087.1875
2874.8698	11099.7875
2877.37543	11102.9875
2879.87952	11097.7875
2882.38207	11077.8875
2884.88308	11091.1875
2887.38256	11086.7875
2889.88051	11094.9875
2892.37692	11085.9875
2894.8718	11070.4875
2897.36515	11077.5875
2899.85698	11105.8875
2902.34727	11121.2875
2904.83604	11108.2875
2907.32328	11128.9875
2909.809	11131.4875
2912.29319	11102.0875
2914.77587	11114.6875
2917.25702	11105.6875
2919.73665	11092.2875
2922.21476	11121.6875
2924.69136	11087.9875
2927.16644	11066.0875
2929.64	11047.3875
2932.11205	11029.8875
2934.58258	10998.6875
2937.05161	10991.6875
2939.51912	10951.7875
2941.98513	10931.9875
2944.44962	10873.2875
2946.91261	10794.9875
2949.37409	10783.0875
2951.83407	10757.8875
2954.29254	10721.4875
2956.74951	10705.2875
2959.20498	10639.7875
2961.65895	10602.1875
2964.11142	10594.6875
2966.56239	10593.7875
2969.01186	10551.5875
2971.45984	10547.7875
2973.90632	10496.0875
2976.35131	10445.1875
2978.7948	10430.3875
2981.23681	10385.3875
2983.67732	10356.4875
2986.11635	10330.6875
2988.55388	10306.2875
2990.98993	10263.3875
2993.4245	10240.6875
2995.85758	10229.2875
2998.28917	10204.5875
3000.71928	10184.9875
3003.14791	10181.2875
3005.57506	10174.8875
3008.00073	10126.5875
3010.42493	10131.7875
3012.84764	10114.1875
3015.26888	10122.0875
3017.68865	10080.1875
3020.10694	10042.6875
3022.52376	10046.1875
3024.9391	10034.1875
