Data from AgNPs_FTO_APTES_UA_2uM_CRN_500uM_R6G_10uM_NaF_0.1M_Addition_RamanShift__28__17-31-15-432.txt Node

Date: Wed Feb 02 17:31:15 GMT 2022
User: TCL
Spectrometer: QEP01345
Trigger mode: 4
Integration Time (sec): 7.000000E0
Scans to average: 10
Electric dark correction enabled: true
Nonlinearity correction enabled: false
Boxcar width: 0
XAxis mode: Raman Shifts
Number of Pixels in Spectrum: 1044
>>>>>Begin Spectral Data<<<<<
46.04893	1.325
50.45542	0.725
54.85868	-1.475
59.25871	0.225
63.6555	65.425
68.04907	72.125
72.43941	72.225
76.82654	78.325
81.21044	81.125
85.59113	87.825
89.96862	83.825
94.34289	90.725
98.71396	92.525
103.08183	98.225
107.4465	102.225
111.80798	103.225
116.16626	104.925
120.52136	107.125
124.87327	113.325
129.222	114.125
133.56755	126.125
137.90993	135.225
142.24913	148.725
146.58517	166.725
150.91804	193.725
155.24774	233.425
159.57429	291.425
163.89768	380.125
168.21792	504.225
172.53501	681.725
176.84895	945.125
181.15975	1328.525
185.46741	1865.825
189.77193	2578.125
194.07331	3448.925
198.37157	4440.325
202.6667	5468.025
206.9587	6533.925
211.24758	7586.025
215.53334	8623.225
219.81599	9795.425
224.09553	11117.125
228.37195	12533.325
232.64527	14057.425
236.91549	15610.825
241.18261	17094.925
245.44663	18411.525
249.70755	19487.925
253.96539	20480.725
258.22014	21353.325
262.4718	22104.825
266.72039	22701.625
270.96589	23064.925
275.20832	23208.925
279.44768	23223.825
283.68397	23100.425
287.91719	23040.325
292.14735	23151.625
296.37445	23527.225
300.59849	24002.625
304.81948	24438.125
309.03742	24645.425
313.25231	24292.125
317.46415	23277.525
321.67296	21768.125
325.87872	20575.625
330.08145	19966.725
334.28114	19878.425
338.47781	20060.125
342.67145	20451.325
346.86207	21090.125
351.04966	21989.025
355.23424	22954.725
359.4158	23772.225
363.59435	24132.925
367.76989	24247.225
371.94243	24262.025
376.11196	24211.525
380.27849	24143.525
384.44203	24058.125
388.60257	23975.425
392.76012	23960.025
396.91468	24185.825
401.06626	24722.825
405.21485	25037.725
409.36047	24796.525
413.50311	23847.325
417.64277	22972.225
421.77947	22562.625
425.9132	22466.725
430.04396	22581.425
434.17176	22787.925
438.2966	23144.025
442.41849	23702.125
446.53742	24466.025
450.6534	25344.425
454.76644	25889.525
458.87653	26025.625
462.98368	25845.825
467.08789	25553.825
471.18916	25309.125
475.2875	25137.225
479.38291	25015.825
483.4754	24829.525
487.56496	24374.225
491.6516	23717.425
495.73531	23176.425
499.81612	22873.525
503.89401	22865.725
507.96899	23006.925
512.04106	23029.125
516.11023	23016.625
520.1765	22978.925
524.23987	22812.725
528.30034	22458.025
532.35792	22081.325
536.41261	21771.625
540.46441	21425.625
544.51333	21377.525
548.55936	21712.425
552.60252	22368.325
556.64279	23149.625
560.6802	23742.925
564.71473	24307.425
568.7464	25284.825
572.7752	26100.225
576.80114	25806.425
580.82422	25090.025
584.84444	24624.825
588.86181	24646.025
592.87633	24907.525
596.888	25217.225
600.89682	25470.225
604.9028	26963.825
608.90594	31737.325
612.90624	38000.125
616.90371	36385.225
620.89834	27072.525
624.89015	22599.225
628.87913	21772.425
632.86528	21960.225
636.84862	22137.125
640.82913	21751.925
644.80683	20882.225
648.78172	20265.125
652.75379	20134.725
656.72306	20681.525
660.68952	21431.525
664.65319	21355.225
668.61405	20629.625
672.57211	20231.425
676.52738	20246.025
680.47986	20291.925
684.42955	20188.025
688.37646	20083.625
692.32058	20194.825
696.26192	20378.125
700.20048	20657.425
704.13626	20876.625
708.06928	20835.225
711.99952	20663.325
715.927	20543.825
719.85171	20560.725
723.77365	20566.325
727.69284	20353.725
731.60928	20153.625
735.52295	20069.325
739.43388	20110.025
743.34206	20144.825
747.24749	20253.925
751.15017	20450.025
755.05012	20870.825
758.94733	21789.525
762.8418	23774.025
766.73354	26936.725
770.62254	30183.725
774.50882	31394.825
778.39237	29732.725
782.27321	26239.925
786.15132	23010.825
790.02671	21150.825
793.89938	20274.125
797.76935	19932.525
801.6366	19769.125
805.50115	19723.725
809.36299	19628.025
813.22213	19546.625
817.07857	19563.625
820.93231	19620.925
824.78336	19556.525
828.63172	19575.925
832.47738	19529.625
836.32036	19458.625
840.16066	19372.625
843.99827	19265.625
847.8332	19185.825
851.66546	19137.925
855.49504	19090.725
859.32195	19009.125
863.1462	18984.425
866.96777	18900.725
870.78668	18850.825
874.60293	18847.125
878.41652	18912.625
882.22745	18981.125
886.03573	19079.525
889.84136	19026.725
893.64433	18890.125
897.44466	18805.725
901.24235	18768.425
905.0374	18715.425
908.8298	18657.125
912.61957	18685.725
916.40671	18846.725
920.19121	19111.325
923.97308	19251.725
927.75233	19290.425
931.52895	19341.125
935.30295	19109.525
939.07433	18583.525
942.84309	18149.025
946.60924	17899.925
950.37278	17772.525
954.13371	17709.925
957.89203	17693.125
961.64774	17660.525
965.40086	17640.825
969.15137	17549.125
972.89929	17442.125
976.64461	17342.125
980.38733	17318.725
984.12747	17336.125
987.86502	17417.225
991.59999	17578.125
995.33237	17763.825
999.06217	18257.525
1002.78939	18815.025
1006.51404	19320.825
1010.23611	19665.025
1013.95561	19858.325
1017.67255	19741.625
1021.38692	19428.325
1025.09872	19079.425
1028.80796	18907.325
1032.51465	18966.925
1036.21877	19117.125
1039.92035	19267.925
1043.61937	19271.425
1047.31584	19186.525
1051.00976	19056.325
1054.70114	19034.625
1058.38998	19091.925
1062.07627	19298.925
1065.76003	19504.125
1069.44126	19643.725
1073.11995	19797.725
1076.79611	19945.125
1080.46974	20141.425
1084.14085	20444.825
1087.80943	20890.825
1091.47549	21202.125
1095.13903	21097.025
1098.80005	20673.825
1102.45857	20079.625
1106.11456	19746.625
1109.76805	19704.725
1113.41903	19940.225
1117.06751	20409.225
1120.71348	20979.625
1124.35696	21634.125
1127.99793	22249.425
1131.63641	22291.125
1135.2724	21643.025
1138.90589	21004.325
1142.5369	20668.825
1146.16542	20535.425
1149.79145	20614.825
1153.415	20815.525
1157.03607	21142.425
1160.65467	21699.425
1164.27079	22550.325
1167.88443	23927.325
1171.49561	25826.625
1175.10432	28727.325
1178.71056	32389.325
1182.31434	35322.225
1185.91565	36336.625
1189.51451	35988.825
1193.11091	34619.625
1196.70485	32856.525
1200.29634	31248.125
1203.88538	29921.525
1207.47197	28590.125
1211.05612	27381.925
1214.63782	26588.425
1218.21708	26144.525
1221.79391	25819.125
1225.36829	25560.925
1228.94024	25175.525
1232.50976	24754.025
1236.07685	24543.025
1239.6415	24392.725
1243.20374	24452.025
1246.76355	24636.525
1250.32093	25004.725
1253.8759	25615.925
1257.42845	26399.925
1260.97859	27203.625
1264.52631	27942.725
1268.07163	28705.525
1271.61453	29479.325
1275.15503	30166.025
1278.69312	30740.525
1282.22882	31166.825
1285.76211	31891.025
1289.29301	33139.625
1292.82151	34679.825
1296.34761	36611.925
1299.87133	38821.425
1303.39266	41737.125
1306.9116	45448.125
1310.42815	49558.025
1313.94233	52619.025
1317.45412	53033.425
1320.96354	51691.925
1324.47058	49761.525
1327.97525	47921.325
1331.47754	46465.825
1334.97747	45879.925
1338.47502	45917.725
1341.97022	45973.225
1345.46305	45836.625
1348.95352	45511.625
1352.44163	45643.325
1355.92738	47020.125
1359.41078	50537.725
1362.89183	54659.925
1366.37053	53791.625
1369.84688	47411.025
1373.32088	40526.325
1376.79254	36277.225
1380.26186	34588.425
1383.72883	34274.025
1387.19347	34291.225
1390.65578	34206.225
1394.11575	34425.225
1397.57339	35095.025
1401.0287	36214.625
1404.48168	37297.425
1407.93234	37766.525
1411.38068	37560.025
1414.82669	36346.425
1418.27039	34520.425
1421.71177	32436.125
1425.15083	30631.225
1428.58758	29521.325
1432.02203	29157.325
1435.45416	29531.825
1438.88399	30119.525
1442.31151	30759.925
1445.73673	31423.825
1449.15965	32155.825
1452.58027	32852.525
1455.9986	33308.225
1459.41463	33775.225
1462.82837	34276.025
1466.23982	34963.825
1469.64898	35496.425
1473.05586	35573.825
1476.46045	35417.125
1479.86276	35162.925
1483.26279	34874.125
1486.66054	34716.225
1490.05602	34894.025
1493.44922	35227.525
1496.84016	35803.925
1500.22882	37150.525
1503.61521	39346.125
1506.99934	42412.425
1510.38121	45799.925
1513.76081	47856.125
1517.13816	47034.925
1520.51324	43332.225
1523.88607	39307.825
1527.25665	36514.525
1530.62498	35110.125
1533.99105	34433.925
1537.35488	34060.225
1540.71647	33632.925
1544.07581	33195.125
1547.4329	32637.925
1550.78776	32087.325
1554.14038	31779.925
1557.49077	31806.925
1560.83892	32074.725
1564.18484	32564.525
1567.52853	33010.325
1570.86999	33441.725
1574.20922	33926.525
1577.54624	34166.225
1580.88103	33748.225
1584.2136	33122.525
1587.54395	33422.625
1590.87208	34779.025
1594.19801	36919.325
1597.52172	39298.225
1600.84321	40200.625
1604.16251	38609.725
1607.47959	35560.525
1610.79447	32090.825
1614.10715	28830.325
1617.41763	26185.125
1620.7259	24457.425
1624.03199	23542.325
1627.33587	23431.625
1630.63757	23986.825
1633.93707	25420.125
1637.23439	27795.725
1640.52951	31215.825
1643.82246	35472.825
1647.11321	39809.625
1650.40179	42055.225
1653.68819	40425.725
1656.97241	35210.325
1660.25446	29257.725
1663.53433	24642.025
1666.81203	21717.725
1670.08756	19900.225
1673.36092	18799.825
1676.63211	18138.125
1679.90115	17638.925
1683.16801	17254.325
1686.43272	16992.725
1689.69527	16823.125
1692.95567	16685.625
1696.2139	16585.025
1699.46999	16525.625
1702.72392	16456.225
1705.97571	16369.125
1709.22535	16328.125
1712.47284	16269.825
1715.71819	16257.625
1718.96139	16221.425
1722.20246	16143.025
1725.44139	16052.025
1728.67818	15962.825
1731.91284	15846.725
1735.14537	15784.425
1738.37576	15723.525
1741.60403	15648.425
1744.83017	15588.925
1748.05418	15534.525
1751.27607	15520.925
1754.49584	15515.825
1757.71349	15496.225
1760.92903	15449.525
1764.14244	15416.925
1767.35375	15424.225
1770.56294	15345.125
1773.77002	15328.325
1776.97499	15297.725
1780.17785	15224.925
1783.37861	15189.125
1786.57727	15168.425
1789.77382	15146.225
1792.96828	15100.625
1796.16064	15063.125
1799.3509	15021.025
1802.53907	15012.325
1805.72514	14977.025
1808.90913	14922.525
1812.09102	14898.925
1815.27083	14865.125
1818.44856	14811.525
1821.6242	14785.525
1824.79776	14756.925
1827.96924	14758.125
1831.13864	14734.925
1834.30597	14749.125
1837.47122	14739.425
1840.6344	14714.725
1843.7955	14724.625
1846.95454	14702.225
1850.11151	14701.225
1853.26642	14682.325
1856.41926	14701.025
1859.57004	14709.425
1862.71876	14684.725
1865.86542	14702.725
1869.01003	14662.425
1872.15258	14676.725
1875.29308	14676.525
1878.43152	14690.125
1881.56792	14692.125
1884.70227	14673.125
1887.83457	14702.325
1890.96482	14668.425
1894.09304	14658.725
1897.21921	14667.125
1900.34335	14696.725
1903.46544	14702.925
1906.58551	14699.225
1909.70353	14697.425
1912.81953	14697.125
1915.93349	14660.825
1919.04543	14607.725
1922.15534	14595.525
1925.26322	14545.825
1928.36908	14528.625
1931.47292	14469.725
1934.57473	14414.525
1937.67453	14358.225
1940.77232	14296.925
1943.86808	14210.525
1946.96184	14150.325
1950.05358	14128.125
1953.14331	14046.825
1956.23103	13985.825
1959.31675	13952.125
1962.40046	13934.225
1965.48217	13877.125
1968.56188	13826.525
1971.63959	13775.225
1974.7153	13764.025
1977.78901	13717.825
1980.86073	13647.225
1983.93046	13628.025
1986.99819	13564.325
1990.06394	13541.825
1993.1277	13500.525
1996.18947	13398.325
1999.24925	13389.725
2002.30706	13346.725
2005.36288	13316.325
2008.41672	13277.325
2011.46859	13227.325
2014.51848	13193.425
2017.56639	13149.125
2020.61233	13131.025
2023.6563	13119.825
2026.6983	13092.925
2029.73833	13075.125
2032.7764	13028.725
2035.8125	12992.425
2038.84664	12978.025
2041.87881	12955.525
2044.90903	12882.525
2047.93729	12918.225
2050.96359	12877.425
2053.98794	12872.625
2057.01034	12837.425
2060.03078	12825.225
2063.04927	12819.525
2066.06582	12845.525
2069.08042	12779.525
2072.09307	12737.225
2075.10378	12764.325
2078.11255	12778.025
2081.11938	12765.425
2084.12426	12743.025
2087.12722	12728.425
2090.12824	12734.825
2093.12732	12723.825
2096.12447	12713.525
2099.11969	12712.925
2102.11299	12727.925
2105.10435	12719.025
2108.09379	12713.725
2111.08131	12728.125
2114.0669	12745.825
2117.05057	12713.625
2120.03233	12728.025
2123.01216	12741.925
2125.99008	12743.525
2128.96609	12721.525
2131.94018	12755.825
2134.91236	12752.125
2137.88263	12775.225
2140.851	12786.725
2143.81746	12759.725
2146.78201	12767.925
2149.74466	12760.825
2152.7054	12758.225
2155.66425	12731.925
2158.6212	12717.325
2161.57625	12736.725
2164.52941	12730.625
2167.48067	12702.425
2170.43004	12694.525
2173.37752	12705.025
2176.32311	12688.225
2179.26681	12709.925
2182.20863	12684.225
2185.14856	12686.825
2188.08661	12680.325
2191.02278	12688.225
2193.95707	12659.225
2196.88948	12655.825
2199.82001	12646.025
2202.74867	12612.725
2205.67545	12631.125
2208.60037	12629.825
2211.52341	12588.725
2214.44458	12555.225
2217.36388	12553.425
2220.28132	12543.925
2223.1969	12525.425
2226.11061	12472.925
2229.02246	12442.825
2231.93245	12445.325
2234.84058	12404.425
2237.74686	12378.725
2240.65128	12404.625
2243.55385	12347.925
2246.45456	12339.525
2249.35343	12324.525
2252.25044	12292.425
2255.14561	12275.225
2258.03893	12273.025
2260.93041	12243.625
2263.82004	12204.125
2266.70783	12201.025
2269.59378	12162.625
2272.4779	12140.025
2275.36017	12098.625
2278.24061	12074.025
2281.11922	12050.925
2283.996	12040.925
2286.87094	11998.525
2289.74405	11995.825
2292.61534	11967.925
2295.4848	11941.525
2298.35243	11956.625
2301.21824	11935.225
2304.08223	11916.925
2306.94439	11904.125
2309.80474	11905.625
2312.66327	11905.325
2315.51999	11887.925
2318.37489	11906.125
2321.22797	11881.325
2324.07925	11873.625
2326.92871	11866.925
2329.77637	11848.625
2332.62222	11834.025
2335.46626	11829.425
2338.3085	11817.725
2341.14893	11813.525
2343.98756	11825.325
2346.8244	11782.325
2349.65943	11798.625
2352.49267	11828.825
2355.32411	11820.325
2358.15376	11816.225
2360.98161	11803.325
2363.80768	11837.125
2366.63195	11826.625
2369.45444	11819.625
2372.27514	11824.325
2375.09405	11779.125
2377.91118	11760.825
2380.72652	11730.525
2383.54009	11670.625
2386.35187	11667.825
2389.16188	11607.625
2391.97011	11601.225
2394.77657	11576.925
2397.58125	11542.725
2400.38416	11524.125
2403.18529	11493.125
2405.98466	11452.225
2408.78226	11469.925
2411.57809	11463.325
2414.37216	11439.125
2417.16446	11408.325
2419.955	11386.825
2422.74378	11377.125
2425.5308	11372.425
2428.31606	11359.225
2431.09956	11359.725
2433.88131	11373.025
2436.6613	11365.625
2439.43954	11311.425
2442.21603	11338.325
2444.99077	11333.325
2447.76377	11335.625
2450.53501	11342.525
2453.30451	11347.825
2456.07226	11331.825
2458.83827	11331.325
2461.60254	11320.125
2464.36507	11346.425
2467.12586	11316.025
2469.88492	11315.725
2472.64224	11298.825
2475.39782	11304.925
2478.15167	11317.525
2480.90379	11342.525
2483.65417	11353.425
2486.40283	11333.625
2489.14976	11369.325
2491.89497	11393.825
2494.63845	11401.625
2497.3802	11363.225
2500.12024	11408.325
2502.85855	11379.125
2505.59514	11362.425
2508.33002	11341.425
2511.06318	11335.025
2513.79462	11290.825
2516.52435	11269.325
2519.25237	11248.525
2521.97867	11221.825
2524.70327	11228.525
2527.42616	11195.825
2530.14734	11190.825
2532.86681	11175.225
2535.58458	11161.225
2538.30065	11149.325
2541.01501	11135.825
2543.72768	11137.125
2546.43864	11114.325
2549.14791	11112.125
2551.85548	11102.925
2554.56136	11078.325
2557.26554	11093.125
2559.96803	11080.825
2562.66883	11072.425
2565.36794	11090.125
2568.06536	11061.525
2570.7611	11029.825
2573.45514	11017.225
2576.14751	11026.225
2578.83819	11004.825
2581.52719	11005.925
2584.21451	10980.925
2586.90015	10981.125
2589.58411	10968.225
2592.2664	10960.725
2594.94701	10926.725
2597.62594	10964.325
2600.30321	10948.225
2602.9788	10977.725
2605.65273	10947.525
2608.32498	10959.025
2610.99557	10950.125
2613.66449	10948.625
2616.33175	10921.825
2618.99734	10920.925
2621.66128	10939.625
2624.32355	10951.925
2626.98416	10944.725
2629.64311	10937.225
2632.30041	10934.525
2634.95605	10953.125
2637.61004	10908.125
2640.26238	10892.025
2642.91306	10888.125
2645.56209	10849.725
2648.20948	10864.525
2650.85521	10895.725
2653.4993	10867.725
2656.14175	10880.225
2658.78255	10877.825
2661.42171	10877.825
2664.05923	10884.425
2666.6951	10913.725
2669.32934	10907.425
2671.96194	10921.525
2674.59291	10935.525
2677.22224	10933.025
2679.84993	10915.025
2682.476	10910.325
2685.10043	10912.525
2687.72324	10908.925
2690.34441	10930.425
2692.96396	10909.525
2695.58188	10932.025
2698.19818	10904.725
2700.81285	10908.325
2703.4259	10918.625
2706.03733	10952.425
2708.64714	10940.725
2711.25533	10932.125
2713.86191	10917.825
2716.46687	10929.025
2719.07021	10949.225
2721.67194	10964.925
2724.27206	10960.525
2726.87057	10957.025
2729.46747	10950.725
2732.06276	10960.225
2734.65644	10961.725
2737.24852	10942.525
2739.83899	10929.325
2742.42786	10933.625
2745.01513	10915.625
2747.60079	10931.725
2750.18486	10928.625
2752.76733	10933.425
2755.3482	10921.725
2757.92747	10923.425
2760.50515	10905.525
2763.08123	10911.225
2765.65573	10902.725
2768.22863	10902.325
2770.79994	10878.425
2773.36967	10869.725
2775.9378	10867.625
2778.50435	10882.525
2781.06932	10871.425
2783.6327	10872.425
2786.1945	10898.525
2788.75471	10890.825
2791.31335	10854.225
2793.87041	10837.425
2796.42589	10807.125
2798.97979	10788.925
2801.53212	10780.225
2804.08288	10773.725
2806.63206	10757.125
2809.17967	10749.525
2811.72571	10712.625
2814.27018	10714.625
2816.81308	10719.625
2819.35442	10709.525
2821.89419	10700.325
2824.43239	10700.225
2826.96904	10698.225
2829.50412	10704.925
2832.03763	10663.525
2834.56959	10676.225
2837.1	10689.925
2839.62884	10685.925
2842.15613	10725.825
2844.68186	10729.725
2847.20604	10785.125
2849.72867	10827.825
2852.24974	10836.425
2854.76927	10814.325
2857.28724	10789.825
2859.80367	10771.625
2862.31855	10744.425
2864.83189	10732.725
2867.34368	10713.825
2869.85393	10753.725
2872.36264	10717.725
2874.8698	10748.525
2877.37543	10733.325
2879.87952	10734.625
2882.38207	10743.325
2884.88308	10709.825
2887.38256	10707.625
2889.88051	10700.425
2892.37692	10711.825
2894.8718	10727.825
2897.36515	10735.725
2899.85698	10749.225
2902.34727	10761.025
2904.83604	10747.325
2907.32328	10774.225
2909.809	10786.025
2912.29319	10791.225
2914.77587	10793.525
2917.25702	10754.125
2919.73665	10751.925
2922.21476	10764.825
2924.69136	10750.225
2927.16644	10741.725
2929.64	10729.525
2932.11205	10717.825
2934.58258	10677.425
2937.05161	10659.725
2939.51912	10657.425
2941.98513	10609.825
2944.44962	10574.625
2946.91261	10521.725
2949.37409	10509.925
2951.83407	10465.925
2954.29254	10464.525
2956.74951	10432.025
2959.20498	10420.425
2961.65895	10382.025
2964.11142	10375.325
2966.56239	10353.625
2969.01186	10336.325
2971.45984	10280.025
2973.90632	10237.125
2976.35131	10248.425
2978.7948	10221.425
2981.23681	10191.725
2983.67732	10167.225
2986.11635	10134.425
2988.55388	10106.625
2990.98993	10103.425
2993.4245	10055.825
2995.85758	10044.425
2998.28917	10005.825
3000.71928	10011.725
3003.14791	10000.525
3005.57506	9983.125
3008.00073	9958.725
3010.42493	9941.025
3012.84764	9898.125
3015.26888	9903.025
3017.68865	9867.825
3020.10694	9862.525
3022.52376	9828.125
3024.9391	9811.925
3027.35298	9829.125
3029.76539	9792.325
3032.17632	9773.125
3034.5858	9747.825
3036.9938	9749.525
3039.40034	9725.125
3041.80542	9716.525
3044.20903	9710.525
3046.61118	9657.825
3049.01187	9636.325
3051.4111	9660.625
3053.80888	9639.225
3056.20519	9605.325
3058.60005	9580.225
3060.99345	9576.925
3063.3854	9520.725
3065.7759	9490.925
3068.16494	9490.125
3070.55254	9447.325
3072.93868	9433.225
3075.32338	9388.025
3077.70662	9358.625
3080.08842	9320.325
3082.46878	9347.225
3084.84769	9291.025
3087.22515	9292.625
3089.60118	9290.225
3091.97576	9268.125
3094.3489	9272.425
3096.72061	9236.525
3099.09087	9251.325
3101.4597	9227.125
3103.82709	9226.725
3106.19305	9200.125
3108.55757	9210.225
3110.92066	9165.425
3113.28232	9129.625
3115.64255	9131.225
3118.00134	9113.025
3120.35871	9083.825
3122.71466	9063.025
3125.06917	9039.725
3127.42226	9022.825
3129.77393	9040.425
3132.12417	8999.125
3134.47299	9009.725
