Data from AgNPs_FTO_APTES_UA_2uM_CRN_50uM_R6G_10uM_NaF_0.1M_Addition_RamanShift__46__15-29-55-290.txt Node

Date: Wed Feb 02 15:29:55 GMT 2022
User: TCL
Spectrometer: QEP01345
Trigger mode: 4
Integration Time (sec): 7.000000E0
Scans to average: 10
Electric dark correction enabled: true
Nonlinearity correction enabled: false
Boxcar width: 0
XAxis mode: Raman Shifts
Number of Pixels in Spectrum: 1044
>>>>>Begin Spectral Data<<<<<
46.04893	1.4625
50.45542	0.4625
54.85868	-0.7375
59.25871	-0.6375
63.6555	77.7625
68.04907	86.3625
72.43941	86.6625
76.82654	93.1625
81.21044	98.1625
85.59113	101.1625
89.96862	104.9625
94.34289	108.5625
98.71396	111.3625
103.08183	119.7625
107.4465	117.4625
111.80798	123.3625
116.16626	124.0625
120.52136	127.3625
124.87327	132.9625
129.222	139.8625
133.56755	151.7625
137.90993	156.5625
142.24913	171.9625
146.58517	194.6625
150.91804	224.8625
155.24774	268.1625
159.57429	329.2625
163.89768	418.7625
168.21792	545.8625
172.53501	741.1625
176.84895	1040.9625
181.15975	1449.1625
185.46741	2040.1625
189.77193	2798.4625
194.07331	3742.7625
198.37157	4838.6625
202.6667	5961.5625
206.9587	7059.0625
211.24758	8148.8625
215.53334	9265.5625
219.81599	10446.3625
224.09553	11721.6625
228.37195	13094.6625
232.64527	14607.1625
236.91549	16170.8625
241.18261	17771.6625
245.44663	19272.0625
249.70755	20609.2625
253.96539	21774.2625
258.22014	22829.3625
262.4718	23628.5625
266.72039	24232.9625
270.96589	24603.0625
275.20832	24736.2625
279.44768	24715.5625
283.68397	24677.5625
287.91719	24685.0625
292.14735	24712.9625
296.37445	24843.0625
300.59849	25029.7625
304.81948	25088.1625
309.03742	24988.2625
313.25231	24673.1625
317.46415	24026.1625
321.67296	23266.3625
325.87872	22600.0625
330.08145	22238.6625
334.28114	22092.6625
338.47781	22182.9625
342.67145	22353.9625
346.86207	22583.1625
351.04966	22848.5625
355.23424	23092.8625
359.4158	23376.9625
363.59435	23537.9625
367.76989	23671.2625
371.94243	23739.1625
376.11196	23742.4625
380.27849	23784.6625
384.44203	23786.6625
388.60257	23980.3625
392.76012	24323.8625
396.91468	24765.8625
401.06626	25197.0625
405.21485	25424.7625
409.36047	25332.4625
413.50311	24970.5625
417.64277	24800.3625
421.77947	24843.6625
425.9132	24975.6625
430.04396	25145.9625
434.17176	25241.5625
438.2966	25376.8625
442.41849	25671.6625
446.53742	26262.9625
450.6534	26978.0625
454.76644	27482.9625
458.87653	27826.1625
462.98368	27836.6625
467.08789	27748.4625
471.18916	27583.5625
475.2875	27557.5625
479.38291	27673.7625
483.4754	27649.2625
487.56496	27322.1625
491.6516	26606.6625
495.73531	25823.1625
499.81612	25325.2625
503.89401	25246.5625
507.96899	25317.1625
512.04106	25338.4625
516.11023	25123.2625
520.1765	24778.1625
524.23987	24317.7625
528.30034	23912.4625
532.35792	23609.9625
536.41261	23328.6625
540.46441	23173.0625
544.51333	23310.6625
548.55936	23796.7625
552.60252	24418.3625
556.64279	25130.4625
560.6802	25721.3625
564.71473	26186.5625
568.7464	27002.7625
572.7752	28255.8625
576.80114	29605.1625
580.82422	30671.9625
584.84444	31364.5625
588.86181	32020.3625
592.87633	32395.2625
596.888	31729.4625
600.89682	30431.4625
604.9028	29903.8625
608.90594	30711.3625
612.90624	31466.5625
616.90371	29186.0625
620.89834	25148.9625
624.89015	23453.7625
628.87913	23442.4625
632.86528	23709.9625
636.84862	23742.3625
640.82913	23326.0625
644.80683	22785.0625
648.78172	22325.5625
652.75379	22195.3625
656.72306	22331.6625
660.68952	22524.5625
664.65319	22433.5625
668.61405	22185.3625
672.57211	22109.3625
676.52738	22171.0625
680.47986	22206.2625
684.42955	22079.2625
688.37646	22015.5625
692.32058	22105.3625
696.26192	22362.4625
700.20048	22678.6625
704.13626	22941.7625
708.06928	23072.5625
711.99952	23108.6625
715.927	23059.6625
719.85171	22933.8625
723.77365	22718.7625
727.69284	22324.0625
731.60928	21989.2625
735.52295	21827.5625
739.43388	21701.3625
743.34206	21755.0625
747.24749	21886.6625
751.15017	22228.7625
755.05012	22735.5625
758.94733	23572.0625
762.8418	24872.6625
766.73354	26624.1625
770.62254	28056.2625
774.50882	27885.6625
778.39237	26334.3625
782.27321	24457.7625
786.15132	23083.0625
790.02671	22203.4625
793.89938	21750.7625
797.76935	21531.4625
801.6366	21471.7625
805.50115	21393.9625
809.36299	21344.4625
813.22213	21221.1625
817.07857	21205.9625
820.93231	21173.1625
824.78336	21000.6625
828.63172	20794.2625
832.47738	20604.9625
836.32036	20533.7625
840.16066	20552.2625
843.99827	20504.5625
847.8332	20470.9625
851.66546	20465.8625
855.49504	20519.8625
859.32195	20484.8625
863.1462	20408.0625
866.96777	20342.5625
870.78668	20286.5625
874.60293	20264.7625
878.41652	20209.5625
882.22745	20216.1625
886.03573	20322.2625
889.84136	20306.1625
893.64433	20254.1625
897.44466	20210.7625
901.24235	20186.6625
905.0374	20187.6625
908.8298	20143.6625
912.61957	20282.5625
916.40671	20621.0625
920.19121	21024.2625
923.97308	21312.6625
927.75233	21093.2625
931.52895	20711.8625
935.30295	20224.9625
939.07433	19756.0625
942.84309	19409.2625
946.60924	19189.2625
950.37278	19147.8625
954.13371	19159.2625
957.89203	19215.8625
961.64774	19247.6625
965.40086	19247.6625
969.15137	19160.6625
972.89929	19016.3625
976.64461	18802.0625
980.38733	18713.9625
984.12747	18752.5625
987.86502	18817.3625
991.59999	18890.4625
995.33237	18999.7625
999.06217	19226.9625
1002.78939	19520.3625
1006.51404	19817.2625
1010.23611	20137.4625
1013.95561	20378.8625
1017.67255	20404.6625
1021.38692	20324.2625
1025.09872	20001.1625
1028.80796	19804.8625
1032.51465	19750.9625
1036.21877	19853.4625
1039.92035	19984.3625
1043.61937	20090.5625
1047.31584	20176.9625
1051.00976	20239.4625
1054.70114	20425.0625
1058.38998	20682.0625
1062.07627	21082.9625
1065.76003	21478.6625
1069.44126	21847.8625
1073.11995	22226.7625
1076.79611	22498.1625
1080.46974	22538.2625
1084.14085	22581.1625
1087.80943	22818.2625
1091.47549	23052.6625
1095.13903	23208.9625
1098.80005	22964.7625
1102.45857	22300.0625
1106.11456	21551.1625
1109.76805	21190.0625
1113.41903	21094.3625
1117.06751	21239.1625
1120.71348	21494.4625
1124.35696	21738.8625
1127.99793	22112.6625
1131.63641	22334.4625
1135.2724	22331.4625
1138.90589	22362.3625
1142.5369	22504.8625
1146.16542	22904.1625
1149.79145	23386.7625
1153.415	23892.5625
1157.03607	24465.1625
1160.65467	25450.2625
1164.27079	26845.4625
1167.88443	28508.7625
1171.49561	30161.8625
1175.10432	32126.1625
1178.71056	34396.7625
1182.31434	36490.6625
1185.91565	37604.1625
1189.51451	37783.3625
1193.11091	37340.5625
1196.70485	36333.5625
1200.29634	35007.8625
1203.88538	34097.4625
1207.47197	33951.6625
1211.05612	33905.9625
1214.63782	33305.2625
1218.21708	32022.4625
1221.79391	30380.4625
1225.36829	29084.5625
1228.94024	28238.6625
1232.50976	27811.8625
1236.07685	27544.4625
1239.6415	27492.2625
1243.20374	27612.5625
1246.76355	27836.2625
1250.32093	28296.3625
1253.8759	28895.7625
1257.42845	29817.0625
1260.97859	30786.6625
1264.52631	31701.3625
1268.07163	32599.6625
1271.61453	33502.5625
1275.15503	34611.0625
1278.69312	35904.2625
1282.22882	37296.5625
1285.76211	39028.4625
1289.29301	41085.4625
1292.82151	43653.0625
1296.34761	46601.9625
1299.87133	49752.9625
1303.39266	52494.8625
1306.9116	54356.7625
1310.42815	55267.3625
1313.94233	55450.2625
1317.45412	55267.0625
1320.96354	55111.7625
1324.47058	55404.9625
1327.97525	55948.0625
1331.47754	56300.6625
1334.97747	56392.5625
1338.47502	56150.0625
1341.97022	55553.1625
1345.46305	54605.5625
1348.95352	53375.9625
1352.44163	52059.4625
1355.92738	51209.1625
1359.41078	51296.8625
1362.89183	51482.7625
1366.37053	50410.2625
1369.84688	47234.9625
1373.32088	43148.0625
1376.79254	40302.5625
1380.26186	39564.4625
1383.72883	40169.3625
1387.19347	40859.4625
1390.65578	41025.1625
1394.11575	41130.6625
1397.57339	41491.3625
1401.0287	42058.9625
1404.48168	42236.3625
1407.93234	41581.3625
1411.38068	40060.1625
1414.82669	37869.4625
1418.27039	35621.3625
1421.71177	33509.4625
1425.15083	31946.3625
1428.58758	31271.4625
1432.02203	31567.8625
1435.45416	32594.6625
1438.88399	33838.2625
1442.31151	34988.3625
1445.73673	35778.1625
1449.15965	36461.3625
1452.58027	37110.5625
1455.9986	37475.8625
1459.41463	37753.0625
1462.82837	38119.5625
1466.23982	38559.2625
1469.64898	38959.7625
1473.05586	38996.8625
1476.46045	38721.5625
1479.86276	38192.7625
1483.26279	37635.7625
1486.66054	37263.3625
1490.05602	37340.7625
1493.44922	37757.5625
1496.84016	38373.2625
1500.22882	39222.4625
1503.61521	40337.5625
1506.99934	41474.0625
1510.38121	42472.5625
1513.76081	42798.9625
1517.13816	42594.7625
1520.51324	42217.5625
1523.88607	42220.3625
1527.25665	42584.6625
1530.62498	42900.2625
1533.99105	42728.9625
1537.35488	41899.7625
1540.71647	40569.7625
1544.07581	38829.6625
1547.4329	37241.0625
1550.78776	35919.6625
1554.14038	35027.9625
1557.49077	34628.0625
1560.83892	34348.2625
1564.18484	34253.8625
1567.52853	34379.6625
1570.86999	34874.5625
1574.20922	35963.5625
1577.54624	37072.3625
1580.88103	37942.6625
1584.2136	38845.2625
1587.54395	40098.8625
1590.87208	41743.6625
1594.19801	43499.6625
1597.52172	44887.6625
1600.84321	44537.9625
1604.16251	41920.3625
1607.47959	38317.0625
1610.79447	34801.7625
1614.10715	31615.5625
1617.41763	29025.9625
1620.7259	27264.6625
1624.03199	26260.7625
1627.33587	26245.5625
1630.63757	27212.0625
1633.93707	29345.9625
1637.23439	32806.3625
1640.52951	37807.7625
1643.82246	43505.6625
1647.11321	47915.8625
1650.40179	48837.8625
1653.68819	45323.7625
1656.97241	39116.5625
1660.25446	32710.4625
1663.53433	27650.3625
1666.81203	24186.7625
1670.08756	21928.1625
1673.36092	20497.4625
1676.63211	19551.1625
1679.90115	18919.0625
1683.16801	18476.2625
1686.43272	18145.1625
1689.69527	17910.6625
1692.95567	17682.6625
1696.2139	17607.6625
1699.46999	17463.5625
1702.72392	17323.4625
1705.97571	17247.2625
1709.22535	17092.2625
1712.47284	17036.1625
1715.71819	16949.5625
1718.96139	16882.3625
1722.20246	16826.3625
1725.44139	16697.4625
1728.67818	16576.8625
1731.91284	16479.7625
1735.14537	16370.2625
1738.37576	16272.4625
1741.60403	16185.9625
1744.83017	16144.0625
1748.05418	16063.1625
1751.27607	16046.1625
1754.49584	15996.6625
1757.71349	15989.4625
1760.92903	15980.3625
1764.14244	15955.8625
1767.35375	15901.7625
1770.56294	15831.5625
1773.77002	15778.9625
1776.97499	15721.2625
1780.17785	15694.6625
1783.37861	15653.5625
1786.57727	15583.6625
1789.77382	15526.6625
1792.96828	15490.8625
1796.16064	15447.7625
1799.3509	15403.5625
1802.53907	15373.0625
1805.72514	15300.0625
1808.90913	15275.5625
1812.09102	15232.1625
1815.27083	15193.9625
1818.44856	15184.8625
1821.6242	15138.8625
1824.79776	15148.2625
1827.96924	15109.7625
1831.13864	15063.0625
1834.30597	15096.1625
1837.47122	15092.6625
1840.6344	15097.9625
1843.7955	15129.0625
1846.95454	15059.6625
1850.11151	15059.4625
1853.26642	15060.9625
1856.41926	15036.7625
1859.57004	14996.3625
1862.71876	14960.3625
1865.86542	14925.7625
1869.01003	14921.7625
1872.15258	14905.9625
1875.29308	14859.4625
1878.43152	14812.0625
1881.56792	14784.9625
1884.70227	14763.5625
1887.83457	14753.2625
1890.96482	14728.4625
1894.09304	14672.6625
1897.21921	14697.5625
1900.34335	14633.5625
1903.46544	14635.9625
1906.58551	14576.5625
1909.70353	14574.2625
1912.81953	14538.4625
1915.93349	14474.5625
1919.04543	14462.3625
1922.15534	14420.0625
1925.26322	14386.8625
1928.36908	14355.8625
1931.47292	14285.1625
1934.57473	14261.7625
1937.67453	14211.2625
1940.77232	14182.5625
1943.86808	14142.3625
1946.96184	14091.7625
1950.05358	14039.6625
1953.14331	14008.7625
1956.23103	13973.2625
1959.31675	13922.8625
1962.40046	13880.9625
1965.48217	13826.6625
1968.56188	13743.9625
1971.63959	13699.1625
1974.7153	13673.0625
1977.78901	13680.1625
1980.86073	13573.7625
1983.93046	13569.9625
1986.99819	13473.5625
1990.06394	13453.8625
1993.1277	13400.3625
1996.18947	13321.6625
1999.24925	13307.3625
2002.30706	13252.6625
2005.36288	13224.3625
2008.41672	13191.3625
2011.46859	13139.8625
2014.51848	13092.7625
2017.56639	13038.0625
2020.61233	13026.6625
2023.6563	12976.5625
2026.6983	12940.1625
2029.73833	12903.4625
2032.7764	12880.7625
2035.8125	12874.1625
2038.84664	12818.4625
2041.87881	12845.5625
2044.90903	12784.3625
2047.93729	12765.3625
2050.96359	12734.6625
2053.98794	12729.8625
2057.01034	12696.2625
2060.03078	12692.1625
2063.04927	12679.7625
2066.06582	12681.9625
2069.08042	12651.4625
2072.09307	12636.4625
2075.10378	12627.6625
2078.11255	12602.2625
2081.11938	12584.2625
2084.12426	12588.8625
2087.12722	12561.4625
2090.12824	12558.3625
2093.12732	12562.3625
2096.12447	12584.3625
2099.11969	12575.7625
2102.11299	12567.4625
2105.10435	12603.9625
2108.09379	12597.4625
2111.08131	12593.5625
2114.0669	12585.7625
2117.05057	12571.3625
2120.03233	12606.6625
2123.01216	12574.5625
2125.99008	12591.2625
2128.96609	12587.3625
2131.94018	12556.9625
2134.91236	12544.8625
2137.88263	12546.3625
2140.851	12555.8625
2143.81746	12589.2625
2146.78201	12567.4625
2149.74466	12542.3625
2152.7054	12547.0625
2155.66425	12539.0625
2158.6212	12536.3625
2161.57625	12535.9625
2164.52941	12516.5625
2167.48067	12490.2625
2170.43004	12453.0625
2173.37752	12451.1625
2176.32311	12460.3625
2179.26681	12467.8625
2182.20863	12441.7625
2185.14856	12460.7625
2188.08661	12442.6625
2191.02278	12461.2625
2193.95707	12395.7625
2196.88948	12392.2625
2199.82001	12398.9625
2202.74867	12368.7625
2205.67545	12353.1625
2208.60037	12305.6625
2211.52341	12296.3625
2214.44458	12273.0625
2217.36388	12273.7625
2220.28132	12235.8625
2223.1969	12204.5625
2226.11061	12189.1625
2229.02246	12170.7625
2231.93245	12163.3625
2234.84058	12113.3625
2237.74686	12102.4625
2240.65128	12085.0625
2243.55385	12049.0625
2246.45456	12048.3625
2249.35343	12030.3625
2252.25044	11976.7625
2255.14561	11942.4625
2258.03893	11925.9625
2260.93041	11900.8625
2263.82004	11841.0625
2266.70783	11816.7625
2269.59378	11762.7625
2272.4779	11728.6625
2275.36017	11715.1625
2278.24061	11659.9625
2281.11922	11631.5625
2283.996	11617.9625
2286.87094	11593.9625
2289.74405	11562.6625
2292.61534	11565.9625
2295.4848	11556.5625
2298.35243	11544.9625
2301.21824	11519.8625
2304.08223	11534.8625
2306.94439	11530.2625
2309.80474	11499.9625
2312.66327	11491.4625
2315.51999	11490.8625
2318.37489	11461.2625
2321.22797	11443.4625
2324.07925	11437.6625
2326.92871	11413.8625
2329.77637	11401.5625
2332.62222	11396.5625
2335.46626	11382.0625
2338.3085	11372.6625
2341.14893	11363.7625
2343.98756	11349.4625
2346.8244	11342.3625
2349.65943	11336.4625
2352.49267	11342.3625
2355.32411	11328.6625
2358.15376	11331.5625
2360.98161	11337.0625
2363.80768	11322.9625
2366.63195	11308.2625
2369.45444	11291.4625
2372.27514	11249.2625
2375.09405	11260.9625
2377.91118	11257.3625
2380.72652	11218.3625
2383.54009	11198.8625
2386.35187	11206.7625
2389.16188	11125.0625
2391.97011	11102.1625
2394.77657	11079.0625
2397.58125	11068.2625
2400.38416	11047.9625
2403.18529	11014.8625
2405.98466	11015.1625
2408.78226	11006.2625
2411.57809	11014.6625
2414.37216	10974.0625
2417.16446	10994.0625
2419.955	10959.7625
2422.74378	10994.6625
2425.5308	10950.8625
2428.31606	10951.8625
2431.09956	10943.6625
2433.88131	10928.9625
2436.6613	10901.0625
2439.43954	10916.1625
2442.21603	10889.6625
2444.99077	10876.7625
2447.76377	10878.0625
2450.53501	10867.4625
2453.30451	10868.1625
2456.07226	10859.7625
2458.83827	10870.8625
2461.60254	10855.6625
2464.36507	10843.0625
2467.12586	10810.5625
2469.88492	10831.3625
2472.64224	10831.1625
2475.39782	10814.5625
2478.15167	10838.4625
2480.90379	10828.5625
2483.65417	10810.0625
2486.40283	10826.1625
2489.14976	10854.0625
2491.89497	10817.8625
2494.63845	10849.2625
2497.3802	10794.4625
2500.12024	10810.6625
2502.85855	10806.6625
2505.59514	10826.0625
2508.33002	10813.3625
2511.06318	10831.4625
2513.79462	10785.2625
2516.52435	10778.8625
2519.25237	10781.2625
2521.97867	10775.2625
2524.70327	10735.6625
2527.42616	10713.6625
2530.14734	10739.7625
2532.86681	10724.1625
2535.58458	10707.2625
2538.30065	10701.1625
2541.01501	10683.2625
2543.72768	10660.8625
2546.43864	10659.6625
2549.14791	10646.4625
2551.85548	10637.9625
2554.56136	10637.4625
2557.26554	10631.4625
2559.96803	10606.0625
2562.66883	10596.6625
2565.36794	10618.6625
2568.06536	10591.5625
2570.7611	10582.7625
2573.45514	10573.7625
2576.14751	10567.4625
2578.83819	10549.0625
2581.52719	10521.9625
2584.21451	10503.3625
2586.90015	10515.8625
2589.58411	10515.7625
2592.2664	10500.8625
2594.94701	10491.9625
2597.62594	10503.6625
2600.30321	10482.8625
2602.9788	10485.8625
2605.65273	10469.9625
2608.32498	10469.5625
2610.99557	10479.6625
2613.66449	10477.8625
2616.33175	10454.1625
2618.99734	10464.1625
2621.66128	10453.6625
2624.32355	10450.8625
2626.98416	10444.3625
2629.64311	10443.0625
2632.30041	10440.1625
2634.95605	10423.4625
2637.61004	10422.0625
2640.26238	10406.5625
2642.91306	10403.6625
2645.56209	10407.7625
2648.20948	10415.7625
2650.85521	10408.3625
2653.4993	10411.9625
2656.14175	10415.2625
2658.78255	10421.1625
2661.42171	10443.7625
2664.05923	10460.5625
2666.6951	10440.2625
2669.32934	10449.4625
2671.96194	10433.5625
2674.59291	10438.4625
2677.22224	10441.3625
2679.84993	10446.6625
2682.476	10433.1625
2685.10043	10442.2625
2687.72324	10417.9625
2690.34441	10424.6625
2692.96396	10415.2625
2695.58188	10426.1625
2698.19818	10424.8625
2700.81285	10427.7625
2703.4259	10442.1625
2706.03733	10479.5625
2708.64714	10451.8625
2711.25533	10466.3625
2713.86191	10450.6625
2716.46687	10458.2625
2719.07021	10462.8625
2721.67194	10483.5625
2724.27206	10469.4625
2726.87057	10523.6625
2729.46747	10514.9625
2732.06276	10520.1625
2734.65644	10465.0625
2737.24852	10488.1625
2739.83899	10480.9625
2742.42786	10469.1625
2745.01513	10440.2625
2747.60079	10430.7625
2750.18486	10468.5625
2752.76733	10437.3625
2755.3482	10435.4625
2757.92747	10450.2625
2760.50515	10462.5625
2763.08123	10477.3625
2765.65573	10464.3625
2768.22863	10433.1625
2770.79994	10428.8625
2773.36967	10438.1625
2775.9378	10424.7625
2778.50435	10421.9625
2781.06932	10431.6625
2783.6327	10416.0625
2786.1945	10395.9625
2788.75471	10404.6625
2791.31335	10368.0625
2793.87041	10377.9625
2796.42589	10333.6625
2798.97979	10363.5625
2801.53212	10335.1625
2804.08288	10325.9625
2806.63206	10272.5625
2809.17967	10264.8625
2811.72571	10255.3625
2814.27018	10262.5625
2816.81308	10220.6625
2819.35442	10209.0625
2821.89419	10168.4625
2824.43239	10166.1625
2826.96904	10161.1625
2829.50412	10154.3625
2832.03763	10127.4625
2834.56959	10161.9625
2837.1	10120.6625
2839.62884	10163.4625
2842.15613	10156.5625
2844.68186	10188.2625
2847.20604	10198.6625
2849.72867	10219.5625
2852.24974	10222.9625
2854.76927	10226.9625
2857.28724	10203.5625
2859.80367	10178.0625
2862.31855	10146.8625
2864.83189	10149.6625
2867.34368	10139.3625
2869.85393	10140.2625
2872.36264	10112.7625
2874.8698	10122.4625
2877.37543	10080.6625
2879.87952	10087.4625
2882.38207	10072.5625
2884.88308	10067.6625
2887.38256	10058.7625
2889.88051	10081.6625
2892.37692	10099.9625
2894.8718	10077.5625
2897.36515	10092.2625
2899.85698	10107.4625
2902.34727	10112.2625
2904.83604	10106.5625
2907.32328	10126.4625
2909.809	10141.0625
2912.29319	10100.2625
2914.77587	10103.1625
2917.25702	10125.8625
2919.73665	10112.4625
2922.21476	10092.7625
2924.69136	10073.2625
2927.16644	10116.7625
2929.64	10128.7625
2932.11205	10115.8625
2934.58258	10077.6625
2937.05161	10105.5625
2939.51912	10094.1625
2941.98513	10072.1625
2944.44962	10016.9625
2946.91261	9973.0625
2949.37409	9969.8625
2951.83407	9935.2625
2954.29254	9915.3625
2956.74951	9901.3625
2959.20498	9891.1625
2961.65895	9873.1625
2964.11142	9838.6625
2966.56239	9833.8625
2969.01186	9821.6625
2971.45984	9796.4625
2973.90632	9765.8625
2976.35131	9753.0625
2978.7948	9726.7625
2981.23681	9694.8625
2983.67732	9690.5625
2986.11635	9656.6625
2988.55388	9617.9625
2990.98993	9604.2625
2993.4245	9557.3625
2995.85758	9557.8625
2998.28917	9533.2625
3000.71928	9526.1625
3003.14791	9460.3625
3005.57506	9446.0625
3008.00073	9405.7625
3010.42493	9372.9625
3012.84764	9380.0625
3015.26888	9361.3625
3017.68865	9341.5625
3020.10694	9310.1625
3022.52376	9283.4625
3024.9391	9275.4625
3027.35298	9259.0625
