Data from AgNPs_FTO_APTES_UA_2uM_CRN_2uM_R6G_10uM_NaF_0.1M_Addition_RamanShift__21__12-23-15-072.txt Node

Date: Wed Feb 02 12:23:15 GMT 2022
User: TCL
Spectrometer: QEP01345
Trigger mode: 4
Integration Time (sec): 7.000000E0
Scans to average: 10
Electric dark correction enabled: true
Nonlinearity correction enabled: false
Boxcar width: 0
XAxis mode: Raman Shifts
Number of Pixels in Spectrum: 1044
>>>>>Begin Spectral Data<<<<<
46.04893	0.8125
50.45542	-0.0875
54.85868	-1.0875
59.25871	-1.3875
63.6555	104.3125
68.04907	114.1125
72.43941	111.9125
76.82654	118.0125
81.21044	124.5125
85.59113	126.6125
89.96862	129.2125
94.34289	133.2125
98.71396	133.7125
103.08183	140.1125
107.4465	144.5125
111.80798	149.7125
116.16626	152.9125
120.52136	167.9125
124.87327	172.4125
129.222	182.6125
133.56755	202.6125
137.90993	216.6125
142.24913	242.7125
146.58517	284.1125
150.91804	331.7125
155.24774	403.2125
159.57429	517.9125
163.89768	664.3125
168.21792	891.9125
172.53501	1228.4125
176.84895	1717.1125
181.15975	2432.4125
185.46741	3409.9125
189.77193	4691.9125
194.07331	6297.2125
198.37157	8106.7125
202.6667	9972.2125
206.9587	11872.1125
211.24758	13708.9125
215.53334	15611.0125
219.81599	17693.0125
224.09553	19972.1125
228.37195	22549.1125
232.64527	25367.7125
236.91549	28222.1125
241.18261	31039.0125
245.44663	33481.4125
249.70755	35631.0125
253.96539	37517.5125
258.22014	39098.2125
262.4718	40551.0125
266.72039	41625.6125
270.96589	42245.1125
275.20832	42352.3125
279.44768	42203.0125
283.68397	41873.1125
287.91719	41724.5125
292.14735	41717.5125
296.37445	41983.3125
300.59849	42381.3125
304.81948	42861.7125
309.03742	43063.3125
313.25231	42616.5125
317.46415	41214.3125
321.67296	39285.3125
325.87872	37700.7125
330.08145	36902.6125
334.28114	36711.6125
338.47781	37067.1125
342.67145	37594.5125
346.86207	38483.8125
351.04966	39646.0125
355.23424	40975.2125
359.4158	42007.8125
363.59435	42579.3125
367.76989	42919.8125
371.94243	43117.9125
376.11196	43154.6125
380.27849	43156.5125
384.44203	43212.5125
388.60257	43304.8125
392.76012	43599.0125
396.91468	44182.1125
401.06626	45131.8125
405.21485	45763.2125
409.36047	45442.0125
413.50311	44340.0125
417.64277	43351.2125
421.77947	42957.4125
425.9132	43023.3125
430.04396	43265.8125
434.17176	43470.3125
438.2966	43912.0125
442.41849	44795.4125
446.53742	46113.7125
450.6534	47733.9125
454.76644	48887.1125
458.87653	49296.4125
462.98368	49020.8125
467.08789	48302.0125
471.18916	47255.4125
475.2875	46375.7125
479.38291	45881.3125
483.4754	45568.9125
487.56496	44955.5125
491.6516	44217.5125
495.73531	43521.9125
499.81612	43132.0125
503.89401	43282.1125
507.96899	43362.2125
512.04106	43299.5125
516.11023	43120.8125
520.1765	42883.2125
524.23987	42534.2125
528.30034	42073.5125
532.35792	41338.1125
536.41261	40635.7125
540.46441	39967.0125
544.51333	39887.4125
548.55936	40432.6125
552.60252	41565.2125
556.64279	42842.4125
560.6802	43586.4125
564.71473	44087.6125
568.7464	45150.0125
572.7752	46371.6125
576.80114	46913.1125
580.82422	47245.4125
584.84444	47781.0125
588.86181	48382.0125
592.87633	49193.1125
596.888	49940.9125
600.89682	50247.0125
604.9028	52540.6125
608.90594	59456.6125
612.90624	67457.1125
616.90371	63511.4125
620.89834	49899.0125
624.89015	43610.3125
628.87913	42782.6125
632.86528	42861.8125
636.84862	42587.7125
640.82913	41572.3125
644.80683	39983.4125
648.78172	38832.2125
652.75379	38619.1125
656.72306	39373.0125
660.68952	40528.0125
664.65319	40447.5125
668.61405	39346.5125
672.57211	38872.5125
676.52738	38827.9125
680.47986	38808.2125
684.42955	38523.8125
688.37646	38429.2125
692.32058	38637.8125
696.26192	39091.1125
700.20048	39661.5125
704.13626	40006.1125
708.06928	39926.2125
711.99952	39514.0125
715.927	39299.5125
719.85171	39318.9125
723.77365	39151.5125
727.69284	38618.6125
731.60928	38193.5125
735.52295	38085.5125
739.43388	38162.8125
743.34206	38344.0125
747.24749	38654.6125
751.15017	39114.9125
755.05012	40034.7125
758.94733	41611.6125
762.8418	44617.2125
766.73354	49627.2125
770.62254	54503.3125
774.50882	55894.7125
778.39237	52706.0125
782.27321	47438.2125
786.15132	42836.2125
790.02671	40198.2125
793.89938	38898.8125
797.76935	38452.2125
801.6366	38270.2125
805.50115	38132.6125
809.36299	37853.3125
813.22213	37563.8125
817.07857	37409.4125
820.93231	37418.3125
824.78336	37333.2125
828.63172	37242.1125
832.47738	37289.8125
836.32036	37396.0125
840.16066	37565.9125
843.99827	37619.2125
847.8332	37475.7125
851.66546	37270.4125
855.49504	37127.6125
859.32195	37023.8125
863.1462	36760.5125
866.96777	36499.8125
870.78668	36366.8125
874.60293	36357.5125
878.41652	36401.7125
882.22745	36561.7125
886.03573	36731.6125
889.84136	36706.3125
893.64433	36489.8125
897.44466	36291.9125
901.24235	36139.7125
905.0374	36069.1125
908.8298	35987.3125
912.61957	36033.3125
916.40671	36446.8125
920.19121	37123.8125
923.97308	37767.5125
927.75233	38144.6125
931.52895	38064.6125
935.30295	37536.7125
939.07433	36504.9125
942.84309	35683.4125
946.60924	35238.9125
950.37278	35144.9125
954.13371	34919.3125
957.89203	34609.5125
961.64774	34530.3125
965.40086	34467.3125
969.15137	34280.2125
972.89929	34125.9125
976.64461	33997.8125
980.38733	34110.1125
984.12747	34278.8125
987.86502	34626.7125
991.59999	35288.9125
995.33237	36273.6125
999.06217	37787.2125
1002.78939	39550.2125
1006.51404	40762.9125
1010.23611	41352.3125
1013.95561	41770.3125
1017.67255	41630.5125
1021.38692	41032.8125
1025.09872	40567.6125
1028.80796	41115.2125
1032.51465	42732.4125
1036.21877	44286.1125
1039.92035	44585.7125
1043.61937	43667.9125
1047.31584	42068.4125
1051.00976	40328.8125
1054.70114	39276.8125
1058.38998	39038.3125
1062.07627	39064.2125
1065.76003	39301.9125
1069.44126	39605.7125
1073.11995	40206.5125
1076.79611	40683.2125
1080.46974	41035.7125
1084.14085	41504.2125
1087.80943	42201.1125
1091.47549	42573.9125
1095.13903	42330.5125
1098.80005	41493.7125
1102.45857	40312.8125
1106.11456	39563.8125
1109.76805	39285.9125
1113.41903	39565.9125
1117.06751	40044.6125
1120.71348	40746.6125
1124.35696	41493.6125
1127.99793	42347.0125
1131.63641	42645.1125
1135.2724	42053.7125
1138.90589	41290.3125
1142.5369	40874.3125
1146.16542	40677.8125
1149.79145	40711.6125
1153.415	41059.2125
1157.03607	41671.8125
1160.65467	42694.5125
1164.27079	44616.2125
1167.88443	47386.4125
1171.49561	51251.4125
1175.10432	56657.3125
1178.71056	63456.3125
1182.31434	69574.3125
1185.91565	72623.2125
1189.51451	72587.2125
1193.11091	69778.1125
1196.70485	65589.5125
1200.29634	61552.5125
1203.88538	58388.8125
1207.47197	55869.9125
1211.05612	54041.3125
1214.63782	52944.7125
1218.21708	52421.3125
1221.79391	52400.3125
1225.36829	52446.7125
1228.94024	51993.6125
1232.50976	51128.7125
1236.07685	50445.5125
1239.6415	49910.2125
1243.20374	49619.8125
1246.76355	49701.7125
1250.32093	50435.2125
1253.8759	51826.8125
1257.42845	53693.2125
1260.97859	55618.4125
1264.52631	57363.4125
1268.07163	59193.3125
1271.61453	61228.4125
1275.15503	63568.6125
1278.69312	65736.9125
1282.22882	67697.7125
1285.76211	69521.6125
1289.29301	71472.4125
1292.82151	74041.8125
1296.34761	77205.5125
1299.87133	81562.4125
1303.39266	87222.1125
1306.9116	94158.1125
1310.42815	101577.9125
1313.94233	106595.5125
1317.45412	107235.9125
1320.96354	104508.4125
1324.47058	100761.6125
1327.97525	97140.2125
1331.47754	94541.9125
1334.97747	93211.7125
1338.47502	92900.3125
1341.97022	92447.6125
1345.46305	91459.8125
1348.95352	89915.3125
1352.44163	89165.8125
1355.92738	91210.6125
1359.41078	96949.5125
1362.89183	103112.3125
1366.37053	102130.3125
1369.84688	92574.8125
1373.32088	80881.1125
1376.79254	72690.3125
1380.26186	69056.9125
1383.72883	67975.3125
1387.19347	67360.2125
1390.65578	66585.5125
1394.11575	66521.2125
1397.57339	67462.7125
1401.0287	69239.1125
1404.48168	70969.1125
1407.93234	71907.2125
1411.38068	71606.9125
1414.82669	69990.0125
1418.27039	67153.6125
1421.71177	63853.5125
1425.15083	61179.5125
1428.58758	59583.9125
1432.02203	59368.0125
1435.45416	60325.6125
1438.88399	61595.7125
1442.31151	62851.1125
1445.73673	63814.9125
1449.15965	64913.4125
1452.58027	65512.5125
1455.9986	65753.5125
1459.41463	66074.4125
1462.82837	67067.2125
1466.23982	68463.5125
1469.64898	69792.5125
1473.05586	70508.8125
1476.46045	70694.0125
1479.86276	70511.2125
1483.26279	70294.6125
1486.66054	70216.6125
1490.05602	70833.7125
1493.44922	71795.0125
1496.84016	72831.4125
1500.22882	74523.5125
1503.61521	77205.4125
1506.99934	80871.6125
1510.38121	84777.7125
1513.76081	86890.5125
1517.13816	85133.7125
1520.51324	80364.5125
1523.88607	75326.5125
1527.25665	71875.3125
1530.62498	69860.5125
1533.99105	68630.9125
1537.35488	67882.7125
1540.71647	67070.1125
1544.07581	66052.4125
1547.4329	64863.8125
1550.78776	63610.5125
1554.14038	62897.8125
1557.49077	62670.1125
1560.83892	62752.0125
1564.18484	62927.5125
1567.52853	63068.5125
1570.86999	63244.3125
1574.20922	63769.6125
1577.54624	64294.1125
1580.88103	64139.9125
1584.2136	63972.7125
1587.54395	65671.2125
1590.87208	69281.9125
1594.19801	74476.3125
1597.52172	79634.1125
1600.84321	81578.5125
1604.16251	77954.3125
1607.47959	71088.9125
1610.79447	63773.1125
1614.10715	57243.7125
1617.41763	52141.5125
1620.7259	48809.4125
1624.03199	47290.8125
1627.33587	47414.1125
1630.63757	49231.5125
1633.93707	52712.0125
1637.23439	58038.4125
1640.52951	65084.6125
1643.82246	72909.3125
1647.11321	78841.6125
1650.40179	80330.7125
1653.68819	75362.6125
1656.97241	65370.3125
1660.25446	54906.6125
1663.53433	47076.0125
1666.81203	42065.3125
1670.08756	38979.8125
1673.36092	37046.2125
1676.63211	35788.4125
1679.90115	34933.4125
1683.16801	34279.8125
1686.43272	33839.1125
1689.69527	33494.2125
1692.95567	33268.2125
1696.2139	33086.3125
1699.46999	32953.3125
1702.72392	32789.1125
1705.97571	32738.9125
1709.22535	32657.2125
1712.47284	32581.3125
1715.71819	32527.0125
1718.96139	32456.6125
1722.20246	32339.9125
1725.44139	32212.5125
1728.67818	31993.6125
1731.91284	31799.0125
1735.14537	31607.5125
1738.37576	31472.8125
1741.60403	31365.4125
1744.83017	31217.4125
1748.05418	31159.0125
1751.27607	31112.2125
1754.49584	31090.1125
1757.71349	31020.4125
1760.92903	30976.8125
1764.14244	30990.0125
1767.35375	30962.7125
1770.56294	30866.4125
1773.77002	30815.6125
1776.97499	30768.6125
1780.17785	30694.6125
1783.37861	30694.7125
1786.57727	30629.7125
1789.77382	30541.4125
1792.96828	30493.4125
1796.16064	30449.3125
1799.3509	30410.9125
1802.53907	30336.4125
1805.72514	30266.4125
1808.90913	30166.9125
1812.09102	30163.3125
1815.27083	30111.5125
1818.44856	30090.2125
1821.6242	30028.6125
1824.79776	30034.7125
1827.96924	30021.9125
1831.13864	30056.1125
1834.30597	30029.0125
1837.47122	29974.3125
1840.6344	29986.5125
1843.7955	30012.5125
1846.95454	30015.0125
1850.11151	29997.7125
1853.26642	30042.8125
1856.41926	30031.0125
1859.57004	30083.9125
1862.71876	30056.4125
1865.86542	30088.4125
1869.01003	30124.3125
1872.15258	30124.3125
1875.29308	30160.7125
1878.43152	30161.0125
1881.56792	30226.8125
1884.70227	30231.6125
1887.83457	30308.4125
1890.96482	30305.8125
1894.09304	30258.1125
1897.21921	30289.6125
1900.34335	30299.2125
1903.46544	30304.4125
1906.58551	30347.5125
1909.70353	30287.2125
1912.81953	30296.1125
1915.93349	30213.3125
1919.04543	30155.4125
1922.15534	30079.2125
1925.26322	29982.8125
1928.36908	29857.1125
1931.47292	29734.1125
1934.57473	29609.5125
1937.67453	29452.8125
1940.77232	29313.1125
1943.86808	29163.0125
1946.96184	29051.9125
1950.05358	28933.6125
1953.14331	28766.3125
1956.23103	28682.1125
1959.31675	28570.0125
1962.40046	28469.3125
1965.48217	28377.7125
1968.56188	28261.2125
1971.63959	28225.0125
1974.7153	28172.7125
1977.78901	28034.6125
1980.86073	27941.6125
1983.93046	27840.1125
1986.99819	27751.3125
1990.06394	27606.8125
1993.1277	27571.0125
1996.18947	27438.4125
1999.24925	27403.4125
2002.30706	27295.6125
2005.36288	27250.9125
2008.41672	27160.8125
2011.46859	27098.3125
2014.51848	27032.5125
2017.56639	26970.3125
2020.61233	26901.5125
2023.6563	26886.8125
2026.6983	26837.2125
2029.73833	26785.4125
2032.7764	26733.8125
2035.8125	26694.3125
2038.84664	26687.7125
2041.87881	26641.6125
2044.90903	26620.4125
2047.93729	26551.7125
2050.96359	26565.3125
2053.98794	26497.9125
2057.01034	26475.3125
2060.03078	26462.2125
2063.04927	26433.1125
2066.06582	26392.3125
2069.08042	26362.3125
2072.09307	26318.8125
2075.10378	26282.6125
2078.11255	26315.0125
2081.11938	26282.0125
2084.12426	26215.1125
2087.12722	26174.2125
2090.12824	26179.1125
2093.12732	26160.3125
2096.12447	26172.7125
2099.11969	26164.3125
2102.11299	26187.2125
2105.10435	26200.6125
2108.09379	26221.9125
2111.08131	26221.1125
2114.0669	26161.5125
2117.05057	26206.6125
2120.03233	26219.1125
2123.01216	26266.1125
2125.99008	26251.3125
2128.96609	26264.7125
2131.94018	26319.3125
2134.91236	26311.5125
2137.88263	26277.4125
2140.851	26280.3125
2143.81746	26310.5125
2146.78201	26364.7125
2149.74466	26374.0125
2152.7054	26408.4125
2155.66425	26383.3125
2158.6212	26356.3125
2161.57625	26383.4125
2164.52941	26348.0125
2167.48067	26300.1125
2170.43004	26301.0125
2173.37752	26322.9125
2176.32311	26345.3125
2179.26681	26338.4125
2182.20863	26375.0125
2185.14856	26350.7125
2188.08661	26399.5125
2191.02278	26452.2125
2193.95707	26402.7125
2196.88948	26358.0125
2199.82001	26373.1125
2202.74867	26348.1125
2205.67545	26410.4125
2208.60037	26356.7125
2211.52341	26360.0125
2214.44458	26299.0125
2217.36388	26278.4125
2220.28132	26274.0125
2223.1969	26229.4125
2226.11061	26194.0125
2229.02246	26152.0125
2231.93245	26106.9125
2234.84058	26137.1125
2237.74686	26029.6125
2240.65128	25972.5125
2243.55385	25905.7125
2246.45456	25912.3125
2249.35343	25854.7125
2252.25044	25812.1125
2255.14561	25787.0125
2258.03893	25726.1125
2260.93041	25695.7125
2263.82004	25620.0125
2266.70783	25536.6125
2269.59378	25472.1125
2272.4779	25426.4125
2275.36017	25349.0125
2278.24061	25303.4125
2281.11922	25237.1125
2283.996	25207.7125
2286.87094	25217.2125
2289.74405	25164.3125
2292.61534	25219.3125
2295.4848	25159.9125
2298.35243	25140.0125
2301.21824	25111.2125
2304.08223	25167.6125
2306.94439	25201.2125
2309.80474	25247.4125
2312.66327	25279.7125
2315.51999	25270.9125
2318.37489	25295.9125
2321.22797	25288.8125
2324.07925	25229.6125
2326.92871	25230.5125
2329.77637	25251.4125
2332.62222	25201.5125
2335.46626	25201.8125
2338.3085	25183.7125
2341.14893	25230.4125
2343.98756	25274.6125
2346.8244	25313.2125
2349.65943	25335.2125
2352.49267	25326.4125
2355.32411	25340.4125
2358.15376	25287.7125
2360.98161	25271.6125
2363.80768	25264.8125
2366.63195	25211.5125
2369.45444	25152.0125
2372.27514	25081.0125
2375.09405	24994.3125
2377.91118	24896.4125
2380.72652	24859.3125
2383.54009	24768.9125
2386.35187	24766.2125
2389.16188	24725.1125
2391.97011	24718.9125
2394.77657	24654.6125
2397.58125	24617.5125
2400.38416	24596.1125
2403.18529	24511.0125
2405.98466	24507.4125
2408.78226	24446.7125
2411.57809	24385.2125
2414.37216	24406.0125
2417.16446	24378.5125
2419.955	24303.8125
2422.74378	24280.3125
2425.5308	24215.8125
2428.31606	24253.5125
2431.09956	24255.5125
2433.88131	24169.1125
2436.6613	24215.5125
2439.43954	24209.6125
2442.21603	24204.9125
2444.99077	24202.9125
2447.76377	24207.4125
2450.53501	24183.6125
2453.30451	24182.4125
2456.07226	24202.2125
2458.83827	24156.2125
2461.60254	24166.4125
2464.36507	24161.1125
2467.12586	24135.8125
2469.88492	24177.1125
2472.64224	24207.9125
2475.39782	24249.5125
2478.15167	24285.1125
2480.90379	24248.1125
2483.65417	24280.0125
2486.40283	24271.4125
2489.14976	24353.1125
2491.89497	24344.1125
2494.63845	24445.1125
2497.3802	24382.6125
2500.12024	24388.9125
2502.85855	24382.1125
2505.59514	24378.1125
2508.33002	24369.2125
2511.06318	24289.0125
2513.79462	24245.2125
2516.52435	24259.5125
2519.25237	24218.9125
2521.97867	24153.4125
2524.70327	24118.1125
2527.42616	24128.7125
2530.14734	24166.2125
2532.86681	24097.4125
2535.58458	24088.6125
2538.30065	24069.4125
2541.01501	24041.7125
2543.72768	24024.8125
2546.43864	24055.7125
2549.14791	24007.8125
2551.85548	23992.9125
2554.56136	23990.0125
2557.26554	24004.2125
2559.96803	23986.1125
2562.66883	23963.6125
2565.36794	23912.5125
2568.06536	23947.1125
2570.7611	23938.3125
2573.45514	23914.6125
2576.14751	23910.4125
2578.83819	23878.9125
2581.52719	23897.2125
2584.21451	23909.7125
2586.90015	23908.4125
2589.58411	23897.2125
2592.2664	23910.0125
2594.94701	23859.7125
2597.62594	23877.0125
2600.30321	23829.2125
2602.9788	23878.0125
2605.65273	23829.7125
2608.32498	23830.1125
2610.99557	23844.7125
2613.66449	23862.3125
2616.33175	23825.6125
2618.99734	23893.4125
2621.66128	23911.8125
2624.32355	23910.8125
2626.98416	23932.3125
2629.64311	23902.7125
2632.30041	23922.0125
2634.95605	23916.8125
2637.61004	23893.0125
2640.26238	23875.4125
2642.91306	23843.4125
2645.56209	23788.6125
2648.20948	23785.5125
2650.85521	23733.3125
2653.4993	23716.3125
2656.14175	23693.1125
2658.78255	23743.3125
2661.42171	23697.5125
2664.05923	23761.9125
2666.6951	23772.1125
2669.32934	23782.9125
2671.96194	23808.2125
2674.59291	23845.8125
2677.22224	23827.4125
2679.84993	23810.7125
2682.476	23781.6125
2685.10043	23804.2125
2687.72324	23733.5125
2690.34441	23724.8125
2692.96396	23751.4125
2695.58188	23735.8125
2698.19818	23708.1125
2700.81285	23712.0125
2703.4259	23705.8125
2706.03733	23729.6125
2708.64714	23694.0125
2711.25533	23699.1125
2713.86191	23718.7125
2716.46687	23766.8125
2719.07021	23787.9125
2721.67194	23821.3125
2724.27206	23743.3125
2726.87057	23797.9125
2729.46747	23806.6125
2732.06276	23844.4125
2734.65644	23824.8125
2737.24852	23846.8125
2739.83899	23782.0125
2742.42786	23820.4125
2745.01513	23787.3125
2747.60079	23779.0125
2750.18486	23775.4125
2752.76733	23734.5125
2755.3482	23733.6125
2757.92747	23722.3125
2760.50515	23711.3125
2763.08123	23781.1125
2765.65573	23743.2125
2768.22863	23717.9125
2770.79994	23670.4125
2773.36967	23704.6125
2775.9378	23698.2125
2778.50435	23717.2125
2781.06932	23688.0125
2783.6327	23683.1125
2786.1945	23679.0125
2788.75471	23634.3125
2791.31335	23566.4125
2793.87041	23571.0125
2796.42589	23515.8125
2798.97979	23538.4125
2801.53212	23485.4125
2804.08288	23467.0125
2806.63206	23403.1125
2809.17967	23324.1125
2811.72571	23307.2125
2814.27018	23304.7125
2816.81308	23267.4125
2819.35442	23260.1125
2821.89419	23247.7125
2824.43239	23255.8125
2826.96904	23275.2125
2829.50412	23259.3125
2832.03763	23247.4125
2834.56959	23259.2125
2837.1	23205.1125
2839.62884	23212.9125
2842.15613	23229.3125
2844.68186	23220.6125
2847.20604	23256.1125
2849.72867	23302.8125
2852.24974	23262.9125
2854.76927	23287.5125
2857.28724	23245.5125
2859.80367	23244.7125
2862.31855	23175.4125
2864.83189	23193.4125
2867.34368	23153.9125
2869.85393	23150.7125
2872.36264	23169.7125
2874.8698	23210.4125
2877.37543	23236.3125
2879.87952	23227.8125
2882.38207	23249.6125
2884.88308	23195.4125
2887.38256	23176.7125
2889.88051	23219.0125
2892.37692	23236.9125
2894.8718	23267.5125
2897.36515	23324.8125
2899.85698	23300.4125
2902.34727	23326.2125
2904.83604	23360.2125
2907.32328	23348.4125
2909.809	23345.8125
2912.29319	23362.2125
2914.77587	23386.5125
2917.25702	23381.0125
2919.73665	23358.7125
2922.21476	23344.8125
2924.69136	23364.7125
2927.16644	23292.5125
2929.64	23248.9125
2932.11205	23178.0125
2934.58258	23123.6125
2937.05161	23119.4125
2939.51912	23127.6125
2941.98513	23047.8125
2944.44962	23023.6125
2946.91261	22934.7125
2949.37409	22963.6125
2951.83407	22927.0125
2954.29254	22940.0125
2956.74951	22853.6125
2959.20498	22853.9125
2961.65895	22810.7125
2964.11142	22789.6125
2966.56239	22690.8125
2969.01186	22669.6125
2971.45984	22583.8125
2973.90632	22545.9125
2976.35131	22506.7125
2978.7948	22486.2125
2981.23681	22399.2125
2983.67732	22267.2125
2986.11635	22228.3125
2988.55388	22182.9125
2990.98993	22179.2125
2993.4245	22050.1125
2995.85758	22077.2125
2998.28917	21985.9125
3000.71928	22012.4125
3003.14791	21957.0125
3005.57506	21909.7125
3008.00073	21842.3125
3010.42493	21832.2125
3012.84764	21786.0125
3015.26888	21765.4125
3017.68865	21716.2125
3020.10694	21668.0125
3022.52376	21617.5125
