Data from AgNPs_FTO_APTES_UA_2uM_CRN_0uM_R6G_10uM_NaF_0.1M_Addition_RamanShift__42__10-53-24-968.txt Node

Date: Wed Feb 02 10:53:24 GMT 2022
User: TCL
Spectrometer: QEP01345
Trigger mode: 4
Integration Time (sec): 7.000000E0
Scans to average: 10
Electric dark correction enabled: true
Nonlinearity correction enabled: false
Boxcar width: 0
XAxis mode: Raman Shifts
Number of Pixels in Spectrum: 1044
>>>>>Begin Spectral Data<<<<<
46.04893	0.25
50.45542	-0.15
54.85868	-0.05
59.25871	-0.85
63.6555	65.25
68.04907	67.85
72.43941	68.35
76.82654	75.35
81.21044	75.75
85.59113	78.75
89.96862	82.95
94.34289	83.15
98.71396	89.45
103.08183	91.95
107.4465	93.35
111.80798	97.25
116.16626	97.55
120.52136	102.65
124.87327	109.65
129.222	116.25
133.56755	127.35
137.90993	137.45
142.24913	155.65
146.58517	178.25
150.91804	213.75
155.24774	257.55
159.57429	317.75
163.89768	423.35
168.21792	557.75
172.53501	774.45
176.84895	1068.75
181.15975	1513.35
185.46741	2122.45
189.77193	2935.55
194.07331	3923.85
198.37157	5064.05
202.6667	6265.55
206.9587	7452.65
211.24758	8622.15
215.53334	9786.75
219.81599	11033.45
224.09553	12369.75
228.37195	13932.85
232.64527	15554.05
236.91549	17240.65
241.18261	18998.55
245.44663	20611.65
249.70755	22108.65
253.96539	23355.25
258.22014	24471.25
262.4718	25279.95
266.72039	25786.85
270.96589	25956.95
275.20832	25946.05
279.44768	25687.15
283.68397	25433.05
287.91719	25173.35
292.14735	24966.45
296.37445	24857.05
300.59849	24795.85
304.81948	24853.35
309.03742	24842.35
313.25231	24767.75
317.46415	24409.15
321.67296	23821.35
325.87872	23307.05
330.08145	22991.25
334.28114	22855.75
338.47781	22932.25
342.67145	23076.95
346.86207	23349.85
351.04966	23645.75
355.23424	23956.95
359.4158	24281.45
363.59435	24515.65
367.76989	24640.55
371.94243	24672.75
376.11196	24605.65
380.27849	24478.05
384.44203	24404.55
388.60257	24576.95
392.76012	24897.35
396.91468	25329.95
401.06626	25818.65
405.21485	26085.95
409.36047	25912.65
413.50311	25617.65
417.64277	25438.75
421.77947	25563.15
425.9132	25765.25
430.04396	25937.95
434.17176	26003.25
438.2966	26036.85
442.41849	26282.35
446.53742	26793.45
450.6534	27336.95
454.76644	27715.05
458.87653	27797.45
462.98368	27867.45
467.08789	27704.65
471.18916	27489.75
475.2875	27266.35
479.38291	27215.85
483.4754	27302.55
487.56496	27246.45
491.6516	26864.55
495.73531	26342.05
499.81612	25930.05
503.89401	25860.15
507.96899	25900.95
512.04106	25877.95
516.11023	25669.65
520.1765	25313.65
524.23987	24913.75
528.30034	24572.65
532.35792	24308.85
536.41261	24014.25
540.46441	23773.65
544.51333	23780.85
548.55936	24090.85
552.60252	24656.05
556.64279	25308.15
560.6802	25834.15
564.71473	26340.85
568.7464	27137.25
572.7752	28440.35
576.80114	30082.15
580.82422	31515.35
584.84444	32802.95
588.86181	34555.15
592.87633	36289.55
596.888	36313.15
600.89682	34041.85
604.9028	32020.65
608.90594	32339.45
612.90624	33235.55
616.90371	31011.85
620.89834	26988.15
624.89015	25223.85
628.87913	25200.25
632.86528	25538.85
636.84862	25396.45
640.82913	24692.35
644.80683	23877.75
648.78172	23395.85
652.75379	23255.05
656.72306	23457.85
660.68952	23631.75
664.65319	23497.45
668.61405	23190.25
672.57211	23068.95
676.52738	23194.85
680.47986	23153.65
684.42955	23003.15
688.37646	22863.65
692.32058	22995.05
696.26192	23310.05
700.20048	23692.55
704.13626	24030.05
708.06928	24290.95
711.99952	24390.15
715.927	24299.85
719.85171	24158.85
723.77365	23783.45
727.69284	23335.95
731.60928	22886.05
735.52295	22739.35
739.43388	22692.35
743.34206	22767.95
747.24749	22920.35
751.15017	23302.05
755.05012	23838.85
758.94733	24642.55
762.8418	25851.45
766.73354	27589.85
770.62254	29015.95
774.50882	28928.45
778.39237	27441.55
782.27321	25735.95
786.15132	24409.75
790.02671	23497.15
793.89938	23009.55
797.76935	22701.65
801.6366	22545.65
805.50115	22474.15
809.36299	22420.15
813.22213	22364.65
817.07857	22368.85
820.93231	22304.15
824.78336	22166.75
828.63172	22016.65
832.47738	21876.35
836.32036	21805.85
840.16066	21792.25
843.99827	21794.15
847.8332	21771.65
851.66546	21800.05
855.49504	21893.75
859.32195	21923.55
863.1462	21859.15
866.96777	21798.65
870.78668	21792.65
874.60293	21817.65
878.41652	21825.95
882.22745	21917.25
886.03573	22024.65
889.84136	22078.85
893.64433	22084.55
897.44466	22127.35
901.24235	22248.05
905.0374	22253.35
908.8298	22265.05
912.61957	22423.55
916.40671	22733.45
920.19121	23200.25
923.97308	23580.75
927.75233	23638.35
931.52895	23227.05
935.30295	22541.75
939.07433	21853.25
942.84309	21410.25
946.60924	21046.35
950.37278	20874.15
954.13371	20839.95
957.89203	20795.45
961.64774	20785.35
965.40086	20766.55
969.15137	20687.75
972.89929	20486.55
976.64461	20256.15
980.38733	20103.05
984.12747	20093.65
987.86502	20122.25
991.59999	20158.95
995.33237	20272.05
999.06217	20462.75
1002.78939	20825.55
1006.51404	21204.25
1010.23611	21714.15
1013.95561	22045.85
1017.67255	22060.25
1021.38692	21814.95
1025.09872	21400.25
1028.80796	21112.85
1032.51465	20944.25
1036.21877	21012.05
1039.92035	21115.55
1043.61937	21264.35
1047.31584	21408.45
1051.00976	21535.75
1054.70114	21651.75
1058.38998	21815.05
1062.07627	22089.35
1065.76003	22411.55
1069.44126	22868.75
1073.11995	23413.65
1076.79611	23830.75
1080.46974	23912.35
1084.14085	24003.65
1087.80943	24237.45
1091.47549	24572.75
1095.13903	24801.45
1098.80005	24464.75
1102.45857	23596.85
1106.11456	22804.25
1109.76805	22354.85
1113.41903	22192.85
1117.06751	22292.95
1120.71348	22460.75
1124.35696	22698.25
1127.99793	23054.25
1131.63641	23325.25
1135.2724	23363.35
1138.90589	23354.95
1142.5369	23544.55
1146.16542	23881.95
1149.79145	24297.85
1153.415	24773.95
1157.03607	25272.75
1160.65467	26101.05
1164.27079	27408.05
1167.88443	28933.65
1171.49561	30486.05
1175.10432	32356.75
1178.71056	34672.65
1182.31434	36768.65
1185.91565	37844.45
1189.51451	37835.55
1193.11091	37148.95
1196.70485	35927.05
1200.29634	34490.15
1203.88538	33558.55
1207.47197	33253.05
1211.05612	33302.05
1214.63782	32899.35
1218.21708	31847.15
1221.79391	30507.75
1225.36829	29408.45
1228.94024	28795.65
1232.50976	28436.35
1236.07685	28037.35
1239.6415	27763.85
1243.20374	27634.85
1246.76355	27756.65
1250.32093	28057.95
1253.8759	28665.35
1257.42845	29590.45
1260.97859	30646.15
1264.52631	31842.35
1268.07163	32878.15
1271.61453	34027.95
1275.15503	35264.25
1278.69312	36722.25
1282.22882	38465.45
1285.76211	40486.25
1289.29301	42616.65
1292.82151	44834.85
1296.34761	47468.25
1299.87133	50285.45
1303.39266	52815.85
1306.9116	54488.85
1310.42815	55404.55
1313.94233	55478.55
1317.45412	54920.15
1320.96354	54412.65
1324.47058	54333.85
1327.97525	54509.85
1331.47754	54370.05
1334.97747	53744.85
1338.47502	52852.35
1341.97022	51834.85
1345.46305	50839.65
1348.95352	50036.65
1352.44163	49260.65
1355.92738	49374.25
1359.41078	50508.75
1362.89183	51931.15
1366.37053	52082.15
1369.84688	49292.25
1373.32088	44530.95
1376.79254	40824.45
1380.26186	39467.85
1383.72883	39481.45
1387.19347	39548.95
1390.65578	39177.75
1394.11575	38985.55
1397.57339	39339.25
1401.0287	39920.85
1404.48168	40257.15
1407.93234	39689.95
1411.38068	38239.85
1414.82669	36270.85
1418.27039	34394.55
1421.71177	32656.15
1425.15083	31388.75
1428.58758	30918.75
1432.02203	31238.85
1435.45416	32176.55
1438.88399	33245.55
1442.31151	34027.95
1445.73673	34591.65
1449.15965	35146.35
1452.58027	35503.85
1455.9986	35787.25
1459.41463	36066.35
1462.82837	36489.35
1466.23982	37030.25
1469.64898	37341.25
1473.05586	37437.65
1476.46045	37336.35
1479.86276	37156.65
1483.26279	36995.05
1486.66054	37136.25
1490.05602	37632.45
1493.44922	38482.35
1496.84016	39511.25
1500.22882	40511.35
1503.61521	41375.05
1506.99934	42104.15
1510.38121	42660.35
1513.76081	42842.15
1517.13816	42706.15
1520.51324	42554.95
1523.88607	42618.05
1527.25665	42809.35
1530.62498	42818.15
1533.99105	42183.55
1537.35488	40922.65
1540.71647	39201.45
1544.07581	37315.15
1547.4329	35624.35
1550.78776	34402.65
1554.14038	33650.25
1557.49077	33371.15
1560.83892	33310.75
1564.18484	33357.45
1567.52853	33483.35
1570.86999	33885.85
1574.20922	34780.95
1577.54624	35786.15
1580.88103	36505.95
1584.2136	37317.55
1587.54395	38791.75
1590.87208	40790.35
1594.19801	42825.55
1597.52172	44094.15
1600.84321	43403.05
1604.16251	40321.25
1607.47959	36330.25
1610.79447	32727.05
1614.10715	29748.05
1617.41763	27517.75
1620.7259	26025.85
1624.03199	25381.05
1627.33587	25606.95
1630.63757	26683.05
1633.93707	28910.75
1637.23439	32644.95
1640.52951	38245.85
1643.82246	45002.25
1647.11321	50543.55
1650.40179	51765.55
1653.68819	47620.35
1656.97241	40449.55
1660.25446	33319.35
1663.53433	27946.85
1666.81203	24497.95
1670.08756	22410.65
1673.36092	21086.35
1676.63211	20220.45
1679.90115	19684.55
1683.16801	19228.55
1686.43272	18928.25
1689.69527	18723.95
1692.95567	18547.45
1696.2139	18392.45
1699.46999	18284.55
1702.72392	18186.25
1705.97571	18088.35
1709.22535	18005.95
1712.47284	17942.95
1715.71819	17923.05
1718.96139	17816.45
1722.20246	17732.85
1725.44139	17632.25
1728.67818	17519.95
1731.91284	17362.25
1735.14537	17261.55
1738.37576	17179.45
1741.60403	17106.45
1744.83017	17023.65
1748.05418	16955.85
1751.27607	16882.15
1754.49584	16826.35
1757.71349	16843.25
1760.92903	16797.85
1764.14244	16799.55
1767.35375	16763.75
1770.56294	16723.15
1773.77002	16681.35
1776.97499	16626.55
1780.17785	16559.65
1783.37861	16530.35
1786.57727	16495.35
1789.77382	16444.75
1792.96828	16402.85
1796.16064	16353.65
1799.3509	16336.45
1802.53907	16302.65
1805.72514	16259.25
1808.90913	16227.25
1812.09102	16204.05
1815.27083	16169.25
1818.44856	16137.15
1821.6242	16111.75
1824.79776	16078.05
1827.96924	16074.65
1831.13864	16027.05
1834.30597	16059.85
1837.47122	16070.25
1840.6344	16076.15
1843.7955	16110.95
1846.95454	16080.75
1850.11151	16100.45
1853.26642	16099.75
1856.41926	16069.25
1859.57004	16059.85
1862.71876	16015.25
1865.86542	15982.85
1869.01003	15969.25
1872.15258	15950.65
1875.29308	15898.85
1878.43152	15873.45
1881.56792	15872.95
1884.70227	15820.55
1887.83457	15782.55
1890.96482	15710.65
1894.09304	15690.35
1897.21921	15655.45
1900.34335	15604.65
1903.46544	15592.35
1906.58551	15587.85
1909.70353	15519.85
1912.81953	15511.25
1915.93349	15451.85
1919.04543	15380.45
1922.15534	15370.35
1925.26322	15285.35
1928.36908	15246.35
1931.47292	15198.75
1934.57473	15142.85
1937.67453	15064.35
1940.77232	15018.75
1943.86808	14991.05
1946.96184	14943.45
1950.05358	14918.35
1953.14331	14812.05
1956.23103	14809.75
1959.31675	14761.25
1962.40046	14684.35
1965.48217	14652.65
1968.56188	14589.25
1971.63959	14500.35
1974.7153	14462.95
1977.78901	14389.35
1980.86073	14338.05
1983.93046	14297.15
1986.99819	14256.15
1990.06394	14198.65
1993.1277	14180.65
1996.18947	14089.25
1999.24925	14072.95
2002.30706	14008.15
2005.36288	13956.65
2008.41672	13903.85
2011.46859	13849.15
2014.51848	13848.55
2017.56639	13732.25
2020.61233	13687.05
2023.6563	13689.65
2026.6983	13660.35
2029.73833	13613.95
2032.7764	13577.55
2035.8125	13543.65
2038.84664	13540.95
2041.87881	13495.25
2044.90903	13449.45
2047.93729	13465.15
2050.96359	13457.15
2053.98794	13425.65
2057.01034	13421.55
2060.03078	13408.55
2063.04927	13408.25
2066.06582	13398.35
2069.08042	13367.35
2072.09307	13402.15
2075.10378	13396.25
2078.11255	13427.05
2081.11938	13436.05
2084.12426	13381.25
2087.12722	13393.95
2090.12824	13357.05
2093.12732	13399.25
2096.12447	13404.35
2099.11969	13403.15
2102.11299	13419.95
2105.10435	13373.05
2108.09379	13334.65
2111.08131	13331.75
2114.0669	13319.35
2117.05057	13331.35
2120.03233	13334.65
2123.01216	13290.75
2125.99008	13288.65
2128.96609	13273.95
2131.94018	13265.25
2134.91236	13242.75
2137.88263	13216.35
2140.851	13236.55
2143.81746	13219.25
2146.78201	13166.45
2149.74466	13151.25
2152.7054	13173.95
2155.66425	13110.15
2158.6212	13159.25
2161.57625	13125.25
2164.52941	13114.25
2167.48067	13091.65
2170.43004	13078.45
2173.37752	13077.05
2176.32311	13063.55
2179.26681	13056.35
2182.20863	13078.95
2185.14856	13071.25
2188.08661	13070.15
2191.02278	13039.65
2193.95707	13045.85
2196.88948	12994.85
2199.82001	12984.05
2202.74867	12945.95
2205.67545	12972.05
2208.60037	12915.65
2211.52341	12903.95
2214.44458	12867.75
2217.36388	12838.55
2220.28132	12806.15
2223.1969	12791.15
2226.11061	12759.05
2229.02246	12733.65
2231.93245	12756.75
2234.84058	12746.85
2237.74686	12695.25
2240.65128	12709.95
2243.55385	12693.05
2246.45456	12638.65
2249.35343	12609.55
2252.25044	12532.95
2255.14561	12511.15
2258.03893	12498.45
2260.93041	12455.85
2263.82004	12389.25
2266.70783	12385.85
2269.59378	12322.05
2272.4779	12298.75
2275.36017	12273.65
2278.24061	12227.05
2281.11922	12216.55
2283.996	12188.85
2286.87094	12172.35
2289.74405	12140.45
2292.61534	12116.75
2295.4848	12086.85
2298.35243	12067.45
2301.21824	12040.25
2304.08223	12003.65
2306.94439	11987.35
2309.80474	11998.75
2312.66327	11995.05
2315.51999	11982.75
2318.37489	11939.05
2321.22797	11937.85
2324.07925	11922.85
2326.92871	11892.25
2329.77637	11910.15
2332.62222	11889.35
2335.46626	11853.65
2338.3085	11848.85
2341.14893	11838.25
2343.98756	11809.15
2346.8244	11838.55
2349.65943	11803.25
2352.49267	11791.85
2355.32411	11795.55
2358.15376	11785.05
2360.98161	11773.75
2363.80768	11770.45
2366.63195	11784.15
2369.45444	11772.95
2372.27514	11761.75
2375.09405	11683.65
2377.91118	11714.55
2380.72652	11672.35
2383.54009	11658.65
2386.35187	11622.55
2389.16188	11556.65
2391.97011	11508.55
2394.77657	11509.25
2397.58125	11485.25
2400.38416	11485.25
2403.18529	11458.95
2405.98466	11447.35
2408.78226	11399.25
2411.57809	11412.75
2414.37216	11384.65
2417.16446	11376.75
2419.955	11379.75
2422.74378	11342.95
2425.5308	11329.75
2428.31606	11333.65
2431.09956	11327.55
2433.88131	11290.75
2436.6613	11318.65
2439.43954	11268.55
2442.21603	11279.75
2444.99077	11292.25
2447.76377	11271.85
2450.53501	11270.55
2453.30451	11246.65
2456.07226	11240.35
2458.83827	11251.35
2461.60254	11216.75
2464.36507	11233.75
2467.12586	11193.65
2469.88492	11203.75
2472.64224	11180.25
2475.39782	11202.75
2478.15167	11185.65
2480.90379	11150.05
2483.65417	11185.25
2486.40283	11180.15
2489.14976	11165.85
2491.89497	11151.45
2494.63845	11149.25
2497.3802	11146.65
2500.12024	11138.95
2502.85855	11135.45
2505.59514	11102.55
2508.33002	11112.85
2511.06318	11084.65
2513.79462	11066.55
2516.52435	11049.45
2519.25237	11044.25
2521.97867	11017.35
2524.70327	11006.35
2527.42616	10999.15
2530.14734	11010.05
2532.86681	10958.75
2535.58458	10971.05
2538.30065	10920.05
2541.01501	10902.55
2543.72768	10891.25
2546.43864	10864.25
2549.14791	10855.45
2551.85548	10866.35
2554.56136	10838.25
2557.26554	10803.75
2559.96803	10821.75
2562.66883	10796.65
2565.36794	10800.85
2568.06536	10802.45
2570.7611	10781.05
2573.45514	10733.95
2576.14751	10744.95
2578.83819	10724.35
2581.52719	10772.35
2584.21451	10714.55
2586.90015	10689.85
2589.58411	10629.65
2592.2664	10654.15
2594.94701	10637.35
2597.62594	10633.05
2600.30321	10578.75
2602.9788	10594.85
2605.65273	10585.75
2608.32498	10601.85
2610.99557	10583.35
2613.66449	10572.15
2616.33175	10572.95
2618.99734	10577.65
2621.66128	10574.55
2624.32355	10570.35
2626.98416	10551.65
2629.64311	10536.55
2632.30041	10559.75
2634.95605	10501.95
2637.61004	10511.35
2640.26238	10513.95
2642.91306	10488.85
2645.56209	10476.25
2648.20948	10489.45
2650.85521	10494.25
2653.4993	10486.95
2656.14175	10496.95
2658.78255	10493.35
2661.42171	10487.85
2664.05923	10491.75
2666.6951	10480.85
2669.32934	10485.85
2671.96194	10504.45
2674.59291	10510.65
2677.22224	10480.25
2679.84993	10472.15
2682.476	10492.35
2685.10043	10483.05
2687.72324	10476.05
2690.34441	10466.65
2692.96396	10454.35
2695.58188	10455.35
2698.19818	10475.35
2700.81285	10440.45
2703.4259	10449.15
2706.03733	10443.75
2708.64714	10460.65
2711.25533	10469.05
2713.86191	10449.95
2716.46687	10479.55
2719.07021	10463.25
2721.67194	10474.55
2724.27206	10443.75
2726.87057	10452.35
2729.46747	10474.45
2732.06276	10457.75
2734.65644	10441.05
2737.24852	10485.65
2739.83899	10447.45
2742.42786	10429.35
2745.01513	10430.45
2747.60079	10409.55
2750.18486	10413.35
2752.76733	10430.65
2755.3482	10405.55
2757.92747	10393.95
2760.50515	10412.05
2763.08123	10402.95
2765.65573	10370.05
2768.22863	10367.65
2770.79994	10363.45
2773.36967	10347.45
2775.9378	10380.35
2778.50435	10355.25
2781.06932	10318.75
2783.6327	10336.55
2786.1945	10310.75
2788.75471	10314.45
2791.31335	10269.55
2793.87041	10273.65
2796.42589	10256.05
2798.97979	10237.15
2801.53212	10233.65
2804.08288	10227.35
2806.63206	10201.15
2809.17967	10199.55
2811.72571	10168.45
2814.27018	10147.95
2816.81308	10149.05
2819.35442	10125.95
2821.89419	10104.25
2824.43239	10099.55
2826.96904	10087.25
2829.50412	10089.75
2832.03763	10046.95
2834.56959	10039.75
2837.1	10024.75
2839.62884	10029.35
2842.15613	10045.25
2844.68186	10074.95
2847.20604	10097.15
2849.72867	10110.35
2852.24974	10115.15
2854.76927	10096.75
2857.28724	10082.25
2859.80367	10081.85
2862.31855	10053.25
2864.83189	10000.45
2867.34368	10026.15
2869.85393	9980.45
2872.36264	9988.75
2874.8698	9992.75
2877.37543	10011.15
2879.87952	10010.85
2882.38207	10016.25
2884.88308	10014.85
2887.38256	10024.15
2889.88051	9990.55
2892.37692	9976.85
2894.8718	9998.35
2897.36515	10041.75
2899.85698	10018.55
2902.34727	10041.85
2904.83604	10034.65
2907.32328	10052.05
2909.809	10015.85
2912.29319	10023.65
2914.77587	10012.95
2917.25702	10007.65
2919.73665	10028.25
2922.21476	10041.55
2924.69136	10010.45
2927.16644	9991.95
2929.64	9995.75
2932.11205	10005.05
2934.58258	9975.95
2937.05161	9964.75
2939.51912	9971.25
2941.98513	9941.85
2944.44962	9902.35
2946.91261	9837.55
2949.37409	9844.65
2951.83407	9827.55
2954.29254	9820.35
2956.74951	9778.85
2959.20498	9739.85
2961.65895	9720.95
2964.11142	9712.15
2966.56239	9685.45
2969.01186	9678.25
2971.45984	9662.75
2973.90632	9622.65
2976.35131	9599.15
2978.7948	9537.05
2981.23681	9523.25
2983.67732	9484.35
2986.11635	9449.75
2988.55388	9415.75
2990.98993	9418.05
2993.4245	9349.05
2995.85758	9346.85
2998.28917	9326.55
3000.71928	9306.45
3003.14791	9315.95
3005.57506	9287.65
3008.00073	9228.85
3010.42493	9236.45
3012.84764	9220.55
3015.26888	9190.85
3017.68865	9173.85
3020.10694	9152.85
3022.52376	9111.45
3024.9391	9084.55
3027.35298	9101.55
3029.76539	9099.15
3032.17632	9060.75
3034.5858	9042.95
3036.9938	9019.15
3039.40034	8998.25
3041.80542	9015.05
3044.20903	8976.95
3046.61118	8992.65
3049.01187	8961.25
3051.4111	8931.55
3053.80888	8939.95
3056.20519	8881.85
3058.60005	8870.15
3060.99345	8844.05
3063.3854	8827.45
3065.7759	8787.15
3068.16494	8781.75
3070.55254	8737.15
3072.93868	8705.45
3075.32338	8690.85
3077.70662	8673.05
3080.08842	8636.25
3082.46878	8646.05
3084.84769	8615.55
3087.22515	8609.25
3089.60118	8610.35
3091.97576	8602.35
3094.3489	8590.65
3096.72061	8591.35
3099.09087	8558.95
3101.4597	8539.45
3103.82709	8540.05
3106.19305	8509.75
3108.55757	8545.55
3110.92066	8493.35
3113.28232	8468.15
3115.64255	8422.15
3118.00134	8407.05
3120.35871	8407.65
3122.71466	8401.05
3125.06917	8348.75
3127.42226	8357.05
3129.77393	8361.55
3132.12417	8346.25
3134.47299	8344.85
3136.82039	8318.35
3139.16636	8324.25
3141.51092	8337.15
3143.85406	8319.45
3146.19579	8321.65
3148.53609	8324.95
3150.87499	8320.15
3153.21246	8327.05
3155.54853	8327.35
3157.88318	8311.35
3160.21642	8312.65
3162.54826	8278.15
3164.87868	8307.05
3167.2077	8285.05
3169.5353	8273.95
3171.86151	8272.35
3174.18631	8258.75
3176.5097	8261.15
3178.83169	8252.45
3181.15228	8254.85
3183.47147	8212.45
3185.78926	8213.05
3188.10565	8207.35
3190.42065	8197.55
3192.73424	8212.25
3195.04645	8191.15
3197.35725	8171.25
3199.66667	8171.05
3201.97469	8157.45
3204.28132	8154.45
3206.58656	8138.85
3208.8904	8151.55
3211.19287	8131.05
3213.49394	8123.15
3215.79363	8124.75
3218.09193	8116.25
3220.38884	8128.45
3222.68438	8143.15
3224.97853	8084.25
3227.2713	8107.05
3229.56269	8102.25
3231.8527	8085.15
3234.14133	8065.55
3236.42858	8094.95
3238.71446	8068.55
3240.99896	8051.65
3243.28209	8057.65
3245.56384	8024.05
3247.84423	8019.75
3250.12324	8015.35
3252.40088	8014.15
3254.67715	7983.25
