Data from AgNPs_FTO_APTES_UA_2uM_CRN_20uM_R6G_10uM_NaF_0.1M_Addition_RamanShift__28__14-30-25-220.txt Node

Date: Wed Feb 02 14:30:25 GMT 2022
User: TCL
Spectrometer: QEP01345
Trigger mode: 4
Integration Time (sec): 7.000000E0
Scans to average: 10
Electric dark correction enabled: true
Nonlinearity correction enabled: false
Boxcar width: 0
XAxis mode: Raman Shifts
Number of Pixels in Spectrum: 1044
>>>>>Begin Spectral Data<<<<<
46.04893	0.425
50.45542	1.825
54.85868	-1.075
59.25871	-0.475
63.6555	63.725
68.04907	71.825
72.43941	73.225
76.82654	84.325
81.21044	84.625
85.59113	92.125
89.96862	90.825
94.34289	93.225
98.71396	98.125
103.08183	103.025
107.4465	107.725
111.80798	106.025
116.16626	108.425
120.52136	109.225
124.87327	111.225
129.222	118.525
133.56755	123.525
137.90993	130.825
142.24913	147.025
146.58517	158.725
150.91804	176.725
155.24774	207.425
159.57429	252.625
163.89768	322.925
168.21792	409.225
172.53501	557.925
176.84895	772.525
181.15975	1067.025
185.46741	1501.525
189.77193	2052.425
194.07331	2743.425
198.37157	3529.325
202.6667	4341.425
206.9587	5156.125
211.24758	5974.625
215.53334	6816.125
219.81599	7727.025
224.09553	8803.925
228.37195	9930.425
232.64527	11236.025
236.91549	12504.225
241.18261	13668.925
245.44663	14670.225
249.70755	15518.925
253.96539	16233.725
258.22014	16884.825
262.4718	17453.425
266.72039	17987.525
270.96589	18229.025
275.20832	18370.225
279.44768	18391.725
283.68397	18363.925
287.91719	18385.025
292.14735	18531.425
296.37445	18831.325
300.59849	19189.425
304.81948	19665.025
309.03742	19968.925
313.25231	19826.025
317.46415	18980.125
321.67296	17611.025
325.87872	16533.425
330.08145	15989.925
334.28114	15886.925
338.47781	16103.725
342.67145	16469.825
346.86207	17080.225
351.04966	17899.525
355.23424	18831.225
359.4158	19516.025
363.59435	19810.625
367.76989	19824.425
371.94243	19728.125
376.11196	19518.925
380.27849	19365.025
384.44203	19207.225
388.60257	19003.625
392.76012	19001.625
396.91468	19317.225
401.06626	19865.225
405.21485	20261.425
409.36047	20013.525
413.50311	19181.625
417.64277	18366.425
421.77947	17988.625
425.9132	17843.625
430.04396	17902.125
434.17176	18011.825
438.2966	18160.825
442.41849	18457.725
446.53742	18950.525
450.6534	19476.825
454.76644	19807.525
458.87653	19884.025
462.98368	19800.525
467.08789	19585.625
471.18916	19192.625
475.2875	18793.425
479.38291	18464.225
483.4754	18203.625
487.56496	17974.125
491.6516	17792.025
495.73531	17710.625
499.81612	17731.325
503.89401	17932.525
507.96899	18043.625
512.04106	18100.025
516.11023	18147.025
520.1765	18150.625
524.23987	18014.425
528.30034	17690.325
532.35792	17342.225
536.41261	16976.925
540.46441	16703.325
544.51333	16633.525
548.55936	16895.925
552.60252	17397.125
556.64279	17919.525
560.6802	18168.925
564.71473	18441.425
568.7464	19068.625
572.7752	19682.125
576.80114	19500.525
580.82422	19155.925
584.84444	19017.925
588.86181	18822.125
592.87633	18698.225
596.888	18821.225
600.89682	19409.425
604.9028	21286.125
608.90594	26117.925
612.90624	32076.025
616.90371	30567.825
620.89834	22132.525
624.89015	18155.825
628.87913	17422.425
632.86528	17563.825
636.84862	17772.125
640.82913	17502.325
644.80683	16756.025
648.78172	16250.525
652.75379	16309.825
656.72306	16875.425
660.68952	17675.725
664.65319	17577.625
668.61405	16839.425
672.57211	16483.325
676.52738	16454.225
680.47986	16407.625
684.42955	16287.925
688.37646	16202.825
692.32058	16288.725
696.26192	16485.325
700.20048	16725.825
704.13626	16976.825
708.06928	17067.425
711.99952	16855.525
715.927	16735.425
719.85171	16671.525
723.77365	16604.725
727.69284	16355.825
731.60928	16145.025
735.52295	16074.525
739.43388	16099.825
743.34206	16190.625
747.24749	16334.625
751.15017	16563.025
755.05012	16953.125
758.94733	17844.025
762.8418	19667.125
766.73354	22796.625
770.62254	25845.425
774.50882	26823.525
778.39237	25262.125
782.27321	22050.225
786.15132	19130.725
790.02671	17431.825
793.89938	16594.025
797.76935	16243.025
801.6366	16025.825
805.50115	15909.425
809.36299	15825.825
813.22213	15719.925
817.07857	15699.525
820.93231	15687.325
824.78336	15707.825
828.63172	15780.125
832.47738	15821.525
836.32036	15748.925
840.16066	15659.225
843.99827	15571.925
847.8332	15538.425
851.66546	15518.525
855.49504	15549.425
859.32195	15451.225
863.1462	15378.625
866.96777	15288.625
870.78668	15251.525
874.60293	15259.925
878.41652	15286.025
882.22745	15353.825
886.03573	15438.325
889.84136	15418.925
893.64433	15298.525
897.44466	15235.125
901.24235	15279.725
905.0374	15224.025
908.8298	15195.525
912.61957	15236.225
916.40671	15406.825
920.19121	15663.125
923.97308	15793.325
927.75233	15850.825
931.52895	15861.125
935.30295	15567.125
939.07433	15107.725
942.84309	14757.625
946.60924	14546.425
950.37278	14446.225
954.13371	14374.725
957.89203	14302.225
961.64774	14281.725
965.40086	14217.125
969.15137	14199.625
972.89929	14136.025
976.64461	14104.825
980.38733	14087.825
984.12747	14107.325
987.86502	14197.425
991.59999	14323.825
995.33237	14484.925
999.06217	14825.325
1002.78939	15329.225
1006.51404	15750.725
1010.23611	16135.225
1013.95561	16333.825
1017.67255	16260.125
1021.38692	16019.325
1025.09872	15745.225
1028.80796	15598.325
1032.51465	15701.325
1036.21877	15900.325
1039.92035	16055.325
1043.61937	16081.925
1047.31584	16010.525
1051.00976	15912.625
1054.70114	15860.725
1058.38998	15931.525
1062.07627	16161.025
1065.76003	16327.325
1069.44126	16546.525
1073.11995	16746.725
1076.79611	16934.525
1080.46974	17026.825
1084.14085	17335.225
1087.80943	17709.325
1091.47549	17956.825
1095.13903	17764.925
1098.80005	17227.825
1102.45857	16611.525
1106.11456	16214.625
1109.76805	16100.425
1113.41903	16276.525
1117.06751	16662.625
1120.71348	17203.525
1124.35696	17840.125
1127.99793	18438.925
1131.63641	18472.425
1135.2724	17853.625
1138.90589	17228.025
1142.5369	16896.925
1146.16542	16661.625
1149.79145	16605.625
1153.415	16658.325
1157.03607	16927.125
1160.65467	17324.725
1164.27079	18005.425
1167.88443	18967.625
1171.49561	20458.725
1175.10432	22840.725
1178.71056	25884.025
1182.31434	28089.725
1185.91565	28828.025
1189.51451	28506.025
1193.11091	27220.325
1196.70485	25505.825
1200.29634	24008.125
1203.88538	22683.725
1207.47197	21363.225
1211.05612	20197.425
1214.63782	19572.125
1218.21708	19365.625
1221.79391	19392.825
1225.36829	19549.925
1228.94024	19758.225
1232.50976	19947.525
1236.07685	20025.425
1239.6415	19978.525
1243.20374	19856.925
1246.76355	19841.225
1250.32093	20048.325
1253.8759	20506.125
1257.42845	21156.825
1260.97859	21844.525
1264.52631	22464.925
1268.07163	23103.125
1271.61453	23705.525
1275.15503	24267.225
1278.69312	24669.625
1282.22882	24964.025
1285.76211	25587.525
1289.29301	26380.725
1292.82151	27172.125
1296.34761	28050.225
1299.87133	29268.125
1303.39266	31128.925
1306.9116	33966.725
1310.42815	37393.425
1313.94233	39843.825
1317.45412	40145.025
1320.96354	38765.625
1324.47058	36871.425
1327.97525	35174.725
1331.47754	34002.325
1334.97747	33426.425
1338.47502	33397.825
1341.97022	33657.325
1345.46305	34020.025
1348.95352	34451.025
1352.44163	35330.425
1355.92738	37201.125
1359.41078	40806.325
1362.89183	44688.525
1366.37053	44124.925
1369.84688	38819.025
1373.32088	33108.325
1376.79254	29497.325
1380.26186	27658.825
1383.72883	26734.225
1387.19347	26055.325
1390.65578	25311.525
1394.11575	24816.125
1397.57339	24629.725
1401.0287	24923.025
1404.48168	25382.925
1407.93234	25774.525
1411.38068	25916.025
1414.82669	25622.525
1418.27039	24813.625
1421.71177	23903.925
1425.15083	23103.625
1428.58758	22623.525
1432.02203	22441.825
1435.45416	22547.625
1438.88399	22688.325
1442.31151	22805.725
1445.73673	22984.025
1449.15965	23262.125
1452.58027	23364.625
1455.9986	23386.125
1459.41463	23441.225
1462.82837	23708.025
1466.23982	24160.225
1469.64898	24709.125
1473.05586	25018.325
1476.46045	25220.725
1479.86276	25505.925
1483.26279	25916.725
1486.66054	26421.825
1490.05602	27067.525
1493.44922	27947.325
1496.84016	29289.925
1500.22882	31313.525
1503.61521	34023.625
1506.99934	37085.725
1510.38121	40181.025
1513.76081	41982.825
1517.13816	40958.825
1520.51324	37428.625
1523.88607	33520.125
1527.25665	30785.925
1530.62498	28997.025
1533.99105	27856.925
1537.35488	27140.525
1540.71647	26573.025
1544.07581	26070.725
1547.4329	25736.225
1550.78776	25346.925
1554.14038	25140.725
1557.49077	25298.625
1560.83892	25685.625
1564.18484	26298.525
1567.52853	26869.725
1570.86999	27117.125
1574.20922	27333.325
1577.54624	27155.425
1580.88103	26200.825
1584.2136	25099.025
1587.54395	24731.025
1590.87208	25441.225
1594.19801	26921.525
1597.52172	28493.425
1600.84321	29036.525
1604.16251	27924.525
1607.47959	25950.325
1610.79447	23932.225
1614.10715	22018.525
1617.41763	20461.425
1620.7259	19433.425
1624.03199	18929.825
1627.33587	18908.725
1630.63757	19294.125
1633.93707	20334.325
1637.23439	21952.425
1640.52951	24149.225
1643.82246	26705.325
1647.11321	29288.025
1650.40179	31045.125
1653.68819	30243.425
1656.97241	26821.625
1660.25446	22635.825
1663.53433	19439.025
1666.81203	17383.825
1670.08756	16126.525
1673.36092	15362.725
1676.63211	14887.425
1679.90115	14534.225
1683.16801	14278.425
1686.43272	14094.125
1689.69527	13932.925
1692.95567	13814.225
1696.2139	13783.125
1699.46999	13712.025
1702.72392	13673.625
1705.97571	13643.825
1709.22535	13596.625
1712.47284	13570.625
1715.71819	13563.225
1718.96139	13559.925
1722.20246	13524.525
1725.44139	13446.025
1728.67818	13393.625
1731.91284	13274.425
1735.14537	13195.925
1738.37576	13135.625
1741.60403	13054.625
1744.83017	12986.225
1748.05418	12971.225
1751.27607	12951.625
1754.49584	12930.125
1757.71349	12904.125
1760.92903	12879.325
1764.14244	12863.625
1767.35375	12808.825
1770.56294	12820.325
1773.77002	12768.225
1776.97499	12702.825
1780.17785	12667.725
1783.37861	12647.925
1786.57727	12618.625
1789.77382	12587.925
1792.96828	12580.525
1796.16064	12586.725
1799.3509	12534.725
1802.53907	12526.125
1805.72514	12475.325
1808.90913	12419.825
1812.09102	12408.725
1815.27083	12398.625
1818.44856	12376.225
1821.6242	12358.225
1824.79776	12329.225
1827.96924	12306.925
1831.13864	12300.425
1834.30597	12290.325
1837.47122	12308.925
1840.6344	12286.425
1843.7955	12301.925
1846.95454	12330.725
1850.11151	12300.425
1853.26642	12310.125
1856.41926	12314.625
1859.57004	12296.925
1862.71876	12359.825
1865.86542	12325.525
1869.01003	12340.925
1872.15258	12339.325
1875.29308	12323.625
1878.43152	12354.325
1881.56792	12356.125
1884.70227	12391.925
1887.83457	12395.525
1890.96482	12403.125
1894.09304	12420.625
1897.21921	12441.525
1900.34335	12440.525
1903.46544	12454.825
1906.58551	12488.925
1909.70353	12494.325
1912.81953	12500.825
1915.93349	12496.225
1919.04543	12508.225
1922.15534	12506.525
1925.26322	12435.925
1928.36908	12388.525
1931.47292	12317.525
1934.57473	12242.925
1937.67453	12156.225
1940.77232	12067.025
1943.86808	11973.225
1946.96184	11908.425
1950.05358	11839.125
1953.14331	11750.125
1956.23103	11718.725
1959.31675	11673.725
1962.40046	11634.425
1965.48217	11599.225
1968.56188	11542.925
1971.63959	11512.125
1974.7153	11474.425
1977.78901	11441.425
1980.86073	11385.725
1983.93046	11330.725
1986.99819	11310.725
1990.06394	11269.825
1993.1277	11231.425
1996.18947	11186.125
1999.24925	11158.425
2002.30706	11141.225
2005.36288	11097.925
2008.41672	11056.325
2011.46859	11018.925
2014.51848	11004.825
2017.56639	10944.225
2020.61233	10958.925
2023.6563	10915.825
2026.6983	10886.825
2029.73833	10844.325
2032.7764	10845.325
2035.8125	10797.425
2038.84664	10770.825
2041.87881	10785.425
2044.90903	10718.725
2047.93729	10701.525
2050.96359	10725.825
2053.98794	10689.525
2057.01034	10666.825
2060.03078	10671.825
2063.04927	10657.625
2066.06582	10623.825
2069.08042	10612.425
2072.09307	10602.325
2075.10378	10603.625
2078.11255	10553.925
2081.11938	10595.025
2084.12426	10565.825
2087.12722	10536.525
2090.12824	10565.125
2093.12732	10557.425
2096.12447	10568.425
2099.11969	10583.225
2102.11299	10581.425
2105.10435	10545.925
2108.09379	10560.525
2111.08131	10555.525
2114.0669	10570.025
2117.05057	10572.125
2120.03233	10599.525
2123.01216	10588.325
2125.99008	10576.925
2128.96609	10594.525
2131.94018	10615.225
2134.91236	10597.925
2137.88263	10600.825
2140.851	10601.325
2143.81746	10622.525
2146.78201	10596.525
2149.74466	10581.225
2152.7054	10589.125
2155.66425	10578.025
2158.6212	10585.125
2161.57625	10569.925
2164.52941	10552.425
2167.48067	10547.825
2170.43004	10545.625
2173.37752	10556.325
2176.32311	10540.925
2179.26681	10563.125
2182.20863	10533.825
2185.14856	10521.525
2188.08661	10522.125
2191.02278	10533.425
2193.95707	10531.725
2196.88948	10520.925
2199.82001	10508.725
2202.74867	10505.425
2205.67545	10485.825
2208.60037	10485.425
2211.52341	10447.525
2214.44458	10438.525
2217.36388	10419.425
2220.28132	10411.925
2223.1969	10371.925
2226.11061	10346.825
2229.02246	10320.125
2231.93245	10293.025
2234.84058	10265.625
2237.74686	10257.725
2240.65128	10258.125
2243.55385	10242.525
2246.45456	10241.925
2249.35343	10219.225
2252.25044	10204.825
2255.14561	10211.125
2258.03893	10191.125
2260.93041	10184.625
2263.82004	10173.925
2266.70783	10135.225
2269.59378	10094.625
2272.4779	10046.225
2275.36017	10039.725
2278.24061	10023.225
2281.11922	9991.825
2283.996	9960.125
2286.87094	9960.325
2289.74405	9930.425
2292.61534	9909.825
2295.4848	9903.825
2298.35243	9901.325
2301.21824	9878.125
2304.08223	9903.725
2306.94439	9899.225
2309.80474	9891.825
2312.66327	9858.625
2315.51999	9874.325
2318.37489	9860.325
2321.22797	9817.525
2324.07925	9834.025
2326.92871	9811.725
2329.77637	9809.725
2332.62222	9809.225
2335.46626	9783.625
2338.3085	9766.625
2341.14893	9786.025
2343.98756	9784.325
2346.8244	9792.325
2349.65943	9792.225
2352.49267	9807.025
2355.32411	9795.725
2358.15376	9798.025
2360.98161	9814.225
2363.80768	9812.125
2366.63195	9828.825
2369.45444	9798.325
2372.27514	9804.725
2375.09405	9796.025
2377.91118	9744.325
2380.72652	9705.525
2383.54009	9663.625
2386.35187	9652.125
2389.16188	9629.625
2391.97011	9596.425
2394.77657	9559.525
2397.58125	9538.525
2400.38416	9546.125
2403.18529	9492.625
2405.98466	9490.925
2408.78226	9483.425
2411.57809	9453.825
2414.37216	9454.925
2417.16446	9443.625
2419.955	9416.125
2422.74378	9422.125
2425.5308	9415.525
2428.31606	9405.025
2431.09956	9411.625
2433.88131	9397.525
2436.6613	9397.125
2439.43954	9365.625
2442.21603	9366.525
2444.99077	9354.825
2447.76377	9386.625
2450.53501	9360.825
2453.30451	9365.725
2456.07226	9356.425
2458.83827	9367.825
2461.60254	9337.225
2464.36507	9344.225
2467.12586	9317.825
2469.88492	9327.725
2472.64224	9330.425
2475.39782	9335.325
2478.15167	9348.125
2480.90379	9355.925
2483.65417	9369.425
2486.40283	9368.925
2489.14976	9385.225
2491.89497	9392.725
2494.63845	9431.525
2497.3802	9411.225
2500.12024	9393.025
2502.85855	9403.125
2505.59514	9351.025
2508.33002	9377.525
2511.06318	9314.425
2513.79462	9303.825
2516.52435	9263.425
2519.25237	9282.325
2521.97867	9228.525
2524.70327	9228.425
2527.42616	9215.825
2530.14734	9208.125
2532.86681	9192.525
2535.58458	9179.825
2538.30065	9177.725
2541.01501	9159.625
2543.72768	9141.825
2546.43864	9134.325
2549.14791	9137.825
2551.85548	9135.025
2554.56136	9121.625
2557.26554	9105.225
2559.96803	9071.025
2562.66883	9093.825
2565.36794	9079.525
2568.06536	9065.725
2570.7611	9053.825
2573.45514	9014.725
2576.14751	9021.225
2578.83819	9021.025
2581.52719	9003.225
2584.21451	8983.325
2586.90015	8984.425
2589.58411	8989.825
2592.2664	8971.525
2594.94701	8987.925
2597.62594	8965.025
2600.30321	8973.625
2602.9788	8936.425
2605.65273	8937.125
2608.32498	8941.925
2610.99557	8939.725
2613.66449	8939.025
2616.33175	8928.825
2618.99734	8938.725
2621.66128	8929.425
2624.32355	8898.025
2626.98416	8911.225
2629.64311	8915.825
2632.30041	8900.625
2634.95605	8900.625
2637.61004	8864.325
2640.26238	8877.825
2642.91306	8862.525
2645.56209	8834.425
2648.20948	8839.625
2650.85521	8835.425
2653.4993	8834.625
2656.14175	8829.025
2658.78255	8825.625
2661.42171	8840.525
2664.05923	8853.725
2666.6951	8862.525
2669.32934	8864.425
2671.96194	8874.025
2674.59291	8883.725
2677.22224	8868.125
2679.84993	8879.925
2682.476	8882.025
2685.10043	8893.225
2687.72324	8866.825
2690.34441	8900.325
2692.96396	8869.425
2695.58188	8874.525
2698.19818	8864.925
2700.81285	8888.725
2703.4259	8876.525
2706.03733	8912.025
2708.64714	8883.625
2711.25533	8884.525
2713.86191	8869.325
2716.46687	8867.425
2719.07021	8876.825
2721.67194	8888.725
2724.27206	8868.425
2726.87057	8896.025
2729.46747	8895.025
2732.06276	8886.125
2734.65644	8864.025
2737.24852	8839.725
2739.83899	8842.325
2742.42786	8842.625
2745.01513	8829.425
2747.60079	8812.725
2750.18486	8811.725
2752.76733	8838.525
2755.3482	8825.825
2757.92747	8804.525
2760.50515	8796.925
2763.08123	8796.325
2765.65573	8780.625
2768.22863	8776.025
2770.79994	8753.025
2773.36967	8758.825
2775.9378	8728.025
2778.50435	8751.825
2781.06932	8721.225
2783.6327	8756.125
2786.1945	8742.525
2788.75471	8697.925
2791.31335	8711.125
2793.87041	8695.525
2796.42589	8669.425
2798.97979	8675.425
2801.53212	8662.825
2804.08288	8657.925
2806.63206	8621.725
2809.17967	8651.225
2811.72571	8607.025
2814.27018	8646.925
2816.81308	8616.825
2819.35442	8602.225
2821.89419	8607.625
2824.43239	8640.225
2826.96904	8648.925
2829.50412	8646.325
2832.03763	8626.325
2834.56959	8628.325
2837.1	8629.325
2839.62884	8663.725
2842.15613	8694.925
2844.68186	8741.325
2847.20604	8806.125
2849.72867	8866.425
2852.24974	8874.425
2854.76927	8877.625
2857.28724	8863.725
2859.80367	8845.725
2862.31855	8807.325
2864.83189	8774.725
2867.34368	8744.525
2869.85393	8745.425
2872.36264	8737.925
2874.8698	8734.225
2877.37543	8749.525
2879.87952	8737.725
2882.38207	8721.725
2884.88308	8741.725
2887.38256	8729.525
2889.88051	8707.525
2892.37692	8723.925
2894.8718	8734.825
2897.36515	8717.025
2899.85698	8711.525
2902.34727	8760.625
2904.83604	8751.625
2907.32328	8768.425
2909.809	8751.725
2912.29319	8744.825
2914.77587	8721.625
2917.25702	8710.525
2919.73665	8712.825
2922.21476	8724.425
2924.69136	8696.225
2927.16644	8710.325
2929.64	8697.225
2932.11205	8710.325
2934.58258	8649.025
2937.05161	8623.825
2939.51912	8608.725
2941.98513	8587.125
2944.44962	8535.025
2946.91261	8462.925
2949.37409	8442.225
2951.83407	8427.925
2954.29254	8397.325
2956.74951	8390.525
2959.20498	8371.025
2961.65895	8348.425
2964.11142	8317.825
2966.56239	8291.125
2969.01186	8300.025
2971.45984	8271.225
2973.90632	8226.825
2976.35131	8211.625
2978.7948	8191.225
2981.23681	8139.325
2983.67732	8155.225
2986.11635	8118.125
2988.55388	8107.525
2990.98993	8081.225
2993.4245	8049.225
2995.85758	8030.025
2998.28917	8013.325
3000.71928	7997.625
3003.14791	7961.625
3005.57506	8000.525
3008.00073	7956.425
3010.42493	7936.825
3012.84764	7939.225
3015.26888	7930.225
3017.68865	7888.725
3020.10694	7883.925
3022.52376	7882.225
3024.9391	7857.625
3027.35298	7828.625
3029.76539	7806.625
3032.17632	7783.525
3034.5858	7778.525
3036.9938	7782.225
3039.40034	7761.425
3041.80542	7758.925
3044.20903	7728.325
3046.61118	7726.525
3049.01187	7726.625
3051.4111	7710.625
3053.80888	7677.025
3056.20519	7663.525
3058.60005	7659.025
3060.99345	7644.625
3063.3854	7629.325
3065.7759	7582.625
3068.16494	7577.525
3070.55254	7529.925
3072.93868	7525.225
3075.32338	7510.325
3077.70662	7509.725
3080.08842	7440.825
3082.46878	7435.125
3084.84769	7422.825
3087.22515	7412.325
3089.60118	7417.925
3091.97576	7402.825
3094.3489	7389.125
3096.72061	7392.225
3099.09087	7372.225
3101.4597	7354.325
3103.82709	7365.025
3106.19305	7354.225
3108.55757	7339.425
3110.92066	7290.825
3113.28232	7312.025
3115.64255	7261.425
3118.00134	7259.625
3120.35871	7250.325
3122.71466	7227.825
3125.06917	7233.825
3127.42226	7202.425
3129.77393	7201.225
3132.12417	7195.625
3134.47299	7190.925
3136.82039	7207.525
3139.16636	7206.925
3141.51092	7206.125
3143.85406	7205.025
3146.19579	7201.825
3148.53609	7176.425
3150.87499	7198.625
3153.21246	7197.525
3155.54853	7217.725
3157.88318	7196.325
3160.21642	7197.125
3162.54826	7214.725
3164.87868	7192.025
3167.2077	7185.925
