Data from AgNPs_FTO_APTES_UA_2uM_CRN_0uM_R6G_10uM_NaF_0.1M_Addition_RamanShift__52__11-05-04-982.txt Node

Date: Wed Feb 02 11:05:04 GMT 2022
User: TCL
Spectrometer: QEP01345
Trigger mode: 4
Integration Time (sec): 7.000000E0
Scans to average: 10
Electric dark correction enabled: true
Nonlinearity correction enabled: false
Boxcar width: 0
XAxis mode: Raman Shifts
Number of Pixels in Spectrum: 1044
>>>>>Begin Spectral Data<<<<<
46.04893	-0.1375
50.45542	0.7625
54.85868	-1.7375
59.25871	0.1625
63.6555	63.4625
68.04907	72.8625
72.43941	70.4625
76.82654	78.4625
81.21044	77.6625
85.59113	83.9625
89.96862	88.5625
94.34289	91.1625
98.71396	93.2625
103.08183	100.4625
107.4465	100.1625
111.80798	104.3625
116.16626	104.9625
120.52136	112.1625
124.87327	116.4625
129.222	120.3625
133.56755	134.8625
137.90993	143.5625
142.24913	165.3625
146.58517	183.3625
150.91804	213.0625
155.24774	260.2625
159.57429	329.1625
163.89768	424.8625
168.21792	573.5625
172.53501	783.7625
176.84895	1103.2625
181.15975	1546.8625
185.46741	2168.5625
189.77193	2990.5625
194.07331	3993.3625
198.37157	5122.5625
202.6667	6284.7625
206.9587	7476.0625
211.24758	8643.2625
215.53334	9829.2625
219.81599	11151.0625
224.09553	12620.5625
228.37195	14261.9625
232.64527	16019.2625
236.91549	17774.6625
241.18261	19441.3625
245.44663	20871.5625
249.70755	22182.1625
253.96539	23310.8625
258.22014	24349.9625
262.4718	25253.9625
266.72039	25923.6625
270.96589	26347.4625
275.20832	26411.3625
279.44768	26364.0625
283.68397	26270.0625
287.91719	26194.8625
292.14735	26263.0625
296.37445	26417.1625
300.59849	26654.4625
304.81948	26964.3625
309.03742	27132.2625
313.25231	26765.9625
317.46415	25796.2625
321.67296	24382.6625
325.87872	23142.7625
330.08145	22562.4625
334.28114	22431.1625
338.47781	22605.2625
342.67145	22935.1625
346.86207	23515.0625
351.04966	24290.0625
355.23424	25234.0625
359.4158	25944.4625
363.59435	26311.7625
367.76989	26453.3625
371.94243	26451.0625
376.11196	26395.6625
380.27849	26419.9625
384.44203	26412.6625
388.60257	26447.8625
392.76012	26635.3625
396.91468	27003.6625
401.06626	27544.2625
405.21485	27960.6625
409.36047	27688.7625
413.50311	26910.5625
417.64277	26163.6625
421.77947	25940.2625
425.9132	25984.5625
430.04396	26156.6625
434.17176	26292.2625
438.2966	26484.4625
442.41849	26952.4625
446.53742	27858.7625
450.6534	28786.5625
454.76644	29468.5625
458.87653	29662.9625
462.98368	29505.8625
467.08789	29163.8625
471.18916	28776.8625
475.2875	28496.6625
479.38291	28459.6625
483.4754	28408.6625
487.56496	28096.6625
491.6516	27551.1625
495.73531	26918.7625
499.81612	26578.0625
503.89401	26552.3625
507.96899	26570.6625
512.04106	26483.3625
516.11023	26256.5625
520.1765	25924.8625
524.23987	25623.4625
528.30034	25198.0625
532.35792	24753.9625
536.41261	24200.9625
540.46441	23742.9625
544.51333	23702.7625
548.55936	24100.2625
552.60252	24906.1625
556.64279	25868.4625
560.6802	26555.7625
564.71473	27139.6625
568.7464	28220.5625
572.7752	29299.7625
576.80114	29519.2625
580.82422	29396.0625
584.84444	29417.9625
588.86181	29568.8625
592.87633	29948.8625
596.888	30291.6625
600.89682	30485.7625
604.9028	31985.6625
608.90594	36573.7625
612.90624	41919.7625
616.90371	39365.3625
620.89834	30009.3625
624.89015	25665.6625
628.87913	25010.4625
632.86528	25164.4625
636.84862	25166.1625
640.82913	24676.2625
644.80683	23625.9625
648.78172	22765.8625
652.75379	22599.0625
656.72306	23103.1625
660.68952	23865.8625
664.65319	23850.6625
668.61405	23098.2625
672.57211	22709.8625
676.52738	22685.3625
680.47986	22595.3625
684.42955	22437.1625
688.37646	22293.5625
692.32058	22396.0625
696.26192	22645.8625
700.20048	23103.1625
704.13626	23444.6625
708.06928	23510.5625
711.99952	23296.5625
715.927	23137.9625
719.85171	23081.2625
723.77365	22987.4625
727.69284	22629.8625
731.60928	22325.5625
735.52295	22260.8625
739.43388	22369.9625
743.34206	22408.0625
747.24749	22626.3625
751.15017	22958.3625
755.05012	23551.4625
758.94733	24616.5625
762.8418	26724.9625
766.73354	30262.4625
770.62254	33777.8625
774.50882	34775.4625
778.39237	32532.8625
782.27321	28912.6625
786.15132	25693.1625
790.02671	23812.3625
793.89938	22928.9625
797.76935	22498.3625
801.6366	22334.1625
805.50115	22244.6625
809.36299	22095.2625
813.22213	21948.0625
817.07857	21897.2625
820.93231	21848.1625
824.78336	21713.5625
828.63172	21663.4625
832.47738	21670.3625
836.32036	21676.6625
840.16066	21682.5625
843.99827	21652.1625
847.8332	21538.2625
851.66546	21448.8625
855.49504	21388.9625
859.32195	21341.7625
863.1462	21176.6625
866.96777	21060.2625
870.78668	20964.3625
874.60293	20984.8625
878.41652	20971.6625
882.22745	21056.7625
886.03573	21180.4625
889.84136	21223.5625
893.64433	21096.5625
897.44466	21004.6625
901.24235	20945.7625
905.0374	20802.8625
908.8298	20740.0625
912.61957	20791.4625
916.40671	21052.3625
920.19121	21453.3625
923.97308	21831.7625
927.75233	22010.1625
931.52895	21935.0625
935.30295	21533.9625
939.07433	20835.1625
942.84309	20264.2625
946.60924	19942.5625
950.37278	19828.9625
954.13371	19756.8625
957.89203	19689.2625
961.64774	19645.7625
965.40086	19589.9625
969.15137	19565.8625
972.89929	19448.0625
976.64461	19340.2625
980.38733	19335.4625
984.12747	19379.4625
987.86502	19565.0625
991.59999	19848.1625
995.33237	20241.4625
999.06217	21036.6625
1002.78939	22005.0625
1006.51404	22823.6625
1010.23611	23245.7625
1013.95561	23487.9625
1017.67255	23386.7625
1021.38692	22961.7625
1025.09872	22535.1625
1028.80796	22490.2625
1032.51465	23017.8625
1036.21877	23564.9625
1039.92035	23665.2625
1043.61937	23390.0625
1047.31584	22828.5625
1051.00976	22253.0625
1054.70114	21913.9625
1058.38998	21905.5625
1062.07627	22035.9625
1065.76003	22242.4625
1069.44126	22548.5625
1073.11995	22983.4625
1076.79611	23305.2625
1080.46974	23493.6625
1084.14085	23797.9625
1087.80943	24301.9625
1091.47549	24668.7625
1095.13903	24589.3625
1098.80005	24002.1625
1102.45857	23167.9625
1106.11456	22441.5625
1109.76805	22273.2625
1113.41903	22335.1625
1117.06751	22739.2625
1120.71348	23230.3625
1124.35696	23792.0625
1127.99793	24444.0625
1131.63641	24685.9625
1135.2724	24299.2625
1138.90589	23794.6625
1142.5369	23582.6625
1146.16542	23494.1625
1149.79145	23618.6625
1153.415	23862.4625
1157.03607	24272.1625
1160.65467	25114.2625
1164.27079	26407.9625
1167.88443	28308.4625
1171.49561	30936.7625
1175.10432	34741.5625
1178.71056	39409.0625
1182.31434	43525.1625
1185.91565	45651.6625
1189.51451	45655.6625
1193.11091	44046.2625
1196.70485	41392.8625
1200.29634	38617.4625
1203.88538	36359.5625
1207.47197	34453.7625
1211.05612	33048.2625
1214.63782	32121.5625
1218.21708	31650.2625
1221.79391	31603.1625
1225.36829	31622.8625
1228.94024	31318.5625
1232.50976	30783.5625
1236.07685	30334.9625
1239.6415	29823.0625
1243.20374	29457.2625
1246.76355	29303.9625
1250.32093	29636.2625
1253.8759	30423.4625
1257.42845	31560.2625
1260.97859	32929.7625
1264.52631	34238.0625
1268.07163	35494.2625
1271.61453	36934.9625
1275.15503	38389.0625
1278.69312	39753.9625
1282.22882	40894.6625
1285.76211	42129.8625
1289.29301	43804.1625
1292.82151	45778.3625
1296.34761	48230.4625
1299.87133	51341.2625
1303.39266	55126.6625
1306.9116	59682.5625
1310.42815	64747.7625
1313.94233	68585.5625
1317.45412	69541.5625
1320.96354	68302.4625
1324.47058	66274.4625
1327.97525	64147.3625
1331.47754	62361.6625
1334.97747	61079.5625
1338.47502	60242.0625
1341.97022	59389.6625
1345.46305	58206.3625
1348.95352	57002.9625
1352.44163	56185.8625
1355.92738	57044.0625
1359.41078	60486.3625
1362.89183	64786.3625
1366.37053	64830.5625
1369.84688	58825.7625
1373.32088	51183.0625
1376.79254	45780.5625
1380.26186	43485.2625
1383.72883	42811.4625
1387.19347	42593.9625
1390.65578	42288.3625
1394.11575	42427.7625
1397.57339	43272.1625
1401.0287	44597.7625
1404.48168	45811.2625
1407.93234	46268.1625
1411.38068	45535.2625
1414.82669	43772.4625
1418.27039	41228.0625
1421.71177	38688.2625
1425.15083	36631.7625
1428.58758	35476.3625
1432.02203	35201.4625
1435.45416	35824.5625
1438.88399	36735.8625
1442.31151	37631.9625
1445.73673	38559.4625
1449.15965	39570.7625
1452.58027	40356.3625
1455.9986	40806.1625
1459.41463	41234.0625
1462.82837	41920.5625
1466.23982	42604.6625
1469.64898	43184.0625
1473.05586	43304.3625
1476.46045	43025.6625
1479.86276	42648.9625
1483.26279	42226.6625
1486.66054	42153.4625
1490.05602	42458.9625
1493.44922	43083.0625
1496.84016	43865.1625
1500.22882	45199.0625
1503.61521	47356.1625
1506.99934	50106.4625
1510.38121	53123.5625
1513.76081	55003.3625
1517.13816	54155.5625
1520.51324	50851.6625
1523.88607	47229.9625
1527.25665	44762.1625
1530.62498	43406.9625
1533.99105	42593.8625
1537.35488	42066.8625
1540.71647	41409.9625
1544.07581	40640.4625
1547.4329	39599.7625
1550.78776	38665.6625
1554.14038	38109.8625
1557.49077	38057.9625
1560.83892	38292.5625
1564.18484	38560.9625
1567.52853	38792.5625
1570.86999	39079.3625
1574.20922	39656.0625
1577.54624	40236.2625
1580.88103	40257.6625
1584.2136	40153.1625
1587.54395	41149.4625
1590.87208	43453.4625
1594.19801	46564.0625
1597.52172	49747.4625
1600.84321	50631.8625
1604.16251	47906.1625
1607.47959	43272.7625
1610.79447	38314.3625
1614.10715	33997.6625
1617.41763	30602.7625
1620.7259	28434.2625
1624.03199	27267.5625
1627.33587	27278.6625
1630.63757	28370.0625
1633.93707	30694.6625
1637.23439	34381.7625
1640.52951	39491.7625
1643.82246	45209.6625
1647.11321	49855.1625
1650.40179	51395.9625
1653.68819	48457.9625
1656.97241	41621.3625
1660.25446	34189.4625
1663.53433	28409.8625
1666.81203	24695.0625
1670.08756	22450.9625
1673.36092	21082.2625
1676.63211	20205.8625
1679.90115	19621.6625
1683.16801	19117.8625
1686.43272	18847.0625
1689.69527	18624.3625
1692.95567	18435.0625
1696.2139	18338.3625
1699.46999	18260.9625
1702.72392	18182.5625
1705.97571	18098.7625
1709.22535	18061.9625
1712.47284	17997.8625
1715.71819	18004.8625
1718.96139	17915.8625
1722.20246	17825.4625
1725.44139	17737.9625
1728.67818	17608.7625
1731.91284	17459.1625
1735.14537	17316.9625
1738.37576	17211.7625
1741.60403	17179.2625
1744.83017	17108.9625
1748.05418	17077.8625
1751.27607	17025.0625
1754.49584	16938.0625
1757.71349	16928.5625
1760.92903	16946.1625
1764.14244	16909.6625
1767.35375	16895.2625
1770.56294	16842.7625
1773.77002	16815.3625
1776.97499	16791.6625
1780.17785	16718.9625
1783.37861	16696.1625
1786.57727	16667.6625
1789.77382	16621.7625
1792.96828	16593.4625
1796.16064	16584.1625
1799.3509	16560.1625
1802.53907	16537.0625
1805.72514	16518.2625
1808.90913	16484.9625
1812.09102	16404.7625
1815.27083	16400.0625
1818.44856	16352.0625
1821.6242	16348.2625
1824.79776	16326.9625
1827.96924	16299.6625
1831.13864	16313.9625
1834.30597	16342.3625
1837.47122	16313.7625
1840.6344	16335.0625
1843.7955	16375.4625
1846.95454	16366.6625
1850.11151	16387.2625
1853.26642	16405.9625
1856.41926	16383.2625
1859.57004	16417.8625
1862.71876	16423.2625
1865.86542	16445.6625
1869.01003	16430.5625
1872.15258	16461.3625
1875.29308	16501.0625
1878.43152	16520.0625
1881.56792	16552.4625
1884.70227	16571.4625
1887.83457	16607.8625
1890.96482	16574.5625
1894.09304	16623.4625
1897.21921	16659.0625
1900.34335	16684.1625
1903.46544	16723.1625
1906.58551	16723.4625
1909.70353	16709.8625
1912.81953	16739.5625
1915.93349	16700.3625
1919.04543	16656.3625
1922.15534	16615.9625
1925.26322	16541.5625
1928.36908	16434.4625
1931.47292	16347.8625
1934.57473	16212.5625
1937.67453	16158.5625
1940.77232	16030.0625
1943.86808	15946.5625
1946.96184	15846.6625
1950.05358	15733.1625
1953.14331	15648.8625
1956.23103	15571.1625
1959.31675	15526.5625
1962.40046	15456.8625
1965.48217	15402.3625
1968.56188	15341.7625
1971.63959	15313.9625
1974.7153	15259.5625
1977.78901	15190.1625
1980.86073	15132.0625
1983.93046	15111.1625
1986.99819	15048.4625
1990.06394	14996.4625
1993.1277	14965.4625
1996.18947	14864.6625
1999.24925	14839.3625
2002.30706	14787.9625
2005.36288	14706.5625
2008.41672	14687.7625
2011.46859	14656.0625
2014.51848	14606.9625
2017.56639	14567.9625
2020.61233	14498.9625
2023.6563	14486.6625
2026.6983	14468.0625
2029.73833	14444.4625
2032.7764	14449.3625
2035.8125	14412.7625
2038.84664	14375.1625
2041.87881	14354.9625
2044.90903	14334.6625
2047.93729	14344.9625
2050.96359	14325.7625
2053.98794	14295.1625
2057.01034	14294.0625
2060.03078	14281.7625
2063.04927	14228.6625
2066.06582	14232.2625
2069.08042	14207.8625
2072.09307	14205.4625
2075.10378	14213.1625
2078.11255	14181.3625
2081.11938	14189.8625
2084.12426	14151.4625
2087.12722	14174.9625
2090.12824	14145.1625
2093.12732	14133.7625
2096.12447	14202.8625
2099.11969	14164.9625
2102.11299	14173.6625
2105.10435	14160.7625
2108.09379	14154.4625
2111.08131	14158.7625
2114.0669	14161.1625
2117.05057	14186.1625
2120.03233	14166.3625
2123.01216	14182.8625
2125.99008	14185.4625
2128.96609	14200.4625
2131.94018	14213.4625
2134.91236	14171.8625
2137.88263	14198.5625
2140.851	14239.3625
2143.81746	14217.7625
2146.78201	14236.4625
2149.74466	14219.6625
2152.7054	14228.5625
2155.66425	14210.2625
2158.6212	14225.4625
2161.57625	14226.3625
2164.52941	14228.3625
2167.48067	14196.7625
2170.43004	14204.9625
2173.37752	14210.7625
2176.32311	14207.9625
2179.26681	14219.1625
2182.20863	14215.1625
2185.14856	14225.6625
2188.08661	14210.6625
2191.02278	14214.4625
2193.95707	14209.5625
2196.88948	14219.3625
2199.82001	14176.2625
2202.74867	14182.6625
2205.67545	14235.1625
2208.60037	14197.8625
2211.52341	14201.5625
2214.44458	14180.7625
2217.36388	14161.3625
2220.28132	14142.5625
2223.1969	14142.3625
2226.11061	14073.8625
2229.02246	14039.8625
2231.93245	14045.0625
2234.84058	14025.8625
2237.74686	13993.6625
2240.65128	13947.6625
2243.55385	13929.6625
2246.45456	13933.9625
2249.35343	13871.5625
2252.25044	13870.1625
2255.14561	13831.4625
2258.03893	13832.7625
2260.93041	13821.2625
2263.82004	13805.2625
2266.70783	13806.2625
2269.59378	13736.7625
2272.4779	13740.7625
2275.36017	13688.3625
2278.24061	13671.5625
2281.11922	13615.7625
2283.996	13618.2625
2286.87094	13589.3625
2289.74405	13577.1625
2292.61534	13519.0625
2295.4848	13527.0625
2298.35243	13539.6625
2301.21824	13553.8625
2304.08223	13542.6625
2306.94439	13555.1625
2309.80474	13566.9625
2312.66327	13599.9625
2315.51999	13570.3625
2318.37489	13568.8625
2321.22797	13567.1625
2324.07925	13546.1625
2326.92871	13557.7625
2329.77637	13570.9625
2332.62222	13548.3625
2335.46626	13573.2625
2338.3085	13544.8625
2341.14893	13599.1625
2343.98756	13592.4625
2346.8244	13618.6625
2349.65943	13611.5625
2352.49267	13560.2625
2355.32411	13591.2625
2358.15376	13618.5625
2360.98161	13610.8625
2363.80768	13592.6625
2366.63195	13585.7625
2369.45444	13631.9625
2372.27514	13584.3625
2375.09405	13519.5625
2377.91118	13467.5625
2380.72652	13444.0625
2383.54009	13407.3625
2386.35187	13393.1625
2389.16188	13294.5625
2391.97011	13312.0625
2394.77657	13284.7625
2397.58125	13268.3625
2400.38416	13258.9625
2403.18529	13229.7625
2405.98466	13212.9625
2408.78226	13190.6625
2411.57809	13136.7625
2414.37216	13123.4625
2417.16446	13139.4625
2419.955	13103.7625
2422.74378	13106.4625
2425.5308	13075.0625
2428.31606	13083.9625
2431.09956	13081.7625
2433.88131	13021.5625
2436.6613	13066.6625
2439.43954	13067.1625
2442.21603	13084.9625
2444.99077	13052.4625
2447.76377	13088.6625
2450.53501	13083.7625
2453.30451	13074.5625
2456.07226	13097.3625
2458.83827	13098.1625
2461.60254	13085.9625
2464.36507	13106.0625
2467.12586	13088.1625
2469.88492	13103.8625
2472.64224	13094.9625
2475.39782	13116.1625
2478.15167	13122.9625
2480.90379	13134.2625
2483.65417	13150.3625
2486.40283	13184.5625
2489.14976	13207.2625
2491.89497	13204.2625
2494.63845	13240.3625
2497.3802	13257.2625
2500.12024	13254.7625
2502.85855	13256.7625
2505.59514	13234.2625
2508.33002	13216.2625
2511.06318	13161.5625
2513.79462	13126.9625
2516.52435	13154.0625
2519.25237	13140.1625
2521.97867	13105.6625
2524.70327	13096.0625
2527.42616	13067.5625
2530.14734	13056.4625
2532.86681	13035.2625
2535.58458	13050.1625
2538.30065	13054.5625
2541.01501	13045.4625
2543.72768	13008.6625
2546.43864	13007.9625
2549.14791	12997.7625
2551.85548	13014.8625
2554.56136	12998.0625
2557.26554	13004.0625
2559.96803	12956.3625
2562.66883	12991.4625
2565.36794	12978.0625
2568.06536	12969.5625
2570.7611	12961.2625
2573.45514	12958.5625
2576.14751	12926.4625
2578.83819	12950.0625
2581.52719	12986.4625
2584.21451	12981.5625
2586.90015	12952.6625
2589.58411	12925.1625
2592.2664	12948.2625
2594.94701	12933.2625
2597.62594	12928.1625
2600.30321	12909.6625
2602.9788	12921.7625
2605.65273	12932.4625
2608.32498	12973.8625
2610.99557	12946.2625
2613.66449	12971.5625
2616.33175	12958.6625
2618.99734	12959.7625
2621.66128	12996.7625
2624.32355	12970.2625
2626.98416	13017.0625
2629.64311	13038.0625
2632.30041	13017.1625
2634.95605	12993.5625
2637.61004	12997.3625
2640.26238	12973.3625
2642.91306	12950.1625
2645.56209	12941.2625
2648.20948	12931.0625
2650.85521	12938.8625
2653.4993	12936.4625
2656.14175	12930.4625
2658.78255	12930.8625
2661.42171	12935.7625
2664.05923	12949.2625
2666.6951	12959.5625
2669.32934	12967.7625
2671.96194	12972.6625
2674.59291	13024.0625
2677.22224	12976.7625
2679.84993	12995.1625
2682.476	12960.4625
2685.10043	12971.2625
2687.72324	12965.1625
2690.34441	12934.6625
2692.96396	12917.1625
2695.58188	12929.2625
2698.19818	12936.0625
2700.81285	12930.7625
2703.4259	12904.0625
2706.03733	12943.7625
2708.64714	12953.3625
2711.25533	12970.4625
2713.86191	12958.5625
2716.46687	12980.8625
2719.07021	12973.6625
2721.67194	13003.3625
2724.27206	12961.0625
2726.87057	12986.8625
2729.46747	12973.8625
2732.06276	13003.6625
2734.65644	12968.0625
2737.24852	12983.5625
2739.83899	13001.8625
2742.42786	12976.7625
2745.01513	12971.4625
2747.60079	12968.6625
2750.18486	13004.7625
2752.76733	12986.4625
2755.3482	12983.9625
2757.92747	13008.7625
2760.50515	13005.3625
2763.08123	12974.6625
2765.65573	12963.5625
2768.22863	13002.8625
2770.79994	12972.4625
2773.36967	12990.5625
2775.9378	12990.9625
2778.50435	13005.8625
2781.06932	13004.4625
2783.6327	12989.4625
2786.1945	12976.9625
2788.75471	12980.5625
2791.31335	12957.1625
2793.87041	12915.9625
2796.42589	12906.6625
2798.97979	12925.6625
2801.53212	12919.6625
2804.08288	12893.0625
2806.63206	12868.1625
2809.17967	12863.8625
2811.72571	12827.2625
2814.27018	12861.8625
2816.81308	12867.5625
2819.35442	12851.0625
2821.89419	12821.3625
2824.43239	12817.5625
2826.96904	12779.3625
2829.50412	12837.0625
2832.03763	12797.9625
2834.56959	12802.8625
2837.1	12805.8625
2839.62884	12800.7625
2842.15613	12800.9625
2844.68186	12895.5625
2847.20604	12963.8625
2849.72867	12970.3625
2852.24974	12962.8625
2854.76927	12946.9625
2857.28724	12966.5625
2859.80367	12938.5625
2862.31855	12915.7625
2864.83189	12892.3625
2867.34368	12928.5625
2869.85393	12883.4625
2872.36264	12942.7625
2874.8698	12949.4625
2877.37543	12960.1625
2879.87952	12965.6625
2882.38207	12968.5625
2884.88308	12963.9625
2887.38256	12992.6625
2889.88051	12980.3625
2892.37692	12998.7625
2894.8718	12951.5625
2897.36515	12981.0625
2899.85698	13016.3625
2902.34727	13041.4625
2904.83604	13042.2625
2907.32328	13068.7625
2909.809	13028.6625
2912.29319	13043.5625
2914.77587	13042.8625
2917.25702	13036.4625
2919.73665	13042.4625
2922.21476	13053.6625
2924.69136	13038.8625
2927.16644	12987.9625
2929.64	13002.1625
2932.11205	12977.1625
2934.58258	12934.0625
2937.05161	12907.5625
2939.51912	12913.7625
2941.98513	12884.8625
2944.44962	12841.3625
2946.91261	12748.5625
2949.37409	12726.8625
2951.83407	12725.2625
2954.29254	12694.3625
2956.74951	12659.7625
2959.20498	12635.7625
2961.65895	12593.9625
2964.11142	12577.8625
2966.56239	12535.1625
2969.01186	12563.3625
2971.45984	12504.8625
2973.90632	12434.5625
2976.35131	12400.5625
2978.7948	12359.0625
2981.23681	12319.9625
2983.67732	12278.4625
2986.11635	12272.1625
2988.55388	12222.7625
2990.98993	12184.9625
2993.4245	12176.4625
2995.85758	12130.0625
2998.28917	12120.8625
3000.71928	12100.1625
3003.14791	12100.0625
3005.57506	12081.3625
3008.00073	12026.2625
3010.42493	12035.4625
3012.84764	12004.9625
3015.26888	11984.6625
3017.68865	11952.6625
3020.10694	11930.9625
3022.52376	11897.9625
3024.9391	11899.2625
