Data from AgNPs_FTO_APTES_UA_2uM_CRN_50uM_R6G_10uM_NaF_0.1M_Addition_RamanShift__31__15-12-25-270.txt Node

Date: Wed Feb 02 15:12:25 GMT 2022
User: TCL
Spectrometer: QEP01345
Trigger mode: 4
Integration Time (sec): 7.000000E0
Scans to average: 10
Electric dark correction enabled: true
Nonlinearity correction enabled: false
Boxcar width: 0
XAxis mode: Raman Shifts
Number of Pixels in Spectrum: 1044
>>>>>Begin Spectral Data<<<<<
46.04893	0.0125
50.45542	0.8125
54.85868	-0.0875
59.25871	0.0125
63.6555	53.2125
68.04907	56.2125
72.43941	60.6125
76.82654	65.7125
81.21044	66.9125
85.59113	71.9125
89.96862	73.6125
94.34289	77.2125
98.71396	78.4125
103.08183	83.6125
107.4465	84.8125
111.80798	81.4125
116.16626	84.1125
120.52136	88.6125
124.87327	88.1125
129.222	88.5125
133.56755	97.0125
137.90993	96.2125
142.24913	106.1125
146.58517	115.5125
150.91804	125.7125
155.24774	147.3125
159.57429	176.6125
163.89768	221.0125
168.21792	283.3125
172.53501	373.1125
176.84895	513.2125
181.15975	711.0125
185.46741	981.1125
189.77193	1345.3125
194.07331	1800.7125
198.37157	2303.6125
202.6667	2841.0125
206.9587	3367.8125
211.24758	3890.4125
215.53334	4474.1125
219.81599	5115.3125
224.09553	5836.6125
228.37195	6645.2125
232.64527	7489.7125
236.91549	8336.6125
241.18261	9088.0125
245.44663	9686.2125
249.70755	10154.6125
253.96539	10525.7125
258.22014	10881.1125
262.4718	11228.9125
266.72039	11543.3125
270.96589	11733.0125
275.20832	11820.9125
279.44768	11798.5125
283.68397	11783.2125
287.91719	11810.0125
292.14735	11903.2125
296.37445	12189.6125
300.59849	12625.8125
304.81948	13152.4125
309.03742	13539.3125
313.25231	13440.0125
317.46415	12677.6125
321.67296	11548.4125
325.87872	10537.9125
330.08145	10057.6125
334.28114	9975.0125
338.47781	10146.6125
342.67145	10467.6125
346.86207	10954.4125
351.04966	11718.1125
355.23424	12556.1125
359.4158	13138.6125
363.59435	13363.0125
367.76989	13354.2125
371.94243	13215.0125
376.11196	13044.5125
380.27849	12857.2125
384.44203	12673.8125
388.60257	12423.2125
392.76012	12349.4125
396.91468	12502.3125
401.06626	12899.8125
405.21485	13216.4125
409.36047	12990.6125
413.50311	12150.9125
417.64277	11400.0125
421.77947	10988.1125
425.9132	10783.9125
430.04396	10754.6125
434.17176	10776.4125
438.2966	10882.2125
442.41849	11052.3125
446.53742	11366.8125
450.6534	11678.2125
454.76644	11877.7125
458.87653	11935.7125
462.98368	11838.9125
467.08789	11725.8125
471.18916	11485.0125
475.2875	11190.5125
479.38291	10970.1125
483.4754	10736.6125
487.56496	10555.7125
491.6516	10446.6125
495.73531	10422.9125
499.81612	10493.1125
503.89401	10652.8125
507.96899	10785.7125
512.04106	10917.3125
516.11023	11077.8125
520.1765	11133.6125
524.23987	11039.8125
528.30034	10750.5125
532.35792	10445.2125
536.41261	10159.2125
540.46441	9878.9125
544.51333	9762.6125
548.55936	9935.2125
552.60252	10301.7125
556.64279	10707.4125
560.6802	10882.6125
564.71473	11116.7125
568.7464	11674.5125
572.7752	12064.1125
576.80114	11721.3125
580.82422	11269.1125
584.84444	11038.5125
588.86181	10828.7125
592.87633	10688.7125
596.888	10749.2125
600.89682	11243.0125
604.9028	12869.7125
608.90594	17061.4125
612.90624	22641.7125
616.90371	21770.5125
620.89834	14373.4125
624.89015	10803.3125
628.87913	10124.8125
632.86528	10219.6125
636.84862	10466.1125
640.82913	10321.8125
644.80683	9767.1125
648.78172	9371.2125
652.75379	9408.0125
656.72306	9943.9125
660.68952	10604.6125
664.65319	10489.9125
668.61405	9839.4125
672.57211	9513.7125
676.52738	9476.0125
680.47986	9455.6125
684.42955	9342.5125
688.37646	9275.5125
692.32058	9316.0125
696.26192	9424.2125
700.20048	9600.3125
704.13626	9772.0125
708.06928	9828.3125
711.99952	9714.6125
715.927	9636.5125
719.85171	9605.0125
723.77365	9581.6125
727.69284	9403.5125
731.60928	9245.2125
735.52295	9171.0125
739.43388	9191.6125
743.34206	9226.3125
747.24749	9329.9125
751.15017	9447.6125
755.05012	9724.6125
758.94733	10377.1125
762.8418	11869.6125
766.73354	14449.8125
770.62254	17144.0125
774.50882	18251.5125
778.39237	17167.5125
782.27321	14470.0125
786.15132	11833.0125
790.02671	10329.2125
793.89938	9632.0125
797.76935	9324.6125
801.6366	9174.4125
805.50115	9089.9125
809.36299	9037.0125
813.22213	8964.0125
817.07857	8938.5125
820.93231	8945.7125
824.78336	8955.4125
828.63172	9030.7125
832.47738	9056.9125
836.32036	8999.7125
840.16066	8912.8125
843.99827	8829.1125
847.8332	8751.8125
851.66546	8761.2125
855.49504	8754.0125
859.32195	8706.1125
863.1462	8631.0125
866.96777	8577.8125
870.78668	8561.6125
874.60293	8568.2125
878.41652	8577.6125
882.22745	8650.5125
886.03573	8707.9125
889.84136	8660.1125
893.64433	8592.6125
897.44466	8568.6125
901.24235	8578.2125
905.0374	8548.2125
908.8298	8535.4125
912.61957	8561.6125
916.40671	8654.3125
920.19121	8782.5125
923.97308	8882.9125
927.75233	8952.0125
931.52895	9011.0125
935.30295	8861.2125
939.07433	8490.4125
942.84309	8178.0125
946.60924	7967.6125
950.37278	7878.0125
954.13371	7833.8125
957.89203	7807.0125
961.64774	7770.0125
965.40086	7778.1125
969.15137	7728.2125
972.89929	7702.7125
976.64461	7671.1125
980.38733	7650.1125
984.12747	7657.8125
987.86502	7701.7125
991.59999	7726.8125
995.33237	7827.9125
999.06217	7992.6125
1002.78939	8212.5125
1006.51404	8445.9125
1010.23611	8717.3125
1013.95561	8845.6125
1017.67255	8795.5125
1021.38692	8640.9125
1025.09872	8455.6125
1028.80796	8349.1125
1032.51465	8357.5125
1036.21877	8467.2125
1039.92035	8647.8125
1043.61937	8736.6125
1047.31584	8741.9125
1051.00976	8746.8125
1054.70114	8746.0125
1058.38998	8781.0125
1062.07627	8907.2125
1065.76003	9030.8125
1069.44126	9126.4125
1073.11995	9243.5125
1076.79611	9369.7125
1080.46974	9503.5125
1084.14085	9797.7125
1087.80943	10164.7125
1091.47549	10363.2125
1095.13903	10149.4125
1098.80005	9733.9125
1102.45857	9282.9125
1106.11456	9006.8125
1109.76805	8993.6125
1113.41903	9179.5125
1117.06751	9510.5125
1120.71348	10006.2125
1124.35696	10537.6125
1127.99793	11104.8125
1131.63641	11130.3125
1135.2724	10467.7125
1138.90589	9843.8125
1142.5369	9488.5125
1146.16542	9294.0125
1149.79145	9193.3125
1153.415	9245.3125
1157.03607	9376.3125
1160.65467	9662.4125
1164.27079	10122.9125
1167.88443	10822.6125
1171.49561	11967.9125
1175.10432	13881.2125
1178.71056	16264.5125
1182.31434	17840.0125
1185.91565	18034.2125
1189.51451	17378.7125
1193.11091	16216.1125
1196.70485	14849.7125
1200.29634	13808.5125
1203.88538	12964.8125
1207.47197	12011.9125
1211.05612	11148.7125
1214.63782	10675.3125
1218.21708	10497.8125
1221.79391	10488.4125
1225.36829	10589.3125
1228.94024	10698.3125
1232.50976	10814.2125
1236.07685	10852.7125
1239.6415	10853.3125
1243.20374	10849.2125
1246.76355	10918.9125
1250.32093	11059.3125
1253.8759	11344.1125
1257.42845	11738.4125
1260.97859	12216.8125
1264.52631	12647.6125
1268.07163	13110.4125
1271.61453	13547.4125
1275.15503	13894.1125
1278.69312	13988.3125
1282.22882	14027.2125
1285.76211	14334.4125
1289.29301	14868.3125
1292.82151	15416.7125
1296.34761	16008.4125
1299.87133	16849.3125
1303.39266	18306.2125
1306.9116	20582.7125
1310.42815	23363.8125
1313.94233	25293.3125
1317.45412	25186.1125
1320.96354	23615.5125
1324.47058	21683.4125
1327.97525	20047.2125
1331.47754	18964.1125
1334.97747	18458.6125
1338.47502	18404.0125
1341.97022	18625.7125
1345.46305	19164.1125
1348.95352	20105.3125
1352.44163	21495.6125
1355.92738	23601.0125
1359.41078	27212.3125
1362.89183	31031.8125
1366.37053	30634.2125
1369.84688	25813.7125
1373.32088	20808.3125
1376.79254	17639.2125
1380.26186	16124.7125
1383.72883	15321.0125
1387.19347	14776.6125
1390.65578	14144.0125
1394.11575	13602.6125
1397.57339	13331.0125
1401.0287	13356.9125
1404.48168	13513.9125
1407.93234	13649.3125
1411.38068	13637.4125
1414.82669	13493.1125
1418.27039	13146.2125
1421.71177	12768.2125
1425.15083	12350.0125
1428.58758	12030.5125
1432.02203	11943.8125
1435.45416	12038.5125
1438.88399	12133.7125
1442.31151	12168.4125
1445.73673	12274.8125
1449.15965	12432.6125
1452.58027	12506.4125
1455.9986	12477.5125
1459.41463	12496.7125
1462.82837	12642.6125
1466.23982	12958.3125
1469.64898	13318.6125
1473.05586	13599.6125
1476.46045	13767.0125
1479.86276	14018.0125
1483.26279	14353.5125
1486.66054	14800.2125
1490.05602	15351.5125
1493.44922	16159.4125
1496.84016	17422.9125
1500.22882	19427.2125
1503.61521	22113.0125
1506.99934	25135.8125
1510.38121	28188.7125
1513.76081	30020.0125
1517.13816	29037.7125
1520.51324	25585.0125
1523.88607	21711.6125
1527.25665	18939.4125
1530.62498	17253.6125
1533.99105	16278.0125
1537.35488	15578.8125
1540.71647	15105.8125
1544.07581	14761.9125
1547.4329	14540.1125
1550.78776	14358.4125
1554.14038	14321.5125
1557.49077	14516.4125
1560.83892	14905.2125
1564.18484	15481.1125
1567.52853	16101.1125
1570.86999	16536.4125
1574.20922	16791.0125
1577.54624	16657.7125
1580.88103	15771.1125
1584.2136	14456.9125
1587.54395	13797.6125
1590.87208	13906.6125
1594.19801	14643.2125
1597.52172	15655.8125
1600.84321	16036.8125
1604.16251	15276.9125
1607.47959	14098.9125
1610.79447	12953.0125
1614.10715	11875.7125
1617.41763	10961.1125
1620.7259	10408.6125
1624.03199	10089.1125
1627.33587	10081.1125
1630.63757	10270.3125
1633.93707	10827.8125
1637.23439	11728.6125
1640.52951	13058.1125
1643.82246	14907.8125
1647.11321	17208.4125
1650.40179	19165.2125
1653.68819	19104.3125
1656.97241	16646.0125
1660.25446	13434.2125
1663.53433	11026.1125
1666.81203	9543.8125
1670.08756	8667.7125
1673.36092	8131.3125
1676.63211	7803.6125
1679.90115	7593.6125
1683.16801	7446.3125
1686.43272	7296.8125
1689.69527	7220.9125
1692.95567	7124.7125
1696.2139	7113.9125
1699.46999	7091.3125
1702.72392	7030.0125
1705.97571	7020.6125
1709.22535	6960.0125
1712.47284	6960.6125
1715.71819	6955.5125
1718.96139	6933.0125
1722.20246	6928.2125
1725.44139	6900.8125
1728.67818	6852.2125
1731.91284	6796.6125
1735.14537	6698.8125
1738.37576	6639.3125
1741.60403	6601.7125
1744.83017	6579.4125
1748.05418	6570.5125
1751.27607	6538.2125
1754.49584	6546.2125
1757.71349	6506.9125
1760.92903	6482.8125
1764.14244	6466.5125
1767.35375	6481.3125
1770.56294	6428.2125
1773.77002	6411.1125
1776.97499	6331.8125
1780.17785	6305.0125
1783.37861	6292.3125
1786.57727	6274.1125
1789.77382	6232.4125
1792.96828	6225.3125
1796.16064	6232.2125
1799.3509	6219.2125
1802.53907	6186.4125
1805.72514	6143.9125
1808.90913	6140.6125
1812.09102	6111.0125
1815.27083	6102.9125
1818.44856	6086.9125
1821.6242	6046.0125
1824.79776	6042.8125
1827.96924	6052.8125
1831.13864	6052.6125
1834.30597	6032.9125
1837.47122	6023.5125
1840.6344	6019.1125
1843.7955	6027.7125
1846.95454	6016.8125
1850.11151	5997.1125
1853.26642	6006.2125
1856.41926	5994.9125
1859.57004	6015.4125
1862.71876	6002.2125
1865.86542	6001.1125
1869.01003	6010.3125
1872.15258	6004.4125
1875.29308	6011.4125
1878.43152	6009.6125
1881.56792	6016.8125
1884.70227	6028.9125
1887.83457	6031.3125
1890.96482	6029.4125
1894.09304	6034.2125
1897.21921	6029.9125
1900.34335	6038.3125
1903.46544	6038.1125
1906.58551	6065.9125
1909.70353	6063.7125
1912.81953	6064.6125
1915.93349	6065.5125
1919.04543	6052.6125
1922.15534	6023.2125
1925.26322	6024.5125
1928.36908	6005.4125
1931.47292	5963.4125
1934.57473	5934.1125
1937.67453	5867.6125
1940.77232	5822.3125
1943.86808	5794.9125
1946.96184	5735.1125
1950.05358	5713.9125
1953.14331	5696.9125
1956.23103	5669.7125
1959.31675	5627.0125
1962.40046	5614.5125
1965.48217	5595.4125
1968.56188	5585.3125
1971.63959	5560.9125
1974.7153	5549.6125
1977.78901	5529.5125
1980.86073	5495.8125
1983.93046	5473.6125
1986.99819	5453.8125
1990.06394	5458.5125
1993.1277	5408.2125
1996.18947	5381.4125
1999.24925	5376.5125
2002.30706	5349.9125
2005.36288	5331.3125
2008.41672	5318.1125
2011.46859	5284.3125
2014.51848	5276.6125
2017.56639	5252.7125
2020.61233	5239.9125
2023.6563	5222.1125
2026.6983	5206.8125
2029.73833	5180.0125
2032.7764	5188.4125
2035.8125	5171.3125
2038.84664	5155.7125
2041.87881	5151.7125
2044.90903	5119.4125
2047.93729	5115.6125
2050.96359	5109.6125
2053.98794	5114.4125
2057.01034	5099.1125
2060.03078	5083.7125
2063.04927	5086.8125
2066.06582	5054.9125
2069.08042	5058.9125
2072.09307	5061.8125
2075.10378	5055.6125
2078.11255	5043.8125
2081.11938	5042.6125
2084.12426	5021.3125
2087.12722	5023.7125
2090.12824	5017.3125
2093.12732	5017.3125
2096.12447	5020.6125
2099.11969	5032.9125
2102.11299	5023.5125
2105.10435	5039.2125
2108.09379	5035.1125
2111.08131	5033.1125
2114.0669	5018.7125
2117.05057	5036.7125
2120.03233	5048.2125
2123.01216	5045.3125
2125.99008	5061.3125
2128.96609	5030.6125
2131.94018	5038.9125
2134.91236	5037.9125
2137.88263	5017.3125
2140.851	5044.9125
2143.81746	5025.0125
2146.78201	5032.9125
2149.74466	5032.7125
2152.7054	5018.4125
2155.66425	5006.9125
2158.6212	4994.6125
2161.57625	5006.7125
2164.52941	4992.9125
2167.48067	5000.4125
2170.43004	4992.2125
2173.37752	4986.1125
2176.32311	4971.9125
2179.26681	4980.0125
2182.20863	4987.4125
2185.14856	4971.4125
2188.08661	4969.6125
2191.02278	4972.5125
2193.95707	4945.8125
2196.88948	4931.4125
2199.82001	4944.7125
2202.74867	4931.0125
2205.67545	4923.3125
2208.60037	4910.9125
2211.52341	4918.1125
2214.44458	4899.6125
2217.36388	4902.4125
2220.28132	4879.1125
2223.1969	4872.5125
2226.11061	4860.3125
2229.02246	4836.6125
2231.93245	4827.8125
2234.84058	4809.0125
2237.74686	4792.7125
2240.65128	4809.0125
2243.55385	4793.3125
2246.45456	4795.5125
2249.35343	4776.9125
2252.25044	4778.5125
2255.14561	4785.9125
2258.03893	4794.0125
2260.93041	4777.9125
2263.82004	4770.6125
2266.70783	4769.3125
2269.59378	4744.6125
2272.4779	4732.0125
2275.36017	4714.2125
2278.24061	4714.6125
2281.11922	4693.8125
2283.996	4686.2125
2286.87094	4669.6125
2289.74405	4647.3125
2292.61534	4631.3125
2295.4848	4637.3125
2298.35243	4628.1125
2301.21824	4597.2125
2304.08223	4625.7125
2306.94439	4621.0125
2309.80474	4595.6125
2312.66327	4591.7125
2315.51999	4597.7125
2318.37489	4592.3125
2321.22797	4581.1125
2324.07925	4583.2125
2326.92871	4580.6125
2329.77637	4576.5125
2332.62222	4564.4125
2335.46626	4567.0125
2338.3085	4552.4125
2341.14893	4546.6125
2343.98756	4548.9125
2346.8244	4560.5125
2349.65943	4550.5125
2352.49267	4556.0125
2355.32411	4574.5125
2358.15376	4588.7125
2360.98161	4602.5125
2363.80768	4602.0125
2366.63195	4624.1125
2369.45444	4612.5125
2372.27514	4616.8125
2375.09405	4599.1125
2377.91118	4576.8125
2380.72652	4561.9125
2383.54009	4548.2125
2386.35187	4527.2125
2389.16188	4488.8125
2391.97011	4474.1125
2394.77657	4452.3125
2397.58125	4437.3125
2400.38416	4429.7125
2403.18529	4413.7125
2405.98466	4412.5125
2408.78226	4396.5125
2411.57809	4391.2125
2414.37216	4378.8125
2417.16446	4385.8125
2419.955	4377.6125
2422.74378	4366.9125
2425.5308	4365.5125
2428.31606	4368.1125
2431.09956	4359.9125
2433.88131	4343.3125
2436.6613	4350.2125
2439.43954	4363.2125
2442.21603	4357.1125
2444.99077	4353.3125
2447.76377	4348.9125
2450.53501	4366.4125
2453.30451	4362.8125
2456.07226	4367.5125
2458.83827	4376.4125
2461.60254	4380.4125
2464.36507	4370.3125
2467.12586	4358.3125
2469.88492	4341.8125
2472.64224	4339.8125
2475.39782	4364.1125
2478.15167	4373.3125
2480.90379	4371.7125
2483.65417	4366.1125
2486.40283	4399.4125
2489.14976	4408.2125
2491.89497	4409.0125
2494.63845	4422.5125
2497.3802	4407.0125
2500.12024	4400.1125
2502.85855	4407.2125
2505.59514	4387.9125
2508.33002	4366.6125
2511.06318	4342.6125
2513.79462	4325.1125
2516.52435	4299.0125
2519.25237	4282.7125
2521.97867	4262.2125
2524.70327	4249.3125
2527.42616	4235.2125
2530.14734	4238.3125
2532.86681	4218.7125
2535.58458	4242.5125
2538.30065	4224.9125
2541.01501	4222.3125
2543.72768	4215.4125
2546.43864	4212.3125
2549.14791	4205.8125
2551.85548	4222.1125
2554.56136	4202.3125
2557.26554	4209.1125
2559.96803	4206.5125
2562.66883	4201.6125
2565.36794	4187.5125
2568.06536	4191.4125
2570.7611	4175.5125
2573.45514	4163.8125
2576.14751	4161.8125
2578.83819	4149.9125
2581.52719	4145.9125
2584.21451	4125.4125
2586.90015	4145.1125
2589.58411	4134.4125
2592.2664	4138.4125
2594.94701	4131.8125
2597.62594	4114.2125
2600.30321	4116.2125
2602.9788	4107.9125
2605.65273	4104.7125
2608.32498	4112.2125
2610.99557	4104.0125
2613.66449	4115.2125
2616.33175	4099.0125
2618.99734	4108.2125
2621.66128	4102.9125
2624.32355	4089.9125
2626.98416	4095.7125
2629.64311	4093.9125
2632.30041	4080.7125
2634.95605	4069.4125
2637.61004	4076.9125
2640.26238	4047.1125
2642.91306	4049.5125
2645.56209	4053.7125
2648.20948	4056.6125
2650.85521	4038.7125
2653.4993	4048.7125
2656.14175	4036.3125
2658.78255	4054.6125
2661.42171	4034.8125
2664.05923	4066.5125
2666.6951	4051.1125
2669.32934	4071.7125
2671.96194	4061.7125
2674.59291	4078.9125
2677.22224	4082.9125
2679.84993	4078.5125
2682.476	4073.2125
2685.10043	4072.9125
2687.72324	4069.1125
2690.34441	4074.8125
2692.96396	4067.0125
2695.58188	4058.0125
2698.19818	4073.5125
2700.81285	4062.6125
2703.4259	4087.0125
2706.03733	4102.3125
2708.64714	4088.4125
2711.25533	4097.7125
2713.86191	4091.3125
2716.46687	4098.3125
2719.07021	4098.3125
2721.67194	4093.7125
2724.27206	4111.1125
2726.87057	4118.8125
2729.46747	4101.1125
2732.06276	4093.5125
2734.65644	4080.0125
2737.24852	4073.0125
2739.83899	4060.2125
2742.42786	4063.3125
2745.01513	4046.4125
2747.60079	4038.7125
2750.18486	4040.7125
2752.76733	4037.4125
2755.3482	4029.0125
2757.92747	4041.6125
2760.50515	4024.9125
2763.08123	4026.3125
2765.65573	4015.9125
2768.22863	4008.3125
2770.79994	3990.7125
2773.36967	3991.9125
2775.9378	3989.9125
2778.50435	4003.0125
2781.06932	4000.2125
2783.6327	3986.7125
2786.1945	3981.2125
2788.75471	3983.7125
2791.31335	3983.4125
2793.87041	3975.2125
2796.42589	3974.3125
2798.97979	3965.8125
2801.53212	3981.2125
2804.08288	3973.4125
2806.63206	3973.2125
2809.17967	3960.4125
2811.72571	3973.7125
2814.27018	3984.6125
2816.81308	3988.7125
2819.35442	3996.6125
2821.89419	3990.9125
2824.43239	3990.5125
2826.96904	4015.5125
2829.50412	4016.7125
2832.03763	4011.4125
2834.56959	4027.2125
2837.1	4042.1125
2839.62884	4065.6125
2842.15613	4116.9125
2844.68186	4163.5125
2847.20604	4227.5125
2849.72867	4286.5125
2852.24974	4338.5125
2854.76927	4330.2125
2857.28724	4324.9125
2859.80367	4310.8125
2862.31855	4289.1125
2864.83189	4264.4125
2867.34368	4256.6125
2869.85393	4250.2125
2872.36264	4254.8125
2874.8698	4244.0125
2877.37543	4245.7125
2879.87952	4236.2125
2882.38207	4237.0125
2884.88308	4226.2125
2887.38256	4216.6125
2889.88051	4220.8125
2892.37692	4211.4125
2894.8718	4229.7125
2897.36515	4221.7125
2899.85698	4229.6125
2902.34727	4249.0125
2904.83604	4244.7125
2907.32328	4255.1125
2909.809	4233.2125
2912.29319	4238.9125
2914.77587	4240.2125
2917.25702	4233.9125
2919.73665	4227.3125
2922.21476	4239.1125
2924.69136	4222.4125
2927.16644	4234.2125
2929.64	4212.0125
2932.11205	4206.0125
2934.58258	4187.3125
2937.05161	4154.4125
2939.51912	4156.3125
2941.98513	4106.8125
2944.44962	4059.9125
2946.91261	4005.2125
2949.37409	3983.8125
2951.83407	3967.4125
2954.29254	3933.8125
2956.74951	3937.7125
2959.20498	3897.2125
2961.65895	3886.6125
2964.11142	3893.5125
2966.56239	3871.8125
2969.01186	3865.3125
2971.45984	3832.1125
2973.90632	3822.0125
2976.35131	3804.2125
2978.7948	3786.5125
2981.23681	3768.4125
2983.67732	3751.5125
2986.11635	3750.4125
2988.55388	3723.4125
2990.98993	3725.9125
2993.4245	3725.2125
2995.85758	3707.0125
2998.28917	3706.5125
3000.71928	3690.7125
3003.14791	3687.8125
3005.57506	3685.2125
3008.00073	3686.3125
3010.42493	3662.5125
3012.84764	3658.3125
3015.26888	3663.6125
3017.68865	3657.0125
3020.10694	3640.4125
3022.52376	3653.9125
3024.9391	3643.3125
3027.35298	3621.7125
3029.76539	3627.3125
3032.17632	3620.3125
3034.5858	3606.6125
3036.9938	3610.5125
3039.40034	3606.7125
3041.80542	3599.5125
3044.20903	3584.2125
3046.61118	3574.1125
3049.01187	3574.6125
3051.4111	3575.3125
3053.80888	3555.5125
3056.20519	3566.3125
3058.60005	3554.7125
3060.99345	3552.6125
3063.3854	3549.1125
3065.7759	3532.0125
3068.16494	3535.6125
3070.55254	3525.5125
3072.93868	3521.0125
3075.32338	3517.7125
3077.70662	3495.8125
3080.08842	3478.7125
3082.46878	3475.0125
3084.84769	3473.8125
3087.22515	3460.4125
3089.60118	3462.6125
3091.97576	3448.1125
3094.3489	3430.8125
3096.72061	3430.1125
