Data from AgNPs_FTO_APTES_UA_2uM_CRN_50uM_R6G_10uM_NaF_0.1M_Addition_RamanShift__9__14-46-45-240.txt Node

Date: Wed Feb 02 14:46:45 GMT 2022
User: TCL
Spectrometer: QEP01345
Trigger mode: 4
Integration Time (sec): 7.000000E0
Scans to average: 10
Electric dark correction enabled: true
Nonlinearity correction enabled: false
Boxcar width: 0
XAxis mode: Raman Shifts
Number of Pixels in Spectrum: 1044
>>>>>Begin Spectral Data<<<<<
46.04893	0.375
50.45542	0.075
54.85868	-0.725
59.25871	-0.425
63.6555	88.575
68.04907	94.575
72.43941	96.275
76.82654	103.675
81.21044	106.975
85.59113	111.075
89.96862	116.675
94.34289	119.775
98.71396	125.875
103.08183	131.375
107.4465	130.675
111.80798	133.775
116.16626	138.075
120.52136	143.775
124.87327	147.775
129.222	156.075
133.56755	164.075
137.90993	176.475
142.24913	198.275
146.58517	224.975
150.91804	260.175
155.24774	316.675
159.57429	384.875
163.89768	494.875
168.21792	653.875
172.53501	890.175
176.84895	1233.475
181.15975	1735.075
185.46741	2444.975
189.77193	3351.875
194.07331	4484.975
198.37157	5781.675
202.6667	7119.775
206.9587	8453.275
211.24758	9781.675
215.53334	11093.775
219.81599	12495.375
224.09553	14037.775
228.37195	15695.875
232.64527	17542.675
236.91549	19422.375
241.18261	21374.575
245.44663	23116.075
249.70755	24748.075
253.96539	26143.275
258.22014	27395.975
262.4718	28338.275
266.72039	29035.175
270.96589	29426.475
275.20832	29521.175
279.44768	29425.175
283.68397	29278.175
287.91719	29174.575
292.14735	29132.375
296.37445	29259.575
300.59849	29370.275
304.81948	29529.675
309.03742	29487.575
313.25231	29154.175
317.46415	28575.875
321.67296	27785.875
325.87872	27073.075
330.08145	26644.575
334.28114	26489.575
338.47781	26606.875
342.67145	26763.375
346.86207	27129.175
351.04966	27492.175
355.23424	27862.575
359.4158	28240.175
363.59435	28569.275
367.76989	28775.175
371.94243	28867.475
376.11196	28872.275
380.27849	28829.475
384.44203	28872.175
388.60257	29102.075
392.76012	29470.775
396.91468	30044.475
401.06626	30635.075
405.21485	30852.575
409.36047	30719.475
413.50311	30396.375
417.64277	30266.975
421.77947	30400.175
425.9132	30578.275
430.04396	30820.175
434.17176	30888.375
438.2966	30963.175
442.41849	31259.975
446.53742	31980.175
450.6534	32900.475
454.76644	33540.575
458.87653	33808.075
462.98368	33731.475
467.08789	33509.875
471.18916	33168.275
475.2875	32936.675
479.38291	32904.375
483.4754	32807.975
487.56496	32512.775
491.6516	31763.475
495.73531	30977.075
499.81612	30473.875
503.89401	30468.875
507.96899	30553.475
512.04106	30566.575
516.11023	30348.175
520.1765	29820.775
524.23987	29316.675
528.30034	28828.475
532.35792	28411.475
536.41261	28109.975
540.46441	27913.975
544.51333	28014.275
548.55936	28474.675
552.60252	29217.275
556.64279	30079.075
560.6802	30795.575
564.71473	31288.575
568.7464	32199.475
572.7752	33682.675
576.80114	35318.175
580.82422	36726.575
584.84444	38137.475
588.86181	39697.175
592.87633	40851.175
596.888	39992.075
600.89682	37699.275
604.9028	36572.475
608.90594	37606.575
612.90624	38816.175
616.90371	35877.275
620.89834	30674.275
624.89015	28501.975
628.87913	28368.475
632.86528	28726.775
636.84862	28709.475
640.82913	28148.875
644.80683	27418.075
648.78172	26949.875
652.75379	26907.975
656.72306	27108.575
660.68952	27383.875
664.65319	27221.875
668.61405	26782.475
672.57211	26657.475
676.52738	26766.775
680.47986	26778.575
684.42955	26591.575
688.37646	26464.175
692.32058	26578.575
696.26192	26990.175
700.20048	27439.475
704.13626	27728.775
708.06928	27966.075
711.99952	27953.975
715.927	27917.275
719.85171	27862.275
723.77365	27584.675
727.69284	27060.175
731.60928	26595.975
735.52295	26379.875
739.43388	26258.175
743.34206	26318.675
747.24749	26578.775
751.15017	26969.275
755.05012	27665.775
758.94733	28662.175
762.8418	30237.775
766.73354	32342.775
770.62254	34024.275
774.50882	33793.375
778.39237	31922.875
782.27321	29673.075
786.15132	27992.875
790.02671	26959.975
793.89938	26343.575
797.76935	26067.775
801.6366	26017.975
805.50115	25990.075
809.36299	25858.175
813.22213	25662.875
817.07857	25590.675
820.93231	25495.075
824.78336	25244.375
828.63172	25027.175
832.47738	24864.475
836.32036	24810.875
840.16066	24741.775
843.99827	24773.275
847.8332	24697.975
851.66546	24697.075
855.49504	24774.275
859.32195	24789.275
863.1462	24666.975
866.96777	24551.975
870.78668	24510.975
874.60293	24484.775
878.41652	24450.475
882.22745	24485.975
886.03573	24571.875
889.84136	24573.775
893.64433	24492.475
897.44466	24433.675
901.24235	24423.175
905.0374	24360.175
908.8298	24314.075
912.61957	24451.175
916.40671	24853.175
920.19121	25363.275
923.97308	25703.875
927.75233	25598.475
931.52895	25083.475
935.30295	24468.075
939.07433	23887.775
942.84309	23475.275
946.60924	23227.775
950.37278	23158.175
954.13371	23205.375
957.89203	23225.875
961.64774	23297.375
965.40086	23333.175
969.15137	23193.075
972.89929	22978.275
976.64461	22815.175
980.38733	22684.775
984.12747	22688.075
987.86502	22797.675
991.59999	22854.575
995.33237	23000.075
999.06217	23359.975
1002.78939	23843.375
1006.51404	24270.575
1010.23611	24737.875
1013.95561	25086.275
1017.67255	25155.275
1021.38692	24949.475
1025.09872	24529.275
1028.80796	24191.375
1032.51465	24136.275
1036.21877	24249.575
1039.92035	24408.575
1043.61937	24499.975
1047.31584	24581.875
1051.00976	24577.575
1054.70114	24729.175
1058.38998	24963.775
1062.07627	25425.675
1065.76003	25887.275
1069.44126	26366.475
1073.11995	26820.775
1076.79611	27209.175
1080.46974	27350.775
1084.14085	27531.075
1087.80943	27787.275
1091.47549	28170.675
1095.13903	28322.875
1098.80005	27882.875
1102.45857	27045.175
1106.11456	26196.475
1109.76805	25761.975
1113.41903	25663.775
1117.06751	25830.475
1120.71348	26083.375
1124.35696	26400.275
1127.99793	26848.475
1131.63641	27104.575
1135.2724	27127.575
1138.90589	27233.975
1142.5369	27396.675
1146.16542	27915.375
1149.79145	28453.875
1153.415	28987.675
1157.03607	29716.575
1160.65467	31003.275
1164.27079	32902.175
1167.88443	35087.675
1171.49561	37155.875
1175.10432	39522.175
1178.71056	42335.575
1182.31434	44903.275
1185.91565	46259.775
1189.51451	46257.075
1193.11091	45408.075
1196.70485	44088.275
1200.29634	42439.375
1203.88538	41367.975
1207.47197	41127.375
1211.05612	41196.275
1214.63782	40511.175
1218.21708	38954.475
1221.79391	37110.875
1225.36829	35542.975
1228.94024	34607.175
1232.50976	34098.875
1236.07685	33663.575
1239.6415	33456.875
1243.20374	33548.575
1246.76355	33899.975
1250.32093	34443.475
1253.8759	35299.175
1257.42845	36422.775
1260.97859	37644.175
1264.52631	38874.275
1268.07163	40141.775
1271.61453	41322.175
1275.15503	42691.875
1278.69312	44303.175
1282.22882	46162.675
1285.76211	48455.275
1289.29301	51124.875
1292.82151	54233.475
1296.34761	57960.975
1299.87133	61866.675
1303.39266	65397.075
1306.9116	67812.375
1310.42815	69170.775
1313.94233	69470.275
1317.45412	68919.375
1320.96354	68275.575
1324.47058	68322.175
1327.97525	68784.275
1331.47754	69049.875
1334.97747	68879.875
1338.47502	68338.275
1341.97022	67194.975
1345.46305	65787.675
1348.95352	64423.775
1352.44163	63207.375
1355.92738	63038.075
1359.41078	63978.575
1362.89183	64858.275
1366.37053	63906.575
1369.84688	59737.175
1373.32088	53903.875
1376.79254	49613.775
1380.26186	48448.675
1383.72883	49108.975
1387.19347	49784.275
1390.65578	49754.875
1394.11575	49688.775
1397.57339	50241.875
1401.0287	51169.475
1404.48168	51841.975
1407.93234	51247.075
1411.38068	49475.175
1414.82669	46882.675
1418.27039	44143.475
1421.71177	41673.975
1425.15083	39752.175
1428.58758	38946.475
1432.02203	39419.175
1435.45416	40794.275
1438.88399	42513.775
1442.31151	43861.675
1445.73673	44735.275
1449.15965	45436.075
1452.58027	45826.875
1455.9986	45977.275
1459.41463	46178.575
1462.82837	46721.175
1466.23982	47421.775
1469.64898	48014.875
1473.05586	48280.275
1476.46045	48128.375
1479.86276	47597.475
1483.26279	46889.075
1486.66054	46537.675
1490.05602	46697.775
1493.44922	47250.275
1496.84016	47935.175
1500.22882	48801.075
1503.61521	49837.575
1506.99934	50997.375
1510.38121	51952.475
1513.76081	52242.175
1517.13816	52007.775
1520.51324	51560.475
1523.88607	51686.975
1527.25665	52207.975
1530.62498	52537.875
1533.99105	52260.075
1537.35488	51238.475
1540.71647	49479.375
1544.07581	47358.875
1547.4329	45316.475
1550.78776	43723.675
1554.14038	42594.675
1557.49077	41958.175
1560.83892	41595.075
1564.18484	41482.175
1567.52853	41515.275
1570.86999	42047.975
1574.20922	43308.475
1577.54624	44620.475
1580.88103	45702.975
1584.2136	46895.075
1587.54395	48783.275
1590.87208	51424.375
1594.19801	54225.875
1597.52172	56358.275
1600.84321	55972.675
1604.16251	52447.875
1607.47959	47426.975
1610.79447	42660.575
1614.10715	38509.475
1617.41763	35229.175
1620.7259	32990.375
1624.03199	31953.475
1627.33587	31962.375
1630.63757	33316.875
1633.93707	36190.175
1637.23439	40891.975
1640.52951	47601.475
1643.82246	55459.175
1647.11321	61470.675
1650.40179	62276.875
1653.68819	57025.875
1656.97241	48366.675
1660.25446	39989.375
1663.53433	33600.975
1666.81203	29381.775
1670.08756	26731.275
1673.36092	25002.475
1676.63211	23950.975
1679.90115	23204.975
1683.16801	22674.175
1686.43272	22226.575
1689.69527	21985.075
1692.95567	21726.475
1696.2139	21567.175
1699.46999	21435.275
1702.72392	21275.375
1705.97571	21161.875
1709.22535	21044.675
1712.47284	20986.175
1715.71819	20917.075
1718.96139	20794.575
1722.20246	20704.975
1725.44139	20546.575
1728.67818	20419.475
1731.91284	20250.075
1735.14537	20168.675
1738.37576	20022.875
1741.60403	19877.475
1744.83017	19825.475
1748.05418	19776.075
1751.27607	19729.375
1754.49584	19648.675
1757.71349	19661.475
1760.92903	19613.875
1764.14244	19593.375
1767.35375	19540.475
1770.56294	19475.475
1773.77002	19408.775
1776.97499	19342.275
1780.17785	19304.375
1783.37861	19257.975
1786.57727	19210.675
1789.77382	19136.475
1792.96828	19107.075
1796.16064	19045.775
1799.3509	19000.975
1802.53907	18958.975
1805.72514	18884.575
1808.90913	18845.375
1812.09102	18793.775
1815.27083	18777.675
1818.44856	18735.775
1821.6242	18700.875
1824.79776	18711.775
1827.96924	18683.575
1831.13864	18646.075
1834.30597	18677.875
1837.47122	18664.775
1840.6344	18698.075
1843.7955	18694.375
1846.95454	18668.475
1850.11151	18671.375
1853.26642	18637.275
1856.41926	18606.975
1859.57004	18583.175
1862.71876	18509.275
1865.86542	18491.075
1869.01003	18456.475
1872.15258	18431.375
1875.29308	18394.575
1878.43152	18377.475
1881.56792	18327.175
1884.70227	18273.375
1887.83457	18262.375
1890.96482	18244.675
1894.09304	18214.275
1897.21921	18219.775
1900.34335	18171.275
1903.46544	18124.975
1906.58551	18081.275
1909.70353	18056.875
1912.81953	18006.775
1915.93349	17954.375
1919.04543	17850.675
1922.15534	17827.175
1925.26322	17789.675
1928.36908	17736.975
1931.47292	17686.375
1934.57473	17631.375
1937.67453	17554.075
1940.77232	17534.975
1943.86808	17509.475
1946.96184	17436.875
1950.05358	17382.475
1953.14331	17353.475
1956.23103	17318.475
1959.31675	17227.075
1962.40046	17175.775
1965.48217	17138.975
1968.56188	17052.975
1971.63959	16972.475
1974.7153	16948.475
1977.78901	16880.375
1980.86073	16793.675
1983.93046	16743.475
1986.99819	16698.975
1990.06394	16645.675
1993.1277	16631.375
1996.18947	16521.375
1999.24925	16463.075
2002.30706	16409.575
2005.36288	16411.375
2008.41672	16330.875
2011.46859	16261.775
2014.51848	16213.075
2017.56639	16141.475
2020.61233	16116.275
2023.6563	16110.475
2026.6983	16051.375
2029.73833	16015.775
2032.7764	15992.075
2035.8125	15933.875
2038.84664	15898.075
2041.87881	15898.475
2044.90903	15843.975
2047.93729	15839.275
2050.96359	15797.475
2053.98794	15746.075
2057.01034	15726.475
2060.03078	15718.875
2063.04927	15731.275
2066.06582	15706.675
2069.08042	15708.775
2072.09307	15679.875
2075.10378	15642.275
2078.11255	15632.375
2081.11938	15638.775
2084.12426	15575.275
2087.12722	15592.175
2090.12824	15622.075
2093.12732	15573.275
2096.12447	15601.275
2099.11969	15618.075
2102.11299	15599.275
2105.10435	15616.775
2108.09379	15616.875
2111.08131	15621.475
2114.0669	15595.475
2117.05057	15625.675
2120.03233	15640.675
2123.01216	15677.875
2125.99008	15619.175
2128.96609	15621.575
2131.94018	15609.375
2134.91236	15593.075
2137.88263	15590.075
2140.851	15574.875
2143.81746	15615.975
2146.78201	15579.675
2149.74466	15560.575
2152.7054	15562.775
2155.66425	15573.375
2158.6212	15581.275
2161.57625	15539.675
2164.52941	15563.275
2167.48067	15507.375
2170.43004	15497.475
2173.37752	15477.075
2176.32311	15460.275
2179.26681	15499.675
2182.20863	15456.675
2185.14856	15487.375
2188.08661	15453.875
2191.02278	15486.075
2193.95707	15457.375
2196.88948	15436.175
2199.82001	15404.675
2202.74867	15393.775
2205.67545	15378.575
2208.60037	15340.075
2211.52341	15276.875
2214.44458	15260.775
2217.36388	15257.675
2220.28132	15224.175
2223.1969	15181.575
2226.11061	15191.675
2229.02246	15142.475
2231.93245	15137.175
2234.84058	15052.375
2237.74686	15062.275
2240.65128	15067.875
2243.55385	15049.775
2246.45456	15012.375
2249.35343	14965.375
2252.25044	14931.075
2255.14561	14878.575
2258.03893	14859.175
2260.93041	14811.975
2263.82004	14755.275
2266.70783	14738.775
2269.59378	14681.575
2272.4779	14609.475
2275.36017	14603.875
2278.24061	14552.875
2281.11922	14550.275
2283.996	14514.675
2286.87094	14477.275
2289.74405	14437.575
2292.61534	14430.375
2295.4848	14430.675
2298.35243	14412.475
2301.21824	14397.275
2304.08223	14390.875
2306.94439	14384.775
2309.80474	14374.275
2312.66327	14365.975
2315.51999	14343.675
2318.37489	14326.075
2321.22797	14274.775
2324.07925	14301.975
2326.92871	14257.375
2329.77637	14257.575
2332.62222	14228.175
2335.46626	14198.975
2338.3085	14207.975
2341.14893	14207.075
2343.98756	14158.375
2346.8244	14195.975
2349.65943	14173.175
2352.49267	14191.175
2355.32411	14176.175
2358.15376	14145.075
2360.98161	14159.875
2363.80768	14144.975
2366.63195	14124.175
2369.45444	14129.075
2372.27514	14119.975
2375.09405	14084.775
2377.91118	14032.775
2380.72652	14028.375
2383.54009	13997.675
2386.35187	13971.375
2389.16188	13951.375
2391.97011	13880.475
2394.77657	13892.975
2397.58125	13853.375
2400.38416	13838.575
2403.18529	13814.275
2405.98466	13812.275
2408.78226	13784.475
2411.57809	13776.275
2414.37216	13748.475
2417.16446	13779.475
2419.955	13754.375
2422.74378	13735.375
2425.5308	13707.875
2428.31606	13677.875
2431.09956	13688.775
2433.88131	13673.775
2436.6613	13658.575
2439.43954	13673.375
2442.21603	13630.575
2444.99077	13639.975
2447.76377	13642.575
2450.53501	13613.675
2453.30451	13615.975
2456.07226	13632.475
2458.83827	13598.875
2461.60254	13582.775
2464.36507	13623.275
2467.12586	13606.075
2469.88492	13587.875
2472.64224	13584.275
2475.39782	13595.775
2478.15167	13595.275
2480.90379	13547.975
2483.65417	13572.475
2486.40283	13573.875
2489.14976	13597.975
2491.89497	13576.575
2494.63845	13596.775
2497.3802	13560.975
2500.12024	13559.475
2502.85855	13555.475
2505.59514	13564.275
2508.33002	13577.475
2511.06318	13572.475
2513.79462	13570.275
2516.52435	13523.075
2519.25237	13502.275
2521.97867	13490.775
2524.70327	13515.675
2527.42616	13496.675
2530.14734	13499.975
2532.86681	13458.975
2535.58458	13445.675
2538.30065	13426.775
2541.01501	13442.775
2543.72768	13401.975
2546.43864	13391.275
2549.14791	13361.575
2551.85548	13371.875
2554.56136	13373.975
2557.26554	13356.875
2559.96803	13311.875
2562.66883	13337.475
2565.36794	13348.775
2568.06536	13332.475
2570.7611	13314.275
2573.45514	13289.575
2576.14751	13286.575
2578.83819	13281.475
2581.52719	13278.175
2584.21451	13261.975
2586.90015	13237.275
2589.58411	13243.475
2592.2664	13219.575
2594.94701	13198.975
2597.62594	13202.175
2600.30321	13178.575
2602.9788	13212.875
2605.65273	13182.975
2608.32498	13197.475
2610.99557	13208.775
2613.66449	13210.475
2616.33175	13185.675
2618.99734	13181.975
2621.66128	13181.675
2624.32355	13175.875
2626.98416	13192.475
2629.64311	13167.775
2632.30041	13180.575
2634.95605	13172.175
2637.61004	13139.475
2640.26238	13113.475
2642.91306	13128.775
2645.56209	13140.175
2648.20948	13122.075
2650.85521	13135.975
2653.4993	13129.975
2656.14175	13154.275
2658.78255	13146.775
2661.42171	13161.075
2664.05923	13192.775
2666.6951	13151.575
2669.32934	13203.475
2671.96194	13190.175
2674.59291	13179.975
2677.22224	13147.175
2679.84993	13189.275
2682.476	13189.575
2685.10043	13195.375
2687.72324	13167.875
2690.34441	13165.875
2692.96396	13168.175
2695.58188	13163.575
2698.19818	13143.575
2700.81285	13163.675
2703.4259	13156.075
2706.03733	13230.475
2708.64714	13192.275
2711.25533	13227.775
2713.86191	13196.275
2716.46687	13210.875
2719.07021	13199.675
2721.67194	13251.375
2724.27206	13243.475
2726.87057	13270.375
2729.46747	13256.875
2732.06276	13278.375
2734.65644	13264.775
2737.24852	13230.175
2739.83899	13268.275
2742.42786	13233.075
2745.01513	13201.375
2747.60079	13207.375
2750.18486	13228.475
2752.76733	13191.275
2755.3482	13196.875
2757.92747	13230.275
2760.50515	13234.675
2763.08123	13238.575
2765.65573	13212.575
2768.22863	13205.275
2770.79994	13191.175
2773.36967	13158.575
2775.9378	13169.075
2778.50435	13163.975
2781.06932	13169.075
2783.6327	13164.375
2786.1945	13148.275
2788.75471	13161.975
2791.31335	13160.275
2793.87041	13110.875
2796.42589	13088.075
2798.97979	13113.175
2801.53212	13070.175
2804.08288	13073.975
2806.63206	13034.775
2809.17967	13006.675
2811.72571	12952.375
2814.27018	12970.275
2816.81308	12957.875
2819.35442	12902.375
2821.89419	12887.175
2824.43239	12865.975
2826.96904	12886.075
2829.50412	12864.675
2832.03763	12825.475
2834.56959	12840.575
2837.1	12831.775
2839.62884	12832.475
2842.15613	12817.375
2844.68186	12861.875
2847.20604	12868.375
2849.72867	12886.275
2852.24974	12884.675
2854.76927	12861.475
2857.28724	12856.975
2859.80367	12841.875
2862.31855	12815.675
2864.83189	12793.875
2867.34368	12794.675
2869.85393	12742.375
2872.36264	12750.275
2874.8698	12750.575
2877.37543	12722.175
2879.87952	12698.975
2882.38207	12720.275
2884.88308	12724.275
2887.38256	12706.575
2889.88051	12734.475
2892.37692	12712.775
2894.8718	12718.375
2897.36515	12730.975
2899.85698	12718.675
2902.34727	12779.075
2904.83604	12776.675
2907.32328	12793.375
2909.809	12751.675
2912.29319	12728.875
2914.77587	12762.375
2917.25702	12733.375
2919.73665	12768.475
2922.21476	12733.475
2924.69136	12743.575
2927.16644	12768.975
2929.64	12745.675
2932.11205	12724.475
2934.58258	12721.575
2937.05161	12717.875
2939.51912	12737.075
2941.98513	12690.075
2944.44962	12635.575
2946.91261	12595.975
2949.37409	12623.375
2951.83407	12595.675
2954.29254	12579.775
2956.74951	12527.575
2959.20498	12528.875
2961.65895	12491.275
2964.11142	12492.675
2966.56239	12453.975
2969.01186	12429.375
2971.45984	12422.375
2973.90632	12385.375
2976.35131	12348.275
2978.7948	12298.675
2981.23681	12276.775
2983.67732	12247.075
2986.11635	12211.875
2988.55388	12163.075
2990.98993	12165.575
2993.4245	12112.975
2995.85758	12084.075
2998.28917	12065.475
3000.71928	12051.775
3003.14791	12002.775
3005.57506	11965.175
3008.00073	11918.275
3010.42493	11875.375
3012.84764	11893.075
3015.26888	11856.875
3017.68865	11836.475
3020.10694	11814.875
3022.52376	11773.075
3024.9391	11765.775
3027.35298	11743.175
3029.76539	11741.775
3032.17632	11732.175
3034.5858	11727.675
3036.9938	11699.775
3039.40034	11694.375
3041.80542	11672.875
3044.20903	11651.775
3046.61118	11631.075
3049.01187	11612.475
3051.4111	11581.075
3053.80888	11542.975
3056.20519	11537.875
3058.60005	11503.975
3060.99345	11451.675
3063.3854	11438.775
3065.7759	11385.275
3068.16494	11362.875
3070.55254	11309.075
3072.93868	11297.475
3075.32338	11217.075
3077.70662	11228.275
3080.08842	11165.475
3082.46878	11165.575
3084.84769	11135.175
3087.22515	11141.075
3089.60118	11143.975
3091.97576	11104.175
3094.3489	11084.675
3096.72061	11076.375
3099.09087	11087.875
3101.4597	11051.075
3103.82709	11033.275
3106.19305	11024.575
3108.55757	10999.275
3110.92066	10945.475
3113.28232	10952.175
3115.64255	10873.675
3118.00134	10869.475
3120.35871	10835.275
3122.71466	10840.775
3125.06917	10821.675
3127.42226	10793.075
