Data from AgNPs_FTO_APTES_UA_2uM_CRN_5uM_R6G_10uM_NaF_0.1M_Addition_RamanShift__4__12-43-05-095.txt Node

Date: Wed Feb 02 12:43:05 GMT 2022
User: TCL
Spectrometer: QEP01345
Trigger mode: 4
Integration Time (sec): 7.000000E0
Scans to average: 10
Electric dark correction enabled: true
Nonlinearity correction enabled: false
Boxcar width: 0
XAxis mode: Raman Shifts
Number of Pixels in Spectrum: 1044
>>>>>Begin Spectral Data<<<<<
46.04893	0.4375
50.45542	-0.6625
54.85868	-1.1625
59.25871	-0.1625
63.6555	103.0375
68.04907	105.0375
72.43941	104.3375
76.82654	112.3375
81.21044	112.7375
85.59113	121.9375
89.96862	121.2375
94.34289	120.9375
98.71396	128.9375
103.08183	138.0375
107.4465	136.7375
111.80798	144.2375
116.16626	146.5375
120.52136	154.1375
124.87327	163.1375
129.222	173.5375
133.56755	189.6375
137.90993	205.7375
142.24913	228.9375
146.58517	263.3375
150.91804	310.9375
155.24774	376.3375
159.57429	476.0375
163.89768	621.9375
168.21792	824.5375
172.53501	1134.5375
176.84895	1584.4375
181.15975	2230.7375
185.46741	3139.6375
189.77193	4308.6375
194.07331	5753.2375
198.37157	7400.1375
202.6667	9155.4375
206.9587	10849.7375
211.24758	12510.7375
215.53334	14276.5375
219.81599	16090.7375
224.09553	18158.5375
228.37195	20420.4375
232.64527	22876.7375
236.91549	25419.5375
241.18261	27876.5375
245.44663	30199.2375
249.70755	32223.4375
253.96539	34040.4375
258.22014	35566.8375
262.4718	36879.6375
266.72039	37777.5375
270.96589	38149.3375
275.20832	38177.2375
279.44768	37899.5375
283.68397	37528.7375
287.91719	37268.8375
292.14735	37138.0375
296.37445	37148.1375
300.59849	37293.1375
304.81948	37383.4375
309.03742	37498.9375
313.25231	37258.8375
317.46415	36712.6375
321.67296	35961.7375
325.87872	35245.5375
330.08145	34800.9375
334.28114	34670.9375
338.47781	34841.8375
342.67145	35197.1375
346.86207	35722.6375
351.04966	36373.9375
355.23424	37162.7375
359.4158	37813.0375
363.59435	38270.1375
367.76989	38673.6375
371.94243	38994.2375
376.11196	39126.2375
380.27849	39263.6375
384.44203	39532.8375
388.60257	39904.1375
392.76012	40354.8375
396.91468	40999.4375
401.06626	41642.1375
405.21485	41994.7375
409.36047	41974.4375
413.50311	41672.4375
417.64277	41620.1375
421.77947	41889.0375
425.9132	42183.4375
430.04396	42411.9375
434.17176	42628.2375
438.2966	42711.3375
442.41849	43344.8375
446.53742	44640.6375
450.6534	46096.0375
454.76644	47118.2375
458.87653	47326.4375
462.98368	46890.6375
467.08789	46047.4375
471.18916	45122.6375
475.2875	44228.5375
479.38291	43727.7375
483.4754	43423.2375
487.56496	42962.6375
491.6516	42369.9375
495.73531	41872.3375
499.81612	41663.5375
503.89401	41879.0375
507.96899	42039.1375
512.04106	41915.4375
516.11023	41460.5375
520.1765	40952.3375
524.23987	40443.3375
528.30034	40113.8375
532.35792	39712.8375
536.41261	39162.9375
540.46441	38571.3375
544.51333	38571.1375
548.55936	38958.5375
552.60252	39897.5375
556.64279	41046.0375
560.6802	41909.8375
564.71473	42437.5375
568.7464	43117.0375
572.7752	44406.8375
576.80114	45929.8375
580.82422	47756.2375
584.84444	50164.2375
588.86181	52844.8375
592.87633	54664.5375
596.888	53879.9375
600.89682	51043.7375
604.9028	50246.9375
608.90594	53259.4375
612.90624	56429.2375
616.90371	52690.3375
620.89834	44627.8375
624.89015	41017.4375
628.87913	40481.3375
632.86528	40427.0375
636.84862	39985.0375
640.82913	39038.6375
644.80683	38089.0375
648.78172	37527.7375
652.75379	37611.3375
656.72306	38115.6375
660.68952	38647.6375
664.65319	38287.1375
668.61405	37567.7375
672.57211	37528.9375
676.52738	37717.2375
680.47986	37719.6375
684.42955	37388.0375
688.37646	37219.4375
692.32058	37594.0375
696.26192	38270.1375
700.20048	39099.6375
704.13626	39400.4375
708.06928	39229.6375
711.99952	38899.8375
715.927	38981.9375
719.85171	39321.7375
723.77365	39249.5375
727.69284	38516.4375
731.60928	37733.9375
735.52295	37552.4375
739.43388	37604.0375
743.34206	37755.6375
747.24749	38032.4375
751.15017	38542.3375
755.05012	39300.0375
758.94733	40526.7375
762.8418	42452.6375
766.73354	45211.1375
770.62254	47545.0375
774.50882	47637.8375
778.39237	45340.3375
782.27321	42434.1375
786.15132	40059.7375
790.02671	38601.3375
793.89938	38010.8375
797.76935	37904.3375
801.6366	37860.9375
805.50115	37881.3375
809.36299	37630.9375
813.22213	37162.3375
817.07857	36893.4375
820.93231	36712.4375
824.78336	36382.1375
828.63172	36240.4375
832.47738	36209.0375
836.32036	36389.6375
840.16066	36663.0375
843.99827	36784.9375
847.8332	36685.9375
851.66546	36462.0375
855.49504	36368.7375
859.32195	36317.6375
863.1462	36144.6375
866.96777	35977.7375
870.78668	35921.9375
874.60293	35918.2375
878.41652	35959.0375
882.22745	36126.1375
886.03573	36322.6375
889.84136	36314.4375
893.64433	36152.4375
897.44466	35912.1375
901.24235	35736.2375
905.0374	35634.8375
908.8298	35607.5375
912.61957	35761.1375
916.40671	36130.7375
920.19121	36834.2375
923.97308	37446.9375
927.75233	37607.9375
931.52895	37307.2375
935.30295	36724.6375
939.07433	35956.0375
942.84309	35371.8375
946.60924	35243.8375
950.37278	35170.7375
954.13371	35094.9375
957.89203	34995.7375
961.64774	34949.3375
965.40086	34964.6375
969.15137	34956.9375
972.89929	34750.3375
976.64461	34642.5375
980.38733	34697.5375
984.12747	34907.8375
987.86502	35228.6375
991.59999	35718.0375
995.33237	36411.1375
999.06217	37630.2375
1002.78939	39171.3375
1006.51404	40278.5375
1010.23611	40941.0375
1013.95561	41292.9375
1017.67255	41200.7375
1021.38692	40638.3375
1025.09872	39953.1375
1028.80796	40151.1375
1032.51465	41629.2375
1036.21877	43189.9375
1039.92035	43742.8375
1043.61937	43139.6375
1047.31584	41863.1375
1051.00976	40383.7375
1054.70114	39473.2375
1058.38998	39186.9375
1062.07627	39214.8375
1065.76003	39394.6375
1069.44126	39748.9375
1073.11995	40422.0375
1076.79611	41054.4375
1080.46974	41499.6375
1084.14085	41929.0375
1087.80943	42405.1375
1091.47549	42720.4375
1095.13903	42584.7375
1098.80005	41935.7375
1102.45857	40932.4375
1106.11456	40158.0375
1109.76805	39770.9375
1113.41903	39715.0375
1117.06751	39829.6375
1120.71348	40068.6375
1124.35696	40522.8375
1127.99793	40875.3375
1131.63641	41307.0375
1135.2724	41350.1375
1138.90589	41321.4375
1142.5369	41477.5375
1146.16542	41848.1375
1149.79145	42284.1375
1153.415	42697.3375
1157.03607	43554.4375
1160.65467	45297.9375
1164.27079	48072.6375
1167.88443	51180.9375
1171.49561	54283.0375
1175.10432	57935.1375
1178.71056	62721.0375
1182.31434	67418.9375
1185.91565	69710.5375
1189.51451	69122.4375
1193.11091	66966.9375
1196.70485	64362.1375
1200.29634	61896.2375
1203.88538	60285.8375
1207.47197	59602.8375
1211.05612	58953.5375
1214.63782	57915.3375
1218.21708	56415.0375
1221.79391	54793.1375
1225.36829	53622.8375
1228.94024	52550.7375
1232.50976	51325.2375
1236.07685	50316.9375
1239.6415	49790.7375
1243.20374	49753.2375
1246.76355	50364.7375
1250.32093	51361.0375
1253.8759	52814.0375
1257.42845	54559.3375
1260.97859	56493.6375
1264.52631	58541.9375
1268.07163	60719.8375
1271.61453	62870.3375
1275.15503	65235.6375
1278.69312	67481.4375
1282.22882	69836.9375
1285.76211	72355.8375
1289.29301	75238.7375
1292.82151	78751.8375
1296.34761	83360.6375
1299.87133	89196.0375
1303.39266	95468.7375
1306.9116	101227.5375
1310.42815	105161.6375
1313.94233	106347.5375
1317.45412	104929.2375
1320.96354	102326.5375
1324.47058	100145.0375
1327.97525	98722.1375
1331.47754	97871.1375
1334.97747	97080.6375
1338.47502	95646.0375
1341.97022	93065.6375
1345.46305	89996.0375
1348.95352	87799.8375
1352.44163	87512.1375
1355.92738	90269.3375
1359.41078	95171.9375
1362.89183	98795.2375
1366.37053	97594.6375
1369.84688	90233.0375
1373.32088	79839.1375
1376.79254	72362.3375
1380.26186	69887.4375
1383.72883	70348.6375
1387.19347	70692.5375
1390.65578	69735.4375
1394.11575	69419.7375
1397.57339	70448.7375
1401.0287	72184.7375
1404.48168	74008.5375
1407.93234	74425.9375
1411.38068	73213.7375
1414.82669	70789.6375
1418.27039	67796.7375
1421.71177	64440.7375
1425.15083	61834.7375
1428.58758	60675.8375
1432.02203	61388.5375
1435.45416	63583.9375
1438.88399	66089.4375
1442.31151	68008.2375
1445.73673	68905.1375
1449.15965	69248.6375
1452.58027	68986.4375
1455.9986	68220.3375
1459.41463	68084.5375
1462.82837	69041.2375
1466.23982	70579.8375
1469.64898	72156.9375
1473.05586	73289.9375
1476.46045	73764.6375
1479.86276	73266.3375
1483.26279	72264.7375
1486.66054	71606.0375
1490.05602	71577.9375
1493.44922	71922.0375
1496.84016	71892.3375
1500.22882	71953.6375
1503.61521	72365.3375
1506.99934	73363.0375
1510.38121	74225.0375
1513.76081	74314.3375
1517.13816	73275.0375
1520.51324	71744.2375
1523.88607	70837.0375
1527.25665	70981.5375
1530.62498	71524.5375
1533.99105	71561.3375
1537.35488	70955.3375
1540.71647	69587.2375
1544.07581	67692.7375
1547.4329	65633.6375
1550.78776	63814.8375
1554.14038	62402.3375
1557.49077	61481.0375
1560.83892	60692.7375
1564.18484	60191.2375
1567.52853	60056.7375
1570.86999	60381.9375
1574.20922	61545.9375
1577.54624	62910.5375
1580.88103	64068.9375
1584.2136	65933.8375
1587.54395	69525.8375
1590.87208	75002.0375
1594.19801	81174.9375
1597.52172	86416.4375
1600.84321	87237.5375
1604.16251	82043.1375
1607.47959	73486.7375
1610.79447	64854.2375
1614.10715	57897.7375
1617.41763	52709.6375
1620.7259	49557.7375
1624.03199	48310.1375
1627.33587	48792.3375
1630.63757	50863.8375
1633.93707	54852.2375
1637.23439	61410.5375
1640.52951	70746.8375
1643.82246	81573.1375
1647.11321	89373.3375
1650.40179	89159.4375
1653.68819	80345.7375
1656.97241	67562.9375
1660.25446	56178.9375
1663.53433	48221.4375
1666.81203	43365.2375
1670.08756	40352.1375
1673.36092	38498.9375
1676.63211	37348.3375
1679.90115	36423.2375
1683.16801	35769.5375
1686.43272	35372.7375
1689.69527	34995.1375
1692.95567	34727.9375
1696.2139	34594.5375
1699.46999	34439.9375
1702.72392	34248.1375
1705.97571	34150.7375
1709.22535	34045.8375
1712.47284	34033.3375
1715.71819	34011.9375
1718.96139	33898.2375
1722.20246	33748.8375
1725.44139	33616.5375
1728.67818	33392.3375
1731.91284	33159.2375
1735.14537	32993.4375
1738.37576	32906.1375
1741.60403	32736.8375
1744.83017	32625.2375
1748.05418	32567.7375
1751.27607	32532.5375
1754.49584	32498.7375
1757.71349	32420.9375
1760.92903	32424.0375
1764.14244	32357.6375
1767.35375	32354.5375
1770.56294	32284.5375
1773.77002	32224.9375
1776.97499	32160.1375
1780.17785	32099.5375
1783.37861	32071.1375
1786.57727	32024.1375
1789.77382	31983.9375
1792.96828	31906.8375
1796.16064	31818.5375
1799.3509	31775.3375
1802.53907	31701.0375
1805.72514	31626.2375
1808.90913	31589.6375
1812.09102	31627.1375
1815.27083	31511.5375
1818.44856	31507.0375
1821.6242	31501.2375
1824.79776	31491.4375
1827.96924	31495.8375
1831.13864	31542.2375
1834.30597	31525.5375
1837.47122	31491.5375
1840.6344	31489.1375
1843.7955	31490.3375
1846.95454	31497.2375
1850.11151	31509.2375
1853.26642	31498.8375
1856.41926	31475.3375
1859.57004	31481.0375
1862.71876	31453.1375
1865.86542	31427.5375
1869.01003	31412.1375
1872.15258	31431.1375
1875.29308	31423.4375
1878.43152	31402.5375
1881.56792	31343.8375
1884.70227	31326.1375
1887.83457	31340.8375
1890.96482	31310.4375
1894.09304	31227.8375
1897.21921	31228.1375
1900.34335	31200.6375
1903.46544	31114.5375
1906.58551	31059.6375
1909.70353	31025.5375
1912.81953	30940.2375
1915.93349	30890.5375
1919.04543	30814.7375
1922.15534	30766.0375
1925.26322	30686.5375
1928.36908	30603.0375
1931.47292	30600.9375
1934.57473	30460.0375
1937.67453	30360.7375
1940.77232	30287.7375
1943.86808	30215.2375
1946.96184	30142.6375
1950.05358	30104.3375
1953.14331	30023.8375
1956.23103	29902.1375
1959.31675	29876.4375
1962.40046	29781.6375
1965.48217	29693.3375
1968.56188	29624.0375
1971.63959	29581.8375
1974.7153	29462.3375
1977.78901	29418.5375
1980.86073	29340.7375
1983.93046	29235.1375
1986.99819	29114.7375
1990.06394	29002.6375
1993.1277	28973.4375
1996.18947	28865.4375
1999.24925	28825.1375
2002.30706	28732.5375
2005.36288	28679.9375
2008.41672	28593.9375
2011.46859	28564.5375
2014.51848	28442.8375
2017.56639	28466.9375
2020.61233	28393.2375
2023.6563	28334.2375
2026.6983	28297.2375
2029.73833	28267.8375
2032.7764	28233.6375
2035.8125	28198.3375
2038.84664	28177.3375
2041.87881	28159.5375
2044.90903	28117.0375
2047.93729	28071.2375
2050.96359	28011.7375
2053.98794	27954.2375
2057.01034	27961.4375
2060.03078	27981.2375
2063.04927	27956.3375
2066.06582	27941.7375
2069.08042	27928.9375
2072.09307	27908.8375
2075.10378	27881.1375
2078.11255	27889.0375
2081.11938	27881.6375
2084.12426	27867.8375
2087.12722	27844.7375
2090.12824	27775.7375
2093.12732	27818.5375
2096.12447	27845.7375
2099.11969	27866.6375
2102.11299	27893.2375
2105.10435	27892.5375
2108.09379	27916.1375
2111.08131	27920.6375
2114.0669	27908.8375
2117.05057	27876.4375
2120.03233	27980.2375
2123.01216	27975.2375
2125.99008	27971.0375
2128.96609	28003.7375
2131.94018	28009.9375
2134.91236	28024.7375
2137.88263	28023.6375
2140.851	28038.2375
2143.81746	28080.1375
2146.78201	28059.8375
2149.74466	28098.1375
2152.7054	28104.4375
2155.66425	28136.8375
2158.6212	28168.4375
2161.57625	28147.9375
2164.52941	28158.9375
2167.48067	28127.4375
2170.43004	28111.3375
2173.37752	28107.0375
2176.32311	28126.1375
2179.26681	28148.0375
2182.20863	28182.9375
2185.14856	28219.9375
2188.08661	28246.9375
2191.02278	28258.6375
2193.95707	28239.6375
2196.88948	28205.3375
2199.82001	28207.0375
2202.74867	28191.8375
2205.67545	28241.7375
2208.60037	28159.7375
2211.52341	28117.4375
2214.44458	28124.0375
2217.36388	28089.6375
2220.28132	28105.0375
2223.1969	28046.2375
2226.11061	28053.1375
2229.02246	27998.4375
2231.93245	27989.0375
2234.84058	27948.8375
2237.74686	27945.1375
2240.65128	27887.9375
2243.55385	27794.6375
2246.45456	27768.1375
2249.35343	27731.2375
2252.25044	27705.9375
2255.14561	27650.8375
2258.03893	27561.3375
2260.93041	27469.2375
2263.82004	27432.3375
2266.70783	27362.7375
2269.59378	27274.0375
2272.4779	27244.5375
2275.36017	27215.0375
2278.24061	27174.5375
2281.11922	27099.5375
2283.996	27162.3375
2286.87094	27119.5375
2289.74405	27130.0375
2292.61534	27069.4375
2295.4848	27106.9375
2298.35243	27098.0375
2301.21824	27090.0375
2304.08223	27143.9375
2306.94439	27174.8375
2309.80474	27223.0375
2312.66327	27222.3375
2315.51999	27197.4375
2318.37489	27236.6375
2321.22797	27212.0375
2324.07925	27185.4375
2326.92871	27156.5375
2329.77637	27205.4375
2332.62222	27153.4375
2335.46626	27100.0375
2338.3085	27120.5375
2341.14893	27104.0375
2343.98756	27137.7375
2346.8244	27173.4375
2349.65943	27161.9375
2352.49267	27129.8375
2355.32411	27165.6375
2358.15376	27200.3375
2360.98161	27161.0375
2363.80768	27132.3375
2366.63195	27091.2375
2369.45444	26990.5375
2372.27514	26962.5375
2375.09405	26867.9375
2377.91118	26851.9375
2380.72652	26773.6375
2383.54009	26776.4375
2386.35187	26755.3375
2389.16188	26730.9375
2391.97011	26729.3375
2394.77657	26704.9375
2397.58125	26681.6375
2400.38416	26623.0375
2403.18529	26566.1375
2405.98466	26527.5375
2408.78226	26532.5375
2411.57809	26501.2375
2414.37216	26453.0375
2417.16446	26469.8375
2419.955	26445.3375
2422.74378	26459.4375
2425.5308	26360.3375
2428.31606	26388.4375
2431.09956	26402.9375
2433.88131	26348.3375
2436.6613	26381.4375
2439.43954	26411.2375
2442.21603	26368.2375
2444.99077	26365.7375
2447.76377	26379.3375
2450.53501	26357.1375
2453.30451	26350.3375
2456.07226	26366.4375
2458.83827	26322.6375
2461.60254	26376.6375
2464.36507	26390.7375
2467.12586	26380.7375
2469.88492	26398.3375
2472.64224	26431.6375
2475.39782	26431.0375
2478.15167	26464.6375
2480.90379	26451.7375
2483.65417	26489.6375
2486.40283	26455.4375
2489.14976	26464.4375
2491.89497	26502.3375
2494.63845	26570.1375
2497.3802	26510.7375
2500.12024	26538.4375
2502.85855	26590.0375
2505.59514	26556.0375
2508.33002	26524.6375
2511.06318	26549.8375
2513.79462	26519.3375
2516.52435	26533.7375
2519.25237	26539.2375
2521.97867	26481.5375
2524.70327	26481.7375
2527.42616	26432.9375
2530.14734	26482.8375
2532.86681	26448.8375
2535.58458	26406.7375
2538.30065	26409.0375
2541.01501	26461.6375
2543.72768	26418.2375
2546.43864	26421.5375
2549.14791	26394.5375
2551.85548	26367.6375
2554.56136	26361.9375
2557.26554	26408.8375
2559.96803	26373.4375
2562.66883	26316.8375
2565.36794	26350.5375
2568.06536	26387.9375
2570.7611	26360.6375
2573.45514	26374.3375
2576.14751	26374.2375
2578.83819	26337.2375
2581.52719	26323.5375
2584.21451	26332.8375
2586.90015	26337.3375
2589.58411	26321.2375
2592.2664	26374.7375
2594.94701	26267.4375
2597.62594	26257.9375
2600.30321	26260.9375
2602.9788	26304.6375
2605.65273	26252.4375
2608.32498	26267.5375
2610.99557	26273.4375
2613.66449	26293.7375
2616.33175	26280.7375
2618.99734	26322.2375
2621.66128	26317.6375
2624.32355	26322.2375
2626.98416	26333.6375
2629.64311	26272.4375
2632.30041	26287.0375
2634.95605	26283.4375
2637.61004	26239.1375
2640.26238	26195.0375
2642.91306	26228.1375
2645.56209	26200.0375
2648.20948	26190.7375
2650.85521	26164.7375
2653.4993	26240.9375
2656.14175	26195.8375
2658.78255	26268.0375
2661.42171	26256.0375
2664.05923	26277.0375
2666.6951	26266.4375
2669.32934	26373.6375
2671.96194	26325.2375
2674.59291	26359.5375
2677.22224	26325.8375
2679.84993	26330.6375
2682.476	26275.1375
2685.10043	26247.4375
2687.72324	26226.5375
2690.34441	26288.4375
2692.96396	26292.2375
2695.58188	26334.3375
2698.19818	26283.2375
2700.81285	26314.4375
2703.4259	26288.4375
2706.03733	26370.4375
2708.64714	26328.4375
2711.25533	26364.7375
2713.86191	26391.9375
2716.46687	26469.0375
2719.07021	26437.6375
2721.67194	26431.9375
2724.27206	26445.5375
2726.87057	26425.8375
2729.46747	26494.6375
2732.06276	26514.9375
2734.65644	26509.9375
2737.24852	26563.2375
2739.83899	26549.6375
2742.42786	26584.7375
2745.01513	26557.5375
2747.60079	26494.1375
2750.18486	26515.6375
2752.76733	26537.6375
2755.3482	26489.5375
2757.92747	26507.5375
2760.50515	26507.9375
2763.08123	26501.4375
2765.65573	26457.6375
2768.22863	26498.5375
2770.79994	26441.6375
2773.36967	26447.0375
2775.9378	26493.9375
2778.50435	26509.8375
2781.06932	26511.9375
2783.6327	26484.2375
2786.1945	26478.5375
2788.75471	26424.5375
2791.31335	26391.5375
2793.87041	26372.0375
2796.42589	26328.6375
2798.97979	26381.1375
2801.53212	26368.1375
2804.08288	26308.1375
2806.63206	26284.8375
2809.17967	26241.4375
2811.72571	26136.2375
2814.27018	26135.3375
2816.81308	26115.0375
2819.35442	26063.9375
2821.89419	25993.1375
2824.43239	26008.5375
2826.96904	25959.2375
2829.50412	25998.5375
2832.03763	25930.2375
2834.56959	25982.5375
2837.1	25937.6375
2839.62884	25915.4375
2842.15613	25902.0375
2844.68186	25990.2375
2847.20604	26004.1375
2849.72867	25999.4375
2852.24974	25980.6375
2854.76927	25980.9375
2857.28724	25982.0375
2859.80367	25915.3375
2862.31855	25869.8375
2864.83189	25839.4375
2867.34368	25878.4375
2869.85393	25819.3375
2872.36264	25843.2375
2874.8698	25825.7375
2877.37543	25882.1375
2879.87952	25871.4375
2882.38207	25845.5375
2884.88308	25867.4375
2887.38256	25875.4375
2889.88051	25894.6375
2892.37692	25953.5375
2894.8718	25998.4375
2897.36515	26050.0375
2899.85698	26043.4375
2902.34727	26034.1375
2904.83604	26083.4375
2907.32328	26118.3375
2909.809	26062.8375
2912.29319	26058.7375
2914.77587	26116.8375
2917.25702	26108.4375
2919.73665	26137.1375
2922.21476	26130.9375
2924.69136	26103.9375
2927.16644	26107.2375
2929.64	26080.4375
2932.11205	26030.8375
2934.58258	25962.1375
2937.05161	26013.1375
2939.51912	26016.1375
2941.98513	25935.6375
2944.44962	25910.8375
2946.91261	25799.7375
2949.37409	25882.6375
2951.83407	25888.5375
2954.29254	25896.9375
2956.74951	25828.1375
2959.20498	25836.6375
2961.65895	25760.1375
2964.11142	25788.7375
2966.56239	25690.2375
2969.01186	25684.5375
2971.45984	25675.3375
2973.90632	25609.6375
2976.35131	25585.4375
2978.7948	25525.7375
2981.23681	25474.3375
2983.67732	25398.1375
2986.11635	25331.7375
2988.55388	25252.7375
2990.98993	25226.7375
2993.4245	25154.7375
2995.85758	25114.8375
2998.28917	25058.1375
3000.71928	25059.6375
3003.14791	25019.2375
3005.57506	24997.8375
3008.00073	24910.8375
3010.42493	24891.4375
3012.84764	24832.2375
3015.26888	24864.4375
3017.68865	24770.7375
3020.10694	24760.4375
3022.52376	24681.2375
