Data from AgNPs_FTO_APTES_UA_2uM_CRN_2uM_R6G_10uM_NaF_0.1M_Addition_RamanShift__19__12-20-55-070.txt Node

Date: Wed Feb 02 12:20:55 GMT 2022
User: TCL
Spectrometer: QEP01345
Trigger mode: 4
Integration Time (sec): 7.000000E0
Scans to average: 10
Electric dark correction enabled: true
Nonlinearity correction enabled: false
Boxcar width: 0
XAxis mode: Raman Shifts
Number of Pixels in Spectrum: 1044
>>>>>Begin Spectral Data<<<<<
46.04893	1.075
50.45542	-0.125
54.85868	-1.825
59.25871	-0.925
63.6555	90.275
68.04907	96.275
72.43941	99.275
76.82654	105.875
81.21044	107.375
85.59113	115.475
89.96862	115.975
94.34289	119.975
98.71396	123.275
103.08183	131.275
107.4465	132.575
111.80798	140.175
116.16626	139.575
120.52136	150.575
124.87327	157.175
129.222	167.475
133.56755	179.075
137.90993	196.775
142.24913	221.675
146.58517	256.175
150.91804	298.575
155.24774	367.275
159.57429	462.075
163.89768	604.075
168.21792	803.175
172.53501	1109.075
176.84895	1547.175
181.15975	2184.075
185.46741	3065.775
189.77193	4221.975
194.07331	5648.875
198.37157	7256.075
202.6667	8939.675
206.9587	10634.375
211.24758	12263.675
215.53334	13978.175
219.81599	15820.575
224.09553	17833.575
228.37195	20114.975
232.64527	22605.775
236.91549	25148.775
241.18261	27623.875
245.44663	29902.575
249.70755	31776.375
253.96539	33470.875
258.22014	34913.875
262.4718	36156.375
266.72039	37051.575
270.96589	37503.975
275.20832	37630.975
279.44768	37397.375
283.68397	37098.575
287.91719	36961.975
292.14735	36962.575
296.37445	37063.775
300.59849	37410.075
304.81948	37654.575
309.03742	37734.275
313.25231	37355.175
317.46415	36298.975
321.67296	34871.775
325.87872	33716.875
330.08145	32995.075
334.28114	32787.375
338.47781	32937.375
342.67145	33292.175
346.86207	33895.375
351.04966	34644.775
355.23424	35476.275
359.4158	36152.875
363.59435	36618.675
367.76989	36813.875
371.94243	37014.575
376.11196	37132.375
380.27849	37222.375
384.44203	37362.275
388.60257	37583.075
392.76012	37956.775
396.91468	38512.375
401.06626	39261.775
405.21485	39690.075
409.36047	39375.175
413.50311	38526.775
417.64277	37935.175
421.77947	37730.175
425.9132	37836.475
430.04396	38034.575
434.17176	38235.775
438.2966	38539.675
442.41849	39269.675
446.53742	40452.175
450.6534	41848.575
454.76644	42951.175
458.87653	43298.775
462.98368	43043.875
467.08789	42416.675
471.18916	41614.275
475.2875	40999.775
479.38291	40829.475
483.4754	40671.375
487.56496	40201.575
491.6516	39353.275
495.73531	38600.875
499.81612	38175.875
503.89401	38222.375
507.96899	38280.175
512.04106	38102.875
516.11023	37797.875
520.1765	37352.475
524.23987	36925.075
528.30034	36546.875
532.35792	36059.875
536.41261	35444.475
540.46441	34833.175
544.51333	34751.375
548.55936	35308.675
552.60252	36405.875
556.64279	37637.475
560.6802	38419.275
564.71473	38911.275
568.7464	39762.775
572.7752	41017.875
576.80114	41992.975
580.82422	42957.075
584.84444	43932.575
588.86181	44874.275
592.87633	45668.075
596.888	45943.975
600.89682	45595.975
604.9028	46800.775
608.90594	51518.275
612.90624	56361.475
616.90371	52345.775
620.89834	41927.275
624.89015	37268.375
628.87913	36863.375
632.86528	37011.675
636.84862	36756.075
640.82913	35926.275
644.80683	34593.175
648.78172	33530.075
652.75379	33299.475
656.72306	33782.875
660.68952	34522.575
664.65319	34328.575
668.61405	33499.175
672.57211	33153.775
676.52738	33197.875
680.47986	33093.775
684.42955	32874.675
688.37646	32737.675
692.32058	32948.475
696.26192	33357.575
700.20048	33938.575
704.13626	34267.075
708.06928	34213.275
711.99952	33899.575
715.927	33785.975
719.85171	33933.175
723.77365	33794.875
727.69284	33220.875
731.60928	32775.475
735.52295	32616.375
739.43388	32632.075
743.34206	32807.975
747.24749	32988.975
751.15017	33429.675
755.05012	34252.475
758.94733	35623.475
762.8418	38152.175
766.73354	42052.075
770.62254	45766.175
774.50882	46508.275
778.39237	43626.075
782.27321	39505.875
786.15132	36139.275
790.02671	34163.675
793.89938	33183.975
797.76935	32865.875
801.6366	32817.275
805.50115	32683.475
809.36299	32416.975
813.22213	32030.475
817.07857	31873.175
820.93231	31760.775
824.78336	31576.075
828.63172	31348.675
832.47738	31263.975
836.32036	31410.975
840.16066	31546.975
843.99827	31693.375
847.8332	31555.475
851.66546	31336.375
855.49504	31253.275
859.32195	31173.875
863.1462	31000.275
866.96777	30802.675
870.78668	30687.475
874.60293	30676.875
878.41652	30712.275
882.22745	30848.675
886.03573	31005.975
889.84136	30993.575
893.64433	30850.875
897.44466	30650.275
901.24235	30506.175
905.0374	30355.375
908.8298	30298.975
912.61957	30337.575
916.40671	30709.175
920.19121	31405.175
923.97308	31998.375
927.75233	32260.275
931.52895	32034.375
935.30295	31522.475
939.07433	30586.475
942.84309	29854.275
946.60924	29529.075
950.37278	29401.475
954.13371	29323.875
957.89203	29189.175
961.64774	29134.575
965.40086	29082.275
969.15137	28959.375
972.89929	28801.075
976.64461	28601.875
980.38733	28630.075
984.12747	28761.675
987.86502	29093.775
991.59999	29566.775
995.33237	30381.075
999.06217	31677.975
1002.78939	33134.675
1006.51404	34067.975
1010.23611	34533.275
1013.95561	34877.275
1017.67255	34756.275
1021.38692	34173.475
1025.09872	33676.075
1028.80796	33905.375
1032.51465	35163.575
1036.21877	36515.375
1039.92035	36730.075
1043.61937	36107.575
1047.31584	34908.575
1051.00976	33618.275
1054.70114	32975.375
1058.38998	32936.675
1062.07627	33129.575
1065.76003	33388.775
1069.44126	33706.075
1073.11995	34346.975
1076.79611	34905.175
1080.46974	35242.275
1084.14085	35614.875
1087.80943	36254.475
1091.47549	36579.075
1095.13903	36701.675
1098.80005	36040.775
1102.45857	34878.775
1106.11456	33962.275
1109.76805	33538.775
1113.41903	33536.575
1117.06751	33784.375
1120.71348	34257.675
1124.35696	34741.875
1127.99793	35383.475
1131.63641	35806.375
1135.2724	35595.775
1138.90589	35253.575
1142.5369	35132.275
1146.16542	35218.275
1149.79145	35528.175
1153.415	35953.675
1157.03607	36642.975
1160.65467	37859.275
1164.27079	39865.575
1167.88443	42661.775
1171.49561	46277.375
1175.10432	50988.675
1178.71056	56871.075
1182.31434	62273.375
1185.91565	65168.175
1189.51451	64865.675
1193.11091	62456.075
1196.70485	58918.075
1200.29634	55466.775
1203.88538	52838.575
1207.47197	51122.775
1211.05612	50038.675
1214.63782	49093.975
1218.21708	48220.175
1221.79391	47556.275
1225.36829	47140.875
1228.94024	46406.175
1232.50976	45228.075
1236.07685	44271.575
1239.6415	43598.475
1243.20374	43316.875
1246.76355	43617.975
1250.32093	44453.575
1253.8759	45745.975
1257.42845	47523.175
1260.97859	49408.275
1264.52631	51219.975
1268.07163	53143.975
1271.61453	55268.775
1275.15503	57453.475
1278.69312	59693.175
1282.22882	61798.575
1285.76211	63763.075
1289.29301	65977.475
1292.82151	68779.575
1296.34761	72417.775
1299.87133	77185.175
1303.39266	82683.475
1306.9116	88805.775
1310.42815	94624.675
1313.94233	98412.575
1317.45412	98857.975
1320.96354	96961.275
1324.47058	94494.275
1327.97525	92069.675
1331.47754	90197.475
1334.97747	88856.975
1338.47502	87701.075
1341.97022	86396.775
1345.46305	84485.275
1348.95352	82228.775
1352.44163	80974.775
1355.92738	82087.475
1359.41078	86231.475
1362.89183	90473.575
1366.37053	89610.875
1369.84688	82342.875
1373.32088	72620.975
1376.79254	65565.775
1380.26186	62727.575
1383.72883	62333.375
1387.19347	62343.675
1390.65578	61929.875
1394.11575	61923.775
1397.57339	62905.875
1401.0287	64422.875
1404.48168	65870.075
1407.93234	65989.175
1411.38068	64676.875
1414.82669	62161.375
1418.27039	59014.075
1421.71177	55791.275
1425.15083	53263.575
1428.58758	51877.075
1432.02203	52079.775
1435.45416	53534.875
1438.88399	55526.975
1442.31151	57141.775
1445.73673	58448.175
1449.15965	59560.575
1452.58027	60301.275
1455.9986	60466.575
1459.41463	60960.975
1462.82837	62085.375
1466.23982	63502.475
1469.64898	64767.475
1473.05586	65390.075
1476.46045	65242.475
1479.86276	64524.675
1483.26279	63517.575
1486.66054	62788.875
1490.05602	62853.875
1493.44922	63200.875
1496.84016	63767.975
1500.22882	65069.975
1503.61521	67240.275
1506.99934	70049.375
1510.38121	72598.875
1513.76081	73594.175
1517.13816	71959.475
1520.51324	68551.675
1523.88607	65593.275
1527.25665	63740.775
1530.62498	62904.875
1533.99105	62615.975
1537.35488	62112.975
1540.71647	61171.775
1544.07581	59717.175
1547.4329	58119.675
1550.78776	56665.875
1554.14038	55697.375
1557.49077	55198.375
1560.83892	54912.375
1564.18484	54922.175
1567.52853	55149.275
1570.86999	55582.575
1574.20922	56544.075
1577.54624	57453.175
1580.88103	57732.875
1584.2136	58324.075
1587.54395	60301.075
1590.87208	63964.575
1594.19801	68865.075
1597.52172	73607.275
1600.84321	74911.475
1604.16251	70947.175
1607.47959	63835.175
1610.79447	56570.675
1614.10715	50386.675
1617.41763	45603.275
1620.7259	42353.075
1624.03199	40817.275
1627.33587	40923.475
1630.63757	42614.375
1633.93707	46317.775
1637.23439	52083.575
1640.52951	60213.375
1643.82246	69225.875
1647.11321	75898.775
1650.40179	76780.275
1653.68819	70708.575
1656.97241	60188.375
1660.25446	49721.675
1663.53433	41813.375
1666.81203	36697.075
1670.08756	33552.175
1673.36092	31568.275
1676.63211	30315.175
1679.90115	29427.475
1683.16801	28750.775
1686.43272	28249.875
1689.69527	27929.175
1692.95567	27663.575
1696.2139	27479.975
1699.46999	27324.175
1702.72392	27175.775
1705.97571	27057.775
1709.22535	26977.975
1712.47284	26930.475
1715.71819	26858.675
1718.96139	26688.575
1722.20246	26609.575
1725.44139	26492.075
1728.67818	26313.175
1731.91284	26106.875
1735.14537	25937.875
1738.37576	25767.475
1741.60403	25686.575
1744.83017	25534.975
1748.05418	25531.075
1751.27607	25423.975
1754.49584	25420.075
1757.71349	25352.375
1760.92903	25314.675
1764.14244	25311.875
1767.35375	25273.775
1770.56294	25181.375
1773.77002	25147.875
1776.97499	25075.975
1780.17785	25017.375
1783.37861	24956.475
1786.57727	24927.975
1789.77382	24881.175
1792.96828	24797.175
1796.16064	24741.275
1799.3509	24715.675
1802.53907	24667.075
1805.72514	24541.375
1808.90913	24479.275
1812.09102	24450.175
1815.27083	24408.575
1818.44856	24384.875
1821.6242	24377.675
1824.79776	24361.475
1827.96924	24325.775
1831.13864	24345.175
1834.30597	24352.575
1837.47122	24351.575
1840.6344	24305.675
1843.7955	24375.575
1846.95454	24392.975
1850.11151	24381.875
1853.26642	24385.575
1856.41926	24379.175
1859.57004	24326.475
1862.71876	24388.075
1865.86542	24341.875
1869.01003	24364.875
1872.15258	24391.075
1875.29308	24377.575
1878.43152	24337.375
1881.56792	24394.175
1884.70227	24360.275
1887.83457	24393.875
1890.96482	24388.875
1894.09304	24387.675
1897.21921	24361.175
1900.34335	24363.775
1903.46544	24338.275
1906.58551	24351.075
1909.70353	24253.075
1912.81953	24179.875
1915.93349	24138.275
1919.04543	24052.175
1922.15534	24001.275
1925.26322	23876.275
1928.36908	23850.475
1931.47292	23715.975
1934.57473	23603.775
1937.67453	23490.075
1940.77232	23397.175
1943.86808	23331.675
1946.96184	23219.875
1950.05358	23133.675
1953.14331	23045.575
1956.23103	22997.075
1959.31675	22880.975
1962.40046	22821.775
1965.48217	22753.475
1968.56188	22711.375
1971.63959	22637.675
1974.7153	22553.375
1977.78901	22497.575
1980.86073	22395.375
1983.93046	22289.675
1986.99819	22227.675
1990.06394	22156.775
1993.1277	22135.275
1996.18947	22030.075
1999.24925	21943.875
2002.30706	21883.975
2005.36288	21844.375
2008.41672	21766.375
2011.46859	21726.575
2014.51848	21689.575
2017.56639	21648.575
2020.61233	21555.375
2023.6563	21555.975
2026.6983	21506.475
2029.73833	21500.775
2032.7764	21453.475
2035.8125	21457.675
2038.84664	21384.575
2041.87881	21399.875
2044.90903	21413.575
2047.93729	21329.675
2050.96359	21323.375
2053.98794	21248.675
2057.01034	21263.475
2060.03078	21258.175
2063.04927	21205.475
2066.06582	21163.875
2069.08042	21181.275
2072.09307	21123.275
2075.10378	21142.175
2078.11255	21110.375
2081.11938	21087.775
2084.12426	21097.275
2087.12722	21043.375
2090.12824	21012.275
2093.12732	21035.575
2096.12447	21058.075
2099.11969	21017.475
2102.11299	21072.375
2105.10435	21070.275
2108.09379	21074.675
2111.08131	21081.075
2114.0669	21089.875
2117.05057	21096.975
2120.03233	21142.175
2123.01216	21139.475
2125.99008	21155.975
2128.96609	21168.175
2131.94018	21148.875
2134.91236	21142.775
2137.88263	21132.475
2140.851	21144.675
2143.81746	21146.575
2146.78201	21160.475
2149.74466	21142.175
2152.7054	21174.075
2155.66425	21209.375
2158.6212	21179.675
2161.57625	21193.375
2164.52941	21203.075
2167.48067	21151.375
2170.43004	21135.875
2173.37752	21135.575
2176.32311	21149.975
2179.26681	21169.575
2182.20863	21187.475
2185.14856	21214.675
2188.08661	21196.975
2191.02278	21237.375
2193.95707	21206.375
2196.88948	21187.675
2199.82001	21189.475
2202.74867	21165.875
2205.67545	21187.675
2208.60037	21145.775
2211.52341	21176.475
2214.44458	21145.675
2217.36388	21148.475
2220.28132	21099.675
2223.1969	21052.375
2226.11061	21024.575
2229.02246	20991.975
2231.93245	20955.175
2234.84058	20935.675
2237.74686	20886.675
2240.65128	20864.775
2243.55385	20781.375
2246.45456	20757.875
2249.35343	20725.975
2252.25044	20695.175
2255.14561	20665.875
2258.03893	20627.675
2260.93041	20590.275
2263.82004	20524.475
2266.70783	20477.875
2269.59378	20430.775
2272.4779	20412.575
2275.36017	20346.075
2278.24061	20286.575
2281.11922	20261.775
2283.996	20229.875
2286.87094	20245.975
2289.74405	20187.375
2292.61534	20162.275
2295.4848	20211.275
2298.35243	20168.175
2301.21824	20154.975
2304.08223	20169.875
2306.94439	20190.175
2309.80474	20264.775
2312.66327	20252.775
2315.51999	20230.175
2318.37489	20290.475
2321.22797	20311.175
2324.07925	20252.175
2326.92871	20254.675
2329.77637	20261.575
2332.62222	20241.275
2335.46626	20206.075
2338.3085	20223.075
2341.14893	20226.075
2343.98756	20265.375
2346.8244	20284.075
2349.65943	20324.675
2352.49267	20305.275
2355.32411	20317.875
2358.15376	20332.575
2360.98161	20299.675
2363.80768	20268.575
2366.63195	20247.675
2369.45444	20191.775
2372.27514	20165.875
2375.09405	20095.875
2377.91118	20010.175
2380.72652	19956.275
2383.54009	19908.375
2386.35187	19889.575
2389.16188	19839.375
2391.97011	19859.575
2394.77657	19801.175
2397.58125	19784.375
2400.38416	19757.075
2403.18529	19703.975
2405.98466	19716.375
2408.78226	19649.175
2411.57809	19641.975
2414.37216	19624.075
2417.16446	19607.275
2419.955	19552.675
2422.74378	19539.075
2425.5308	19534.775
2428.31606	19497.675
2431.09956	19541.175
2433.88131	19490.875
2436.6613	19497.875
2439.43954	19538.475
2442.21603	19557.175
2444.99077	19493.575
2447.76377	19537.375
2450.53501	19479.875
2453.30451	19557.775
2456.07226	19514.875
2458.83827	19510.075
2461.60254	19534.775
2464.36507	19553.475
2467.12586	19531.675
2469.88492	19555.475
2472.64224	19550.975
2475.39782	19579.275
2478.15167	19608.575
2480.90379	19605.375
2483.65417	19609.775
2486.40283	19670.475
2489.14976	19665.575
2491.89497	19706.475
2494.63845	19689.275
2497.3802	19658.075
2500.12024	19712.375
2502.85855	19709.575
2505.59514	19680.375
2508.33002	19641.875
2511.06318	19646.475
2513.79462	19601.075
2516.52435	19589.575
2519.25237	19577.275
2521.97867	19519.275
2524.70327	19526.075
2527.42616	19511.775
2530.14734	19525.075
2532.86681	19494.875
2535.58458	19546.975
2538.30065	19479.075
2541.01501	19478.075
2543.72768	19507.075
2546.43864	19523.775
2549.14791	19449.975
2551.85548	19462.775
2554.56136	19467.275
2557.26554	19472.675
2559.96803	19441.675
2562.66883	19436.375
2565.36794	19403.375
2568.06536	19402.275
2570.7611	19422.375
2573.45514	19389.475
2576.14751	19368.375
2578.83819	19366.175
2581.52719	19388.075
2584.21451	19372.775
2586.90015	19369.875
2589.58411	19364.575
2592.2664	19383.275
2594.94701	19367.675
2597.62594	19349.675
2600.30321	19368.375
2602.9788	19386.875
2605.65273	19347.375
2608.32498	19345.075
2610.99557	19337.375
2613.66449	19359.475
2616.33175	19349.275
2618.99734	19384.775
2621.66128	19385.375
2624.32355	19394.175
2626.98416	19416.775
2629.64311	19417.975
2632.30041	19407.975
2634.95605	19419.775
2637.61004	19397.375
2640.26238	19379.975
2642.91306	19369.775
2645.56209	19331.275
2648.20948	19336.075
2650.85521	19330.475
2653.4993	19344.475
2656.14175	19307.475
2658.78255	19290.875
2661.42171	19305.375
2664.05923	19351.275
2666.6951	19352.775
2669.32934	19369.575
2671.96194	19364.875
2674.59291	19379.375
2677.22224	19336.975
2679.84993	19356.875
2682.476	19334.975
2685.10043	19303.975
2687.72324	19256.975
2690.34441	19283.275
2692.96396	19285.275
2695.58188	19264.475
2698.19818	19256.775
2700.81285	19249.975
2703.4259	19253.775
2706.03733	19328.675
2708.64714	19270.775
2711.25533	19259.275
2713.86191	19296.975
2716.46687	19365.775
2719.07021	19359.275
2721.67194	19373.575
2724.27206	19365.175
2726.87057	19366.075
2729.46747	19379.775
2732.06276	19399.775
2734.65644	19399.875
2737.24852	19400.375
2739.83899	19410.575
2742.42786	19392.975
2745.01513	19355.175
2747.60079	19369.075
2750.18486	19370.075
2752.76733	19333.675
2755.3482	19334.075
2757.92747	19352.475
2760.50515	19311.375
2763.08123	19319.775
2765.65573	19310.475
2768.22863	19349.375
2770.79994	19308.175
2773.36967	19336.875
2775.9378	19346.875
2778.50435	19337.975
2781.06932	19340.575
2783.6327	19313.575
2786.1945	19314.675
2788.75471	19298.375
2791.31335	19251.475
2793.87041	19247.375
2796.42589	19201.375
2798.97979	19252.175
2801.53212	19208.875
2804.08288	19205.375
2806.63206	19126.075
2809.17967	19076.975
2811.72571	19019.375
2814.27018	19048.675
2816.81308	18982.475
2819.35442	18978.175
2821.89419	18981.975
2824.43239	18969.275
2826.96904	18949.275
2829.50412	18955.475
2832.03763	18895.175
2834.56959	18938.275
2837.1	18908.375
2839.62884	18938.075
2842.15613	18908.275
2844.68186	18947.775
2847.20604	18958.275
2849.72867	18997.575
2852.24974	18980.675
2854.76927	18981.975
2857.28724	18960.175
2859.80367	18945.675
2862.31855	18910.475
2864.83189	18896.775
2867.34368	18870.475
2869.85393	18901.875
2872.36264	18893.675
2874.8698	18957.075
2877.37543	18965.375
2879.87952	18983.075
2882.38207	18993.975
2884.88308	18929.575
2887.38256	18966.275
2889.88051	18957.975
2892.37692	19015.775
2894.8718	18996.175
2897.36515	19020.475
2899.85698	19027.575
2902.34727	19069.375
2904.83604	19125.475
2907.32328	19178.175
2909.809	19175.175
2912.29319	19182.875
2914.77587	19169.975
2917.25702	19140.575
2919.73665	19130.875
2922.21476	19128.675
2924.69136	19116.075
2927.16644	19093.175
2929.64	19097.975
2932.11205	19004.375
2934.58258	18932.075
2937.05161	18945.875
2939.51912	18910.075
2941.98513	18880.975
2944.44962	18858.375
2946.91261	18799.875
2949.37409	18804.875
2951.83407	18771.875
2954.29254	18780.875
2956.74951	18718.975
2959.20498	18688.675
2961.65895	18689.975
2964.11142	18650.675
2966.56239	18576.075
2969.01186	18571.775
2971.45984	18499.375
2973.90632	18434.675
2976.35131	18455.075
2978.7948	18407.775
2981.23681	18317.675
2983.67732	18247.175
2986.11635	18174.775
2988.55388	18126.375
2990.98993	18080.675
2993.4245	18054.375
2995.85758	17985.175
2998.28917	17977.275
3000.71928	17990.175
3003.14791	17906.475
3005.57506	17879.875
3008.00073	17814.875
3010.42493	17829.575
3012.84764	17814.575
3015.26888	17768.975
3017.68865	17752.075
3020.10694	17710.675
3022.52376	17625.375
3024.9391	17664.175
3027.35298	17656.475
3029.76539	17637.175
3032.17632	17580.475
3034.5858	17546.975
3036.9938	17517.575
3039.40034	17548.375
3041.80542	17554.475
3044.20903	17528.575
3046.61118	17496.575
3049.01187	17440.575
3051.4111	17453.875
3053.80888	17413.475
3056.20519	17368.675
3058.60005	17304.675
3060.99345	17279.375
3063.3854	17245.575
3065.7759	17176.175
3068.16494	17140.775
3070.55254	17074.675
3072.93868	17079.375
3075.32338	17038.575
3077.70662	17012.975
3080.08842	16958.175
3082.46878	16917.275
3084.84769	16887.975
3087.22515	16878.975
3089.60118	16881.675
3091.97576	16855.475
3094.3489	16851.675
3096.72061	16860.275
3099.09087	16844.975
3101.4597	16795.775
3103.82709	16765.775
3106.19305	16762.275
3108.55757	16739.075
3110.92066	16626.475
3113.28232	16652.675
3115.64255	16605.075
3118.00134	16609.075
3120.35871	16564.975
3122.71466	16532.975
3125.06917	16484.975
3127.42226	16448.675
