Data from AgNPs_FTO_APTES_UA_2uM_CRN_2uM_R6G_10uM_NaF_0.1M_Addition_RamanShift__24__12-26-45-076.txt Node

Date: Wed Feb 02 12:26:45 GMT 2022
User: TCL
Spectrometer: QEP01345
Trigger mode: 4
Integration Time (sec): 7.000000E0
Scans to average: 10
Electric dark correction enabled: true
Nonlinearity correction enabled: false
Boxcar width: 0
XAxis mode: Raman Shifts
Number of Pixels in Spectrum: 1044
>>>>>Begin Spectral Data<<<<<
46.04893	2.05
50.45542	0.15
54.85868	-1.45
59.25871	-1.35
63.6555	97.55
68.04907	103.35
72.43941	105.55
76.82654	115.55
81.21044	114.35
85.59113	117.65
89.96862	123.45
94.34289	128.35
98.71396	134.45
103.08183	138.05
107.4465	139.75
111.80798	144.05
116.16626	149.75
120.52136	159.25
124.87327	164.05
129.222	174.85
133.56755	190.75
137.90993	198.45
142.24913	233.05
146.58517	268.85
150.91804	312.55
155.24774	382.15
159.57429	477.45
163.89768	622.95
168.21792	833.15
172.53501	1144.95
176.84895	1608.75
181.15975	2256.65
185.46741	3168.75
189.77193	4382.65
194.07331	5865.35
198.37157	7535.25
202.6667	9306.05
206.9587	11037.15
211.24758	12786.15
215.53334	14582.25
219.81599	16578.25
224.09553	18753.25
228.37195	21216.95
232.64527	23850.95
236.91549	26577.85
241.18261	29132.75
245.44663	31393.25
249.70755	33313.25
253.96539	35023.85
258.22014	36475.25
262.4718	37808.45
266.72039	38783.75
270.96589	39333.35
275.20832	39483.75
279.44768	39401.65
283.68397	39125.45
287.91719	38964.95
292.14735	39003.85
296.37445	39396.25
300.59849	39936.95
304.81948	40604.45
309.03742	41032.75
313.25231	40696.05
317.46415	39232.65
321.67296	37154.15
325.87872	35398.75
330.08145	34482.15
334.28114	34384.75
338.47781	34604.55
342.67145	35293.35
346.86207	36239.75
351.04966	37580.95
355.23424	39140.65
359.4158	40293.15
363.59435	40958.05
367.76989	41206.15
371.94243	41275.85
376.11196	41190.55
380.27849	41105.15
384.44203	40988.85
388.60257	40919.55
392.76012	41102.85
396.91468	41619.25
401.06626	42660.55
405.21485	43231.65
409.36047	42891.05
413.50311	41552.95
417.64277	40419.15
421.77947	39915.15
425.9132	39888.15
430.04396	40081.05
434.17176	40295.45
438.2966	40706.85
442.41849	41527.55
446.53742	42841.35
450.6534	44358.05
454.76644	45455.65
458.87653	45739.25
462.98368	45382.45
467.08789	44682.85
471.18916	43774.05
475.2875	42883.35
479.38291	42228.55
483.4754	41860.25
487.56496	41273.75
491.6516	40628.35
495.73531	40077.35
499.81612	39885.05
503.89401	40008.05
507.96899	40199.85
512.04106	40235.35
516.11023	40174.45
520.1765	40055.25
524.23987	39797.45
528.30034	39298.95
532.35792	38656.35
536.41261	37910.65
540.46441	37263.35
544.51333	37081.25
548.55936	37581.95
552.60252	38651.75
556.64279	39824.45
560.6802	40570.65
564.71473	41012.65
568.7464	42191.35
572.7752	43449.85
576.80114	43695.05
580.82422	43612.75
584.84444	43814.65
588.86181	44196.95
592.87633	44957.55
596.888	45595.55
600.89682	46206.85
604.9028	48823.35
608.90594	56519.75
612.90624	65924.45
616.90371	62521.05
620.89834	47753.75
624.89015	40862.45
628.87913	39854.55
632.86528	39929.65
636.84862	39820.75
640.82913	38951.85
644.80683	37389.75
648.78172	36296.95
652.75379	36160.85
656.72306	37044.95
660.68952	38361.55
664.65319	38217.35
668.61405	37098.05
672.57211	36464.35
676.52738	36426.65
680.47986	36357.85
684.42955	36153.75
688.37646	36037.25
692.32058	36186.85
696.26192	36616.85
700.20048	37151.95
704.13626	37524.35
708.06928	37469.35
711.99952	37074.95
715.927	36870.95
719.85171	36892.85
723.77365	36737.55
727.69284	36240.95
731.60928	35811.45
735.52295	35712.15
739.43388	35889.85
743.34206	36063.75
747.24749	36325.45
751.15017	36777.15
755.05012	37553.95
758.94733	39179.45
762.8418	42351.65
766.73354	47633.95
770.62254	52821.65
774.50882	54629.85
778.39237	51492.25
782.27321	45912.95
786.15132	41013.55
790.02671	38039.35
793.89938	36695.35
797.76935	36125.55
801.6366	35905.45
805.50115	35749.75
809.36299	35515.35
813.22213	35259.95
817.07857	35181.15
820.93231	35173.35
824.78336	35182.35
828.63172	35140.65
832.47738	35227.35
836.32036	35323.25
840.16066	35360.65
843.99827	35455.35
847.8332	35250.55
851.66546	35116.75
855.49504	34989.85
859.32195	34870.25
863.1462	34643.25
866.96777	34441.95
870.78668	34305.65
874.60293	34343.05
878.41652	34365.45
882.22745	34515.65
886.03573	34755.75
889.84136	34698.35
893.64433	34468.45
897.44466	34284.75
901.24235	34201.15
905.0374	34125.95
908.8298	34040.05
912.61957	34081.85
916.40671	34433.45
920.19121	35046.75
923.97308	35603.65
927.75233	35939.85
931.52895	35967.15
935.30295	35446.95
939.07433	34528.55
942.84309	33723.25
946.60924	33311.75
950.37278	33146.55
954.13371	32904.35
957.89203	32668.35
961.64774	32573.15
965.40086	32514.75
969.15137	32382.55
972.89929	32202.65
976.64461	32142.45
980.38733	32137.55
984.12747	32356.75
987.86502	32668.25
991.59999	33236.15
995.33237	34019.55
999.06217	35286.85
1002.78939	36911.95
1006.51404	38101.25
1010.23611	38749.75
1013.95561	39139.75
1017.67255	39060.65
1021.38692	38476.85
1025.09872	38041.05
1028.80796	38329.05
1032.51465	39547.15
1036.21877	40758.65
1039.92035	40940.15
1043.61937	40242.35
1047.31584	39038.25
1051.00976	37659.45
1054.70114	36822.05
1058.38998	36616.95
1062.07627	36736.15
1065.76003	37012.25
1069.44126	37292.65
1073.11995	37789.55
1076.79611	38272.55
1080.46974	38548.15
1084.14085	39089.15
1087.80943	39844.85
1091.47549	40207.75
1095.13903	39936.85
1098.80005	38891.65
1102.45857	37846.75
1106.11456	37059.85
1109.76805	36947.05
1113.41903	37239.75
1117.06751	37853.25
1120.71348	38685.45
1124.35696	39640.05
1127.99793	40525.05
1131.63641	40758.95
1135.2724	39981.15
1138.90589	39005.45
1142.5369	38509.35
1146.16542	38194.15
1149.79145	38181.35
1153.415	38446.15
1157.03607	38965.35
1160.65467	39949.65
1164.27079	41540.15
1167.88443	44047.45
1171.49561	47598.35
1175.10432	52811.45
1178.71056	59480.55
1182.31434	65242.05
1185.91565	67945.15
1189.51451	67655.15
1193.11091	64858.35
1196.70485	60659.85
1200.29634	56900.15
1203.88538	53858.05
1207.47197	51233.55
1211.05612	49263.15
1214.63782	48151.25
1218.21708	47764.15
1221.79391	47904.85
1225.36829	48088.45
1228.94024	47878.55
1232.50976	47301.15
1236.07685	46882.55
1239.6415	46384.65
1243.20374	46118.45
1246.76355	46166.05
1250.32093	46792.45
1253.8759	47935.85
1257.42845	49691.05
1260.97859	51402.55
1264.52631	52908.35
1268.07163	54549.85
1271.61453	56277.15
1275.15503	58229.25
1278.69312	60062.85
1282.22882	61596.85
1285.76211	63315.45
1289.29301	65250.85
1292.82151	67508.15
1296.34761	70191.45
1299.87133	73862.45
1303.39266	78999.75
1306.9116	85722.75
1310.42815	93256.35
1313.94233	98563.55
1317.45412	99351.65
1320.96354	96417.35
1324.47058	92304.85
1327.97525	88472.55
1331.47754	85734.35
1334.97747	84242.55
1338.47502	83956.35
1341.97022	83705.35
1345.46305	83226.85
1348.95352	82543.05
1352.44163	82807.25
1355.92738	85567.05
1359.41078	91986.05
1362.89183	99023.65
1366.37053	98095.95
1369.84688	87916.45
1373.32088	76061.55
1376.79254	67925.15
1380.26186	64286.15
1383.72883	63051.95
1387.19347	62197.15
1390.65578	61191.05
1394.11575	60958.85
1397.57339	61643.65
1401.0287	63100.15
1404.48168	64623.55
1407.93234	65542.55
1411.38068	65532.55
1414.82669	64326.65
1418.27039	61809.55
1421.71177	58962.45
1425.15083	56629.85
1428.58758	55187.75
1432.02203	55006.75
1435.45416	55687.85
1438.88399	56666.05
1442.31151	57479.05
1445.73673	58269.85
1449.15965	59107.85
1452.58027	59575.25
1455.9986	59611.15
1459.41463	59833.25
1462.82837	60629.85
1466.23982	61858.95
1469.64898	63078.65
1473.05586	63797.85
1476.46045	64024.85
1479.86276	64117.95
1483.26279	64168.75
1486.66054	64431.05
1490.05602	65254.45
1493.44922	66407.85
1496.84016	67765.85
1500.22882	69902.55
1503.61521	73163.75
1506.99934	77561.55
1510.38121	82220.45
1513.76081	84984.95
1517.13816	83385.85
1520.51324	77977.25
1523.88607	71974.95
1527.25665	67795.55
1530.62498	65277.15
1533.99105	63743.05
1537.35488	62808.75
1540.71647	61952.45
1544.07581	61080.35
1547.4329	59990.45
1550.78776	59005.95
1554.14038	58369.25
1557.49077	58367.65
1560.83892	58572.35
1564.18484	59027.45
1567.52853	59398.45
1570.86999	59577.15
1574.20922	60041.35
1577.54624	60377.25
1580.88103	59658.35
1584.2136	58950.65
1587.54395	59959.05
1590.87208	63003.15
1594.19801	67596.75
1597.52172	72467.65
1600.84321	74386.15
1604.16251	71369.15
1607.47959	65312.55
1610.79447	58796.85
1614.10715	52989.35
1617.41763	48546.65
1620.7259	45614.55
1624.03199	44178.75
1627.33587	44408.35
1630.63757	45928.55
1633.93707	49044.15
1637.23439	53691.35
1640.52951	59836.25
1643.82246	66753.55
1647.11321	72503.65
1650.40179	74628.05
1653.68819	70789.75
1656.97241	61585.35
1660.25446	51916.45
1663.53433	44474.65
1666.81203	39817.35
1670.08756	36982.45
1673.36092	35251.35
1676.63211	34118.15
1679.90115	33355.75
1683.16801	32741.75
1686.43272	32362.55
1689.69527	32066.65
1692.95567	31874.85
1696.2139	31693.05
1699.46999	31600.65
1702.72392	31478.05
1705.97571	31387.65
1709.22535	31283.05
1712.47284	31310.35
1715.71819	31326.05
1718.96139	31207.85
1722.20246	31119.75
1725.44139	30986.25
1728.67818	30839.35
1731.91284	30655.55
1735.14537	30463.15
1738.37576	30326.65
1741.60403	30198.85
1744.83017	30122.55
1748.05418	30062.35
1751.27607	30000.95
1754.49584	29962.85
1757.71349	29913.55
1760.92903	29869.55
1764.14244	29862.75
1767.35375	29853.05
1770.56294	29767.85
1773.77002	29735.85
1776.97499	29650.95
1780.17785	29633.65
1783.37861	29581.85
1786.57727	29559.55
1789.77382	29456.95
1792.96828	29439.95
1796.16064	29390.75
1799.3509	29357.55
1802.53907	29280.95
1805.72514	29171.75
1808.90913	29163.55
1812.09102	29116.75
1815.27083	29047.45
1818.44856	29059.05
1821.6242	28977.55
1824.79776	28992.65
1827.96924	28977.75
1831.13864	29009.75
1834.30597	28994.55
1837.47122	28965.95
1840.6344	28970.25
1843.7955	28935.55
1846.95454	28903.05
1850.11151	28946.15
1853.26642	28983.55
1856.41926	28979.15
1859.57004	28989.35
1862.71876	29062.95
1865.86542	29057.45
1869.01003	29073.45
1872.15258	29094.25
1875.29308	29143.55
1878.43152	29169.75
1881.56792	29183.45
1884.70227	29213.85
1887.83457	29257.05
1890.96482	29276.15
1894.09304	29296.45
1897.21921	29311.05
1900.34335	29355.45
1903.46544	29322.85
1906.58551	29360.95
1909.70353	29366.05
1912.81953	29338.55
1915.93349	29293.55
1919.04543	29266.75
1922.15534	29224.65
1925.26322	29122.25
1928.36908	29037.15
1931.47292	28843.65
1934.57473	28693.85
1937.67453	28541.65
1940.77232	28424.45
1943.86808	28303.45
1946.96184	28152.65
1950.05358	28051.85
1953.14331	27928.45
1956.23103	27789.25
1959.31675	27691.85
1962.40046	27592.15
1965.48217	27498.65
1968.56188	27407.25
1971.63959	27403.45
1974.7153	27263.65
1977.78901	27163.95
1980.86073	27091.15
1983.93046	26984.35
1986.99819	26890.85
1990.06394	26785.85
1993.1277	26720.75
1996.18947	26607.05
1999.24925	26535.55
2002.30706	26456.05
2005.36288	26447.15
2008.41672	26326.75
2011.46859	26291.55
2014.51848	26213.65
2017.56639	26155.75
2020.61233	26114.95
2023.6563	26022.05
2026.6983	26001.35
2029.73833	25959.05
2032.7764	25940.15
2035.8125	25871.15
2038.84664	25819.35
2041.87881	25890.55
2044.90903	25785.65
2047.93729	25736.05
2050.96359	25725.65
2053.98794	25668.75
2057.01034	25631.45
2060.03078	25625.65
2063.04927	25579.65
2066.06582	25554.55
2069.08042	25551.65
2072.09307	25516.15
2075.10378	25485.15
2078.11255	25445.25
2081.11938	25466.95
2084.12426	25436.95
2087.12722	25370.15
2090.12824	25382.45
2093.12732	25329.95
2096.12447	25360.75
2099.11969	25357.65
2102.11299	25381.85
2105.10435	25452.55
2108.09379	25394.95
2111.08131	25427.95
2114.0669	25413.75
2117.05057	25441.65
2120.03233	25440.75
2123.01216	25486.35
2125.99008	25483.85
2128.96609	25499.75
2131.94018	25526.75
2134.91236	25507.95
2137.88263	25517.65
2140.851	25574.75
2143.81746	25550.25
2146.78201	25547.35
2149.74466	25547.05
2152.7054	25578.75
2155.66425	25587.45
2158.6212	25540.85
2161.57625	25565.55
2164.52941	25567.35
2167.48067	25552.75
2170.43004	25515.95
2173.37752	25488.55
2176.32311	25536.95
2179.26681	25564.55
2182.20863	25533.05
2185.14856	25548.65
2188.08661	25563.25
2191.02278	25610.85
2193.95707	25565.15
2196.88948	25602.45
2199.82001	25603.85
2202.74867	25548.15
2205.67545	25570.05
2208.60037	25560.55
2211.52341	25520.25
2214.44458	25538.25
2217.36388	25459.55
2220.28132	25457.15
2223.1969	25415.95
2226.11061	25362.05
2229.02246	25309.55
2231.93245	25284.35
2234.84058	25230.15
2237.74686	25212.05
2240.65128	25184.65
2243.55385	25118.85
2246.45456	25095.05
2249.35343	25073.55
2252.25044	25022.25
2255.14561	24975.65
2258.03893	24978.65
2260.93041	24873.75
2263.82004	24801.65
2266.70783	24770.85
2269.59378	24752.05
2272.4779	24632.45
2275.36017	24587.85
2278.24061	24570.55
2281.11922	24518.45
2283.996	24478.05
2286.87094	24473.35
2289.74405	24409.75
2292.61534	24430.25
2295.4848	24398.55
2298.35243	24407.65
2301.21824	24382.55
2304.08223	24395.55
2306.94439	24439.45
2309.80474	24436.65
2312.66327	24485.45
2315.51999	24469.85
2318.37489	24502.55
2321.22797	24469.95
2324.07925	24438.55
2326.92871	24433.75
2329.77637	24422.45
2332.62222	24416.65
2335.46626	24402.15
2338.3085	24400.05
2341.14893	24394.35
2343.98756	24433.55
2346.8244	24475.75
2349.65943	24490.75
2352.49267	24505.15
2355.32411	24513.65
2358.15376	24482.75
2360.98161	24475.25
2363.80768	24478.65
2366.63195	24406.35
2369.45444	24368.25
2372.27514	24309.65
2375.09405	24249.65
2377.91118	24166.35
2380.72652	24091.85
2383.54009	24048.85
2386.35187	24034.45
2389.16188	23958.65
2391.97011	23936.05
2394.77657	23890.55
2397.58125	23869.15
2400.38416	23800.55
2403.18529	23742.95
2405.98466	23712.65
2408.78226	23660.95
2411.57809	23621.85
2414.37216	23641.25
2417.16446	23615.25
2419.955	23568.75
2422.74378	23518.85
2425.5308	23492.05
2428.31606	23491.15
2431.09956	23447.45
2433.88131	23457.25
2436.6613	23479.35
2439.43954	23467.55
2442.21603	23460.75
2444.99077	23444.85
2447.76377	23441.15
2450.53501	23400.75
2453.30451	23472.05
2456.07226	23447.85
2458.83827	23433.55
2461.60254	23421.85
2464.36507	23416.45
2467.12586	23436.15
2469.88492	23403.35
2472.64224	23428.05
2475.39782	23462.45
2478.15167	23506.45
2480.90379	23475.15
2483.65417	23524.45
2486.40283	23549.65
2489.14976	23604.45
2491.89497	23557.35
2494.63845	23650.85
2497.3802	23623.45
2500.12024	23602.05
2502.85855	23610.75
2505.59514	23586.35
2508.33002	23555.55
2511.06318	23544.15
2513.79462	23462.85
2516.52435	23462.55
2519.25237	23414.85
2521.97867	23349.65
2524.70327	23319.15
2527.42616	23320.75
2530.14734	23309.45
2532.86681	23288.05
2535.58458	23268.75
2538.30065	23256.75
2541.01501	23227.85
2543.72768	23237.45
2546.43864	23279.65
2549.14791	23190.65
2551.85548	23196.05
2554.56136	23197.25
2557.26554	23175.85
2559.96803	23177.45
2562.66883	23147.35
2565.36794	23093.65
2568.06536	23099.65
2570.7611	23101.35
2573.45514	23105.65
2576.14751	23072.65
2578.83819	23010.75
2581.52719	23084.75
2584.21451	23027.75
2586.90015	23026.65
2589.58411	23072.65
2592.2664	23019.35
2594.94701	23002.95
2597.62594	23021.65
2600.30321	22998.05
2602.9788	23011.35
2605.65273	22990.75
2608.32498	23010.35
2610.99557	23006.05
2613.66449	22999.95
2616.33175	22993.05
2618.99734	22989.05
2621.66128	23026.15
2624.32355	23035.75
2626.98416	23048.05
2629.64311	23023.75
2632.30041	23041.45
2634.95605	23021.65
2637.61004	23007.25
2640.26238	22974.25
2642.91306	22949.05
2645.56209	22944.25
2648.20948	22906.05
2650.85521	22906.15
2653.4993	22864.65
2656.14175	22811.15
2658.78255	22860.25
2661.42171	22850.55
2664.05923	22934.45
2666.6951	22901.65
2669.32934	22912.15
2671.96194	22944.75
2674.59291	22969.75
2677.22224	22942.45
2679.84993	22973.05
2682.476	22939.45
2685.10043	22950.95
2687.72324	22891.15
2690.34441	22912.45
2692.96396	22908.75
2695.58188	22882.55
2698.19818	22849.85
2700.81285	22870.65
2703.4259	22891.95
2706.03733	22913.35
2708.64714	22854.15
2711.25533	22903.15
2713.86191	22911.45
2716.46687	22952.95
2719.07021	22913.35
2721.67194	22936.15
2724.27206	22934.05
2726.87057	22928.45
2729.46747	22929.15
2732.06276	22986.75
2734.65644	22939.05
2737.24852	22972.35
2739.83899	22934.55
2742.42786	22991.95
2745.01513	22904.95
2747.60079	22903.85
2750.18486	22915.15
2752.76733	22901.35
2755.3482	22886.75
2757.92747	22880.85
2760.50515	22820.35
2763.08123	22842.75
2765.65573	22831.55
2768.22863	22874.55
2770.79994	22858.55
2773.36967	22822.15
2775.9378	22839.45
2778.50435	22834.35
2781.06932	22818.55
2783.6327	22827.95
2786.1945	22763.55
2788.75471	22765.35
2791.31335	22719.95
2793.87041	22706.85
2796.42589	22637.25
2798.97979	22674.25
2801.53212	22619.85
2804.08288	22622.75
2806.63206	22563.15
2809.17967	22481.55
2811.72571	22461.15
2814.27018	22431.55
2816.81308	22450.65
2819.35442	22432.35
2821.89419	22418.65
2824.43239	22401.65
2826.96904	22407.15
2829.50412	22420.35
2832.03763	22376.65
2834.56959	22410.15
2837.1	22406.65
2839.62884	22386.75
2842.15613	22365.85
2844.68186	22432.95
2847.20604	22499.65
2849.72867	22508.45
2852.24974	22506.95
2854.76927	22503.75
2857.28724	22479.55
2859.80367	22407.65
2862.31855	22383.25
2864.83189	22376.75
2867.34368	22380.75
2869.85393	22356.65
2872.36264	22375.35
2874.8698	22377.75
2877.37543	22428.65
2879.87952	22432.55
2882.38207	22401.95
2884.88308	22392.25
2887.38256	22379.45
2889.88051	22421.45
2892.37692	22447.55
2894.8718	22425.15
2897.36515	22450.35
2899.85698	22464.85
2902.34727	22492.75
2904.83604	22521.95
2907.32328	22520.05
2909.809	22537.45
2912.29319	22532.95
2914.77587	22550.55
2917.25702	22558.85
2919.73665	22482.45
2922.21476	22507.15
2924.69136	22484.85
2927.16644	22474.35
2929.64	22424.85
2932.11205	22362.25
2934.58258	22278.05
2937.05161	22289.15
2939.51912	22260.85
2941.98513	22234.55
2944.44962	22176.85
2946.91261	22070.65
2949.37409	22121.55
2951.83407	22096.85
2954.29254	22115.45
2956.74951	22034.75
2959.20498	21976.55
2961.65895	21949.75
2964.11142	21961.75
2966.56239	21891.95
2969.01186	21852.45
2971.45984	21760.25
2973.90632	21731.85
2976.35131	21742.45
2978.7948	21666.95
2981.23681	21549.95
2983.67732	21497.85
2986.11635	21402.55
2988.55388	21377.75
2990.98993	21342.75
2993.4245	21288.75
2995.85758	21266.95
2998.28917	21202.65
3000.71928	21155.95
3003.14791	21131.35
3005.57506	21103.85
3008.00073	21054.85
3010.42493	21064.75
3012.84764	21006.25
3015.26888	21006.55
3017.68865	20927.85
3020.10694	20917.05
3022.52376	20846.25
3024.9391	20798.25
3027.35298	20790.75
3029.76539	20790.75
3032.17632	20782.25
3034.5858	20727.45
3036.9938	20678.15
3039.40034	20656.15
3041.80542	20644.95
3044.20903	20617.55
3046.61118	20605.65
3049.01187	20520.35
3051.4111	20517.65
3053.80888	20472.15
3056.20519	20426.05
3058.60005	20354.25
3060.99345	20296.75
3063.3854	20233.75
3065.7759	20174.15
3068.16494	20137.65
3070.55254	20077.05
3072.93868	20052.45
3075.32338	20007.85
3077.70662	19957.95
3080.08842	19894.65
3082.46878	19866.85
3084.84769	19814.45
3087.22515	19794.95
3089.60118	19790.95
3091.97576	19771.35
3094.3489	19796.75
3096.72061	19768.85
3099.09087	19739.55
3101.4597	19683.35
3103.82709	19652.85
3106.19305	19593.55
3108.55757	19595.35
3110.92066	19517.75
3113.28232	19538.75
3115.64255	19501.65
3118.00134	19428.85
3120.35871	19398.65
3122.71466	19356.65
3125.06917	19316.95
3127.42226	19250.25
3129.77393	19296.55
3132.12417	19224.65
3134.47299	19240.65
3136.82039	19227.05
3139.16636	19252.65
3141.51092	19232.75
3143.85406	19262.15
3146.19579	19217.85
3148.53609	19202.95
3150.87499	19223.55
3153.21246	19210.95
3155.54853	19240.95
3157.88318	19212.65
3160.21642	19209.85
3162.54826	19166.05
3164.87868	19162.15
3167.2077	19158.55
3169.5353	19125.45
3171.86151	19128.85
3174.18631	19113.75
3176.5097	19074.25
3178.83169	19075.85
3181.15228	19055.45
3183.47147	18994.35
3185.78926	18980.25
3188.10565	18945.85
3190.42065	18982.45
3192.73424	19017.35
3195.04645	19024.35
3197.35725	19010.65
3199.66667	18992.75
3201.97469	18988.95
3204.28132	18967.25
3206.58656	18982.05
3208.8904	18972.85
3211.19287	19016.65
3213.49394	19040.05
3215.79363	19014.15
3218.09193	18976.45
3220.38884	18989.05
3222.68438	19009.45
3224.97853	18992.45
3227.2713	18975.75
3229.56269	18904.05
3231.8527	18872.35
3234.14133	18863.85
3236.42858	18870.35
