Data from AgNPs_FTO_APTES_UA_2uM_CRN_100uM_R6G_10uM_NaF_0.1M_Addition_RamanShift__12__15-52-05-316.txt Node

Date: Wed Feb 02 15:52:05 GMT 2022
User: TCL
Spectrometer: QEP01345
Trigger mode: 4
Integration Time (sec): 7.000000E0
Scans to average: 10
Electric dark correction enabled: true
Nonlinearity correction enabled: false
Boxcar width: 0
XAxis mode: Raman Shifts
Number of Pixels in Spectrum: 1044
>>>>>Begin Spectral Data<<<<<
46.04893	1.175
50.45542	0.175
54.85868	-1.525
59.25871	-0.225
63.6555	68.375
68.04907	70.575
72.43941	73.275
76.82654	80.575
81.21044	85.575
85.59113	88.675
89.96862	88.775
94.34289	96.975
98.71396	95.575
103.08183	100.975
107.4465	105.075
111.80798	109.375
116.16626	102.075
120.52136	110.475
124.87327	111.575
129.222	116.975
133.56755	127.275
137.90993	136.175
142.24913	144.375
146.58517	164.275
150.91804	185.575
155.24774	220.675
159.57429	269.575
163.89768	343.575
168.21792	455.275
172.53501	608.675
176.84895	845.075
181.15975	1184.975
185.46741	1664.275
189.77193	2284.675
194.07331	3083.575
198.37157	3975.075
202.6667	4918.975
206.9587	5869.975
211.24758	6764.375
215.53334	7697.175
219.81599	8652.075
224.09553	9696.875
228.37195	10846.675
232.64527	12071.675
236.91549	13408.875
241.18261	14737.375
245.44663	16035.575
249.70755	17253.375
253.96539	18248.275
258.22014	19094.675
262.4718	19760.175
266.72039	20235.175
270.96589	20481.075
275.20832	20541.275
279.44768	20512.475
283.68397	20440.275
287.91719	20417.675
292.14735	20395.575
296.37445	20447.875
300.59849	20558.375
304.81948	20565.575
309.03742	20476.175
313.25231	20201.675
317.46415	19749.075
321.67296	19171.875
325.87872	18665.375
330.08145	18398.475
334.28114	18308.575
338.47781	18373.075
342.67145	18502.175
346.86207	18705.175
351.04966	18876.575
355.23424	19030.075
359.4158	19126.075
363.59435	19202.475
367.76989	19273.175
371.94243	19317.375
376.11196	19312.475
380.27849	19351.075
384.44203	19364.075
388.60257	19518.375
392.76012	19728.675
396.91468	20053.475
401.06626	20402.975
405.21485	20649.375
409.36047	20657.675
413.50311	20391.975
417.64277	20242.575
421.77947	20248.075
425.9132	20292.075
430.04396	20407.575
434.17176	20517.175
438.2966	20589.075
442.41849	20748.975
446.53742	21113.375
450.6534	21563.375
454.76644	21886.875
458.87653	22068.175
462.98368	22137.275
467.08789	22078.075
471.18916	22012.075
475.2875	21885.675
479.38291	21877.975
483.4754	21817.275
487.56496	21643.175
491.6516	21309.275
495.73531	20944.675
499.81612	20700.275
503.89401	20697.775
507.96899	20739.175
512.04106	20721.375
516.11023	20665.675
520.1765	20439.575
524.23987	20221.075
528.30034	19917.175
532.35792	19715.775
536.41261	19511.675
540.46441	19415.175
544.51333	19493.675
548.55936	19803.575
552.60252	20275.975
556.64279	20744.775
560.6802	21086.675
564.71473	21363.575
568.7464	21868.175
572.7752	22679.175
576.80114	23668.975
580.82422	24485.475
584.84444	24981.775
588.86181	25170.275
592.87633	25141.075
596.888	24862.675
600.89682	24233.275
604.9028	24025.375
608.90594	24617.975
612.90624	25221.375
616.90371	23758.375
620.89834	20965.575
624.89015	19782.175
628.87913	19733.875
632.86528	19984.575
636.84862	20067.375
640.82913	19781.475
644.80683	19372.675
648.78172	19050.075
652.75379	18880.375
656.72306	18950.275
660.68952	19149.675
664.65319	19137.075
668.61405	19015.675
672.57211	19001.075
676.52738	19048.675
680.47986	19013.875
684.42955	18971.775
688.37646	18899.875
692.32058	18931.075
696.26192	19070.375
700.20048	19247.075
704.13626	19432.675
708.06928	19580.775
711.99952	19605.675
715.927	19499.375
719.85171	19393.275
723.77365	19174.675
727.69284	18951.475
731.60928	18709.975
735.52295	18586.175
739.43388	18481.175
743.34206	18505.675
747.24749	18623.575
751.15017	18818.075
755.05012	19214.075
758.94733	19758.075
762.8418	20674.175
766.73354	22009.775
770.62254	23154.075
774.50882	23163.775
778.39237	22031.875
782.27321	20737.075
786.15132	19623.975
790.02671	18929.475
793.89938	18539.275
797.76935	18282.775
801.6366	18223.075
805.50115	18111.075
809.36299	18037.475
813.22213	17982.675
817.07857	17952.875
820.93231	17974.275
824.78336	17929.875
828.63172	17851.975
832.47738	17762.475
836.32036	17738.475
840.16066	17689.675
843.99827	17642.375
847.8332	17616.875
851.66546	17619.775
855.49504	17643.975
859.32195	17624.675
863.1462	17569.475
866.96777	17555.675
870.78668	17493.375
874.60293	17463.975
878.41652	17508.275
882.22745	17514.575
886.03573	17552.675
889.84136	17558.675
893.64433	17525.275
897.44466	17511.075
901.24235	17498.875
905.0374	17466.175
908.8298	17495.275
912.61957	17592.875
916.40671	17843.575
920.19121	18171.975
923.97308	18310.675
927.75233	18171.675
931.52895	17896.475
935.30295	17582.475
939.07433	17222.675
942.84309	16987.475
946.60924	16779.975
950.37278	16668.475
954.13371	16649.375
957.89203	16627.175
961.64774	16686.275
965.40086	16636.375
969.15137	16595.075
972.89929	16482.875
976.64461	16408.675
980.38733	16335.575
984.12747	16303.775
987.86502	16341.575
991.59999	16382.575
995.33237	16435.975
999.06217	16573.775
1002.78939	16777.175
1006.51404	16967.175
1010.23611	17108.675
1013.95561	17265.475
1017.67255	17279.575
1021.38692	17266.275
1025.09872	17148.675
1028.80796	16985.275
1032.51465	16898.875
1036.21877	16954.375
1039.92035	17015.975
1043.61937	17145.075
1047.31584	17251.275
1051.00976	17357.675
1054.70114	17507.475
1058.38998	17719.375
1062.07627	17993.975
1065.76003	18323.975
1069.44126	18624.475
1073.11995	18900.675
1076.79611	19083.675
1080.46974	19099.975
1084.14085	19080.975
1087.80943	19198.175
1091.47549	19335.675
1095.13903	19469.375
1098.80005	19338.275
1102.45857	18859.475
1106.11456	18319.475
1109.76805	18000.275
1113.41903	17890.475
1117.06751	17923.175
1120.71348	18069.175
1124.35696	18268.775
1127.99793	18554.075
1131.63641	18765.675
1135.2724	18689.175
1138.90589	18676.875
1142.5369	18700.275
1146.16542	18887.375
1149.79145	19130.675
1153.415	19421.775
1157.03607	19754.675
1160.65467	20283.875
1164.27079	20978.675
1167.88443	21898.075
1171.49561	22917.575
1175.10432	24182.775
1178.71056	25614.675
1182.31434	27034.375
1185.91565	27998.875
1189.51451	28302.175
1193.11091	28201.575
1196.70485	27599.475
1200.29634	26620.075
1203.88538	25766.475
1207.47197	25314.775
1211.05612	25131.875
1214.63782	24739.375
1218.21708	24096.675
1221.79391	23159.175
1225.36829	22428.575
1228.94024	21909.275
1232.50976	21698.975
1236.07685	21552.875
1239.6415	21537.375
1243.20374	21604.475
1246.76355	21763.375
1250.32093	22003.575
1253.8759	22406.275
1257.42845	22967.375
1260.97859	23585.675
1264.52631	24212.475
1268.07163	24738.075
1271.61453	25332.175
1275.15503	25934.075
1278.69312	26735.875
1282.22882	27455.975
1285.76211	28315.675
1289.29301	29326.575
1292.82151	30516.075
1296.34761	31944.275
1299.87133	33432.975
1303.39266	34862.675
1306.9116	35991.075
1310.42815	36753.975
1313.94233	37066.075
1317.45412	36990.475
1320.96354	36978.975
1324.47058	37135.575
1327.97525	37482.075
1331.47754	37815.075
1334.97747	38086.875
1338.47502	38310.475
1341.97022	38558.875
1345.46305	38623.575
1348.95352	38324.275
1352.44163	37647.875
1355.92738	36913.475
1359.41078	36520.975
1362.89183	36359.675
1366.37053	35588.875
1369.84688	33664.375
1373.32088	31278.275
1376.79254	29385.175
1380.26186	28643.175
1383.72883	28579.575
1387.19347	28748.975
1390.65578	28710.875
1394.11575	28532.575
1397.57339	28533.075
1401.0287	28601.875
1404.48168	28596.975
1407.93234	28233.275
1411.38068	27441.275
1414.82669	26433.675
1418.27039	25266.575
1421.71177	24102.475
1425.15083	23286.475
1428.58758	22812.875
1432.02203	22801.375
1435.45416	23201.675
1438.88399	23748.375
1442.31151	24183.075
1445.73673	24658.075
1449.15965	25118.575
1452.58027	25614.875
1455.9986	25959.975
1459.41463	26329.375
1462.82837	26744.875
1466.23982	27170.575
1469.64898	27537.375
1473.05586	27776.275
1476.46045	27790.075
1479.86276	27634.675
1483.26279	27511.575
1486.66054	27504.375
1490.05602	27696.075
1493.44922	28172.075
1496.84016	28770.975
1500.22882	29741.275
1503.61521	30891.275
1506.99934	31985.975
1510.38121	32760.675
1513.76081	32909.575
1517.13816	32546.075
1520.51324	31981.675
1523.88607	31621.275
1527.25665	31433.575
1530.62498	31251.375
1533.99105	30888.775
1537.35488	30217.075
1540.71647	29335.775
1544.07581	28300.375
1547.4329	27335.175
1550.78776	26610.675
1554.14038	26103.175
1557.49077	25864.975
1560.83892	25777.775
1564.18484	25883.675
1567.52853	25990.175
1570.86999	26151.875
1574.20922	26589.775
1577.54624	26967.375
1580.88103	27102.675
1584.2136	27206.075
1587.54395	27505.375
1590.87208	28126.575
1594.19801	29035.575
1597.52172	29963.875
1600.84321	29998.975
1604.16251	28891.575
1607.47959	27230.875
1610.79447	25459.675
1614.10715	23693.975
1617.41763	22183.375
1620.7259	20966.375
1624.03199	20206.175
1627.33587	20015.075
1630.63757	20352.575
1633.93707	21323.275
1637.23439	23058.075
1640.52951	25608.775
1643.82246	28752.675
1647.11321	31654.975
1650.40179	33038.775
1653.68819	32132.475
1656.97241	29164.275
1660.25446	25507.275
1663.53433	22212.275
1666.81203	19779.475
1670.08756	18053.675
1673.36092	16962.775
1676.63211	16211.975
1679.90115	15797.575
1683.16801	15461.075
1686.43272	15190.675
1689.69527	14989.975
1692.95567	14828.275
1696.2139	14760.075
1699.46999	14658.275
1702.72392	14583.475
1705.97571	14497.675
1709.22535	14413.175
1712.47284	14356.975
1715.71819	14292.875
1718.96139	14244.875
1722.20246	14171.775
1725.44139	14099.675
1728.67818	14040.375
1731.91284	13918.975
1735.14537	13857.475
1738.37576	13798.075
1741.60403	13748.575
1744.83017	13698.075
1748.05418	13646.475
1751.27607	13616.075
1754.49584	13632.975
1757.71349	13603.075
1760.92903	13604.375
1764.14244	13584.275
1767.35375	13534.375
1770.56294	13477.975
1773.77002	13423.175
1776.97499	13391.675
1780.17785	13343.775
1783.37861	13321.875
1786.57727	13252.175
1789.77382	13214.175
1792.96828	13211.075
1796.16064	13150.775
1799.3509	13098.575
1802.53907	13103.475
1805.72514	13022.775
1808.90913	12965.875
1812.09102	12968.975
1815.27083	12924.175
1818.44856	12908.175
1821.6242	12881.675
1824.79776	12848.675
1827.96924	12834.775
1831.13864	12829.375
1834.30597	12829.175
1837.47122	12807.975
1840.6344	12804.475
1843.7955	12784.375
1846.95454	12772.275
1850.11151	12788.175
1853.26642	12747.575
1856.41926	12757.375
1859.57004	12716.575
1862.71876	12699.975
1865.86542	12682.075
1869.01003	12625.575
1872.15258	12606.275
1875.29308	12601.275
1878.43152	12566.275
1881.56792	12557.075
1884.70227	12506.575
1887.83457	12490.475
1890.96482	12476.875
1894.09304	12432.975
1897.21921	12428.775
1900.34335	12407.975
1903.46544	12347.775
1906.58551	12369.575
1909.70353	12343.675
1912.81953	12291.075
1915.93349	12270.175
1919.04543	12246.575
1922.15534	12232.475
1925.26322	12179.175
1928.36908	12164.375
1931.47292	12124.775
1934.57473	12086.275
1937.67453	12049.975
1940.77232	12016.075
1943.86808	11985.775
1946.96184	11923.475
1950.05358	11901.475
1953.14331	11887.275
1956.23103	11842.875
1959.31675	11789.975
1962.40046	11764.875
1965.48217	11710.375
1968.56188	11656.175
1971.63959	11622.975
1974.7153	11590.575
1977.78901	11543.775
1980.86073	11469.575
1983.93046	11464.575
1986.99819	11393.375
1990.06394	11370.775
1993.1277	11332.775
1996.18947	11283.575
1999.24925	11266.575
2002.30706	11199.775
2005.36288	11169.575
2008.41672	11164.375
2011.46859	11108.175
2014.51848	11056.675
2017.56639	11025.775
2020.61233	11023.475
2023.6563	10957.675
2026.6983	10938.575
2029.73833	10899.475
2032.7764	10853.575
2035.8125	10844.275
2038.84664	10807.875
2041.87881	10818.575
2044.90903	10771.275
2047.93729	10762.575
2050.96359	10738.275
2053.98794	10696.675
2057.01034	10715.575
2060.03078	10691.675
2063.04927	10683.675
2066.06582	10653.775
2069.08042	10634.375
2072.09307	10648.675
2075.10378	10618.675
2078.11255	10605.375
2081.11938	10604.475
2084.12426	10580.075
2087.12722	10593.875
2090.12824	10594.175
2093.12732	10591.475
2096.12447	10588.675
2099.11969	10572.575
2102.11299	10575.775
2105.10435	10563.175
2108.09379	10554.075
2111.08131	10576.675
2114.0669	10563.775
2117.05057	10575.275
2120.03233	10589.775
2123.01216	10580.075
2125.99008	10587.375
2128.96609	10569.375
2131.94018	10567.675
2134.91236	10563.575
2137.88263	10572.875
2140.851	10575.375
2143.81746	10580.275
2146.78201	10580.975
2149.74466	10577.775
2152.7054	10551.075
2155.66425	10557.175
2158.6212	10545.175
2161.57625	10532.175
2164.52941	10539.175
2167.48067	10495.075
2170.43004	10479.175
2173.37752	10477.675
2176.32311	10450.075
2179.26681	10463.875
2182.20863	10448.375
2185.14856	10477.675
2188.08661	10461.375
2191.02278	10449.075
2193.95707	10439.875
2196.88948	10427.075
2199.82001	10408.275
2202.74867	10370.975
2205.67545	10383.175
2208.60037	10332.975
2211.52341	10306.575
2214.44458	10283.075
2217.36388	10289.075
2220.28132	10280.375
2223.1969	10230.875
2226.11061	10213.975
2229.02246	10184.175
2231.93245	10169.175
2234.84058	10157.775
2237.74686	10121.075
2240.65128	10120.575
2243.55385	10098.075
2246.45456	10100.175
2249.35343	10058.075
2252.25044	10039.475
2255.14561	10016.075
2258.03893	9996.275
2260.93041	9961.375
2263.82004	9940.175
2266.70783	9910.275
2269.59378	9893.275
2272.4779	9849.375
2275.36017	9800.375
2278.24061	9784.475
2281.11922	9760.975
2283.996	9749.775
2286.87094	9720.975
2289.74405	9691.675
2292.61534	9671.875
2295.4848	9679.075
2298.35243	9674.575
2301.21824	9654.475
2304.08223	9628.475
2306.94439	9620.975
2309.80474	9611.375
2312.66327	9593.475
2315.51999	9587.675
2318.37489	9597.675
2321.22797	9561.575
2324.07925	9542.675
2326.92871	9511.775
2329.77637	9491.775
2332.62222	9486.375
2335.46626	9470.475
2338.3085	9466.975
2341.14893	9453.775
2343.98756	9425.775
2346.8244	9431.075
2349.65943	9436.275
2352.49267	9419.775
2355.32411	9432.575
2358.15376	9416.875
2360.98161	9411.175
2363.80768	9396.575
2366.63195	9395.675
2369.45444	9390.475
2372.27514	9376.575
2375.09405	9354.875
2377.91118	9350.775
2380.72652	9314.875
2383.54009	9310.975
2386.35187	9282.175
2389.16188	9244.875
2391.97011	9227.675
2394.77657	9203.375
2397.58125	9173.375
2400.38416	9159.175
2403.18529	9120.575
2405.98466	9122.475
2408.78226	9121.575
2411.57809	9115.975
2414.37216	9088.475
2417.16446	9083.975
2419.955	9071.575
2422.74378	9069.375
2425.5308	9052.975
2428.31606	9036.975
2431.09956	9034.475
2433.88131	9026.875
2436.6613	9034.475
2439.43954	9007.875
2442.21603	9015.675
2444.99077	8995.675
2447.76377	8985.175
2450.53501	8978.675
2453.30451	8954.775
2456.07226	8952.175
2458.83827	8944.175
2461.60254	8916.075
2464.36507	8923.075
2467.12586	8925.375
2469.88492	8908.175
2472.64224	8913.375
2475.39782	8889.775
2478.15167	8906.675
2480.90379	8844.475
2483.65417	8867.475
2486.40283	8881.675
2489.14976	8865.975
2491.89497	8846.475
2494.63845	8858.075
2497.3802	8835.875
2500.12024	8819.975
2502.85855	8825.675
2505.59514	8809.975
2508.33002	8819.775
2511.06318	8794.175
2513.79462	8783.475
2516.52435	8799.775
2519.25237	8793.275
2521.97867	8764.875
2524.70327	8739.275
2527.42616	8725.975
2530.14734	8722.575
2532.86681	8692.075
2535.58458	8709.975
2538.30065	8679.975
2541.01501	8679.675
2543.72768	8665.275
2546.43864	8638.275
2549.14791	8626.175
2551.85548	8595.375
2554.56136	8601.375
2557.26554	8603.275
2559.96803	8577.175
2562.66883	8560.875
2565.36794	8548.175
2568.06536	8556.075
2570.7611	8535.275
2573.45514	8528.575
2576.14751	8519.675
2578.83819	8479.575
2581.52719	8485.875
2584.21451	8444.975
2586.90015	8444.175
2589.58411	8447.975
2592.2664	8430.375
2594.94701	8405.075
2597.62594	8395.975
2600.30321	8374.275
2602.9788	8359.675
2605.65273	8357.775
2608.32498	8359.475
2610.99557	8365.275
2613.66449	8362.175
2616.33175	8329.975
2618.99734	8356.675
2621.66128	8338.575
2624.32355	8306.275
2626.98416	8296.475
2629.64311	8291.575
2632.30041	8312.275
2634.95605	8288.475
2637.61004	8257.175
2640.26238	8264.475
2642.91306	8244.375
2645.56209	8270.375
2648.20948	8248.775
2650.85521	8232.475
2653.4993	8234.075
2656.14175	8236.475
2658.78255	8240.175
2661.42171	8241.775
2664.05923	8268.275
2666.6951	8253.175
2669.32934	8258.175
2671.96194	8241.275
2674.59291	8257.275
2677.22224	8205.075
2679.84993	8253.975
2682.476	8234.475
2685.10043	8227.575
2687.72324	8200.775
2690.34441	8197.275
2692.96396	8212.875
2695.58188	8220.475
2698.19818	8202.475
2700.81285	8217.675
2703.4259	8219.075
2706.03733	8233.975
2708.64714	8219.575
2711.25533	8212.775
2713.86191	8187.775
2716.46687	8222.075
2719.07021	8223.575
2721.67194	8235.075
2724.27206	8221.175
2726.87057	8206.675
2729.46747	8199.975
2732.06276	8214.875
2734.65644	8209.975
2737.24852	8190.575
2739.83899	8182.675
2742.42786	8193.675
2745.01513	8164.175
2747.60079	8157.875
2750.18486	8131.575
2752.76733	8150.075
2755.3482	8136.675
2757.92747	8143.675
2760.50515	8126.675
2763.08123	8137.475
2765.65573	8124.775
2768.22863	8105.675
2770.79994	8081.575
2773.36967	8099.175
2775.9378	8078.675
2778.50435	8067.375
2781.06932	8061.775
2783.6327	8081.375
2786.1945	8057.975
2788.75471	8050.875
2791.31335	8015.675
2793.87041	8029.775
2796.42589	8003.275
2798.97979	8009.175
2801.53212	7973.375
2804.08288	7983.275
2806.63206	7967.275
2809.17967	7945.875
2811.72571	7894.275
2814.27018	7895.775
2816.81308	7906.775
2819.35442	7885.875
2821.89419	7858.175
2824.43239	7850.375
2826.96904	7859.375
2829.50412	7848.475
2832.03763	7834.075
2834.56959	7819.175
2837.1	7810.675
2839.62884	7816.975
2842.15613	7825.375
2844.68186	7863.975
2847.20604	7900.075
2849.72867	7890.975
2852.24974	7889.875
2854.76927	7878.875
2857.28724	7866.675
2859.80367	7867.875
2862.31855	7831.475
2864.83189	7827.175
2867.34368	7820.975
2869.85393	7805.075
2872.36264	7792.775
2874.8698	7802.275
2877.37543	7787.275
2879.87952	7766.475
2882.38207	7791.575
2884.88308	7782.075
2887.38256	7776.575
2889.88051	7765.875
2892.37692	7766.775
2894.8718	7743.475
2897.36515	7755.175
2899.85698	7765.075
2902.34727	7773.275
2904.83604	7774.575
2907.32328	7792.375
2909.809	7751.275
2912.29319	7754.675
2914.77587	7782.075
2917.25702	7757.475
2919.73665	7742.175
2922.21476	7744.675
2924.69136	7747.775
2927.16644	7751.875
2929.64	7780.475
2932.11205	7749.775
2934.58258	7727.475
2937.05161	7747.575
2939.51912	7734.275
2941.98513	7721.975
2944.44962	7707.475
2946.91261	7626.575
2949.37409	7651.175
2951.83407	7625.575
2954.29254	7597.975
2956.74951	7594.575
2959.20498	7583.375
2961.65895	7564.775
2964.11142	7536.575
2966.56239	7536.175
2969.01186	7527.075
2971.45984	7498.075
2973.90632	7487.475
2976.35131	7442.675
2978.7948	7438.275
2981.23681	7435.775
2983.67732	7404.975
2986.11635	7381.175
2988.55388	7362.475
2990.98993	7358.175
2993.4245	7343.875
2995.85758	7321.775
2998.28917	7295.275
3000.71928	7285.175
3003.14791	7253.275
3005.57506	7241.875
3008.00073	7229.975
3010.42493	7209.875
3012.84764	7204.675
3015.26888	7197.275
3017.68865	7155.275
3020.10694	7145.375
3022.52376	7132.675
3024.9391	7138.875
3027.35298	7122.775
3029.76539	7100.975
3032.17632	7111.875
3034.5858	7095.375
3036.9938	7074.875
3039.40034	7083.975
3041.80542	7054.875
3044.20903	7047.975
3046.61118	7047.175
3049.01187	7005.375
3051.4111	7013.575
3053.80888	6976.375
3056.20519	6969.875
3058.60005	6959.075
3060.99345	6940.475
3063.3854	6929.875
3065.7759	6909.275
3068.16494	6894.175
3070.55254	6848.875
3072.93868	6853.675
3075.32338	6833.575
3077.70662	6820.075
3080.08842	6792.875
3082.46878	6774.975
3084.84769	6779.475
3087.22515	6768.875
3089.60118	6764.675
3091.97576	6767.375
3094.3489	6759.675
3096.72061	6742.075
3099.09087	6763.575
3101.4597	6733.475
3103.82709	6740.375
3106.19305	6729.375
3108.55757	6709.375
3110.92066	6685.675
3113.28232	6686.175
3115.64255	6659.675
3118.00134	6634.775
3120.35871	6601.975
3122.71466	6610.675
3125.06917	6595.775
3127.42226	6590.975
3129.77393	6590.575
3132.12417	6560.275
3134.47299	6603.175
3136.82039	6575.175
3139.16636	6572.575
3141.51092	6559.375
3143.85406	6587.575
3146.19579	6586.175
3148.53609	6587.775
3150.87499	6590.275
3153.21246	6594.475
3155.54853	6580.575
3157.88318	6586.975
3160.21642	6581.475
3162.54826	6575.275
3164.87868	6568.175
3167.2077	6549.075
