Data from AgNPs_FTO_APTES_UA_2uM_CRN_20uM_R6G_10uM_NaF_0.1M_Addition_RamanShift__8__14-07-05-193.txt Node

Date: Wed Feb 02 14:07:05 GMT 2022
User: TCL
Spectrometer: QEP01345
Trigger mode: 4
Integration Time (sec): 7.000000E0
Scans to average: 10
Electric dark correction enabled: true
Nonlinearity correction enabled: false
Boxcar width: 0
XAxis mode: Raman Shifts
Number of Pixels in Spectrum: 1044
>>>>>Begin Spectral Data<<<<<
46.04893	0.625
50.45542	0.325
54.85868	-1.175
59.25871	-0.375
63.6555	96.825
68.04907	102.025
72.43941	105.825
76.82654	113.625
81.21044	115.125
85.59113	125.325
89.96862	129.125
94.34289	129.325
98.71396	135.925
103.08183	139.125
107.4465	146.725
111.80798	150.825
116.16626	152.125
120.52136	155.725
124.87327	165.625
129.222	169.125
133.56755	185.525
137.90993	197.725
142.24913	223.625
146.58517	256.125
150.91804	289.825
155.24774	352.725
159.57429	441.525
163.89768	563.225
168.21792	748.125
172.53501	1027.325
176.84895	1439.425
181.15975	1999.825
185.46741	2825.125
189.77193	3894.725
194.07331	5196.825
198.37157	6700.325
202.6667	8272.625
206.9587	9843.925
211.24758	11377.525
215.53334	12899.825
219.81599	14531.025
224.09553	16340.225
228.37195	18274.025
232.64527	20435.125
236.91549	22651.625
241.18261	24939.625
245.44663	27005.025
249.70755	28911.925
253.96539	30573.125
258.22014	31949.625
262.4718	33100.925
266.72039	33913.225
270.96589	34333.525
275.20832	34439.625
279.44768	34292.425
283.68397	34008.225
287.91719	33757.925
292.14735	33708.625
296.37445	33737.225
300.59849	33841.125
304.81948	33956.425
309.03742	34021.925
313.25231	33750.625
317.46415	33162.325
321.67296	32314.025
325.87872	31614.225
330.08145	31250.425
334.28114	31171.625
338.47781	31292.525
342.67145	31588.925
346.86207	31981.725
351.04966	32481.925
355.23424	32943.925
359.4158	33444.225
363.59435	33830.825
367.76989	34055.225
371.94243	34205.825
376.11196	34270.025
380.27849	34258.025
384.44203	34315.125
388.60257	34589.725
392.76012	35053.925
396.91468	35703.225
401.06626	36310.525
405.21485	36618.025
409.36047	36495.525
413.50311	36100.725
417.64277	36001.125
421.77947	36191.525
425.9132	36404.625
430.04396	36603.225
434.17176	36730.125
438.2966	36823.825
442.41849	37252.825
446.53742	38151.925
450.6534	39099.025
454.76644	39764.325
458.87653	40030.225
462.98368	39843.925
467.08789	39476.125
471.18916	38966.225
475.2875	38477.325
479.38291	38261.825
483.4754	38131.925
487.56496	37779.625
491.6516	37134.625
495.73531	36389.725
499.81612	35964.325
503.89401	36069.825
507.96899	36283.625
512.04106	36246.325
516.11023	36006.825
520.1765	35465.825
524.23987	34999.325
528.30034	34493.625
532.35792	34101.225
536.41261	33658.125
540.46441	33332.525
544.51333	33403.125
548.55936	33851.625
552.60252	34704.225
556.64279	35552.825
560.6802	36312.425
564.71473	36840.525
568.7464	37705.125
572.7752	39114.425
576.80114	40872.925
580.82422	42573.325
584.84444	44449.025
588.86181	46758.425
592.87633	48491.025
596.888	47741.125
600.89682	44908.425
604.9028	43420.425
608.90594	44643.625
612.90624	46250.225
616.90371	43061.925
620.89834	37034.225
624.89015	34427.425
628.87913	34284.425
632.86528	34666.825
636.84862	34597.225
640.82913	33873.725
644.80683	33021.125
648.78172	32509.725
652.75379	32493.025
656.72306	32822.825
660.68952	33150.425
664.65319	32906.925
668.61405	32325.225
672.57211	32279.125
676.52738	32470.625
680.47986	32430.625
684.42955	32177.125
688.37646	32047.625
692.32058	32264.225
696.26192	32724.025
700.20048	33232.225
704.13626	33592.625
708.06928	33787.525
711.99952	33726.125
715.927	33673.425
719.85171	33742.125
723.77365	33495.325
727.69284	32839.425
731.60928	32240.825
735.52295	32012.425
739.43388	31881.725
743.34206	32026.225
747.24749	32304.325
751.15017	32735.525
755.05012	33450.725
758.94733	34533.125
762.8418	36179.225
766.73354	38442.825
770.62254	40369.025
774.50882	40308.125
778.39237	38290.625
782.27321	35805.725
786.15132	33914.125
790.02671	32748.825
793.89938	32074.425
797.76935	31788.825
801.6366	31684.225
805.50115	31661.125
809.36299	31448.225
813.22213	31190.625
817.07857	31064.125
820.93231	30912.525
824.78336	30711.725
828.63172	30486.325
832.47738	30322.125
836.32036	30257.125
840.16066	30234.925
843.99827	30277.725
847.8332	30258.425
851.66546	30208.325
855.49504	30295.525
859.32195	30249.825
863.1462	30192.225
866.96777	30151.325
870.78668	30081.625
874.60293	30025.125
878.41652	30040.825
882.22745	30114.725
886.03573	30186.025
889.84136	30187.225
893.64433	30062.725
897.44466	29989.525
901.24235	29908.925
905.0374	29839.025
908.8298	29800.625
912.61957	29924.325
916.40671	30345.325
920.19121	30909.225
923.97308	31297.625
927.75233	31188.525
931.52895	30716.125
935.30295	30057.225
939.07433	29364.725
942.84309	28894.925
946.60924	28668.625
950.37278	28591.325
954.13371	28668.825
957.89203	28701.525
961.64774	28693.525
965.40086	28749.425
969.15137	28661.325
972.89929	28449.825
976.64461	28273.525
980.38733	28137.325
984.12747	28156.425
987.86502	28277.925
991.59999	28417.425
995.33237	28651.525
999.06217	29088.125
1002.78939	29672.725
1006.51404	30281.825
1010.23611	30835.325
1013.95561	31266.725
1017.67255	31372.325
1021.38692	31042.825
1025.09872	30542.925
1028.80796	30126.525
1032.51465	30032.525
1036.21877	30213.825
1039.92035	30343.725
1043.61937	30495.025
1047.31584	30426.925
1051.00976	30388.425
1054.70114	30499.025
1058.38998	30714.925
1062.07627	31120.225
1065.76003	31560.625
1069.44126	32158.025
1073.11995	32707.225
1076.79611	33226.525
1080.46974	33385.425
1084.14085	33622.025
1087.80943	34016.125
1091.47549	34405.425
1095.13903	34553.825
1098.80005	34071.625
1102.45857	33072.325
1106.11456	32205.225
1109.76805	31754.725
1113.41903	31657.225
1117.06751	31852.025
1120.71348	32123.525
1124.35696	32486.525
1127.99793	32902.925
1131.63641	33172.825
1135.2724	33196.725
1138.90589	33256.525
1142.5369	33517.925
1146.16542	33907.925
1149.79145	34459.525
1153.415	35009.025
1157.03607	35734.825
1160.65467	37094.825
1164.27079	39127.025
1167.88443	41545.825
1171.49561	43819.725
1175.10432	46351.525
1178.71056	49590.825
1182.31434	52547.325
1185.91565	54079.325
1189.51451	53950.025
1193.11091	52885.825
1196.70485	51282.625
1200.29634	49452.125
1203.88538	48295.725
1207.47197	48034.325
1211.05612	47984.025
1214.63782	47285.725
1218.21708	45745.125
1221.79391	43795.625
1225.36829	42267.925
1228.94024	41338.225
1232.50976	40764.525
1236.07685	40255.925
1239.6415	39960.425
1243.20374	39960.225
1246.76355	40346.325
1250.32093	41058.625
1253.8759	41940.125
1257.42845	43149.425
1260.97859	44606.925
1264.52631	46004.925
1268.07163	47512.725
1271.61453	48927.725
1275.15503	50424.825
1278.69312	52109.925
1282.22882	54112.125
1285.76211	56560.225
1289.29301	59331.125
1292.82151	62612.925
1296.34761	66489.725
1299.87133	70777.925
1303.39266	74812.325
1306.9116	77758.425
1310.42815	79447.625
1313.94233	79949.925
1317.45412	79234.325
1320.96354	78325.825
1324.47058	78022.825
1327.97525	78184.125
1331.47754	78283.825
1334.97747	78071.625
1338.47502	77270.725
1341.97022	75963.925
1345.46305	74342.025
1348.95352	72787.925
1352.44163	71776.325
1355.92738	72126.125
1359.41078	74017.925
1362.89183	75635.325
1366.37053	74724.025
1369.84688	69933.525
1373.32088	62855.125
1376.79254	57659.525
1380.26186	56029.825
1383.72883	56587.825
1387.19347	57074.225
1390.65578	56787.325
1394.11575	56603.425
1397.57339	57332.525
1401.0287	58558.625
1404.48168	59488.925
1407.93234	59200.125
1411.38068	57550.825
1414.82669	54940.525
1418.27039	52170.025
1421.71177	49420.925
1425.15083	47369.925
1428.58758	46570.125
1432.02203	47161.025
1435.45416	48753.225
1438.88399	50672.625
1442.31151	52052.925
1445.73673	52805.025
1449.15965	53320.125
1452.58027	53521.425
1455.9986	53463.025
1459.41463	53714.725
1462.82837	54391.625
1466.23982	55271.725
1469.64898	56106.825
1473.05586	56579.225
1476.46045	56529.425
1479.86276	56019.125
1483.26279	55387.625
1486.66054	55029.325
1490.05602	55262.625
1493.44922	55827.525
1496.84016	56506.625
1500.22882	57296.225
1503.61521	58333.825
1506.99934	59509.625
1510.38121	60429.125
1513.76081	60619.425
1517.13816	60071.925
1520.51324	59384.925
1523.88607	59214.825
1527.25665	59727.825
1530.62498	60043.625
1533.99105	59697.025
1537.35488	58576.925
1540.71647	56738.525
1544.07581	54566.825
1547.4329	52455.325
1550.78776	50788.725
1554.14038	49661.025
1557.49077	48997.125
1560.83892	48587.825
1564.18484	48369.125
1567.52853	48391.125
1570.86999	48877.025
1574.20922	50105.625
1577.54624	51458.925
1580.88103	52488.025
1584.2136	53748.125
1587.54395	56033.525
1590.87208	59266.325
1594.19801	62786.525
1597.52172	65633.225
1600.84321	65467.925
1604.16251	61533.525
1607.47959	55909.125
1610.79447	50385.325
1614.10715	45593.125
1617.41763	41820.725
1620.7259	39324.225
1624.03199	38087.725
1627.33587	38171.225
1630.63757	39663.925
1633.93707	42788.625
1637.23439	48197.425
1640.52951	55907.025
1643.82246	64941.525
1647.11321	71800.625
1650.40179	72433.325
1653.68819	66228.125
1656.97241	56263.025
1660.25446	46730.625
1663.53433	39701.225
1666.81203	35218.525
1670.08756	32311.225
1673.36092	30551.525
1676.63211	29421.925
1679.90115	28612.825
1683.16801	28025.525
1686.43272	27581.225
1689.69527	27251.925
1692.95567	26988.725
1696.2139	26822.225
1699.46999	26688.525
1702.72392	26550.925
1705.97571	26446.025
1709.22535	26329.325
1712.47284	26265.025
1715.71819	26174.625
1718.96139	26098.125
1722.20246	25980.325
1725.44139	25810.125
1728.67818	25641.625
1731.91284	25482.225
1735.14537	25283.525
1738.37576	25141.725
1741.60403	25005.525
1744.83017	24922.025
1748.05418	24861.525
1751.27607	24829.725
1754.49584	24757.025
1757.71349	24748.225
1760.92903	24715.925
1764.14244	24651.225
1767.35375	24617.725
1770.56294	24562.925
1773.77002	24517.525
1776.97499	24427.825
1780.17785	24346.125
1783.37861	24297.125
1786.57727	24226.325
1789.77382	24181.525
1792.96828	24144.425
1796.16064	24127.225
1799.3509	24025.625
1802.53907	23992.225
1805.72514	23940.125
1808.90913	23827.325
1812.09102	23763.525
1815.27083	23730.725
1818.44856	23740.925
1821.6242	23687.625
1824.79776	23685.325
1827.96924	23645.225
1831.13864	23655.725
1834.30597	23626.825
1837.47122	23610.125
1840.6344	23631.625
1843.7955	23659.425
1846.95454	23604.325
1850.11151	23636.925
1853.26642	23625.825
1856.41926	23581.625
1859.57004	23559.425
1862.71876	23485.425
1865.86542	23463.025
1869.01003	23421.025
1872.15258	23385.625
1875.29308	23317.725
1878.43152	23310.625
1881.56792	23272.625
1884.70227	23267.525
1887.83457	23216.725
1890.96482	23194.325
1894.09304	23158.825
1897.21921	23128.325
1900.34335	23055.125
1903.46544	23023.425
1906.58551	22980.825
1909.70353	22907.525
1912.81953	22869.925
1915.93349	22818.825
1919.04543	22758.125
1922.15534	22726.925
1925.26322	22663.325
1928.36908	22613.325
1931.47292	22515.625
1934.57473	22447.425
1937.67453	22408.025
1940.77232	22379.125
1943.86808	22253.025
1946.96184	22227.125
1950.05358	22175.725
1953.14331	22095.325
1956.23103	22027.625
1959.31675	21961.425
1962.40046	21896.325
1965.48217	21869.925
1968.56188	21760.325
1971.63959	21674.125
1974.7153	21657.025
1977.78901	21577.125
1980.86073	21484.125
1983.93046	21388.325
1986.99819	21337.025
1990.06394	21269.125
1993.1277	21247.825
1996.18947	21160.125
1999.24925	21107.725
2002.30706	20980.625
2005.36288	20945.525
2008.41672	20856.125
2011.46859	20773.425
2014.51848	20738.625
2017.56639	20703.025
2020.61233	20664.025
2023.6563	20646.225
2026.6983	20552.325
2029.73833	20537.025
2032.7764	20506.425
2035.8125	20417.825
2038.84664	20379.125
2041.87881	20372.225
2044.90903	20300.125
2047.93729	20275.325
2050.96359	20255.725
2053.98794	20242.725
2057.01034	20224.125
2060.03078	20207.325
2063.04927	20158.025
2066.06582	20159.025
2069.08042	20160.825
2072.09307	20128.725
2075.10378	20085.625
2078.11255	20062.725
2081.11938	20055.925
2084.12426	20042.525
2087.12722	20022.825
2090.12824	20005.725
2093.12732	20011.125
2096.12447	20025.425
2099.11969	20040.625
2102.11299	20022.925
2105.10435	20016.325
2108.09379	19999.925
2111.08131	20026.325
2114.0669	20042.025
2117.05057	20006.525
2120.03233	20070.025
2123.01216	20066.425
2125.99008	20105.025
2128.96609	20083.925
2131.94018	20076.525
2134.91236	20099.425
2137.88263	20080.925
2140.851	20094.525
2143.81746	20099.725
2146.78201	20081.725
2149.74466	20107.725
2152.7054	20034.725
2155.66425	20039.325
2158.6212	20033.925
2161.57625	20033.225
2164.52941	20047.625
2167.48067	20005.125
2170.43004	19998.225
2173.37752	19950.025
2176.32311	19982.525
2179.26681	19983.325
2182.20863	19965.025
2185.14856	19950.225
2188.08661	19966.025
2191.02278	19985.025
2193.95707	19932.725
2196.88948	19922.725
2199.82001	19918.325
2202.74867	19844.825
2205.67545	19885.125
2208.60037	19793.625
2211.52341	19769.225
2214.44458	19736.225
2217.36388	19727.625
2220.28132	19679.025
2223.1969	19644.025
2226.11061	19642.925
2229.02246	19570.825
2231.93245	19565.725
2234.84058	19536.725
2237.74686	19493.125
2240.65128	19468.125
2243.55385	19440.225
2246.45456	19428.325
2249.35343	19397.725
2252.25044	19349.425
2255.14561	19284.225
2258.03893	19240.825
2260.93041	19197.725
2263.82004	19125.125
2266.70783	19073.925
2269.59378	19003.125
2272.4779	18958.525
2275.36017	18921.925
2278.24061	18860.025
2281.11922	18875.925
2283.996	18813.025
2286.87094	18784.425
2289.74405	18757.925
2292.61534	18714.725
2295.4848	18723.925
2298.35243	18688.825
2301.21824	18698.225
2304.08223	18700.925
2306.94439	18699.925
2309.80474	18681.325
2312.66327	18652.625
2315.51999	18593.425
2318.37489	18600.625
2321.22797	18599.025
2324.07925	18546.825
2326.92871	18524.825
2329.77637	18532.525
2332.62222	18535.225
2335.46626	18490.925
2338.3085	18415.225
2341.14893	18404.425
2343.98756	18422.725
2346.8244	18433.525
2349.65943	18421.325
2352.49267	18417.825
2355.32411	18453.825
2358.15376	18408.025
2360.98161	18388.025
2363.80768	18433.625
2366.63195	18369.125
2369.45444	18320.625
2372.27514	18332.725
2375.09405	18326.225
2377.91118	18293.625
2380.72652	18199.825
2383.54009	18170.425
2386.35187	18178.625
2389.16188	18109.025
2391.97011	18064.625
2394.77657	18000.525
2397.58125	18039.625
2400.38416	17972.525
2403.18529	17973.125
2405.98466	17929.425
2408.78226	17958.725
2411.57809	17929.325
2414.37216	17914.125
2417.16446	17899.225
2419.955	17864.825
2422.74378	17823.625
2425.5308	17825.625
2428.31606	17831.825
2431.09956	17820.525
2433.88131	17758.125
2436.6613	17814.925
2439.43954	17762.925
2442.21603	17755.125
2444.99077	17725.325
2447.76377	17739.625
2450.53501	17675.525
2453.30451	17730.325
2456.07226	17682.925
2458.83827	17696.925
2461.60254	17674.425
2464.36507	17662.225
2467.12586	17679.825
2469.88492	17669.025
2472.64224	17660.425
2475.39782	17653.725
2478.15167	17686.125
2480.90379	17667.725
2483.65417	17652.825
2486.40283	17645.225
2489.14976	17642.625
2491.89497	17677.625
2494.63845	17651.425
2497.3802	17638.325
2500.12024	17644.725
2502.85855	17626.825
2505.59514	17642.025
2508.33002	17617.125
2511.06318	17636.925
2513.79462	17588.725
2516.52435	17577.225
2519.25237	17595.925
2521.97867	17568.125
2524.70327	17539.725
2527.42616	17573.925
2530.14734	17532.025
2532.86681	17522.025
2535.58458	17461.925
2538.30065	17480.025
2541.01501	17438.525
2543.72768	17399.825
2546.43864	17418.225
2549.14791	17366.025
2551.85548	17365.725
2554.56136	17360.025
2557.26554	17368.725
2559.96803	17336.525
2562.66883	17304.725
2565.36794	17303.625
2568.06536	17298.225
2570.7611	17301.225
2573.45514	17265.325
2576.14751	17240.225
2578.83819	17250.225
2581.52719	17191.025
2584.21451	17206.225
2586.90015	17186.025
2589.58411	17177.125
2592.2664	17163.025
2594.94701	17163.325
2597.62594	17146.525
2600.30321	17118.225
2602.9788	17101.225
2605.65273	17101.125
2608.32498	17097.825
2610.99557	17105.325
2613.66449	17083.025
2616.33175	17102.925
2618.99734	17114.125
2621.66128	17106.125
2624.32355	17106.425
2626.98416	17054.525
2629.64311	17054.025
2632.30041	17038.625
2634.95605	17046.925
2637.61004	17031.725
2640.26238	17014.925
2642.91306	16997.825
2645.56209	16980.125
2648.20948	16969.225
2650.85521	16967.625
2653.4993	17008.225
2656.14175	17012.525
2658.78255	17021.025
2661.42171	17031.425
2664.05923	17043.625
2666.6951	17064.825
2669.32934	17085.525
2671.96194	17064.925
2674.59291	17037.325
2677.22224	17087.325
2679.84993	17078.225
2682.476	17060.225
2685.10043	17059.225
2687.72324	17034.825
2690.34441	17022.725
2692.96396	17047.325
2695.58188	17052.125
2698.19818	17036.325
2700.81285	17038.825
2703.4259	17031.525
2706.03733	17068.625
2708.64714	17070.625
2711.25533	17083.025
2713.86191	17039.425
2716.46687	17054.025
2719.07021	17044.925
2721.67194	17084.725
2724.27206	17072.225
2726.87057	17103.725
2729.46747	17085.525
2732.06276	17094.025
2734.65644	17069.825
2737.24852	17073.225
2739.83899	17075.525
2742.42786	17073.725
2745.01513	17037.325
2747.60079	17077.025
2750.18486	17040.725
2752.76733	17055.025
2755.3482	17055.825
2757.92747	17072.725
2760.50515	17039.925
2763.08123	17054.825
2765.65573	17036.125
2768.22863	17037.625
2770.79994	16985.225
2773.36967	16997.225
2775.9378	16971.025
2778.50435	17001.225
2781.06932	16994.625
2783.6327	16998.725
2786.1945	16976.525
2788.75471	16983.025
2791.31335	16908.725
2793.87041	16863.525
2796.42589	16855.225
2798.97979	16852.725
2801.53212	16809.725
2804.08288	16820.125
2806.63206	16769.625
2809.17967	16749.825
2811.72571	16720.325
2814.27018	16714.425
2816.81308	16664.125
2819.35442	16620.325
2821.89419	16589.825
2824.43239	16578.525
2826.96904	16583.725
2829.50412	16574.025
2832.03763	16548.025
2834.56959	16546.425
2837.1	16477.325
2839.62884	16526.325
2842.15613	16485.325
2844.68186	16533.925
2847.20604	16543.425
2849.72867	16555.425
2852.24974	16551.625
2854.76927	16525.625
2857.28724	16512.525
2859.80367	16507.125
2862.31855	16424.725
2864.83189	16438.425
2867.34368	16391.325
2869.85393	16385.325
2872.36264	16349.525
2874.8698	16340.325
2877.37543	16361.325
2879.87952	16343.425
2882.38207	16343.025
2884.88308	16317.225
2887.38256	16350.925
2889.88051	16344.225
2892.37692	16361.825
2894.8718	16353.525
2897.36515	16380.025
2899.85698	16376.725
2902.34727	16399.325
2904.83604	16395.725
2907.32328	16431.925
2909.809	16422.425
2912.29319	16388.025
2914.77587	16359.625
2917.25702	16326.925
2919.73665	16316.825
2922.21476	16341.525
2924.69136	16376.225
2927.16644	16369.725
2929.64	16359.125
2932.11205	16388.825
2934.58258	16296.725
2937.05161	16358.325
2939.51912	16332.425
2941.98513	16295.425
2944.44962	16266.925
2946.91261	16172.825
2949.37409	16200.025
2951.83407	16170.625
2954.29254	16167.025
2956.74951	16143.325
2959.20498	16141.525
2961.65895	16101.025
2964.11142	16086.225
2966.56239	16033.325
2969.01186	16048.125
2971.45984	16017.525
2973.90632	15984.325
2976.35131	15924.825
2978.7948	15909.925
2981.23681	15832.525
2983.67732	15806.925
2986.11635	15751.425
2988.55388	15722.325
2990.98993	15698.125
2993.4245	15614.325
2995.85758	15621.325
2998.28917	15551.625
3000.71928	15532.625
3003.14791	15499.125
3005.57506	15502.825
3008.00073	15435.325
3010.42493	15418.025
3012.84764	15350.125
3015.26888	15352.125
3017.68865	15278.425
3020.10694	15255.225
3022.52376	15267.325
3024.9391	15214.525
3027.35298	15192.725
3029.76539	15130.925
3032.17632	15139.425
3034.5858	15119.025
3036.9938	15101.925
3039.40034	15114.025
3041.80542	15087.525
3044.20903	15048.125
3046.61118	15051.025
3049.01187	15027.425
3051.4111	14958.025
3053.80888	14957.125
3056.20519	14920.525
3058.60005	14865.225
3060.99345	14876.825
3063.3854	14774.125
3065.7759	14760.925
3068.16494	14688.725
3070.55254	14597.325
3072.93868	14583.225
3075.32338	14581.725
3077.70662	14515.725
3080.08842	14523.125
3082.46878	14447.025
3084.84769	14447.025
3087.22515	14405.225
3089.60118	14397.425
3091.97576	14383.225
3094.3489	14380.225
3096.72061	14355.425
3099.09087	14355.225
3101.4597	14312.525
3103.82709	14299.725
3106.19305	14277.125
3108.55757	14286.425
3110.92066	14212.825
3113.28232	14196.125
3115.64255	14156.425
3118.00134	14131.225
3120.35871	14086.025
3122.71466	14039.025
3125.06917	14021.925
3127.42226	13976.725
