Data from AgNPs_FTO_APTES_UA_2uM_CRN_2uM_R6G_10uM_NaF_0.1M_Addition_RamanShift__25__12-27-55-078.txt Node

Date: Wed Feb 02 12:27:55 GMT 2022
User: TCL
Spectrometer: QEP01345
Trigger mode: 4
Integration Time (sec): 7.000000E0
Scans to average: 10
Electric dark correction enabled: true
Nonlinearity correction enabled: false
Boxcar width: 0
XAxis mode: Raman Shifts
Number of Pixels in Spectrum: 1044
>>>>>Begin Spectral Data<<<<<
46.04893	0.825
50.45542	0.025
54.85868	-1.475
59.25871	-1.575
63.6555	89.925
68.04907	95.025
72.43941	89.125
76.82654	101.925
81.21044	102.425
85.59113	107.525
89.96862	110.425
94.34289	114.425
98.71396	117.725
103.08183	123.125
107.4465	121.025
111.80798	129.425
116.16626	132.425
120.52136	142.925
124.87327	145.725
129.222	157.025
133.56755	169.425
137.90993	182.325
142.24913	206.125
146.58517	231.725
150.91804	277.825
155.24774	339.425
159.57429	428.025
163.89768	554.325
168.21792	730.525
172.53501	1009.325
176.84895	1410.525
181.15975	1975.925
185.46741	2784.125
189.77193	3831.525
194.07331	5150.125
198.37157	6614.225
202.6667	8173.125
206.9587	9701.025
211.24758	11258.725
215.53334	12827.525
219.81599	14603.925
224.09553	16598.925
228.37195	18830.625
232.64527	21214.225
236.91549	23628.025
241.18261	25914.125
245.44663	27800.825
249.70755	29323.925
253.96539	30716.825
258.22014	31943.125
262.4718	33086.825
266.72039	33991.125
270.96589	34429.025
275.20832	34620.625
279.44768	34470.525
283.68397	34217.225
287.91719	34120.825
292.14735	34235.525
296.37445	34700.125
300.59849	35429.825
304.81948	36396.625
309.03742	37044.225
313.25231	36826.225
317.46415	35270.525
321.67296	32933.025
325.87872	31029.825
330.08145	29983.225
334.28114	29847.225
338.47781	30237.025
342.67145	30817.625
346.86207	31926.925
351.04966	33464.625
355.23424	35266.025
359.4158	36594.125
363.59435	37208.125
367.76989	37344.925
371.94243	37266.525
376.11196	36993.325
380.27849	36812.425
384.44203	36496.125
388.60257	36254.525
392.76012	36247.325
396.91468	36735.225
401.06626	37701.825
405.21485	38396.325
409.36047	37929.025
413.50311	36415.125
417.64277	34991.125
421.77947	34310.925
425.9132	34133.925
430.04396	34215.725
434.17176	34375.125
438.2966	34733.625
442.41849	35489.525
446.53742	36657.725
450.6534	37834.425
454.76644	38619.525
458.87653	38835.025
462.98368	38596.625
467.08789	38007.625
471.18916	37190.325
475.2875	36344.025
479.38291	35715.325
483.4754	35264.825
487.56496	34811.225
491.6516	34291.425
495.73531	34013.125
499.81612	33933.525
503.89401	34193.225
507.96899	34426.425
512.04106	34566.425
516.11023	34668.525
520.1765	34704.025
524.23987	34472.525
528.30034	33940.125
532.35792	33279.825
536.41261	32591.525
540.46441	31965.825
544.51333	31705.625
548.55936	32092.725
552.60252	33057.725
556.64279	34098.325
560.6802	34692.125
564.71473	35223.525
568.7464	36526.725
572.7752	37677.825
576.80114	37495.025
580.82422	36916.625
584.84444	36734.925
588.86181	36799.725
592.87633	37039.925
596.888	37611.325
600.89682	38452.825
604.9028	41677.525
608.90594	50264.425
612.90624	61225.325
616.90371	58509.525
620.89834	42688.125
624.89015	35228.625
628.87913	33981.225
632.86528	34094.825
636.84862	34196.725
640.82913	33503.225
644.80683	32028.725
648.78172	30967.825
652.75379	30992.425
656.72306	32036.225
660.68952	33454.925
664.65319	33332.525
668.61405	32037.125
672.57211	31357.725
676.52738	31275.725
680.47986	31229.925
684.42955	30997.625
688.37646	30895.525
692.32058	31028.525
696.26192	31363.425
700.20048	31805.225
704.13626	32249.025
708.06928	32216.825
711.99952	31943.725
715.927	31732.325
719.85171	31712.325
723.77365	31563.625
727.69284	31110.725
731.60928	30723.525
735.52295	30674.825
739.43388	30736.225
743.34206	30929.825
747.24749	31213.025
751.15017	31556.225
755.05012	32345.825
758.94733	33812.125
762.8418	37044.625
766.73354	42493.825
770.62254	48044.825
774.50882	50126.925
778.39237	47359.125
782.27321	41598.325
786.15132	36339.525
790.02671	33160.625
793.89938	31685.725
797.76935	31061.325
801.6366	30805.325
805.50115	30632.025
809.36299	30414.025
813.22213	30193.825
817.07857	30117.325
820.93231	30128.525
824.78336	30200.925
828.63172	30249.025
832.47738	30388.725
836.32036	30415.825
840.16066	30358.725
843.99827	30292.825
847.8332	30163.925
851.66546	30070.125
855.49504	29990.125
859.32195	29868.925
863.1462	29722.525
866.96777	29501.825
870.78668	29453.125
874.60293	29433.625
878.41652	29519.525
882.22745	29698.225
886.03573	29871.125
889.84136	29779.825
893.64433	29632.225
897.44466	29515.125
901.24235	29440.825
905.0374	29389.825
908.8298	29320.225
912.61957	29395.325
916.40671	29649.425
920.19121	30127.225
923.97308	30639.325
927.75233	30898.325
931.52895	31040.725
935.30295	30562.525
939.07433	29659.325
942.84309	28936.225
946.60924	28500.925
950.37278	28351.525
954.13371	28121.825
957.89203	27971.725
961.64774	27918.525
965.40086	27820.325
969.15137	27688.725
972.89929	27589.125
976.64461	27533.025
980.38733	27600.125
984.12747	27721.925
987.86502	27963.225
991.59999	28360.625
995.33237	29004.225
999.06217	29891.625
1002.78939	31074.425
1006.51404	32083.125
1010.23611	32784.125
1013.95561	33247.825
1017.67255	33140.625
1021.38692	32677.925
1025.09872	32175.325
1028.80796	32222.825
1032.51465	32940.425
1036.21877	33662.525
1039.92035	33904.625
1043.61937	33480.525
1047.31584	32747.825
1051.00976	31841.925
1054.70114	31351.325
1058.38998	31263.125
1062.07627	31406.725
1065.76003	31698.225
1069.44126	31999.525
1073.11995	32450.025
1076.79611	32755.725
1080.46974	33111.825
1084.14085	33698.625
1087.80943	34437.025
1091.47549	34862.225
1095.13903	34469.825
1098.80005	33463.725
1102.45857	32467.825
1106.11456	31789.225
1109.76805	31701.525
1113.41903	32049.925
1117.06751	32759.525
1120.71348	33685.625
1124.35696	34761.425
1127.99793	35817.225
1131.63641	35968.925
1135.2724	34933.825
1138.90589	33737.725
1142.5369	33055.925
1146.16542	32669.425
1149.79145	32530.625
1153.415	32636.925
1157.03607	33072.025
1160.65467	33861.625
1164.27079	35256.225
1167.88443	37333.125
1171.49561	40436.325
1175.10432	45197.825
1178.71056	51299.225
1182.31434	56340.325
1185.91565	58406.625
1189.51451	57909.425
1193.11091	55228.325
1196.70485	51357.725
1200.29634	47893.025
1203.88538	45142.825
1207.47197	42651.425
1211.05612	40604.425
1214.63782	39562.825
1218.21708	39312.225
1221.79391	39466.725
1225.36829	39703.825
1228.94024	39855.325
1232.50976	39687.825
1236.07685	39484.725
1239.6415	39256.425
1243.20374	38914.525
1246.76355	38968.425
1250.32093	39341.925
1253.8759	40363.225
1257.42845	41732.925
1260.97859	43228.525
1264.52631	44515.425
1268.07163	45903.225
1271.61453	47275.425
1275.15503	48754.325
1278.69312	49960.425
1282.22882	51021.925
1285.76211	52331.225
1289.29301	53964.125
1292.82151	55732.925
1296.34761	57693.225
1299.87133	60516.825
1303.39266	64645.225
1306.9116	70724.725
1310.42815	77856.525
1313.94233	83095.225
1317.45412	83730.825
1320.96354	80889.825
1324.47058	76770.525
1327.97525	72807.625
1331.47754	70057.925
1334.97747	68616.725
1338.47502	68205.025
1341.97022	68303.425
1345.46305	68439.325
1348.95352	68853.325
1352.44163	70088.125
1355.92738	73604.125
1359.41078	80634.125
1362.89183	88308.125
1366.37053	87672.825
1369.84688	77307.525
1373.32088	65737.625
1376.79254	58102.625
1380.26186	54591.725
1383.72883	53029.425
1387.19347	51909.125
1390.65578	50676.725
1394.11575	50041.725
1397.57339	50225.525
1401.0287	51103.725
1404.48168	52305.225
1407.93234	53203.625
1411.38068	53406.225
1414.82669	52702.925
1418.27039	50960.525
1421.71177	48892.525
1425.15083	47166.725
1428.58758	46043.125
1432.02203	45837.725
1435.45416	46285.125
1438.88399	46707.325
1442.31151	47126.525
1445.73673	47640.325
1449.15965	48198.725
1452.58027	48429.125
1455.9986	48375.225
1459.41463	48446.225
1462.82837	49059.125
1466.23982	49975.525
1469.64898	50985.525
1473.05586	51668.425
1476.46045	52019.425
1479.86276	52402.425
1483.26279	52796.425
1486.66054	53428.925
1490.05602	54421.625
1493.44922	55843.125
1496.84016	57651.025
1500.22882	60524.725
1503.61521	64535.525
1506.99934	69534.925
1510.38121	75032.425
1513.76081	78576.925
1517.13816	77025.525
1520.51324	70969.025
1523.88607	64005.625
1527.25665	58903.825
1530.62498	55857.725
1533.99105	53959.025
1537.35488	52703.125
1540.71647	51814.725
1544.07581	51102.925
1547.4329	50372.225
1550.78776	49638.425
1554.14038	49305.125
1557.49077	49456.325
1560.83892	49975.225
1564.18484	50748.825
1567.52853	51327.725
1570.86999	51726.725
1574.20922	52083.325
1577.54624	52088.625
1580.88103	50894.525
1584.2136	49329.025
1587.54395	49410.325
1590.87208	51466.425
1594.19801	55041.325
1597.52172	59001.925
1600.84321	60777.025
1604.16251	58473.225
1607.47959	53816.625
1610.79447	48745.825
1614.10715	44246.225
1617.41763	40762.025
1620.7259	38441.325
1624.03199	37366.425
1627.33587	37455.125
1630.63757	38610.425
1633.93707	41018.125
1637.23439	44728.125
1640.52951	49494.825
1643.82246	55139.725
1647.11321	60275.725
1650.40179	63109.825
1653.68819	60805.425
1656.97241	53257.725
1660.25446	44704.125
1663.53433	38180.925
1666.81203	34178.325
1670.08756	31825.525
1673.36092	30352.725
1676.63211	29434.225
1679.90115	28776.425
1683.16801	28284.525
1686.43272	27932.825
1689.69527	27661.625
1692.95567	27480.925
1696.2139	27386.925
1699.46999	27321.525
1702.72392	27217.025
1705.97571	27168.225
1709.22535	27116.925
1712.47284	27102.725
1715.71819	27108.925
1718.96139	27058.125
1722.20246	27021.725
1725.44139	26887.625
1728.67818	26770.625
1731.91284	26541.625
1735.14537	26403.625
1738.37576	26286.125
1741.60403	26204.225
1744.83017	26132.225
1748.05418	26032.025
1751.27607	26010.225
1754.49584	25971.525
1757.71349	25945.325
1760.92903	25940.825
1764.14244	25887.225
1767.35375	25851.625
1770.56294	25783.325
1773.77002	25750.425
1776.97499	25696.625
1780.17785	25598.425
1783.37861	25618.625
1786.57727	25561.325
1789.77382	25529.425
1792.96828	25530.925
1796.16064	25455.025
1799.3509	25404.225
1802.53907	25388.925
1805.72514	25283.625
1808.90913	25231.525
1812.09102	25220.525
1815.27083	25183.325
1818.44856	25152.925
1821.6242	25098.025
1824.79776	25104.225
1827.96924	25121.625
1831.13864	25127.025
1834.30597	25085.925
1837.47122	25090.425
1840.6344	25073.525
1843.7955	25054.625
1846.95454	25057.825
1850.11151	25053.725
1853.26642	25100.825
1856.41926	25082.225
1859.57004	25123.825
1862.71876	25149.125
1865.86542	25154.525
1869.01003	25239.025
1872.15258	25233.025
1875.29308	25229.025
1878.43152	25291.625
1881.56792	25295.525
1884.70227	25357.725
1887.83457	25368.925
1890.96482	25407.625
1894.09304	25406.025
1897.21921	25440.425
1900.34335	25481.725
1903.46544	25475.225
1906.58551	25504.225
1909.70353	25478.325
1912.81953	25486.925
1915.93349	25476.725
1919.04543	25429.525
1922.15534	25414.025
1925.26322	25325.125
1928.36908	25221.925
1931.47292	25111.125
1934.57473	24963.925
1937.67453	24817.525
1940.77232	24677.125
1943.86808	24567.225
1946.96184	24460.325
1950.05358	24323.425
1953.14331	24164.225
1956.23103	24073.025
1959.31675	23996.325
1962.40046	23880.025
1965.48217	23855.825
1968.56188	23768.925
1971.63959	23732.425
1974.7153	23647.225
1977.78901	23575.625
1980.86073	23470.825
1983.93046	23346.925
1986.99819	23296.425
1990.06394	23178.725
1993.1277	23149.625
1996.18947	23076.925
1999.24925	22996.325
2002.30706	22922.025
2005.36288	22865.325
2008.41672	22836.925
2011.46859	22737.725
2014.51848	22706.925
2017.56639	22652.325
2020.61233	22591.225
2023.6563	22545.625
2026.6983	22497.925
2029.73833	22451.325
2032.7764	22452.125
2035.8125	22345.725
2038.84664	22325.325
2041.87881	22351.625
2044.90903	22299.425
2047.93729	22246.225
2050.96359	22251.325
2053.98794	22198.625
2057.01034	22148.925
2060.03078	22157.525
2063.04927	22076.225
2066.06582	22111.825
2069.08042	22055.725
2072.09307	22048.925
2075.10378	22031.325
2078.11255	22066.225
2081.11938	22039.625
2084.12426	21988.225
2087.12722	21973.825
2090.12824	21947.525
2093.12732	21919.825
2096.12447	21938.125
2099.11969	21921.925
2102.11299	21963.825
2105.10435	21994.125
2108.09379	21968.625
2111.08131	22009.725
2114.0669	21995.425
2117.05057	21988.525
2120.03233	22058.725
2123.01216	22060.125
2125.99008	22010.825
2128.96609	22079.625
2131.94018	22087.825
2134.91236	22088.925
2137.88263	22081.125
2140.851	22107.225
2143.81746	22092.125
2146.78201	22111.325
2149.74466	22133.225
2152.7054	22086.625
2155.66425	22097.625
2158.6212	22143.125
2161.57625	22104.225
2164.52941	22085.325
2167.48067	22076.725
2170.43004	22065.425
2173.37752	22052.425
2176.32311	22080.625
2179.26681	22080.125
2182.20863	22076.925
2185.14856	22108.625
2188.08661	22130.425
2191.02278	22124.825
2193.95707	22086.725
2196.88948	22060.425
2199.82001	22048.225
2202.74867	22043.825
2205.67545	22046.425
2208.60037	22067.025
2211.52341	22024.925
2214.44458	22003.125
2217.36388	21984.725
2220.28132	21974.825
2223.1969	21877.225
2226.11061	21860.325
2229.02246	21783.925
2231.93245	21838.525
2234.84058	21786.325
2237.74686	21765.625
2240.65128	21719.525
2243.55385	21643.725
2246.45456	21655.225
2249.35343	21616.625
2252.25044	21590.025
2255.14561	21524.425
2258.03893	21558.625
2260.93041	21505.525
2263.82004	21451.525
2266.70783	21353.225
2269.59378	21349.725
2272.4779	21319.025
2275.36017	21246.425
2278.24061	21195.225
2281.11922	21148.425
2283.996	21118.925
2286.87094	21126.425
2289.74405	21081.425
2292.61534	21086.125
2295.4848	21060.225
2298.35243	21007.925
2301.21824	20969.625
2304.08223	21023.125
2306.94439	21044.525
2309.80474	21074.325
2312.66327	21059.025
2315.51999	21053.725
2318.37489	21082.925
2321.22797	21047.425
2324.07925	21040.925
2326.92871	21011.825
2329.77637	21046.325
2332.62222	20987.625
2335.46626	21002.125
2338.3085	20958.225
2341.14893	20970.725
2343.98756	21007.925
2346.8244	21016.825
2349.65943	21023.125
2352.49267	21031.825
2355.32411	21076.925
2358.15376	21086.125
2360.98161	21086.025
2363.80768	21067.225
2366.63195	21018.525
2369.45444	20966.025
2372.27514	20910.025
2375.09405	20857.425
2377.91118	20836.725
2380.72652	20739.825
2383.54009	20671.125
2386.35187	20674.825
2389.16188	20596.725
2391.97011	20588.925
2394.77657	20549.425
2397.58125	20493.925
2400.38416	20478.025
2403.18529	20416.325
2405.98466	20385.125
2408.78226	20349.925
2411.57809	20323.525
2414.37216	20290.025
2417.16446	20289.725
2419.955	20242.225
2422.74378	20224.825
2425.5308	20170.125
2428.31606	20194.925
2431.09956	20195.725
2433.88131	20148.725
2436.6613	20173.525
2439.43954	20179.125
2442.21603	20182.625
2444.99077	20165.625
2447.76377	20153.125
2450.53501	20151.525
2453.30451	20167.325
2456.07226	20148.425
2458.83827	20142.125
2461.60254	20115.925
2464.36507	20139.125
2467.12586	20110.825
2469.88492	20064.525
2472.64224	20145.825
2475.39782	20150.425
2478.15167	20154.525
2480.90379	20151.725
2483.65417	20179.025
2486.40283	20229.625
2489.14976	20233.325
2491.89497	20265.525
2494.63845	20290.025
2497.3802	20263.525
2500.12024	20254.325
2502.85855	20265.825
2505.59514	20286.925
2508.33002	20195.025
2511.06318	20158.625
2513.79462	20136.625
2516.52435	20058.825
2519.25237	20046.725
2521.97867	20009.025
2524.70327	19951.425
2527.42616	19929.125
2530.14734	19934.925
2532.86681	19921.025
2535.58458	19905.225
2538.30065	19855.925
2541.01501	19863.025
2543.72768	19874.525
2546.43864	19893.925
2549.14791	19843.725
2551.85548	19811.125
2554.56136	19843.925
2557.26554	19822.525
2559.96803	19815.825
2562.66883	19797.025
2565.36794	19738.225
2568.06536	19726.225
2570.7611	19733.925
2573.45514	19698.325
2576.14751	19683.225
2578.83819	19697.125
2581.52719	19643.625
2584.21451	19614.825
2586.90015	19645.525
2589.58411	19652.325
2592.2664	19644.625
2594.94701	19580.825
2597.62594	19607.525
2600.30321	19560.425
2602.9788	19598.825
2605.65273	19569.825
2608.32498	19551.925
2610.99557	19534.625
2613.66449	19563.125
2616.33175	19543.925
2618.99734	19572.025
2621.66128	19621.925
2624.32355	19568.325
2626.98416	19619.925
2629.64311	19567.125
2632.30041	19576.625
2634.95605	19587.725
2637.61004	19528.825
2640.26238	19481.225
2642.91306	19493.425
2645.56209	19470.525
2648.20948	19435.525
2650.85521	19424.425
2653.4993	19426.125
2656.14175	19381.125
2658.78255	19420.725
2661.42171	19393.325
2664.05923	19414.625
2666.6951	19469.125
2669.32934	19493.625
2671.96194	19501.325
2674.59291	19500.625
2677.22224	19498.725
2679.84993	19516.925
2682.476	19508.425
2685.10043	19488.625
2687.72324	19472.425
2690.34441	19444.625
2692.96396	19474.525
2695.58188	19453.625
2698.19818	19427.425
2700.81285	19481.225
2703.4259	19483.725
2706.03733	19468.525
2708.64714	19457.825
2711.25533	19469.525
2713.86191	19456.525
2716.46687	19484.425
2719.07021	19519.025
2721.67194	19532.625
2724.27206	19526.825
2726.87057	19516.525
2729.46747	19483.325
2732.06276	19511.725
2734.65644	19482.625
2737.24852	19506.425
2739.83899	19476.925
2742.42786	19493.225
2745.01513	19458.925
2747.60079	19452.625
2750.18486	19447.025
2752.76733	19414.225
2755.3482	19406.725
2757.92747	19401.225
2760.50515	19360.425
2763.08123	19369.925
2765.65573	19363.025
2768.22863	19370.825
2770.79994	19346.825
2773.36967	19366.525
2775.9378	19333.625
2778.50435	19322.625
2781.06932	19323.525
2783.6327	19294.025
2786.1945	19292.125
2788.75471	19266.525
2791.31335	19231.525
2793.87041	19241.325
2796.42589	19169.625
2798.97979	19229.525
2801.53212	19175.425
2804.08288	19159.825
2806.63206	19095.325
2809.17967	19042.825
2811.72571	19054.225
2814.27018	19025.125
2816.81308	19008.825
2819.35442	19003.025
2821.89419	19000.425
2824.43239	19027.225
2826.96904	19017.925
2829.50412	19048.325
2832.03763	19019.425
2834.56959	19034.825
2837.1	18976.925
2839.62884	19006.725
2842.15613	19029.225
2844.68186	19101.125
2847.20604	19152.425
2849.72867	19174.125
2852.24974	19205.625
2854.76927	19204.325
2857.28724	19173.425
2859.80367	19111.425
2862.31855	19098.325
2864.83189	19104.125
2867.34368	19029.525
2869.85393	19079.625
2872.36264	19064.125
2874.8698	19072.925
2877.37543	19075.825
2879.87952	19061.425
2882.38207	19083.225
2884.88308	19042.525
2887.38256	19048.725
2889.88051	19049.125
2892.37692	19076.425
2894.8718	19087.925
2897.36515	19123.325
2899.85698	19090.825
2902.34727	19112.125
2904.83604	19131.925
2907.32328	19136.325
2909.809	19154.325
2912.29319	19140.725
2914.77587	19166.125
2917.25702	19101.525
2919.73665	19135.325
2922.21476	19112.525
2924.69136	19044.525
2927.16644	19094.725
2929.64	19025.725
2932.11205	18967.425
2934.58258	18898.725
2937.05161	18902.025
2939.51912	18870.025
2941.98513	18834.425
2944.44962	18796.325
2946.91261	18675.225
2949.37409	18724.025
2951.83407	18709.325
2954.29254	18673.825
2956.74951	18618.025
2959.20498	18594.825
2961.65895	18572.925
2964.11142	18565.025
2966.56239	18464.425
2969.01186	18449.025
2971.45984	18362.925
2973.90632	18359.925
2976.35131	18332.625
2978.7948	18299.425
2981.23681	18199.825
2983.67732	18176.125
2986.11635	18101.125
2988.55388	18034.625
2990.98993	18008.725
2993.4245	17954.125
2995.85758	17947.225
2998.28917	17903.525
3000.71928	17899.225
3003.14791	17833.125
3005.57506	17829.725
3008.00073	17800.925
3010.42493	17768.625
3012.84764	17751.625
3015.26888	17751.925
3017.68865	17708.825
3020.10694	17663.825
3022.52376	17589.525
3024.9391	17577.825
3027.35298	17563.425
3029.76539	17560.225
3032.17632	17537.125
3034.5858	17479.325
3036.9938	17446.425
3039.40034	17441.225
3041.80542	17402.125
3044.20903	17389.025
3046.61118	17354.025
3049.01187	17348.825
3051.4111	17327.625
3053.80888	17264.925
3056.20519	17220.625
3058.60005	17161.125
3060.99345	17108.125
3063.3854	17098.125
3065.7759	17022.125
3068.16494	16984.525
3070.55254	16950.025
3072.93868	16919.925
3075.32338	16867.125
3077.70662	16822.525
3080.08842	16782.725
3082.46878	16740.825
3084.84769	16716.125
3087.22515	16703.925
3089.60118	16698.625
3091.97576	16645.125
3094.3489	16653.825
3096.72061	16654.325
3099.09087	16619.425
3101.4597	16593.425
3103.82709	16581.525
3106.19305	16535.425
3108.55757	16504.225
3110.92066	16483.025
3113.28232	16463.525
3115.64255	16418.325
3118.00134	16373.325
3120.35871	16335.425
3122.71466	16316.225
3125.06917	16269.625
3127.42226	16222.525
