Data from AgNPs_FTO_APTES_UA_2uM_CRN_0uM_R6G_10uM_NaF_0.1M_Addition_RamanShift__51__11-03-54-981.txt Node

Date: Wed Feb 02 11:03:54 GMT 2022
User: TCL
Spectrometer: QEP01345
Trigger mode: 4
Integration Time (sec): 7.000000E0
Scans to average: 10
Electric dark correction enabled: true
Nonlinearity correction enabled: false
Boxcar width: 0
XAxis mode: Raman Shifts
Number of Pixels in Spectrum: 1044
>>>>>Begin Spectral Data<<<<<
46.04893	1.175
50.45542	0.475
54.85868	-1.425
59.25871	-1.225
63.6555	71.375
68.04907	71.475
72.43941	75.875
76.82654	77.075
81.21044	82.375
85.59113	84.975
89.96862	83.675
94.34289	92.575
98.71396	94.075
103.08183	99.875
107.4465	101.575
111.80798	102.775
116.16626	104.875
120.52136	112.575
124.87327	118.075
129.222	121.675
133.56755	133.075
137.90993	145.075
142.24913	164.775
146.58517	187.675
150.91804	219.475
155.24774	266.675
159.57429	333.475
163.89768	432.075
168.21792	582.175
172.53501	797.375
176.84895	1121.075
181.15975	1577.975
185.46741	2207.675
189.77193	3021.675
194.07331	4049.175
198.37157	5195.475
202.6667	6403.975
206.9587	7609.375
211.24758	8776.975
215.53334	9970.375
219.81599	11301.575
224.09553	12794.075
228.37195	14453.875
232.64527	16202.175
236.91549	17981.575
241.18261	19686.375
245.44663	21234.475
249.70755	22526.775
253.96539	23698.975
258.22014	24722.875
262.4718	25669.675
266.72039	26345.175
270.96589	26737.475
275.20832	26909.975
279.44768	26808.875
283.68397	26695.275
287.91719	26646.275
292.14735	26681.975
296.37445	26844.175
300.59849	27076.675
304.81948	27338.475
309.03742	27439.275
313.25231	27076.775
317.46415	26124.475
321.67296	24720.975
325.87872	23498.575
330.08145	22912.975
334.28114	22799.375
338.47781	22958.675
342.67145	23301.875
346.86207	23861.875
351.04966	24583.575
355.23424	25499.375
359.4158	26199.675
363.59435	26543.975
367.76989	26687.775
371.94243	26680.675
376.11196	26693.575
380.27849	26703.875
384.44203	26708.275
388.60257	26783.175
392.76012	27034.175
396.91468	27385.975
401.06626	27961.075
405.21485	28367.475
409.36047	28064.275
413.50311	27297.775
417.64277	26627.675
421.77947	26355.275
425.9132	26414.875
430.04396	26585.175
434.17176	26763.375
438.2966	26955.775
442.41849	27425.075
446.53742	28242.675
450.6534	29154.075
454.76644	29816.875
458.87653	30073.275
462.98368	29933.875
467.08789	29583.675
471.18916	29198.275
475.2875	28924.375
479.38291	28944.075
483.4754	28893.575
487.56496	28587.875
491.6516	28028.775
495.73531	27449.175
499.81612	27064.275
503.89401	27105.475
507.96899	27157.175
512.04106	27007.775
516.11023	26722.375
520.1765	26391.475
524.23987	26051.775
528.30034	25619.675
532.35792	25152.875
536.41261	24635.575
540.46441	24238.175
544.51333	24170.075
548.55936	24579.975
552.60252	25461.675
556.64279	26366.075
560.6802	27055.375
564.71473	27612.875
568.7464	28664.875
572.7752	29721.175
576.80114	29987.775
580.82422	29942.875
584.84444	29950.675
588.86181	30080.675
592.87633	30425.875
596.888	30749.275
600.89682	30989.375
604.9028	32464.975
608.90594	36965.875
612.90624	42121.875
616.90371	39552.575
620.89834	30404.175
624.89015	26107.575
628.87913	25516.175
632.86528	25696.575
636.84862	25688.775
640.82913	25170.375
644.80683	24171.075
648.78172	23352.775
652.75379	23136.075
656.72306	23574.275
660.68952	24362.075
664.65319	24256.975
668.61405	23559.475
672.57211	23208.975
676.52738	23171.875
680.47986	23109.175
684.42955	22995.675
688.37646	22810.375
692.32058	22912.075
696.26192	23206.275
700.20048	23580.975
704.13626	23978.875
708.06928	24034.275
711.99952	23827.975
715.927	23695.075
719.85171	23652.475
723.77365	23491.775
727.69284	23227.975
731.60928	22831.175
735.52295	22721.575
739.43388	22798.175
743.34206	22954.375
747.24749	23121.675
751.15017	23427.775
755.05012	24065.375
758.94733	25139.875
762.8418	27237.875
766.73354	30752.175
770.62254	34181.175
774.50882	35111.875
778.39237	32896.475
782.27321	29247.375
786.15132	26127.775
790.02671	24322.775
793.89938	23377.475
797.76935	23015.875
801.6366	22903.175
805.50115	22740.375
809.36299	22591.675
813.22213	22452.875
817.07857	22398.575
820.93231	22364.675
824.78336	22214.275
828.63172	22161.075
832.47738	22157.275
836.32036	22136.475
840.16066	22203.175
843.99827	22194.875
847.8332	22068.275
851.66546	21957.375
855.49504	21907.675
859.32195	21831.575
863.1462	21694.175
866.96777	21538.875
870.78668	21484.675
874.60293	21431.575
878.41652	21462.775
882.22745	21566.475
886.03573	21692.775
889.84136	21705.675
893.64433	21599.375
897.44466	21512.675
901.24235	21459.675
905.0374	21304.975
908.8298	21235.175
912.61957	21296.875
916.40671	21558.275
920.19121	21963.875
923.97308	22377.975
927.75233	22556.075
931.52895	22460.875
935.30295	22017.575
939.07433	21334.675
942.84309	20776.975
946.60924	20460.175
950.37278	20348.575
954.13371	20253.875
957.89203	20171.475
961.64774	20150.275
965.40086	20091.675
969.15137	20051.475
972.89929	19958.075
976.64461	19828.675
980.38733	19795.675
984.12747	19872.175
987.86502	20039.575
991.59999	20336.675
995.33237	20741.875
999.06217	21551.975
1002.78939	22511.375
1006.51404	23249.875
1010.23611	23680.375
1013.95561	23909.375
1017.67255	23879.375
1021.38692	23460.775
1025.09872	23054.575
1028.80796	23061.675
1032.51465	23613.375
1036.21877	24154.975
1039.92035	24245.975
1043.61937	23950.175
1047.31584	23357.175
1051.00976	22782.675
1054.70114	22483.875
1058.38998	22436.075
1062.07627	22612.375
1065.76003	22807.875
1069.44126	23139.975
1073.11995	23544.275
1076.79611	23898.075
1080.46974	24023.475
1084.14085	24363.375
1087.80943	24856.375
1091.47549	25180.475
1095.13903	25144.075
1098.80005	24565.575
1102.45857	23719.375
1106.11456	23047.075
1109.76805	22731.575
1113.41903	22882.075
1117.06751	23233.675
1120.71348	23670.475
1124.35696	24220.175
1127.99793	24830.875
1131.63641	25155.475
1135.2724	24752.075
1138.90589	24307.375
1142.5369	24077.575
1146.16542	24068.175
1149.79145	24179.375
1153.415	24406.275
1157.03607	24870.775
1160.65467	25689.175
1164.27079	27010.775
1167.88443	28897.075
1171.49561	31518.875
1175.10432	35283.475
1178.71056	39987.975
1182.31434	44055.675
1185.91565	46282.675
1189.51451	46323.675
1193.11091	44757.775
1196.70485	42118.375
1200.29634	39365.275
1203.88538	37039.275
1207.47197	35187.575
1211.05612	33753.675
1214.63782	32812.675
1218.21708	32374.975
1221.79391	32236.075
1225.36829	32210.075
1228.94024	31943.775
1232.50976	31486.975
1236.07685	30999.575
1239.6415	30489.075
1243.20374	30084.775
1246.76355	30008.775
1250.32093	30249.375
1253.8759	31069.075
1257.42845	32283.575
1260.97859	33614.775
1264.52631	34953.875
1268.07163	36309.375
1271.61453	37701.575
1275.15503	39237.175
1278.69312	40590.375
1282.22882	41777.075
1285.76211	43012.075
1289.29301	44587.675
1292.82151	46585.075
1296.34761	49087.275
1299.87133	52214.675
1303.39266	55971.675
1306.9116	60538.875
1310.42815	65502.175
1313.94233	69209.875
1317.45412	70106.875
1320.96354	68957.275
1324.47058	67070.775
1327.97525	65078.475
1331.47754	63339.675
1334.97747	62049.075
1338.47502	61265.875
1341.97022	60495.675
1345.46305	59257.675
1348.95352	57924.675
1352.44163	57016.275
1355.92738	57769.875
1359.41078	60885.675
1362.89183	65006.875
1366.37053	65045.675
1369.84688	59139.475
1373.32088	51677.875
1376.79254	46413.375
1380.26186	44076.375
1383.72883	43480.275
1387.19347	43283.975
1390.65578	42957.875
1394.11575	43097.175
1397.57339	43965.475
1401.0287	45243.175
1404.48168	46460.075
1407.93234	46875.275
1411.38068	46173.875
1414.82669	44407.875
1418.27039	41833.275
1421.71177	39320.875
1425.15083	37278.775
1428.58758	36018.375
1432.02203	35805.875
1435.45416	36434.675
1438.88399	37379.475
1442.31151	38281.175
1445.73673	39235.975
1449.15965	40186.975
1452.58027	41020.875
1455.9986	41475.175
1459.41463	41926.675
1462.82837	42580.275
1466.23982	43339.075
1469.64898	43822.575
1473.05586	44013.975
1476.46045	43760.675
1479.86276	43299.575
1483.26279	42978.675
1486.66054	42842.475
1490.05602	43172.975
1493.44922	43830.075
1496.84016	44607.975
1500.22882	45895.675
1503.61521	47973.875
1506.99934	50681.875
1510.38121	53653.575
1513.76081	55424.875
1517.13816	54554.475
1520.51324	51326.775
1523.88607	47834.575
1527.25665	45497.975
1530.62498	44143.175
1533.99105	43367.375
1537.35488	42863.175
1540.71647	42257.675
1544.07581	41388.075
1547.4329	40329.875
1550.78776	39376.775
1554.14038	38888.875
1557.49077	38827.775
1560.83892	39021.175
1564.18484	39328.275
1567.52853	39477.175
1570.86999	39717.475
1574.20922	40312.875
1577.54624	40931.275
1580.88103	40933.375
1584.2136	40930.575
1587.54395	41988.675
1590.87208	44284.775
1594.19801	47459.075
1597.52172	50474.575
1600.84321	51297.575
1604.16251	48616.175
1607.47959	43879.775
1610.79447	39010.375
1614.10715	34682.275
1617.41763	31344.275
1620.7259	29080.975
1624.03199	27903.575
1627.33587	27915.175
1630.63757	28966.175
1633.93707	31302.675
1637.23439	35027.075
1640.52951	40086.775
1643.82246	45759.375
1647.11321	50371.175
1650.40179	51877.075
1653.68819	48764.975
1656.97241	42021.175
1660.25446	34645.975
1663.53433	28906.975
1666.81203	25223.875
1670.08756	22972.275
1673.36092	21539.075
1676.63211	20683.075
1679.90115	20063.775
1683.16801	19643.675
1686.43272	19311.275
1689.69527	19081.475
1692.95567	18916.875
1696.2139	18797.775
1699.46999	18758.475
1702.72392	18644.475
1705.97571	18575.075
1709.22535	18512.075
1712.47284	18442.475
1715.71819	18430.675
1718.96139	18375.375
1722.20246	18294.275
1725.44139	18193.975
1728.67818	18061.075
1731.91284	17924.875
1735.14537	17804.875
1738.37576	17689.475
1741.60403	17599.675
1744.83017	17557.675
1748.05418	17484.575
1751.27607	17451.675
1754.49584	17400.975
1757.71349	17381.375
1760.92903	17375.075
1764.14244	17377.875
1767.35375	17325.975
1770.56294	17316.075
1773.77002	17259.575
1776.97499	17222.475
1780.17785	17161.575
1783.37861	17123.075
1786.57727	17105.575
1789.77382	17087.975
1792.96828	17045.675
1796.16064	17029.075
1799.3509	16992.675
1802.53907	17012.675
1805.72514	16956.575
1808.90913	16929.275
1812.09102	16872.275
1815.27083	16826.875
1818.44856	16837.275
1821.6242	16798.175
1824.79776	16806.175
1827.96924	16757.475
1831.13864	16736.975
1834.30597	16750.575
1837.47122	16744.975
1840.6344	16796.475
1843.7955	16833.575
1846.95454	16849.875
1850.11151	16859.975
1853.26642	16848.675
1856.41926	16876.975
1859.57004	16865.875
1862.71876	16869.075
1865.86542	16900.375
1869.01003	16908.975
1872.15258	16915.275
1875.29308	16949.875
1878.43152	16964.875
1881.56792	17025.675
1884.70227	17031.475
1887.83457	17016.775
1890.96482	17053.975
1894.09304	17053.975
1897.21921	17152.775
1900.34335	17102.875
1903.46544	17160.875
1906.58551	17167.075
1909.70353	17158.575
1912.81953	17179.175
1915.93349	17161.075
1919.04543	17086.075
1922.15534	17043.275
1925.26322	16948.575
1928.36908	16883.875
1931.47292	16781.575
1934.57473	16659.675
1937.67453	16522.775
1940.77232	16434.875
1943.86808	16348.575
1946.96184	16264.175
1950.05358	16181.175
1953.14331	16056.475
1956.23103	15998.275
1959.31675	15952.975
1962.40046	15863.675
1965.48217	15811.475
1968.56188	15759.375
1971.63959	15697.875
1974.7153	15689.875
1977.78901	15598.975
1980.86073	15572.875
1983.93046	15518.375
1986.99819	15457.475
1990.06394	15434.575
1993.1277	15387.175
1996.18947	15275.975
1999.24925	15251.475
2002.30706	15207.775
2005.36288	15103.075
2008.41672	15129.175
2011.46859	15028.275
2014.51848	15008.875
2017.56639	14940.375
2020.61233	14925.875
2023.6563	14916.075
2026.6983	14900.875
2029.73833	14851.475
2032.7764	14823.775
2035.8125	14825.875
2038.84664	14812.675
2041.87881	14758.875
2044.90903	14761.175
2047.93729	14743.175
2050.96359	14739.875
2053.98794	14669.675
2057.01034	14644.675
2060.03078	14640.075
2063.04927	14651.175
2066.06582	14609.375
2069.08042	14598.675
2072.09307	14620.675
2075.10378	14572.175
2078.11255	14589.275
2081.11938	14602.275
2084.12426	14547.875
2087.12722	14553.775
2090.12824	14539.875
2093.12732	14557.175
2096.12447	14601.875
2099.11969	14586.175
2102.11299	14585.875
2105.10435	14570.775
2108.09379	14568.275
2111.08131	14556.375
2114.0669	14588.275
2117.05057	14576.975
2120.03233	14589.975
2123.01216	14583.275
2125.99008	14600.275
2128.96609	14582.575
2131.94018	14610.075
2134.91236	14616.475
2137.88263	14603.575
2140.851	14623.575
2143.81746	14609.975
2146.78201	14617.475
2149.74466	14605.575
2152.7054	14623.475
2155.66425	14590.475
2158.6212	14621.975
2161.57625	14632.475
2164.52941	14629.775
2167.48067	14604.375
2170.43004	14597.875
2173.37752	14605.375
2176.32311	14637.975
2179.26681	14629.675
2182.20863	14631.175
2185.14856	14634.675
2188.08661	14665.475
2191.02278	14618.075
2193.95707	14604.475
2196.88948	14611.975
2199.82001	14595.275
2202.74867	14593.875
2205.67545	14613.875
2208.60037	14587.875
2211.52341	14605.375
2214.44458	14593.775
2217.36388	14544.375
2220.28132	14541.975
2223.1969	14514.375
2226.11061	14473.175
2229.02246	14407.275
2231.93245	14438.475
2234.84058	14404.975
2237.74686	14381.475
2240.65128	14347.075
2243.55385	14330.675
2246.45456	14309.675
2249.35343	14255.275
2252.25044	14266.875
2255.14561	14249.275
2258.03893	14246.875
2260.93041	14198.675
2263.82004	14202.875
2266.70783	14204.475
2269.59378	14119.975
2272.4779	14081.975
2275.36017	14066.375
2278.24061	14013.775
2281.11922	13994.975
2283.996	13976.075
2286.87094	14001.075
2289.74405	13968.275
2292.61534	13922.675
2295.4848	13926.375
2298.35243	13939.875
2301.21824	13932.375
2304.08223	13890.975
2306.94439	13937.875
2309.80474	13927.175
2312.66327	13977.575
2315.51999	13972.175
2318.37489	13937.875
2321.22797	13942.175
2324.07925	13947.375
2326.92871	13946.175
2329.77637	13948.775
2332.62222	13948.875
2335.46626	13940.175
2338.3085	13933.175
2341.14893	13940.875
2343.98756	13983.175
2346.8244	14001.475
2349.65943	13967.475
2352.49267	13982.775
2355.32411	13964.875
2358.15376	13976.175
2360.98161	13978.575
2363.80768	13993.575
2366.63195	13990.475
2369.45444	13956.475
2372.27514	13951.075
2375.09405	13890.875
2377.91118	13841.975
2380.72652	13824.475
2383.54009	13790.875
2386.35187	13758.675
2389.16188	13686.275
2391.97011	13689.875
2394.77657	13663.475
2397.58125	13647.075
2400.38416	13640.575
2403.18529	13619.675
2405.98466	13569.975
2408.78226	13537.275
2411.57809	13527.375
2414.37216	13504.375
2417.16446	13475.675
2419.955	13478.275
2422.74378	13453.375
2425.5308	13443.275
2428.31606	13446.975
2431.09956	13433.675
2433.88131	13402.175
2436.6613	13429.075
2439.43954	13425.375
2442.21603	13467.775
2444.99077	13425.475
2447.76377	13442.975
2450.53501	13444.775
2453.30451	13450.475
2456.07226	13462.475
2458.83827	13453.475
2461.60254	13481.875
2464.36507	13481.475
2467.12586	13482.675
2469.88492	13483.975
2472.64224	13472.775
2475.39782	13506.275
2478.15167	13516.975
2480.90379	13492.475
2483.65417	13507.275
2486.40283	13531.675
2489.14976	13584.975
2491.89497	13559.575
2494.63845	13613.775
2497.3802	13598.175
2500.12024	13616.775
2502.85855	13609.275
2505.59514	13602.875
2508.33002	13592.275
2511.06318	13546.875
2513.79462	13519.175
2516.52435	13496.775
2519.25237	13505.575
2521.97867	13489.075
2524.70327	13460.675
2527.42616	13456.875
2530.14734	13427.575
2532.86681	13406.075
2535.58458	13437.475
2538.30065	13412.475
2541.01501	13373.375
2543.72768	13402.375
2546.43864	13369.975
2549.14791	13356.875
2551.85548	13370.175
2554.56136	13342.575
2557.26554	13338.175
2559.96803	13321.375
2562.66883	13336.875
2565.36794	13327.975
2568.06536	13342.175
2570.7611	13335.675
2573.45514	13302.875
2576.14751	13319.475
2578.83819	13283.175
2581.52719	13331.675
2584.21451	13327.075
2586.90015	13309.475
2589.58411	13290.275
2592.2664	13291.875
2594.94701	13315.575
2597.62594	13278.675
2600.30321	13258.975
2602.9788	13288.775
2605.65273	13284.375
2608.32498	13301.575
2610.99557	13316.975
2613.66449	13295.975
2616.33175	13304.275
2618.99734	13341.375
2621.66128	13341.375
2624.32355	13349.675
2626.98416	13363.275
2629.64311	13359.775
2632.30041	13374.875
2634.95605	13350.275
2637.61004	13368.575
2640.26238	13329.775
2642.91306	13330.775
2645.56209	13282.575
2648.20948	13301.075
2650.85521	13267.175
2653.4993	13294.475
2656.14175	13306.675
2658.78255	13295.275
2661.42171	13315.675
2664.05923	13285.275
2666.6951	13295.375
2669.32934	13299.975
2671.96194	13348.875
2674.59291	13358.275
2677.22224	13323.975
2679.84993	13325.775
2682.476	13335.575
2685.10043	13326.775
2687.72324	13321.375
2690.34441	13304.775
2692.96396	13282.675
2695.58188	13292.375
2698.19818	13274.875
2700.81285	13292.475
2703.4259	13267.775
2706.03733	13297.075
2708.64714	13314.675
2711.25533	13341.375
2713.86191	13327.375
2716.46687	13342.375
2719.07021	13338.375
2721.67194	13342.975
2724.27206	13316.975
2726.87057	13328.175
2729.46747	13351.475
2732.06276	13359.975
2734.65644	13357.775
2737.24852	13357.775
2739.83899	13338.175
2742.42786	13357.275
2745.01513	13316.175
2747.60079	13354.675
2750.18486	13342.275
2752.76733	13350.675
2755.3482	13375.175
2757.92747	13382.575
2760.50515	13360.475
2763.08123	13344.575
2765.65573	13348.675
2768.22863	13330.375
2770.79994	13324.375
2773.36967	13340.275
2775.9378	13339.075
2778.50435	13368.075
2781.06932	13341.275
2783.6327	13369.875
2786.1945	13333.875
2788.75471	13355.375
2791.31335	13289.875
2793.87041	13304.075
2796.42589	13269.975
2798.97979	13281.375
2801.53212	13255.675
2804.08288	13223.075
2806.63206	13222.975
2809.17967	13215.775
2811.72571	13183.475
2814.27018	13183.675
2816.81308	13186.975
2819.35442	13174.275
2821.89419	13200.775
2824.43239	13175.875
2826.96904	13152.675
2829.50412	13191.675
2832.03763	13143.675
2834.56959	13141.575
2837.1	13132.975
2839.62884	13142.475
2842.15613	13152.775
2844.68186	13237.875
2847.20604	13259.975
2849.72867	13290.175
2852.24974	13295.475
2854.76927	13312.675
2857.28724	13273.475
2859.80367	13265.775
2862.31855	13231.375
2864.83189	13240.175
2867.34368	13223.075
2869.85393	13265.775
2872.36264	13248.475
2874.8698	13255.075
2877.37543	13290.875
2879.87952	13277.475
2882.38207	13304.275
2884.88308	13282.675
2887.38256	13318.875
2889.88051	13284.675
2892.37692	13315.575
2894.8718	13298.575
2897.36515	13311.975
2899.85698	13340.075
2902.34727	13367.275
2904.83604	13364.375
2907.32328	13400.075
2909.809	13354.875
2912.29319	13375.475
2914.77587	13406.775
2917.25702	13386.975
2919.73665	13382.975
2922.21476	13357.075
2924.69136	13364.375
2927.16644	13353.975
2929.64	13292.375
2932.11205	13288.075
2934.58258	13258.675
2937.05161	13269.075
2939.51912	13216.875
2941.98513	13239.375
2944.44962	13178.375
2946.91261	13091.075
2949.37409	13096.375
2951.83407	13049.275
2954.29254	13053.475
2956.74951	12979.775
2959.20498	12989.475
2961.65895	12930.375
2964.11142	12928.275
2966.56239	12900.975
2969.01186	12880.075
2971.45984	12827.075
2973.90632	12774.975
2976.35131	12755.975
2978.7948	12717.475
2981.23681	12637.875
2983.67732	12606.875
2986.11635	12573.875
2988.55388	12548.375
2990.98993	12517.675
2993.4245	12512.275
2995.85758	12471.575
2998.28917	12455.975
3000.71928	12446.675
3003.14791	12441.975
3005.57506	12423.775
3008.00073	12372.475
3010.42493	12346.275
3012.84764	12301.975
3015.26888	12305.175
3017.68865	12273.375
3020.10694	12259.075
3022.52376	12239.875
3024.9391	12228.575
3027.35298	12216.775
3029.76539	12218.075
3032.17632	12162.075
3034.5858	12169.275
3036.9938	12136.475
3039.40034	12127.775
3041.80542	12149.775
3044.20903	12107.875
3046.61118	12112.875
3049.01187	12072.575
3051.4111	12043.775
3053.80888	12046.775
3056.20519	12030.275
3058.60005	11983.475
3060.99345	11951.475
3063.3854	11940.075
3065.7759	11895.775
3068.16494	11877.775
3070.55254	11828.275
3072.93868	11806.275
3075.32338	11768.175
3077.70662	11732.875
3080.08842	11707.875
3082.46878	11680.175
3084.84769	11672.375
3087.22515	11661.475
3089.60118	11671.475
3091.97576	11637.875
3094.3489	11679.175
3096.72061	11658.775
3099.09087	11672.475
3101.4597	11640.275
3103.82709	11597.975
3106.19305	11576.475
3108.55757	11584.375
3110.92066	11581.275
3113.28232	11504.875
3115.64255	11464.575
3118.00134	11460.975
3120.35871	11453.375
3122.71466	11449.975
3125.06917	11426.275
3127.42226	11407.075
