Data from AgNPs_FTO_APTES_UA_2uM_CRN_5uM_R6G_10uM_NaF_0.1M_Addition_RamanShift__17__12-58-15-113.txt Node

Date: Wed Feb 02 12:58:15 GMT 2022
User: TCL
Spectrometer: QEP01345
Trigger mode: 4
Integration Time (sec): 7.000000E0
Scans to average: 10
Electric dark correction enabled: true
Nonlinearity correction enabled: false
Boxcar width: 0
XAxis mode: Raman Shifts
Number of Pixels in Spectrum: 1044
>>>>>Begin Spectral Data<<<<<
46.04893	1.375
50.45542	-0.025
54.85868	-0.825
59.25871	-1.225
63.6555	82.275
68.04907	85.075
72.43941	89.275
76.82654	97.775
81.21044	99.575
85.59113	101.775
89.96862	102.375
94.34289	107.675
98.71396	110.675
103.08183	115.775
107.4465	119.575
111.80798	126.375
116.16626	126.575
120.52136	133.575
124.87327	139.175
129.222	143.775
133.56755	162.975
137.90993	175.575
142.24913	198.875
146.58517	226.575
150.91804	266.375
155.24774	317.875
159.57429	403.375
163.89768	519.375
168.21792	701.975
172.53501	953.775
176.84895	1348.875
181.15975	1910.175
185.46741	2669.075
189.77193	3674.075
194.07331	4922.575
198.37157	6317.675
202.6667	7776.675
206.9587	9230.075
211.24758	10675.975
215.53334	12155.875
219.81599	13675.575
224.09553	15415.075
228.37195	17347.175
232.64527	19462.675
236.91549	21607.975
241.18261	23777.175
245.44663	25745.975
249.70755	27541.575
253.96539	29058.575
258.22014	30370.475
262.4718	31499.075
266.72039	32352.075
270.96589	32866.275
275.20832	33002.875
279.44768	32898.775
283.68397	32727.575
287.91719	32620.475
292.14735	32618.575
296.37445	32735.475
300.59849	32909.975
304.81948	32969.775
309.03742	32809.175
313.25231	32386.075
317.46415	31459.775
321.67296	30352.475
325.87872	29334.275
330.08145	28839.375
334.28114	28692.775
338.47781	28865.375
342.67145	29170.175
346.86207	29663.375
351.04966	30298.675
355.23424	30974.675
359.4158	31525.975
363.59435	31861.875
367.76989	32092.575
371.94243	32292.375
376.11196	32459.175
380.27849	32552.475
384.44203	32711.875
388.60257	32973.775
392.76012	33388.975
396.91468	33806.875
401.06626	34385.275
405.21485	34734.475
409.36047	34489.175
413.50311	33821.575
417.64277	33357.675
421.77947	33237.275
425.9132	33354.375
430.04396	33558.075
434.17176	33757.775
438.2966	34005.975
442.41849	34470.775
446.53742	35370.475
450.6534	36376.275
454.76644	37283.075
458.87653	37652.575
462.98368	37549.175
467.08789	37197.775
471.18916	36766.975
475.2875	36390.675
479.38291	36339.175
483.4754	36147.175
487.56496	35634.275
491.6516	35013.075
495.73531	34358.175
499.81612	34043.175
503.89401	34149.975
507.96899	34231.575
512.04106	34200.975
516.11023	33893.475
520.1765	33401.375
524.23987	32996.975
528.30034	32581.975
532.35792	32143.675
536.41261	31731.675
540.46441	31320.775
544.51333	31394.775
548.55936	31972.375
552.60252	32937.675
556.64279	33832.575
560.6802	34471.575
564.71473	34858.475
568.7464	35504.975
572.7752	36445.575
576.80114	37335.675
580.82422	38005.375
584.84444	38608.675
588.86181	38929.375
592.87633	39245.575
596.888	39284.275
600.89682	39224.275
604.9028	40586.575
608.90594	44336.475
612.90624	47879.175
616.90371	44375.175
620.89834	36484.475
624.89015	33094.675
628.87913	32833.275
632.86528	33006.475
636.84862	32757.875
640.82913	32191.475
644.80683	31151.875
648.78172	30326.275
652.75379	30117.375
656.72306	30483.775
660.68952	31021.275
664.65319	30883.475
668.61405	30269.175
672.57211	30018.775
676.52738	30086.175
680.47986	30006.475
684.42955	29848.075
688.37646	29776.275
692.32058	29970.075
696.26192	30293.775
700.20048	30708.075
704.13626	30984.575
708.06928	30922.375
711.99952	30700.775
715.927	30545.575
719.85171	30628.275
723.77365	30520.475
727.69284	30069.875
731.60928	29680.375
735.52295	29559.175
739.43388	29574.775
743.34206	29681.175
747.24749	29902.475
751.15017	30246.175
755.05012	30923.075
758.94733	32159.175
762.8418	34112.475
766.73354	37188.575
770.62254	39922.175
774.50882	40398.975
778.39237	38023.075
782.27321	34825.575
786.15132	32221.675
790.02671	30707.975
793.89938	29946.475
797.76935	29711.275
801.6366	29646.975
805.50115	29608.275
809.36299	29339.275
813.22213	29000.175
817.07857	28817.775
820.93231	28766.475
824.78336	28564.575
828.63172	28345.775
832.47738	28309.975
836.32036	28366.675
840.16066	28537.475
843.99827	28623.275
847.8332	28548.075
851.66546	28316.275
855.49504	28193.675
859.32195	28221.875
863.1462	28090.975
866.96777	27994.975
870.78668	27904.275
874.60293	27864.575
878.41652	27873.775
882.22745	27979.975
886.03573	28111.275
889.84136	28135.475
893.64433	27994.975
897.44466	27835.375
901.24235	27739.575
905.0374	27574.975
908.8298	27498.375
912.61957	27646.675
916.40671	27949.575
920.19121	28492.775
923.97308	28833.275
927.75233	28922.175
931.52895	28737.475
935.30295	28352.175
939.07433	27661.175
942.84309	27073.275
946.60924	26848.775
950.37278	26756.675
954.13371	26700.275
957.89203	26561.675
961.64774	26566.375
965.40086	26537.875
969.15137	26396.175
972.89929	26296.375
976.64461	26149.275
980.38733	26132.875
984.12747	26285.375
987.86502	26523.075
991.59999	26969.375
995.33237	27535.875
999.06217	28501.775
1002.78939	29626.475
1006.51404	30274.675
1010.23611	30620.075
1013.95561	30878.575
1017.67255	30919.375
1021.38692	30566.475
1025.09872	30152.075
1028.80796	30274.675
1032.51465	31193.975
1036.21877	32141.275
1039.92035	32412.375
1043.61937	31876.075
1047.31584	30993.975
1051.00976	30114.175
1054.70114	29705.275
1058.38998	29802.075
1062.07627	29972.275
1065.76003	30256.675
1069.44126	30562.075
1073.11995	30971.675
1076.79611	31444.475
1080.46974	31680.975
1084.14085	31995.275
1087.80943	32467.175
1091.47549	32865.675
1095.13903	32836.175
1098.80005	32499.575
1102.45857	31638.075
1106.11456	30916.075
1109.76805	30522.275
1113.41903	30534.175
1117.06751	30704.375
1120.71348	31043.875
1124.35696	31452.075
1127.99793	31884.975
1131.63641	32217.875
1135.2724	32085.175
1138.90589	31889.875
1142.5369	31861.475
1146.16542	31952.275
1149.79145	32246.075
1153.415	32677.875
1157.03607	33318.875
1160.65467	34376.275
1164.27079	36225.775
1167.88443	38566.975
1171.49561	41471.075
1175.10432	45229.175
1178.71056	49781.275
1182.31434	54136.375
1185.91565	56640.175
1189.51451	56924.375
1193.11091	55276.675
1196.70485	52648.875
1200.29634	49838.575
1203.88538	47610.275
1207.47197	46175.175
1211.05612	45117.175
1214.63782	44217.675
1218.21708	43283.075
1221.79391	42535.975
1225.36829	42057.875
1228.94024	41433.575
1232.50976	40666.075
1236.07685	40009.975
1239.6415	39635.675
1243.20374	39569.675
1246.76355	39693.475
1250.32093	40349.975
1253.8759	41388.175
1257.42845	42843.675
1260.97859	44432.975
1264.52631	45998.775
1268.07163	47550.475
1271.61453	49240.875
1275.15503	51071.475
1278.69312	52882.275
1282.22882	54601.475
1285.76211	56125.575
1289.29301	57723.375
1292.82151	60005.075
1296.34761	62856.075
1299.87133	66629.675
1303.39266	70957.475
1306.9116	75765.775
1310.42815	80203.375
1313.94233	82992.275
1317.45412	83447.375
1320.96354	82502.575
1324.47058	81365.975
1327.97525	80223.475
1331.47754	79366.975
1334.97747	78907.875
1338.47502	78595.875
1341.97022	77980.375
1345.46305	76757.575
1348.95352	74781.675
1352.44163	72892.075
1355.92738	72621.575
1359.41078	74522.075
1362.89183	76664.675
1366.37053	75132.175
1369.84688	69259.775
1373.32088	62207.475
1376.79254	57185.575
1380.26186	55301.275
1383.72883	55267.975
1387.19347	55369.275
1390.65578	55081.075
1394.11575	55151.875
1397.57339	55875.375
1401.0287	57153.975
1404.48168	58256.575
1407.93234	58448.475
1411.38068	57358.375
1414.82669	55262.875
1418.27039	52543.975
1421.71177	49842.775
1425.15083	47757.875
1428.58758	46583.675
1432.02203	46654.675
1435.45416	47815.175
1438.88399	49428.275
1442.31151	50947.175
1445.73673	52042.175
1449.15965	53006.375
1452.58027	53742.175
1455.9986	54084.275
1459.41463	54642.675
1462.82837	55638.075
1466.23982	56712.675
1469.64898	57582.375
1473.05586	58040.175
1476.46045	57804.975
1479.86276	57086.975
1483.26279	56117.875
1486.66054	55436.075
1490.05602	55326.575
1493.44922	55609.775
1496.84016	56029.475
1500.22882	57021.975
1503.61521	58682.475
1506.99934	60848.675
1510.38121	62750.675
1513.76081	63482.975
1517.13816	62286.975
1520.51324	60054.975
1523.88607	57967.175
1527.25665	56796.175
1530.62498	56304.375
1533.99105	56014.475
1537.35488	55732.975
1540.71647	55067.475
1544.07581	53906.675
1547.4329	52592.575
1550.78776	51459.975
1554.14038	50643.375
1557.49077	50268.575
1560.83892	50102.575
1564.18484	50038.275
1567.52853	49940.675
1570.86999	50264.775
1574.20922	50930.075
1577.54624	51792.475
1580.88103	52272.275
1584.2136	52859.475
1587.54395	54572.875
1590.87208	57441.775
1594.19801	61063.075
1597.52172	64592.975
1600.84321	65461.075
1604.16251	62164.775
1607.47959	56780.875
1610.79447	51317.075
1614.10715	46333.175
1617.41763	42240.075
1620.7259	39266.275
1624.03199	37769.275
1627.33587	37704.475
1630.63757	39048.075
1633.93707	42026.575
1637.23439	46832.575
1640.52951	53381.675
1643.82246	60401.575
1647.11321	65176.175
1650.40179	65464.375
1653.68819	60534.675
1656.97241	52233.775
1660.25446	43926.375
1663.53433	37564.675
1666.81203	33357.775
1670.08756	30693.575
1673.36092	29025.175
1676.63211	27902.275
1679.90115	27125.175
1683.16801	26510.675
1686.43272	26111.975
1689.69527	25776.875
1692.95567	25581.775
1696.2139	25401.375
1699.46999	25228.175
1702.72392	25119.075
1705.97571	24989.575
1709.22535	24898.075
1712.47284	24826.475
1715.71819	24763.475
1718.96139	24690.175
1722.20246	24535.675
1725.44139	24391.275
1728.67818	24286.175
1731.91284	24109.775
1735.14537	23966.075
1738.37576	23834.775
1741.60403	23746.175
1744.83017	23608.975
1748.05418	23566.475
1751.27607	23533.775
1754.49584	23505.875
1757.71349	23454.875
1760.92903	23432.175
1764.14244	23380.275
1767.35375	23324.175
1770.56294	23308.375
1773.77002	23225.375
1776.97499	23202.575
1780.17785	23097.575
1783.37861	23106.175
1786.57727	23067.375
1789.77382	22999.675
1792.96828	22971.575
1796.16064	22866.375
1799.3509	22812.875
1802.53907	22778.275
1805.72514	22659.875
1808.90913	22643.275
1812.09102	22649.675
1815.27083	22594.975
1818.44856	22589.575
1821.6242	22546.275
1824.79776	22558.175
1827.96924	22563.475
1831.13864	22566.275
1834.30597	22587.675
1837.47122	22551.575
1840.6344	22576.375
1843.7955	22610.875
1846.95454	22602.875
1850.11151	22622.175
1853.26642	22629.475
1856.41926	22610.775
1859.57004	22649.775
1862.71876	22619.775
1865.86542	22588.375
1869.01003	22615.075
1872.15258	22606.975
1875.29308	22569.975
1878.43152	22569.775
1881.56792	22584.375
1884.70227	22576.575
1887.83457	22575.475
1890.96482	22583.075
1894.09304	22531.775
1897.21921	22542.075
1900.34335	22520.875
1903.46544	22473.075
1906.58551	22409.075
1909.70353	22435.475
1912.81953	22363.775
1915.93349	22286.975
1919.04543	22218.375
1922.15534	22123.775
1925.26322	22061.075
1928.36908	21999.675
1931.47292	21892.475
1934.57473	21823.775
1937.67453	21702.075
1940.77232	21621.275
1943.86808	21527.275
1946.96184	21483.675
1950.05358	21379.275
1953.14331	21326.475
1956.23103	21241.175
1959.31675	21180.375
1962.40046	21113.275
1965.48217	21042.975
1968.56188	20954.375
1971.63959	20892.475
1974.7153	20863.075
1977.78901	20799.175
1980.86073	20722.475
1983.93046	20649.475
1986.99819	20557.275
1990.06394	20480.575
1993.1277	20446.475
1996.18947	20360.375
1999.24925	20284.375
2002.30706	20251.975
2005.36288	20205.775
2008.41672	20149.575
2011.46859	20103.075
2014.51848	20011.475
2017.56639	20016.675
2020.61233	19949.275
2023.6563	19945.375
2026.6983	19895.475
2029.73833	19855.375
2032.7764	19818.075
2035.8125	19802.975
2038.84664	19762.175
2041.87881	19777.875
2044.90903	19760.975
2047.93729	19677.075
2050.96359	19661.275
2053.98794	19642.375
2057.01034	19638.775
2060.03078	19611.375
2063.04927	19596.975
2066.06582	19601.975
2069.08042	19565.775
2072.09307	19494.375
2075.10378	19508.575
2078.11255	19510.975
2081.11938	19483.275
2084.12426	19463.875
2087.12722	19448.775
2090.12824	19460.475
2093.12732	19431.975
2096.12447	19485.575
2099.11969	19430.575
2102.11299	19467.375
2105.10435	19469.075
2108.09379	19480.675
2111.08131	19492.375
2114.0669	19454.375
2117.05057	19495.675
2120.03233	19485.575
2123.01216	19523.875
2125.99008	19509.775
2128.96609	19508.875
2131.94018	19512.075
2134.91236	19513.275
2137.88263	19518.175
2140.851	19532.675
2143.81746	19543.175
2146.78201	19509.275
2149.74466	19580.575
2152.7054	19570.575
2155.66425	19559.275
2158.6212	19551.475
2161.57625	19564.475
2164.52941	19565.975
2167.48067	19517.175
2170.43004	19506.275
2173.37752	19514.775
2176.32311	19517.775
2179.26681	19517.975
2182.20863	19534.375
2185.14856	19554.575
2188.08661	19585.875
2191.02278	19588.075
2193.95707	19544.975
2196.88948	19506.675
2199.82001	19509.175
2202.74867	19489.375
2205.67545	19507.375
2208.60037	19502.075
2211.52341	19485.775
2214.44458	19469.875
2217.36388	19490.575
2220.28132	19427.775
2223.1969	19426.675
2226.11061	19394.775
2229.02246	19332.675
2231.93245	19326.675
2234.84058	19258.475
2237.74686	19243.575
2240.65128	19212.675
2243.55385	19124.475
2246.45456	19100.075
2249.35343	19110.775
2252.25044	19043.475
2255.14561	19014.375
2258.03893	19002.775
2260.93041	18917.975
2263.82004	18880.175
2266.70783	18851.175
2269.59378	18825.375
2272.4779	18776.875
2275.36017	18703.975
2278.24061	18693.075
2281.11922	18623.775
2283.996	18597.275
2286.87094	18611.075
2289.74405	18597.175
2292.61534	18583.575
2295.4848	18566.975
2298.35243	18572.275
2301.21824	18577.175
2304.08223	18562.975
2306.94439	18618.775
2309.80474	18602.275
2312.66327	18616.275
2315.51999	18608.175
2318.37489	18629.275
2321.22797	18608.975
2324.07925	18643.975
2326.92871	18611.575
2329.77637	18573.475
2332.62222	18563.675
2335.46626	18588.775
2338.3085	18549.875
2341.14893	18568.375
2343.98756	18570.875
2346.8244	18580.375
2349.65943	18636.875
2352.49267	18619.475
2355.32411	18639.475
2358.15376	18618.675
2360.98161	18635.375
2363.80768	18607.775
2366.63195	18580.775
2369.45444	18528.175
2372.27514	18454.175
2375.09405	18434.175
2377.91118	18403.675
2380.72652	18353.975
2383.54009	18294.575
2386.35187	18315.175
2389.16188	18252.075
2391.97011	18253.275
2394.77657	18209.175
2397.58125	18183.575
2400.38416	18176.575
2403.18529	18096.475
2405.98466	18103.175
2408.78226	18048.775
2411.57809	18049.075
2414.37216	18022.375
2417.16446	18022.775
2419.955	18013.075
2422.74378	18009.675
2425.5308	17955.275
2428.31606	17975.875
2431.09956	17942.775
2433.88131	17932.175
2436.6613	17937.775
2439.43954	17933.775
2442.21603	17989.875
2444.99077	17922.775
2447.76377	17913.375
2450.53501	17919.675
2453.30451	17937.975
2456.07226	17918.175
2458.83827	17940.975
2461.60254	17898.875
2464.36507	17911.875
2467.12586	17909.875
2469.88492	17950.775
2472.64224	17955.475
2475.39782	17955.775
2478.15167	17994.575
2480.90379	17974.975
2483.65417	17990.075
2486.40283	17972.375
2489.14976	18000.575
2491.89497	18031.475
2494.63845	18078.975
2497.3802	18044.775
2500.12024	18030.375
2502.85855	18037.675
2505.59514	18051.175
2508.33002	18047.475
2511.06318	18031.875
2513.79462	18009.275
2516.52435	17967.175
2519.25237	17993.175
2521.97867	17959.775
2524.70327	17965.175
2527.42616	17935.575
2530.14734	17978.175
2532.86681	17964.675
2535.58458	17924.075
2538.30065	17927.475
2541.01501	17927.475
2543.72768	17894.775
2546.43864	17899.375
2549.14791	17881.575
2551.85548	17841.775
2554.56136	17847.575
2557.26554	17870.675
2559.96803	17837.875
2562.66883	17838.875
2565.36794	17798.775
2568.06536	17813.275
2570.7611	17824.775
2573.45514	17792.075
2576.14751	17769.275
2578.83819	17759.875
2581.52719	17754.875
2584.21451	17770.375
2586.90015	17772.375
2589.58411	17767.675
2592.2664	17760.575
2594.94701	17742.075
2597.62594	17747.675
2600.30321	17725.975
2602.9788	17722.375
2605.65273	17709.275
2608.32498	17729.475
2610.99557	17720.375
2613.66449	17735.175
2616.33175	17733.175
2618.99734	17753.475
2621.66128	17793.875
2624.32355	17784.675
2626.98416	17826.275
2629.64311	17774.575
2632.30041	17796.975
2634.95605	17794.275
2637.61004	17768.175
2640.26238	17750.975
2642.91306	17732.375
2645.56209	17719.175
2648.20948	17690.275
2650.85521	17709.075
2653.4993	17718.375
2656.14175	17708.275
2658.78255	17711.475
2661.42171	17707.275
2664.05923	17709.375
2666.6951	17727.575
2669.32934	17722.175
2671.96194	17719.375
2674.59291	17802.075
2677.22224	17741.275
2679.84993	17747.975
2682.476	17699.175
2685.10043	17704.375
2687.72324	17682.875
2690.34441	17714.775
2692.96396	17707.375
2695.58188	17724.375
2698.19818	17711.075
2700.81285	17690.475
2703.4259	17695.275
2706.03733	17710.875
2708.64714	17703.775
2711.25533	17705.075
2713.86191	17715.375
2716.46687	17738.675
2719.07021	17771.175
2721.67194	17784.575
2724.27206	17757.475
2726.87057	17777.775
2729.46747	17729.275
2732.06276	17777.975
2734.65644	17779.675
2737.24852	17801.375
2739.83899	17794.975
2742.42786	17782.075
2745.01513	17760.875
2747.60079	17744.475
2750.18486	17778.275
2752.76733	17780.175
2755.3482	17736.575
2757.92747	17770.875
2760.50515	17743.675
2763.08123	17786.775
2765.65573	17709.075
2768.22863	17705.975
2770.79994	17671.675
2773.36967	17669.975
2775.9378	17737.575
2778.50435	17742.375
2781.06932	17728.075
2783.6327	17697.475
2786.1945	17691.775
2788.75471	17693.675
2791.31335	17653.275
2793.87041	17630.075
2796.42589	17606.775
2798.97979	17655.075
2801.53212	17595.975
2804.08288	17588.375
2806.63206	17525.775
2809.17967	17503.275
2811.72571	17492.575
2814.27018	17436.675
2816.81308	17421.675
2819.35442	17392.675
2821.89419	17393.075
2824.43239	17383.775
2826.96904	17328.575
2829.50412	17323.975
2832.03763	17306.175
2834.56959	17342.375
2837.1	17271.675
2839.62884	17275.675
2842.15613	17273.075
2844.68186	17284.075
2847.20604	17284.375
2849.72867	17337.675
2852.24974	17311.675
2854.76927	17325.075
2857.28724	17338.975
2859.80367	17289.975
2862.31855	17277.375
2864.83189	17276.275
2867.34368	17261.875
2869.85393	17225.675
2872.36264	17220.075
2874.8698	17237.075
2877.37543	17224.175
2879.87952	17260.275
2882.38207	17224.775
2884.88308	17185.875
2887.38256	17256.775
2889.88051	17244.975
2892.37692	17278.775
2894.8718	17276.375
2897.36515	17327.975
2899.85698	17308.175
2902.34727	17332.475
2904.83604	17373.075
2907.32328	17382.175
2909.809	17358.475
2912.29319	17395.775
2914.77587	17377.475
2917.25702	17383.275
2919.73665	17381.275
2922.21476	17417.275
2924.69136	17373.475
2927.16644	17405.875
2929.64	17333.975
2932.11205	17308.375
2934.58258	17248.575
2937.05161	17278.175
2939.51912	17278.875
2941.98513	17246.475
2944.44962	17169.475
2946.91261	17130.275
2949.37409	17173.775
2951.83407	17160.375
2954.29254	17148.875
2956.74951	17064.075
2959.20498	17077.075
2961.65895	17049.675
2964.11142	17047.275
2966.56239	17005.875
2969.01186	16986.375
2971.45984	16960.875
2973.90632	16878.475
2976.35131	16857.375
2978.7948	16835.175
2981.23681	16790.275
2983.67732	16748.575
2986.11635	16681.075
2988.55388	16655.575
2990.98993	16594.875
2993.4245	16562.875
2995.85758	16496.475
2998.28917	16478.775
3000.71928	16475.075
3003.14791	16438.175
3005.57506	16431.975
3008.00073	16353.775
3010.42493	16375.575
3012.84764	16314.575
3015.26888	16304.475
3017.68865	16287.775
3020.10694	16250.975
3022.52376	16219.675
3024.9391	16167.975
3027.35298	16210.175
3029.76539	16166.775
3032.17632	16151.975
3034.5858	16130.775
3036.9938	16095.075
3039.40034	16120.475
3041.80542	16126.575
3044.20903	16084.075
3046.61118	16059.175
3049.01187	16023.375
3051.4111	15979.575
3053.80888	16003.375
3056.20519	15938.275
3058.60005	15895.775
3060.99345	15864.475
3063.3854	15851.175
3065.7759	15752.675
3068.16494	15747.775
3070.55254	15709.175
3072.93868	15669.875
3075.32338	15656.575
3077.70662	15624.475
3080.08842	15556.275
3082.46878	15545.475
3084.84769	15490.175
3087.22515	15504.175
3089.60118	15487.075
3091.97576	15485.675
3094.3489	15455.075
3096.72061	15451.375
3099.09087	15441.875
3101.4597	15396.075
3103.82709	15381.675
3106.19305	15337.475
3108.55757	15357.275
3110.92066	15287.075
3113.28232	15274.575
3115.64255	15237.475
3118.00134	15208.475
3120.35871	15194.875
3122.71466	15161.975
3125.06917	15119.175
3127.42226	15063.075
