Data from AgNPs_FTO_APTES_UA_2uM_CRN_100uM_R6G_10uM_NaF_0.1M_Addition_RamanShift__23__16-04-55-331.txt Node

Date: Wed Feb 02 16:04:55 GMT 2022
User: TCL
Spectrometer: QEP01345
Trigger mode: 4
Integration Time (sec): 7.000000E0
Scans to average: 10
Electric dark correction enabled: true
Nonlinearity correction enabled: false
Boxcar width: 0
XAxis mode: Raman Shifts
Number of Pixels in Spectrum: 1044
>>>>>Begin Spectral Data<<<<<
46.04893	0.3125
50.45542	-0.7875
54.85868	-1.4875
59.25871	0.7125
63.6555	74.8125
68.04907	78.8125
72.43941	79.3125
76.82654	89.6125
81.21044	94.0125
85.59113	97.2125
89.96862	98.2125
94.34289	103.3125
98.71396	106.8125
103.08183	115.4125
107.4465	111.9125
111.80798	117.9125
116.16626	114.3125
120.52136	123.2125
124.87327	126.7125
129.222	128.2125
133.56755	139.3125
137.90993	142.1125
142.24913	160.8125
146.58517	181.3125
150.91804	205.3125
155.24774	245.7125
159.57429	304.1125
163.89768	381.9125
168.21792	503.4125
172.53501	683.5125
176.84895	950.7125
181.15975	1314.9125
185.46741	1840.3125
189.77193	2534.9125
194.07331	3391.3125
198.37157	4354.5125
202.6667	5380.1125
206.9587	6386.0125
211.24758	7404.1125
215.53334	8398.7125
219.81599	9453.4125
224.09553	10651.3125
228.37195	11946.9125
232.64527	13320.4125
236.91549	14774.9125
241.18261	16253.2125
245.44663	17702.0125
249.70755	18934.1125
253.96539	20063.1125
258.22014	20986.2125
262.4718	21847.3125
266.72039	22479.6125
270.96589	22847.6125
275.20832	23005.5125
279.44768	23033.1125
283.68397	23039.8125
287.91719	23019.3125
292.14735	23070.1125
296.37445	23173.0125
300.59849	23285.0125
304.81948	23292.8125
309.03742	22960.3125
313.25231	22475.6125
317.46415	21715.4125
321.67296	20937.1125
325.87872	20344.5125
330.08145	19985.7125
334.28114	19919.3125
338.47781	20001.4125
342.67145	20232.9125
346.86207	20491.4125
351.04966	20847.9125
355.23424	21216.7125
359.4158	21485.0125
363.59435	21674.0125
367.76989	21795.8125
371.94243	21934.3125
376.11196	22029.7125
380.27849	22183.3125
384.44203	22365.9125
388.60257	22534.0125
392.76012	22806.0125
396.91468	23073.0125
401.06626	23424.2125
405.21485	23681.6125
409.36047	23581.1125
413.50311	23260.8125
417.64277	22987.4125
421.77947	22949.2125
425.9132	23081.4125
430.04396	23289.1125
434.17176	23522.0125
438.2966	23820.5125
442.41849	24302.1125
446.53742	25022.6125
450.6534	25889.6125
454.76644	26576.8125
458.87653	26859.8125
462.98368	26775.8125
467.08789	26541.4125
471.18916	26348.9125
475.2875	26352.3125
479.38291	26527.5125
483.4754	26471.9125
487.56496	26003.3125
491.6516	25259.5125
495.73531	24516.9125
499.81612	24035.8125
503.89401	23949.3125
507.96899	23908.5125
512.04106	23719.8125
516.11023	23444.8125
520.1765	23093.2125
524.23987	22794.5125
528.30034	22569.1125
532.35792	22351.0125
536.41261	22184.5125
540.46441	22019.9125
544.51333	22125.2125
548.55936	22525.4125
552.60252	23137.7125
556.64279	23877.4125
560.6802	24469.8125
564.71473	24855.5125
568.7464	25439.1125
572.7752	26110.4125
576.80114	26561.5125
580.82422	26770.0125
584.84444	26986.9125
588.86181	27336.8125
592.87633	27901.9125
596.888	28308.2125
600.89682	28298.1125
604.9028	28601.2125
608.90594	29990.6125
612.90624	31279.1125
616.90371	29029.4125
620.89834	24553.0125
624.89015	22596.7125
628.87913	22477.6125
632.86528	22782.1125
636.84862	22912.9125
640.82913	22595.0125
644.80683	21907.8125
648.78172	21296.6125
652.75379	21039.1125
656.72306	21099.6125
660.68952	21381.1125
664.65319	21306.9125
668.61405	21001.9125
672.57211	20898.1125
676.52738	20960.8125
680.47986	20966.3125
684.42955	20921.0125
688.37646	20823.7125
692.32058	20885.8125
696.26192	21047.4125
700.20048	21301.8125
704.13626	21452.5125
708.06928	21450.1125
711.99952	21386.0125
715.927	21296.8125
719.85171	21231.0125
723.77365	21193.9125
727.69284	21072.3125
731.60928	20908.3125
735.52295	20861.6125
739.43388	20830.9125
743.34206	20856.1125
747.24749	20980.6125
751.15017	21190.0125
755.05012	21628.5125
758.94733	22424.3125
762.8418	23680.7125
766.73354	25525.0125
770.62254	27124.3125
774.50882	27203.6125
778.39237	25750.2125
782.27321	23625.8125
786.15132	22001.2125
790.02671	21025.4125
793.89938	20585.3125
797.76935	20402.5125
801.6366	20355.2125
805.50115	20388.8125
809.36299	20278.1125
813.22213	20211.3125
817.07857	20190.2125
820.93231	20167.0125
824.78336	20056.7125
828.63172	19933.9125
832.47738	19871.1125
836.32036	19812.9125
840.16066	19846.1125
843.99827	19799.6125
847.8332	19728.8125
851.66546	19640.1125
855.49504	19596.8125
859.32195	19578.1125
863.1462	19538.2125
866.96777	19467.1125
870.78668	19426.5125
874.60293	19410.4125
878.41652	19402.9125
882.22745	19444.7125
886.03573	19466.7125
889.84136	19482.5125
893.64433	19405.9125
897.44466	19317.6125
901.24235	19231.0125
905.0374	19168.5125
908.8298	19135.8125
912.61957	19235.7125
916.40671	19480.6125
920.19121	19813.3125
923.97308	20013.3125
927.75233	19929.8125
931.52895	19716.5125
935.30295	19410.1125
939.07433	19035.5125
942.84309	18721.1125
946.60924	18529.0125
950.37278	18418.6125
954.13371	18451.3125
957.89203	18465.3125
961.64774	18476.8125
965.40086	18494.1125
969.15137	18339.4125
972.89929	18169.3125
976.64461	18053.1125
980.38733	17973.9125
984.12747	18013.4125
987.86502	18150.0125
991.59999	18310.0125
995.33237	18593.2125
999.06217	19013.7125
1002.78939	19606.1125
1006.51404	19986.0125
1010.23611	20261.1125
1013.95561	20438.3125
1017.67255	20418.8125
1021.38692	20199.2125
1025.09872	19934.1125
1028.80796	19812.9125
1032.51465	19990.4125
1036.21877	20230.3125
1039.92035	20297.2125
1043.61937	20215.5125
1047.31584	20070.7125
1051.00976	19824.9125
1054.70114	19826.7125
1058.38998	19937.7125
1062.07627	20192.5125
1065.76003	20450.4125
1069.44126	20673.8125
1073.11995	20917.5125
1076.79611	21054.0125
1080.46974	21112.9125
1084.14085	21181.1125
1087.80943	21371.0125
1091.47549	21673.1125
1095.13903	21753.6125
1098.80005	21578.6125
1102.45857	21111.1125
1106.11456	20668.8125
1109.76805	20467.9125
1113.41903	20508.1125
1117.06751	20741.8125
1120.71348	20966.9125
1124.35696	21249.2125
1127.99793	21548.2125
1131.63641	21771.6125
1135.2724	21676.0125
1138.90589	21529.4125
1142.5369	21562.6125
1146.16542	21757.8125
1149.79145	22028.9125
1153.415	22462.4125
1157.03607	22984.3125
1160.65467	23758.3125
1164.27079	24922.1125
1167.88443	26357.8125
1171.49561	28229.9125
1175.10432	30486.1125
1178.71056	33287.4125
1182.31434	35778.3125
1185.91565	37066.1125
1189.51451	37144.1125
1193.11091	36504.0125
1196.70485	35369.0125
1200.29634	34034.1125
1203.88538	32802.1125
1207.47197	32048.6125
1211.05612	31475.5125
1214.63782	30827.3125
1218.21708	29991.7125
1221.79391	29222.6125
1225.36829	28606.7125
1228.94024	28008.4125
1232.50976	27432.3125
1236.07685	27042.9125
1239.6415	26819.6125
1243.20374	26841.8125
1246.76355	27043.9125
1250.32093	27370.4125
1253.8759	27992.9125
1257.42845	28792.0125
1260.97859	29587.7125
1264.52631	30311.6125
1268.07163	31098.2125
1271.61453	31963.7125
1275.15503	33019.5125
1278.69312	34164.6125
1282.22882	35232.8125
1285.76211	36489.8125
1289.29301	38075.9125
1292.82151	40147.0125
1296.34761	42820.1125
1299.87133	45708.4125
1303.39266	48657.8125
1306.9116	51387.2125
1310.42815	53743.4125
1313.94233	55416.9125
1317.45412	56004.9125
1320.96354	56007.1125
1324.47058	55806.2125
1327.97525	55570.3125
1331.47754	55320.4125
1334.97747	55262.4125
1338.47502	55257.0125
1341.97022	54876.1125
1345.46305	53702.1125
1348.95352	51842.8125
1352.44163	49940.6125
1355.92738	48963.0125
1359.41078	49407.5125
1362.89183	50077.0125
1366.37053	49202.9125
1369.84688	45862.9125
1373.32088	41683.7125
1376.79254	38815.8125
1380.26186	38020.3125
1383.72883	38427.9125
1387.19347	39129.4125
1390.65578	39690.5125
1394.11575	40362.6125
1397.57339	41547.5125
1401.0287	43046.9125
1404.48168	44305.6125
1407.93234	44655.1125
1411.38068	43752.9125
1414.82669	41749.2125
1418.27039	39122.7125
1421.71177	36447.6125
1425.15083	34254.9125
1428.58758	32904.5125
1432.02203	32667.0125
1435.45416	33312.7125
1438.88399	34424.1125
1442.31151	35674.3125
1445.73673	36734.9125
1449.15965	37871.6125
1452.58027	38903.7125
1455.9986	39656.6125
1459.41463	40245.1125
1462.82837	40995.4125
1466.23982	41702.9125
1469.64898	42179.8125
1473.05586	42291.7125
1476.46045	41920.1125
1479.86276	41228.6125
1483.26279	40214.8125
1486.66054	39372.5125
1490.05602	38940.3125
1493.44922	38599.4125
1496.84016	38329.5125
1500.22882	38361.4125
1503.61521	38858.7125
1506.99934	39676.4125
1510.38121	40667.1125
1513.76081	41072.9125
1517.13816	40678.4125
1520.51324	39667.0125
1523.88607	38750.8125
1527.25665	38349.9125
1530.62498	38384.5125
1533.99105	38571.0125
1537.35488	38583.7125
1540.71647	38199.5125
1544.07581	37445.1125
1547.4329	36489.0125
1550.78776	35624.5125
1554.14038	34986.6125
1557.49077	34709.4125
1560.83892	34599.5125
1564.18484	34540.0125
1567.52853	34497.5125
1570.86999	34622.1125
1574.20922	35185.7125
1577.54624	35959.9125
1580.88103	36591.9125
1584.2136	37406.2125
1587.54395	38970.4125
1590.87208	41112.7125
1594.19801	43558.7125
1597.52172	45812.4125
1600.84321	46261.4125
1604.16251	44245.2125
1607.47959	40496.4125
1610.79447	36470.7125
1614.10715	32755.6125
1617.41763	29733.4125
1620.7259	27642.3125
1624.03199	26508.7125
1627.33587	26348.4125
1630.63757	27182.1125
1633.93707	29116.1125
1637.23439	32344.8125
1640.52951	36834.3125
1643.82246	41983.8125
1647.11321	45917.4125
1650.40179	46766.1125
1653.68819	43739.0125
1656.97241	38025.8125
1660.25446	31966.5125
1663.53433	27176.6125
1666.81203	23936.1125
1670.08756	21816.2125
1673.36092	20484.8125
1676.63211	19659.1125
1679.90115	19037.3125
1683.16801	18622.6125
1686.43272	18254.6125
1689.69527	18070.9125
1692.95567	17842.3125
1696.2139	17736.8125
1699.46999	17635.7125
1702.72392	17524.8125
1705.97571	17438.1125
1709.22535	17326.1125
1712.47284	17268.9125
1715.71819	17207.6125
1718.96139	17135.5125
1722.20246	17073.7125
1725.44139	17010.4125
1728.67818	16920.5125
1731.91284	16799.0125
1735.14537	16683.5125
1738.37576	16617.9125
1741.60403	16587.6125
1744.83017	16520.2125
1748.05418	16486.4125
1751.27607	16492.4125
1754.49584	16454.5125
1757.71349	16444.5125
1760.92903	16395.8125
1764.14244	16355.6125
1767.35375	16363.5125
1770.56294	16266.9125
1773.77002	16220.3125
1776.97499	16189.2125
1780.17785	16170.9125
1783.37861	16112.8125
1786.57727	16077.4125
1789.77382	16000.8125
1792.96828	16013.0125
1796.16064	15928.7125
1799.3509	15899.7125
1802.53907	15898.2125
1805.72514	15831.1125
1808.90913	15802.8125
1812.09102	15771.7125
1815.27083	15713.9125
1818.44856	15695.0125
1821.6242	15680.8125
1824.79776	15674.3125
1827.96924	15637.4125
1831.13864	15607.8125
1834.30597	15649.3125
1837.47122	15615.5125
1840.6344	15654.5125
1843.7955	15654.4125
1846.95454	15630.0125
1850.11151	15645.4125
1853.26642	15636.8125
1856.41926	15607.8125
1859.57004	15618.9125
1862.71876	15609.5125
1865.86542	15605.3125
1869.01003	15600.1125
1872.15258	15582.5125
1875.29308	15552.3125
1878.43152	15550.4125
1881.56792	15551.5125
1884.70227	15547.6125
1887.83457	15547.4125
1890.96482	15543.9125
1894.09304	15507.4125
1897.21921	15517.1125
1900.34335	15532.8125
1903.46544	15501.9125
1906.58551	15515.2125
1909.70353	15467.1125
1912.81953	15456.7125
1915.93349	15433.4125
1919.04543	15406.3125
1922.15534	15365.6125
1925.26322	15317.4125
1928.36908	15286.5125
1931.47292	15208.7125
1934.57473	15171.2125
1937.67453	15141.4125
1940.77232	15090.8125
1943.86808	15046.9125
1946.96184	14998.5125
1950.05358	14939.9125
1953.14331	14892.5125
1956.23103	14854.6125
1959.31675	14775.5125
1962.40046	14754.7125
1965.48217	14695.7125
1968.56188	14632.7125
1971.63959	14590.1125
1974.7153	14531.9125
1977.78901	14502.9125
1980.86073	14444.2125
1983.93046	14395.0125
1986.99819	14332.4125
1990.06394	14319.8125
1993.1277	14275.5125
1996.18947	14205.7125
1999.24925	14189.2125
2002.30706	14150.5125
2005.36288	14082.1125
2008.41672	14069.1125
2011.46859	14012.6125
2014.51848	13975.8125
2017.56639	13929.6125
2020.61233	13899.9125
2023.6563	13882.6125
2026.6983	13877.3125
2029.73833	13804.9125
2032.7764	13796.2125
2035.8125	13782.4125
2038.84664	13751.1125
2041.87881	13783.0125
2044.90903	13760.8125
2047.93729	13719.7125
2050.96359	13712.8125
2053.98794	13668.0125
2057.01034	13666.1125
2060.03078	13656.3125
2063.04927	13655.8125
2066.06582	13634.4125
2069.08042	13613.3125
2072.09307	13610.3125
2075.10378	13560.7125
2078.11255	13563.3125
2081.11938	13564.1125
2084.12426	13532.4125
2087.12722	13531.6125
2090.12824	13535.0125
2093.12732	13540.1125
2096.12447	13552.0125
2099.11969	13544.5125
2102.11299	13552.6125
2105.10435	13545.6125
2108.09379	13546.1125
2111.08131	13556.9125
2114.0669	13529.9125
2117.05057	13537.8125
2120.03233	13552.6125
2123.01216	13571.6125
2125.99008	13551.6125
2128.96609	13567.2125
2131.94018	13570.9125
2134.91236	13584.0125
2137.88263	13564.7125
2140.851	13559.0125
2143.81746	13579.7125
2146.78201	13599.0125
2149.74466	13600.8125
2152.7054	13584.0125
2155.66425	13555.3125
2158.6212	13580.3125
2161.57625	13550.1125
2164.52941	13559.5125
2167.48067	13561.3125
2170.43004	13531.1125
2173.37752	13526.5125
2176.32311	13523.3125
2179.26681	13532.6125
2182.20863	13520.2125
2185.14856	13515.7125
2188.08661	13550.4125
2191.02278	13539.5125
2193.95707	13514.0125
2196.88948	13501.7125
2199.82001	13497.9125
2202.74867	13465.2125
2205.67545	13475.1125
2208.60037	13472.6125
2211.52341	13429.5125
2214.44458	13410.1125
2217.36388	13399.8125
2220.28132	13398.3125
2223.1969	13382.2125
2226.11061	13339.9125
2229.02246	13302.5125
2231.93245	13295.4125
2234.84058	13252.1125
2237.74686	13207.4125
2240.65128	13228.7125
2243.55385	13201.7125
2246.45456	13186.6125
2249.35343	13175.5125
2252.25044	13148.3125
2255.14561	13115.9125
2258.03893	13106.2125
2260.93041	13085.6125
2263.82004	13031.8125
2266.70783	12977.4125
2269.59378	12965.8125
2272.4779	12899.0125
2275.36017	12876.6125
2278.24061	12841.8125
2281.11922	12864.1125
2283.996	12823.2125
2286.87094	12794.4125
2289.74405	12763.4125
2292.61534	12763.3125
2295.4848	12759.3125
2298.35243	12757.4125
2301.21824	12736.2125
2304.08223	12738.7125
2306.94439	12740.7125
2309.80474	12737.6125
2312.66327	12720.2125
2315.51999	12713.9125
2318.37489	12718.2125
2321.22797	12710.7125
2324.07925	12708.4125
2326.92871	12671.3125
2329.77637	12677.2125
2332.62222	12648.8125
2335.46626	12667.6125
2338.3085	12673.2125
2341.14893	12625.0125
2343.98756	12642.3125
2346.8244	12616.2125
2349.65943	12644.9125
2352.49267	12639.4125
2355.32411	12617.9125
2358.15376	12624.9125
2360.98161	12600.9125
2363.80768	12620.2125
2366.63195	12590.0125
2369.45444	12564.9125
2372.27514	12551.2125
2375.09405	12554.4125
2377.91118	12508.7125
2380.72652	12510.5125
2383.54009	12491.0125
2386.35187	12474.3125
2389.16188	12432.8125
2391.97011	12400.8125
2394.77657	12378.6125
2397.58125	12361.5125
2400.38416	12350.8125
2403.18529	12307.7125
2405.98466	12291.4125
2408.78226	12277.2125
2411.57809	12274.9125
2414.37216	12255.1125
2417.16446	12285.5125
2419.955	12233.2125
2422.74378	12255.5125
2425.5308	12224.9125
2428.31606	12213.4125
2431.09956	12241.9125
2433.88131	12179.5125
2436.6613	12191.1125
2439.43954	12197.3125
2442.21603	12168.5125
2444.99077	12143.3125
2447.76377	12148.5125
2450.53501	12150.8125
2453.30451	12158.6125
2456.07226	12167.3125
2458.83827	12145.1125
2461.60254	12147.5125
2464.36507	12160.0125
2467.12586	12148.4125
2469.88492	12156.2125
2472.64224	12149.3125
2475.39782	12166.6125
2478.15167	12176.1125
2480.90379	12168.2125
2483.65417	12184.8125
2486.40283	12168.4125
2489.14976	12185.5125
2491.89497	12185.0125
2494.63845	12210.0125
2497.3802	12188.1125
2500.12024	12209.9125
2502.85855	12199.5125
2505.59514	12190.0125
2508.33002	12193.7125
2511.06318	12180.7125
2513.79462	12158.1125
2516.52435	12165.3125
2519.25237	12171.1125
2521.97867	12174.1125
2524.70327	12143.5125
2527.42616	12108.7125
2530.14734	12115.4125
2532.86681	12122.8125
2535.58458	12085.4125
2538.30065	12092.7125
2541.01501	12101.5125
2543.72768	12084.3125
2546.43864	12060.0125
2549.14791	12023.3125
2551.85548	12025.8125
2554.56136	12027.5125
2557.26554	12024.2125
2559.96803	12002.4125
2562.66883	12002.5125
2565.36794	12005.9125
2568.06536	11976.2125
2570.7611	12001.4125
2573.45514	11979.4125
2576.14751	11978.8125
2578.83819	11970.1125
2581.52719	11948.6125
2584.21451	11959.1125
2586.90015	11973.1125
2589.58411	11962.7125
2592.2664	11976.9125
2594.94701	11961.4125
2597.62594	11971.0125
2600.30321	11948.3125
2602.9788	11947.9125
2605.65273	11938.3125
2608.32498	11966.9125
2610.99557	11969.1125
2613.66449	11975.7125
2616.33175	11960.6125
2618.99734	11941.2125
2621.66128	11957.4125
2624.32355	11970.2125
2626.98416	11969.1125
2629.64311	11972.5125
2632.30041	12001.4125
2634.95605	11996.4125
2637.61004	11995.1125
2640.26238	11956.8125
2642.91306	11942.9125
2645.56209	11995.4125
2648.20948	11978.5125
2650.85521	11959.3125
2653.4993	11950.1125
2656.14175	11995.9125
2658.78255	11989.6125
2661.42171	11995.5125
2664.05923	11996.5125
2666.6951	12001.7125
2669.32934	12000.7125
2671.96194	12008.0125
2674.59291	12016.0125
2677.22224	11992.2125
2679.84993	11991.6125
2682.476	11981.1125
2685.10043	11985.3125
2687.72324	11967.1125
2690.34441	11977.0125
2692.96396	11939.5125
2695.58188	11973.5125
2698.19818	11955.0125
2700.81285	11986.8125
2703.4259	12002.0125
2706.03733	12051.3125
2708.64714	12022.1125
2711.25533	12025.0125
2713.86191	12003.2125
2716.46687	12061.1125
2719.07021	12059.7125
2721.67194	12054.5125
2724.27206	12049.4125
2726.87057	12105.4125
2729.46747	12067.5125
2732.06276	12055.2125
2734.65644	12079.4125
2737.24852	12095.0125
2739.83899	12054.7125
2742.42786	12078.4125
2745.01513	12041.5125
2747.60079	12068.7125
2750.18486	12038.5125
2752.76733	12055.3125
2755.3482	12080.6125
2757.92747	12106.6125
2760.50515	12095.0125
2763.08123	12107.0125
2765.65573	12082.8125
2768.22863	12093.8125
2770.79994	12088.0125
2773.36967	12100.9125
2775.9378	12090.2125
2778.50435	12116.1125
2781.06932	12062.4125
2783.6327	12096.0125
2786.1945	12096.3125
2788.75471	12085.0125
2791.31335	12064.9125
2793.87041	12089.7125
2796.42589	12042.2125
2798.97979	12062.1125
2801.53212	12013.6125
2804.08288	12023.9125
2806.63206	11989.1125
2809.17967	11951.3125
2811.72571	11935.0125
2814.27018	11930.0125
2816.81308	11937.0125
2819.35442	11890.7125
2821.89419	11842.9125
2824.43239	11848.5125
2826.96904	11826.5125
2829.50412	11829.4125
2832.03763	11832.5125
2834.56959	11817.1125
2837.1	11784.5125
2839.62884	11813.2125
2842.15613	11791.0125
2844.68186	11845.1125
2847.20604	11842.9125
2849.72867	11865.8125
2852.24974	11866.8125
2854.76927	11872.3125
2857.28724	11814.1125
2859.80367	11823.9125
2862.31855	11804.1125
2864.83189	11798.6125
2867.34368	11782.6125
2869.85393	11806.4125
2872.36264	11797.1125
2874.8698	11771.5125
2877.37543	11795.1125
2879.87952	11787.0125
2882.38207	11822.5125
2884.88308	11817.0125
2887.38256	11810.6125
2889.88051	11819.3125
2892.37692	11836.3125
2894.8718	11814.1125
2897.36515	11836.9125
2899.85698	11850.8125
2902.34727	11871.6125
2904.83604	11899.3125
2907.32328	11902.4125
2909.809	11896.9125
2912.29319	11873.9125
2914.77587	11876.5125
2917.25702	11886.7125
2919.73665	11874.9125
2922.21476	11878.3125
2924.69136	11880.1125
2927.16644	11877.0125
2929.64	11899.0125
2932.11205	11876.7125
2934.58258	11861.9125
2937.05161	11895.2125
2939.51912	11878.1125
2941.98513	11844.1125
2944.44962	11806.1125
2946.91261	11737.3125
2949.37409	11773.9125
2951.83407	11722.4125
2954.29254	11705.1125
2956.74951	11686.3125
2959.20498	11701.4125
2961.65895	11647.2125
2964.11142	11620.0125
2966.56239	11596.0125
2969.01186	11596.8125
2971.45984	11566.1125
2973.90632	11539.8125
2976.35131	11478.4125
2978.7948	11457.8125
2981.23681	11431.8125
2983.67732	11419.3125
2986.11635	11375.4125
2988.55388	11380.2125
2990.98993	11351.4125
2993.4245	11329.3125
2995.85758	11319.7125
2998.28917	11282.3125
3000.71928	11246.8125
3003.14791	11207.7125
3005.57506	11193.6125
3008.00073	11149.1125
3010.42493	11103.2125
3012.84764	11116.5125
3015.26888	11105.6125
3017.68865	11090.2125
3020.10694	11060.0125
3022.52376	11046.7125
