Data from AgNPs_FTO_APTES_UA_2uM_CRN_20uM_R6G_10uM_NaF_0.1M_Addition_RamanShift__10__14-09-25-196.txt Node

Date: Wed Feb 02 14:09:25 GMT 2022
User: TCL
Spectrometer: QEP01345
Trigger mode: 4
Integration Time (sec): 7.000000E0
Scans to average: 10
Electric dark correction enabled: true
Nonlinearity correction enabled: false
Boxcar width: 0
XAxis mode: Raman Shifts
Number of Pixels in Spectrum: 1044
>>>>>Begin Spectral Data<<<<<
46.04893	-0.5875
50.45542	-0.0875
54.85868	-1.4875
59.25871	-0.8875
63.6555	94.3125
68.04907	101.8125
72.43941	102.7125
76.82654	113.7125
81.21044	114.6125
85.59113	117.6125
89.96862	120.8125
94.34289	129.4125
98.71396	132.0125
103.08183	142.2125
107.4465	142.8125
111.80798	144.6125
116.16626	148.2125
120.52136	155.4125
124.87327	158.2125
129.222	167.8125
133.56755	181.6125
137.90993	195.3125
142.24913	219.0125
146.58517	249.3125
150.91804	291.6125
155.24774	346.7125
159.57429	429.2125
163.89768	555.3125
168.21792	737.9125
172.53501	1014.8125
176.84895	1406.8125
181.15975	1984.0125
185.46741	2769.4125
189.77193	3820.4125
194.07331	5112.9125
198.37157	6582.9125
202.6667	8159.4125
206.9587	9679.5125
211.24758	11196.4125
215.53334	12718.8125
219.81599	14280.8125
224.09553	16018.6125
228.37195	17921.7125
232.64527	19998.3125
236.91549	22217.4125
241.18261	24433.1125
245.44663	26520.3125
249.70755	28392.8125
253.96539	30098.6125
258.22014	31442.2125
262.4718	32597.4125
266.72039	33390.6125
270.96589	33795.2125
275.20832	33895.6125
279.44768	33767.1125
283.68397	33532.0125
287.91719	33334.9125
292.14735	33183.8125
296.37445	33248.5125
300.59849	33310.2125
304.81948	33400.5125
309.03742	33421.4125
313.25231	33192.3125
317.46415	32682.4125
321.67296	31889.9125
325.87872	31198.0125
330.08145	30825.8125
334.28114	30737.9125
338.47781	30879.5125
342.67145	31153.3125
346.86207	31525.0125
351.04966	31848.5125
355.23424	32279.5125
359.4158	32684.0125
363.59435	33013.0125
367.76989	33209.4125
371.94243	33327.5125
376.11196	33348.1125
380.27849	33311.0125
384.44203	33361.1125
388.60257	33535.7125
392.76012	33989.7125
396.91468	34590.9125
401.06626	35238.8125
405.21485	35557.1125
409.36047	35454.5125
413.50311	35074.0125
417.64277	34941.2125
421.77947	35093.0125
425.9132	35352.7125
430.04396	35578.1125
434.17176	35734.7125
438.2966	35777.0125
442.41849	36165.7125
446.53742	36831.9125
450.6534	37654.2125
454.76644	38214.0125
458.87653	38490.6125
462.98368	38483.5125
467.08789	38216.6125
471.18916	37873.2125
475.2875	37551.4125
479.38291	37350.7125
483.4754	37235.9125
487.56496	36975.0125
491.6516	36405.2125
495.73531	35755.3125
499.81612	35310.3125
503.89401	35309.4125
507.96899	35531.8125
512.04106	35589.8125
516.11023	35359.1125
520.1765	34925.1125
524.23987	34420.7125
528.30034	34002.4125
532.35792	33604.0125
536.41261	33172.8125
540.46441	32980.0125
544.51333	33055.8125
548.55936	33451.8125
552.60252	34185.5125
556.64279	34990.8125
560.6802	35592.1125
564.71473	36160.1125
568.7464	36991.3125
572.7752	38514.9125
576.80114	40342.6125
580.82422	42052.6125
584.84444	43530.2125
588.86181	45331.0125
592.87633	46946.5125
596.888	46544.2125
600.89682	44125.4125
604.9028	42612.7125
608.90594	43393.2125
612.90624	44349.0125
616.90371	41337.4125
620.89834	36219.0125
624.89015	34103.2125
628.87913	34146.0125
632.86528	34603.2125
636.84862	34612.7125
640.82913	33867.1125
644.80683	32954.2125
648.78172	32397.0125
652.75379	32296.5125
656.72306	32552.1125
660.68952	32875.6125
664.65319	32699.3125
668.61405	32314.2125
672.57211	32245.5125
676.52738	32341.7125
680.47986	32328.4125
684.42955	32140.3125
688.37646	32005.9125
692.32058	32163.6125
696.26192	32576.8125
700.20048	33000.3125
704.13626	33302.2125
708.06928	33564.9125
711.99952	33575.5125
715.927	33500.5125
719.85171	33382.0125
723.77365	33061.5125
727.69284	32443.5125
731.60928	31947.2125
735.52295	31705.5125
739.43388	31593.8125
743.34206	31659.5125
747.24749	31917.8125
751.15017	32336.2125
755.05012	32999.2125
758.94733	34081.0125
762.8418	35588.8125
766.73354	37706.7125
770.62254	39463.8125
774.50882	39369.1125
778.39237	37491.9125
782.27321	35263.5125
786.15132	33560.2125
790.02671	32451.5125
793.89938	31805.8125
797.76935	31456.2125
801.6366	31334.4125
805.50115	31253.1125
809.36299	31084.7125
813.22213	30840.4125
817.07857	30781.8125
820.93231	30704.2125
824.78336	30572.0125
828.63172	30356.2125
832.47738	30172.5125
836.32036	30118.5125
840.16066	30065.2125
843.99827	30053.3125
847.8332	30052.0125
851.66546	30071.6125
855.49504	30157.7125
859.32195	30183.5125
863.1462	30088.2125
866.96777	30003.6125
870.78668	29974.0125
874.60293	29932.8125
878.41652	29919.0125
882.22745	29988.8125
886.03573	30062.9125
889.84136	30068.5125
893.64433	29979.6125
897.44466	29915.4125
901.24235	29842.8125
905.0374	29829.6125
908.8298	29779.6125
912.61957	29968.4125
916.40671	30378.5125
920.19121	30907.9125
923.97308	31312.4125
927.75233	31181.8125
931.52895	30674.2125
935.30295	30001.8125
939.07433	29372.3125
942.84309	28876.3125
946.60924	28635.2125
950.37278	28581.7125
954.13371	28586.1125
957.89203	28599.0125
961.64774	28609.1125
965.40086	28634.8125
969.15137	28561.3125
972.89929	28357.5125
976.64461	28156.5125
980.38733	28006.1125
984.12747	27970.7125
987.86502	28102.3125
991.59999	28249.1125
995.33237	28418.2125
999.06217	28718.3125
1002.78939	29181.5125
1006.51404	29682.5125
1010.23611	30217.1125
1013.95561	30562.3125
1017.67255	30668.6125
1021.38692	30407.2125
1025.09872	29986.6125
1028.80796	29525.1125
1032.51465	29374.5125
1036.21877	29418.1125
1039.92035	29574.2125
1043.61937	29735.3125
1047.31584	29841.1125
1051.00976	29967.6125
1054.70114	30115.8125
1058.38998	30426.9125
1062.07627	30831.7125
1065.76003	31381.1125
1069.44126	31971.9125
1073.11995	32538.8125
1076.79611	32997.2125
1080.46974	33177.3125
1084.14085	33229.5125
1087.80943	33586.9125
1091.47549	33992.8125
1095.13903	34236.5125
1098.80005	33803.4125
1102.45857	32884.1125
1106.11456	31935.0125
1109.76805	31459.6125
1113.41903	31299.6125
1117.06751	31389.3125
1120.71348	31672.9125
1124.35696	31992.0125
1127.99793	32430.0125
1131.63641	32663.5125
1135.2724	32725.9125
1138.90589	32767.0125
1142.5369	33018.7125
1146.16542	33396.1125
1149.79145	33890.6125
1153.415	34442.4125
1157.03607	35105.2125
1160.65467	36200.3125
1164.27079	37905.9125
1167.88443	39930.6125
1171.49561	41913.7125
1175.10432	44151.7125
1178.71056	46865.6125
1182.31434	49431.8125
1185.91565	50940.2125
1189.51451	51139.3125
1193.11091	50585.3125
1196.70485	49306.2125
1200.29634	47584.2125
1203.88538	46344.9125
1207.47197	46069.7125
1211.05612	46100.4125
1214.63782	45625.9125
1218.21708	44234.1125
1221.79391	42374.5125
1225.36829	40818.8125
1228.94024	39914.4125
1232.50976	39437.4125
1236.07685	39031.2125
1239.6415	38831.0125
1243.20374	38866.8125
1246.76355	39203.7125
1250.32093	39776.7125
1253.8759	40558.0125
1257.42845	41713.7125
1260.97859	43054.5125
1264.52631	44388.0125
1268.07163	45671.9125
1271.61453	46979.7125
1275.15503	48370.2125
1278.69312	49973.8125
1282.22882	51839.8125
1285.76211	53950.7125
1289.29301	56345.8125
1292.82151	59141.3125
1296.34761	62395.8125
1299.87133	65868.9125
1303.39266	69077.6125
1306.9116	71350.7125
1310.42815	72640.3125
1313.94233	72906.3125
1317.45412	72342.3125
1320.96354	71783.2125
1324.47058	71922.9125
1327.97525	72227.9125
1331.47754	72677.7125
1334.97747	72574.1125
1338.47502	72190.7125
1341.97022	71656.4125
1345.46305	70771.3125
1348.95352	69594.2125
1352.44163	68408.1125
1355.92738	67898.9125
1359.41078	68553.0125
1362.89183	69299.8125
1366.37053	68390.3125
1369.84688	64538.0125
1373.32088	58969.9125
1376.79254	54639.0125
1380.26186	53241.4125
1383.72883	53618.6125
1387.19347	54025.2125
1390.65578	53779.1125
1394.11575	53535.4125
1397.57339	53956.8125
1401.0287	54654.2125
1404.48168	55143.8125
1407.93234	54725.5125
1411.38068	53122.8125
1414.82669	50835.7125
1418.27039	48345.4125
1421.71177	46054.1125
1425.15083	44339.2125
1428.58758	43726.8125
1432.02203	44129.6125
1435.45416	45400.5125
1438.88399	46911.1125
1442.31151	48153.7125
1445.73673	48904.9125
1449.15965	49453.3125
1452.58027	49915.0125
1455.9986	50159.7125
1459.41463	50557.4125
1462.82837	51189.1125
1466.23982	51979.5125
1469.64898	52568.1125
1473.05586	52891.7125
1476.46045	52806.3125
1479.86276	52512.0125
1483.26279	51992.9125
1486.66054	51812.5125
1490.05602	52065.2125
1493.44922	52763.7125
1496.84016	53622.3125
1500.22882	54661.5125
1503.61521	55789.1125
1506.99934	56910.0125
1510.38121	57747.2125
1513.76081	57995.2125
1517.13816	57711.2125
1520.51324	57377.4125
1523.88607	57420.5125
1527.25665	57907.7125
1530.62498	58029.2125
1533.99105	57435.7125
1537.35488	56190.4125
1540.71647	54288.1125
1544.07581	52229.2125
1547.4329	50271.8125
1550.78776	48822.8125
1554.14038	47814.7125
1557.49077	47179.7125
1560.83892	46904.4125
1564.18484	46726.1125
1567.52853	46766.8125
1570.86999	47204.8125
1574.20922	48326.8125
1577.54624	49495.1125
1580.88103	50360.5125
1584.2136	51320.8125
1587.54395	52926.2125
1590.87208	55313.2125
1594.19801	58059.9125
1597.52172	60125.2125
1600.84321	59799.0125
1604.16251	56568.1125
1607.47959	52010.8125
1610.79447	47588.8125
1614.10715	43651.1125
1617.41763	40391.0125
1620.7259	38091.6125
1624.03199	36885.6125
1627.33587	36900.8125
1630.63757	38086.1125
1633.93707	40822.4125
1637.23439	45475.0125
1640.52951	52241.1125
1643.82246	60192.2125
1647.11321	66276.1125
1650.40179	67283.4125
1653.68819	62221.8125
1656.97241	53750.9125
1660.25446	45264.1125
1663.53433	38847.1125
1666.81203	34579.5125
1670.08756	31793.1125
1673.36092	30125.4125
1676.63211	28922.5125
1679.90115	28193.0125
1683.16801	27636.8125
1686.43272	27223.3125
1689.69527	26902.9125
1692.95567	26654.2125
1696.2139	26492.1125
1699.46999	26317.0125
1702.72392	26200.0125
1705.97571	26066.8125
1709.22535	26015.0125
1712.47284	25862.8125
1715.71819	25825.6125
1718.96139	25739.5125
1722.20246	25622.9125
1725.44139	25450.1125
1728.67818	25268.0125
1731.91284	25119.4125
1735.14537	24981.1125
1738.37576	24825.7125
1741.60403	24705.5125
1744.83017	24618.0125
1748.05418	24550.4125
1751.27607	24519.0125
1754.49584	24471.7125
1757.71349	24435.5125
1760.92903	24382.1125
1764.14244	24336.2125
1767.35375	24325.2125
1770.56294	24243.5125
1773.77002	24227.4125
1776.97499	24143.5125
1780.17785	24016.9125
1783.37861	24006.4125
1786.57727	23935.3125
1789.77382	23839.6125
1792.96828	23790.9125
1796.16064	23789.8125
1799.3509	23740.4125
1802.53907	23633.7125
1805.72514	23607.8125
1808.90913	23469.0125
1812.09102	23437.4125
1815.27083	23399.4125
1818.44856	23386.9125
1821.6242	23360.5125
1824.79776	23320.7125
1827.96924	23246.1125
1831.13864	23266.5125
1834.30597	23252.2125
1837.47122	23268.4125
1840.6344	23254.0125
1843.7955	23277.4125
1846.95454	23247.9125
1850.11151	23277.0125
1853.26642	23206.9125
1856.41926	23163.4125
1859.57004	23146.5125
1862.71876	23097.7125
1865.86542	23054.0125
1869.01003	23039.4125
1872.15258	22940.2125
1875.29308	22944.0125
1878.43152	22896.3125
1881.56792	22857.4125
1884.70227	22819.6125
1887.83457	22763.3125
1890.96482	22710.6125
1894.09304	22690.0125
1897.21921	22675.7125
1900.34335	22614.5125
1903.46544	22608.1125
1906.58551	22522.3125
1909.70353	22500.5125
1912.81953	22433.8125
1915.93349	22360.2125
1919.04543	22338.8125
1922.15534	22279.4125
1925.26322	22252.2125
1928.36908	22191.4125
1931.47292	22102.6125
1934.57473	22024.1125
1937.67453	21977.6125
1940.77232	21921.8125
1943.86808	21850.8125
1946.96184	21785.4125
1950.05358	21730.1125
1953.14331	21656.1125
1956.23103	21580.9125
1959.31675	21543.4125
1962.40046	21470.9125
1965.48217	21430.3125
1968.56188	21342.5125
1971.63959	21245.3125
1974.7153	21189.7125
1977.78901	21139.4125
1980.86073	21031.5125
1983.93046	20943.5125
1986.99819	20870.9125
1990.06394	20820.8125
1993.1277	20783.5125
1996.18947	20672.3125
1999.24925	20636.4125
2002.30706	20565.7125
2005.36288	20452.0125
2008.41672	20409.7125
2011.46859	20347.1125
2014.51848	20267.3125
2017.56639	20220.4125
2020.61233	20191.6125
2023.6563	20125.9125
2026.6983	20094.8125
2029.73833	20030.6125
2032.7764	19982.5125
2035.8125	19923.2125
2038.84664	19887.4125
2041.87881	19845.3125
2044.90903	19775.8125
2047.93729	19732.8125
2050.96359	19748.5125
2053.98794	19714.6125
2057.01034	19693.4125
2060.03078	19671.2125
2063.04927	19622.7125
2066.06582	19632.5125
2069.08042	19592.6125
2072.09307	19634.5125
2075.10378	19553.0125
2078.11255	19547.2125
2081.11938	19535.9125
2084.12426	19532.2125
2087.12722	19471.3125
2090.12824	19478.5125
2093.12732	19490.8125
2096.12447	19488.3125
2099.11969	19512.4125
2102.11299	19518.3125
2105.10435	19462.0125
2108.09379	19441.4125
2111.08131	19472.4125
2114.0669	19477.7125
2117.05057	19506.0125
2120.03233	19505.8125
2123.01216	19535.9125
2125.99008	19530.3125
2128.96609	19537.8125
2131.94018	19521.3125
2134.91236	19548.2125
2137.88263	19508.6125
2140.851	19505.4125
2143.81746	19515.0125
2146.78201	19520.2125
2149.74466	19494.8125
2152.7054	19503.9125
2155.66425	19467.2125
2158.6212	19453.6125
2161.57625	19430.6125
2164.52941	19440.2125
2167.48067	19407.7125
2170.43004	19361.8125
2173.37752	19382.5125
2176.32311	19363.9125
2179.26681	19388.2125
2182.20863	19355.4125
2185.14856	19368.0125
2188.08661	19379.6125
2191.02278	19356.0125
2193.95707	19302.2125
2196.88948	19283.7125
2199.82001	19262.5125
2202.74867	19270.6125
2205.67545	19207.7125
2208.60037	19177.3125
2211.52341	19146.8125
2214.44458	19140.0125
2217.36388	19054.8125
2220.28132	19047.0125
2223.1969	19025.1125
2226.11061	18986.5125
2229.02246	18922.7125
2231.93245	18907.1125
2234.84058	18903.6125
2237.74686	18880.9125
2240.65128	18868.5125
2243.55385	18800.5125
2246.45456	18757.6125
2249.35343	18731.2125
2252.25044	18721.9125
2255.14561	18676.0125
2258.03893	18583.0125
2260.93041	18544.4125
2263.82004	18518.9125
2266.70783	18421.5125
2269.59378	18332.7125
2272.4779	18277.8125
2275.36017	18292.8125
2278.24061	18204.4125
2281.11922	18174.3125
2283.996	18125.0125
2286.87094	18133.5125
2289.74405	18057.1125
2292.61534	18054.8125
2295.4848	18026.4125
2298.35243	17995.2125
2301.21824	17986.9125
2304.08223	17973.1125
2306.94439	17966.7125
2309.80474	17969.6125
2312.66327	17929.0125
2315.51999	17876.5125
2318.37489	17878.7125
2321.22797	17834.7125
2324.07925	17815.1125
2326.92871	17810.9125
2329.77637	17784.8125
2332.62222	17768.3125
2335.46626	17752.9125
2338.3085	17712.8125
2341.14893	17676.0125
2343.98756	17674.1125
2346.8244	17663.1125
2349.65943	17657.0125
2352.49267	17658.9125
2355.32411	17648.5125
2358.15376	17649.4125
2360.98161	17653.8125
2363.80768	17609.7125
2366.63195	17588.8125
2369.45444	17583.7125
2372.27514	17545.0125
2375.09405	17556.6125
2377.91118	17508.1125
2380.72652	17485.3125
2383.54009	17437.8125
2386.35187	17430.5125
2389.16188	17339.2125
2391.97011	17289.8125
2394.77657	17259.9125
2397.58125	17232.0125
2400.38416	17206.5125
2403.18529	17165.7125
2405.98466	17152.6125
2408.78226	17117.1125
2411.57809	17123.1125
2414.37216	17105.6125
2417.16446	17100.6125
2419.955	17101.7125
2422.74378	17065.1125
2425.5308	17068.0125
2428.31606	17040.4125
2431.09956	17032.4125
2433.88131	16986.5125
2436.6613	16987.7125
2439.43954	16962.9125
2442.21603	16956.5125
2444.99077	16918.2125
2447.76377	16920.1125
2450.53501	16884.0125
2453.30451	16868.0125
2456.07226	16883.0125
2458.83827	16874.4125
2461.60254	16855.5125
2464.36507	16861.6125
2467.12586	16835.7125
2469.88492	16834.0125
2472.64224	16808.4125
2475.39782	16778.9125
2478.15167	16853.9125
2480.90379	16804.9125
2483.65417	16801.5125
2486.40283	16801.9125
2489.14976	16808.8125
2491.89497	16775.7125
2494.63845	16793.6125
2497.3802	16752.5125
2500.12024	16759.1125
2502.85855	16775.0125
2505.59514	16749.7125
2508.33002	16760.0125
2511.06318	16732.0125
2513.79462	16692.1125
2516.52435	16681.3125
2519.25237	16700.0125
2521.97867	16658.3125
2524.70327	16643.5125
2527.42616	16659.4125
2530.14734	16621.2125
2532.86681	16614.3125
2535.58458	16589.7125
2538.30065	16564.9125
2541.01501	16534.4125
2543.72768	16518.5125
2546.43864	16470.7125
2549.14791	16452.8125
2551.85548	16445.3125
2554.56136	16438.5125
2557.26554	16458.0125
2559.96803	16407.9125
2562.66883	16377.9125
2565.36794	16363.0125
2568.06536	16375.4125
2570.7611	16316.7125
2573.45514	16322.3125
2576.14751	16292.6125
2578.83819	16239.7125
2581.52719	16249.5125
2584.21451	16243.0125
2586.90015	16225.1125
2589.58411	16174.9125
2592.2664	16168.3125
2594.94701	16167.5125
2597.62594	16166.6125
2600.30321	16141.2125
2602.9788	16120.9125
2605.65273	16077.8125
2608.32498	16091.8125
2610.99557	16075.4125
2613.66449	16099.0125
2616.33175	16074.3125
2618.99734	16073.3125
2621.66128	16106.7125
2624.32355	16030.4125
2626.98416	16027.2125
2629.64311	16010.7125
2632.30041	16027.9125
2634.95605	15984.7125
2637.61004	16001.1125
2640.26238	15988.6125
2642.91306	15961.9125
2645.56209	15904.8125
2648.20948	15924.3125
2650.85521	15942.5125
2653.4993	15952.0125
2656.14175	15953.3125
2658.78255	15961.0125
2661.42171	15977.4125
2664.05923	15984.1125
2666.6951	15974.3125
2669.32934	16011.9125
2671.96194	16003.4125
2674.59291	15970.8125
2677.22224	15985.4125
2679.84993	15965.8125
2682.476	15979.0125
2685.10043	15975.7125
2687.72324	15968.3125
2690.34441	15988.6125
2692.96396	15982.8125
2695.58188	15980.4125
2698.19818	15936.8125
2700.81285	15967.7125
2703.4259	15964.7125
2706.03733	15999.0125
2708.64714	15990.2125
2711.25533	15991.1125
2713.86191	15945.7125
2716.46687	15950.7125
2719.07021	15952.7125
2721.67194	15995.9125
2724.27206	15951.6125
2726.87057	15953.8125
2729.46747	15957.6125
2732.06276	15943.7125
2734.65644	15984.0125
2737.24852	15970.1125
2739.83899	15939.5125
2742.42786	15946.9125
2745.01513	15916.8125
2747.60079	15917.5125
2750.18486	15924.1125
2752.76733	15938.7125
2755.3482	15905.6125
2757.92747	15922.2125
2760.50515	15908.6125
2763.08123	15887.8125
2765.65573	15856.6125
2768.22863	15866.4125
2770.79994	15823.2125
2773.36967	15830.4125
2775.9378	15829.1125
2778.50435	15832.7125
2781.06932	15793.5125
2783.6327	15811.3125
2786.1945	15812.6125
2788.75471	15763.7125
2791.31335	15691.5125
2793.87041	15663.2125
2796.42589	15651.8125
2798.97979	15633.8125
2801.53212	15633.0125
2804.08288	15633.7125
2806.63206	15597.4125
2809.17967	15564.0125
2811.72571	15523.9125
2814.27018	15513.1125
2816.81308	15489.7125
2819.35442	15391.4125
2821.89419	15373.6125
2824.43239	15391.8125
2826.96904	15382.2125
2829.50412	15376.3125
2832.03763	15311.0125
2834.56959	15313.0125
2837.1	15320.9125
2839.62884	15330.7125
2842.15613	15305.2125
2844.68186	15352.6125
2847.20604	15361.1125
2849.72867	15344.2125
2852.24974	15332.4125
2854.76927	15320.5125
2857.28724	15302.0125
2859.80367	15299.1125
2862.31855	15232.2125
2864.83189	15214.1125
2867.34368	15150.2125
2869.85393	15142.5125
2872.36264	15132.6125
2874.8698	15128.6125
2877.37543	15120.1125
2879.87952	15108.7125
2882.38207	15100.6125
2884.88308	15090.3125
2887.38256	15116.5125
2889.88051	15110.1125
2892.37692	15134.9125
2894.8718	15106.4125
2897.36515	15092.2125
2899.85698	15091.8125
2902.34727	15107.1125
2904.83604	15088.7125
2907.32328	15128.0125
2909.809	15104.7125
2912.29319	15104.0125
2914.77587	15052.5125
2917.25702	15064.3125
2919.73665	15042.4125
2922.21476	15049.8125
2924.69136	15037.7125
2927.16644	15074.7125
2929.64	15083.3125
2932.11205	15080.4125
2934.58258	15016.0125
2937.05161	15028.0125
2939.51912	15034.7125
2941.98513	14997.4125
2944.44962	14972.9125
2946.91261	14915.8125
2949.37409	14922.4125
2951.83407	14893.0125
2954.29254	14884.1125
2956.74951	14842.7125
2959.20498	14802.9125
2961.65895	14786.2125
2964.11142	14791.6125
2966.56239	14756.6125
2969.01186	14777.8125
2971.45984	14717.0125
2973.90632	14713.5125
2976.35131	14637.2125
2978.7948	14610.4125
2981.23681	14588.7125
2983.67732	14547.7125
2986.11635	14487.1125
2988.55388	14451.9125
2990.98993	14423.5125
2993.4245	14379.4125
2995.85758	14339.4125
2998.28917	14285.3125
3000.71928	14225.9125
3003.14791	14244.3125
3005.57506	14228.3125
3008.00073	14174.2125
3010.42493	14165.5125
3012.84764	14110.9125
3015.26888	14099.9125
3017.68865	14029.8125
3020.10694	13990.1125
3022.52376	13989.6125
