Data from AgNPs_FTO_APTES_UA_2uM_CRN_50uM_R6G_10uM_NaF_0.1M_Addition_RamanShift__17__14-56-05-251.txt Node

Date: Wed Feb 02 14:56:05 GMT 2022
User: TCL
Spectrometer: QEP01345
Trigger mode: 4
Integration Time (sec): 7.000000E0
Scans to average: 10
Electric dark correction enabled: true
Nonlinearity correction enabled: false
Boxcar width: 0
XAxis mode: Raman Shifts
Number of Pixels in Spectrum: 1044
>>>>>Begin Spectral Data<<<<<
46.04893	-0.025
50.45542	-0.625
54.85868	-0.825
59.25871	0.175
63.6555	83.775
68.04907	91.875
72.43941	95.775
76.82654	104.175
81.21044	105.575
85.59113	112.075
89.96862	115.275
94.34289	120.775
98.71396	123.275
103.08183	128.875
107.4465	133.275
111.80798	132.575
116.16626	133.875
120.52136	143.775
124.87327	145.175
129.222	151.675
133.56755	163.475
137.90993	172.975
142.24913	194.575
146.58517	216.675
150.91804	245.475
155.24774	300.675
159.57429	368.475
163.89768	470.475
168.21792	619.875
172.53501	840.975
176.84895	1179.175
181.15975	1655.775
185.46741	2305.975
189.77193	3171.075
194.07331	4238.175
198.37157	5457.775
202.6667	6737.275
206.9587	7970.775
211.24758	9212.775
215.53334	10467.875
219.81599	11784.375
224.09553	13251.475
228.37195	14828.775
232.64527	16556.075
236.91549	18375.675
241.18261	20226.775
245.44663	21932.475
249.70755	23513.875
253.96539	24895.375
258.22014	26083.475
262.4718	27118.975
266.72039	27862.275
270.96589	28316.575
275.20832	28531.675
279.44768	28545.575
283.68397	28521.275
287.91719	28501.275
292.14735	28530.775
296.37445	28683.075
300.59849	28782.275
304.81948	28771.075
309.03742	28478.475
313.25231	27937.575
317.46415	27107.475
321.67296	26147.275
325.87872	25382.475
330.08145	24934.475
334.28114	24801.675
338.47781	24865.375
342.67145	25105.675
346.86207	25491.075
351.04966	25887.875
355.23424	26245.775
359.4158	26635.275
363.59435	26824.075
367.76989	27014.275
371.94243	27152.475
376.11196	27289.575
380.27849	27361.675
384.44203	27512.775
388.60257	27817.475
392.76012	28143.475
396.91468	28619.175
401.06626	29027.875
405.21485	29231.275
409.36047	29101.375
413.50311	28649.775
417.64277	28419.375
421.77947	28354.975
425.9132	28532.775
430.04396	28739.475
434.17176	28900.575
438.2966	29126.075
442.41849	29599.075
446.53742	30402.775
450.6534	31358.575
454.76644	32066.375
458.87653	32498.075
462.98368	32479.175
467.08789	32349.375
471.18916	32098.175
475.2875	32038.975
479.38291	32210.675
483.4754	32213.575
487.56496	31678.875
491.6516	30780.975
495.73531	29933.375
499.81612	29397.175
503.89401	29399.675
507.96899	29405.175
512.04106	29258.775
516.11023	28914.875
520.1765	28468.175
524.23987	28019.175
528.30034	27601.375
532.35792	27298.975
536.41261	27043.575
540.46441	26867.575
544.51333	27030.575
548.55936	27614.375
552.60252	28460.375
556.64279	29303.075
560.6802	29982.775
564.71473	30442.775
568.7464	31024.675
572.7752	31977.175
576.80114	32748.175
580.82422	33325.275
584.84444	33753.275
588.86181	33978.575
592.87633	34241.675
596.888	34255.075
600.89682	34124.475
604.9028	34773.675
608.90594	36724.975
612.90624	38259.875
616.90371	35364.575
620.89834	29922.875
624.89015	27661.575
628.87913	27600.475
632.86528	27855.375
636.84862	27855.675
640.82913	27422.675
644.80683	26625.575
648.78172	25924.775
652.75379	25618.275
656.72306	25810.475
660.68952	26083.875
664.65319	25959.175
668.61405	25517.275
672.57211	25456.475
676.52738	25473.175
680.47986	25456.875
684.42955	25355.275
688.37646	25302.275
692.32058	25337.975
696.26192	25573.275
700.20048	25921.775
704.13626	26139.575
708.06928	26239.175
711.99952	26096.175
715.927	25987.675
719.85171	26002.675
723.77365	25909.375
727.69284	25611.675
731.60928	25289.275
735.52295	25180.275
739.43388	25092.375
743.34206	25136.375
747.24749	25309.775
751.15017	25593.775
755.05012	26195.775
758.94733	27214.775
762.8418	28855.575
766.73354	31121.575
770.62254	32975.175
774.50882	32985.575
778.39237	31084.375
782.27321	28609.175
786.15132	26720.175
790.02671	25643.375
793.89938	25073.275
797.76935	24861.475
801.6366	24849.475
805.50115	24843.375
809.36299	24684.175
813.22213	24490.375
817.07857	24401.175
820.93231	24338.975
824.78336	24174.875
828.63172	23951.475
832.47738	23847.275
836.32036	23818.475
840.16066	23879.075
843.99827	23957.575
847.8332	23873.975
851.66546	23850.775
855.49504	23686.475
859.32195	23671.075
863.1462	23636.475
866.96777	23452.275
870.78668	23410.675
874.60293	23370.675
878.41652	23327.875
882.22745	23388.975
886.03573	23460.075
889.84136	23450.575
893.64433	23375.775
897.44466	23296.675
901.24235	23199.675
905.0374	23108.975
908.8298	23060.575
912.61957	23143.475
916.40671	23491.775
920.19121	23929.775
923.97308	24230.275
927.75233	24152.875
931.52895	23849.175
935.30295	23408.075
939.07433	22907.775
942.84309	22474.275
946.60924	22241.175
950.37278	22169.675
954.13371	22152.075
957.89203	22165.675
961.64774	22171.775
965.40086	22185.075
969.15137	22087.975
972.89929	21861.875
976.64461	21744.375
980.38733	21661.075
984.12747	21697.675
987.86502	21829.375
991.59999	22104.175
995.33237	22503.475
999.06217	23115.675
1002.78939	23857.675
1006.51404	24287.775
1010.23611	24553.175
1013.95561	24734.075
1017.67255	24808.575
1021.38692	24585.775
1025.09872	24273.875
1028.80796	24240.775
1032.51465	24712.475
1036.21877	25221.675
1039.92035	25406.175
1043.61937	25156.975
1047.31584	24780.575
1051.00976	24330.175
1054.70114	24188.675
1058.38998	24375.375
1062.07627	24691.875
1065.76003	25004.775
1069.44126	25283.875
1073.11995	25584.875
1076.79611	25827.375
1080.46974	25983.475
1084.14085	26120.575
1087.80943	26470.275
1091.47549	26782.475
1095.13903	26862.975
1098.80005	26632.575
1102.45857	25989.375
1106.11456	25335.575
1109.76805	25012.275
1113.41903	25014.975
1117.06751	25167.075
1120.71348	25442.675
1124.35696	25695.575
1127.99793	26114.775
1131.63641	26340.475
1135.2724	26310.975
1138.90589	26272.275
1142.5369	26344.975
1146.16542	26617.175
1149.79145	27078.375
1153.415	27616.575
1157.03607	28316.775
1160.65467	29383.775
1164.27079	30988.875
1167.88443	32983.675
1171.49561	35337.175
1175.10432	38266.075
1178.71056	41776.275
1182.31434	45024.875
1185.91565	46971.275
1189.51451	47309.375
1193.11091	46408.875
1196.70485	44763.375
1200.29634	42793.775
1203.88538	40998.775
1207.47197	39993.875
1211.05612	39341.075
1214.63782	38527.275
1218.21708	37453.075
1221.79391	36434.775
1225.36829	35609.675
1228.94024	34890.675
1232.50976	34110.675
1236.07685	33550.675
1239.6415	33282.675
1243.20374	33294.875
1246.76355	33529.375
1250.32093	34065.575
1253.8759	34871.075
1257.42845	35989.275
1260.97859	37192.175
1264.52631	38299.975
1268.07163	39404.675
1271.61453	40705.975
1275.15503	42127.975
1278.69312	43756.175
1282.22882	45275.475
1285.76211	46900.175
1289.29301	48818.275
1292.82151	51295.575
1296.34761	54509.575
1299.87133	58165.575
1303.39266	61758.975
1306.9116	65119.475
1310.42815	67973.675
1313.94233	69756.675
1317.45412	70234.475
1320.96354	70030.875
1324.47058	69897.675
1327.97525	69858.475
1331.47754	69701.175
1334.97747	69612.875
1338.47502	69413.775
1341.97022	68860.375
1345.46305	67604.675
1348.95352	65530.775
1352.44163	63302.975
1355.92738	61936.175
1359.41078	62044.975
1362.89183	62510.775
1366.37053	61114.975
1369.84688	57013.775
1373.32088	51956.275
1376.79254	48493.575
1380.26186	47483.275
1383.72883	47966.275
1387.19347	48748.475
1390.65578	49160.175
1394.11575	49645.675
1397.57339	50616.975
1401.0287	51923.275
1404.48168	52841.675
1407.93234	52602.175
1411.38068	51219.475
1414.82669	48733.875
1418.27039	45779.175
1421.71177	43000.175
1425.15083	40729.075
1428.58758	39435.375
1432.02203	39460.875
1435.45416	40492.375
1438.88399	42063.375
1442.31151	43684.075
1445.73673	44940.575
1449.15965	46192.375
1452.58027	47284.375
1455.9986	47905.275
1459.41463	48507.475
1462.82837	49269.475
1466.23982	49917.875
1469.64898	50453.075
1473.05586	50513.475
1476.46045	50049.875
1479.86276	49250.775
1483.26279	48117.975
1486.66054	47341.575
1490.05602	46940.575
1493.44922	46901.375
1496.84016	47115.375
1500.22882	47609.775
1503.61521	48579.475
1506.99934	49839.975
1510.38121	51141.875
1513.76081	51659.475
1517.13816	51167.775
1520.51324	50067.175
1523.88607	49230.575
1527.25665	48952.075
1530.62498	48977.175
1533.99105	49026.575
1537.35488	48876.475
1540.71647	48126.375
1544.07581	46878.775
1547.4329	45440.275
1550.78776	44228.075
1554.14038	43466.575
1557.49077	43064.675
1560.83892	42865.175
1564.18484	42743.375
1567.52853	42616.875
1570.86999	42931.475
1574.20922	43768.975
1577.54624	44763.275
1580.88103	45593.675
1584.2136	46682.775
1587.54395	48357.775
1590.87208	50792.075
1594.19801	53570.075
1597.52172	56055.675
1600.84321	56460.475
1604.16251	53638.575
1607.47959	49070.475
1610.79447	44387.975
1614.10715	40005.475
1617.41763	36409.875
1620.7259	33820.475
1624.03199	32370.675
1627.33587	32216.775
1630.63757	33333.575
1633.93707	35919.975
1637.23439	40180.175
1640.52951	45924.075
1643.82246	52214.175
1647.11321	56854.775
1650.40179	57308.775
1653.68819	53208.875
1656.97241	45968.675
1660.25446	38562.075
1663.53433	32713.475
1666.81203	28782.075
1670.08756	26235.375
1673.36092	24599.975
1676.63211	23518.075
1679.90115	22796.975
1683.16801	22273.475
1686.43272	21904.775
1689.69527	21555.075
1692.95567	21305.975
1696.2139	21202.075
1699.46999	21036.475
1702.72392	20903.075
1705.97571	20817.675
1709.22535	20671.775
1712.47284	20605.875
1715.71819	20499.575
1718.96139	20425.775
1722.20246	20308.675
1725.44139	20217.475
1728.67818	20031.475
1731.91284	19907.175
1735.14537	19760.175
1738.37576	19715.575
1741.60403	19606.175
1744.83017	19520.075
1748.05418	19505.075
1751.27607	19465.675
1754.49584	19449.075
1757.71349	19419.175
1760.92903	19363.075
1764.14244	19337.975
1767.35375	19309.675
1770.56294	19217.775
1773.77002	19139.375
1776.97499	19099.675
1780.17785	19083.975
1783.37861	19031.975
1786.57727	18989.475
1789.77382	18935.875
1792.96828	18889.075
1796.16064	18846.875
1799.3509	18780.275
1802.53907	18738.475
1805.72514	18668.275
1808.90913	18639.575
1812.09102	18626.275
1815.27083	18584.175
1818.44856	18542.075
1821.6242	18537.575
1824.79776	18491.375
1827.96924	18480.575
1831.13864	18451.175
1834.30597	18489.475
1837.47122	18491.375
1840.6344	18502.275
1843.7955	18532.475
1846.95454	18529.075
1850.11151	18521.875
1853.26642	18509.475
1856.41926	18481.075
1859.57004	18483.675
1862.71876	18448.875
1865.86542	18418.075
1869.01003	18411.675
1872.15258	18377.675
1875.29308	18373.175
1878.43152	18360.875
1881.56792	18363.775
1884.70227	18363.275
1887.83457	18306.575
1890.96482	18347.075
1894.09304	18266.675
1897.21921	18304.675
1900.34335	18284.475
1903.46544	18213.275
1906.58551	18233.975
1909.70353	18176.175
1912.81953	18139.575
1915.93349	18115.975
1919.04543	18034.875
1922.15534	18004.875
1925.26322	17941.675
1928.36908	17883.275
1931.47292	17824.075
1934.57473	17767.875
1937.67453	17738.075
1940.77232	17664.275
1943.86808	17592.575
1946.96184	17588.675
1950.05358	17473.975
1953.14331	17435.375
1956.23103	17359.575
1959.31675	17298.375
1962.40046	17257.275
1965.48217	17194.875
1968.56188	17152.075
1971.63959	17080.075
1974.7153	17020.375
1977.78901	16986.375
1980.86073	16901.275
1983.93046	16893.875
1986.99819	16774.575
1990.06394	16768.975
1993.1277	16705.675
1996.18947	16628.475
1999.24925	16584.675
2002.30706	16541.275
2005.36288	16529.975
2008.41672	16468.675
2011.46859	16401.475
2014.51848	16318.875
2017.56639	16319.175
2020.61233	16266.775
2023.6563	16228.975
2026.6983	16203.875
2029.73833	16177.875
2032.7764	16127.975
2035.8125	16099.275
2038.84664	16100.175
2041.87881	16079.375
2044.90903	16059.875
2047.93729	16029.275
2050.96359	16008.275
2053.98794	15993.975
2057.01034	15993.675
2060.03078	15979.675
2063.04927	15973.375
2066.06582	15979.775
2069.08042	15916.275
2072.09307	15908.275
2075.10378	15874.975
2078.11255	15874.775
2081.11938	15862.175
2084.12426	15862.975
2087.12722	15828.775
2090.12824	15830.775
2093.12732	15828.075
2096.12447	15821.475
2099.11969	15856.075
2102.11299	15827.575
2105.10435	15839.775
2108.09379	15846.675
2111.08131	15852.775
2114.0669	15866.775
2117.05057	15889.875
2120.03233	15880.475
2123.01216	15883.375
2125.99008	15897.075
2128.96609	15889.475
2131.94018	15894.575
2134.91236	15898.475
2137.88263	15894.375
2140.851	15915.375
2143.81746	15938.175
2146.78201	15933.775
2149.74466	15922.075
2152.7054	15907.675
2155.66425	15915.175
2158.6212	15889.475
2161.57625	15888.375
2164.52941	15882.475
2167.48067	15869.075
2170.43004	15821.375
2173.37752	15856.475
2176.32311	15823.275
2179.26681	15849.775
2182.20863	15833.375
2185.14856	15842.275
2188.08661	15848.975
2191.02278	15844.575
2193.95707	15815.275
2196.88948	15826.275
2199.82001	15824.175
2202.74867	15806.775
2205.67545	15806.275
2208.60037	15772.975
2211.52341	15722.675
2214.44458	15747.575
2217.36388	15695.775
2220.28132	15693.075
2223.1969	15677.875
2226.11061	15670.775
2229.02246	15595.475
2231.93245	15566.775
2234.84058	15554.675
2237.74686	15496.875
2240.65128	15533.675
2243.55385	15472.075
2246.45456	15471.475
2249.35343	15389.775
2252.25044	15398.575
2255.14561	15362.975
2258.03893	15362.175
2260.93041	15307.775
2263.82004	15243.275
2266.70783	15207.775
2269.59378	15162.575
2272.4779	15120.575
2275.36017	15099.875
2278.24061	15101.775
2281.11922	15018.375
2283.996	15001.175
2286.87094	14977.075
2289.74405	14958.375
2292.61534	14964.775
2295.4848	14968.375
2298.35243	14954.975
2301.21824	14944.075
2304.08223	14944.975
2306.94439	14961.075
2309.80474	14960.175
2312.66327	14942.675
2315.51999	14930.775
2318.37489	14941.275
2321.22797	14910.575
2324.07925	14927.275
2326.92871	14926.375
2329.77637	14878.875
2332.62222	14880.275
2335.46626	14852.975
2338.3085	14872.275
2341.14893	14883.675
2343.98756	14869.575
2346.8244	14871.675
2349.65943	14907.675
2352.49267	14892.275
2355.32411	14871.775
2358.15376	14862.375
2360.98161	14845.375
2363.80768	14852.775
2366.63195	14824.575
2369.45444	14788.475
2372.27514	14782.975
2375.09405	14750.475
2377.91118	14717.975
2380.72652	14683.575
2383.54009	14703.575
2386.35187	14648.175
2389.16188	14587.475
2391.97011	14585.075
2394.77657	14580.475
2397.58125	14566.875
2400.38416	14545.175
2403.18529	14523.875
2405.98466	14488.675
2408.78226	14485.875
2411.57809	14438.175
2414.37216	14435.175
2417.16446	14433.275
2419.955	14386.375
2422.74378	14399.675
2425.5308	14399.275
2428.31606	14382.775
2431.09956	14357.175
2433.88131	14339.875
2436.6613	14345.075
2439.43954	14349.775
2442.21603	14334.975
2444.99077	14310.575
2447.76377	14326.475
2450.53501	14327.175
2453.30451	14326.075
2456.07226	14301.375
2458.83827	14320.775
2461.60254	14324.975
2464.36507	14320.575
2467.12586	14330.275
2469.88492	14307.775
2472.64224	14333.175
2475.39782	14356.475
2478.15167	14333.875
2480.90379	14332.175
2483.65417	14370.275
2486.40283	14327.075
2489.14976	14370.175
2491.89497	14358.175
2494.63845	14423.475
2497.3802	14379.075
2500.12024	14380.675
2502.85855	14380.475
2505.59514	14407.075
2508.33002	14383.275
2511.06318	14408.475
2513.79462	14390.375
2516.52435	14369.875
2519.25237	14364.975
2521.97867	14333.175
2524.70327	14357.275
2527.42616	14325.075
2530.14734	14324.475
2532.86681	14312.975
2535.58458	14329.775
2538.30065	14319.075
2541.01501	14308.375
2543.72768	14276.375
2546.43864	14271.575
2549.14791	14246.975
2551.85548	14235.775
2554.56136	14242.375
2557.26554	14213.775
2559.96803	14200.175
2562.66883	14212.575
2565.36794	14220.175
2568.06536	14239.175
2570.7611	14194.075
2573.45514	14179.875
2576.14751	14195.875
2578.83819	14157.175
2581.52719	14175.675
2584.21451	14186.675
2586.90015	14187.075
2589.58411	14155.775
2592.2664	14173.575
2594.94701	14145.275
2597.62594	14158.075
2600.30321	14185.975
2602.9788	14145.775
2605.65273	14117.575
2608.32498	14139.675
2610.99557	14148.175
2613.66449	14183.575
2616.33175	14164.475
2618.99734	14175.475
2621.66128	14162.175
2624.32355	14191.775
2626.98416	14206.375
2629.64311	14189.975
2632.30041	14210.875
2634.95605	14210.275
2637.61004	14194.675
2640.26238	14165.975
2642.91306	14160.775
2645.56209	14156.975
2648.20948	14202.675
2650.85521	14128.875
2653.4993	14139.475
2656.14175	14151.275
2658.78255	14174.675
2661.42171	14177.975
2664.05923	14211.875
2666.6951	14210.875
2669.32934	14242.475
2671.96194	14212.475
2674.59291	14184.375
2677.22224	14204.275
2679.84993	14218.975
2682.476	14204.075
2685.10043	14196.475
2687.72324	14192.875
2690.34441	14168.475
2692.96396	14177.775
2695.58188	14172.175
2698.19818	14143.575
2700.81285	14150.775
2703.4259	14162.275
2706.03733	14194.275
2708.64714	14211.975
2711.25533	14201.475
2713.86191	14204.175
2716.46687	14234.775
2719.07021	14225.475
2721.67194	14272.075
2724.27206	14282.175
2726.87057	14282.875
2729.46747	14304.475
2732.06276	14297.075
2734.65644	14283.675
2737.24852	14263.075
2739.83899	14264.775
2742.42786	14261.775
2745.01513	14263.075
2747.60079	14236.475
2750.18486	14237.075
2752.76733	14259.475
2755.3482	14262.275
2757.92747	14299.475
2760.50515	14292.275
2763.08123	14329.175
2765.65573	14303.675
2768.22863	14314.175
2770.79994	14257.575
2773.36967	14283.575
2775.9378	14289.475
2778.50435	14317.175
2781.06932	14281.675
2783.6327	14314.775
2786.1945	14271.575
2788.75471	14262.375
2791.31335	14246.875
2793.87041	14249.275
2796.42589	14225.575
2798.97979	14231.175
2801.53212	14202.775
2804.08288	14188.975
2806.63206	14126.175
2809.17967	14123.775
2811.72571	14110.775
2814.27018	14082.075
2816.81308	14073.375
2819.35442	14030.975
2821.89419	14010.675
2824.43239	14035.875
2826.96904	13999.675
2829.50412	13984.775
2832.03763	13945.075
2834.56959	13969.875
2837.1	13951.075
2839.62884	13937.475
2842.15613	13934.775
2844.68186	13965.075
2847.20604	13969.375
2849.72867	13983.375
2852.24974	13975.175
2854.76927	13968.375
2857.28724	13928.775
2859.80367	13938.275
2862.31855	13898.475
2864.83189	13910.875
2867.34368	13902.875
2869.85393	13880.375
2872.36264	13886.975
2874.8698	13896.075
2877.37543	13891.175
2879.87952	13902.675
2882.38207	13890.275
2884.88308	13867.275
2887.38256	13884.375
2889.88051	13871.475
2892.37692	13903.375
2894.8718	13904.075
2897.36515	13931.475
2899.85698	13950.875
2902.34727	13961.675
2904.83604	13990.875
2907.32328	13984.175
2909.809	13998.175
2912.29319	13993.175
2914.77587	14003.275
2917.25702	14004.375
2919.73665	13992.475
2922.21476	13991.175
2924.69136	13974.175
2927.16644	13990.375
2929.64	14009.175
2932.11205	13986.475
2934.58258	13933.875
2937.05161	13944.475
2939.51912	13971.575
2941.98513	13912.075
2944.44962	13888.475
2946.91261	13800.175
2949.37409	13829.875
2951.83407	13818.575
2954.29254	13794.475
2956.74951	13765.375
2959.20498	13781.075
2961.65895	13742.875
2964.11142	13733.275
2966.56239	13692.375
2969.01186	13675.175
2971.45984	13644.275
2973.90632	13613.875
2976.35131	13553.475
2978.7948	13555.175
2981.23681	13524.275
2983.67732	13509.875
2986.11635	13447.775
2988.55388	13425.775
2990.98993	13409.975
2993.4245	13376.775
2995.85758	13330.475
2998.28917	13320.575
3000.71928	13301.375
3003.14791	13244.775
3005.57506	13217.975
3008.00073	13188.375
3010.42493	13156.075
3012.84764	13128.775
3015.26888	13115.675
3017.68865	13089.775
3020.10694	13066.475
3022.52376	13056.775
3024.9391	13041.275
3027.35298	13009.775
3029.76539	12994.275
3032.17632	13017.475
3034.5858	12986.375
3036.9938	13008.375
3039.40034	12988.875
3041.80542	12950.375
3044.20903	12914.175
3046.61118	12938.275
3049.01187	12892.175
3051.4111	12885.575
3053.80888	12809.375
3056.20519	12837.475
3058.60005	12771.275
3060.99345	12789.075
3063.3854	12719.275
3065.7759	12708.375
3068.16494	12681.475
3070.55254	12597.175
3072.93868	12585.475
3075.32338	12552.575
3077.70662	12534.975
3080.08842	12475.175
3082.46878	12487.275
3084.84769	12481.775
3087.22515	12459.875
3089.60118	12449.975
3091.97576	12438.575
3094.3489	12434.575
3096.72061	12413.675
3099.09087	12387.175
3101.4597	12395.975
3103.82709	12383.375
3106.19305	12346.775
3108.55757	12362.675
3110.92066	12325.475
3113.28232	12288.975
3115.64255	12261.475
3118.00134	12215.575
3120.35871	12169.475
3122.71466	12151.875
3125.06917	12142.575
3127.42226	12137.775
