Data from AgNPs_FTO_APTES_UA_2uM_CRN_200uM_R6G_10uM_NaF_0.1M_Addition_RamanShift__31__16-55-05-390.txt Node

Date: Wed Feb 02 16:55:05 GMT 2022
User: TCL
Spectrometer: QEP01345
Trigger mode: 4
Integration Time (sec): 7.000000E0
Scans to average: 10
Electric dark correction enabled: true
Nonlinearity correction enabled: false
Boxcar width: 0
XAxis mode: Raman Shifts
Number of Pixels in Spectrum: 1044
>>>>>Begin Spectral Data<<<<<
46.04893	1.4625
50.45542	1.2625
54.85868	-0.5375
59.25871	-1.3375
63.6555	39.9625
68.04907	44.5625
72.43941	47.5625
76.82654	55.3625
81.21044	54.8625
85.59113	55.9625
89.96862	60.6625
94.34289	63.7625
98.71396	61.4625
103.08183	70.7625
107.4465	69.5625
111.80798	66.8625
116.16626	68.1625
120.52136	72.7625
124.87327	70.7625
129.222	73.9625
133.56755	75.0625
137.90993	77.0625
142.24913	85.0625
146.58517	94.5625
150.91804	100.6625
155.24774	123.0625
159.57429	143.0625
163.89768	178.9625
168.21792	224.7625
172.53501	303.6625
176.84895	411.3625
181.15975	573.7625
185.46741	795.2625
189.77193	1094.0625
194.07331	1461.7625
198.37157	1879.0625
202.6667	2314.8625
206.9587	2742.8625
211.24758	3175.0625
215.53334	3626.3625
219.81599	4133.7625
224.09553	4719.1625
228.37195	5318.3625
232.64527	6012.3625
236.91549	6696.8625
241.18261	7282.2625
245.44663	7805.9625
249.70755	8199.6625
253.96539	8521.8625
258.22014	8823.6625
262.4718	9072.1625
266.72039	9310.7625
270.96589	9475.0625
275.20832	9507.1625
279.44768	9470.5625
283.68397	9440.9625
287.91719	9435.6625
292.14735	9534.1625
296.37445	9751.1625
300.59849	10080.2625
304.81948	10448.2625
309.03742	10710.9625
313.25231	10652.1625
317.46415	10074.9625
321.67296	9225.2625
325.87872	8511.4625
330.08145	8149.1625
334.28114	8074.8625
338.47781	8217.3625
342.67145	8443.6625
346.86207	8857.6625
351.04966	9394.1625
355.23424	10023.6625
359.4158	10463.9625
363.59435	10654.9625
367.76989	10619.0625
371.94243	10553.9625
376.11196	10416.4625
380.27849	10308.2625
384.44203	10181.8625
388.60257	10015.5625
392.76012	9952.1625
396.91468	10064.6625
401.06626	10367.3625
405.21485	10616.9625
409.36047	10462.2625
413.50311	9893.4625
417.64277	9318.2625
421.77947	8984.2625
425.9132	8883.9625
430.04396	8859.5625
434.17176	8884.3625
438.2966	8968.9625
442.41849	9144.2625
446.53742	9380.2625
450.6534	9633.7625
454.76644	9768.9625
458.87653	9810.1625
462.98368	9798.5625
467.08789	9683.2625
471.18916	9494.4625
475.2875	9316.5625
479.38291	9168.9625
483.4754	8992.3625
487.56496	8808.9625
491.6516	8721.7625
495.73531	8698.5625
499.81612	8724.2625
503.89401	8845.0625
507.96899	8921.8625
512.04106	9046.0625
516.11023	9135.2625
520.1765	9188.5625
524.23987	9157.9625
528.30034	8920.5625
532.35792	8698.8625
536.41261	8477.2625
540.46441	8259.9625
544.51333	8181.7625
548.55936	8306.5625
552.60252	8546.7625
556.64279	8859.7625
560.6802	9047.7625
564.71473	9254.7625
568.7464	9719.0625
572.7752	10032.7625
576.80114	9742.3625
580.82422	9308.8625
584.84444	9093.0625
588.86181	8966.9625
592.87633	8915.4625
596.888	8976.6625
600.89682	9292.7625
604.9028	10448.5625
608.90594	13492.3625
612.90624	17587.2625
616.90371	17083.1625
620.89834	11672.0625
624.89015	8946.7625
628.87913	8463.3625
632.86528	8509.0625
636.84862	8654.4625
640.82913	8546.6625
644.80683	8155.4625
648.78172	7864.6625
652.75379	7890.2625
656.72306	8282.3625
660.68952	8776.7625
664.65319	8710.8625
668.61405	8236.6625
672.57211	7998.4625
676.52738	7978.4625
680.47986	8003.9625
684.42955	7942.8625
688.37646	7902.9625
692.32058	7911.2625
696.26192	7996.9625
700.20048	8124.1625
704.13626	8266.2625
708.06928	8257.0625
711.99952	8177.3625
715.927	8117.9625
719.85171	8089.6625
723.77365	8065.0625
727.69284	7912.0625
731.60928	7798.6625
735.52295	7750.2625
739.43388	7749.8625
743.34206	7782.3625
747.24749	7847.3625
751.15017	7921.2625
755.05012	8144.9625
758.94733	8626.0625
762.8418	9741.3625
766.73354	11576.7625
770.62254	13537.5625
774.50882	14454.9625
778.39237	13729.5625
782.27321	11762.5625
786.15132	9753.2625
790.02671	8611.7625
793.89938	8081.4625
797.76935	7832.2625
801.6366	7752.3625
805.50115	7675.4625
809.36299	7652.0625
813.22213	7614.7625
817.07857	7590.0625
820.93231	7575.8625
824.78336	7610.0625
828.63172	7659.2625
832.47738	7672.4625
836.32036	7638.2625
840.16066	7574.9625
843.99827	7530.5625
847.8332	7462.9625
851.66546	7447.8625
855.49504	7434.1625
859.32195	7379.4625
863.1462	7351.1625
866.96777	7309.0625
870.78668	7284.6625
874.60293	7293.1625
878.41652	7314.7625
882.22745	7352.5625
886.03573	7388.3625
889.84136	7380.2625
893.64433	7334.0625
897.44466	7300.1625
901.24235	7298.3625
905.0374	7278.5625
908.8298	7253.2625
912.61957	7258.7625
916.40671	7339.5625
920.19121	7434.8625
923.97308	7493.8625
927.75233	7558.0625
931.52895	7601.7625
935.30295	7483.8625
939.07433	7221.6625
942.84309	6976.5625
946.60924	6827.8625
950.37278	6746.0625
954.13371	6692.0625
957.89203	6665.3625
961.64774	6641.3625
965.40086	6626.4625
969.15137	6599.0625
972.89929	6566.5625
976.64461	6559.6625
980.38733	6560.3625
984.12747	6549.7625
987.86502	6571.0625
991.59999	6602.8625
995.33237	6659.2625
999.06217	6794.3625
1002.78939	6962.1625
1006.51404	7139.8625
1010.23611	7328.7625
1013.95561	7432.6625
1017.67255	7367.0625
1021.38692	7250.3625
1025.09872	7127.1625
1028.80796	7035.0625
1032.51465	7048.6625
1036.21877	7150.3625
1039.92035	7264.8625
1043.61937	7332.3625
1047.31584	7380.8625
1051.00976	7403.4625
1054.70114	7388.3625
1058.38998	7425.3625
1062.07627	7506.8625
1065.76003	7571.3625
1069.44126	7655.4625
1073.11995	7716.0625
1076.79611	7825.6625
1080.46974	7924.8625
1084.14085	8140.3625
1087.80943	8376.9625
1091.47549	8496.1625
1095.13903	8406.4625
1098.80005	8061.0625
1102.45857	7767.1625
1106.11456	7578.1625
1109.76805	7534.4625
1113.41903	7677.5625
1117.06751	7949.9625
1120.71348	8332.7625
1124.35696	8754.9625
1127.99793	9167.7625
1131.63641	9165.9625
1135.2724	8666.4625
1138.90589	8187.9625
1142.5369	7925.1625
1146.16542	7770.0625
1149.79145	7703.5625
1153.415	7726.6625
1157.03607	7850.1625
1160.65467	8053.3625
1164.27079	8396.1625
1167.88443	8879.1625
1171.49561	9751.4625
1175.10432	11166.6625
1178.71056	12955.8625
1182.31434	14118.6625
1185.91565	14214.9625
1189.51451	13729.4625
1193.11091	12945.9625
1196.70485	11994.7625
1200.29634	11265.0625
1203.88538	10649.6625
1207.47197	9936.6625
1211.05612	9307.7625
1214.63782	8948.4625
1218.21708	8838.9625
1221.79391	8809.9625
1225.36829	8862.8625
1228.94024	8893.0625
1232.50976	8945.6625
1236.07685	8943.7625
1239.6415	8962.1625
1243.20374	8974.3625
1246.76355	9047.1625
1250.32093	9153.9625
1253.8759	9376.0625
1257.42845	9682.2625
1260.97859	10007.8625
1264.52631	10348.4625
1268.07163	10653.8625
1271.61453	10950.5625
1275.15503	11213.5625
1278.69312	11268.3625
1282.22882	11276.4625
1285.76211	11500.1625
1289.29301	11924.0625
1292.82151	12401.6625
1296.34761	12852.1625
1299.87133	13546.2625
1303.39266	14658.6625
1306.9116	16389.4625
1310.42815	18416.9625
1313.94233	19829.3625
1317.45412	19639.3625
1320.96354	18466.1625
1324.47058	17060.9625
1327.97525	15899.0625
1331.47754	15136.2625
1334.97747	14755.3625
1338.47502	14746.1625
1341.97022	14950.4625
1345.46305	15353.3625
1348.95352	16025.3625
1352.44163	17047.9625
1355.92738	18594.5625
1359.41078	21149.3625
1362.89183	23886.9625
1366.37053	23452.9625
1369.84688	19933.2625
1373.32088	16314.5625
1376.79254	14033.2625
1380.26186	12892.9625
1383.72883	12349.4625
1387.19347	11999.2625
1390.65578	11589.2625
1394.11575	11257.9625
1397.57339	11123.3625
1401.0287	11176.8625
1404.48168	11251.7625
1407.93234	11357.2625
1411.38068	11334.3625
1414.82669	11133.9625
1418.27039	10831.8625
1421.71177	10482.0625
1425.15083	10128.4625
1428.58758	9907.9625
1432.02203	9836.4625
1435.45416	9911.3625
1438.88399	10006.4625
1442.31151	10045.2625
1445.73673	10124.8625
1449.15965	10236.6625
1452.58027	10284.1625
1455.9986	10299.4625
1459.41463	10336.2625
1462.82837	10476.6625
1466.23982	10696.8625
1469.64898	10947.4625
1473.05586	11111.2625
1476.46045	11247.1625
1479.86276	11393.0625
1483.26279	11602.4625
1486.66054	11868.0625
1490.05602	12233.1625
1493.44922	12792.5625
1496.84016	13683.7625
1500.22882	15118.4625
1503.61521	17048.1625
1506.99934	19204.7625
1510.38121	21407.7625
1513.76081	22694.6625
1517.13816	21967.7625
1520.51324	19454.5625
1523.88607	16657.9625
1527.25665	14714.5625
1530.62498	13545.1625
1533.99105	12911.5625
1537.35488	12458.8625
1540.71647	12121.4625
1544.07581	11931.9625
1547.4329	11754.5625
1550.78776	11639.3625
1554.14038	11571.5625
1557.49077	11671.4625
1560.83892	11951.8625
1564.18484	12369.3625
1567.52853	12834.1625
1570.86999	13133.2625
1574.20922	13352.4625
1577.54624	13272.7625
1580.88103	12627.5625
1584.2136	11706.3625
1587.54395	11238.8625
1590.87208	11344.8625
1594.19801	11851.5625
1597.52172	12691.2625
1600.84321	13005.4625
1604.16251	12477.2625
1607.47959	11547.4625
1610.79447	10646.1625
1614.10715	9764.5625
1617.41763	9052.1625
1620.7259	8591.4625
1624.03199	8314.2625
1627.33587	8290.5625
1630.63757	8431.8625
1633.93707	8814.7625
1637.23439	9466.4625
1640.52951	10441.3625
1643.82246	11844.9625
1647.11321	13579.6625
1650.40179	14990.5625
1653.68819	14907.6625
1656.97241	13069.7625
1660.25446	10709.6625
1663.53433	8944.9625
1666.81203	7871.1625
1670.08756	7220.0625
1673.36092	6816.9625
1676.63211	6597.1625
1679.90115	6422.2625
1683.16801	6298.5625
1686.43272	6191.0625
1689.69527	6106.7625
1692.95567	6067.7625
1696.2139	6048.7625
1699.46999	6040.3625
1702.72392	6006.9625
1705.97571	5966.0625
1709.22535	5923.9625
1712.47284	5912.5625
1715.71819	5899.4625
1718.96139	5895.0625
1722.20246	5886.3625
1725.44139	5860.9625
1728.67818	5820.2625
1731.91284	5770.5625
1735.14537	5708.2625
1738.37576	5663.0625
1741.60403	5630.7625
1744.83017	5604.8625
1748.05418	5591.1625
1751.27607	5590.2625
1754.49584	5566.3625
1757.71349	5582.6625
1760.92903	5550.8625
1764.14244	5543.8625
1767.35375	5504.0625
1770.56294	5489.9625
1773.77002	5458.6625
1776.97499	5430.5625
1780.17785	5403.3625
1783.37861	5362.2625
1786.57727	5341.3625
1789.77382	5328.4625
1792.96828	5327.4625
1796.16064	5294.2625
1799.3509	5294.2625
1802.53907	5274.8625
1805.72514	5259.8625
1808.90913	5229.3625
1812.09102	5222.4625
1815.27083	5209.9625
1818.44856	5203.2625
1821.6242	5169.3625
1824.79776	5165.2625
1827.96924	5165.4625
1831.13864	5157.2625
1834.30597	5153.2625
1837.47122	5148.7625
1840.6344	5145.8625
1843.7955	5131.9625
1846.95454	5118.8625
1850.11151	5127.9625
1853.26642	5142.0625
1856.41926	5118.1625
1859.57004	5102.7625
1862.71876	5110.7625
1865.86542	5105.8625
1869.01003	5114.5625
1872.15258	5099.1625
1875.29308	5096.6625
1878.43152	5106.6625
1881.56792	5099.6625
1884.70227	5104.3625
1887.83457	5107.5625
1890.96482	5098.6625
1894.09304	5106.4625
1897.21921	5096.1625
1900.34335	5094.5625
1903.46544	5087.5625
1906.58551	5104.4625
1909.70353	5095.8625
1912.81953	5087.9625
1915.93349	5089.6625
1919.04543	5098.3625
1922.15534	5082.9625
1925.26322	5056.9625
1928.36908	5042.7625
1931.47292	5025.8625
1934.57473	4978.8625
1937.67453	4948.9625
1940.77232	4942.8625
1943.86808	4916.1625
1946.96184	4899.2625
1950.05358	4868.4625
1953.14331	4838.8625
1956.23103	4841.9625
1959.31675	4795.1625
1962.40046	4791.3625
1965.48217	4773.4625
1968.56188	4756.4625
1971.63959	4747.6625
1974.7153	4720.9625
1977.78901	4724.3625
1980.86073	4698.4625
1983.93046	4689.9625
1986.99819	4651.5625
1990.06394	4642.1625
1993.1277	4627.7625
1996.18947	4600.2625
1999.24925	4589.7625
2002.30706	4566.5625
2005.36288	4562.9625
2008.41672	4537.1625
2011.46859	4526.6625
2014.51848	4508.9625
2017.56639	4490.2625
2020.61233	4470.3625
2023.6563	4476.2625
2026.6983	4455.0625
2029.73833	4445.1625
2032.7764	4422.7625
2035.8125	4429.3625
2038.84664	4405.1625
2041.87881	4410.6625
2044.90903	4385.5625
2047.93729	4386.8625
2050.96359	4374.4625
2053.98794	4376.6625
2057.01034	4368.4625
2060.03078	4360.3625
2063.04927	4349.2625
2066.06582	4345.0625
2069.08042	4327.8625
2072.09307	4336.1625
2075.10378	4315.9625
2078.11255	4303.0625
2081.11938	4321.0625
2084.12426	4317.6625
2087.12722	4301.5625
2090.12824	4305.0625
2093.12732	4297.5625
2096.12447	4302.7625
2099.11969	4301.3625
2102.11299	4288.7625
2105.10435	4311.6625
2108.09379	4294.8625
2111.08131	4296.2625
2114.0669	4304.9625
2117.05057	4310.3625
2120.03233	4322.7625
2123.01216	4325.4625
2125.99008	4322.3625
2128.96609	4309.4625
2131.94018	4309.6625
2134.91236	4331.8625
2137.88263	4309.6625
2140.851	4324.8625
2143.81746	4324.8625
2146.78201	4313.3625
2149.74466	4299.5625
2152.7054	4306.2625
2155.66425	4302.1625
2158.6212	4292.4625
2161.57625	4286.0625
2164.52941	4279.6625
2167.48067	4289.1625
2170.43004	4287.5625
2173.37752	4289.5625
2176.32311	4265.2625
2179.26681	4268.5625
2182.20863	4288.0625
2185.14856	4270.4625
2188.08661	4267.7625
2191.02278	4252.4625
2193.95707	4251.6625
2196.88948	4245.3625
2199.82001	4231.8625
2202.74867	4223.8625
2205.67545	4220.4625
2208.60037	4211.9625
2211.52341	4206.1625
2214.44458	4207.8625
2217.36388	4200.5625
2220.28132	4177.6625
2223.1969	4175.8625
2226.11061	4158.8625
2229.02246	4151.4625
2231.93245	4132.7625
2234.84058	4131.8625
2237.74686	4128.2625
2240.65128	4121.6625
2243.55385	4108.7625
2246.45456	4102.8625
2249.35343	4094.4625
2252.25044	4115.8625
2255.14561	4105.8625
2258.03893	4090.5625
2260.93041	4101.1625
2263.82004	4085.2625
2266.70783	4083.8625
2269.59378	4070.9625
2272.4779	4049.5625
2275.36017	4023.0625
2278.24061	4024.1625
2281.11922	4007.3625
2283.996	4008.8625
2286.87094	3981.7625
2289.74405	3972.9625
2292.61534	3975.0625
2295.4848	3959.0625
2298.35243	3960.9625
2301.21824	3954.8625
2304.08223	3944.9625
2306.94439	3959.4625
2309.80474	3927.8625
2312.66327	3947.3625
2315.51999	3930.1625
2318.37489	3938.9625
2321.22797	3930.5625
2324.07925	3917.1625
2326.92871	3928.5625
2329.77637	3915.6625
2332.62222	3905.7625
2335.46626	3911.4625
2338.3085	3907.0625
2341.14893	3885.1625
2343.98756	3903.6625
2346.8244	3892.4625
2349.65943	3899.3625
2352.49267	3904.8625
2355.32411	3901.5625
2358.15376	3920.9625
2360.98161	3927.9625
2363.80768	3904.9625
2366.63195	3916.7625
2369.45444	3929.3625
2372.27514	3929.7625
2375.09405	3915.9625
2377.91118	3916.4625
2380.72652	3896.1625
2383.54009	3869.5625
2386.35187	3860.5625
2389.16188	3844.0625
2391.97011	3824.2625
2394.77657	3812.7625
2397.58125	3797.5625
2400.38416	3782.1625
2403.18529	3790.5625
2405.98466	3767.9625
2408.78226	3760.2625
2411.57809	3747.8625
2414.37216	3758.8625
2417.16446	3746.5625
2419.955	3752.2625
2422.74378	3751.8625
2425.5308	3735.6625
2428.31606	3726.7625
2431.09956	3736.7625
2433.88131	3725.3625
2436.6613	3735.7625
2439.43954	3708.7625
2442.21603	3722.4625
2444.99077	3718.1625
2447.76377	3728.8625
2450.53501	3734.5625
2453.30451	3720.2625
2456.07226	3726.2625
2458.83827	3712.2625
2461.60254	3717.3625
2464.36507	3727.1625
2467.12586	3709.3625
2469.88492	3725.1625
2472.64224	3713.5625
2475.39782	3724.2625
2478.15167	3732.9625
2480.90379	3717.9625
2483.65417	3739.1625
2486.40283	3737.3625
2489.14976	3747.5625
2491.89497	3748.9625
2494.63845	3758.7625
2497.3802	3758.6625
2500.12024	3746.9625
2502.85855	3737.7625
2505.59514	3727.5625
2508.33002	3721.0625
2511.06318	3699.6625
2513.79462	3677.4625
2516.52435	3657.2625
2519.25237	3654.3625
2521.97867	3630.6625
2524.70327	3634.2625
2527.42616	3628.4625
2530.14734	3612.2625
2532.86681	3603.7625
2535.58458	3617.2625
2538.30065	3603.1625
2541.01501	3598.0625
2543.72768	3598.3625
2546.43864	3585.9625
2549.14791	3595.9625
2551.85548	3593.6625
2554.56136	3588.0625
2557.26554	3582.1625
2559.96803	3572.2625
2562.66883	3576.3625
2565.36794	3567.1625
2568.06536	3554.7625
2570.7611	3556.3625
2573.45514	3546.7625
2576.14751	3550.9625
2578.83819	3539.0625
2581.52719	3536.1625
2584.21451	3531.8625
2586.90015	3534.4625
2589.58411	3517.8625
2592.2664	3523.3625
2594.94701	3512.9625
2597.62594	3497.1625
2600.30321	3499.2625
2602.9788	3496.0625
2605.65273	3500.9625
2608.32498	3492.7625
2610.99557	3496.6625
2613.66449	3495.2625
2616.33175	3485.2625
2618.99734	3488.3625
2621.66128	3487.1625
2624.32355	3475.0625
2626.98416	3479.1625
2629.64311	3477.5625
2632.30041	3468.6625
2634.95605	3456.2625
2637.61004	3455.0625
2640.26238	3441.9625
2642.91306	3436.1625
2645.56209	3440.4625
2648.20948	3449.5625
2650.85521	3434.6625
2653.4993	3433.6625
2656.14175	3442.0625
2658.78255	3445.0625
2661.42171	3427.5625
2664.05923	3442.2625
2666.6951	3452.2625
2669.32934	3459.0625
2671.96194	3466.9625
2674.59291	3469.5625
2677.22224	3452.1625
2679.84993	3462.2625
2682.476	3455.9625
2685.10043	3459.7625
2687.72324	3459.7625
2690.34441	3446.7625
2692.96396	3451.6625
2695.58188	3480.6625
2698.19818	3453.1625
2700.81285	3472.9625
2703.4259	3483.1625
2706.03733	3509.8625
2708.64714	3486.7625
2711.25533	3490.7625
2713.86191	3468.6625
2716.46687	3493.9625
2719.07021	3484.9625
2721.67194	3490.7625
2724.27206	3488.2625
2726.87057	3501.2625
2729.46747	3492.7625
2732.06276	3485.1625
2734.65644	3492.3625
2737.24852	3474.2625
2739.83899	3455.2625
2742.42786	3457.7625
2745.01513	3453.1625
2747.60079	3447.6625
2750.18486	3435.1625
2752.76733	3432.5625
2755.3482	3422.8625
2757.92747	3429.7625
2760.50515	3418.9625
2763.08123	3414.1625
2765.65573	3417.4625
2768.22863	3397.0625
2770.79994	3398.1625
2773.36967	3408.3625
2775.9378	3392.1625
2778.50435	3395.9625
2781.06932	3393.5625
2783.6327	3399.8625
2786.1945	3402.0625
2788.75471	3393.5625
2791.31335	3396.6625
2793.87041	3389.7625
2796.42589	3388.0625
2798.97979	3398.5625
2801.53212	3390.0625
2804.08288	3401.0625
2806.63206	3398.6625
2809.17967	3392.2625
2811.72571	3398.2625
2814.27018	3398.1625
2816.81308	3418.0625
2819.35442	3396.6625
2821.89419	3415.9625
2824.43239	3420.7625
2826.96904	3421.8625
2829.50412	3443.4625
2832.03763	3444.7625
2834.56959	3466.4625
2837.1	3459.9625
2839.62884	3498.8625
2842.15613	3545.2625
2844.68186	3629.0625
2847.20604	3707.5625
2849.72867	3777.5625
2852.24974	3806.4625
2854.76927	3821.4625
2857.28724	3810.5625
2859.80367	3795.6625
2862.31855	3761.1625
2864.83189	3752.7625
2867.34368	3722.1625
2869.85393	3721.3625
2872.36264	3711.9625
2874.8698	3722.0625
2877.37543	3726.1625
2879.87952	3711.9625
2882.38207	3721.6625
2884.88308	3708.5625
2887.38256	3693.1625
2889.88051	3695.0625
2892.37692	3702.8625
2894.8718	3699.7625
2897.36515	3703.5625
2899.85698	3716.5625
2902.34727	3729.5625
2904.83604	3726.3625
2907.32328	3729.0625
2909.809	3724.3625
2912.29319	3717.6625
2914.77587	3710.4625
2917.25702	3706.4625
2919.73665	3702.1625
2922.21476	3682.0625
2924.69136	3696.7625
2927.16644	3686.3625
2929.64	3688.0625
2932.11205	3676.3625
2934.58258	3664.7625
2937.05161	3645.7625
2939.51912	3618.6625
2941.98513	3571.4625
2944.44962	3527.8625
2946.91261	3465.5625
2949.37409	3454.1625
2951.83407	3410.3625
2954.29254	3396.5625
2956.74951	3374.5625
2959.20498	3364.8625
2961.65895	3346.8625
2964.11142	3339.9625
2966.56239	3302.6625
2969.01186	3297.7625
2971.45984	3274.3625
2973.90632	3280.2625
2976.35131	3241.5625
2978.7948	3240.8625
2981.23681	3215.0625
2983.67732	3204.6625
2986.11635	3198.5625
2988.55388	3200.9625
2990.98993	3185.1625
2993.4245	3174.0625
2995.85758	3148.0625
2998.28917	3155.6625
3000.71928	3157.6625
3003.14791	3142.2625
3005.57506	3136.0625
3008.00073	3145.9625
3010.42493	3117.3625
3012.84764	3119.6625
3015.26888	3122.4625
3017.68865	3119.4625
3020.10694	3126.7625
3022.52376	3115.1625
3024.9391	3095.6625
3027.35298	3098.3625
3029.76539	3090.1625
3032.17632	3089.4625
3034.5858	3083.1625
3036.9938	3078.0625
3039.40034	3076.7625
3041.80542	3057.0625
3044.20903	3060.7625
3046.61118	3067.3625
3049.01187	3065.2625
3051.4111	3056.8625
3053.80888	3047.9625
3056.20519	3060.3625
3058.60005	3049.4625
3060.99345	3047.1625
3063.3854	3043.7625
3065.7759	3046.1625
3068.16494	3023.6625
3070.55254	3027.1625
3072.93868	3030.1625
3075.32338	3013.8625
3077.70662	3011.7625
3080.08842	2988.3625
3082.46878	2985.5625
3084.84769	2969.4625
3087.22515	2974.9625
3089.60118	2969.8625
3091.97576	2954.2625
3094.3489	2960.2625
3096.72061	2956.9625
3099.09087	2965.7625
3101.4597	2961.3625
3103.82709	2952.1625
3106.19305	2958.3625
3108.55757	2955.0625
