Data from AgNPs_FTO_APTES_UA_2uM_CRN_200uM_R6G_10uM_NaF_0.1M_Addition_RamanShift__26__16-49-15-383.txt Node

Date: Wed Feb 02 16:49:15 GMT 2022
User: TCL
Spectrometer: QEP01345
Trigger mode: 4
Integration Time (sec): 7.000000E0
Scans to average: 10
Electric dark correction enabled: true
Nonlinearity correction enabled: false
Boxcar width: 0
XAxis mode: Raman Shifts
Number of Pixels in Spectrum: 1044
>>>>>Begin Spectral Data<<<<<
46.04893	0.4
50.45542	-0.2
54.85868	-1.4
59.25871	-0.9
63.6555	73.2
68.04907	75.6
72.43941	81.7
76.82654	89.5
81.21044	88.7
85.59113	94.1
89.96862	97.8
94.34289	99.8
98.71396	101.8
103.08183	109.6
107.4465	111.7
111.80798	110
116.16626	114.8
120.52136	118.4
124.87327	124.8
129.222	125.9
133.56755	137.3
137.90993	147
142.24913	161.9
146.58517	183
150.91804	212
155.24774	253.5
159.57429	316.2
163.89768	405.7
168.21792	537.1
172.53501	724.9
176.84895	1013.4
181.15975	1416.2
185.46741	1975
189.77193	2713.7
194.07331	3646.6
198.37157	4711.2
202.6667	5812
206.9587	6899.5
211.24758	8015
215.53334	9129.4
219.81599	10350.3
224.09553	11728.3
228.37195	13226.3
232.64527	14865.5
236.91549	16506.4
241.18261	18078.1
245.44663	19494.3
249.70755	20700.7
253.96539	21709.5
258.22014	22653.4
262.4718	23455.4
266.72039	24122.1
270.96589	24500.7
275.20832	24702.4
279.44768	24608.3
283.68397	24497.9
287.91719	24441.8
292.14735	24601.8
296.37445	24972.5
300.59849	25478.1
304.81948	25907.7
309.03742	26047.9
313.25231	25648.3
317.46415	24546.6
321.67296	23038.4
325.87872	21782.4
330.08145	21135.8
334.28114	21069.8
338.47781	21282.9
342.67145	21661.3
346.86207	22288.3
351.04966	23233.3
355.23424	24276.4
359.4158	25000.6
363.59435	25405.6
367.76989	25507.7
371.94243	25529.5
376.11196	25523.1
380.27849	25530.4
384.44203	25445.5
388.60257	25343.8
392.76012	25374.6
396.91468	25585.8
401.06626	26100.1
405.21485	26496
409.36047	26218.7
413.50311	25236.7
417.64277	24332.7
421.77947	23907.8
425.9132	23795.8
430.04396	23963.8
434.17176	24180.6
438.2966	24459.4
442.41849	25068.9
446.53742	25846.7
450.6534	26706
454.76644	27357
458.87653	27546
462.98368	27381.7
467.08789	27129.3
471.18916	26876.4
475.2875	26681.7
479.38291	26576.1
483.4754	26335.9
487.56496	25844.1
491.6516	25168.2
495.73531	24628.9
499.81612	24294.1
503.89401	24350.7
507.96899	24400.3
512.04106	24453.2
516.11023	24463.5
520.1765	24380.7
524.23987	24167
528.30034	23835.4
532.35792	23463.8
536.41261	23095.9
540.46441	22758.2
544.51333	22711.4
548.55936	23060.8
552.60252	23693.3
556.64279	24512.3
560.6802	25111.2
564.71473	25643.2
568.7464	26610.9
572.7752	27454.2
576.80114	27188.3
580.82422	26504.1
584.84444	26156.1
588.86181	26198.3
592.87633	26528.9
596.888	26815.1
600.89682	27178.7
604.9028	28800.8
608.90594	33604
612.90624	39921
616.90371	38198.4
620.89834	28580.2
624.89015	24010.8
628.87913	23297.1
632.86528	23442.8
636.84862	23621.4
640.82913	23174.2
644.80683	22288.2
648.78172	21577.4
652.75379	21484.6
656.72306	22000.2
660.68952	22768.8
664.65319	22740.5
668.61405	21959.4
672.57211	21598.5
676.52738	21581.9
680.47986	21590.9
684.42955	21471.5
688.37646	21408.8
692.32058	21472.7
696.26192	21682.2
700.20048	21966.1
704.13626	22176
708.06928	22170.1
711.99952	21992.4
715.927	21879
719.85171	21914.2
723.77365	21876.3
727.69284	21660.3
731.60928	21466.9
735.52295	21334.4
739.43388	21396.3
743.34206	21430.6
747.24749	21536.6
751.15017	21716
755.05012	22203.1
758.94733	23180.3
762.8418	25168.8
766.73354	28429.9
770.62254	31790.4
774.50882	33157.8
778.39237	31426.8
782.27321	27748.5
786.15132	24452.5
790.02671	22485.6
793.89938	21595.1
797.76935	21212.6
801.6366	21011
805.50115	20979.8
809.36299	20888.2
813.22213	20850.3
817.07857	20863.2
820.93231	20841.8
824.78336	20831.8
828.63172	20810
832.47738	20782.7
836.32036	20748.2
840.16066	20687.5
843.99827	20568.3
847.8332	20468.9
851.66546	20364.4
855.49504	20372.6
859.32195	20321.9
863.1462	20223
866.96777	20144.3
870.78668	20116.1
874.60293	20131.1
878.41652	20179.1
882.22745	20202.2
886.03573	20292.9
889.84136	20251.2
893.64433	20153.2
897.44466	20051
901.24235	20019.7
905.0374	19942.2
908.8298	19933.7
912.61957	19945.5
916.40671	20129.1
920.19121	20384.8
923.97308	20567.9
927.75233	20617.8
931.52895	20660.2
935.30295	20402.6
939.07433	19901.9
942.84309	19405.2
946.60924	19144.7
950.37278	18997.1
954.13371	18881.3
957.89203	18903.4
961.64774	18888.5
965.40086	18857.9
969.15137	18745.6
972.89929	18635.2
976.64461	18549.6
980.38733	18519.1
984.12747	18564.7
987.86502	18654.3
991.59999	18837.1
995.33237	19099.4
999.06217	19605
1002.78939	20216.6
1006.51404	20693.6
1010.23611	21027.6
1013.95561	21271.8
1017.67255	21203.3
1021.38692	20910.5
1025.09872	20575.6
1028.80796	20418.4
1032.51465	20538.2
1036.21877	20757
1039.92035	20886.5
1043.61937	20862.4
1047.31584	20716.2
1051.00976	20505.5
1054.70114	20456.5
1058.38998	20505.4
1062.07627	20703.2
1065.76003	20955.2
1069.44126	21092.2
1073.11995	21309.1
1076.79611	21452.3
1080.46974	21629.5
1084.14085	21980.5
1087.80943	22398.1
1091.47549	22696.8
1095.13903	22599.3
1098.80005	22124.7
1102.45857	21546.3
1106.11456	21162.6
1109.76805	21138
1113.41903	21405.4
1117.06751	21884.6
1120.71348	22503.3
1124.35696	23093.8
1127.99793	23712.8
1131.63641	23793.5
1135.2724	23129.6
1138.90589	22474.3
1142.5369	22080.5
1146.16542	22021.6
1149.79145	22107.1
1153.415	22307.7
1157.03607	22676.5
1160.65467	23265.4
1164.27079	24232.3
1167.88443	25639.9
1171.49561	27631.5
1175.10432	30649.6
1178.71056	34485.6
1182.31434	37625.1
1185.91565	38843.1
1189.51451	38482.7
1193.11091	37128.7
1196.70485	35259.6
1200.29634	33521
1203.88538	32049
1207.47197	30571.9
1211.05612	29381.4
1214.63782	28510.8
1218.21708	27968.8
1221.79391	27601.9
1225.36829	27324.8
1228.94024	26925.6
1232.50976	26527.1
1236.07685	26301.2
1239.6415	26189.2
1243.20374	26298.4
1246.76355	26417.2
1250.32093	26851.4
1253.8759	27496.2
1257.42845	28349.1
1260.97859	29204.6
1264.52631	29927.6
1268.07163	30707.3
1271.61453	31578.9
1275.15503	32402.7
1278.69312	33031.3
1282.22882	33544.7
1285.76211	34389.7
1289.29301	35601
1292.82151	37278.8
1296.34761	39284.6
1299.87133	41708.5
1303.39266	44721.3
1306.9116	48615.8
1310.42815	52881.5
1313.94233	55896.8
1317.45412	56316.2
1320.96354	54874
1324.47058	53006.3
1327.97525	51109.4
1331.47754	49768.1
1334.97747	49207.9
1338.47502	49213.7
1341.97022	49434.5
1345.46305	49281.9
1348.95352	48857.3
1352.44163	48809.1
1355.92738	50101.4
1359.41078	53629
1362.89183	57770
1366.37053	56878.1
1369.84688	50338.6
1373.32088	43144
1376.79254	38706.3
1380.26186	36934.2
1383.72883	36559.3
1387.19347	36695.7
1390.65578	36694.6
1394.11575	36893.2
1397.57339	37629.9
1401.0287	38753.1
1404.48168	39865.9
1407.93234	40417.5
1411.38068	40089.5
1414.82669	38839.6
1418.27039	36855.6
1421.71177	34700.8
1425.15083	32859.2
1428.58758	31673.8
1432.02203	31356.1
1435.45416	31722.7
1438.88399	32336.7
1442.31151	33005.5
1445.73673	33717.5
1449.15965	34569.7
1452.58027	35335.1
1455.9986	35814.5
1459.41463	36232.8
1462.82837	36883.5
1466.23982	37568
1469.64898	38100
1473.05586	38271.7
1476.46045	38029.6
1479.86276	37685.8
1483.26279	37381.2
1486.66054	37233.5
1490.05602	37370
1493.44922	37719.3
1496.84016	38351.3
1500.22882	39701.1
1503.61521	41987.2
1506.99934	45151.3
1510.38121	48544.3
1513.76081	50723.9
1517.13816	49721.6
1520.51324	45959
1523.88607	41889.7
1527.25665	39116.6
1530.62498	37699.9
1533.99105	36885
1537.35488	36496.6
1540.71647	36059.8
1544.07581	35571.1
1547.4329	35028.3
1550.78776	34461
1554.14038	34122.4
1557.49077	34150.5
1560.83892	34446
1564.18484	34908.1
1567.52853	35333.6
1570.86999	35678
1574.20922	36157.4
1577.54624	36413.3
1580.88103	36076.3
1584.2136	35604.6
1587.54395	35981
1590.87208	37420.8
1594.19801	39678.6
1597.52172	42139.2
1600.84321	43005.8
1604.16251	41291.1
1607.47959	38031.6
1610.79447	34448.3
1614.10715	30990.9
1617.41763	28265.5
1620.7259	26408.1
1624.03199	25398.5
1627.33587	25269.7
1630.63757	25923.2
1633.93707	27472.1
1637.23439	30026.4
1640.52951	33670.1
1643.82246	38118.2
1647.11321	42452.8
1650.40179	44754.1
1653.68819	43088.4
1656.97241	37575
1660.25446	31322.6
1663.53433	26452.8
1666.81203	23365.3
1670.08756	21481.3
1673.36092	20267
1676.63211	19552.3
1679.90115	19047.7
1683.16801	18681
1686.43272	18415.4
1689.69527	18187.4
1692.95567	18033.2
1696.2139	17957.5
1699.46999	17873.4
1702.72392	17773.6
1705.97571	17718.8
1709.22535	17633.2
1712.47284	17592.6
1715.71819	17542.3
1718.96139	17534.1
1722.20246	17503.4
1725.44139	17412
1728.67818	17329.3
1731.91284	17191.2
1735.14537	17111.8
1738.37576	17011.8
1741.60403	16942.8
1744.83017	16876.7
1748.05418	16860
1751.27607	16823.5
1754.49584	16829.1
1757.71349	16791.2
1760.92903	16782.3
1764.14244	16739
1767.35375	16705.9
1770.56294	16647.1
1773.77002	16603
1776.97499	16562.1
1780.17785	16523.8
1783.37861	16467.4
1786.57727	16469.5
1789.77382	16390.1
1792.96828	16363.4
1796.16064	16348.8
1799.3509	16315
1802.53907	16280.2
1805.72514	16242.2
1808.90913	16178.1
1812.09102	16160
1815.27083	16119
1818.44856	16125.5
1821.6242	16068.8
1824.79776	16034.1
1827.96924	16047.4
1831.13864	15992.7
1834.30597	16018
1837.47122	15987.3
1840.6344	16000.1
1843.7955	15977.8
1846.95454	15971.4
1850.11151	15999.6
1853.26642	15993.3
1856.41926	15980.9
1859.57004	15990.5
1862.71876	15934.2
1865.86542	15952.1
1869.01003	15960
1872.15258	15950.8
1875.29308	15964.9
1878.43152	15949.9
1881.56792	15950.7
1884.70227	15936.9
1887.83457	15950.7
1890.96482	15938.6
1894.09304	15947
1897.21921	15964.6
1900.34335	15945.9
1903.46544	15940.4
1906.58551	15956
1909.70353	15933.6
1912.81953	15930.5
1915.93349	15900.9
1919.04543	15872.9
1922.15534	15825.9
1925.26322	15822.5
1928.36908	15771.9
1931.47292	15715.7
1934.57473	15630
1937.67453	15553.5
1940.77232	15521.4
1943.86808	15446.1
1946.96184	15404.9
1950.05358	15371.5
1953.14331	15290.4
1956.23103	15259
1959.31675	15203.9
1962.40046	15153.2
1965.48217	15086.7
1968.56188	15053
1971.63959	14983.9
1974.7153	14972.3
1977.78901	14905
1980.86073	14861.7
1983.93046	14812.7
1986.99819	14749.3
1990.06394	14712.2
1993.1277	14643.8
1996.18947	14606.8
1999.24925	14546.7
2002.30706	14516.2
2005.36288	14471.2
2008.41672	14440.3
2011.46859	14384.9
2014.51848	14319.5
2017.56639	14300.8
2020.61233	14248.9
2023.6563	14272
2026.6983	14232.9
2029.73833	14178.7
2032.7764	14166.3
2035.8125	14161.2
2038.84664	14106.1
2041.87881	14097.8
2044.90903	14090.5
2047.93729	14084.9
2050.96359	14045.7
2053.98794	13998.7
2057.01034	14016.5
2060.03078	13989.1
2063.04927	13956.3
2066.06582	13977.7
2069.08042	13902.6
2072.09307	13931.6
2075.10378	13895.9
2078.11255	13898.3
2081.11938	13883.5
2084.12426	13862.9
2087.12722	13833.9
2090.12824	13851.6
2093.12732	13858.4
2096.12447	13872.8
2099.11969	13876.7
2102.11299	13861
2105.10435	13880.1
2108.09379	13859.5
2111.08131	13887.1
2114.0669	13887
2117.05057	13891.3
2120.03233	13899.5
2123.01216	13927.7
2125.99008	13890.5
2128.96609	13901.5
2131.94018	13880.6
2134.91236	13920.9
2137.88263	13897.1
2140.851	13910.7
2143.81746	13955.6
2146.78201	13935.6
2149.74466	13940.4
2152.7054	13947.3
2155.66425	13911
2158.6212	13908.2
2161.57625	13892.6
2164.52941	13919.7
2167.48067	13864.2
2170.43004	13884.9
2173.37752	13882.1
2176.32311	13848.6
2179.26681	13869.8
2182.20863	13840.8
2185.14856	13873.9
2188.08661	13857.6
2191.02278	13859.6
2193.95707	13856.3
2196.88948	13834.3
2199.82001	13799.9
2202.74867	13807.6
2205.67545	13813
2208.60037	13788.3
2211.52341	13755.2
2214.44458	13725.5
2217.36388	13718.4
2220.28132	13706.6
2223.1969	13670.6
2226.11061	13662.8
2229.02246	13609.4
2231.93245	13587
2234.84058	13564.1
2237.74686	13548.4
2240.65128	13516.5
2243.55385	13525
2246.45456	13514.3
2249.35343	13458.7
2252.25044	13464.9
2255.14561	13421.6
2258.03893	13446.1
2260.93041	13409.9
2263.82004	13392.6
2266.70783	13354.2
2269.59378	13330.3
2272.4779	13281.4
2275.36017	13238.9
2278.24061	13212.2
2281.11922	13208.2
2283.996	13148.7
2286.87094	13157
2289.74405	13123.6
2292.61534	13087.9
2295.4848	13081.8
2298.35243	13084.5
2301.21824	13067.7
2304.08223	13041.1
2306.94439	13060.2
2309.80474	13071
2312.66327	13062.8
2315.51999	13066
2318.37489	13046.1
2321.22797	13018.3
2324.07925	13021.3
2326.92871	13001.4
2329.77637	12991.3
2332.62222	12992.2
2335.46626	12962.4
2338.3085	12955.1
2341.14893	12980.8
2343.98756	12948.8
2346.8244	12991.6
2349.65943	12958.8
2352.49267	12965.3
2355.32411	13023
2358.15376	12964.6
2360.98161	12987.4
2363.80768	12987.8
2366.63195	12952
2369.45444	12945.6
2372.27514	12935.6
2375.09405	12931.4
2377.91118	12902.4
2380.72652	12860.7
2383.54009	12842.1
2386.35187	12813.5
2389.16188	12735.1
2391.97011	12719.6
2394.77657	12704.4
2397.58125	12673.6
2400.38416	12654.3
2403.18529	12611
2405.98466	12602
2408.78226	12562
2411.57809	12574.9
2414.37216	12563.1
2417.16446	12511.1
2419.955	12509
2422.74378	12525.3
2425.5308	12515.6
2428.31606	12515
2431.09956	12506.9
2433.88131	12470.1
2436.6613	12479.6
2439.43954	12487.7
2442.21603	12445.1
2444.99077	12469
2447.76377	12472.5
2450.53501	12465.7
2453.30451	12470.1
2456.07226	12438
2458.83827	12452.2
2461.60254	12441.1
2464.36507	12454.3
2467.12586	12443.4
2469.88492	12446.4
2472.64224	12441.8
2475.39782	12481.3
2478.15167	12450.3
2480.90379	12462.6
2483.65417	12478.6
2486.40283	12503.3
2489.14976	12520
2491.89497	12523.4
2494.63845	12513.4
2497.3802	12492.2
2500.12024	12500
2502.85855	12502.1
2505.59514	12495.8
2508.33002	12462.4
2511.06318	12430.5
2513.79462	12416.9
2516.52435	12406.2
2519.25237	12376.8
2521.97867	12361.8
2524.70327	12345
2527.42616	12326.1
2530.14734	12315.1
2532.86681	12286.9
2535.58458	12300.5
2538.30065	12302.3
2541.01501	12266.9
2543.72768	12263.4
2546.43864	12278.7
2549.14791	12242.3
2551.85548	12254.5
2554.56136	12240.2
2557.26554	12229
2559.96803	12217.6
2562.66883	12201.1
2565.36794	12205.2
2568.06536	12215.4
2570.7611	12181.9
2573.45514	12171.5
2576.14751	12159.9
2578.83819	12117.2
2581.52719	12139
2584.21451	12103.9
2586.90015	12130.3
2589.58411	12100.3
2592.2664	12092.4
2594.94701	12122.8
2597.62594	12098.2
2600.30321	12086.1
2602.9788	12090.9
2605.65273	12073.4
2608.32498	12067.8
2610.99557	12067
2613.66449	12099.7
2616.33175	12079
2618.99734	12074.8
2621.66128	12090.5
2624.32355	12092.5
2626.98416	12054.3
2629.64311	12070.4
2632.30041	12092.8
2634.95605	12065.7
2637.61004	12061.8
2640.26238	12023
2642.91306	12050.9
2645.56209	12033.5
2648.20948	12002.9
2650.85521	12028.3
2653.4993	11998.7
2656.14175	12010.2
2658.78255	12041.4
2661.42171	12045.7
2664.05923	12089.8
2666.6951	12056.7
2669.32934	12094
2671.96194	12067.9
2674.59291	12100.3
2677.22224	12073.3
2679.84993	12092.2
2682.476	12091
2685.10043	12068.6
2687.72324	12024.7
2690.34441	12025.6
2692.96396	12028.1
2695.58188	12056
2698.19818	12041.2
2700.81285	12056.8
2703.4259	12078.1
2706.03733	12103
2708.64714	12092.1
2711.25533	12091.9
2713.86191	12081.5
2716.46687	12113.6
2719.07021	12105.7
2721.67194	12138.3
2724.27206	12091.1
2726.87057	12126.1
2729.46747	12132.1
2732.06276	12140.6
2734.65644	12103.1
2737.24852	12111.5
2739.83899	12097.6
2742.42786	12096.3
2745.01513	12078.7
2747.60079	12059.1
2750.18486	12085.6
2752.76733	12063.3
2755.3482	12085
2757.92747	12072
2760.50515	12094.7
2763.08123	12101.4
2765.65573	12077.1
2768.22863	12055.8
2770.79994	12054.5
2773.36967	12031.5
2775.9378	12055
2778.50435	12047.3
2781.06932	12018.9
2783.6327	12025.2
2786.1945	12023
2788.75471	12025.6
2791.31335	12020
2793.87041	11991.3
2796.42589	11991.6
2798.97979	11976.1
2801.53212	11951.5
2804.08288	11930.9
2806.63206	11926.6
2809.17967	11902.9
2811.72571	11876.4
2814.27018	11877.3
2816.81308	11860.6
2819.35442	11847.4
2821.89419	11824.7
2824.43239	11836.4
2826.96904	11834.4
2829.50412	11832.6
2832.03763	11820.9
2834.56959	11819.9
2837.1	11780.9
2839.62884	11784.3
2842.15613	11794.9
2844.68186	11862.2
2847.20604	11923.2
2849.72867	11935.6
2852.24974	11927.8
2854.76927	11906.8
2857.28724	11893.4
2859.80367	11891.7
2862.31855	11858
2864.83189	11864.6
2867.34368	11845.1
2869.85393	11864.3
2872.36264	11869.3
2874.8698	11852.9
2877.37543	11871.6
2879.87952	11826.9
2882.38207	11856.1
2884.88308	11848.8
2887.38256	11859.6
2889.88051	11835.7
2892.37692	11850
2894.8718	11845
2897.36515	11847
2899.85698	11862.4
2902.34727	11890.4
2904.83604	11878.9
2907.32328	11920.3
2909.809	11908.5
2912.29319	11910.7
2914.77587	11903.1
2917.25702	11894.7
2919.73665	11860.8
2922.21476	11872.3
2924.69136	11870.7
2927.16644	11878.7
2929.64	11873.3
2932.11205	11878.5
2934.58258	11846.5
2937.05161	11835.5
2939.51912	11799.3
2941.98513	11768.9
2944.44962	11736.5
2946.91261	11650.1
2949.37409	11643.2
2951.83407	11633.3
2954.29254	11611.6
2956.74951	11593.5
2959.20498	11580.3
2961.65895	11556
2964.11142	11520.5
2966.56239	11502.7
2969.01186	11500.7
2971.45984	11440.8
2973.90632	11436.1
2976.35131	11395.7
2978.7948	11365.6
2981.23681	11332.2
2983.67732	11297.1
2986.11635	11282.9
2988.55388	11274.3
2990.98993	11253.8
2993.4245	11203.6
2995.85758	11185.7
2998.28917	11185.6
3000.71928	11153
3003.14791	11118.2
3005.57506	11123.5
3008.00073	11103
3010.42493	11070
3012.84764	11043.5
3015.26888	11033.1
3017.68865	11019.3
3020.10694	11011.8
3022.52376	10969
3024.9391	10923.6
3027.35298	10918.8
3029.76539	10920.2
3032.17632	10901.7
3034.5858	10873.8
3036.9938	10896.7
3039.40034	10894.4
3041.80542	10858.1
3044.20903	10819.9
3046.61118	10793.3
3049.01187	10782.5
3051.4111	10772.4
3053.80888	10739.3
3056.20519	10703.1
3058.60005	10665.2
3060.99345	10661.2
3063.3854	10643.8
3065.7759	10605.8
3068.16494	10584.6
3070.55254	10512.6
3072.93868	10523.8
3075.32338	10476.4
3077.70662	10468.2
3080.08842	10410.8
3082.46878	10393
3084.84769	10364.9
3087.22515	10370.6
3089.60118	10372
3091.97576	10354.3
3094.3489	10354.6
3096.72061	10339.5
3099.09087	10355.1
3101.4597	10307.7
3103.82709	10328.9
3106.19305	10274.4
3108.55757	10259.2
3110.92066	10247.2
3113.28232	10216.5
3115.64255	10199.4
3118.00134	10123.8
3120.35871	10133.7
3122.71466	10086.4
3125.06917	10097.5
3127.42226	10105.3
3129.77393	10084.4
3132.12417	10063.6
3134.47299	10072.4
3136.82039	10050.5
3139.16636	10058.7
3141.51092	10049.4
3143.85406	10046
3146.19579	10054.1
3148.53609	10050.8
3150.87499	10068.5
3153.21246	10042.1
3155.54853	10052.8
3157.88318	10032.9
3160.21642	10028.1
3162.54826	10022.7
3164.87868	10044.2
3167.2077	10031.1
3169.5353	10006.9
3171.86151	10016.3
3174.18631	10002.6
3176.5097	9984.5
3178.83169	9970.5
3181.15228	9983.9
3183.47147	9956.2
3185.78926	9969
3188.10565	9947
3190.42065	9953.2
3192.73424	9921.6
3195.04645	9922.3
3197.35725	9916.6
3199.66667	9924.7
3201.97469	9942.5
3204.28132	9925.7
3206.58656	9941.7
3208.8904	9927.6
3211.19287	9947.8
3213.49394	9929.1
3215.79363	9937.3
3218.09193	9935.8
3220.38884	9934.9
3222.68438	9907.1
3224.97853	9928
3227.2713	9908.9
3229.56269	9868.4
3231.8527	9899.3
3234.14133	9872
3236.42858	9827.6
3238.71446	9837.4
3240.99896	9821.2
3243.28209	9826.7
3245.56384	9818.3
3247.84423	9821.4
3250.12324	9803.8
3252.40088	9787.4
3254.67715	9766.2
3256.95205	9772.3
3259.22558	9765.8
3261.49775	9710.2
3263.76855	9730.9
3266.03799	9698.9
3268.30606	9639.1
3270.57277	9653.2
3272.83812	9617.3
3275.10211	9620.1
3277.36474	9604.4
3279.62601	9607.2
3281.88593	9606.1
3284.14448	9605.1
3286.40168	9605.5
3288.65753	9588.3
3290.91202	9547.6
3293.16516	9536.9
3295.41695	9501.8
3297.66738	9479.2
3299.91647	9404
3302.16421	9346.7
3304.4106	9310.8
3306.65564	9265.8
3308.89933	9194.8
3311.14169	9156.6
3313.38269	9100.6
3315.62236	9031.9
3317.86068	8961.3
3320.09766	8842
3322.3333	8769.2
3324.5676	8768.7
3326.80056	8661
3329.03219	8598.2
3331.26248	1.9
3333.49143	0.4
3335.71905	0.1
