Data from AgNPs_FTO_APTES_UA_2uM_CRN_2uM_R6G_10uM_NaF_0.1M_Addition_RamanShift__16__12-17-25-065.txt Node

Date: Wed Feb 02 12:17:25 GMT 2022
User: TCL
Spectrometer: QEP01345
Trigger mode: 4
Integration Time (sec): 7.000000E0
Scans to average: 10
Electric dark correction enabled: true
Nonlinearity correction enabled: false
Boxcar width: 0
XAxis mode: Raman Shifts
Number of Pixels in Spectrum: 1044
>>>>>Begin Spectral Data<<<<<
46.04893	0.0375
50.45542	0.7375
54.85868	-0.9625
59.25871	-0.4625
63.6555	101.2375
68.04907	105.8375
72.43941	111.2375
76.82654	116.7375
81.21044	118.1375
85.59113	127.9375
89.96862	127.7375
94.34289	135.9375
98.71396	139.0375
103.08183	142.6375
107.4465	150.7375
111.80798	151.2375
116.16626	154.6375
120.52136	165.5375
124.87327	171.8375
129.222	181.7375
133.56755	198.6375
137.90993	211.4375
142.24913	238.5375
146.58517	276.7375
150.91804	316.4375
155.24774	386.9375
159.57429	486.3375
163.89768	628.7375
168.21792	845.3375
172.53501	1158.0375
176.84895	1616.9375
181.15975	2286.0375
185.46741	3210.1375
189.77193	4422.5375
194.07331	5923.3375
198.37157	7625.6375
202.6667	9374.3375
206.9587	11118.8375
211.24758	12823.5375
215.53334	14637.7375
219.81599	16526.6375
224.09553	18652.1375
228.37195	20981.0375
232.64527	23522.8375
236.91549	26162.2375
241.18261	28781.6375
245.44663	31135.9375
249.70755	33233.9375
253.96539	35020.6375
258.22014	36575.9375
262.4718	37937.3375
266.72039	38902.1375
270.96589	39394.9375
275.20832	39511.3375
279.44768	39323.2375
283.68397	39054.2375
287.91719	38855.3375
292.14735	38746.6375
296.37445	38829.1375
300.59849	39095.5375
304.81948	39370.4375
309.03742	39309.9375
313.25231	38854.4375
317.46415	37794.8375
321.67296	36326.9375
325.87872	35122.1375
330.08145	34389.1375
334.28114	34226.6375
338.47781	34428.2375
342.67145	34843.2375
346.86207	35490.0375
351.04966	36287.0375
355.23424	37189.6375
359.4158	37925.4375
363.59435	38382.9375
367.76989	38722.7375
371.94243	38945.0375
376.11196	39072.8375
380.27849	39140.3375
384.44203	39317.5375
388.60257	39595.1375
392.76012	39981.8375
396.91468	40568.6375
401.06626	41294.5375
405.21485	41664.6375
409.36047	41427.8375
413.50311	40578.4375
417.64277	39913.3375
421.77947	39694.7375
425.9132	39762.4375
430.04396	40031.5375
434.17176	40081.7375
438.2966	40272.2375
442.41849	40867.4375
446.53742	41916.5375
450.6534	43145.8375
454.76644	44122.6375
458.87653	44570.7375
462.98368	44448.4375
467.08789	44005.9375
471.18916	43361.1375
475.2875	42922.1375
479.38291	42791.4375
483.4754	42687.2375
487.56496	42245.5375
491.6516	41597.5375
495.73531	40831.6375
499.81612	40407.7375
503.89401	40532.1375
507.96899	40592.0375
512.04106	40438.7375
516.11023	40120.4375
520.1765	39685.4375
524.23987	39211.7375
528.30034	38694.2375
532.35792	38189.7375
536.41261	37569.9375
540.46441	37045.9375
544.51333	37029.8375
548.55936	37672.3375
552.60252	38782.3375
556.64279	39908.8375
560.6802	40657.6375
564.71473	41165.6375
568.7464	41959.3375
572.7752	43152.8375
576.80114	44090.2375
580.82422	44966.3375
584.84444	45754.0375
588.86181	46269.0375
592.87633	46581.9375
596.888	46527.6375
600.89682	46285.6375
604.9028	47851.9375
608.90594	52780.9375
612.90624	57909.6375
616.90371	54116.5375
620.89834	43865.9375
624.89015	39286.6375
628.87913	38825.7375
632.86528	39028.2375
636.84862	38855.7375
640.82913	38233.2375
644.80683	36964.5375
648.78172	35980.8375
652.75379	35758.5375
656.72306	36173.7375
660.68952	36943.9375
664.65319	36795.1375
668.61405	35963.5375
672.57211	35678.8375
676.52738	35707.2375
680.47986	35656.5375
684.42955	35423.4375
688.37646	35293.3375
692.32058	35479.5375
696.26192	35948.4375
700.20048	36489.7375
704.13626	36891.0375
708.06928	36810.2375
711.99952	36542.8375
715.927	36407.5375
719.85171	36500.5375
723.77365	36356.4375
727.69284	35856.6375
731.60928	35334.4375
735.52295	35136.4375
739.43388	35175.7375
743.34206	35293.6375
747.24749	35480.2375
751.15017	35912.0375
755.05012	36687.2375
758.94733	38020.4375
762.8418	40446.4375
766.73354	44155.5375
770.62254	47813.2375
774.50882	48520.5375
778.39237	45984.8375
782.27321	41979.0375
786.15132	38724.7375
790.02671	36746.4375
793.89938	35762.0375
797.76935	35421.6375
801.6366	35258.2375
805.50115	35195.6375
809.36299	34916.5375
813.22213	34541.1375
817.07857	34379.5375
820.93231	34285.4375
824.78336	34027.1375
828.63172	33854.1375
832.47738	33743.2375
836.32036	33832.8375
840.16066	33962.6375
843.99827	34045.9375
847.8332	33962.3375
851.66546	33749.0375
855.49504	33712.8375
859.32195	33722.9375
863.1462	33566.5375
866.96777	33439.7375
870.78668	33347.2375
874.60293	33342.6375
878.41652	33319.3375
882.22745	33468.7375
886.03573	33639.5375
889.84136	33642.6375
893.64433	33493.0375
897.44466	33303.3375
901.24235	33160.6375
905.0374	33042.8375
908.8298	32910.5375
912.61957	32939.3375
916.40671	33308.6375
920.19121	33837.2375
923.97308	34382.7375
927.75233	34573.5375
931.52895	34356.1375
935.30295	33851.0375
939.07433	33014.1375
942.84309	32284.5375
946.60924	31971.0375
950.37278	31888.4375
954.13371	31811.1375
957.89203	31704.0375
961.64774	31689.1375
965.40086	31661.6375
969.15137	31571.2375
972.89929	31391.1375
976.64461	31267.0375
980.38733	31239.4375
984.12747	31369.6375
987.86502	31657.7375
991.59999	32147.0375
995.33237	32804.1375
999.06217	33833.9375
1002.78939	35048.1375
1006.51404	35800.1375
1010.23611	36303.3375
1013.95561	36614.8375
1017.67255	36577.9375
1021.38692	36091.5375
1025.09872	35581.6375
1028.80796	35627.0375
1032.51465	36537.3375
1036.21877	37526.3375
1039.92035	37848.0375
1043.61937	37314.5375
1047.31584	36430.7375
1051.00976	35514.7375
1054.70114	35104.5375
1058.38998	35107.7375
1062.07627	35390.5375
1065.76003	35785.6375
1069.44126	36133.3375
1073.11995	36732.0375
1076.79611	37337.5375
1080.46974	37730.5375
1084.14085	38077.1375
1087.80943	38672.5375
1091.47549	39124.3375
1095.13903	39269.3375
1098.80005	38672.7375
1102.45857	37636.4375
1106.11456	36668.6375
1109.76805	36166.9375
1113.41903	36181.4375
1117.06751	36281.2375
1120.71348	36745.8375
1124.35696	37245.4375
1127.99793	37802.3375
1131.63641	38163.5375
1135.2724	37950.0375
1138.90589	37551.8375
1142.5369	37492.2375
1146.16542	37579.9375
1149.79145	37802.1375
1153.415	38181.4375
1157.03607	38813.0375
1160.65467	40000.0375
1164.27079	41927.5375
1167.88443	44635.1375
1171.49561	47964.9375
1175.10432	52231.7375
1178.71056	57587.0375
1182.31434	62721.2375
1185.91565	65505.4375
1189.51451	65652.0375
1193.11091	63674.0375
1196.70485	60501.4375
1200.29634	57243.3375
1203.88538	54838.7375
1207.47197	53084.6375
1211.05612	51927.2375
1214.63782	50840.8375
1218.21708	49912.2375
1221.79391	49019.4375
1225.36829	48374.1375
1228.94024	47696.8375
1232.50976	46742.7375
1236.07685	46041.6375
1239.6415	45575.9375
1243.20374	45423.8375
1246.76355	45725.8375
1250.32093	46512.3375
1253.8759	47679.1375
1257.42845	49271.5375
1260.97859	51061.7375
1264.52631	52874.6375
1268.07163	54715.6375
1271.61453	56658.7375
1275.15503	58654.1375
1278.69312	60617.3375
1282.22882	62372.6375
1285.76211	64075.9375
1289.29301	66079.8375
1292.82151	68659.9375
1296.34761	72018.6375
1299.87133	76279.1375
1303.39266	81318.0375
1306.9116	86830.6375
1310.42815	92057.0375
1313.94233	95172.0375
1317.45412	95424.2375
1320.96354	93897.4375
1324.47058	92234.8375
1327.97525	90644.8375
1331.47754	89513.3375
1334.97747	88684.2375
1338.47502	88047.3375
1341.97022	87030.2375
1345.46305	85493.7375
1348.95352	83478.0375
1352.44163	81893.4375
1355.92738	82415.7375
1359.41078	85433.5375
1362.89183	88910.1375
1366.37053	87902.4375
1369.84688	80935.7375
1373.32088	72113.9375
1376.79254	65731.3375
1380.26186	63210.0375
1383.72883	62802.7375
1387.19347	62791.0375
1390.65578	62385.6375
1394.11575	62359.0375
1397.57339	63023.3375
1401.0287	64328.3375
1404.48168	65420.4375
1407.93234	65540.0375
1411.38068	64323.1375
1414.82669	62065.6375
1418.27039	59212.1375
1421.71177	56246.6375
1425.15083	53936.1375
1428.58758	52799.0375
1432.02203	52905.9375
1435.45416	54252.5375
1438.88399	56064.3375
1442.31151	57590.8375
1445.73673	58845.3375
1449.15965	59807.1375
1452.58027	60556.5375
1455.9986	60901.7375
1459.41463	61411.7375
1462.82837	62479.6375
1466.23982	63636.9375
1469.64898	64673.1375
1473.05586	65186.0375
1476.46045	65014.2375
1479.86276	64272.6375
1483.26279	63375.2375
1486.66054	62826.3375
1490.05602	62876.7375
1493.44922	63487.3375
1496.84016	64376.8375
1500.22882	65852.2375
1503.61521	68286.2375
1506.99934	71328.8375
1510.38121	74014.7375
1513.76081	74984.0375
1517.13816	73232.4375
1520.51324	69864.3375
1523.88607	66629.9375
1527.25665	64664.9375
1530.62498	63813.8375
1533.99105	63378.3375
1537.35488	62806.1375
1540.71647	61901.3375
1544.07581	60524.4375
1547.4329	59092.1375
1550.78776	57704.3375
1554.14038	56919.3375
1557.49077	56584.6375
1560.83892	56376.2375
1564.18484	56460.5375
1567.52853	56703.1375
1570.86999	57235.4375
1574.20922	58139.2375
1577.54624	58947.8375
1580.88103	59179.1375
1584.2136	59528.9375
1587.54395	61317.6375
1590.87208	64425.6375
1594.19801	68518.7375
1597.52172	72610.9375
1600.84321	73614.8375
1604.16251	69864.0375
1607.47959	63771.8375
1610.79447	57491.8375
1614.10715	51874.0375
1617.41763	47331.6375
1620.7259	44200.7375
1624.03199	42613.9375
1627.33587	42612.1375
1630.63757	44118.6375
1633.93707	47383.5375
1637.23439	52648.8375
1640.52951	59980.9375
1643.82246	68158.4375
1647.11321	74195.4375
1650.40179	75266.8375
1653.68819	70011.8375
1656.97241	60520.9375
1660.25446	50816.9375
1663.53433	43374.3375
1666.81203	38475.3375
1670.08756	35447.9375
1673.36092	33636.2375
1676.63211	32346.4375
1679.90115	31465.9375
1683.16801	30824.2375
1686.43272	30400.0375
1689.69527	30083.8375
1692.95567	29789.1375
1696.2139	29606.5375
1699.46999	29465.3375
1702.72392	29294.3375
1705.97571	29215.4375
1709.22535	29107.0375
1712.47284	29042.2375
1715.71819	29029.7375
1718.96139	28866.7375
1722.20246	28770.0375
1725.44139	28600.9375
1728.67818	28438.7375
1731.91284	28253.5375
1735.14537	28090.9375
1738.37576	27922.5375
1741.60403	27838.9375
1744.83017	27703.5375
1748.05418	27620.0375
1751.27607	27584.7375
1754.49584	27505.1375
1757.71349	27490.7375
1760.92903	27425.5375
1764.14244	27456.9375
1767.35375	27374.1375
1770.56294	27296.8375
1773.77002	27268.0375
1776.97499	27215.9375
1780.17785	27151.7375
1783.37861	27102.9375
1786.57727	27003.0375
1789.77382	26991.5375
1792.96828	26913.5375
1796.16064	26896.7375
1799.3509	26840.0375
1802.53907	26760.2375
1805.72514	26667.0375
1808.90913	26582.6375
1812.09102	26507.3375
1815.27083	26537.2375
1818.44856	26499.6375
1821.6242	26478.8375
1824.79776	26451.8375
1827.96924	26458.7375
1831.13864	26473.7375
1834.30597	26485.9375
1837.47122	26484.5375
1840.6344	26480.4375
1843.7955	26473.9375
1846.95454	26503.7375
1850.11151	26462.5375
1853.26642	26483.1375
1856.41926	26497.6375
1859.57004	26459.6375
1862.71876	26460.2375
1865.86542	26460.3375
1869.01003	26471.4375
1872.15258	26456.3375
1875.29308	26406.5375
1878.43152	26397.2375
1881.56792	26370.4375
1884.70227	26379.0375
1887.83457	26378.2375
1890.96482	26388.7375
1894.09304	26331.3375
1897.21921	26314.7375
1900.34335	26283.4375
1903.46544	26246.9375
1906.58551	26226.8375
1909.70353	26165.6375
1912.81953	26091.9375
1915.93349	26023.5375
1919.04543	25942.1375
1922.15534	25896.6375
1925.26322	25747.2375
1928.36908	25668.4375
1931.47292	25605.4375
1934.57473	25494.3375
1937.67453	25406.3375
1940.77232	25288.9375
1943.86808	25197.6375
1946.96184	25121.8375
1950.05358	25051.3375
1953.14331	24902.8375
1956.23103	24840.0375
1959.31675	24762.3375
1962.40046	24727.3375
1965.48217	24602.0375
1968.56188	24555.0375
1971.63959	24476.7375
1974.7153	24428.1375
1977.78901	24348.9375
1980.86073	24254.7375
1983.93046	24172.7375
1986.99819	24103.2375
1990.06394	24014.1375
1993.1277	23889.9375
1996.18947	23856.0375
1999.24925	23807.4375
2002.30706	23728.3375
2005.36288	23662.1375
2008.41672	23633.8375
2011.46859	23511.3375
2014.51848	23477.3375
2017.56639	23420.4375
2020.61233	23328.4375
2023.6563	23330.6375
2026.6983	23305.2375
2029.73833	23254.2375
2032.7764	23186.2375
2035.8125	23165.2375
2038.84664	23135.0375
2041.87881	23114.7375
2044.90903	23078.2375
2047.93729	23058.8375
2050.96359	23026.2375
2053.98794	22972.7375
2057.01034	22928.7375
2060.03078	22954.9375
2063.04927	22877.2375
2066.06582	22894.7375
2069.08042	22835.4375
2072.09307	22831.2375
2075.10378	22828.9375
2078.11255	22838.3375
2081.11938	22817.8375
2084.12426	22757.9375
2087.12722	22745.4375
2090.12824	22726.4375
2093.12732	22718.3375
2096.12447	22746.5375
2099.11969	22705.9375
2102.11299	22776.2375
2105.10435	22758.7375
2108.09379	22746.1375
2111.08131	22790.5375
2114.0669	22758.0375
2117.05057	22801.6375
2120.03233	22845.3375
2123.01216	22857.2375
2125.99008	22820.5375
2128.96609	22846.5375
2131.94018	22851.5375
2134.91236	22820.1375
2137.88263	22838.4375
2140.851	22852.2375
2143.81746	22899.2375
2146.78201	22874.7375
2149.74466	22901.1375
2152.7054	22900.8375
2155.66425	22882.3375
2158.6212	22891.4375
2161.57625	22918.6375
2164.52941	22892.0375
2167.48067	22878.4375
2170.43004	22869.9375
2173.37752	22847.5375
2176.32311	22835.9375
2179.26681	22879.4375
2182.20863	22891.7375
2185.14856	22930.2375
2188.08661	22939.8375
2191.02278	22911.1375
2193.95707	22847.0375
2196.88948	22890.0375
2199.82001	22858.0375
2202.74867	22850.4375
2205.67545	22845.4375
2208.60037	22815.1375
2211.52341	22831.6375
2214.44458	22788.2375
2217.36388	22754.1375
2220.28132	22739.6375
2223.1969	22684.2375
2226.11061	22650.3375
2229.02246	22579.9375
2231.93245	22573.0375
2234.84058	22555.9375
2237.74686	22496.9375
2240.65128	22403.6375
2243.55385	22381.1375
2246.45456	22355.1375
2249.35343	22309.3375
2252.25044	22280.6375
2255.14561	22222.4375
2258.03893	22237.9375
2260.93041	22166.4375
2263.82004	22106.2375
2266.70783	22057.1375
2269.59378	21990.1375
2272.4779	21963.4375
2275.36017	21892.5375
2278.24061	21874.3375
2281.11922	21846.8375
2283.996	21815.2375
2286.87094	21803.7375
2289.74405	21748.7375
2292.61534	21725.1375
2295.4848	21690.4375
2298.35243	21709.3375
2301.21824	21656.0375
2304.08223	21714.9375
2306.94439	21741.8375
2309.80474	21762.1375
2312.66327	21766.0375
2315.51999	21741.0375
2318.37489	21735.5375
2321.22797	21758.1375
2324.07925	21700.9375
2326.92871	21702.9375
2329.77637	21658.6375
2332.62222	21676.6375
2335.46626	21653.1375
2338.3085	21627.2375
2341.14893	21674.9375
2343.98756	21664.5375
2346.8244	21674.7375
2349.65943	21691.4375
2352.49267	21692.8375
2355.32411	21717.5375
2358.15376	21697.7375
2360.98161	21694.3375
2363.80768	21655.8375
2366.63195	21588.0375
2369.45444	21540.5375
2372.27514	21518.4375
2375.09405	21460.6375
2377.91118	21420.9375
2380.72652	21344.9375
2383.54009	21304.0375
2386.35187	21322.0375
2389.16188	21261.6375
2391.97011	21257.7375
2394.77657	21178.7375
2397.58125	21124.6375
2400.38416	21104.1375
2403.18529	21091.5375
2405.98466	21050.1375
2408.78226	21060.4375
2411.57809	21028.0375
2414.37216	21011.7375
2417.16446	21006.3375
2419.955	20944.1375
2422.74378	20906.6375
2425.5308	20867.3375
2428.31606	20910.1375
2431.09956	20891.6375
2433.88131	20851.0375
2436.6613	20849.5375
2439.43954	20901.0375
2442.21603	20864.5375
2444.99077	20897.9375
2447.76377	20863.1375
2450.53501	20856.1375
2453.30451	20871.3375
2456.07226	20836.2375
2458.83827	20865.7375
2461.60254	20838.9375
2464.36507	20875.8375
2467.12586	20832.3375
2469.88492	20840.1375
2472.64224	20851.9375
2475.39782	20855.5375
2478.15167	20921.4375
2480.90379	20867.1375
2483.65417	20878.7375
2486.40283	20905.0375
2489.14976	20888.3375
2491.89497	20905.7375
2494.63845	20962.8375
2497.3802	20936.8375
2500.12024	20902.9375
2502.85855	20931.4375
2505.59514	20880.0375
2508.33002	20893.0375
2511.06318	20851.3375
2513.79462	20842.8375
2516.52435	20839.6375
2519.25237	20787.1375
2521.97867	20767.5375
2524.70327	20781.3375
2527.42616	20754.4375
2530.14734	20782.5375
2532.86681	20713.0375
2535.58458	20681.2375
2538.30065	20695.0375
2541.01501	20694.5375
2543.72768	20681.6375
2546.43864	20652.7375
2549.14791	20648.0375
2551.85548	20661.2375
2554.56136	20626.8375
2557.26554	20631.5375
2559.96803	20593.1375
2562.66883	20577.4375
2565.36794	20571.8375
2568.06536	20559.7375
2570.7611	20543.2375
2573.45514	20537.2375
2576.14751	20530.8375
2578.83819	20506.0375
2581.52719	20531.5375
2584.21451	20485.5375
2586.90015	20470.4375
2589.58411	20476.1375
2592.2664	20464.8375
2594.94701	20431.5375
2597.62594	20414.5375
2600.30321	20404.5375
2602.9788	20428.0375
2605.65273	20379.6375
2608.32498	20378.0375
2610.99557	20368.5375
2613.66449	20402.0375
2616.33175	20399.1375
2618.99734	20433.4375
2621.66128	20422.4375
2624.32355	20408.3375
2626.98416	20406.4375
2629.64311	20360.9375
2632.30041	20416.3375
2634.95605	20388.5375
2637.61004	20358.3375
2640.26238	20409.5375
2642.91306	20355.9375
2645.56209	20351.3375
2648.20948	20329.1375
2650.85521	20335.5375
2653.4993	20337.9375
2656.14175	20294.1375
2658.78255	20317.5375
2661.42171	20262.7375
2664.05923	20362.0375
2666.6951	20385.9375
2669.32934	20348.8375
2671.96194	20394.9375
2674.59291	20361.8375
2677.22224	20335.0375
2679.84993	20304.2375
2682.476	20333.2375
2685.10043	20319.3375
2687.72324	20292.3375
2690.34441	20295.4375
2692.96396	20295.4375
2695.58188	20317.4375
2698.19818	20271.5375
2700.81285	20305.1375
2703.4259	20299.5375
2706.03733	20296.1375
2708.64714	20260.4375
2711.25533	20292.8375
2713.86191	20314.1375
2716.46687	20375.1375
2719.07021	20398.9375
2721.67194	20405.4375
2724.27206	20376.9375
2726.87057	20403.0375
2729.46747	20401.3375
2732.06276	20428.4375
2734.65644	20386.5375
2737.24852	20444.5375
2739.83899	20380.0375
2742.42786	20404.0375
2745.01513	20376.9375
2747.60079	20348.5375
2750.18486	20308.5375
2752.76733	20333.9375
2755.3482	20320.1375
2757.92747	20265.2375
2760.50515	20290.0375
2763.08123	20331.0375
2765.65573	20263.7375
2768.22863	20321.1375
2770.79994	20280.7375
2773.36967	20310.0375
2775.9378	20293.3375
2778.50435	20253.7375
2781.06932	20252.4375
2783.6327	20257.1375
2786.1945	20231.3375
2788.75471	20215.3375
2791.31335	20168.3375
2793.87041	20165.9375
2796.42589	20111.5375
2798.97979	20138.5375
2801.53212	20100.0375
2804.08288	20073.4375
2806.63206	20026.5375
2809.17967	19967.1375
2811.72571	19907.0375
2814.27018	19896.5375
2816.81308	19880.7375
2819.35442	19838.0375
2821.89419	19806.3375
2824.43239	19801.1375
2826.96904	19848.3375
2829.50412	19816.4375
2832.03763	19772.0375
2834.56959	19788.7375
2837.1	19756.4375
2839.62884	19775.8375
2842.15613	19782.5375
2844.68186	19800.9375
2847.20604	19812.1375
2849.72867	19839.4375
2852.24974	19825.1375
2854.76927	19794.1375
2857.28724	19820.5375
2859.80367	19771.0375
2862.31855	19768.8375
2864.83189	19725.7375
2867.34368	19715.0375
2869.85393	19719.5375
2872.36264	19723.3375
2874.8698	19743.9375
2877.37543	19763.1375
2879.87952	19786.3375
2882.38207	19773.4375
2884.88308	19757.4375
2887.38256	19720.2375
2889.88051	19731.2375
2892.37692	19819.0375
2894.8718	19811.6375
2897.36515	19813.6375
2899.85698	19840.8375
2902.34727	19862.5375
2904.83604	19841.2375
2907.32328	19930.6375
2909.809	19872.2375
2912.29319	19914.1375
2914.77587	19908.7375
2917.25702	19927.3375
2919.73665	19904.7375
2922.21476	19888.9375
2924.69136	19908.0375
2927.16644	19898.2375
2929.64	19838.9375
2932.11205	19798.3375
2934.58258	19752.1375
2937.05161	19699.7375
2939.51912	19698.5375
2941.98513	19672.3375
2944.44962	19622.0375
2946.91261	19562.4375
2949.37409	19585.6375
2951.83407	19575.6375
2954.29254	19532.5375
2956.74951	19494.5375
2959.20498	19481.2375
2961.65895	19441.8375
2964.11142	19447.5375
2966.56239	19386.3375
2969.01186	19360.8375
2971.45984	19270.2375
2973.90632	19276.4375
2976.35131	19253.7375
2978.7948	19216.0375
2981.23681	19158.8375
2983.67732	19052.8375
2986.11635	19004.1375
2988.55388	18946.0375
2990.98993	18944.7375
2993.4245	18880.3375
2995.85758	18840.4375
2998.28917	18830.9375
3000.71928	18788.6375
3003.14791	18736.3375
3005.57506	18714.0375
3008.00073	18654.9375
3010.42493	18627.3375
3012.84764	18604.8375
3015.26888	18605.5375
3017.68865	18544.2375
3020.10694	18533.7375
3022.52376	18483.8375
