Data from AgNPs_FTO_APTES_UA_2uM_CRN_20uM_R6G_10uM_NaF_0.1M_Addition_RamanShift__20__14-21-05-210.txt Node

Date: Wed Feb 02 14:21:05 GMT 2022
User: TCL
Spectrometer: QEP01345
Trigger mode: 4
Integration Time (sec): 7.000000E0
Scans to average: 10
Electric dark correction enabled: true
Nonlinearity correction enabled: false
Boxcar width: 0
XAxis mode: Raman Shifts
Number of Pixels in Spectrum: 1044
>>>>>Begin Spectral Data<<<<<
46.04893	0.1125
50.45542	0.5125
54.85868	-0.5875
59.25871	-0.4875
63.6555	102.4125
68.04907	108.6125
72.43941	115.2125
76.82654	121.6125
81.21044	123.5125
85.59113	128.7125
89.96862	133.5125
94.34289	138.0125
98.71396	142.4125
103.08183	146.7125
107.4465	155.0125
111.80798	156.9125
116.16626	159.6125
120.52136	165.5125
124.87327	172.7125
129.222	179.8125
133.56755	191.7125
137.90993	212.0125
142.24913	229.3125
146.58517	253.1125
150.91804	294.2125
155.24774	357.5125
159.57429	438.9125
163.89768	563.8125
168.21792	743.3125
172.53501	1021.1125
176.84895	1420.5125
181.15975	1995.1125
185.46741	2803.1125
189.77193	3843.5125
194.07331	5124.3125
198.37157	6597.2125
202.6667	8158.7125
206.9587	9688.9125
211.24758	11186.1125
215.53334	12685.1125
219.81599	14334.8125
224.09553	16134.9125
228.37195	18093.5125
232.64527	20301.6125
236.91549	22538.2125
241.18261	24832.3125
245.44663	26904.5125
249.70755	28769.4125
253.96539	30409.2125
258.22014	31859.6125
262.4718	33039.3125
266.72039	33984.0125
270.96589	34582.1125
275.20832	34871.9125
279.44768	34867.3125
283.68397	34703.8125
287.91719	34705.7125
292.14735	34776.6125
296.37445	34965.9125
300.59849	35099.2125
304.81948	35124.1125
309.03742	34920.0125
313.25231	34309.9125
317.46415	33185.6125
321.67296	31881.7125
325.87872	30799.4125
330.08145	30289.2125
334.28114	30181.4125
338.47781	30421.5125
342.67145	30798.6125
346.86207	31348.0125
351.04966	32043.9125
355.23424	32830.4125
359.4158	33504.1125
363.59435	33870.3125
367.76989	34076.1125
371.94243	34311.7125
376.11196	34424.3125
380.27849	34583.6125
384.44203	34676.4125
388.60257	34863.2125
392.76012	35204.8125
396.91468	35702.5125
401.06626	36344.3125
405.21485	36750.0125
409.36047	36555.8125
413.50311	35887.3125
417.64277	35307.1125
421.77947	35195.0125
425.9132	35304.3125
430.04396	35579.5125
434.17176	35808.7125
438.2966	36092.0125
442.41849	36765.4125
446.53742	37792.2125
450.6534	38906.2125
454.76644	39850.8125
458.87653	40238.2125
462.98368	40138.5125
467.08789	39748.9125
471.18916	39271.4125
475.2875	38882.5125
479.38291	38729.5125
483.4754	38458.0125
487.56496	37894.1125
491.6516	37135.8125
495.73531	36407.8125
499.81612	36018.6125
503.89401	36119.4125
507.96899	36212.0125
512.04106	36045.3125
516.11023	35745.2125
520.1765	35367.5125
524.23987	35032.1125
528.30034	34629.5125
532.35792	34165.4125
536.41261	33707.3125
540.46441	33380.6125
544.51333	33474.0125
548.55936	34027.4125
552.60252	34970.0125
556.64279	35970.4125
560.6802	36639.2125
564.71473	37041.5125
568.7464	37783.6125
572.7752	38725.8125
576.80114	39329.3125
580.82422	39663.7125
584.84444	39901.6125
588.86181	40091.9125
592.87633	40522.3125
596.888	40920.5125
600.89682	41277.6125
604.9028	42785.7125
608.90594	46849.2125
612.90624	51004.2125
616.90371	47679.6125
620.89834	39113.0125
624.89015	35328.5125
628.87913	34915.2125
632.86528	35067.6125
636.84862	35002.8125
640.82913	34391.8125
644.80683	33264.0125
648.78172	32412.3125
652.75379	32154.6125
656.72306	32521.5125
660.68952	33219.9125
664.65319	33127.7125
668.61405	32469.3125
672.57211	32218.6125
676.52738	32275.5125
680.47986	32260.0125
684.42955	32114.4125
688.37646	32039.8125
692.32058	32099.3125
696.26192	32465.3125
700.20048	32851.5125
704.13626	33133.0125
708.06928	33096.9125
711.99952	32832.8125
715.927	32720.1125
719.85171	32684.7125
723.77365	32564.4125
727.69284	32170.7125
731.60928	31882.9125
735.52295	31702.7125
739.43388	31751.2125
743.34206	31850.7125
747.24749	32062.4125
751.15017	32473.3125
755.05012	33126.6125
758.94733	34369.0125
762.8418	36622.5125
766.73354	39874.0125
770.62254	42987.9125
774.50882	43593.4125
778.39237	41200.7125
782.27321	37537.3125
786.15132	34578.0125
790.02671	32864.1125
793.89938	32029.0125
797.76935	31679.1125
801.6366	31597.0125
805.50115	31523.8125
809.36299	31297.7125
813.22213	31062.7125
817.07857	30993.3125
820.93231	30952.0125
824.78336	30824.5125
828.63172	30748.5125
832.47738	30694.8125
836.32036	30677.7125
840.16066	30737.8125
843.99827	30789.5125
847.8332	30729.3125
851.66546	30534.0125
855.49504	30499.4125
859.32195	30395.6125
863.1462	30292.9125
866.96777	30154.1125
870.78668	30073.2125
874.60293	30044.5125
878.41652	30044.8125
882.22745	30142.2125
886.03573	30191.4125
889.84136	30218.9125
893.64433	30076.3125
897.44466	29923.7125
901.24235	29843.5125
905.0374	29756.0125
908.8298	29713.3125
912.61957	29776.0125
916.40671	30104.5125
920.19121	30646.8125
923.97308	30975.9125
927.75233	31070.0125
931.52895	30784.3125
935.30295	30383.8125
939.07433	29723.3125
942.84309	29180.8125
946.60924	28950.2125
950.37278	28814.8125
954.13371	28735.7125
957.89203	28625.5125
961.64774	28585.1125
965.40086	28596.0125
969.15137	28447.5125
972.89929	28247.5125
976.64461	28140.2125
980.38733	28055.9125
984.12747	28208.6125
987.86502	28484.4125
991.59999	28910.2125
995.33237	29480.6125
999.06217	30468.0125
1002.78939	31613.6125
1006.51404	32436.0125
1010.23611	32851.7125
1013.95561	33163.3125
1017.67255	33235.0125
1021.38692	32850.7125
1025.09872	32496.3125
1028.80796	32644.4125
1032.51465	33477.5125
1036.21877	34253.9125
1039.92035	34431.5125
1043.61937	33965.2125
1047.31584	33122.9125
1051.00976	32221.2125
1054.70114	31730.6125
1058.38998	31766.9125
1062.07627	32028.6125
1065.76003	32411.8125
1069.44126	32680.9125
1073.11995	33028.7125
1076.79611	33378.5125
1080.46974	33523.8125
1084.14085	33764.4125
1087.80943	34195.3125
1091.47549	34613.2125
1095.13903	34557.9125
1098.80005	34034.3125
1102.45857	33321.0125
1106.11456	32620.7125
1109.76805	32370.4125
1113.41903	32510.1125
1117.06751	32886.4125
1120.71348	33403.9125
1124.35696	33803.7125
1127.99793	34304.1125
1131.63641	34516.4125
1135.2724	34333.1125
1138.90589	34018.8125
1142.5369	33845.6125
1146.16542	33891.1125
1149.79145	34111.4125
1153.415	34558.9125
1157.03607	35189.2125
1160.65467	36196.5125
1164.27079	37860.0125
1167.88443	40103.1125
1171.49561	42965.3125
1175.10432	46781.6125
1178.71056	51474.8125
1182.31434	55873.7125
1185.91565	58499.2125
1189.51451	59029.1125
1193.11091	57715.9125
1196.70485	55202.5125
1200.29634	52368.1125
1203.88538	49900.2125
1207.47197	48045.9125
1211.05612	46649.0125
1214.63782	45704.6125
1218.21708	44938.6125
1221.79391	44462.5125
1225.36829	44112.2125
1228.94024	43701.1125
1232.50976	43045.7125
1236.07685	42533.0125
1239.6415	42255.6125
1243.20374	42094.9125
1246.76355	42280.8125
1250.32093	42892.1125
1253.8759	43977.7125
1257.42845	45360.9125
1260.97859	46774.9125
1264.52631	48134.6125
1268.07163	49529.5125
1271.61453	51023.1125
1275.15503	52799.5125
1278.69312	54539.4125
1282.22882	56030.8125
1285.76211	57496.0125
1289.29301	59185.7125
1292.82151	61325.7125
1296.34761	64244.4125
1299.87133	67875.9125
1303.39266	72143.5125
1306.9116	76945.2125
1310.42815	81677.7125
1313.94233	84966.6125
1317.45412	85706.4125
1320.96354	84749.0125
1324.47058	83399.9125
1327.97525	82091.1125
1331.47754	81270.2125
1334.97747	80827.5125
1338.47502	81006.9125
1341.97022	81088.8125
1345.46305	80167.4125
1348.95352	78239.1125
1352.44163	76273.8125
1355.92738	75845.4125
1359.41078	77746.2125
1362.89183	80157.8125
1366.37053	78747.6125
1369.84688	72475.7125
1373.32088	65163.3125
1376.79254	60013.2125
1380.26186	58017.1125
1383.72883	57714.3125
1387.19347	57805.6125
1390.65578	57740.1125
1394.11575	58143.0125
1397.57339	59178.0125
1401.0287	60734.8125
1404.48168	62286.8125
1407.93234	62943.9125
1411.38068	62519.2125
1414.82669	60615.6125
1418.27039	57733.8125
1421.71177	54697.9125
1425.15083	52131.6125
1428.58758	50614.1125
1432.02203	50376.2125
1435.45416	51106.6125
1438.88399	52423.7125
1442.31151	53785.1125
1445.73673	54886.5125
1449.15965	56045.6125
1452.58027	57005.7125
1455.9986	57664.8125
1459.41463	58275.7125
1462.82837	59165.3125
1466.23982	60224.7125
1469.64898	61118.6125
1473.05586	61469.5125
1476.46045	61293.2125
1479.86276	60723.2125
1483.26279	60072.4125
1486.66054	59582.1125
1490.05602	59616.2125
1493.44922	59885.5125
1496.84016	60226.5125
1500.22882	60961.8125
1503.61521	62535.3125
1506.99934	64619.7125
1510.38121	66883.5125
1513.76081	67906.1125
1517.13816	66847.1125
1520.51324	64248.1125
1523.88607	61679.8125
1527.25665	60158.7125
1530.62498	59323.2125
1533.99105	58884.1125
1537.35488	58632.2125
1540.71647	58125.6125
1544.07581	57178.4125
1547.4329	56097.8125
1550.78776	55073.7125
1554.14038	54407.1125
1557.49077	54191.0125
1560.83892	54145.3125
1564.18484	54092.6125
1567.52853	53969.9125
1570.86999	53930.9125
1574.20922	54435.6125
1577.54624	55094.5125
1580.88103	55405.7125
1584.2136	55865.2125
1587.54395	57456.0125
1590.87208	60398.4125
1594.19801	64148.8125
1597.52172	67751.1125
1600.84321	68833.0125
1604.16251	66045.1125
1607.47959	60918.6125
1610.79447	55368.5125
1614.10715	50194.1125
1617.41763	45865.8125
1620.7259	42749.3125
1624.03199	41100.9125
1627.33587	40938.6125
1630.63757	42143.9125
1633.93707	44966.3125
1637.23439	49464.1125
1640.52951	55364.9125
1643.82246	61701.2125
1647.11321	66229.2125
1650.40179	66946.5125
1653.68819	62686.4125
1656.97241	54917.8125
1660.25446	46736.2125
1663.53433	40393.6125
1666.81203	36139.7125
1670.08756	33460.4125
1673.36092	31722.9125
1676.63211	30571.6125
1679.90115	29782.9125
1683.16801	29222.4125
1686.43272	28766.4125
1689.69527	28418.4125
1692.95567	28167.7125
1696.2139	28031.2125
1699.46999	27875.5125
1702.72392	27754.4125
1705.97571	27681.3125
1709.22535	27578.0125
1712.47284	27486.9125
1715.71819	27445.0125
1718.96139	27378.4125
1722.20246	27247.7125
1725.44139	27174.8125
1728.67818	26958.1125
1731.91284	26771.6125
1735.14537	26630.3125
1738.37576	26524.7125
1741.60403	26419.3125
1744.83017	26287.2125
1748.05418	26279.9125
1751.27607	26215.3125
1754.49584	26164.0125
1757.71349	26121.2125
1760.92903	26063.1125
1764.14244	26081.2125
1767.35375	26027.4125
1770.56294	26011.1125
1773.77002	25934.4125
1776.97499	25903.2125
1780.17785	25804.1125
1783.37861	25773.5125
1786.57727	25730.1125
1789.77382	25663.9125
1792.96828	25646.7125
1796.16064	25649.3125
1799.3509	25554.5125
1802.53907	25542.9125
1805.72514	25472.8125
1808.90913	25352.7125
1812.09102	25292.1125
1815.27083	25285.4125
1818.44856	25274.9125
1821.6242	25216.9125
1824.79776	25207.0125
1827.96924	25210.3125
1831.13864	25183.4125
1834.30597	25204.8125
1837.47122	25206.7125
1840.6344	25200.6125
1843.7955	25241.6125
1846.95454	25279.3125
1850.11151	25270.5125
1853.26642	25260.2125
1856.41926	25264.7125
1859.57004	25254.8125
1862.71876	25280.8125
1865.86542	25295.2125
1869.01003	25277.3125
1872.15258	25208.7125
1875.29308	25228.7125
1878.43152	25269.8125
1881.56792	25288.4125
1884.70227	25275.2125
1887.83457	25326.9125
1890.96482	25351.2125
1894.09304	25303.2125
1897.21921	25264.0125
1900.34335	25297.8125
1903.46544	25273.9125
1906.58551	25303.2125
1909.70353	25303.0125
1912.81953	25254.5125
1915.93349	25185.6125
1919.04543	25099.6125
1922.15534	25094.3125
1925.26322	25019.3125
1928.36908	24953.3125
1931.47292	24813.3125
1934.57473	24689.1125
1937.67453	24596.0125
1940.77232	24541.4125
1943.86808	24422.5125
1946.96184	24313.3125
1950.05358	24222.0125
1953.14331	24136.7125
1956.23103	24050.0125
1959.31675	23940.1125
1962.40046	23866.7125
1965.48217	23808.9125
1968.56188	23754.0125
1971.63959	23661.4125
1974.7153	23612.9125
1977.78901	23490.2125
1980.86073	23439.1125
1983.93046	23347.6125
1986.99819	23268.7125
1990.06394	23222.1125
1993.1277	23183.2125
1996.18947	23067.1125
1999.24925	23006.2125
2002.30706	22915.1125
2005.36288	22858.9125
2008.41672	22816.1125
2011.46859	22736.0125
2014.51848	22693.9125
2017.56639	22623.3125
2020.61233	22564.4125
2023.6563	22565.7125
2026.6983	22494.2125
2029.73833	22442.0125
2032.7764	22399.2125
2035.8125	22347.2125
2038.84664	22302.8125
2041.87881	22340.7125
2044.90903	22243.0125
2047.93729	22265.1125
2050.96359	22244.5125
2053.98794	22232.6125
2057.01034	22217.5125
2060.03078	22164.3125
2063.04927	22134.7125
2066.06582	22121.5125
2069.08042	22095.8125
2072.09307	22028.3125
2075.10378	22028.8125
2078.11255	22014.7125
2081.11938	22011.8125
2084.12426	21972.9125
2087.12722	21967.6125
2090.12824	21962.8125
2093.12732	21917.3125
2096.12447	21950.6125
2099.11969	21988.9125
2102.11299	21961.5125
2105.10435	21967.6125
2108.09379	21986.5125
2111.08131	21996.4125
2114.0669	21954.5125
2117.05057	22006.3125
2120.03233	22018.9125
2123.01216	22017.5125
2125.99008	22052.0125
2128.96609	22049.7125
2131.94018	22049.9125
2134.91236	22102.7125
2137.88263	22110.3125
2140.851	22124.6125
2143.81746	22169.3125
2146.78201	22122.3125
2149.74466	22144.3125
2152.7054	22112.9125
2155.66425	22109.1125
2158.6212	22112.2125
2161.57625	22090.2125
2164.52941	22124.6125
2167.48067	22095.6125
2170.43004	22070.1125
2173.37752	22061.4125
2176.32311	22069.6125
2179.26681	22083.3125
2182.20863	22055.5125
2185.14856	22070.2125
2188.08661	22066.1125
2191.02278	22097.4125
2193.95707	22051.6125
2196.88948	22075.8125
2199.82001	22045.6125
2202.74867	22056.1125
2205.67545	22069.2125
2208.60037	22015.3125
2211.52341	22001.0125
2214.44458	21992.6125
2217.36388	21973.6125
2220.28132	21906.3125
2223.1969	21889.4125
2226.11061	21871.4125
2229.02246	21814.1125
2231.93245	21809.0125
2234.84058	21764.1125
2237.74686	21714.9125
2240.65128	21656.7125
2243.55385	21632.4125
2246.45456	21598.1125
2249.35343	21566.3125
2252.25044	21572.5125
2255.14561	21532.6125
2258.03893	21474.7125
2260.93041	21498.8125
2263.82004	21402.9125
2266.70783	21335.5125
2269.59378	21274.0125
2272.4779	21216.3125
2275.36017	21185.6125
2278.24061	21134.7125
2281.11922	21086.3125
2283.996	21051.7125
2286.87094	21056.1125
2289.74405	20992.7125
2292.61534	20980.2125
2295.4848	21017.8125
2298.35243	20990.9125
2301.21824	20989.6125
2304.08223	21003.1125
2306.94439	21021.9125
2309.80474	21024.2125
2312.66327	21046.2125
2315.51999	21031.4125
2318.37489	21043.8125
2321.22797	20998.6125
2324.07925	21001.4125
2326.92871	20980.6125
2329.77637	20993.0125
2332.62222	20982.2125
2335.46626	20977.2125
2338.3085	20937.3125
2341.14893	20989.2125
2343.98756	20976.3125
2346.8244	20983.6125
2349.65943	21006.5125
2352.49267	21001.0125
2355.32411	21005.8125
2358.15376	20975.0125
2360.98161	20972.9125
2363.80768	20949.8125
2366.63195	20900.9125
2369.45444	20864.5125
2372.27514	20851.3125
2375.09405	20824.9125
2377.91118	20748.1125
2380.72652	20739.2125
2383.54009	20673.3125
2386.35187	20646.3125
2389.16188	20585.4125
2391.97011	20560.2125
2394.77657	20511.9125
2397.58125	20516.7125
2400.38416	20489.2125
2403.18529	20458.1125
2405.98466	20446.4125
2408.78226	20352.5125
2411.57809	20349.8125
2414.37216	20302.2125
2417.16446	20305.7125
2419.955	20251.7125
2422.74378	20277.7125
2425.5308	20271.3125
2428.31606	20258.8125
2431.09956	20229.3125
2433.88131	20152.7125
2436.6613	20177.7125
2439.43954	20183.8125
2442.21603	20166.3125
2444.99077	20127.9125
2447.76377	20175.2125
2450.53501	20148.4125
2453.30451	20143.0125
2456.07226	20102.2125
2458.83827	20128.9125
2461.60254	20121.8125
2464.36507	20157.2125
2467.12586	20150.7125
2469.88492	20144.2125
2472.64224	20139.0125
2475.39782	20130.9125
2478.15167	20205.4125
2480.90379	20189.1125
2483.65417	20204.7125
2486.40283	20238.4125
2489.14976	20263.9125
2491.89497	20255.3125
2494.63845	20311.6125
2497.3802	20293.9125
2500.12024	20276.3125
2502.85855	20295.8125
2505.59514	20280.6125
2508.33002	20285.4125
2511.06318	20308.9125
2513.79462	20237.1125
2516.52435	20213.5125
2519.25237	20196.3125
2521.97867	20192.5125
2524.70327	20212.2125
2527.42616	20157.8125
2530.14734	20175.3125
2532.86681	20160.3125
2535.58458	20140.9125
2538.30065	20104.2125
2541.01501	20103.7125
2543.72768	20070.3125
2546.43864	20033.5125
2549.14791	20039.5125
2551.85548	20017.3125
2554.56136	20039.7125
2557.26554	20056.8125
2559.96803	19987.3125
2562.66883	19995.2125
2565.36794	19990.2125
2568.06536	19951.6125
2570.7611	19937.6125
2573.45514	19934.1125
2576.14751	19943.0125
2578.83819	19924.3125
2581.52719	19924.4125
2584.21451	19930.0125
2586.90015	19885.8125
2589.58411	19925.4125
2592.2664	19937.5125
2594.94701	19894.1125
2597.62594	19926.8125
2600.30321	19896.3125
2602.9788	19892.2125
2605.65273	19864.9125
2608.32498	19883.0125
2610.99557	19910.4125
2613.66449	19902.1125
2616.33175	19900.5125
2618.99734	19925.0125
2621.66128	19926.6125
2624.32355	19937.2125
2626.98416	19966.2125
2629.64311	19992.2125
2632.30041	20013.3125
2634.95605	19972.5125
2637.61004	19978.0125
2640.26238	19910.0125
2642.91306	19922.6125
2645.56209	19867.0125
2648.20948	19855.9125
2650.85521	19826.8125
2653.4993	19854.4125
2656.14175	19858.7125
2658.78255	19870.8125
2661.42171	19857.6125
2664.05923	19905.5125
2666.6951	19922.5125
2669.32934	19939.3125
2671.96194	19976.6125
2674.59291	19957.5125
2677.22224	19959.8125
2679.84993	19924.3125
2682.476	19944.7125
2685.10043	19964.7125
2687.72324	19909.2125
2690.34441	19885.6125
2692.96396	19907.7125
2695.58188	19923.9125
2698.19818	19868.1125
2700.81285	19885.7125
2703.4259	19856.0125
2706.03733	19928.9125
2708.64714	19932.4125
2711.25533	19936.3125
2713.86191	19878.1125
2716.46687	19934.3125
2719.07021	19915.0125
2721.67194	19952.8125
2724.27206	19937.2125
2726.87057	19941.6125
2729.46747	19962.6125
2732.06276	19924.4125
2734.65644	19940.3125
2737.24852	19957.4125
2739.83899	19916.2125
2742.42786	19945.2125
2745.01513	19914.2125
2747.60079	19934.8125
2750.18486	19934.9125
2752.76733	19961.4125
2755.3482	19968.3125
2757.92747	19990.6125
2760.50515	19972.7125
2763.08123	19965.0125
2765.65573	19918.8125
2768.22863	19952.9125
2770.79994	19917.8125
2773.36967	19920.9125
2775.9378	19917.6125
2778.50435	19946.0125
2781.06932	19912.6125
2783.6327	19936.9125
2786.1945	19946.3125
2788.75471	19920.5125
2791.31335	19838.3125
2793.87041	19850.9125
2796.42589	19779.1125
2798.97979	19772.2125
2801.53212	19748.0125
2804.08288	19769.8125
2806.63206	19736.4125
2809.17967	19679.4125
2811.72571	19641.8125
2814.27018	19655.4125
2816.81308	19591.0125
2819.35442	19573.9125
2821.89419	19551.5125
2824.43239	19565.5125
2826.96904	19536.2125
2829.50412	19569.7125
2832.03763	19479.3125
2834.56959	19472.5125
2837.1	19480.4125
2839.62884	19482.9125
2842.15613	19469.5125
2844.68186	19503.2125
2847.20604	19531.7125
2849.72867	19532.9125
2852.24974	19523.5125
2854.76927	19476.2125
2857.28724	19489.0125
2859.80367	19462.4125
2862.31855	19440.2125
2864.83189	19377.9125
2867.34368	19355.6125
2869.85393	19344.4125
2872.36264	19353.3125
2874.8698	19353.4125
2877.37543	19390.7125
2879.87952	19393.2125
2882.38207	19382.9125
2884.88308	19381.6125
2887.38256	19417.6125
2889.88051	19406.8125
2892.37692	19411.1125
2894.8718	19438.7125
2897.36515	19459.8125
2899.85698	19469.1125
2902.34727	19525.1125
2904.83604	19524.8125
2907.32328	19513.0125
2909.809	19535.6125
2912.29319	19522.3125
2914.77587	19501.6125
2917.25702	19497.7125
2919.73665	19465.5125
2922.21476	19457.1125
2924.69136	19517.8125
2927.16644	19490.3125
2929.64	19475.8125
2932.11205	19470.4125
2934.58258	19410.5125
2937.05161	19424.3125
2939.51912	19419.7125
2941.98513	19386.0125
2944.44962	19320.9125
2946.91261	19272.4125
2949.37409	19277.5125
2951.83407	19239.1125
2954.29254	19250.1125
2956.74951	19239.5125
2959.20498	19231.3125
2961.65895	19155.0125
2964.11142	19140.9125
2966.56239	19076.8125
2969.01186	19091.1125
2971.45984	19050.1125
2973.90632	19004.1125
2976.35131	18937.9125
2978.7948	18890.8125
2981.23681	18828.5125
2983.67732	18814.4125
2986.11635	18766.0125
2988.55388	18710.4125
2990.98993	18695.7125
2993.4245	18623.9125
2995.85758	18598.7125
2998.28917	18544.8125
3000.71928	18522.2125
3003.14791	18477.1125
3005.57506	18467.1125
3008.00073	18399.6125
3010.42493	18384.4125
3012.84764	18369.6125
3015.26888	18345.5125
3017.68865	18279.9125
3020.10694	18221.1125
3022.52376	18240.6125
