Data from AgNPs_FTO_APTES_UA_2uM_CRN_1uM_R6G_10uM_NaF_0.1M_Addition_RamanShift__7__11-27-15-007.txt Node

Date: Wed Feb 02 11:27:15 GMT 2022
User: TCL
Spectrometer: QEP01345
Trigger mode: 4
Integration Time (sec): 7.000000E0
Scans to average: 10
Electric dark correction enabled: true
Nonlinearity correction enabled: false
Boxcar width: 0
XAxis mode: Raman Shifts
Number of Pixels in Spectrum: 1044
>>>>>Begin Spectral Data<<<<<
46.04893	-0.7375
50.45542	0.1625
54.85868	-0.6375
59.25871	-0.1375
63.6555	83.2625
68.04907	87.4625
72.43941	94.1625
76.82654	98.7625
81.21044	99.0625
85.59113	109.2625
89.96862	109.4625
94.34289	113.9625
98.71396	118.5625
103.08183	123.3625
107.4465	125.9625
111.80798	126.6625
116.16626	130.5625
120.52136	135.9625
124.87327	145.3625
129.222	152.1625
133.56755	167.3625
137.90993	172.6625
142.24913	196.6625
146.58517	225.0625
150.91804	261.1625
155.24774	316.6625
159.57429	391.0625
163.89768	510.8625
168.21792	674.4625
172.53501	928.3625
176.84895	1290.8625
181.15975	1805.4625
185.46741	2540.8625
189.77193	3502.5625
194.07331	4677.6625
198.37157	6003.7625
202.6667	7402.9625
206.9587	8804.0625
211.24758	10193.2625
215.53334	11585.8625
219.81599	13101.3625
224.09553	14779.7625
228.37195	16632.1625
232.64527	18640.2625
236.91549	20693.7625
241.18261	22711.1625
245.44663	24566.7625
249.70755	26190.3625
253.96539	27582.7625
258.22014	28721.8625
262.4718	29606.9625
266.72039	30260.6625
270.96589	30432.3625
275.20832	30292.4625
279.44768	29939.2625
283.68397	29591.8625
287.91719	29283.5625
292.14735	29107.4625
296.37445	29121.6625
300.59849	29301.6625
304.81948	29607.1625
309.03742	29829.5625
313.25231	29757.0625
317.46415	29355.6625
321.67296	28635.2625
325.87872	27990.9625
330.08145	27621.2625
334.28114	27469.5625
338.47781	27511.4625
342.67145	27781.6625
346.86207	28199.0625
351.04966	28702.0625
355.23424	29288.9625
359.4158	29799.7625
363.59435	30110.7625
367.76989	30304.3625
371.94243	30300.9625
376.11196	30214.6625
380.27849	30123.4625
384.44203	30173.8625
388.60257	30344.1625
392.76012	30729.3625
396.91468	31228.1625
401.06626	31809.1625
405.21485	32134.4625
409.36047	31936.6625
413.50311	31544.4625
417.64277	31407.8625
421.77947	31611.8625
425.9132	31808.8625
430.04396	31927.1625
434.17176	31949.5625
438.2966	32015.9625
442.41849	32389.5625
446.53742	33270.4625
450.6534	34212.6625
454.76644	34712.8625
458.87653	34753.7625
462.98368	34430.9625
467.08789	34011.9625
471.18916	33414.5625
475.2875	32769.4625
479.38291	32520.7625
483.4754	32395.9625
487.56496	32169.3625
491.6516	31769.1625
495.73531	31164.2625
499.81612	30764.4625
503.89401	30877.8625
507.96899	30968.2625
512.04106	30909.5625
516.11023	30593.1625
520.1765	30165.0625
524.23987	29776.6625
528.30034	29531.0625
532.35792	29227.2625
536.41261	28739.3625
540.46441	28320.4625
544.51333	28167.3625
548.55936	28499.2625
552.60252	29207.1625
556.64279	30101.0625
560.6802	30881.9625
564.71473	31336.2625
568.7464	32031.0625
572.7752	33382.6625
576.80114	34870.7625
580.82422	36590.9625
584.84444	38982.0625
588.86181	42414.9625
592.87633	45234.3625
596.888	44551.8625
600.89682	40484.7625
604.9028	38025.1625
608.90594	39688.3625
612.90624	42274.2625
616.90371	39452.3625
620.89834	32629.2625
624.89015	29498.4625
628.87913	29171.8625
632.86528	29500.5625
636.84862	29393.9625
640.82913	28638.1625
644.80683	27767.0625
648.78172	27330.6625
652.75379	27433.5625
656.72306	27830.0625
660.68952	28196.1625
664.65319	27839.5625
668.61405	27150.1625
672.57211	27005.0625
676.52738	27199.2625
680.47986	27214.1625
684.42955	26934.2625
688.37646	26752.9625
692.32058	26928.5625
696.26192	27513.5625
700.20048	28165.2625
704.13626	28551.7625
708.06928	28637.0625
711.99952	28688.3625
715.927	28711.3625
719.85171	28845.4625
723.77365	28625.0625
727.69284	27899.5625
731.60928	27317.3625
735.52295	27019.6625
739.43388	27038.6625
743.34206	27173.5625
747.24749	27413.6625
751.15017	27866.4625
755.05012	28497.4625
758.94733	29483.4625
762.8418	31159.3625
766.73354	33626.2625
770.62254	35772.3625
774.50882	35887.4625
778.39237	33898.6625
782.27321	31398.5625
786.15132	29339.0625
790.02671	28059.6625
793.89938	27410.1625
797.76935	27096.0625
801.6366	26983.9625
805.50115	26875.1625
809.36299	26756.7625
813.22213	26552.3625
817.07857	26382.2625
820.93231	26187.3625
824.78336	25931.0625
828.63172	25745.7625
832.47738	25626.6625
836.32036	25668.9625
840.16066	25674.3625
843.99827	25686.2625
847.8332	25635.9625
851.66546	25639.1625
855.49504	25699.9625
859.32195	25624.1625
863.1462	25532.8625
866.96777	25423.7625
870.78668	25390.4625
874.60293	25331.4625
878.41652	25499.3625
882.22745	25555.3625
886.03573	25764.8625
889.84136	25788.3625
893.64433	25671.6625
897.44466	25648.0625
901.24235	25584.2625
905.0374	25586.7625
908.8298	25512.6625
912.61957	25581.8625
916.40671	25862.4625
920.19121	26353.7625
923.97308	26827.1625
927.75233	27034.5625
931.52895	26701.0625
935.30295	25916.4625
939.07433	25193.9625
942.84309	24606.9625
946.60924	24300.0625
950.37278	24168.9625
954.13371	24193.5625
957.89203	24177.6625
961.64774	24130.5625
965.40086	24179.7625
969.15137	24109.4625
972.89929	23851.6625
976.64461	23693.8625
980.38733	23606.7625
984.12747	23630.9625
987.86502	23672.0625
991.59999	23824.0625
995.33237	24097.0625
999.06217	24537.4625
1002.78939	25180.0625
1006.51404	25874.7625
1010.23611	26547.5625
1013.95561	26953.0625
1017.67255	27032.1625
1021.38692	26648.7625
1025.09872	25991.0625
1028.80796	25500.3625
1032.51465	25501.2625
1036.21877	25727.2625
1039.92035	25898.5625
1043.61937	26057.1625
1047.31584	25983.5625
1051.00976	25906.0625
1054.70114	25909.9625
1058.38998	26008.6625
1062.07627	26245.3625
1065.76003	26558.2625
1069.44126	27107.5625
1073.11995	27785.4625
1076.79611	28374.0625
1080.46974	28618.1625
1084.14085	28852.3625
1087.80943	29219.9625
1091.47549	29638.5625
1095.13903	29765.6625
1098.80005	29118.1625
1102.45857	28021.0625
1106.11456	27192.0625
1109.76805	26763.6625
1113.41903	26664.3625
1117.06751	26813.9625
1120.71348	27144.5625
1124.35696	27544.9625
1127.99793	28016.6625
1131.63641	28305.4625
1135.2724	28261.1625
1138.90589	28149.1625
1142.5369	28329.8625
1146.16542	28712.4625
1149.79145	29074.9625
1153.415	29498.3625
1157.03607	30157.2625
1160.65467	31389.1625
1164.27079	33481.1625
1167.88443	35808.8625
1171.49561	38075.0625
1175.10432	40792.9625
1178.71056	44444.7625
1182.31434	47764.2625
1185.91565	48951.7625
1189.51451	48081.1625
1193.11091	46165.5625
1196.70485	44116.9625
1200.29634	42163.6625
1203.88538	40989.4625
1207.47197	40596.2625
1211.05612	40386.1625
1214.63782	39664.2625
1218.21708	38312.7625
1221.79391	36806.1625
1225.36829	35789.1625
1228.94024	35219.9625
1232.50976	34659.4625
1236.07685	33982.6625
1239.6415	33472.5625
1243.20374	33249.6625
1246.76355	33430.8625
1250.32093	34023.8625
1253.8759	34881.8625
1257.42845	36146.4625
1260.97859	37583.7625
1264.52631	39078.0625
1268.07163	40498.3625
1271.61453	41908.2625
1275.15503	43394.4625
1278.69312	45168.4625
1282.22882	47396.9625
1285.76211	50123.8625
1289.29301	53107.7625
1292.82151	56314.5625
1296.34761	59988.9625
1299.87133	64194.8625
1303.39266	68224.7625
1306.9116	71382.4625
1310.42815	73263.3625
1313.94233	73747.2625
1317.45412	72571.6625
1320.96354	70747.6625
1324.47058	69392.5625
1327.97525	68607.1625
1331.47754	67704.4625
1334.97747	66378.8625
1338.47502	64473.7625
1341.97022	62263.4625
1345.46305	60349.2625
1348.95352	59380.3625
1352.44163	59815.4625
1355.92738	62466.6625
1359.41078	66908.5625
1362.89183	71134.5625
1366.37053	71991.7625
1369.84688	66775.3625
1373.32088	57976.8625
1376.79254	51308.0625
1380.26186	48805.9625
1383.72883	48830.0625
1387.19347	48788.2625
1390.65578	47969.7625
1394.11575	47759.5625
1397.57339	48547.8625
1401.0287	49870.7625
1404.48168	50851.7625
1407.93234	50444.5625
1411.38068	48814.3625
1414.82669	46462.2625
1418.27039	44021.9625
1421.71177	41891.9625
1425.15083	40268.3625
1428.58758	39627.5625
1432.02203	40300.2625
1435.45416	41885.0625
1438.88399	43390.0625
1442.31151	44286.7625
1445.73673	44641.2625
1449.15965	44763.5625
1452.58027	44608.1625
1455.9986	44179.5625
1459.41463	44153.9625
1462.82837	44812.4625
1466.23982	45851.8625
1469.64898	46802.4625
1473.05586	47277.8625
1476.46045	47407.8625
1479.86276	47195.3625
1483.26279	46906.8625
1486.66054	46908.8625
1490.05602	47520.3625
1493.44922	48471.1625
1496.84016	49332.9625
1500.22882	50192.1625
1503.61521	51308.0625
1506.99934	52592.3625
1510.38121	53650.4625
1513.76081	53973.1625
1517.13816	53243.6625
1520.51324	52120.4625
1523.88607	51409.9625
1527.25665	51440.4625
1530.62498	51481.8625
1533.99105	50788.2625
1537.35488	49427.8625
1540.71647	47337.1625
1544.07581	45158.9625
1547.4329	43137.5625
1550.78776	41593.7625
1554.14038	40582.1625
1557.49077	40129.8625
1560.83892	39954.5625
1564.18484	39935.9625
1567.52853	40110.4625
1570.86999	40657.3625
1574.20922	41738.3625
1577.54624	42907.3625
1580.88103	43632.7625
1584.2136	44706.0625
1587.54395	46957.1625
1590.87208	50447.9625
1594.19801	54142.7625
1597.52172	56920.4625
1600.84321	56654.9625
1604.16251	52312.2625
1607.47959	46303.4625
1610.79447	40783.0625
1614.10715	36362.4625
1617.41763	33191.6625
1620.7259	31289.6625
1624.03199	30518.9625
1627.33587	30817.7625
1630.63757	32317.4625
1633.93707	35280.7625
1637.23439	40449.5625
1640.52951	48363.9625
1643.82246	58033.5625
1647.11321	65718.3625
1650.40179	66728.0625
1653.68819	60006.1625
1656.97241	49329.1625
1660.25446	39694.3625
1663.53433	32957.1625
1666.81203	28881.3625
1670.08756	26478.8625
1673.36092	25029.3625
1676.63211	24052.5625
1679.90115	23412.9625
1683.16801	22940.2625
1686.43272	22594.3625
1689.69527	22344.0625
1692.95567	22133.2625
1696.2139	22020.0625
1699.46999	21857.1625
1702.72392	21774.5625
1705.97571	21691.7625
1709.22535	21632.6625
1712.47284	21571.2625
1715.71819	21504.9625
1718.96139	21438.4625
1722.20246	21352.3625
1725.44139	21206.3625
1728.67818	21044.1625
1731.91284	20849.2625
1735.14537	20770.7625
1738.37576	20619.6625
1741.60403	20508.6625
1744.83017	20424.0625
1748.05418	20327.0625
1751.27607	20294.0625
1754.49584	20275.9625
1757.71349	20230.4625
1760.92903	20221.2625
1764.14244	20200.3625
1767.35375	20139.8625
1770.56294	20097.5625
1773.77002	20074.2625
1776.97499	20000.6625
1780.17785	19934.7625
1783.37861	19905.5625
1786.57727	19809.8625
1789.77382	19801.2625
1792.96828	19748.3625
1796.16064	19744.1625
1799.3509	19661.3625
1802.53907	19645.3625
1805.72514	19600.9625
1808.90913	19558.4625
1812.09102	19491.7625
1815.27083	19446.8625
1818.44856	19447.7625
1821.6242	19418.2625
1824.79776	19438.2625
1827.96924	19447.6625
1831.13864	19416.2625
1834.30597	19438.3625
1837.47122	19430.9625
1840.6344	19453.4625
1843.7955	19497.4625
1846.95454	19508.1625
1850.11151	19463.4625
1853.26642	19441.4625
1856.41926	19386.2625
1859.57004	19409.4625
1862.71876	19328.8625
1865.86542	19348.3625
1869.01003	19278.4625
1872.15258	19245.9625
1875.29308	19254.3625
1878.43152	19215.3625
1881.56792	19164.3625
1884.70227	19155.8625
1887.83457	19075.0625
1890.96482	19063.1625
1894.09304	19021.6625
1897.21921	18992.3625
1900.34335	18911.0625
1903.46544	18895.2625
1906.58551	18881.3625
1909.70353	18821.0625
1912.81953	18783.8625
1915.93349	18726.8625
1919.04543	18677.9625
1922.15534	18629.0625
1925.26322	18566.8625
1928.36908	18485.5625
1931.47292	18416.2625
1934.57473	18318.7625
1937.67453	18293.6625
1940.77232	18256.5625
1943.86808	18193.6625
1946.96184	18164.9625
1950.05358	18110.4625
1953.14331	18046.3625
1956.23103	18028.9625
1959.31675	18003.4625
1962.40046	17941.7625
1965.48217	17858.3625
1968.56188	17808.6625
1971.63959	17718.4625
1974.7153	17663.9625
1977.78901	17611.8625
1980.86073	17533.1625
1983.93046	17508.1625
1986.99819	17431.5625
1990.06394	17379.5625
1993.1277	17321.7625
1996.18947	17242.1625
1999.24925	17230.3625
2002.30706	17158.5625
2005.36288	17076.1625
2008.41672	17034.0625
2011.46859	17012.1625
2014.51848	16964.8625
2017.56639	16888.9625
2020.61233	16823.6625
2023.6563	16797.3625
2026.6983	16791.8625
2029.73833	16723.3625
2032.7764	16680.3625
2035.8125	16674.3625
2038.84664	16615.6625
2041.87881	16612.6625
2044.90903	16585.8625
2047.93729	16562.4625
2050.96359	16539.1625
2053.98794	16507.1625
2057.01034	16523.3625
2060.03078	16453.0625
2063.04927	16398.9625
2066.06582	16409.1625
2069.08042	16426.1625
2072.09307	16417.4625
2075.10378	16389.1625
2078.11255	16378.9625
2081.11938	16406.5625
2084.12426	16381.3625
2087.12722	16379.7625
2090.12824	16362.5625
2093.12732	16394.7625
2096.12447	16416.5625
2099.11969	16381.1625
2102.11299	16403.2625
2105.10435	16389.5625
2108.09379	16376.5625
2111.08131	16436.6625
2114.0669	16440.8625
2117.05057	16409.2625
2120.03233	16424.0625
2123.01216	16408.7625
2125.99008	16408.6625
2128.96609	16414.3625
2131.94018	16409.5625
2134.91236	16392.8625
2137.88263	16404.3625
2140.851	16392.3625
2143.81746	16370.7625
2146.78201	16353.1625
2149.74466	16347.0625
2152.7054	16311.5625
2155.66425	16320.3625
2158.6212	16323.2625
2161.57625	16299.8625
2164.52941	16267.0625
2167.48067	16288.2625
2170.43004	16284.6625
2173.37752	16267.4625
2176.32311	16251.5625
2179.26681	16298.1625
2182.20863	16306.9625
2185.14856	16283.4625
2188.08661	16271.1625
2191.02278	16273.9625
2193.95707	16236.0625
2196.88948	16220.3625
2199.82001	16184.4625
2202.74867	16177.7625
2205.67545	16190.4625
2208.60037	16153.0625
2211.52341	16150.9625
2214.44458	16102.2625
2217.36388	16052.6625
2220.28132	16017.7625
2223.1969	16010.2625
2226.11061	15966.6625
2229.02246	15969.1625
2231.93245	15965.9625
2234.84058	15959.3625
2237.74686	15929.4625
2240.65128	15952.7625
2243.55385	15933.8625
2246.45456	15874.3625
2249.35343	15798.7625
2252.25044	15746.3625
2255.14561	15744.4625
2258.03893	15731.6625
2260.93041	15662.5625
2263.82004	15612.0625
2266.70783	15569.0625
2269.59378	15533.3625
2272.4779	15504.5625
2275.36017	15452.9625
2278.24061	15439.9625
2281.11922	15406.4625
2283.996	15386.0625
2286.87094	15358.9625
2289.74405	15321.3625
2292.61534	15251.3625
2295.4848	15226.8625
2298.35243	15263.0625
2301.21824	15299.5625
2304.08223	15223.7625
2306.94439	15235.9625
2309.80474	15223.7625
2312.66327	15223.6625
2315.51999	15216.5625
2318.37489	15201.0625
2321.22797	15183.8625
2324.07925	15137.6625
2326.92871	15126.7625
2329.77637	15123.4625
2332.62222	15129.3625
2335.46626	15120.4625
2338.3085	15091.0625
2341.14893	15086.6625
2343.98756	15108.5625
2346.8244	15057.3625
2349.65943	15042.0625
2352.49267	15056.2625
2355.32411	15073.9625
2358.15376	15072.8625
2360.98161	15052.7625
2363.80768	15044.0625
2366.63195	15048.3625
2369.45444	15012.4625
2372.27514	15002.9625
2375.09405	14965.7625
2377.91118	14963.2625
2380.72652	14908.7625
2383.54009	14846.1625
2386.35187	14821.7625
2389.16188	14786.4625
2391.97011	14749.4625
2394.77657	14740.4625
2397.58125	14714.6625
2400.38416	14707.0625
2403.18529	14683.9625
2405.98466	14663.8625
2408.78226	14633.8625
2411.57809	14614.1625
2414.37216	14578.4625
2417.16446	14590.5625
2419.955	14575.2625
2422.74378	14568.0625
2425.5308	14575.9625
2428.31606	14570.3625
2431.09956	14538.1625
2433.88131	14514.5625
2436.6613	14537.8625
2439.43954	14506.6625
2442.21603	14496.3625
2444.99077	14488.1625
2447.76377	14491.7625
2450.53501	14465.9625
2453.30451	14489.8625
2456.07226	14491.3625
2458.83827	14505.7625
2461.60254	14441.0625
2464.36507	14467.8625
2467.12586	14478.5625
2469.88492	14461.9625
2472.64224	14432.9625
2475.39782	14460.0625
2478.15167	14445.6625
2480.90379	14446.3625
2483.65417	14421.8625
2486.40283	14443.9625
2489.14976	14463.2625
2491.89497	14434.9625
2494.63845	14432.4625
2497.3802	14427.0625
2500.12024	14399.3625
2502.85855	14409.4625
2505.59514	14382.6625
2508.33002	14388.0625
2511.06318	14346.8625
2513.79462	14323.1625
2516.52435	14337.1625
2519.25237	14300.5625
2521.97867	14290.1625
2524.70327	14273.9625
2527.42616	14261.1625
2530.14734	14247.3625
2532.86681	14261.7625
2535.58458	14235.5625
2538.30065	14217.6625
2541.01501	14219.2625
2543.72768	14145.9625
2546.43864	14169.3625
2549.14791	14148.0625
2551.85548	14168.6625
2554.56136	14111.1625
2557.26554	14123.1625
2559.96803	14091.5625
2562.66883	14089.5625
2565.36794	14112.5625
2568.06536	14097.7625
2570.7611	14112.5625
2573.45514	14085.8625
2576.14751	14061.4625
2578.83819	14061.0625
2581.52719	14048.3625
2584.21451	14024.8625
2586.90015	14044.6625
2589.58411	14014.0625
2592.2664	13994.1625
2594.94701	13954.5625
2597.62594	13985.6625
2600.30321	13954.0625
2602.9788	13940.8625
2605.65273	13940.8625
2608.32498	13965.6625
2610.99557	13939.1625
2613.66449	13953.0625
2616.33175	13939.7625
2618.99734	13946.9625
2621.66128	13947.0625
2624.32355	13921.0625
2626.98416	13904.5625
2629.64311	13886.5625
2632.30041	13865.3625
2634.95605	13856.5625
2637.61004	13853.7625
2640.26238	13853.2625
2642.91306	13819.9625
2645.56209	13784.4625
2648.20948	13822.3625
2650.85521	13808.8625
2653.4993	13844.5625
2656.14175	13830.1625
2658.78255	13861.8625
2661.42171	13877.3625
2664.05923	13869.6625
2666.6951	13874.0625
2669.32934	13877.4625
2671.96194	13896.7625
2674.59291	13920.6625
2677.22224	13879.1625
2679.84993	13871.5625
2682.476	13877.9625
2685.10043	13863.1625
2687.72324	13842.2625
2690.34441	13863.0625
2692.96396	13843.7625
2695.58188	13863.4625
2698.19818	13864.0625
2700.81285	13852.9625
2703.4259	13871.7625
2706.03733	13896.3625
2708.64714	13879.5625
2711.25533	13891.6625
2713.86191	13859.4625
2716.46687	13917.3625
2719.07021	13863.0625
2721.67194	13875.8625
2724.27206	13882.8625
2726.87057	13906.1625
2729.46747	13910.6625
2732.06276	13923.2625
2734.65644	13928.1625
2737.24852	13939.2625
2739.83899	13939.8625
2742.42786	13964.3625
2745.01513	13933.1625
2747.60079	13897.4625
2750.18486	13904.4625
2752.76733	13879.6625
2755.3482	13890.0625
2757.92747	13863.0625
2760.50515	13872.0625
2763.08123	13862.2625
2765.65573	13867.7625
2768.22863	13845.1625
2770.79994	13850.0625
2773.36967	13844.9625
2775.9378	13814.0625
2778.50435	13818.9625
2781.06932	13833.6625
2783.6327	13828.0625
2786.1945	13786.4625
2788.75471	13778.4625
2791.31335	13783.0625
2793.87041	13766.9625
2796.42589	13708.7625
2798.97979	13696.7625
2801.53212	13691.9625
2804.08288	13682.2625
2806.63206	13667.4625
2809.17967	13653.8625
2811.72571	13636.1625
2814.27018	13611.1625
2816.81308	13611.2625
2819.35442	13599.8625
2821.89419	13598.7625
2824.43239	13591.7625
2826.96904	13552.9625
2829.50412	13562.1625
2832.03763	13491.9625
2834.56959	13486.4625
2837.1	13481.2625
2839.62884	13510.5625
2842.15613	13538.0625
2844.68186	13564.4625
2847.20604	13607.9625
2849.72867	13618.1625
2852.24974	13622.5625
2854.76927	13611.8625
2857.28724	13630.1625
2859.80367	13628.8625
2862.31855	13598.5625
2864.83189	13560.4625
2867.34368	13552.0625
2869.85393	13545.4625
2872.36264	13542.9625
2874.8698	13568.5625
2877.37543	13578.0625
2879.87952	13573.9625
2882.38207	13596.7625
2884.88308	13598.9625
2887.38256	13620.5625
2889.88051	13619.3625
2892.37692	13642.7625
2894.8718	13634.8625
2897.36515	13661.0625
2899.85698	13665.2625
2902.34727	13686.5625
2904.83604	13686.2625
2907.32328	13714.7625
2909.809	13667.5625
2912.29319	13681.7625
2914.77587	13653.3625
2917.25702	13684.8625
2919.73665	13660.4625
2922.21476	13665.7625
2924.69136	13642.0625
2927.16644	13683.6625
2929.64	13655.4625
2932.11205	13648.4625
2934.58258	13599.5625
2937.05161	13598.4625
2939.51912	13590.9625
2941.98513	13543.1625
2944.44962	13498.8625
2946.91261	13413.2625
2949.37409	13417.0625
2951.83407	13380.6625
2954.29254	13363.3625
2956.74951	13314.0625
2959.20498	13289.5625
2961.65895	13263.2625
2964.11142	13252.0625
2966.56239	13191.7625
2969.01186	13187.0625
2971.45984	13132.4625
2973.90632	13094.8625
2976.35131	13045.6625
2978.7948	12996.2625
2981.23681	12972.5625
2983.67732	12895.0625
2986.11635	12835.6625
2988.55388	12808.4625
2990.98993	12758.5625
2993.4245	12721.9625
2995.85758	12691.9625
2998.28917	12668.8625
3000.71928	12665.6625
3003.14791	12644.6625
3005.57506	12651.0625
3008.00073	12546.7625
3010.42493	12585.7625
3012.84764	12542.2625
3015.26888	12520.4625
3017.68865	12490.3625
3020.10694	12452.0625
3022.52376	12419.1625
