Data from AgNPs_FTO_APTES_UA_2uM_CRN_0uM_R6G_10uM_NaF_0.1M_Addition_RamanShift__15__10-21-54-932.txt Node

Date: Wed Feb 02 10:21:54 GMT 2022
User: TCL
Spectrometer: QEP01345
Trigger mode: 4
Integration Time (sec): 7.000000E0
Scans to average: 10
Electric dark correction enabled: true
Nonlinearity correction enabled: false
Boxcar width: 0
XAxis mode: Raman Shifts
Number of Pixels in Spectrum: 1044
>>>>>Begin Spectral Data<<<<<
46.04893	0.0875
50.45542	1.5875
54.85868	0.3875
59.25871	-0.6125
63.6555	28.0875
68.04907	30.1875
72.43941	32.4875
76.82654	35.3875
81.21044	36.7875
85.59113	39.1875
89.96862	38.6875
94.34289	43.1875
98.71396	41.6875
103.08183	46.7875
107.4465	46.8875
111.80798	48.8875
116.16626	46.1875
120.52136	48.1875
124.87327	46.2875
129.222	50.4875
133.56755	56.6875
137.90993	56.5875
142.24913	63.5875
146.58517	74.7875
150.91804	78.6875
155.24774	94.5875
159.57429	113.4875
163.89768	144.5875
168.21792	185.9875
172.53501	250.2875
176.84895	338.7875
181.15975	470.7875
185.46741	664.6875
189.77193	915.8875
194.07331	1235.9875
198.37157	1593.0875
202.6667	1965.5875
206.9587	2354.9875
211.24758	2731.1875
215.53334	3112.9875
219.81599	3524.0875
224.09553	3981.9875
228.37195	4477.2875
232.64527	5022.4875
236.91549	5561.3875
241.18261	6069.7875
245.44663	6489.6875
249.70755	6826.1875
253.96539	7105.6875
258.22014	7347.4875
262.4718	7544.9875
266.72039	7671.7875
270.96589	7736.7875
275.20832	7682.5875
279.44768	7546.3875
283.68397	7373.7875
287.91719	7194.6875
292.14735	7141.9875
296.37445	7160.7875
300.59849	7299.7875
304.81948	7515.8875
309.03742	7690.8875
313.25231	7748.7875
317.46415	7548.1875
321.67296	7211.5875
325.87872	6870.9875
330.08145	6714.4875
334.28114	6671.7875
338.47781	6740.3875
342.67145	6829.3875
346.86207	6998.3875
351.04966	7232.0875
355.23424	7552.8875
359.4158	7788.2875
363.59435	7912.4875
367.76989	7936.6875
371.94243	7945.9875
376.11196	7939.3875
380.27849	7942.2875
384.44203	7879.6875
388.60257	7852.4875
392.76012	7810.0875
396.91468	7846.4875
401.06626	7936.8875
405.21485	8020.9875
409.36047	7903.7875
413.50311	7570.8875
417.64277	7254.8875
421.77947	7072.8875
425.9132	6998.5875
430.04396	7021.8875
434.17176	7029.5875
438.2966	7117.2875
442.41849	7255.3875
446.53742	7460.5875
450.6534	7630.8875
454.76644	7714.9875
458.87653	7688.3875
462.98368	7559.0875
467.08789	7433.4875
471.18916	7296.5875
475.2875	7162.2875
479.38291	7036.2875
483.4754	6962.9875
487.56496	6909.4875
491.6516	6885.8875
495.73531	6889.6875
499.81612	6923.2875
503.89401	7000.5875
507.96899	7098.1875
512.04106	7191.0875
516.11023	7315.3875
520.1765	7389.6875
524.23987	7395.0875
528.30034	7336.8875
532.35792	7223.7875
536.41261	7118.0875
540.46441	6967.4875
544.51333	6892.7875
548.55936	6865.9875
552.60252	6963.3875
556.64279	7109.3875
560.6802	7219.0875
564.71473	7264.5875
568.7464	7401.4875
572.7752	7490.6875
576.80114	7322.4875
580.82422	7141.9875
584.84444	7082.7875
588.86181	7238.9875
592.87633	7527.9875
596.888	7797.9875
600.89682	7816.9875
604.9028	8148.7875
608.90594	9638.8875
612.90624	11981.2875
616.90371	12020.0875
620.89834	9077.1875
624.89015	7368.8875
628.87913	6964.5875
632.86528	6965.5875
636.84862	7048.0875
640.82913	7044.8875
644.80683	6855.8875
648.78172	6689.6875
652.75379	6700.0875
656.72306	6871.5875
660.68952	7116.3875
664.65319	7099.4875
668.61405	6827.7875
672.57211	6697.2875
676.52738	6728.5875
680.47986	6754.5875
684.42955	6736.8875
688.37646	6676.0875
692.32058	6662.3875
696.26192	6639.2875
700.20048	6705.9875
704.13626	6728.5875
708.06928	6754.5875
711.99952	6732.5875
715.927	6748.0875
719.85171	6753.5875
723.77365	6769.3875
727.69284	6733.0875
731.60928	6707.1875
735.52295	6683.2875
739.43388	6712.8875
743.34206	6705.6875
747.24749	6707.8875
751.15017	6713.7875
755.05012	6758.0875
758.94733	6951.1875
762.8418	7396.9875
766.73354	8330.9875
770.62254	9506.8875
774.50882	10170.0875
778.39237	9891.3875
782.27321	8788.4875
786.15132	7710.4875
790.02671	7030.9875
793.89938	6761.7875
797.76935	6623.0875
801.6366	6568.1875
805.50115	6493.4875
809.36299	6468.8875
813.22213	6430.2875
817.07857	6409.0875
820.93231	6374.5875
824.78336	6365.4875
828.63172	6378.2875
832.47738	6378.6875
836.32036	6380.5875
840.16066	6337.8875
843.99827	6327.2875
847.8332	6344.1875
851.66546	6318.2875
855.49504	6298.5875
859.32195	6309.9875
863.1462	6304.8875
866.96777	6285.7875
870.78668	6289.8875
874.60293	6285.6875
878.41652	6322.2875
882.22745	6334.0875
886.03573	6389.1875
889.84136	6423.6875
893.64433	6402.5875
897.44466	6394.5875
901.24235	6400.1875
905.0374	6403.8875
908.8298	6422.5875
912.61957	6477.1875
916.40671	6539.6875
920.19121	6644.3875
923.97308	6752.7875
927.75233	6862.4875
931.52895	6923.2875
935.30295	6844.4875
939.07433	6639.8875
942.84309	6460.9875
946.60924	6320.0875
950.37278	6214.7875
954.13371	6148.0875
957.89203	6078.1875
961.64774	5995.2875
965.40086	5973.3875
969.15137	5912.2875
972.89929	5872.1875
976.64461	5826.4875
980.38733	5801.0875
984.12747	5800.7875
987.86502	5800.6875
991.59999	5820.1875
995.33237	5854.2875
999.06217	5935.6875
1002.78939	6034.5875
1006.51404	6092.7875
1010.23611	6178.2875
1013.95561	6235.6875
1017.67255	6229.7875
1021.38692	6134.6875
1025.09872	6061.4875
1028.80796	5936.6875
1032.51465	5920.2875
1036.21877	5907.4875
1039.92035	5943.5875
1043.61937	5989.3875
1047.31584	6044.1875
1051.00976	6081.2875
1054.70114	6134.9875
1058.38998	6154.8875
1062.07627	6156.8875
1065.76003	6135.2875
1069.44126	6109.2875
1073.11995	6069.5875
1076.79611	6099.5875
1080.46974	6140.0875
1084.14085	6259.7875
1087.80943	6391.1875
1091.47549	6451.0875
1095.13903	6387.9875
1098.80005	6224.6875
1102.45857	6048.8875
1106.11456	5978.7875
1109.76805	6004.2875
1113.41903	6095.8875
1117.06751	6253.7875
1120.71348	6443.4875
1124.35696	6668.0875
1127.99793	6903.2875
1131.63641	6959.9875
1135.2724	6690.5875
1138.90589	6352.2875
1142.5369	6150.8875
1146.16542	5996.1875
1149.79145	5930.8875
1153.415	5882.7875
1157.03607	5885.9875
1160.65467	5951.6875
1164.27079	6127.8875
1167.88443	6404.2875
1171.49561	6892.8875
1175.10432	7683.0875
1178.71056	8800.3875
1182.31434	9730.2875
1185.91565	9971.2875
1189.51451	9594.2875
1193.11091	8971.5875
1196.70485	8248.5875
1200.29634	7717.3875
1203.88538	7299.3875
1207.47197	6844.4875
1211.05612	6455.4875
1214.63782	6243.5875
1218.21708	6205.8875
1221.79391	6265.4875
1225.36829	6383.3875
1228.94024	6409.5875
1232.50976	6375.7875
1236.07685	6285.2875
1239.6415	6191.2875
1243.20374	6147.1875
1246.76355	6102.3875
1250.32093	6145.1875
1253.8759	6208.4875
1257.42845	6330.7875
1260.97859	6507.3875
1264.52631	6733.1875
1268.07163	6947.6875
1271.61453	7125.3875
1275.15503	7264.5875
1278.69312	7329.8875
1282.22882	7336.2875
1285.76211	7493.9875
1289.29301	7791.7875
1292.82151	8116.0875
1296.34761	8439.1875
1299.87133	8838.7875
1303.39266	9466.6875
1306.9116	10408.6875
1310.42815	11577.7875
1313.94233	12450.3875
1317.45412	12317.6875
1320.96354	11335.7875
1324.47058	10203.6875
1327.97525	9174.4875
1331.47754	8496.3875
1334.97747	8177.1875
1338.47502	8098.6875
1341.97022	8194.0875
1345.46305	8474.7875
1348.95352	9086.6875
1352.44163	10044.5875
1355.92738	11376.1875
1359.41078	13229.8875
1362.89183	15212.0875
1366.37053	15478.8875
1369.84688	13350.7875
1373.32088	10750.5875
1376.79254	9002.7875
1380.26186	8256.8875
1383.72883	7911.9875
1387.19347	7703.4875
1390.65578	7463.2875
1394.11575	7279.9875
1397.57339	7161.1875
1401.0287	7132.8875
1404.48168	7118.2875
1407.93234	7049.5875
1411.38068	6970.2875
1414.82669	6863.8875
1418.27039	6809.5875
1421.71177	6745.9875
1425.15083	6632.9875
1428.58758	6541.0875
1432.02203	6525.4875
1435.45416	6632.7875
1438.88399	6716.6875
1442.31151	6709.6875
1445.73673	6727.3875
1449.15965	6714.9875
1452.58027	6667.8875
1455.9986	6571.3875
1459.41463	6473.8875
1462.82837	6480.3875
1466.23982	6589.2875
1469.64898	6716.0875
1473.05586	6834.7875
1476.46045	6880.9875
1479.86276	6956.6875
1483.26279	7038.4875
1486.66054	7125.7875
1490.05602	7326.5875
1493.44922	7608.3875
1496.84016	8024.8875
1500.22882	8759.2875
1503.61521	9894.2875
1506.99934	11248.2875
1510.38121	12613.5875
1513.76081	13374.6875
1517.13816	12807.1875
1520.51324	11191.6875
1523.88607	9472.4875
1527.25665	8349.0875
1530.62498	7712.9875
1533.99105	7370.7875
1537.35488	7102.0875
1540.71647	6942.2875
1544.07581	6773.8875
1547.4329	6711.4875
1550.78776	6655.1875
1554.14038	6668.4875
1557.49077	6763.8875
1560.83892	6883.6875
1564.18484	7066.4875
1567.52853	7294.1875
1570.86999	7545.3875
1574.20922	7725.1875
1577.54624	7747.6875
1580.88103	7410.0875
1584.2136	6876.4875
1587.54395	6499.6875
1590.87208	6410.9875
1594.19801	6658.0875
1597.52172	7135.1875
1600.84321	7462.1875
1604.16251	7287.1875
1607.47959	6884.7875
1610.79447	6385.6875
1614.10715	5967.4875
1617.41763	5614.8875
1620.7259	5393.4875
1624.03199	5281.0875
1627.33587	5288.4875
1630.63757	5366.0875
1633.93707	5556.8875
1637.23439	5940.6875
1640.52951	6553.7875
1643.82246	7520.2875
1647.11321	8654.9875
1650.40179	9460.2875
1653.68819	9289.1875
1656.97241	8079.6875
1660.25446	6640.5875
1663.53433	5643.6875
1666.81203	5049.4875
1670.08756	4739.2875
1673.36092	4502.1875
1676.63211	4353.8875
1679.90115	4278.6875
1683.16801	4183.2875
1686.43272	4122.7875
1689.69527	4075.2875
1692.95567	4030.3875
1696.2139	3996.5875
1699.46999	3977.5875
1702.72392	3938.8875
1705.97571	3918.2875
1709.22535	3910.7875
1712.47284	3908.6875
1715.71819	3912.0875
1718.96139	3891.9875
1722.20246	3877.0875
1725.44139	3838.0875
1728.67818	3832.3875
1731.91284	3781.1875
1735.14537	3752.8875
1738.37576	3720.0875
1741.60403	3716.6875
1744.83017	3695.1875
1748.05418	3678.8875
1751.27607	3662.9875
1754.49584	3642.1875
1757.71349	3642.6875
1760.92903	3604.3875
1764.14244	3594.4875
1767.35375	3584.3875
1770.56294	3548.0875
1773.77002	3535.5875
1776.97499	3523.6875
1780.17785	3519.1875
1783.37861	3495.9875
1786.57727	3486.3875
1789.77382	3478.9875
1792.96828	3478.2875
1796.16064	3451.0875
1799.3509	3450.7875
1802.53907	3433.9875
1805.72514	3418.8875
1808.90913	3402.1875
1812.09102	3378.3875
1815.27083	3367.7875
1818.44856	3360.0875
1821.6242	3363.7875
1824.79776	3346.5875
1827.96924	3345.9875
1831.13864	3329.9875
1834.30597	3327.3875
1837.47122	3324.1875
1840.6344	3295.9875
1843.7955	3312.2875
1846.95454	3299.5875
1850.11151	3303.9875
1853.26642	3298.5875
1856.41926	3272.1875
1859.57004	3296.2875
1862.71876	3263.1875
1865.86542	3268.6875
1869.01003	3263.7875
1872.15258	3254.1875
1875.29308	3261.0875
1878.43152	3245.9875
1881.56792	3246.0875
1884.70227	3229.9875
1887.83457	3236.3875
1890.96482	3222.6875
1894.09304	3224.4875
1897.21921	3220.4875
1900.34335	3217.7875
1903.46544	3201.1875
1906.58551	3220.0875
1909.70353	3192.9875
1912.81953	3187.1875
1915.93349	3185.3875
1919.04543	3185.5875
1922.15534	3175.3875
1925.26322	3167.8875
1928.36908	3142.5875
1931.47292	3137.8875
1934.57473	3120.2875
1937.67453	3109.6875
1940.77232	3087.2875
1943.86808	3071.9875
1946.96184	3071.7875
1950.05358	3048.1875
1953.14331	3037.5875
1956.23103	3013.6875
1959.31675	3021.6875
1962.40046	3006.3875
1965.48217	2989.4875
1968.56188	2990.1875
1971.63959	2975.2875
1974.7153	2969.8875
1977.78901	2946.4875
1980.86073	2932.2875
1983.93046	2933.6875
1986.99819	2916.6875
1990.06394	2913.4875
1993.1277	2901.1875
1996.18947	2881.4875
1999.24925	2876.9875
2002.30706	2860.3875
2005.36288	2838.5875
2008.41672	2839.9875
2011.46859	2835.4875
2014.51848	2817.3875
2017.56639	2807.3875
2020.61233	2787.8875
2023.6563	2780.5875
2026.6983	2778.2875
2029.73833	2757.8875
2032.7764	2758.2875
2035.8125	2746.3875
2038.84664	2725.0875
2041.87881	2730.4875
2044.90903	2730.8875
2047.93729	2718.2875
2050.96359	2732.9875
2053.98794	2715.6875
2057.01034	2709.3875
2060.03078	2703.9875
2063.04927	2692.7875
2066.06582	2698.6875
2069.08042	2701.3875
2072.09307	2689.9875
2075.10378	2685.7875
2078.11255	2698.4875
2081.11938	2675.1875
2084.12426	2683.7875
2087.12722	2685.0875
2090.12824	2668.6875
2093.12732	2674.5875
2096.12447	2677.4875
2099.11969	2671.6875
2102.11299	2667.7875
2105.10435	2673.4875
2108.09379	2683.7875
2111.08131	2673.5875
2114.0669	2665.6875
2117.05057	2664.3875
2120.03233	2657.4875
2123.01216	2658.7875
2125.99008	2662.1875
2128.96609	2653.7875
2131.94018	2665.3875
2134.91236	2650.6875
2137.88263	2656.7875
2140.851	2650.5875
2143.81746	2662.3875
2146.78201	2635.9875
2149.74466	2635.8875
2152.7054	2627.7875
2155.66425	2632.9875
2158.6212	2625.3875
2161.57625	2631.1875
2164.52941	2623.5875
2167.48067	2609.6875
2170.43004	2612.7875
2173.37752	2607.5875
2176.32311	2599.4875
2179.26681	2614.1875
2182.20863	2613.9875
2185.14856	2605.4875
2188.08661	2611.5875
2191.02278	2609.0875
2193.95707	2586.2875
2196.88948	2593.2875
2199.82001	2599.8875
2202.74867	2583.5875
2205.67545	2579.8875
2208.60037	2575.1875
2211.52341	2578.3875
2214.44458	2565.3875
2217.36388	2556.5875
2220.28132	2548.7875
2223.1969	2543.1875
2226.11061	2528.8875
2229.02246	2522.0875
2231.93245	2512.4875
2234.84058	2510.6875
2237.74686	2506.5875
2240.65128	2497.5875
2243.55385	2498.3875
2246.45456	2499.6875
2249.35343	2493.4875
2252.25044	2477.8875
2255.14561	2472.8875
2258.03893	2465.1875
2260.93041	2455.1875
2263.82004	2461.9875
2266.70783	2455.0875
2269.59378	2452.9875
2272.4779	2435.4875
2275.36017	2441.4875
2278.24061	2425.3875
2281.11922	2420.9875
2283.996	2422.6875
2286.87094	2407.6875
2289.74405	2397.2875
2292.61534	2382.7875
2295.4848	2380.4875
2298.35243	2387.0875
2301.21824	2379.3875
2304.08223	2373.2875
2306.94439	2363.7875
2309.80474	2364.1875
2312.66327	2363.8875
2315.51999	2361.7875
2318.37489	2354.7875
2321.22797	2354.6875
2324.07925	2342.8875
2326.92871	2346.6875
2329.77637	2342.1875
2332.62222	2327.8875
2335.46626	2340.3875
2338.3085	2334.2875
2341.14893	2322.2875
2343.98756	2321.2875
2346.8244	2314.8875
2349.65943	2314.8875
2352.49267	2316.2875
2355.32411	2307.4875
2358.15376	2321.6875
2360.98161	2315.2875
2363.80768	2320.6875
2366.63195	2329.8875
2369.45444	2328.6875
2372.27514	2327.3875
2375.09405	2314.8875
2377.91118	2299.6875
2380.72652	2305.8875
2383.54009	2297.0875
2386.35187	2274.4875
2389.16188	2275.0875
2391.97011	2253.6875
2394.77657	2246.3875
2397.58125	2241.9875
2400.38416	2233.7875
2403.18529	2223.5875
2405.98466	2211.7875
2408.78226	2210.3875
2411.57809	2216.7875
2414.37216	2204.3875
2417.16446	2209.5875
2419.955	2197.9875
2422.74378	2197.0875
2425.5308	2185.6875
2428.31606	2189.7875
2431.09956	2194.9875
2433.88131	2179.9875
2436.6613	2190.3875
2439.43954	2183.1875
2442.21603	2185.4875
2444.99077	2175.2875
2447.76377	2173.8875
2450.53501	2186.3875
2453.30451	2176.3875
2456.07226	2183.0875
2458.83827	2183.3875
2461.60254	2177.2875
2464.36507	2179.0875
2467.12586	2164.6875
2469.88492	2165.1875
2472.64224	2168.8875
2475.39782	2151.0875
2478.15167	2152.7875
2480.90379	2169.7875
2483.65417	2162.7875
2486.40283	2163.1875
2489.14976	2166.5875
2491.89497	2166.5875
2494.63845	2162.7875
2497.3802	2161.9875
2500.12024	2145.6875
2502.85855	2162.1875
2505.59514	2141.5875
2508.33002	2137.6875
2511.06318	2129.2875
2513.79462	2109.9875
2516.52435	2103.3875
2519.25237	2102.7875
2521.97867	2078.6875
2524.70327	2081.9875
2527.42616	2071.9875
2530.14734	2066.6875
2532.86681	2064.7875
2535.58458	2060.5875
2538.30065	2043.8875
2541.01501	2060.5875
2543.72768	2059.2875
2546.43864	2045.1875
2549.14791	2041.0875
2551.85548	2043.3875
2554.56136	2033.9875
2557.26554	2033.8875
2559.96803	2036.6875
2562.66883	2023.4875
2565.36794	2024.0875
2568.06536	2022.1875
2570.7611	2011.0875
2573.45514	2019.7875
2576.14751	2006.4875
2578.83819	2007.0875
2581.52719	2006.1875
2584.21451	2005.8875
2586.90015	1998.1875
2589.58411	1992.5875
2592.2664	1975.4875
2594.94701	1983.3875
2597.62594	1971.3875
2600.30321	1962.9875
2602.9788	1971.2875
2605.65273	1964.1875
2608.32498	1958.6875
2610.99557	1963.7875
2613.66449	1953.6875
2616.33175	1942.4875
2618.99734	1951.9875
2621.66128	1945.6875
2624.32355	1948.0875
2626.98416	1950.9875
2629.64311	1934.0875
2632.30041	1945.5875
2634.95605	1942.6875
2637.61004	1924.9875
2640.26238	1924.7875
2642.91306	1924.5875
2645.56209	1911.0875
2648.20948	1917.0875
2650.85521	1910.5875
2653.4993	1928.4875
2656.14175	1917.3875
2658.78255	1915.8875
2661.42171	1919.7875
2664.05923	1920.7875
2666.6951	1917.1875
2669.32934	1922.9875
2671.96194	1932.0875
2674.59291	1929.3875
2677.22224	1931.4875
2679.84993	1928.4875
2682.476	1935.6875
2685.10043	1922.2875
2687.72324	1916.8875
2690.34441	1925.2875
2692.96396	1922.1875
2695.58188	1920.3875
2698.19818	1919.8875
2700.81285	1934.6875
2703.4259	1915.7875
2706.03733	1897.1875
2708.64714	1919.3875
2711.25533	1918.2875
2713.86191	1933.9875
2716.46687	1945.7875
2719.07021	1945.8875
2721.67194	1942.8875
2724.27206	1939.2875
2726.87057	1938.0875
2729.46747	1949.5875
2732.06276	1947.0875
2734.65644	1943.1875
2737.24852	1941.4875
2739.83899	1953.0875
2742.42786	1955.8875
2745.01513	1936.5875
2747.60079	1938.3875
2750.18486	1944.8875
2752.76733	1941.6875
2755.3482	1950.8875
2757.92747	1958.6875
2760.50515	1950.8875
2763.08123	1950.2875
2765.65573	1942.8875
2768.22863	1939.5875
2770.79994	1952.8875
2773.36967	1944.6875
2775.9378	1945.1875
2778.50435	1942.6875
2781.06932	1943.4875
2783.6327	1938.5875
2786.1945	1944.8875
2788.75471	1947.4875
2791.31335	1947.0875
2793.87041	1946.6875
2796.42589	1932.9875
2798.97979	1945.0875
2801.53212	1943.8875
2804.08288	1938.7875
2806.63206	1949.1875
2809.17967	1941.8875
2811.72571	1950.7875
2814.27018	1946.9875
2816.81308	1943.1875
2819.35442	1945.5875
2821.89419	1952.0875
2824.43239	1954.4875
2826.96904	1960.2875
2829.50412	1947.5875
2832.03763	1953.7875
2834.56959	1964.4875
2837.1	1967.2875
2839.62884	1984.2875
2842.15613	2020.3875
2844.68186	2063.9875
2847.20604	2110.4875
2849.72867	2144.9875
2852.24974	2159.6875
2854.76927	2168.4875
2857.28724	2165.2875
2859.80367	2182.4875
2862.31855	2202.6875
2864.83189	2198.6875
2867.34368	2213.3875
2869.85393	2231.4875
2872.36264	2234.7875
2874.8698	2261.9875
2877.37543	2256.3875
2879.87952	2267.9875
2882.38207	2294.7875
2884.88308	2287.6875
2887.38256	2293.5875
2889.88051	2304.9875
2892.37692	2304.0875
2894.8718	2316.5875
2897.36515	2319.6875
2899.85698	2316.9875
2902.34727	2315.1875
2904.83604	2332.1875
2907.32328	2339.7875
2909.809	2339.0875
2912.29319	2335.1875
2914.77587	2330.7875
2917.25702	2331.2875
2919.73665	2329.0875
2922.21476	2338.3875
2924.69136	2343.4875
2927.16644	2332.4875
2929.64	2312.5875
2932.11205	2305.1875
2934.58258	2287.9875
2937.05161	2278.2875
2939.51912	2266.4875
2941.98513	2233.8875
2944.44962	2198.7875
2946.91261	2154.1875
2949.37409	2126.3875
2951.83407	2101.3875
2954.29254	2052.5875
2956.74951	2036.5875
2959.20498	2021.6875
2961.65895	1993.0875
2964.11142	1972.0875
2966.56239	1949.9875
2969.01186	1930.9875
2971.45984	1905.0875
2973.90632	1894.4875
2976.35131	1865.9875
2978.7948	1846.3875
2981.23681	1829.2875
2983.67732	1819.3875
2986.11635	1801.3875
2988.55388	1794.7875
2990.98993	1775.4875
2993.4245	1761.4875
2995.85758	1754.6875
2998.28917	1759.0875
3000.71928	1753.3875
3003.14791	1745.1875
3005.57506	1743.3875
3008.00073	1732.5875
3010.42493	1722.6875
3012.84764	1724.7875
3015.26888	1714.9875
3017.68865	1708.6875
3020.10694	1707.0875
3022.52376	1699.9875
3024.9391	1696.1875
3027.35298	1698.1875
3029.76539	1688.6875
3032.17632	1689.7875
3034.5858	1681.4875
3036.9938	1670.1875
3039.40034	1680.4875
3041.80542	1674.0875
3044.20903	1666.6875
3046.61118	1665.4875
3049.01187	1660.4875
3051.4111	1659.4875
3053.80888	1658.4875
3056.20519	1666.5875
3058.60005	1659.1875
3060.99345	1648.1875
3063.3854	1654.4875
3065.7759	1649.0875
3068.16494	1657.2875
3070.55254	1654.8875
3072.93868	1658.9875
3075.32338	1654.2875
3077.70662	1649.1875
3080.08842	1640.9875
3082.46878	1651.0875
3084.84769	1648.1875
3087.22515	1651.4875
3089.60118	1647.5875
3091.97576	1655.9875
3094.3489	1652.6875
3096.72061	1653.9875
3099.09087	1666.7875
3101.4597	1650.4875
3103.82709	1658.9875
3106.19305	1666.5875
3108.55757	1660.4875
3110.92066	1667.1875
3113.28232	1664.9875
3115.64255	1662.8875
3118.00134	1659.3875
3120.35871	1663.9875
3122.71466	1665.6875
