Data from AgNPs_FTO_APTES_UA_2uM_CRN_50uM_R6G_10uM_NaF_0.1M_Addition_RamanShift__5__14-42-05-234.txt Node

Date: Wed Feb 02 14:42:05 GMT 2022
User: TCL
Spectrometer: QEP01345
Trigger mode: 4
Integration Time (sec): 7.000000E0
Scans to average: 10
Electric dark correction enabled: true
Nonlinearity correction enabled: false
Boxcar width: 0
XAxis mode: Raman Shifts
Number of Pixels in Spectrum: 1044
>>>>>Begin Spectral Data<<<<<
46.04893	1.5
50.45542	0.5
54.85868	-1.9
59.25871	-0.3
63.6555	96.2
68.04907	99.7
72.43941	105.6
76.82654	113.6
81.21044	118.9
85.59113	120.3
89.96862	123.1
94.34289	132.6
98.71396	134.3
103.08183	144.8
107.4465	144.9
111.80798	147.9
116.16626	152.6
120.52136	153.7
124.87327	161.7
129.222	168.6
133.56755	178.3
137.90993	191.7
142.24913	209.6
146.58517	237.3
150.91804	278.8
155.24774	329.7
159.57429	404.9
163.89768	526.4
168.21792	700.2
172.53501	954.2
176.84895	1316.6
181.15975	1839.7
185.46741	2588.4
189.77193	3551.1
194.07331	4754.2
198.37157	6119.5
202.6667	7555.7
206.9587	8940
211.24758	10354.8
215.53334	11751.2
219.81599	13248.3
224.09553	14920
228.37195	16719.5
232.64527	18645.1
236.91549	20622.8
241.18261	22677.1
245.44663	24542.2
249.70755	26256.3
253.96539	27699.8
258.22014	28963.5
262.4718	30010.1
266.72039	30772.4
270.96589	31210
275.20832	31230.3
279.44768	31075.8
283.68397	30886.8
287.91719	30728
292.14735	30674.8
296.37445	30730.6
300.59849	30897.3
304.81948	31004.8
309.03742	30985.7
313.25231	30690.4
317.46415	30146.7
321.67296	29386.4
325.87872	28738.4
330.08145	28346
334.28114	28167.5
338.47781	28270.3
342.67145	28508.9
346.86207	28907.4
351.04966	29372.8
355.23424	29861.6
359.4158	30327.7
363.59435	30726.2
367.76989	30973.6
371.94243	31147.7
376.11196	31259.9
380.27849	31252.2
384.44203	31355.1
388.60257	31696.7
392.76012	32071.6
396.91468	32573
401.06626	33134
405.21485	33391.6
409.36047	33314.1
413.50311	33062
417.64277	33047
421.77947	33248.5
425.9132	33425.8
430.04396	33668.2
434.17176	33804.6
438.2966	33944.3
442.41849	34463.9
446.53742	35473.2
450.6534	36695.1
454.76644	37573
458.87653	37812
462.98368	37502.7
467.08789	36965.7
471.18916	36308
475.2875	35812.7
479.38291	35712.6
483.4754	35564
487.56496	35202.1
491.6516	34450.4
495.73531	33619.8
499.81612	33111.4
503.89401	33139.2
507.96899	33132.5
512.04106	33099.5
516.11023	32670.8
520.1765	32094.7
524.23987	31616.8
528.30034	31214.5
532.35792	30885.3
536.41261	30496
540.46441	30176.6
544.51333	30190
548.55936	30621.2
552.60252	31423.4
556.64279	32417.5
560.6802	33288.2
564.71473	33891.2
568.7464	34751.9
572.7752	36132
576.80114	37689.6
580.82422	39232.4
584.84444	41085.7
588.86181	43287.2
592.87633	44854.3
596.888	43978.2
600.89682	41223
604.9028	39993.1
608.90594	41434.7
612.90624	43068.5
616.90371	39858.1
620.89834	33845.8
624.89015	31185
628.87913	30976.6
632.86528	31100
636.84862	30868.7
640.82913	30198.4
644.80683	29402.6
648.78172	28967.7
652.75379	29002.1
656.72306	29328.5
660.68952	29644.3
664.65319	29311.7
668.61405	28732.9
672.57211	28653.6
676.52738	28788.5
680.47986	28786.6
684.42955	28574.8
688.37646	28374.8
692.32058	28616.1
696.26192	29142.6
700.20048	29652.7
704.13626	30057.6
708.06928	30166.7
711.99952	30080
715.927	30118.7
719.85171	30269.3
723.77365	30118.2
727.69284	29529.7
731.60928	29010.3
735.52295	28758.3
739.43388	28693.4
743.34206	28793.6
747.24749	29099.2
751.15017	29478.9
755.05012	30193.1
758.94733	31266.4
762.8418	32918.7
766.73354	35147.2
770.62254	36890
774.50882	36636.6
778.39237	34632.4
782.27321	32218.8
786.15132	30356.4
790.02671	29186.6
793.89938	28696.2
797.76935	28529.6
801.6366	28468.6
805.50115	28487.7
809.36299	28361.5
813.22213	28090.2
817.07857	27926.3
820.93231	27705.6
824.78336	27464.1
828.63172	27266.1
832.47738	27099.4
836.32036	27189.8
840.16066	27286.6
843.99827	27302.1
847.8332	27182.6
851.66546	27064.6
855.49504	27126.6
859.32195	27072.7
863.1462	26996.6
866.96777	26890.1
870.78668	26748.6
874.60293	26761.2
878.41652	26780
882.22745	26841.8
886.03573	26885.1
889.84136	26893.9
893.64433	26778.6
897.44466	26668.4
901.24235	26544.6
905.0374	26533.4
908.8298	26468.7
912.61957	26600.8
916.40671	27023.5
920.19121	27554.3
923.97308	28027
927.75233	28038.4
931.52895	27637.5
935.30295	26955.4
939.07433	26286.4
942.84309	25876.7
946.60924	25632.2
950.37278	25588.4
954.13371	25618.7
957.89203	25691.6
961.64774	25699.1
965.40086	25708.9
969.15137	25635.8
972.89929	25379.1
976.64461	25229.4
980.38733	25197.5
984.12747	25257.9
987.86502	25316
991.59999	25574.1
995.33237	25967
999.06217	26597.5
1002.78939	27400.8
1006.51404	28042.2
1010.23611	28537.2
1013.95561	28919.1
1017.67255	28995.1
1021.38692	28606
1025.09872	28078
1028.80796	27882.3
1032.51465	28292.3
1036.21877	28880.6
1039.92035	29124.4
1043.61937	28998.4
1047.31584	28627.1
1051.00976	28114.1
1054.70114	27930.2
1058.38998	27960.9
1062.07627	28271.5
1065.76003	28601
1069.44126	29009.7
1073.11995	29567.4
1076.79611	29937.8
1080.46974	30173.3
1084.14085	30361.5
1087.80943	30796.9
1091.47549	31091.8
1095.13903	31247.3
1098.80005	30740.2
1102.45857	29853.7
1106.11456	29132.7
1109.76805	28754.9
1113.41903	28763.9
1117.06751	28927.5
1120.71348	29254.5
1124.35696	29565.8
1127.99793	30027.3
1131.63641	30335.7
1135.2724	30342.2
1138.90589	30426.7
1142.5369	30641.2
1146.16542	31141.6
1149.79145	31734.2
1153.415	32360
1157.03607	33280.1
1160.65467	34800.2
1164.27079	37160.4
1167.88443	39734.7
1171.49561	42156
1175.10432	44898.8
1178.71056	48427.6
1182.31434	51751.3
1185.91565	53167.6
1189.51451	52569.7
1193.11091	51132.2
1196.70485	49440.6
1200.29634	47719.5
1203.88538	46723.7
1207.47197	46523.5
1211.05612	46369.1
1214.63782	45466.1
1218.21708	43876.2
1221.79391	42117.3
1225.36829	40785.2
1228.94024	39781.2
1232.50976	38883.7
1236.07685	38144.1
1239.6415	37794.6
1243.20374	37850.9
1246.76355	38279.9
1250.32093	38985.3
1253.8759	40028.8
1257.42845	41347.2
1260.97859	42682.8
1264.52631	44108.7
1268.07163	45577.2
1271.61453	47124.6
1275.15503	48797.2
1278.69312	50763.3
1282.22882	52934.5
1285.76211	55561.7
1289.29301	58677.4
1292.82151	62402.3
1296.34761	66814.7
1299.87133	71780
1303.39266	76611.5
1306.9116	80260.9
1310.42815	82487.3
1313.94233	83258.9
1317.45412	82412.4
1320.96354	81104
1324.47058	80226.6
1327.97525	79882
1331.47754	79595.3
1334.97747	79084.4
1338.47502	77875.8
1341.97022	75701.8
1345.46305	73177
1348.95352	71183.7
1352.44163	70421.9
1355.92738	71614.8
1359.41078	74301.5
1362.89183	76386.5
1366.37053	75371.5
1369.84688	69908.4
1373.32088	62149.9
1376.79254	56694.6
1380.26186	55257.8
1383.72883	56145.5
1387.19347	56868.6
1390.65578	56669.7
1394.11575	56729.6
1397.57339	57860.4
1401.0287	59562.5
1404.48168	60878.6
1407.93234	60768.9
1411.38068	59079.1
1414.82669	56273.4
1418.27039	53007.7
1421.71177	49777.1
1425.15083	47230.2
1428.58758	46091.1
1432.02203	46519.8
1435.45416	48321.9
1438.88399	50575.4
1442.31151	52341.8
1445.73673	53341.8
1449.15965	54095.5
1452.58027	54285.2
1455.9986	53999.5
1459.41463	53866.7
1462.82837	54436.6
1466.23982	55410.2
1469.64898	56446.9
1473.05586	57120.2
1476.46045	57267.3
1479.86276	56674.3
1483.26279	55740.5
1486.66054	55076.9
1490.05602	54982.1
1493.44922	55295
1496.84016	55429
1500.22882	55640.1
1503.61521	56175.8
1506.99934	56876.3
1510.38121	57537.9
1513.76081	57764.9
1517.13816	57361.5
1520.51324	56659.4
1523.88607	56663.2
1527.25665	57274.1
1530.62498	57856.8
1533.99105	57920.7
1537.35488	57149.6
1540.71647	55545.6
1544.07581	53359.9
1547.4329	51251.3
1550.78776	49372.2
1554.14038	48145.2
1557.49077	47355.4
1560.83892	46783.7
1564.18484	46526.4
1567.52853	46491.1
1570.86999	47031.3
1574.20922	48372
1577.54624	49887.1
1580.88103	51185.3
1584.2136	53024.2
1587.54395	56021.4
1590.87208	60051.2
1594.19801	64362
1597.52172	67669.1
1600.84321	67744.5
1604.16251	63316.1
1607.47959	56460.1
1610.79447	49791.2
1614.10715	44217.3
1617.41763	40203.2
1620.7259	37616.5
1624.03199	36514.9
1627.33587	36915
1630.63757	38679.9
1633.93707	42189.5
1637.23439	47973.7
1640.52951	56199.9
1643.82246	65792.8
1647.11321	73011
1650.40179	73268.7
1653.68819	66181
1656.97241	55150.3
1660.25446	45039.7
1663.53433	37784.2
1666.81203	33160.9
1670.08756	30292.9
1673.36092	28554.9
1676.63211	27409
1679.90115	26613.6
1683.16801	26030.1
1686.43272	25555
1689.69527	25258.5
1692.95567	25003.9
1696.2139	24859.8
1699.46999	24728.6
1702.72392	24567.4
1705.97571	24456.3
1709.22535	24342.4
1712.47284	24278.4
1715.71819	24214.8
1718.96139	24127.9
1722.20246	23997.4
1725.44139	23869.8
1728.67818	23682.6
1731.91284	23516.2
1735.14537	23338.2
1738.37576	23269.3
1741.60403	23146.3
1744.83017	23025
1748.05418	23020.8
1751.27607	22935.2
1754.49584	22893.6
1757.71349	22882.1
1760.92903	22826.4
1764.14244	22865.6
1767.35375	22763.3
1770.56294	22710.6
1773.77002	22638.2
1776.97499	22582.9
1780.17785	22551.7
1783.37861	22525.9
1786.57727	22463.8
1789.77382	22384.2
1792.96828	22348.6
1796.16064	22320.5
1799.3509	22253.5
1802.53907	22216
1805.72514	22161.6
1808.90913	22042.5
1812.09102	22075.3
1815.27083	22008.8
1818.44856	22005.1
1821.6242	21965.9
1824.79776	21960.6
1827.96924	21918.3
1831.13864	21898.8
1834.30597	21928.8
1837.47122	21964.1
1840.6344	21978.2
1843.7955	21983.6
1846.95454	21945.5
1850.11151	21968.2
1853.26642	21955.1
1856.41926	21933.4
1859.57004	21899.7
1862.71876	21826.5
1865.86542	21832.2
1869.01003	21819.4
1872.15258	21776.2
1875.29308	21791.4
1878.43152	21738.3
1881.56792	21739.1
1884.70227	21692.3
1887.83457	21652.8
1890.96482	21686.4
1894.09304	21631.5
1897.21921	21618.1
1900.34335	21578
1903.46544	21507.5
1906.58551	21473.5
1909.70353	21469.2
1912.81953	21403.2
1915.93349	21356.3
1919.04543	21310.9
1922.15534	21299.5
1925.26322	21209
1928.36908	21143.4
1931.47292	21092.6
1934.57473	21032
1937.67453	20969
1940.77232	20910.9
1943.86808	20879.5
1946.96184	20847.5
1950.05358	20757.5
1953.14331	20700.6
1956.23103	20681.1
1959.31675	20607.7
1962.40046	20553.7
1965.48217	20463.3
1968.56188	20390.3
1971.63959	20337
1974.7153	20304
1977.78901	20193.8
1980.86073	20161.7
1983.93046	20097.2
1986.99819	20022.4
1990.06394	19969
1993.1277	19918.2
1996.18947	19834.6
1999.24925	19790
2002.30706	19725.7
2005.36288	19676.7
2008.41672	19657.2
2011.46859	19570
2014.51848	19514.6
2017.56639	19465.3
2020.61233	19441.5
2023.6563	19411.2
2026.6983	19372.2
2029.73833	19303.6
2032.7764	19331.2
2035.8125	19251.7
2038.84664	19220.2
2041.87881	19212.3
2044.90903	19160.5
2047.93729	19145.7
2050.96359	19100.7
2053.98794	19102.7
2057.01034	19087.7
2060.03078	19098
2063.04927	19074.2
2066.06582	19039.4
2069.08042	19041.7
2072.09307	19037.3
2075.10378	18974
2078.11255	18960.5
2081.11938	18978.8
2084.12426	18946
2087.12722	18967.4
2090.12824	18936.6
2093.12732	18944.2
2096.12447	18966.6
2099.11969	19001.1
2102.11299	19000.1
2105.10435	18991.8
2108.09379	18993.2
2111.08131	19028.7
2114.0669	19004
2117.05057	18972.8
2120.03233	19043
2123.01216	19036.3
2125.99008	19033.2
2128.96609	19049.1
2131.94018	19039.7
2134.91236	19043.3
2137.88263	19043.5
2140.851	19030.5
2143.81746	19068.4
2146.78201	19086.3
2149.74466	19078.9
2152.7054	19036.9
2155.66425	19064.9
2158.6212	19028.2
2161.57625	19024.7
2164.52941	19029.6
2167.48067	19002.5
2170.43004	18983.9
2173.37752	18949.2
2176.32311	18967.4
2179.26681	19022.1
2182.20863	18987
2185.14856	19059
2188.08661	19024.7
2191.02278	19007.9
2193.95707	19008.9
2196.88948	18988.3
2199.82001	18960.8
2202.74867	18937.4
2205.67545	18938.3
2208.60037	18916.2
2211.52341	18868.3
2214.44458	18868.3
2217.36388	18836
2220.28132	18832.1
2223.1969	18776.9
2226.11061	18767.3
2229.02246	18716
2231.93245	18725.4
2234.84058	18709.1
2237.74686	18664
2240.65128	18656.3
2243.55385	18672.4
2246.45456	18579
2249.35343	18553.2
2252.25044	18510.1
2255.14561	18477.4
2258.03893	18423.7
2260.93041	18376.8
2263.82004	18334.3
2266.70783	18309.4
2269.59378	18249.4
2272.4779	18201.3
2275.36017	18149.5
2278.24061	18123.1
2281.11922	18073.8
2283.996	18092.1
2286.87094	18031.7
2289.74405	18020.4
2292.61534	18032.6
2295.4848	18018.5
2298.35243	18029.5
2301.21824	18018.2
2304.08223	18020
2306.94439	18017.3
2309.80474	18067.3
2312.66327	18016.4
2315.51999	18008.5
2318.37489	18014.6
2321.22797	17985.1
2324.07925	17971.8
2326.92871	17954.3
2329.77637	17937.8
2332.62222	17952.3
2335.46626	17944.8
2338.3085	17935.8
2341.14893	17943.2
2343.98756	17907.4
2346.8244	17920.9
2349.65943	17920.4
2352.49267	17909
2355.32411	17898.8
2358.15376	17876.8
2360.98161	17881.8
2363.80768	17839.4
2366.63195	17837.1
2369.45444	17800.4
2372.27514	17781.8
2375.09405	17754.4
2377.91118	17756.8
2380.72652	17688.5
2383.54009	17680.5
2386.35187	17684.4
2389.16188	17601.1
2391.97011	17597.9
2394.77657	17570.5
2397.58125	17566.8
2400.38416	17550.6
2403.18529	17517.6
2405.98466	17517.2
2408.78226	17504
2411.57809	17491.7
2414.37216	17448.3
2417.16446	17410.7
2419.955	17409.1
2422.74378	17415.3
2425.5308	17410.1
2428.31606	17422.2
2431.09956	17399.7
2433.88131	17363.1
2436.6613	17376.1
2439.43954	17357.7
2442.21603	17370
2444.99077	17325.2
2447.76377	17355.1
2450.53501	17345.7
2453.30451	17360.2
2456.07226	17356.2
2458.83827	17359.1
2461.60254	17359.3
2464.36507	17396.9
2467.12586	17375.6
2469.88492	17345.8
2472.64224	17385.5
2475.39782	17390.9
2478.15167	17417
2480.90379	17400.9
2483.65417	17400.1
2486.40283	17446
2489.14976	17442.2
2491.89497	17411.3
2494.63845	17446.2
2497.3802	17431.3
2500.12024	17411
2502.85855	17425.5
2505.59514	17440
2508.33002	17415
2511.06318	17427.8
2513.79462	17439.8
2516.52435	17414.3
2519.25237	17380.7
2521.97867	17393.2
2524.70327	17370.5
2527.42616	17363.4
2530.14734	17350.4
2532.86681	17346.4
2535.58458	17348.9
2538.30065	17338.8
2541.01501	17338.9
2543.72768	17316.8
2546.43864	17338
2549.14791	17295
2551.85548	17309.8
2554.56136	17302.4
2557.26554	17284.6
2559.96803	17277.5
2562.66883	17318.1
2565.36794	17326
2568.06536	17314.1
2570.7611	17281.3
2573.45514	17262.8
2576.14751	17265.5
2578.83819	17254.4
2581.52719	17259.3
2584.21451	17261.8
2586.90015	17259.2
2589.58411	17256.7
2592.2664	17275.6
2594.94701	17245.6
2597.62594	17253.3
2600.30321	17214.5
2602.9788	17247.2
2605.65273	17207.1
2608.32498	17253
2610.99557	17237.1
2613.66449	17256.7
2616.33175	17260.2
2618.99734	17277.1
2621.66128	17256
2624.32355	17246.4
2626.98416	17266.6
2629.64311	17252.8
2632.30041	17241.4
2634.95605	17259.4
2637.61004	17234.8
2640.26238	17193.5
2642.91306	17235.5
2645.56209	17247.9
2648.20948	17262.6
2650.85521	17246.6
2653.4993	17253.3
2656.14175	17255
2658.78255	17279.7
2661.42171	17258.4
2664.05923	17325.8
2666.6951	17335.4
2669.32934	17358.5
2671.96194	17345.4
2674.59291	17325
2677.22224	17320
2679.84993	17376.5
2682.476	17337.5
2685.10043	17359.6
2687.72324	17312.5
2690.34441	17341.9
2692.96396	17320.5
2695.58188	17306.1
2698.19818	17319.6
2700.81285	17352.5
2703.4259	17331.8
2706.03733	17370.1
2708.64714	17408.7
2711.25533	17402.9
2713.86191	17379
2716.46687	17438.6
2719.07021	17437.3
2721.67194	17489
2724.27206	17477.2
2726.87057	17531.3
2729.46747	17559.9
2732.06276	17558.2
2734.65644	17502.8
2737.24852	17524.8
2739.83899	17504.4
2742.42786	17497
2745.01513	17477.3
2747.60079	17472.8
2750.18486	17457.7
2752.76733	17491.8
2755.3482	17496.6
2757.92747	17566
2760.50515	17570.1
2763.08123	17542.5
2765.65573	17535.2
2768.22863	17561.6
2770.79994	17505.8
2773.36967	17513.9
2775.9378	17548.5
2778.50435	17525.4
2781.06932	17540.9
2783.6327	17533.4
2786.1945	17532
2788.75471	17543.8
2791.31335	17527.4
2793.87041	17477.5
2796.42589	17479.2
2798.97979	17468
2801.53212	17454.7
2804.08288	17438.1
2806.63206	17372.2
2809.17967	17382.7
2811.72571	17318.2
2814.27018	17338.1
2816.81308	17300.5
2819.35442	17285.6
2821.89419	17226.1
2824.43239	17222.3
2826.96904	17222.2
2829.50412	17230.1
2832.03763	17179.8
2834.56959	17207.9
2837.1	17174.6
2839.62884	17195.5
2842.15613	17155.4
2844.68186	17219.2
2847.20604	17232.4
2849.72867	17217
2852.24974	17245.5
2854.76927	17233.7
2857.28724	17189.6
2859.80367	17181.3
2862.31855	17154.8
2864.83189	17129.3
2867.34368	17135.6
2869.85393	17145.3
2872.36264	17097.9
2874.8698	17113.3
2877.37543	17118
2879.87952	17095.6
2882.38207	17108.2
2884.88308	17099.6
2887.38256	17112.6
2889.88051	17135.6
2892.37692	17160.9
2894.8718	17159.7
2897.36515	17167.5
2899.85698	17187.7
2902.34727	17222.3
2904.83604	17218.9
2907.32328	17271.5
2909.809	17242.3
2912.29319	17231.4
2914.77587	17257.6
2917.25702	17223.9
2919.73665	17216.2
2922.21476	17214.6
2924.69136	17217.5
2927.16644	17254.7
2929.64	17251.3
2932.11205	17260.2
2934.58258	17196.4
2937.05161	17240.7
2939.51912	17255.7
2941.98513	17221
2944.44962	17171.7
2946.91261	17101.1
2949.37409	17124.6
2951.83407	17102.5
2954.29254	17079.1
2956.74951	17065.1
2959.20498	17087.6
2961.65895	17040.5
2964.11142	17010.6
2966.56239	16970.4
2969.01186	16966.5
2971.45984	16950.6
2973.90632	16906.2
2976.35131	16858.5
2978.7948	16809.9
2981.23681	16803.7
2983.67732	16740.4
2986.11635	16686.3
2988.55388	16647.9
2990.98993	16659.3
2993.4245	16596.3
2995.85758	16573.5
2998.28917	16557.2
3000.71928	16514.6
3003.14791	16444.4
3005.57506	16494.9
3008.00073	16364
3010.42493	16360.9
3012.84764	16368.1
3015.26888	16343.1
3017.68865	16297.3
3020.10694	16242
3022.52376	16236.2
3024.9391	16217.3
3027.35298	16179.1
3029.76539	16163.1
3032.17632	16176.4
3034.5858	16174.3
3036.9938	16177.8
3039.40034	16147.4
3041.80542	16144.9
3044.20903	16121.3
3046.61118	16088.2
3049.01187	16043.8
3051.4111	16035.6
3053.80888	15975
3056.20519	15946.4
3058.60005	15921.6
3060.99345	15895.7
3063.3854	15868.8
3065.7759	15818.1
3068.16494	15764.4
3070.55254	15691.9
3072.93868	15676.8
3075.32338	15615.9
3077.70662	15591.3
3080.08842	15537.4
3082.46878	15554.7
3084.84769	15534.3
3087.22515	15528.8
3089.60118	15517
3091.97576	15509.3
3094.3489	15512
3096.72061	15484
3099.09087	15471.3
3101.4597	15466.6
3103.82709	15441
3106.19305	15406
3108.55757	15396.2
3110.92066	15327.7
3113.28232	15312.9
3115.64255	15234.6
3118.00134	15197
3120.35871	15188.2
3122.71466	15188.7
3125.06917	15169.1
3127.42226	15132.5
3129.77393	15162.4
3132.12417	15110.1
3134.47299	15116.2
3136.82039	15073.6
3139.16636	15044.7
3141.51092	15061.8
3143.85406	15083.5
3146.19579	15060.7
3148.53609	15059.8
3150.87499	15071.6
3153.21246	15060.9
3155.54853	15061.8
3157.88318	15049
3160.21642	15038.6
3162.54826	15035.6
3164.87868	15013.8
3167.2077	15017.4
3169.5353	15028.9
3171.86151	15001
3174.18631	14971.3
3176.5097	14957.7
3178.83169	14964
3181.15228	14958
3183.47147	14915.2
3185.78926	14918.5
3188.10565	14890.2
3190.42065	14881.8
3192.73424	14884.9
3195.04645	14859.7
3197.35725	14881.8
3199.66667	14839.5
3201.97469	14861.1
3204.28132	14816.5
3206.58656	14816.9
3208.8904	14847.9
3211.19287	14830.5
3213.49394	14827.3
3215.79363	14832.5
3218.09193	14828.8
3220.38884	14806.8
3222.68438	14828.4
3224.97853	14787.2
3227.2713	14779.4
3229.56269	14762.8
3231.8527	14791.7
3234.14133	14773.3
3236.42858	14709.5
3238.71446	14742.4
3240.99896	14692.4
3243.28209	14697.4
3245.56384	14678.8
3247.84423	14677
3250.12324	14652.3
3252.40088	14659.1
3254.67715	14642.8
3256.95205	14618
3259.22558	14582.3
3261.49775	14518.5
3263.76855	14518.7
3266.03799	14438.3
3268.30606	14448.5
3270.57277	14429
3272.83812	14420.6
3275.10211	14394.3
3277.36474	14391.1
3279.62601	14374.6
3281.88593	14395.5
3284.14448	14422.6
3286.40168	14401.1
3288.65753	14382.6
3290.91202	14369.1
3293.16516	14305.3
3295.41695	14269.1
3297.66738	14180.9
3299.91647	14113.1
3302.16421	14032.2
3304.4106	13935.1
3306.65564	13894.8
3308.89933	13813.4
3311.14169	13712.7
3313.38269	13610.2
3315.62236	13557.2
3317.86068	13436.1
3320.09766	13276.3
3322.3333	13171.2
3324.5676	13154.5
3326.80056	12965.5
3329.03219	12889
3331.26248	3.3
3333.49143	-0.2
3335.71905	-1.4
