Data from AgNPs_FTO_APTES_UA_2uM_CRN_500uM_R6G_10uM_NaF_0.1M_Addition_RamanShift__13__17-13-45-411.txt Node

Date: Wed Feb 02 17:13:45 GMT 2022
User: TCL
Spectrometer: QEP01345
Trigger mode: 4
Integration Time (sec): 7.000000E0
Scans to average: 10
Electric dark correction enabled: true
Nonlinearity correction enabled: false
Boxcar width: 0
XAxis mode: Raman Shifts
Number of Pixels in Spectrum: 1044
>>>>>Begin Spectral Data<<<<<
46.04893	0.9125
50.45542	-0.3875
54.85868	-0.5875
59.25871	0.3125
63.6555	56.8125
68.04907	63.3125
72.43941	59.0125
76.82654	72.1125
81.21044	72.2125
85.59113	75.9125
89.96862	76.6125
94.34289	78.5125
98.71396	80.6125
103.08183	88.3125
107.4465	90.7125
111.80798	88.7125
116.16626	92.6125
120.52136	99.8125
124.87327	98.5125
129.222	102.5125
133.56755	108.9125
137.90993	113.9125
142.24913	130.7125
146.58517	143.5125
150.91804	166.1125
155.24774	198.2125
159.57429	241.1125
163.89768	305.7125
168.21792	398.8125
172.53501	552.8125
176.84895	754.3125
181.15975	1067.9125
185.46741	1494.8125
189.77193	2056.0125
194.07331	2764.3125
198.37157	3562.6125
202.6667	4418.7125
206.9587	5267.4125
211.24758	6092.6125
215.53334	6901.7125
219.81599	7772.5125
224.09553	8705.7125
228.37195	9698.9125
232.64527	10824.6125
236.91549	11989.0125
241.18261	13189.3125
245.44663	14292.7125
249.70755	15350.8125
253.96539	16305.8125
258.22014	17062.8125
262.4718	17627.6125
266.72039	18024.2125
270.96589	18251.9125
275.20832	18353.8125
279.44768	18364.9125
283.68397	18278.3125
287.91719	18205.5125
292.14735	18203.0125
296.37445	18258.5125
300.59849	18300.9125
304.81948	18336.4125
309.03742	18301.2125
313.25231	18092.9125
317.46415	17672.2125
321.67296	17171.1125
325.87872	16732.5125
330.08145	16511.1125
334.28114	16383.0125
338.47781	16439.9125
342.67145	16549.2125
346.86207	16678.1125
351.04966	16830.6125
355.23424	16996.7125
359.4158	17150.2125
363.59435	17243.3125
367.76989	17333.4125
371.94243	17364.9125
376.11196	17339.5125
380.27849	17366.4125
384.44203	17397.3125
388.60257	17517.2125
392.76012	17739.3125
396.91468	18025.3125
401.06626	18326.1125
405.21485	18570.3125
409.36047	18552.9125
413.50311	18383.3125
417.64277	18241.5125
421.77947	18267.0125
425.9132	18342.2125
430.04396	18468.9125
434.17176	18567.4125
438.2966	18708.0125
442.41849	18930.0125
446.53742	19265.9125
450.6534	19680.7125
454.76644	20016.9125
458.87653	20174.8125
462.98368	20222.9125
467.08789	20166.3125
471.18916	20037.2125
475.2875	19948.2125
479.38291	19941.7125
483.4754	19946.8125
487.56496	19799.9125
491.6516	19458.8125
495.73531	19031.4125
499.81612	18674.5125
503.89401	18657.7125
507.96899	18644.2125
512.04106	18660.9125
516.11023	18573.6125
520.1765	18322.3125
524.23987	18107.6125
528.30034	17886.3125
532.35792	17673.0125
536.41261	17541.7125
540.46441	17384.7125
544.51333	17432.5125
548.55936	17779.6125
552.60252	18200.8125
556.64279	18677.0125
560.6802	19026.7125
564.71473	19391.2125
568.7464	19887.8125
572.7752	20762.9125
576.80114	21722.7125
580.82422	22525.4125
584.84444	23013.3125
588.86181	23422.2125
592.87633	23711.2125
596.888	23362.3125
600.89682	22533.7125
604.9028	21996.6125
608.90594	22237.7125
612.90624	22624.1125
616.90371	21261.6125
620.89834	18817.7125
624.89015	17786.7125
628.87913	17792.5125
632.86528	18026.0125
636.84862	18057.0125
640.82913	17779.0125
644.80683	17384.8125
648.78172	17084.9125
652.75379	16972.6125
656.72306	17032.4125
660.68952	17146.4125
664.65319	17125.7125
668.61405	17009.4125
672.57211	16970.2125
676.52738	17026.2125
680.47986	17037.7125
684.42955	17034.4125
688.37646	16957.0125
692.32058	17001.8125
696.26192	17125.4125
700.20048	17302.4125
704.13626	17466.9125
708.06928	17628.8125
711.99952	17684.5125
715.927	17614.0125
719.85171	17478.0125
723.77365	17307.9125
727.69284	17007.0125
731.60928	16814.9125
735.52295	16683.0125
739.43388	16606.2125
743.34206	16613.8125
747.24749	16709.3125
751.15017	16928.8125
755.05012	17298.2125
758.94733	17772.8125
762.8418	18647.1125
766.73354	19746.3125
770.62254	20719.1125
774.50882	20715.0125
778.39237	19728.3125
782.27321	18543.2125
786.15132	17583.7125
790.02671	16965.4125
793.89938	16600.0125
797.76935	16426.0125
801.6366	16369.8125
805.50115	16325.9125
809.36299	16218.2125
813.22213	16140.1125
817.07857	16165.5125
820.93231	16179.6125
824.78336	16095.1125
828.63172	15975.8125
832.47738	15868.2125
836.32036	15815.4125
840.16066	15807.5125
843.99827	15765.2125
847.8332	15772.1125
851.66546	15755.3125
855.49504	15783.3125
859.32195	15750.3125
863.1462	15720.0125
866.96777	15664.9125
870.78668	15649.1125
874.60293	15645.1125
878.41652	15599.0125
882.22745	15648.5125
886.03573	15634.3125
889.84136	15700.3125
893.64433	15655.4125
897.44466	15655.5125
901.24235	15613.1125
905.0374	15592.8125
908.8298	15599.4125
912.61957	15693.7125
916.40671	15930.2125
920.19121	16251.7125
923.97308	16371.0125
927.75233	16267.6125
931.52895	15983.4125
935.30295	15675.6125
939.07433	15351.0125
942.84309	15075.8125
946.60924	14905.3125
950.37278	14825.8125
954.13371	14786.2125
957.89203	14770.3125
961.64774	14793.4125
965.40086	14795.6125
969.15137	14753.7125
972.89929	14627.6125
976.64461	14528.0125
980.38733	14425.5125
984.12747	14411.0125
987.86502	14444.0125
991.59999	14492.7125
995.33237	14567.4125
999.06217	14660.6125
1002.78939	14858.8125
1006.51404	14987.7125
1010.23611	15186.7125
1013.95561	15365.3125
1017.67255	15408.2125
1021.38692	15356.4125
1025.09872	15160.7125
1028.80796	15062.5125
1032.51465	14968.3125
1036.21877	14997.1125
1039.92035	15049.5125
1043.61937	15169.2125
1047.31584	15242.2125
1051.00976	15349.8125
1054.70114	15515.3125
1058.38998	15651.2125
1062.07627	15885.2125
1065.76003	16213.7125
1069.44126	16428.7125
1073.11995	16654.8125
1076.79611	16823.0125
1080.46974	16880.2125
1084.14085	16887.3125
1087.80943	16952.0125
1091.47549	17135.8125
1095.13903	17306.2125
1098.80005	17217.0125
1102.45857	16799.0125
1106.11456	16325.5125
1109.76805	16009.4125
1113.41903	15901.1125
1117.06751	15903.3125
1120.71348	16083.1125
1124.35696	16317.3125
1127.99793	16564.4125
1131.63641	16761.3125
1135.2724	16732.8125
1138.90589	16690.0125
1142.5369	16772.2125
1146.16542	16940.9125
1149.79145	17245.8125
1153.415	17545.1125
1157.03607	17927.1125
1160.65467	18443.9125
1164.27079	19223.5125
1167.88443	20112.6125
1171.49561	21052.6125
1175.10432	22145.3125
1178.71056	23440.0125
1182.31434	24741.5125
1185.91565	25665.3125
1189.51451	25999.5125
1193.11091	25835.7125
1196.70485	25314.3125
1200.29634	24550.0125
1203.88538	23889.5125
1207.47197	23650.1125
1211.05612	23615.6125
1214.63782	23321.7125
1218.21708	22651.7125
1221.79391	21699.0125
1225.36829	20845.8125
1228.94024	20298.6125
1232.50976	19934.3125
1236.07685	19798.5125
1239.6415	19654.5125
1243.20374	19692.2125
1246.76355	19846.1125
1250.32093	20081.7125
1253.8759	20490.6125
1257.42845	21010.4125
1260.97859	21609.6125
1264.52631	22201.3125
1268.07163	22763.5125
1271.61453	23353.9125
1275.15503	24046.7125
1278.69312	24793.6125
1282.22882	25633.5125
1285.76211	26534.5125
1289.29301	27703.2125
1292.82151	29074.2125
1296.34761	30597.8125
1299.87133	32369.1125
1303.39266	33905.8125
1306.9116	35003.8125
1310.42815	35705.7125
1313.94233	35909.2125
1317.45412	35756.4125
1320.96354	35581.3125
1324.47058	35649.3125
1327.97525	35902.1125
1331.47754	36174.9125
1334.97747	36383.0125
1338.47502	36445.7125
1341.97022	36437.7125
1345.46305	36295.1125
1348.95352	35908.1125
1352.44163	35243.3125
1355.92738	34672.7125
1359.41078	34474.5125
1362.89183	34322.0125
1366.37053	33522.7125
1369.84688	31606.3125
1373.32088	29220.7125
1376.79254	27434.7125
1380.26186	26850.8125
1383.72883	27013.4125
1387.19347	27265.8125
1390.65578	27333.2125
1394.11575	27333.6125
1397.57339	27487.7125
1401.0287	27658.7125
1404.48168	27745.0125
1407.93234	27409.3125
1411.38068	26582.0125
1414.82669	25398.7125
1418.27039	24065.4125
1421.71177	22871.6125
1425.15083	21882.0125
1428.58758	21365.5125
1432.02203	21389.1125
1435.45416	21819.5125
1438.88399	22409.7125
1442.31151	22932.0125
1445.73673	23365.8125
1449.15965	23816.6125
1452.58027	24240.6125
1455.9986	24600.8125
1459.41463	24929.3125
1462.82837	25231.5125
1466.23982	25543.1125
1469.64898	25841.1125
1473.05586	25987.4125
1476.46045	25983.4125
1479.86276	25811.9125
1483.26279	25587.0125
1486.66054	25482.9125
1490.05602	25591.2125
1493.44922	25892.2125
1496.84016	26405.0125
1500.22882	27052.2125
1503.61521	27880.8125
1506.99934	28665.7125
1510.38121	29339.1125
1513.76081	29565.0125
1517.13816	29405.0125
1520.51324	29169.5125
1523.88607	29103.5125
1527.25665	29184.9125
1530.62498	29260.7125
1533.99105	29059.0125
1537.35488	28506.3125
1540.71647	27596.4125
1544.07581	26568.7125
1547.4329	25550.2125
1550.78776	24684.4125
1554.14038	24138.4125
1557.49077	23852.7125
1560.83892	23741.2125
1564.18484	23685.6125
1567.52853	23715.3125
1570.86999	23978.1125
1574.20922	24480.1125
1577.54624	25011.6125
1580.88103	25349.6125
1584.2136	25662.4125
1587.54395	26192.4125
1590.87208	27060.3125
1594.19801	28199.0125
1597.52172	29201.1125
1600.84321	29282.2125
1604.16251	28030.3125
1607.47959	26015.1125
1610.79447	24004.0125
1614.10715	22038.8125
1617.41763	20439.7125
1620.7259	19245.3125
1624.03199	18512.2125
1627.33587	18347.2125
1630.63757	18674.6125
1633.93707	19693.6125
1637.23439	21446.8125
1640.52951	24129.6125
1643.82246	27454.5125
1647.11321	30503.7125
1650.40179	31923.1125
1653.68819	30758.8125
1656.97241	27680.0125
1660.25446	23895.8125
1663.53433	20554.3125
1666.81203	18124.3125
1670.08756	16414.1125
1673.36092	15304.6125
1676.63211	14614.8125
1679.90115	14144.1125
1683.16801	13796.6125
1686.43272	13518.9125
1689.69527	13340.3125
1692.95567	13199.6125
1696.2139	13094.8125
1699.46999	13026.2125
1702.72392	12945.1125
1705.97571	12896.9125
1709.22535	12810.6125
1712.47284	12732.0125
1715.71819	12671.3125
1718.96139	12621.3125
1722.20246	12533.1125
1725.44139	12468.5125
1728.67818	12386.0125
1731.91284	12300.2125
1735.14537	12255.0125
1738.37576	12192.5125
1741.60403	12131.8125
1744.83017	12092.8125
1748.05418	12050.3125
1751.27607	12045.1125
1754.49584	12022.5125
1757.71349	12020.9125
1760.92903	12002.7125
1764.14244	11976.9125
1767.35375	11983.2125
1770.56294	11917.7125
1773.77002	11891.2125
1776.97499	11840.6125
1780.17785	11792.0125
1783.37861	11737.2125
1786.57727	11688.6125
1789.77382	11661.7125
1792.96828	11623.9125
1796.16064	11568.6125
1799.3509	11527.3125
1802.53907	11521.6125
1805.72514	11466.9125
1808.90913	11448.1125
1812.09102	11415.9125
1815.27083	11372.9125
1818.44856	11339.6125
1821.6242	11297.0125
1824.79776	11275.6125
1827.96924	11265.4125
1831.13864	11262.0125
1834.30597	11237.6125
1837.47122	11241.3125
1840.6344	11248.7125
1843.7955	11216.2125
1846.95454	11201.7125
1850.11151	11208.9125
1853.26642	11200.3125
1856.41926	11160.1125
1859.57004	11135.9125
1862.71876	11125.0125
1865.86542	11104.3125
1869.01003	11048.7125
1872.15258	11059.8125
1875.29308	11029.5125
1878.43152	11014.4125
1881.56792	10984.7125
1884.70227	10965.1125
1887.83457	10952.4125
1890.96482	10932.1125
1894.09304	10879.9125
1897.21921	10873.1125
1900.34335	10857.3125
1903.46544	10849.6125
1906.58551	10814.1125
1909.70353	10814.5125
1912.81953	10756.1125
1915.93349	10761.7125
1919.04543	10720.8125
1922.15534	10679.4125
1925.26322	10663.5125
1928.36908	10654.3125
1931.47292	10620.5125
1934.57473	10560.5125
1937.67453	10527.9125
1940.77232	10496.2125
1943.86808	10488.7125
1946.96184	10455.4125
1950.05358	10404.2125
1953.14331	10393.2125
1956.23103	10348.4125
1959.31675	10312.5125
1962.40046	10283.2125
1965.48217	10250.0125
1968.56188	10194.9125
1971.63959	10160.0125
1974.7153	10134.2125
1977.78901	10101.9125
1980.86073	10065.7125
1983.93046	10031.5125
1986.99819	9975.2125
1990.06394	9969.5125
1993.1277	9929.4125
1996.18947	9878.5125
1999.24925	9859.5125
2002.30706	9819.3125
2005.36288	9774.9125
2008.41672	9732.6125
2011.46859	9702.2125
2014.51848	9662.7125
2017.56639	9645.7125
2020.61233	9613.6125
2023.6563	9586.8125
2026.6983	9585.6125
2029.73833	9532.8125
2032.7764	9509.0125
2035.8125	9474.0125
2038.84664	9447.3125
2041.87881	9458.9125
2044.90903	9390.1125
2047.93729	9393.3125
2050.96359	9364.1125
2053.98794	9360.5125
2057.01034	9340.5125
2060.03078	9319.0125
2063.04927	9315.1125
2066.06582	9312.3125
2069.08042	9305.0125
2072.09307	9302.7125
2075.10378	9265.6125
2078.11255	9250.9125
2081.11938	9257.8125
2084.12426	9258.9125
2087.12722	9241.1125
2090.12824	9253.1125
2093.12732	9243.2125
2096.12447	9223.8125
2099.11969	9221.9125
2102.11299	9222.2125
2105.10435	9221.1125
2108.09379	9230.0125
2111.08131	9229.2125
2114.0669	9199.0125
2117.05057	9214.0125
2120.03233	9234.9125
2123.01216	9217.5125
2125.99008	9215.2125
2128.96609	9216.6125
2131.94018	9225.3125
2134.91236	9192.1125
2137.88263	9195.6125
2140.851	9192.8125
2143.81746	9185.0125
2146.78201	9185.6125
2149.74466	9188.2125
2152.7054	9175.6125
2155.66425	9142.4125
2158.6212	9155.4125
2161.57625	9156.0125
2164.52941	9146.3125
2167.48067	9094.8125
2170.43004	9115.0125
2173.37752	9117.9125
2176.32311	9100.3125
2179.26681	9117.0125
2182.20863	9093.5125
2185.14856	9118.3125
2188.08661	9112.4125
2191.02278	9086.9125
2193.95707	9035.6125
2196.88948	9044.2125
2199.82001	9017.5125
2202.74867	9030.7125
2205.67545	9007.4125
2208.60037	8984.3125
2211.52341	8944.2125
2214.44458	8944.8125
2217.36388	8929.6125
2220.28132	8897.9125
2223.1969	8896.9125
2226.11061	8871.9125
2229.02246	8863.6125
2231.93245	8860.5125
2234.84058	8815.7125
2237.74686	8795.9125
2240.65128	8805.9125
2243.55385	8773.9125
2246.45456	8770.7125
2249.35343	8740.2125
2252.25044	8723.9125
2255.14561	8668.3125
2258.03893	8660.4125
2260.93041	8641.0125
2263.82004	8602.6125
2266.70783	8575.6125
2269.59378	8549.4125
2272.4779	8535.2125
2275.36017	8497.6125
2278.24061	8475.3125
2281.11922	8448.4125
2283.996	8444.1125
2286.87094	8415.2125
2289.74405	8408.4125
2292.61534	8387.7125
2295.4848	8376.5125
2298.35243	8363.8125
2301.21824	8368.1125
2304.08223	8335.6125
2306.94439	8328.7125
2309.80474	8333.0125
2312.66327	8323.7125
2315.51999	8286.5125
2318.37489	8272.4125
2321.22797	8263.6125
2324.07925	8231.0125
2326.92871	8246.3125
2329.77637	8219.7125
2332.62222	8216.8125
2335.46626	8204.0125
2338.3085	8160.5125
2341.14893	8159.4125
2343.98756	8158.2125
2346.8244	8173.2125
2349.65943	8136.8125
2352.49267	8133.2125
2355.32411	8139.3125
2358.15376	8135.0125
2360.98161	8117.3125
2363.80768	8112.1125
2366.63195	8097.2125
2369.45444	8121.5125
2372.27514	8084.7125
2375.09405	8075.4125
2377.91118	8072.3125
2380.72652	8065.9125
2383.54009	8026.9125
2386.35187	8015.7125
2389.16188	7969.7125
2391.97011	7957.5125
2394.77657	7943.5125
2397.58125	7919.6125
2400.38416	7905.2125
2403.18529	7894.0125
2405.98466	7861.2125
2408.78226	7879.1125
2411.57809	7868.2125
2414.37216	7844.3125
2417.16446	7823.0125
2419.955	7836.1125
2422.74378	7844.6125
2425.5308	7826.6125
2428.31606	7818.2125
2431.09956	7800.3125
2433.88131	7784.6125
2436.6613	7761.1125
2439.43954	7743.9125
2442.21603	7752.7125
2444.99077	7734.3125
2447.76377	7747.6125
2450.53501	7747.1125
2453.30451	7715.8125
2456.07226	7709.0125
2458.83827	7704.2125
2461.60254	7685.0125
2464.36507	7702.9125
2467.12586	7685.0125
2469.88492	7690.0125
2472.64224	7675.7125
2475.39782	7653.8125
2478.15167	7659.3125
2480.90379	7664.9125
2483.65417	7649.1125
2486.40283	7634.4125
2489.14976	7653.1125
2491.89497	7634.5125
2494.63845	7641.5125
2497.3802	7604.1125
2500.12024	7610.9125
2502.85855	7660.0125
2505.59514	7660.7125
2508.33002	7637.6125
2511.06318	7615.4125
2513.79462	7606.9125
2516.52435	7562.0125
2519.25237	7568.2125
2521.97867	7548.5125
2524.70327	7538.7125
2527.42616	7524.9125
2530.14734	7518.3125
2532.86681	7508.6125
2535.58458	7491.6125
2538.30065	7486.7125
2541.01501	7481.3125
2543.72768	7441.7125
2546.43864	7440.3125
2549.14791	7424.7125
2551.85548	7431.3125
2554.56136	7410.4125
2557.26554	7392.0125
2559.96803	7392.6125
2562.66883	7378.6125
2565.36794	7371.8125
2568.06536	7380.2125
2570.7611	7335.4125
2573.45514	7347.3125
2576.14751	7329.9125
2578.83819	7317.2125
2581.52719	7324.9125
2584.21451	7293.7125
2586.90015	7275.3125
2589.58411	7277.5125
2592.2664	7279.6125
2594.94701	7262.0125
2597.62594	7241.4125
2600.30321	7256.8125
2602.9788	7262.3125
2605.65273	7219.4125
2608.32498	7240.9125
2610.99557	7232.6125
2613.66449	7237.3125
2616.33175	7206.4125
2618.99734	7197.6125
2621.66128	7185.6125
2624.32355	7204.6125
2626.98416	7175.7125
2629.64311	7191.6125
2632.30041	7181.0125
2634.95605	7174.0125
2637.61004	7138.3125
2640.26238	7125.8125
2642.91306	7133.0125
2645.56209	7124.9125
2648.20948	7127.0125
2650.85521	7125.5125
2653.4993	7115.1125
2656.14175	7122.9125
2658.78255	7121.0125
2661.42171	7121.7125
2664.05923	7113.7125
2666.6951	7110.3125
2669.32934	7123.4125
2671.96194	7115.1125
2674.59291	7135.8125
2677.22224	7101.7125
2679.84993	7113.5125
2682.476	7116.2125
2685.10043	7127.9125
2687.72324	7121.6125
2690.34441	7109.4125
2692.96396	7112.0125
2695.58188	7135.3125
2698.19818	7112.6125
2700.81285	7125.5125
2703.4259	7111.6125
2706.03733	7142.1125
2708.64714	7141.1125
2711.25533	7132.3125
2713.86191	7089.4125
2716.46687	7099.4125
2719.07021	7106.3125
2721.67194	7106.0125
2724.27206	7106.9125
2726.87057	7096.3125
2729.46747	7101.5125
2732.06276	7103.7125
2734.65644	7091.4125
2737.24852	7111.5125
2739.83899	7064.3125
2742.42786	7086.1125
2745.01513	7071.1125
2747.60079	7051.8125
2750.18486	7049.9125
2752.76733	7079.4125
2755.3482	7061.5125
2757.92747	7054.9125
2760.50515	7042.0125
2763.08123	7037.6125
2765.65573	7047.4125
2768.22863	7032.0125
2770.79994	7009.4125
2773.36967	7011.4125
2775.9378	7021.2125
2778.50435	7011.3125
2781.06932	7003.0125
2783.6327	6991.5125
2786.1945	6998.2125
2788.75471	6989.3125
2791.31335	6959.7125
2793.87041	6948.1125
2796.42589	6929.0125
2798.97979	6923.7125
2801.53212	6907.7125
2804.08288	6933.4125
2806.63206	6902.6125
2809.17967	6874.7125
2811.72571	6869.4125
2814.27018	6883.8125
2816.81308	6856.8125
2819.35442	6820.7125
2821.89419	6843.8125
2824.43239	6833.8125
2826.96904	6805.5125
2829.50412	6806.6125
2832.03763	6789.8125
2834.56959	6817.5125
2837.1	6817.4125
2839.62884	6848.9125
2842.15613	6852.1125
2844.68186	6864.2125
2847.20604	6914.2125
2849.72867	6912.2125
2852.24974	6912.7125
2854.76927	6894.0125
2857.28724	6900.5125
2859.80367	6853.8125
2862.31855	6871.6125
2864.83189	6831.3125
2867.34368	6818.4125
2869.85393	6813.8125
2872.36264	6809.6125
2874.8698	6800.4125
2877.37543	6810.9125
2879.87952	6809.9125
2882.38207	6796.4125
2884.88308	6763.3125
2887.38256	6768.5125
2889.88051	6763.4125
2892.37692	6747.4125
2894.8718	6771.4125
2897.36515	6769.0125
2899.85698	6787.5125
2902.34727	6780.0125
2904.83604	6779.2125
2907.32328	6804.2125
2909.809	6793.4125
2912.29319	6806.9125
2914.77587	6797.2125
2917.25702	6789.2125
2919.73665	6770.5125
2922.21476	6785.3125
2924.69136	6779.4125
2927.16644	6763.7125
2929.64	6767.9125
2932.11205	6777.2125
2934.58258	6751.5125
2937.05161	6737.6125
2939.51912	6765.7125
2941.98513	6730.2125
2944.44962	6698.0125
2946.91261	6676.2125
2949.37409	6652.5125
2951.83407	6638.4125
2954.29254	6615.5125
2956.74951	6594.6125
2959.20498	6598.6125
2961.65895	6591.1125
2964.11142	6580.3125
2966.56239	6554.2125
2969.01186	6538.9125
2971.45984	6499.6125
2973.90632	6499.4125
2976.35131	6466.2125
2978.7948	6439.7125
2981.23681	6430.0125
2983.67732	6415.8125
2986.11635	6408.7125
2988.55388	6371.3125
2990.98993	6362.7125
2993.4245	6350.9125
2995.85758	6311.6125
2998.28917	6319.6125
3000.71928	6300.8125
3003.14791	6282.7125
3005.57506	6284.0125
3008.00073	6247.0125
3010.42493	6239.9125
3012.84764	6223.5125
3015.26888	6208.7125
3017.68865	6202.9125
3020.10694	6196.8125
3022.52376	6162.4125
3024.9391	6160.4125
3027.35298	6152.9125
3029.76539	6136.0125
3032.17632	6116.0125
3034.5858	6116.9125
3036.9938	6108.6125
3039.40034	6093.2125
3041.80542	6095.3125
3044.20903	6073.4125
3046.61118	6058.9125
3049.01187	6050.4125
3051.4111	6047.0125
3053.80888	6043.3125
3056.20519	6020.4125
3058.60005	6028.2125
3060.99345	5986.7125
3063.3854	5994.7125
3065.7759	5953.7125
3068.16494	5952.3125
