Data from AgNPs_FTO_APTES_UA_2uM_CRN_0uM_R6G_10uM_NaF_0.1M_Addition_RamanShift__4__10-09-04-916.txt Node

Date: Wed Feb 02 10:09:04 GMT 2022
User: TCL
Spectrometer: QEP01345
Trigger mode: 4
Integration Time (sec): 7.000000E0
Scans to average: 10
Electric dark correction enabled: true
Nonlinearity correction enabled: false
Boxcar width: 0
XAxis mode: Raman Shifts
Number of Pixels in Spectrum: 1044
>>>>>Begin Spectral Data<<<<<
46.04893	-0.3875
50.45542	1.3125
54.85868	-0.3875
59.25871	1.7125
63.6555	29.1125
68.04907	30.8125
72.43941	31.5125
76.82654	39.2125
81.21044	38.3125
85.59113	43.8125
89.96862	41.6125
94.34289	46.1125
98.71396	45.3125
103.08183	52.1125
107.4465	48.6125
111.80798	50.7125
116.16626	49.9125
120.52136	49.0125
124.87327	49.9125
129.222	47.9125
133.56755	52.1125
137.90993	50.2125
142.24913	54.8125
146.58517	57.6125
150.91804	62.2125
155.24774	72.3125
159.57429	79.4125
163.89768	91.4125
168.21792	112.3125
172.53501	146.5125
176.84895	192.2125
181.15975	255.9125
185.46741	355.8125
189.77193	486.0125
194.07331	656.6125
198.37157	850.6125
202.6667	1073.2125
206.9587	1291.5125
211.24758	1502.1125
215.53334	1731.5125
219.81599	1954.4125
224.09553	2204.2125
228.37195	2471.1125
232.64527	2789.0125
236.91549	3100.6125
241.18261	3417.6125
245.44663	3723.8125
249.70755	3983.3125
253.96539	4198.1125
258.22014	4367.3125
262.4718	4463.8125
266.72039	4476.8125
270.96589	4435.2125
275.20832	4354.3125
279.44768	4220.9125
283.68397	4075.0125
287.91719	3924.5125
292.14735	3783.5125
296.37445	3663.5125
300.59849	3582.9125
304.81948	3537.5125
309.03742	3488.9125
313.25231	3463.7125
317.46415	3401.4125
321.67296	3346.3125
325.87872	3290.6125
330.08145	3255.1125
334.28114	3233.8125
338.47781	3235.0125
342.67145	3234.8125
346.86207	3246.0125
351.04966	3238.2125
355.23424	3249.8125
359.4158	3247.4125
363.59435	3220.2125
367.76989	3176.9125
371.94243	3150.9125
376.11196	3116.1125
380.27849	3091.0125
384.44203	3061.6125
388.60257	3038.8125
392.76012	3026.5125
396.91468	3027.8125
401.06626	3038.7125
405.21485	3046.9125
409.36047	3032.2125
413.50311	3012.0125
417.64277	2975.3125
421.77947	2972.2125
425.9132	2972.6125
430.04396	3008.1125
434.17176	3037.5125
438.2966	3054.9125
442.41849	3092.6125
446.53742	3136.4125
450.6534	3157.9125
454.76644	3188.8125
458.87653	3220.3125
462.98368	3206.5125
467.08789	3208.3125
471.18916	3197.1125
475.2875	3169.0125
479.38291	3160.2125
483.4754	3145.4125
487.56496	3136.3125
491.6516	3130.1125
495.73531	3122.5125
499.81612	3120.2125
503.89401	3099.3125
507.96899	3130.6125
512.04106	3133.0125
516.11023	3135.4125
520.1765	3123.4125
524.23987	3118.0125
528.30034	3097.1125
532.35792	3074.3125
536.41261	3056.8125
540.46441	3026.4125
544.51333	3016.4125
548.55936	3025.1125
552.60252	3049.1125
556.64279	3061.0125
560.6802	3078.2125
564.71473	3097.9125
568.7464	3109.0125
572.7752	3121.1125
576.80114	3094.4125
580.82422	3093.0125
584.84444	3092.2125
588.86181	3133.3125
592.87633	3175.2125
596.888	3221.0125
600.89682	3280.1125
604.9028	3403.6125
608.90594	3730.8125
612.90624	4123.9125
616.90371	4177.3125
620.89834	3736.3125
624.89015	3412.6125
628.87913	3267.6125
632.86528	3177.1125
636.84862	3104.6125
640.82913	3063.4125
644.80683	3026.6125
648.78172	3003.1125
652.75379	2996.5125
656.72306	3045.3125
660.68952	3083.3125
664.65319	3129.6125
668.61405	3121.7125
672.57211	3175.5125
676.52738	3250.4125
680.47986	3328.4125
684.42955	3374.6125
688.37646	3392.0125
692.32058	3368.9125
696.26192	3338.0125
700.20048	3325.1125
704.13626	3342.8125
708.06928	3329.0125
711.99952	3305.5125
715.927	3289.0125
719.85171	3262.7125
723.77365	3255.5125
727.69284	3229.3125
731.60928	3211.1125
735.52295	3199.5125
739.43388	3187.3125
743.34206	3183.5125
747.24749	3177.1125
751.15017	3177.1125
755.05012	3197.9125
758.94733	3223.6125
762.8418	3290.1125
766.73354	3418.0125
770.62254	3586.5125
774.50882	3665.2125
778.39237	3605.3125
782.27321	3463.6125
786.15132	3331.2125
790.02671	3254.4125
793.89938	3216.3125
797.76935	3203.1125
801.6366	3204.7125
805.50115	3213.9125
809.36299	3207.9125
813.22213	3211.6125
817.07857	3199.2125
820.93231	3186.9125
824.78336	3170.9125
828.63172	3175.6125
832.47738	3165.2125
836.32036	3168.0125
840.16066	3167.6125
843.99827	3189.3125
847.8332	3175.8125
851.66546	3174.9125
855.49504	3174.9125
859.32195	3175.9125
863.1462	3190.0125
866.96777	3209.8125
870.78668	3227.3125
874.60293	3244.8125
878.41652	3270.9125
882.22745	3313.2125
886.03573	3358.1125
889.84136	3432.9125
893.64433	3501.1125
897.44466	3538.4125
901.24235	3600.3125
905.0374	3660.0125
908.8298	3757.1125
912.61957	3873.6125
916.40671	4015.5125
920.19121	4180.3125
923.97308	4334.2125
927.75233	4441.2125
931.52895	4448.6125
935.30295	4365.7125
939.07433	4196.9125
942.84309	4035.2125
946.60924	3891.7125
950.37278	3777.3125
954.13371	3678.4125
957.89203	3609.4125
961.64774	3539.6125
965.40086	3482.0125
969.15137	3418.9125
972.89929	3356.9125
976.64461	3306.0125
980.38733	3270.6125
984.12747	3248.4125
987.86502	3244.7125
991.59999	3242.8125
995.33237	3249.9125
999.06217	3270.4125
1002.78939	3295.6125
1006.51404	3309.9125
1010.23611	3319.8125
1013.95561	3337.1125
1017.67255	3322.6125
1021.38692	3294.3125
1025.09872	3260.6125
1028.80796	3255.8125
1032.51465	3262.1125
1036.21877	3285.1125
1039.92035	3315.7125
1043.61937	3360.5125
1047.31584	3405.2125
1051.00976	3443.0125
1054.70114	3480.2125
1058.38998	3495.9125
1062.07627	3484.6125
1065.76003	3466.7125
1069.44126	3413.1125
1073.11995	3376.7125
1076.79611	3335.5125
1080.46974	3305.7125
1084.14085	3304.9125
1087.80943	3281.0125
1091.47549	3276.8125
1095.13903	3241.0125
1098.80005	3211.3125
1102.45857	3191.3125
1106.11456	3167.0125
1109.76805	3142.6125
1113.41903	3135.3125
1117.06751	3167.8125
1120.71348	3197.3125
1124.35696	3243.1125
1127.99793	3317.7125
1131.63641	3356.2125
1135.2724	3281.7125
1138.90589	3228.1125
1142.5369	3153.3125
1146.16542	3123.1125
1149.79145	3089.2125
1153.415	3066.7125
1157.03607	3046.1125
1160.65467	3060.0125
1164.27079	3102.8125
1167.88443	3168.5125
1171.49561	3260.1125
1175.10432	3406.0125
1178.71056	3633.9125
1182.31434	3848.7125
1185.91565	3994.0125
1189.51451	4067.3125
1193.11091	4011.8125
1196.70485	3887.3125
1200.29634	3732.4125
1203.88538	3583.0125
1207.47197	3427.2125
1211.05612	3337.0125
1214.63782	3276.7125
1218.21708	3276.7125
1221.79391	3300.1125
1225.36829	3324.3125
1228.94024	3369.8125
1232.50976	3396.6125
1236.07685	3390.4125
1239.6415	3364.6125
1243.20374	3362.2125
1246.76355	3331.3125
1250.32093	3337.1125
1253.8759	3365.1125
1257.42845	3395.8125
1260.97859	3449.1125
1264.52631	3497.3125
1268.07163	3556.8125
1271.61453	3621.3125
1275.15503	3659.2125
1278.69312	3702.5125
1282.22882	3739.5125
1285.76211	3812.6125
1289.29301	3896.5125
1292.82151	3995.2125
1296.34761	4088.0125
1299.87133	4201.4125
1303.39266	4285.5125
1306.9116	4440.9125
1310.42815	4592.2125
1313.94233	4688.1125
1317.45412	4629.7125
1320.96354	4487.3125
1324.47058	4388.1125
1327.97525	4274.9125
1331.47754	4218.4125
1334.97747	4220.8125
1338.47502	4269.2125
1341.97022	4321.1125
1345.46305	4409.5125
1348.95352	4540.6125
1352.44163	4710.7125
1355.92738	4923.1125
1359.41078	5227.3125
1362.89183	5518.7125
1366.37053	5618.8125
1369.84688	5375.0125
1373.32088	5010.3125
1376.79254	4793.9125
1380.26186	4686.3125
1383.72883	4667.2125
1387.19347	4654.7125
1390.65578	4650.7125
1394.11575	4651.4125
1397.57339	4624.0125
1401.0287	4593.2125
1404.48168	4570.7125
1407.93234	4514.6125
1411.38068	4434.7125
1414.82669	4358.2125
1418.27039	4293.5125
1421.71177	4230.5125
1425.15083	4157.5125
1428.58758	4086.2125
1432.02203	4036.6125
1435.45416	4018.9125
1438.88399	3993.9125
1442.31151	3953.0125
1445.73673	3948.6125
1449.15965	3903.8125
1452.58027	3887.5125
1455.9986	3861.2125
1459.41463	3847.7125
1462.82837	3843.3125
1466.23982	3881.6125
1469.64898	3896.5125
1473.05586	3913.7125
1476.46045	3927.0125
1479.86276	3954.8125
1483.26279	3957.3125
1486.66054	3983.5125
1490.05602	4015.4125
1493.44922	4064.5125
1496.84016	4115.9125
1500.22882	4245.7125
1503.61521	4416.3125
1506.99934	4604.0125
1510.38121	4783.5125
1513.76081	4845.1125
1517.13816	4711.7125
1520.51324	4466.1125
1523.88607	4233.5125
1527.25665	4055.2125
1530.62498	3941.2125
1533.99105	3876.4125
1537.35488	3819.2125
1540.71647	3771.1125
1544.07581	3733.9125
1547.4329	3691.2125
1550.78776	3668.6125
1554.14038	3637.4125
1557.49077	3636.3125
1560.83892	3633.7125
1564.18484	3633.7125
1567.52853	3631.7125
1570.86999	3647.7125
1574.20922	3649.8125
1577.54624	3647.1125
1580.88103	3575.7125
1584.2136	3485.7125
1587.54395	3421.4125
1590.87208	3398.6125
1594.19801	3400.7125
1597.52172	3450.6125
1600.84321	3443.2125
1604.16251	3398.9125
1607.47959	3338.6125
1610.79447	3284.2125
1614.10715	3207.5125
1617.41763	3161.4125
1620.7259	3107.8125
1624.03199	3084.5125
1627.33587	3073.1125
1630.63757	3089.8125
1633.93707	3110.4125
1637.23439	3164.4125
1640.52951	3230.0125
1643.82246	3344.2125
1647.11321	3471.5125
1650.40179	3558.4125
1653.68819	3486.5125
1656.97241	3264.1125
1660.25446	3008.8125
1663.53433	2797.7125
1666.81203	2658.9125
1670.08756	2564.9125
1673.36092	2504.8125
1676.63211	2445.8125
1679.90115	2403.4125
1683.16801	2366.2125
1686.43272	2338.2125
1689.69527	2306.8125
1692.95567	2271.6125
1696.2139	2251.3125
1699.46999	2220.1125
1702.72392	2201.6125
1705.97571	2192.4125
1709.22535	2177.3125
1712.47284	2172.8125
1715.71819	2154.9125
1718.96139	2150.0125
1722.20246	2144.2125
1725.44139	2140.9125
1728.67818	2119.2125
1731.91284	2103.1125
1735.14537	2092.6125
1738.37576	2092.0125
1741.60403	2094.2125
1744.83017	2080.0125
1748.05418	2074.2125
1751.27607	2078.5125
1754.49584	2079.5125
1757.71349	2081.6125
1760.92903	2070.4125
1764.14244	2064.0125
1767.35375	2058.8125
1770.56294	2038.7125
1773.77002	2027.1125
1776.97499	2013.3125
1780.17785	2004.6125
1783.37861	2003.1125
1786.57727	1998.6125
1789.77382	1982.1125
1792.96828	1993.4125
1796.16064	1970.4125
1799.3509	1960.8125
1802.53907	1961.1125
1805.72514	1951.5125
1808.90913	1944.7125
1812.09102	1943.8125
1815.27083	1940.3125
1818.44856	1937.0125
1821.6242	1937.0125
1824.79776	1932.6125
1827.96924	1924.8125
1831.13864	1916.4125
1834.30597	1912.3125
1837.47122	1914.4125
1840.6344	1912.8125
1843.7955	1916.2125
1846.95454	1907.1125
1850.11151	1911.5125
1853.26642	1894.7125
1856.41926	1891.7125
1859.57004	1901.6125
1862.71876	1884.1125
1865.86542	1884.5125
1869.01003	1901.9125
1872.15258	1878.8125
1875.29308	1879.7125
1878.43152	1872.6125
1881.56792	1878.5125
1884.70227	1872.6125
1887.83457	1869.1125
1890.96482	1863.3125
1894.09304	1852.7125
1897.21921	1859.1125
1900.34335	1852.9125
1903.46544	1847.0125
1906.58551	1861.3125
1909.70353	1852.4125
1912.81953	1848.1125
1915.93349	1835.1125
1919.04543	1838.9125
1922.15534	1834.3125
1925.26322	1837.7125
1928.36908	1833.8125
1931.47292	1824.7125
1934.57473	1814.0125
1937.67453	1817.7125
1940.77232	1811.6125
1943.86808	1809.0125
1946.96184	1794.9125
1950.05358	1795.6125
1953.14331	1784.8125
1956.23103	1798.3125
1959.31675	1776.5125
1962.40046	1769.6125
1965.48217	1777.1125
1968.56188	1762.4125
1971.63959	1755.0125
1974.7153	1757.0125
1977.78901	1751.0125
1980.86073	1750.1125
1983.93046	1736.4125
1986.99819	1734.2125
1990.06394	1731.9125
1993.1277	1721.2125
1996.18947	1710.6125
1999.24925	1709.0125
2002.30706	1700.6125
2005.36288	1690.6125
2008.41672	1688.3125
2011.46859	1698.8125
2014.51848	1688.2125
2017.56639	1676.1125
2020.61233	1680.8125
2023.6563	1681.3125
2026.6983	1665.2125
2029.73833	1663.1125
2032.7764	1657.5125
2035.8125	1667.1125
2038.84664	1654.9125
2041.87881	1658.0125
2044.90903	1649.0125
2047.93729	1647.3125
2050.96359	1666.2125
2053.98794	1663.0125
2057.01034	1673.2125
2060.03078	1671.0125
2063.04927	1665.7125
2066.06582	1681.4125
2069.08042	1688.0125
2072.09307	1704.2125
2075.10378	1697.6125
2078.11255	1716.4125
2081.11938	1720.6125
2084.12426	1735.6125
2087.12722	1740.4125
2090.12824	1754.4125
2093.12732	1764.4125
2096.12447	1768.6125
2099.11969	1789.7125
2102.11299	1791.9125
2105.10435	1798.4125
2108.09379	1806.2125
2111.08131	1795.7125
2114.0669	1800.1125
2117.05057	1799.3125
2120.03233	1791.3125
2123.01216	1781.0125
2125.99008	1784.9125
2128.96609	1776.6125
2131.94018	1766.7125
2134.91236	1748.7125
2137.88263	1735.3125
2140.851	1715.8125
2143.81746	1708.3125
2146.78201	1691.1125
2149.74466	1685.1125
2152.7054	1671.7125
2155.66425	1658.9125
2158.6212	1646.9125
2161.57625	1645.8125
2164.52941	1637.0125
2167.48067	1621.2125
2170.43004	1625.1125
2173.37752	1623.4125
2176.32311	1609.9125
2179.26681	1612.0125
2182.20863	1615.8125
2185.14856	1607.9125
2188.08661	1602.5125
2191.02278	1602.1125
2193.95707	1604.9125
2196.88948	1600.0125
2199.82001	1595.1125
2202.74867	1600.5125
2205.67545	1598.3125
2208.60037	1585.0125
2211.52341	1588.9125
2214.44458	1587.5125
2217.36388	1578.0125
2220.28132	1579.5125
2223.1969	1570.4125
2226.11061	1568.6125
2229.02246	1554.4125
2231.93245	1560.7125
2234.84058	1547.8125
2237.74686	1556.1125
2240.65128	1557.0125
2243.55385	1539.6125
2246.45456	1541.4125
2249.35343	1544.2125
2252.25044	1529.7125
2255.14561	1534.2125
2258.03893	1537.2125
2260.93041	1529.7125
2263.82004	1521.5125
2266.70783	1523.2125
2269.59378	1517.5125
2272.4779	1519.1125
2275.36017	1509.2125
2278.24061	1502.9125
2281.11922	1499.2125
2283.996	1507.2125
2286.87094	1508.7125
2289.74405	1501.8125
2292.61534	1495.7125
2295.4848	1494.5125
2298.35243	1486.7125
2301.21824	1487.2125
2304.08223	1480.7125
2306.94439	1478.2125
2309.80474	1480.4125
2312.66327	1481.8125
2315.51999	1473.2125
2318.37489	1472.0125
2321.22797	1464.5125
2324.07925	1465.8125
2326.92871	1461.9125
2329.77637	1468.3125
2332.62222	1463.9125
2335.46626	1462.5125
2338.3085	1455.8125
2341.14893	1454.3125
2343.98756	1451.2125
2346.8244	1451.0125
2349.65943	1459.6125
2352.49267	1451.3125
2355.32411	1446.6125
2358.15376	1441.0125
2360.98161	1451.2125
2363.80768	1447.9125
2366.63195	1435.6125
2369.45444	1440.8125
2372.27514	1443.9125
2375.09405	1440.5125
2377.91118	1430.5125
2380.72652	1427.6125
2383.54009	1422.6125
2386.35187	1429.7125
2389.16188	1418.1125
2391.97011	1420.4125
2394.77657	1408.9125
2397.58125	1409.8125
2400.38416	1407.1125
2403.18529	1411.6125
2405.98466	1403.3125
2408.78226	1397.6125
2411.57809	1402.0125
2414.37216	1399.1125
2417.16446	1395.4125
2419.955	1391.2125
2422.74378	1385.8125
2425.5308	1383.2125
2428.31606	1383.2125
2431.09956	1388.9125
2433.88131	1378.4125
2436.6613	1371.5125
2439.43954	1375.9125
2442.21603	1372.9125
2444.99077	1375.9125
2447.76377	1373.9125
2450.53501	1370.7125
2453.30451	1364.4125
2456.07226	1358.5125
2458.83827	1356.4125
2461.60254	1364.2125
2464.36507	1361.6125
2467.12586	1364.2125
2469.88492	1353.6125
2472.64224	1355.0125
2475.39782	1346.8125
2478.15167	1348.8125
2480.90379	1348.3125
2483.65417	1353.7125
2486.40283	1347.5125
2489.14976	1349.5125
2491.89497	1346.7125
2494.63845	1337.9125
2497.3802	1333.4125
2500.12024	1343.9125
2502.85855	1342.0125
2505.59514	1343.4125
2508.33002	1331.9125
2511.06318	1337.7125
2513.79462	1336.1125
2516.52435	1331.6125
2519.25237	1321.9125
2521.97867	1318.5125
2524.70327	1315.4125
2527.42616	1311.5125
2530.14734	1315.0125
2532.86681	1314.3125
2535.58458	1312.5125
2538.30065	1307.7125
2541.01501	1308.0125
2543.72768	1307.0125
2546.43864	1297.4125
2549.14791	1305.8125
2551.85548	1293.7125
2554.56136	1291.2125
2557.26554	1296.7125
2559.96803	1291.9125
2562.66883	1282.9125
2565.36794	1296.4125
2568.06536	1284.4125
2570.7611	1281.8125
2573.45514	1274.0125
2576.14751	1277.5125
2578.83819	1279.8125
2581.52719	1279.3125
2584.21451	1278.3125
2586.90015	1275.5125
2589.58411	1267.6125
2592.2664	1263.0125
2594.94701	1259.3125
2597.62594	1259.5125
2600.30321	1264.3125
2602.9788	1258.2125
2605.65273	1253.9125
2608.32498	1260.2125
2610.99557	1253.3125
2613.66449	1252.5125
2616.33175	1243.0125
2618.99734	1249.8125
2621.66128	1245.7125
2624.32355	1243.9125
2626.98416	1242.8125
2629.64311	1238.9125
2632.30041	1247.6125
2634.95605	1239.4125
2637.61004	1250.1125
2640.26238	1234.5125
2642.91306	1237.6125
2645.56209	1242.0125
2648.20948	1233.9125
2650.85521	1236.9125
2653.4993	1231.7125
2656.14175	1241.5125
2658.78255	1238.3125
2661.42171	1236.7125
2664.05923	1233.3125
2666.6951	1243.3125
2669.32934	1242.4125
2671.96194	1248.9125
2674.59291	1246.6125
2677.22224	1242.2125
2679.84993	1240.4125
2682.476	1243.6125
2685.10043	1245.4125
2687.72324	1247.8125
2690.34441	1254.0125
2692.96396	1243.5125
2695.58188	1262.4125
2698.19818	1251.2125
2700.81285	1257.2125
2703.4259	1239.6125
2706.03733	1232.8125
2708.64714	1240.9125
2711.25533	1246.9125
2713.86191	1250.8125
2716.46687	1257.1125
2719.07021	1252.6125
2721.67194	1245.0125
2724.27206	1243.8125
2726.87057	1256.9125
2729.46747	1258.7125
2732.06276	1264.7125
2734.65644	1249.5125
2737.24852	1261.6125
2739.83899	1255.3125
2742.42786	1256.1125
2745.01513	1256.7125
2747.60079	1261.8125
2750.18486	1254.1125
2752.76733	1257.8125
2755.3482	1258.5125
2757.92747	1262.5125
2760.50515	1260.2125
2763.08123	1261.9125
2765.65573	1262.1125
2768.22863	1254.5125
2770.79994	1261.7125
2773.36967	1248.2125
2775.9378	1263.2125
2778.50435	1249.8125
2781.06932	1260.0125
2783.6327	1258.3125
2786.1945	1255.5125
2788.75471	1248.6125
2791.31335	1248.8125
2793.87041	1253.8125
2796.42589	1247.0125
2798.97979	1239.8125
2801.53212	1252.0125
2804.08288	1232.9125
2806.63206	1239.5125
2809.17967	1242.2125
2811.72571	1231.9125
2814.27018	1245.7125
2816.81308	1244.8125
2819.35442	1228.5125
2821.89419	1238.0125
2824.43239	1247.7125
2826.96904	1243.0125
2829.50412	1233.8125
2832.03763	1234.4125
2834.56959	1242.5125
2837.1	1243.9125
2839.62884	1259.9125
2842.15613	1267.6125
2844.68186	1298.0125
2847.20604	1310.5125
2849.72867	1334.3125
2852.24974	1341.4125
2854.76927	1341.6125
2857.28724	1356.5125
2859.80367	1355.7125
2862.31855	1377.5125
2864.83189	1389.8125
2867.34368	1386.0125
2869.85393	1401.0125
2872.36264	1404.3125
2874.8698	1428.8125
2877.37543	1422.5125
2879.87952	1437.4125
2882.38207	1449.9125
2884.88308	1455.3125
2887.38256	1472.0125
2889.88051	1471.0125
2892.37692	1481.7125
2894.8718	1488.0125
2897.36515	1509.8125
2899.85698	1506.0125
2902.34727	1515.9125
2904.83604	1518.8125
2907.32328	1529.8125
2909.809	1535.9125
2912.29319	1549.5125
2914.77587	1549.6125
2917.25702	1548.5125
2919.73665	1558.6125
2922.21476	1567.4125
2924.69136	1568.0125
2927.16644	1580.6125
2929.64	1585.1125
2932.11205	1566.4125
2934.58258	1580.9125
2937.05161	1571.7125
2939.51912	1552.5125
2941.98513	1542.5125
2944.44962	1513.9125
2946.91261	1494.3125
2949.37409	1468.3125
2951.83407	1448.6125
2954.29254	1435.3125
2956.74951	1404.8125
2959.20498	1396.7125
2961.65895	1374.7125
2964.11142	1354.0125
2966.56239	1344.8125
2969.01186	1331.0125
2971.45984	1323.6125
2973.90632	1305.3125
2976.35131	1290.3125
2978.7948	1280.2125
2981.23681	1271.8125
2983.67732	1258.7125
2986.11635	1255.1125
2988.55388	1234.8125
2990.98993	1230.0125
2993.4245	1227.8125
2995.85758	1210.8125
2998.28917	1201.7125
3000.71928	1207.3125
3003.14791	1209.3125
3005.57506	1209.4125
3008.00073	1197.1125
3010.42493	1193.5125
3012.84764	1195.1125
3015.26888	1195.1125
3017.68865	1194.6125
3020.10694	1193.4125
3022.52376	1189.2125
3024.9391	1180.5125
3027.35298	1171.7125
3029.76539	1179.5125
3032.17632	1185.9125
3034.5858	1178.8125
3036.9938	1176.5125
3039.40034	1173.5125
3041.80542	1178.7125
3044.20903	1171.9125
3046.61118	1171.0125
3049.01187	1176.2125
3051.4111	1169.2125
3053.80888	1174.4125
3056.20519	1169.4125
3058.60005	1179.4125
3060.99345	1164.6125
3063.3854	1177.6125
3065.7759	1172.6125
3068.16494	1178.1125
3070.55254	1168.7125
3072.93868	1174.2125
3075.32338	1167.9125
3077.70662	1187.3125
3080.08842	1174.3125
3082.46878	1186.9125
3084.84769	1177.8125
3087.22515	1182.8125
3089.60118	1189.1125
3091.97576	1193.9125
3094.3489	1194.0125
3096.72061	1199.7125
3099.09087	1203.0125
3101.4597	1219.4125
3103.82709	1212.6125
3106.19305	1210.2125
3108.55757	1219.4125
3110.92066	1221.7125
3113.28232	1225.6125
3115.64255	1228.9125
3118.00134	1235.1125
3120.35871	1238.4125
3122.71466	1233.4125
3125.06917	1236.0125
