Data from AgNPs_FTO_APTES_UA_2uM_CRN_0uM_R6G_10uM_NaF_0.1M_Addition_RamanShift__37__10-47-34-962.txt Node

Date: Wed Feb 02 10:47:34 GMT 2022
User: TCL
Spectrometer: QEP01345
Trigger mode: 4
Integration Time (sec): 7.000000E0
Scans to average: 10
Electric dark correction enabled: true
Nonlinearity correction enabled: false
Boxcar width: 0
XAxis mode: Raman Shifts
Number of Pixels in Spectrum: 1044
>>>>>Begin Spectral Data<<<<<
46.04893	-0.2375
50.45542	0.0625
54.85868	-0.3375
59.25871	-0.8375
63.6555	62.2625
68.04907	66.5625
72.43941	66.1625
76.82654	77.3625
81.21044	75.0625
85.59113	81.8625
89.96862	80.9625
94.34289	80.4625
98.71396	86.7625
103.08183	93.1625
107.4465	91.9625
111.80798	94.8625
116.16626	99.1625
120.52136	101.5625
124.87327	108.0625
129.222	111.4625
133.56755	117.1625
137.90993	129.6625
142.24913	150.6625
146.58517	166.9625
150.91804	198.4625
155.24774	241.5625
159.57429	296.3625
163.89768	390.6625
168.21792	521.2625
172.53501	714.1625
176.84895	992.3625
181.15975	1401.7625
185.46741	1962.1625
189.77193	2696.1625
194.07331	3609.3625
198.37157	4634.9625
202.6667	5721.1625
206.9587	6804.4625
211.24758	7856.4625
215.53334	8913.8625
219.81599	10078.5625
224.09553	11375.0625
228.37195	12822.8625
232.64527	14345.1625
236.91549	15882.6625
241.18261	17423.2625
245.44663	18851.1625
249.70755	20088.7625
253.96539	21171.8625
258.22014	22045.0625
262.4718	22714.4625
266.72039	23185.0625
270.96589	23308.4625
275.20832	23243.4625
279.44768	22982.2625
283.68397	22686.4625
287.91719	22481.3625
292.14735	22359.8625
296.37445	22351.3625
300.59849	22474.5625
304.81948	22681.3625
309.03742	22831.7625
313.25231	22841.5625
317.46415	22605.1625
321.67296	22107.7625
325.87872	21681.2625
330.08145	21420.4625
334.28114	21327.9625
338.47781	21297.5625
342.67145	21473.3625
346.86207	21803.4625
351.04966	22133.3625
355.23424	22554.5625
359.4158	22925.4625
363.59435	23189.0625
367.76989	23254.3625
371.94243	23245.4625
376.11196	23167.2625
380.27849	23058.4625
384.44203	23102.7625
388.60257	23305.3625
392.76012	23604.0625
396.91468	23973.6625
401.06626	24376.0625
405.21485	24619.9625
409.36047	24535.9625
413.50311	24304.6625
417.64277	24325.3625
421.77947	24623.3625
425.9132	24771.0625
430.04396	24875.5625
434.17176	24924.0625
438.2966	24980.2625
442.41849	25343.2625
446.53742	26138.3625
450.6534	26901.6625
454.76644	27296.5625
458.87653	27259.6625
462.98368	26979.3625
467.08789	26531.0625
471.18916	25989.5625
475.2875	25495.3625
479.38291	25139.0625
483.4754	25049.1625
487.56496	24928.3625
491.6516	24559.8625
495.73531	24044.7625
499.81612	23776.8625
503.89401	23847.9625
507.96899	23965.4625
512.04106	23840.7625
516.11023	23489.4625
520.1765	23074.0625
524.23987	22743.1625
528.30034	22541.2625
532.35792	22307.3625
536.41261	21923.9625
540.46441	21590.3625
544.51333	21509.1625
548.55936	21747.3625
552.60252	22346.1625
556.64279	23140.8625
560.6802	23820.9625
564.71473	24229.6625
568.7464	24837.0625
572.7752	25956.4625
576.80114	27324.5625
580.82422	28880.2625
584.84444	31038.6625
588.86181	34223.6625
592.87633	37016.2625
596.888	36667.8625
600.89682	33030.2625
604.9028	30205.9625
608.90594	30582.0625
612.90624	31833.1625
616.90371	29656.3625
620.89834	24857.6625
624.89015	22586.5625
628.87913	22414.1625
632.86528	22674.7625
636.84862	22513.6625
640.82913	21846.1625
644.80683	21166.4625
648.78172	20925.0625
652.75379	21032.9625
656.72306	21325.1625
660.68952	21521.4625
664.65319	21197.8625
668.61405	20683.8625
672.57211	20578.2625
676.52738	20736.6625
680.47986	20763.2625
684.42955	20506.3625
688.37646	20352.4625
692.32058	20559.3625
696.26192	21021.0625
700.20048	21573.9625
704.13626	21893.7625
708.06928	22101.8625
711.99952	22138.2625
715.927	22238.6625
719.85171	22313.3625
723.77365	22126.0625
727.69284	21489.0625
731.60928	20977.1625
735.52295	20776.5625
739.43388	20788.9625
743.34206	20909.7625
747.24749	21105.4625
751.15017	21496.4625
755.05012	22029.5625
758.94733	22823.2625
762.8418	24083.5625
766.73354	25913.8625
770.62254	27397.6625
774.50882	27286.7625
778.39237	25679.8625
782.27321	23827.9625
786.15132	22358.0625
790.02671	21382.2625
793.89938	20943.3625
797.76935	20740.5625
801.6366	20670.2625
805.50115	20658.3625
809.36299	20595.7625
813.22213	20440.7625
817.07857	20310.0625
820.93231	20136.3625
824.78336	19899.3625
828.63172	19733.1625
832.47738	19636.6625
836.32036	19611.2625
840.16066	19630.4625
843.99827	19684.2625
847.8332	19644.6625
851.66546	19669.4625
855.49504	19699.7625
859.32195	19670.5625
863.1462	19616.2625
866.96777	19491.3625
870.78668	19489.1625
874.60293	19483.5625
878.41652	19507.5625
882.22745	19620.7625
886.03573	19713.0625
889.84136	19744.6625
893.64433	19658.9625
897.44466	19632.2625
901.24235	19692.5625
905.0374	19597.7625
908.8298	19557.3625
912.61957	19621.8625
916.40671	19908.8625
920.19121	20336.7625
923.97308	20752.6625
927.75233	20941.1625
931.52895	20604.3625
935.30295	19857.3625
939.07433	19198.7625
942.84309	18788.8625
946.60924	18532.9625
950.37278	18440.1625
954.13371	18426.7625
957.89203	18460.6625
961.64774	18464.4625
965.40086	18460.7625
969.15137	18398.6625
972.89929	18184.3625
976.64461	18025.4625
980.38733	17913.6625
984.12747	17938.7625
987.86502	17990.9625
991.59999	18098.9625
995.33237	18201.2625
999.06217	18567.2625
1002.78939	19059.5625
1006.51404	19591.3625
1010.23611	20189.8625
1013.95561	20586.3625
1017.67255	20683.3625
1021.38692	20338.1625
1025.09872	19749.5625
1028.80796	19300.6625
1032.51465	19198.3625
1036.21877	19350.6625
1039.92035	19472.3625
1043.61937	19553.2625
1047.31584	19609.6625
1051.00976	19553.9625
1054.70114	19661.8625
1058.38998	19756.7625
1062.07627	19930.5625
1065.76003	20202.5625
1069.44126	20621.9625
1073.11995	21181.8625
1076.79611	21671.0625
1080.46974	21832.3625
1084.14085	22008.3625
1087.80943	22358.5625
1091.47549	22747.5625
1095.13903	22846.9625
1098.80005	22308.7625
1102.45857	21421.0625
1106.11456	20718.4625
1109.76805	20422.4625
1113.41903	20387.4625
1117.06751	20551.6625
1120.71348	20765.1625
1124.35696	21063.3625
1127.99793	21355.6625
1131.63641	21626.5625
1135.2724	21643.1625
1138.90589	21657.4625
1142.5369	21849.0625
1146.16542	22204.9625
1149.79145	22603.1625
1153.415	23025.5625
1157.03607	23538.0625
1160.65467	24705.3625
1164.27079	26410.7625
1167.88443	28359.8625
1171.49561	30043.7625
1175.10432	32195.6625
1178.71056	34999.0625
1182.31434	37572.4625
1185.91565	38392.5625
1189.51451	37420.1625
1193.11091	35869.9625
1196.70485	34338.8625
1200.29634	32946.2625
1203.88538	32121.3625
1207.47197	31975.3625
1211.05612	32008.0625
1214.63782	31498.1625
1218.21708	30378.9625
1221.79391	29095.1625
1225.36829	28265.1625
1228.94024	27807.7625
1232.50976	27366.9625
1236.07685	26682.6625
1239.6415	26086.6625
1243.20374	25890.4625
1246.76355	25978.3625
1250.32093	26420.4625
1253.8759	27139.0625
1257.42845	28118.0625
1260.97859	29227.5625
1264.52631	30354.8625
1268.07163	31472.1625
1271.61453	32567.7625
1275.15503	33798.0625
1278.69312	35400.8625
1282.22882	37410.6625
1285.76211	39983.4625
1289.29301	42745.7625
1292.82151	45645.1625
1296.34761	48911.1625
1299.87133	52667.3625
1303.39266	56164.4625
1306.9116	58579.7625
1310.42815	59964.5625
1313.94233	60195.2625
1317.45412	59046.5625
1320.96354	57443.6625
1324.47058	56218.5625
1327.97525	55503.1625
1331.47754	54703.6625
1334.97747	53428.2625
1338.47502	51652.5625
1341.97022	49610.8625
1345.46305	47763.1625
1348.95352	46964.2625
1352.44163	47342.0625
1355.92738	49686.5625
1359.41078	53422.3625
1362.89183	56934.6625
1366.37053	57865.8625
1369.84688	53921.2625
1373.32088	46613.0625
1376.79254	40973.6625
1380.26186	39094.5625
1383.72883	39395.3625
1387.19347	39453.1625
1390.65578	38779.6625
1394.11575	38586.8625
1397.57339	39378.6625
1401.0287	40574.0625
1404.48168	41543.1625
1407.93234	41268.9625
1411.38068	39719.4625
1414.82669	37582.3625
1418.27039	35399.7625
1421.71177	33451.2625
1425.15083	31927.8625
1428.58758	31382.9625
1432.02203	31978.6625
1435.45416	33407.8625
1438.88399	34799.9625
1442.31151	35542.0625
1445.73673	35954.2625
1449.15965	36055.6625
1452.58027	35793.6625
1455.9986	35371.0625
1459.41463	35284.1625
1462.82837	35769.7625
1466.23982	36591.1625
1469.64898	37397.4625
1473.05586	37927.3625
1476.46045	38057.7625
1479.86276	37876.9625
1483.26279	37550.3625
1486.66054	37518.6625
1490.05602	37885.1625
1493.44922	38580.5625
1496.84016	39190.6625
1500.22882	39677.8625
1503.61521	40190.4625
1506.99934	40850.1625
1510.38121	41449.7625
1513.76081	41632.8625
1517.13816	41309.9625
1520.51324	40881.5625
1523.88607	40845.3625
1527.25665	41319.8625
1530.62498	41661.8625
1533.99105	41188.9625
1537.35488	40061.2625
1540.71647	38317.9625
1544.07581	36389.6625
1547.4329	34527.0625
1550.78776	33086.4625
1554.14038	32087.7625
1557.49077	31624.6625
1560.83892	31350.8625
1564.18484	31297.6625
1567.52853	31337.1625
1570.86999	31748.9625
1574.20922	32780.1625
1577.54624	33706.4625
1580.88103	34429.6625
1584.2136	35551.4625
1587.54395	37763.3625
1590.87208	41025.7625
1594.19801	44532.7625
1597.52172	47056.6625
1600.84321	46790.8625
1604.16251	43062.5625
1607.47959	37673.0625
1610.79447	32669.2625
1614.10715	28763.3625
1617.41763	26152.1625
1620.7259	24621.7625
1624.03199	24022.0625
1627.33587	24274.2625
1630.63757	25528.2625
1633.93707	28031.7625
1637.23439	32393.2625
1640.52951	39069.0625
1643.82246	47458.1625
1647.11321	54332.6625
1650.40179	55305.1625
1653.68819	49356.1625
1656.97241	40129.0625
1660.25446	31888.0625
1663.53433	26147.7625
1666.81203	22780.8625
1670.08756	20751.4625
1673.36092	19545.8625
1676.63211	18750.7625
1679.90115	18211.3625
1683.16801	17798.8625
1686.43272	17510.3625
1689.69527	17323.1625
1692.95567	17151.7625
1696.2139	17020.6625
1699.46999	16923.3625
1702.72392	16858.2625
1705.97571	16798.5625
1709.22535	16701.2625
1712.47284	16641.2625
1715.71819	16612.5625
1718.96139	16563.5625
1722.20246	16486.2625
1725.44139	16380.3625
1728.67818	16251.8625
1731.91284	16097.7625
1735.14537	16000.4625
1738.37576	15913.4625
1741.60403	15833.1625
1744.83017	15730.8625
1748.05418	15726.1625
1751.27607	15647.7625
1754.49584	15584.2625
1757.71349	15573.0625
1760.92903	15567.2625
1764.14244	15564.8625
1767.35375	15534.2625
1770.56294	15489.2625
1773.77002	15457.4625
1776.97499	15380.6625
1780.17785	15368.9625
1783.37861	15315.6625
1786.57727	15314.3625
1789.77382	15232.8625
1792.96828	15215.5625
1796.16064	15186.3625
1799.3509	15127.5625
1802.53907	15123.0625
1805.72514	15067.8625
1808.90913	15025.6625
1812.09102	14992.1625
1815.27083	14965.8625
1818.44856	14934.8625
1821.6242	14915.7625
1824.79776	14895.2625
1827.96924	14909.2625
1831.13864	14900.1625
1834.30597	14913.7625
1837.47122	14914.5625
1840.6344	14893.0625
1843.7955	14933.8625
1846.95454	14906.1625
1850.11151	14910.6625
1853.26642	14882.0625
1856.41926	14874.9625
1859.57004	14860.7625
1862.71876	14843.7625
1865.86542	14796.4625
1869.01003	14785.2625
1872.15258	14740.4625
1875.29308	14753.6625
1878.43152	14737.3625
1881.56792	14713.1625
1884.70227	14711.5625
1887.83457	14677.2625
1890.96482	14626.6625
1894.09304	14634.3625
1897.21921	14616.0625
1900.34335	14557.1625
1903.46544	14529.0625
1906.58551	14550.3625
1909.70353	14505.2625
1912.81953	14475.4625
1915.93349	14422.2625
1919.04543	14360.7625
1922.15534	14357.8625
1925.26322	14266.2625
1928.36908	14259.2625
1931.47292	14214.3625
1934.57473	14094.4625
1937.67453	14117.7625
1940.77232	14081.8625
1943.86808	14048.2625
1946.96184	14015.2625
1950.05358	13986.3625
1953.14331	13949.9625
1956.23103	13917.8625
1959.31675	13846.1625
1962.40046	13810.1625
1965.48217	13781.8625
1968.56188	13684.4625
1971.63959	13659.1625
1974.7153	13605.4625
1977.78901	13539.7625
1980.86073	13533.7625
1983.93046	13497.3625
1986.99819	13469.0625
1990.06394	13419.6625
1993.1277	13389.2625
1996.18947	13328.3625
1999.24925	13279.5625
2002.30706	13237.4625
2005.36288	13178.2625
2008.41672	13120.6625
2011.46859	13120.4625
2014.51848	13057.4625
2017.56639	13028.6625
2020.61233	12989.5625
2023.6563	12962.3625
2026.6983	12946.7625
2029.73833	12942.9625
2032.7764	12871.0625
2035.8125	12886.8625
2038.84664	12832.6625
2041.87881	12810.8625
2044.90903	12795.7625
2047.93729	12766.1625
2050.96359	12749.1625
2053.98794	12718.6625
2057.01034	12706.6625
2060.03078	12710.9625
2063.04927	12713.1625
2066.06582	12698.8625
2069.08042	12674.2625
2072.09307	12680.0625
2075.10378	12669.6625
2078.11255	12687.1625
2081.11938	12703.3625
2084.12426	12663.7625
2087.12722	12690.7625
2090.12824	12687.5625
2093.12732	12670.3625
2096.12447	12704.2625
2099.11969	12696.5625
2102.11299	12701.0625
2105.10435	12691.7625
2108.09379	12691.0625
2111.08131	12685.3625
2114.0669	12663.3625
2117.05057	12675.6625
2120.03233	12698.7625
2123.01216	12698.7625
2125.99008	12669.5625
2128.96609	12690.5625
2131.94018	12663.1625
2134.91236	12662.5625
2137.88263	12655.1625
2140.851	12690.1625
2143.81746	12646.0625
2146.78201	12615.6625
2149.74466	12611.0625
2152.7054	12581.7625
2155.66425	12577.8625
2158.6212	12584.5625
2161.57625	12610.5625
2164.52941	12592.5625
2167.48067	12560.2625
2170.43004	12571.9625
2173.37752	12561.9625
2176.32311	12558.6625
2179.26681	12592.0625
2182.20863	12571.5625
2185.14856	12581.6625
2188.08661	12582.3625
2191.02278	12582.3625
2193.95707	12546.9625
2196.88948	12528.1625
2199.82001	12505.7625
2202.74867	12491.9625
2205.67545	12503.5625
2208.60037	12477.0625
2211.52341	12457.1625
2214.44458	12403.8625
2217.36388	12389.3625
2220.28132	12398.4625
2223.1969	12349.5625
2226.11061	12334.9625
2229.02246	12340.1625
2231.93245	12362.2625
2234.84058	12352.1625
2237.74686	12314.9625
2240.65128	12339.5625
2243.55385	12280.4625
2246.45456	12276.1625
2249.35343	12199.2625
2252.25044	12150.6625
2255.14561	12125.3625
2258.03893	12095.2625
2260.93041	12070.3625
2263.82004	12026.8625
2266.70783	12028.0625
2269.59378	11988.6625
2272.4779	11950.4625
2275.36017	11920.4625
2278.24061	11898.6625
2281.11922	11860.4625
2283.996	11858.8625
2286.87094	11868.2625
2289.74405	11823.7625
2292.61534	11794.8625
2295.4848	11809.1625
2298.35243	11789.1625
2301.21824	11760.9625
2304.08223	11749.8625
2306.94439	11717.9625
2309.80474	11768.5625
2312.66327	11750.9625
2315.51999	11707.5625
2318.37489	11699.8625
2321.22797	11703.8625
2324.07925	11695.2625
2326.92871	11667.2625
2329.77637	11658.0625
2332.62222	11661.3625
2335.46626	11630.1625
2338.3085	11626.8625
2341.14893	11630.8625
2343.98756	11632.2625
2346.8244	11618.9625
2349.65943	11606.0625
2352.49267	11599.6625
2355.32411	11621.5625
2358.15376	11606.7625
2360.98161	11603.8625
2363.80768	11594.7625
2366.63195	11567.9625
2369.45444	11570.1625
2372.27514	11593.1625
2375.09405	11554.2625
2377.91118	11497.2625
2380.72652	11472.1625
2383.54009	11474.3625
2386.35187	11457.0625
2389.16188	11396.4625
2391.97011	11362.7625
2394.77657	11363.6625
2397.58125	11378.9625
2400.38416	11337.1625
2403.18529	11312.3625
2405.98466	11291.6625
2408.78226	11274.6625
2411.57809	11266.3625
2414.37216	11251.3625
2417.16446	11244.8625
2419.955	11228.9625
2422.74378	11249.0625
2425.5308	11202.2625
2428.31606	11230.5625
2431.09956	11228.3625
2433.88131	11176.5625
2436.6613	11192.1625
2439.43954	11208.4625
2442.21603	11190.9625
2444.99077	11198.2625
2447.76377	11215.2625
2450.53501	11186.7625
2453.30451	11210.0625
2456.07226	11200.8625
2458.83827	11187.2625
2461.60254	11182.8625
2464.36507	11196.3625
2467.12586	11168.5625
2469.88492	11153.6625
2472.64224	11172.0625
2475.39782	11186.9625
2478.15167	11173.9625
2480.90379	11155.5625
2483.65417	11174.9625
2486.40283	11151.1625
2489.14976	11172.6625
2491.89497	11155.5625
2494.63845	11172.9625
2497.3802	11143.0625
2500.12024	11155.8625
2502.85855	11115.9625
2505.59514	11160.4625
2508.33002	11119.5625
2511.06318	11102.4625
2513.79462	11103.1625
2516.52435	11083.0625
2519.25237	11084.2625
2521.97867	11073.2625
2524.70327	11051.9625
2527.42616	11018.5625
2530.14734	11053.9625
2532.86681	11033.8625
2535.58458	11031.2625
2538.30065	10990.4625
2541.01501	10965.6625
2543.72768	10962.2625
2546.43864	10964.2625
2549.14791	10957.5625
2551.85548	10935.1625
2554.56136	10938.9625
2557.26554	10935.7625
2559.96803	10921.1625
2562.66883	10900.0625
2565.36794	10892.3625
2568.06536	10924.5625
2570.7611	10924.5625
2573.45514	10914.3625
2576.14751	10905.5625
2578.83819	10902.2625
2581.52719	10885.6625
2584.21451	10878.9625
2586.90015	10887.5625
2589.58411	10822.9625
2592.2664	10826.6625
2594.94701	10821.1625
2597.62594	10819.5625
2600.30321	10772.4625
2602.9788	10782.5625
2605.65273	10787.9625
2608.32498	10803.4625
2610.99557	10809.5625
2613.66449	10802.3625
2616.33175	10797.6625
2618.99734	10831.3625
2621.66128	10802.9625
2624.32355	10793.4625
2626.98416	10767.8625
2629.64311	10775.8625
2632.30041	10767.2625
2634.95605	10766.0625
2637.61004	10769.4625
2640.26238	10737.5625
2642.91306	10744.0625
2645.56209	10706.0625
2648.20948	10737.0625
2650.85521	10733.0625
2653.4993	10737.1625
2656.14175	10748.2625
2658.78255	10768.3625
2661.42171	10750.3625
2664.05923	10778.0625
2666.6951	10787.1625
2669.32934	10787.0625
2671.96194	10802.9625
2674.59291	10800.4625
2677.22224	10788.6625
2679.84993	10798.7625
2682.476	10779.8625
2685.10043	10789.0625
2687.72324	10774.3625
2690.34441	10775.8625
2692.96396	10756.7625
2695.58188	10797.7625
2698.19818	10807.7625
2700.81285	10790.6625
2703.4259	10763.9625
2706.03733	10821.5625
2708.64714	10782.8625
2711.25533	10838.5625
2713.86191	10822.1625
2716.46687	10847.1625
2719.07021	10868.4625
2721.67194	10827.1625
2724.27206	10808.6625
2726.87057	10821.1625
2729.46747	10838.4625
2732.06276	10890.4625
2734.65644	10858.8625
2737.24852	10848.8625
2739.83899	10850.8625
2742.42786	10846.7625
2745.01513	10842.6625
2747.60079	10831.2625
2750.18486	10831.8625
2752.76733	10846.8625
2755.3482	10824.5625
2757.92747	10863.8625
2760.50515	10850.8625
2763.08123	10846.9625
2765.65573	10806.4625
2768.22863	10823.7625
2770.79994	10772.5625
2773.36967	10805.5625
2775.9378	10813.0625
2778.50435	10817.8625
2781.06932	10812.4625
2783.6327	10804.0625
2786.1945	10831.0625
2788.75471	10794.4625
2791.31335	10768.2625
2793.87041	10752.1625
2796.42589	10713.4625
2798.97979	10749.0625
2801.53212	10729.3625
2804.08288	10755.4625
2806.63206	10714.7625
2809.17967	10699.9625
2811.72571	10682.2625
2814.27018	10688.0625
2816.81308	10647.7625
2819.35442	10656.1625
2821.89419	10630.9625
2824.43239	10643.7625
2826.96904	10625.5625
2829.50412	10643.3625
2832.03763	10590.0625
2834.56959	10603.9625
2837.1	10595.1625
2839.62884	10592.8625
2842.15613	10635.1625
2844.68186	10671.5625
2847.20604	10707.3625
2849.72867	10748.2625
2852.24974	10749.5625
2854.76927	10727.6625
2857.28724	10734.3625
2859.80367	10698.8625
2862.31855	10703.4625
2864.83189	10688.3625
2867.34368	10640.4625
2869.85393	10670.7625
2872.36264	10676.6625
2874.8698	10683.4625
2877.37543	10678.3625
2879.87952	10685.3625
2882.38207	10707.6625
2884.88308	10715.5625
2887.38256	10736.7625
2889.88051	10718.1625
2892.37692	10732.9625
2894.8718	10749.3625
2897.36515	10746.3625
2899.85698	10752.8625
2902.34727	10798.5625
2904.83604	10795.7625
2907.32328	10819.8625
2909.809	10773.6625
2912.29319	10776.0625
2914.77587	10769.4625
2917.25702	10779.1625
2919.73665	10769.6625
2922.21476	10767.6625
2924.69136	10774.4625
2927.16644	10743.5625
2929.64	10748.7625
2932.11205	10741.9625
2934.58258	10708.5625
2937.05161	10710.6625
2939.51912	10710.9625
2941.98513	10691.2625
2944.44962	10637.5625
2946.91261	10598.1625
2949.37409	10581.6625
2951.83407	10563.3625
2954.29254	10544.6625
2956.74951	10495.6625
2959.20498	10470.4625
2961.65895	10421.9625
2964.11142	10387.5625
2966.56239	10362.6625
2969.01186	10375.2625
2971.45984	10314.2625
2973.90632	10280.5625
2976.35131	10262.0625
2978.7948	10216.6625
2981.23681	10170.6625
2983.67732	10136.1625
2986.11635	10116.1625
2988.55388	10054.1625
2990.98993	10034.6625
2993.4245	10004.6625
2995.85758	9993.3625
2998.28917	9969.7625
3000.71928	9958.0625
3003.14791	9964.7625
3005.57506	9947.0625
3008.00073	9891.1625
3010.42493	9900.4625
3012.84764	9891.6625
3015.26888	9863.0625
3017.68865	9816.2625
3020.10694	9798.9625
3022.52376	9775.8625
3024.9391	9771.7625
