Data from AgNPs_FTO_APTES_UA_2uM_CRN_0uM_R6G_10uM_NaF_0.1M_Addition_RamanShift__53__11-06-14-983.txt Node

Date: Wed Feb 02 11:06:14 GMT 2022
User: TCL
Spectrometer: QEP01345
Trigger mode: 4
Integration Time (sec): 7.000000E0
Scans to average: 10
Electric dark correction enabled: true
Nonlinearity correction enabled: false
Boxcar width: 0
XAxis mode: Raman Shifts
Number of Pixels in Spectrum: 1044
>>>>>Begin Spectral Data<<<<<
46.04893	0.6125
50.45542	-0.0875
54.85868	-0.7875
59.25871	0.2125
63.6555	67.7125
68.04907	66.7125
72.43941	68.9125
76.82654	77.8125
81.21044	76.5125
85.59113	81.3125
89.96862	79.8125
94.34289	87.2125
98.71396	87.4125
103.08183	98.0125
107.4465	95.4125
111.80798	101.1125
116.16626	108.3125
120.52136	109.3125
124.87327	113.0125
129.222	118.1125
133.56755	130.9125
137.90993	137.8125
142.24913	161.7125
146.58517	181.2125
150.91804	211.0125
155.24774	254.9125
159.57429	320.1125
163.89768	419.9125
168.21792	559.9125
172.53501	773.9125
176.84895	1068.6125
181.15975	1505.1125
185.46741	2114.6125
189.77193	2908.8125
194.07331	3886.0125
198.37157	4975.6125
202.6667	6133.1125
206.9587	7311.7125
211.24758	8422.5125
215.53334	9589.0125
219.81599	10892.2125
224.09553	12324.5125
228.37195	13936.7125
232.64527	15631.6125
236.91549	17343.9125
241.18261	18968.9125
245.44663	20420.9125
249.70755	21602.6125
253.96539	22708.9125
258.22014	23745.7125
262.4718	24606.9125
266.72039	25254.9125
270.96589	25589.8125
275.20832	25709.0125
279.44768	25658.7125
283.68397	25548.7125
287.91719	25519.0125
292.14735	25552.7125
296.37445	25737.2125
300.59849	26031.6125
304.81948	26322.1125
309.03742	26495.2125
313.25231	26226.3125
317.46415	25225.1125
321.67296	23827.0125
325.87872	22611.7125
330.08145	21978.4125
334.28114	21868.1125
338.47781	22066.5125
342.67145	22381.9125
346.86207	22984.3125
351.04966	23779.9125
355.23424	24650.1125
359.4158	25376.8125
363.59435	25759.9125
367.76989	25859.8125
371.94243	25907.6125
376.11196	25860.9125
380.27849	25778.0125
384.44203	25785.5125
388.60257	25829.7125
392.76012	25987.3125
396.91468	26379.3125
401.06626	26910.7125
405.21485	27270.5125
409.36047	27023.0125
413.50311	26207.1125
417.64277	25456.8125
421.77947	25214.5125
425.9132	25299.5125
430.04396	25426.6125
434.17176	25619.9125
438.2966	25772.3125
442.41849	26327.5125
446.53742	27176.9125
450.6534	28118.5125
454.76644	28792.9125
458.87653	28988.4125
462.98368	28865.8125
467.08789	28444.7125
471.18916	28019.6125
475.2875	27702.3125
479.38291	27736.0125
483.4754	27609.6125
487.56496	27351.1125
491.6516	26771.6125
495.73531	26198.8125
499.81612	25787.1125
503.89401	25765.7125
507.96899	25813.4125
512.04106	25729.4125
516.11023	25516.9125
520.1765	25230.9125
524.23987	24874.3125
528.30034	24466.5125
532.35792	24044.9125
536.41261	23531.3125
540.46441	23097.5125
544.51333	23018.3125
548.55936	23421.0125
552.60252	24208.3125
556.64279	25109.2125
560.6802	25797.7125
564.71473	26397.2125
568.7464	27501.1125
572.7752	28602.7125
576.80114	28761.0125
580.82422	28565.7125
584.84444	28603.5125
588.86181	28828.2125
592.87633	29182.8125
596.888	29574.8125
600.89682	29778.8125
604.9028	31173.1125
608.90594	35762.9125
612.90624	41153.5125
616.90371	38683.3125
620.89834	29344.8125
624.89015	24950.8125
628.87913	24373.5125
632.86528	24481.2125
636.84862	24479.0125
640.82913	23973.1125
644.80683	22913.9125
648.78172	22135.6125
652.75379	21938.2125
656.72306	22422.6125
660.68952	23207.3125
664.65319	23144.7125
668.61405	22405.7125
672.57211	22007.8125
676.52738	21978.3125
680.47986	21914.0125
684.42955	21742.1125
688.37646	21602.2125
692.32058	21726.4125
696.26192	21981.9125
700.20048	22417.2125
704.13626	22728.7125
708.06928	22765.1125
711.99952	22595.2125
715.927	22419.1125
719.85171	22380.6125
723.77365	22302.6125
727.69284	21943.2125
731.60928	21642.1125
735.52295	21599.7125
739.43388	21680.2125
743.34206	21757.2125
747.24749	21948.6125
751.15017	22274.7125
755.05012	22854.7125
758.94733	23910.9125
762.8418	25994.9125
766.73354	29501.9125
770.62254	32997.4125
774.50882	34014.6125
778.39237	31853.7125
782.27321	28144.5125
786.15132	25027.0125
790.02671	23096.7125
793.89938	22184.0125
797.76935	21817.2125
801.6366	21705.9125
805.50115	21582.3125
809.36299	21398.2125
813.22213	21280.3125
817.07857	21218.3125
820.93231	21170.0125
824.78336	21061.4125
828.63172	20993.6125
832.47738	21018.8125
836.32036	21005.4125
840.16066	20980.3125
843.99827	20995.2125
847.8332	20943.6125
851.66546	20793.7125
855.49504	20743.2125
859.32195	20634.0125
863.1462	20514.1125
866.96777	20377.7125
870.78668	20307.0125
874.60293	20290.6125
878.41652	20314.8125
882.22745	20420.1125
886.03573	20550.5125
889.84136	20571.3125
893.64433	20417.2125
897.44466	20342.6125
901.24235	20280.8125
905.0374	20150.0125
908.8298	20081.5125
912.61957	20143.1125
916.40671	20372.5125
920.19121	20761.8125
923.97308	21181.0125
927.75233	21358.2125
931.52895	21269.4125
935.30295	20860.2125
939.07433	20210.0125
942.84309	19642.0125
946.60924	19361.1125
950.37278	19235.5125
954.13371	19144.1125
957.89203	19072.4125
961.64774	19006.2125
965.40086	18986.6125
969.15137	18925.7125
972.89929	18810.8125
976.64461	18747.6125
980.38733	18704.0125
984.12747	18793.4125
987.86502	18951.6125
991.59999	19180.6125
995.33237	19608.1125
999.06217	20357.9125
1002.78939	21355.2125
1006.51404	22109.1125
1010.23611	22562.0125
1013.95561	22750.5125
1017.67255	22705.1125
1021.38692	22239.2125
1025.09872	21817.6125
1028.80796	21809.9125
1032.51465	22298.7125
1036.21877	22812.3125
1039.92035	22912.5125
1043.61937	22668.7125
1047.31584	22114.7125
1051.00976	21562.8125
1054.70114	21236.1125
1058.38998	21223.9125
1062.07627	21321.7125
1065.76003	21551.3125
1069.44126	21847.8125
1073.11995	22213.2125
1076.79611	22563.8125
1080.46974	22727.7125
1084.14085	23052.1125
1087.80943	23574.7125
1091.47549	23913.1125
1095.13903	23843.5125
1098.80005	23263.2125
1102.45857	22429.4125
1106.11456	21786.4125
1109.76805	21543.0125
1113.41903	21684.3125
1117.06751	22048.8125
1120.71348	22559.4125
1124.35696	23113.8125
1127.99793	23760.3125
1131.63641	24011.9125
1135.2724	23610.7125
1138.90589	23091.8125
1142.5369	22833.5125
1146.16542	22810.1125
1149.79145	22847.3125
1153.415	23138.8125
1157.03607	23569.0125
1160.65467	24353.3125
1164.27079	25605.8125
1167.88443	27458.0125
1171.49561	30073.6125
1175.10432	33836.6125
1178.71056	38530.2125
1182.31434	42554.9125
1185.91565	44632.7125
1189.51451	44542.1125
1193.11091	42890.0125
1196.70485	40268.0125
1200.29634	37546.9125
1203.88538	35348.7125
1207.47197	33488.1125
1211.05612	32037.1125
1214.63782	31164.0125
1218.21708	30719.0125
1221.79391	30675.5125
1225.36829	30719.8125
1228.94024	30475.5125
1232.50976	29903.9125
1236.07685	29394.7125
1239.6415	28907.5125
1243.20374	28503.1125
1246.76355	28414.3125
1250.32093	28702.7125
1253.8759	29505.6125
1257.42845	30629.2125
1260.97859	31883.8125
1264.52631	33201.9125
1268.07163	34486.8125
1271.61453	35873.5125
1275.15503	37280.3125
1278.69312	38572.9125
1282.22882	39679.6125
1285.76211	40905.1125
1289.29301	42560.5125
1292.82151	44572.6125
1296.34761	46989.7125
1299.87133	50078.4125
1303.39266	53766.8125
1306.9116	58325.0125
1310.42815	63314.4125
1313.94233	67088.7125
1317.45412	68094.8125
1320.96354	66834.7125
1324.47058	64734.8125
1327.97525	62600.0125
1331.47754	60742.9125
1334.97747	59439.2125
1338.47502	58585.6125
1341.97022	57786.7125
1345.46305	56630.6125
1348.95352	55412.0125
1352.44163	54745.5125
1355.92738	55788.9125
1359.41078	59247.0125
1362.89183	63736.6125
1366.37053	63801.5125
1369.84688	57775.8125
1373.32088	50078.3125
1376.79254	44725.6125
1380.26186	42390.2125
1383.72883	41777.4125
1387.19347	41526.8125
1390.65578	41214.4125
1394.11575	41377.8125
1397.57339	42229.8125
1401.0287	43501.8125
1404.48168	44710.7125
1407.93234	45127.4125
1411.38068	44467.8125
1414.82669	42667.3125
1418.27039	40186.7125
1421.71177	37712.6125
1425.15083	35660.7125
1428.58758	34530.9125
1432.02203	34229.6125
1435.45416	34848.3125
1438.88399	35777.6125
1442.31151	36654.4125
1445.73673	37574.9125
1449.15965	38558.9125
1452.58027	39291.8125
1455.9986	39784.0125
1459.41463	40180.9125
1462.82837	40779.7125
1466.23982	41513.4125
1469.64898	42019.0125
1473.05586	42176.1125
1476.46045	41885.0125
1479.86276	41455.5125
1483.26279	41177.8125
1486.66054	41077.6125
1490.05602	41336.3125
1493.44922	41954.2125
1496.84016	42730.0125
1500.22882	44028.9125
1503.61521	46139.2125
1506.99934	48940.9125
1510.38121	52004.7125
1513.76081	53885.8125
1517.13816	53027.4125
1520.51324	49763.5125
1523.88607	46113.6125
1527.25665	43542.9125
1530.62498	42214.6125
1533.99105	41493.3125
1537.35488	40924.1125
1540.71647	40322.5125
1544.07581	39547.9125
1547.4329	38533.4125
1550.78776	37600.0125
1554.14038	37005.8125
1557.49077	36941.3125
1560.83892	37154.6125
1564.18484	37472.2125
1567.52853	37726.1125
1570.86999	37947.1125
1574.20922	38524.0125
1577.54624	39151.2125
1580.88103	39111.0125
1584.2136	39037.3125
1587.54395	39970.4125
1590.87208	42234.1125
1594.19801	45289.5125
1597.52172	48452.2125
1600.84321	49433.4125
1604.16251	46859.2125
1607.47959	42197.7125
1610.79447	37287.1125
1614.10715	32994.8125
1617.41763	29700.5125
1620.7259	27537.2125
1624.03199	26447.1125
1627.33587	26429.4125
1630.63757	27489.4125
1633.93707	29775.5125
1637.23439	33427.9125
1640.52951	38430.1125
1643.82246	44073.9125
1647.11321	48734.6125
1650.40179	50404.8125
1653.68819	47490.7125
1656.97241	40697.5125
1660.25446	33350.4125
1663.53433	27672.1125
1666.81203	24027.3125
1670.08756	21778.9125
1673.36092	20392.9125
1676.63211	19524.1125
1679.90115	18951.9125
1683.16801	18511.4125
1686.43272	18208.1125
1689.69527	17996.8125
1692.95567	17819.1125
1696.2139	17714.8125
1699.46999	17651.4125
1702.72392	17560.1125
1705.97571	17510.9125
1709.22535	17430.8125
1712.47284	17365.1125
1715.71819	17346.2125
1718.96139	17319.1125
1722.20246	17273.3125
1725.44139	17174.4125
1728.67818	16999.0125
1731.91284	16867.8125
1735.14537	16753.3125
1738.37576	16663.4125
1741.60403	16579.2125
1744.83017	16508.7125
1748.05418	16505.1125
1751.27607	16427.4125
1754.49584	16383.9125
1757.71349	16356.1125
1760.92903	16358.7125
1764.14244	16339.8125
1767.35375	16323.5125
1770.56294	16307.3125
1773.77002	16226.2125
1776.97499	16179.9125
1780.17785	16140.4125
1783.37861	16135.1125
1786.57727	16107.3125
1789.77382	16061.1125
1792.96828	16026.9125
1796.16064	15977.5125
1799.3509	15970.5125
1802.53907	15978.9125
1805.72514	15943.3125
1808.90913	15887.8125
1812.09102	15853.3125
1815.27083	15812.7125
1818.44856	15813.7125
1821.6242	15786.2125
1824.79776	15790.6125
1827.96924	15750.7125
1831.13864	15735.4125
1834.30597	15731.5125
1837.47122	15748.6125
1840.6344	15777.8125
1843.7955	15811.1125
1846.95454	15782.0125
1850.11151	15829.4125
1853.26642	15808.8125
1856.41926	15828.5125
1859.57004	15868.5125
1862.71876	15851.0125
1865.86542	15849.3125
1869.01003	15891.7125
1872.15258	15896.1125
1875.29308	15915.8125
1878.43152	15923.0125
1881.56792	15966.2125
1884.70227	16024.8125
1887.83457	16018.8125
1890.96482	15999.5125
1894.09304	16050.9125
1897.21921	16057.1125
1900.34335	16113.7125
1903.46544	16127.9125
1906.58551	16143.7125
1909.70353	16156.7125
1912.81953	16147.2125
1915.93349	16149.8125
1919.04543	16072.0125
1922.15534	16050.8125
1925.26322	15967.5125
1928.36908	15890.3125
1931.47292	15802.1125
1934.57473	15663.1125
1937.67453	15559.0125
1940.77232	15487.1125
1943.86808	15390.9125
1946.96184	15286.3125
1950.05358	15203.5125
1953.14331	15076.3125
1956.23103	15034.7125
1959.31675	14984.1125
1962.40046	14948.7125
1965.48217	14878.3125
1968.56188	14797.7125
1971.63959	14765.8125
1974.7153	14724.5125
1977.78901	14642.3125
1980.86073	14614.8125
1983.93046	14575.6125
1986.99819	14487.6125
1990.06394	14462.1125
1993.1277	14448.3125
1996.18947	14360.1125
1999.24925	14309.3125
2002.30706	14264.3125
2005.36288	14217.4125
2008.41672	14178.2125
2011.46859	14139.0125
2014.51848	14106.6125
2017.56639	14059.8125
2020.61233	13991.9125
2023.6563	13981.4125
2026.6983	13983.5125
2029.73833	13947.8125
2032.7764	13929.0125
2035.8125	13907.7125
2038.84664	13906.9125
2041.87881	13889.3125
2044.90903	13843.2125
2047.93729	13843.3125
2050.96359	13817.7125
2053.98794	13783.3125
2057.01034	13792.4125
2060.03078	13775.0125
2063.04927	13724.2125
2066.06582	13759.9125
2069.08042	13710.1125
2072.09307	13731.1125
2075.10378	13695.8125
2078.11255	13684.8125
2081.11938	13701.3125
2084.12426	13704.9125
2087.12722	13669.6125
2090.12824	13641.8125
2093.12732	13660.3125
2096.12447	13676.1125
2099.11969	13692.9125
2102.11299	13670.6125
2105.10435	13685.0125
2108.09379	13669.9125
2111.08131	13685.4125
2114.0669	13665.3125
2117.05057	13690.1125
2120.03233	13711.9125
2123.01216	13682.4125
2125.99008	13678.1125
2128.96609	13701.7125
2131.94018	13684.4125
2134.91236	13734.3125
2137.88263	13702.0125
2140.851	13733.7125
2143.81746	13729.9125
2146.78201	13712.8125
2149.74466	13723.6125
2152.7054	13716.6125
2155.66425	13685.6125
2158.6212	13732.5125
2161.57625	13721.9125
2164.52941	13722.1125
2167.48067	13699.7125
2170.43004	13695.4125
2173.37752	13683.1125
2176.32311	13710.1125
2179.26681	13730.4125
2182.20863	13715.1125
2185.14856	13728.0125
2188.08661	13738.4125
2191.02278	13716.4125
2193.95707	13710.7125
2196.88948	13703.6125
2199.82001	13689.9125
2202.74867	13667.5125
2205.67545	13708.3125
2208.60037	13693.4125
2211.52341	13699.0125
2214.44458	13672.2125
2217.36388	13620.0125
2220.28132	13629.8125
2223.1969	13600.3125
2226.11061	13554.8125
2229.02246	13542.3125
2231.93245	13522.4125
2234.84058	13516.4125
2237.74686	13484.1125
2240.65128	13462.4125
2243.55385	13414.4125
2246.45456	13429.8125
2249.35343	13400.8125
2252.25044	13352.9125
2255.14561	13365.5125
2258.03893	13349.6125
2260.93041	13329.1125
2263.82004	13309.2125
2266.70783	13316.3125
2269.59378	13227.4125
2272.4779	13213.4125
2275.36017	13192.5125
2278.24061	13145.0125
2281.11922	13120.0125
2283.996	13117.8125
2286.87094	13129.2125
2289.74405	13111.9125
2292.61534	13073.2125
2295.4848	13049.0125
2298.35243	13070.8125
2301.21824	13079.6125
2304.08223	13037.4125
2306.94439	13039.9125
2309.80474	13077.3125
2312.66327	13071.8125
2315.51999	13097.9125
2318.37489	13099.9125
2321.22797	13100.5125
2324.07925	13058.3125
2326.92871	13058.1125
2329.77637	13066.6125
2332.62222	13051.8125
2335.46626	13079.1125
2338.3085	13061.5125
2341.14893	13099.8125
2343.98756	13116.2125
2346.8244	13134.2125
2349.65943	13120.9125
2352.49267	13113.2125
2355.32411	13110.7125
2358.15376	13115.9125
2360.98161	13139.5125
2363.80768	13114.4125
2366.63195	13129.9125
2369.45444	13109.6125
2372.27514	13081.3125
2375.09405	13033.6125
2377.91118	13024.1125
2380.72652	12978.1125
2383.54009	12941.1125
2386.35187	12913.8125
2389.16188	12856.4125
2391.97011	12834.8125
2394.77657	12812.1125
2397.58125	12825.2125
2400.38416	12791.0125
2403.18529	12744.2125
2405.98466	12704.4125
2408.78226	12683.7125
2411.57809	12659.7125
2414.37216	12664.4125
2417.16446	12653.4125
2419.955	12631.6125
2422.74378	12641.8125
2425.5308	12601.1125
2428.31606	12628.4125
2431.09956	12626.4125
2433.88131	12589.2125
2436.6613	12608.4125
2439.43954	12616.6125
2442.21603	12608.0125
2444.99077	12614.8125
2447.76377	12600.6125
2450.53501	12628.4125
2453.30451	12660.3125
2456.07226	12611.0125
2458.83827	12644.6125
2461.60254	12654.7125
2464.36507	12617.6125
2467.12586	12627.6125
2469.88492	12647.4125
2472.64224	12624.4125
2475.39782	12651.7125
2478.15167	12660.4125
2480.90379	12680.7125
2483.65417	12681.6125
2486.40283	12702.8125
2489.14976	12707.9125
2491.89497	12753.2125
2494.63845	12769.6125
2497.3802	12791.3125
2500.12024	12784.4125
2502.85855	12793.2125
2505.59514	12776.5125
2508.33002	12761.5125
2511.06318	12738.0125
2513.79462	12697.8125
2516.52435	12682.1125
2519.25237	12654.6125
2521.97867	12662.5125
2524.70327	12654.6125
2527.42616	12618.2125
2530.14734	12623.2125
2532.86681	12595.3125
2535.58458	12588.8125
2538.30065	12577.0125
2541.01501	12565.3125
2543.72768	12554.1125
2546.43864	12541.4125
2549.14791	12539.9125
2551.85548	12558.9125
2554.56136	12536.5125
2557.26554	12517.3125
2559.96803	12507.4125
2562.66883	12521.4125
2565.36794	12512.6125
2568.06536	12517.6125
2570.7611	12519.0125
2573.45514	12519.4125
2576.14751	12509.6125
2578.83819	12492.6125
2581.52719	12513.0125
2584.21451	12495.2125
2586.90015	12490.8125
2589.58411	12505.3125
2592.2664	12490.7125
2594.94701	12492.8125
2597.62594	12506.9125
2600.30321	12458.2125
2602.9788	12466.2125
2605.65273	12492.5125
2608.32498	12498.2125
2610.99557	12501.0125
2613.66449	12523.5125
2616.33175	12496.4125
2618.99734	12522.5125
2621.66128	12546.1125
2624.32355	12553.9125
2626.98416	12556.7125
2629.64311	12558.1125
2632.30041	12577.5125
2634.95605	12537.7125
2637.61004	12563.1125
2640.26238	12552.9125
2642.91306	12519.2125
2645.56209	12486.3125
2648.20948	12477.9125
2650.85521	12500.8125
2653.4993	12504.1125
2656.14175	12486.7125
2658.78255	12511.3125
2661.42171	12537.6125
2664.05923	12521.1125
2666.6951	12518.0125
2669.32934	12551.7125
2671.96194	12557.4125
2674.59291	12567.4125
2677.22224	12565.1125
2679.84993	12547.7125
2682.476	12538.8125
2685.10043	12554.8125
2687.72324	12512.0125
2690.34441	12486.6125
2692.96396	12458.8125
2695.58188	12484.9125
2698.19818	12482.3125
2700.81285	12492.6125
2703.4259	12473.5125
2706.03733	12506.3125
2708.64714	12519.1125
2711.25533	12528.7125
2713.86191	12537.1125
2716.46687	12531.3125
2719.07021	12559.7125
2721.67194	12545.2125
2724.27206	12513.1125
2726.87057	12540.2125
2729.46747	12549.8125
2732.06276	12579.0125
2734.65644	12542.8125
2737.24852	12544.9125
2739.83899	12549.1125
2742.42786	12565.7125
2745.01513	12539.9125
2747.60079	12531.3125
2750.18486	12553.3125
2752.76733	12556.6125
2755.3482	12578.3125
2757.92747	12580.0125
2760.50515	12550.1125
2763.08123	12532.3125
2765.65573	12528.6125
2768.22863	12531.5125
2770.79994	12520.2125
2773.36967	12538.3125
2775.9378	12563.4125
2778.50435	12532.1125
2781.06932	12536.4125
2783.6327	12574.6125
2786.1945	12528.9125
2788.75471	12555.3125
2791.31335	12518.8125
2793.87041	12520.4125
2796.42589	12486.5125
2798.97979	12497.8125
2801.53212	12463.8125
2804.08288	12479.6125
2806.63206	12424.7125
2809.17967	12425.8125
2811.72571	12408.1125
2814.27018	12406.2125
2816.81308	12422.2125
2819.35442	12398.3125
2821.89419	12380.8125
2824.43239	12407.2125
2826.96904	12404.5125
2829.50412	12379.5125
2832.03763	12366.7125
2834.56959	12405.4125
2837.1	12342.2125
2839.62884	12373.6125
2842.15613	12390.6125
2844.68186	12457.3125
2847.20604	12506.4125
2849.72867	12539.9125
2852.24974	12547.2125
2854.76927	12539.5125
2857.28724	12502.5125
2859.80367	12519.3125
2862.31855	12496.7125
2864.83189	12488.6125
2867.34368	12459.1125
2869.85393	12537.1125
2872.36264	12488.4125
2874.8698	12533.4125
2877.37543	12528.8125
2879.87952	12540.9125
2882.38207	12540.2125
2884.88308	12541.3125
2887.38256	12554.0125
2889.88051	12534.7125
2892.37692	12537.0125
2894.8718	12557.3125
2897.36515	12585.2125
2899.85698	12584.2125
2902.34727	12609.2125
2904.83604	12641.1125
2907.32328	12619.8125
2909.809	12610.9125
2912.29319	12643.9125
2914.77587	12605.5125
2917.25702	12629.3125
2919.73665	12614.4125
2922.21476	12633.8125
2924.69136	12610.9125
2927.16644	12565.5125
2929.64	12537.1125
2932.11205	12518.9125
2934.58258	12507.3125
2937.05161	12517.9125
2939.51912	12490.2125
2941.98513	12455.7125
2944.44962	12403.3125
2946.91261	12329.2125
2949.37409	12314.5125
2951.83407	12309.6125
2954.29254	12289.2125
2956.74951	12224.3125
2959.20498	12211.4125
2961.65895	12163.5125
2964.11142	12163.4125
2966.56239	12128.8125
2969.01186	12118.9125
2971.45984	12057.9125
2973.90632	12034.1125
2976.35131	11977.0125
2978.7948	11942.9125
2981.23681	11914.5125
2983.67732	11885.2125
2986.11635	11834.0125
2988.55388	11792.7125
2990.98993	11761.2125
2993.4245	11739.0125
2995.85758	11722.6125
2998.28917	11716.3125
3000.71928	11668.5125
3003.14791	11675.6125
3005.57506	11662.5125
3008.00073	11607.2125
3010.42493	11626.8125
3012.84764	11600.3125
3015.26888	11568.2125
3017.68865	11560.8125
3020.10694	11520.6125
3022.52376	11511.8125
3024.9391	11496.4125
