Data from AgNPs_FTO_APTES_UA_2uM_CRN_50uM_R6G_10uM_NaF_0.1M_Addition_RamanShift__21__15-00-45-256.txt Node

Date: Wed Feb 02 15:00:45 GMT 2022
User: TCL
Spectrometer: QEP01345
Trigger mode: 4
Integration Time (sec): 7.000000E0
Scans to average: 10
Electric dark correction enabled: true
Nonlinearity correction enabled: false
Boxcar width: 0
XAxis mode: Raman Shifts
Number of Pixels in Spectrum: 1044
>>>>>Begin Spectral Data<<<<<
46.04893	-0.4875
50.45542	0.4125
54.85868	-0.5875
59.25871	-1.3875
63.6555	92.4125
68.04907	99.4125
72.43941	99.5125
76.82654	110.3125
81.21044	111.8125
85.59113	117.0125
89.96862	120.1125
94.34289	128.1125
98.71396	127.3125
103.08183	137.6125
107.4465	137.3125
111.80798	140.4125
116.16626	148.2125
120.52136	147.3125
124.87327	155.3125
129.222	164.6125
133.56755	174.5125
137.90993	186.4125
142.24913	208.7125
146.58517	231.3125
150.91804	266.0125
155.24774	320.2125
159.57429	392.8125
163.89768	503.9125
168.21792	665.4125
172.53501	910.5125
176.84895	1273.4125
181.15975	1780.6125
185.46741	2490.8125
189.77193	3413.2125
194.07331	4574.4125
198.37157	5877.5125
202.6667	7256.3125
206.9587	8622.5125
211.24758	9961.9125
215.53334	11303.5125
219.81599	12754.9125
224.09553	14331.3125
228.37195	16068.2125
232.64527	18015.7125
236.91549	20015.8125
241.18261	21993.4125
245.44663	23869.4125
249.70755	25596.6125
253.96539	27044.2125
258.22014	28309.0125
262.4718	29458.4125
266.72039	30293.9125
270.96589	30849.1125
275.20832	31090.2125
279.44768	31121.5125
283.68397	31124.1125
287.91719	31144.7125
292.14735	31260.8125
296.37445	31443.8125
300.59849	31597.2125
304.81948	31592.1125
309.03742	31238.4125
313.25231	30532.6125
317.46415	29552.2125
321.67296	28434.5125
325.87872	27492.4125
330.08145	27033.7125
334.28114	26934.9125
338.47781	27072.2125
342.67145	27394.3125
346.86207	27837.6125
351.04966	28415.0125
355.23424	28995.3125
359.4158	29503.4125
363.59435	29799.7125
367.76989	29980.7125
371.94243	30167.6125
376.11196	30259.9125
380.27849	30315.5125
384.44203	30455.5125
388.60257	30688.4125
392.76012	31070.6125
396.91468	31506.1125
401.06626	32050.2125
405.21485	32343.6125
409.36047	32133.5125
413.50311	31587.8125
417.64277	31202.0125
421.77947	31098.4125
425.9132	31260.0125
430.04396	31533.9125
434.17176	31783.5125
438.2966	32095.2125
442.41849	32714.9125
446.53742	33630.3125
450.6534	34723.4125
454.76644	35606.5125
458.87653	35992.8125
462.98368	35994.1125
467.08789	35688.4125
471.18916	35366.1125
475.2875	35219.3125
479.38291	35316.0125
483.4754	35148.9125
487.56496	34572.7125
491.6516	33681.3125
495.73531	32807.7125
499.81612	32331.4125
503.89401	32328.1125
507.96899	32350.1125
512.04106	32144.4125
516.11023	31831.0125
520.1765	31469.4125
524.23987	31001.8125
528.30034	30639.1125
532.35792	30274.6125
536.41261	29948.6125
540.46441	29714.3125
544.51333	29862.4125
548.55936	30449.4125
552.60252	31338.5125
556.64279	32288.5125
560.6802	32990.0125
564.71473	33403.9125
568.7464	34061.8125
572.7752	34994.2125
576.80114	35572.7125
580.82422	35823.3125
584.84444	36059.8125
588.86181	36287.6125
592.87633	36789.8125
596.888	37149.4125
600.89682	37405.9125
604.9028	38350.7125
608.90594	41223.1125
612.90624	43974.0125
616.90371	40949.0125
620.89834	33960.6125
624.89015	30956.8125
628.87913	30712.7125
632.86528	30943.6125
636.84862	31036.7125
640.82913	30544.4125
644.80683	29547.7125
648.78172	28734.9125
652.75379	28458.6125
656.72306	28699.3125
660.68952	29176.1125
664.65319	29086.1125
668.61405	28604.5125
672.57211	28367.0125
676.52738	28372.6125
680.47986	28414.8125
684.42955	28324.1125
688.37646	28207.7125
692.32058	28288.3125
696.26192	28558.0125
700.20048	28902.1125
704.13626	29160.1125
708.06928	29224.8125
711.99952	29030.1125
715.927	28847.5125
719.85171	28904.4125
723.77365	28773.9125
727.69284	28510.1125
731.60928	28225.6125
735.52295	28124.5125
739.43388	28103.4125
743.34206	28167.6125
747.24749	28377.6125
751.15017	28666.7125
755.05012	29334.6125
758.94733	30466.3125
762.8418	32357.3125
766.73354	35123.5125
770.62254	37649.4125
774.50882	37892.4125
778.39237	35700.1125
782.27321	32603.5125
786.15132	30143.2125
790.02671	28760.3125
793.89938	28047.9125
797.76935	27760.6125
801.6366	27705.0125
805.50115	27666.0125
809.36299	27554.7125
813.22213	27420.8125
817.07857	27371.5125
820.93231	27319.2125
824.78336	27175.3125
828.63172	27035.6125
832.47738	26934.2125
836.32036	26923.8125
840.16066	26956.6125
843.99827	26978.6125
847.8332	26850.1125
851.66546	26734.0125
855.49504	26675.8125
859.32195	26625.6125
863.1462	26501.0125
866.96777	26412.9125
870.78668	26362.5125
874.60293	26300.0125
878.41652	26307.5125
882.22745	26406.8125
886.03573	26428.8125
889.84136	26425.7125
893.64433	26326.7125
897.44466	26255.0125
901.24235	26143.6125
905.0374	26044.6125
908.8298	26057.3125
912.61957	26132.2125
916.40671	26454.2125
920.19121	26888.0125
923.97308	27225.8125
927.75233	27168.5125
931.52895	26876.9125
935.30295	26474.8125
939.07433	25925.0125
942.84309	25449.1125
946.60924	25209.8125
950.37278	25103.4125
954.13371	25060.5125
957.89203	25036.8125
961.64774	25067.9125
965.40086	25074.2125
969.15137	24929.3125
972.89929	24716.3125
976.64461	24573.6125
980.38733	24534.7125
984.12747	24583.1125
987.86502	24784.6125
991.59999	25060.9125
995.33237	25505.2125
999.06217	26232.1125
1002.78939	27121.3125
1006.51404	27743.5125
1010.23611	28132.3125
1013.95561	28417.0125
1017.67255	28469.1125
1021.38692	28146.0125
1025.09872	27790.8125
1028.80796	27765.7125
1032.51465	28223.5125
1036.21877	28741.2125
1039.92035	28833.7125
1043.61937	28615.7125
1047.31584	28160.9125
1051.00976	27646.9125
1054.70114	27432.6125
1058.38998	27556.9125
1062.07627	27869.1125
1065.76003	28203.0125
1069.44126	28516.5125
1073.11995	28827.4125
1076.79611	29064.7125
1080.46974	29175.1125
1084.14085	29375.2125
1087.80943	29706.5125
1091.47549	30028.9125
1095.13903	30058.8125
1098.80005	29712.6125
1102.45857	29075.6125
1106.11456	28457.7125
1109.76805	28206.5125
1113.41903	28285.1125
1117.06751	28632.4125
1120.71348	28984.0125
1124.35696	29382.1125
1127.99793	29799.4125
1131.63641	30008.7125
1135.2724	29836.4125
1138.90589	29623.3125
1142.5369	29566.9125
1146.16542	29765.1125
1149.79145	30086.1125
1153.415	30555.4125
1157.03607	31234.2125
1160.65467	32299.2125
1164.27079	33839.3125
1167.88443	35921.7125
1171.49561	38447.7125
1175.10432	41788.4125
1178.71056	45825.4125
1182.31434	49505.6125
1185.91565	51684.7125
1189.51451	52084.0125
1193.11091	51116.2125
1196.70485	49241.7125
1200.29634	46929.8125
1203.88538	44974.8125
1207.47197	43551.6125
1211.05612	42513.6125
1214.63782	41528.4125
1218.21708	40605.5125
1221.79391	39821.6125
1225.36829	39188.1125
1228.94024	38587.7125
1232.50976	37973.2125
1236.07685	37494.3125
1239.6415	37267.5125
1243.20374	37222.6125
1246.76355	37439.1125
1250.32093	37990.8125
1253.8759	38869.5125
1257.42845	40112.9125
1260.97859	41303.7125
1264.52631	42464.3125
1268.07163	43611.3125
1271.61453	44923.3125
1275.15503	46456.4125
1278.69312	47952.1125
1282.22882	49343.7125
1285.76211	50825.2125
1289.29301	52674.5125
1292.82151	55080.8125
1296.34761	58165.7125
1299.87133	61712.5125
1303.39266	65648.6125
1306.9116	69595.5125
1310.42815	73450.9125
1313.94233	76099.5125
1317.45412	76978.4125
1320.96354	76673.6125
1324.47058	76087.4125
1327.97525	75470.3125
1331.47754	74897.8125
1334.97747	74917.4125
1338.47502	75051.1125
1341.97022	74922.3125
1345.46305	73720.9125
1348.95352	71580.0125
1352.44163	69204.2125
1355.92738	68082.5125
1359.41078	68957.1125
1362.89183	70315.8125
1366.37053	68900.3125
1369.84688	63793.0125
1373.32088	57760.6125
1376.79254	53557.8125
1380.26186	52139.7125
1383.72883	52337.5125
1387.19347	52988.8125
1390.65578	53349.3125
1394.11575	53958.2125
1397.57339	55249.0125
1401.0287	56890.3125
1404.48168	58350.9125
1407.93234	58913.5125
1411.38068	58073.9125
1414.82669	55788.5125
1418.27039	52730.5125
1421.71177	49493.3125
1425.15083	46788.0125
1428.58758	45191.4125
1432.02203	44944.8125
1435.45416	45736.2125
1438.88399	47146.5125
1442.31151	48621.1125
1445.73673	49917.6125
1449.15965	51255.8125
1452.58027	52463.2125
1455.9986	53245.5125
1459.41463	53984.0125
1462.82837	54926.4125
1466.23982	55885.6125
1469.64898	56521.6125
1473.05586	56758.0125
1476.46045	56352.8125
1479.86276	55533.7125
1483.26279	54542.5125
1486.66054	53736.4125
1490.05602	53439.4125
1493.44922	53374.9125
1496.84016	53388.5125
1500.22882	53823.6125
1503.61521	54814.6125
1506.99934	56398.2125
1510.38121	58082.9125
1513.76081	58951.9125
1517.13816	58327.2125
1520.51324	56526.8125
1523.88607	54761.0125
1527.25665	53751.5125
1530.62498	53368.6125
1533.99105	53322.0125
1537.35488	53149.0125
1540.71647	52690.5125
1544.07581	51732.9125
1547.4329	50610.5125
1550.78776	49546.8125
1554.14038	48823.6125
1557.49077	48557.5125
1560.83892	48496.1125
1564.18484	48453.3125
1567.52853	48348.0125
1570.86999	48290.8125
1574.20922	48985.2125
1577.54624	49801.1125
1580.88103	50294.3125
1584.2136	51153.4125
1587.54395	52889.4125
1590.87208	55602.0125
1594.19801	58871.2125
1597.52172	61907.2125
1600.84321	62703.1125
1604.16251	59921.4125
1607.47959	55127.3125
1610.79447	49995.8125
1614.10715	45168.1125
1617.41763	41126.1125
1620.7259	38298.3125
1624.03199	36672.7125
1627.33587	36488.3125
1630.63757	37587.8125
1633.93707	40205.4125
1637.23439	44419.0125
1640.52951	50231.8125
1643.82246	56453.9125
1647.11321	61072.5125
1650.40179	61933.1125
1653.68819	57935.0125
1656.97241	50462.8125
1660.25446	42717.6125
1663.53433	36599.9125
1666.81203	32446.6125
1670.08756	29775.7125
1673.36092	28077.6125
1676.63211	26989.4125
1679.90115	26216.2125
1683.16801	25653.0125
1686.43272	25217.6125
1689.69527	24891.0125
1692.95567	24669.0125
1696.2139	24477.9125
1699.46999	24346.4125
1702.72392	24239.7125
1705.97571	24096.8125
1709.22535	23989.8125
1712.47284	23910.7125
1715.71819	23845.3125
1718.96139	23746.8125
1722.20246	23626.0125
1725.44139	23549.2125
1728.67818	23366.9125
1731.91284	23261.6125
1735.14537	23168.9125
1738.37576	23053.6125
1741.60403	22941.4125
1744.83017	22886.2125
1748.05418	22853.6125
1751.27607	22787.6125
1754.49584	22708.5125
1757.71349	22679.7125
1760.92903	22682.4125
1764.14244	22651.9125
1767.35375	22604.2125
1770.56294	22518.0125
1773.77002	22501.7125
1776.97499	22452.7125
1780.17785	22410.7125
1783.37861	22368.2125
1786.57727	22342.6125
1789.77382	22275.8125
1792.96828	22195.6125
1796.16064	22207.5125
1799.3509	22152.7125
1802.53907	22089.4125
1805.72514	22060.4125
1808.90913	21998.2125
1812.09102	21936.9125
1815.27083	21932.3125
1818.44856	21898.6125
1821.6242	21871.8125
1824.79776	21833.9125
1827.96924	21814.6125
1831.13864	21805.4125
1834.30597	21816.3125
1837.47122	21825.2125
1840.6344	21850.4125
1843.7955	21842.5125
1846.95454	21871.0125
1850.11151	21859.5125
1853.26642	21862.9125
1856.41926	21874.7125
1859.57004	21851.7125
1862.71876	21826.9125
1865.86542	21832.5125
1869.01003	21826.2125
1872.15258	21835.4125
1875.29308	21835.1125
1878.43152	21870.8125
1881.56792	21848.0125
1884.70227	21849.5125
1887.83457	21820.9125
1890.96482	21840.9125
1894.09304	21835.5125
1897.21921	21878.8125
1900.34335	21847.2125
1903.46544	21825.5125
1906.58551	21810.6125
1909.70353	21774.5125
1912.81953	21767.7125
1915.93349	21726.2125
1919.04543	21678.5125
1922.15534	21607.3125
1925.26322	21538.4125
1928.36908	21457.3125
1931.47292	21401.0125
1934.57473	21308.4125
1937.67453	21248.5125
1940.77232	21151.9125
1943.86808	21070.4125
1946.96184	20995.2125
1950.05358	20905.2125
1953.14331	20844.6125
1956.23103	20758.0125
1959.31675	20691.1125
1962.40046	20608.6125
1965.48217	20567.3125
1968.56188	20477.3125
1971.63959	20412.1125
1974.7153	20352.8125
1977.78901	20320.9125
1980.86073	20216.1125
1983.93046	20146.3125
1986.99819	20082.8125
1990.06394	20027.7125
1993.1277	19973.7125
1996.18947	19868.7125
1999.24925	19846.6125
2002.30706	19762.3125
2005.36288	19752.4125
2008.41672	19663.0125
2011.46859	19629.7125
2014.51848	19566.8125
2017.56639	19474.9125
2020.61233	19463.3125
2023.6563	19439.2125
2026.6983	19399.9125
2029.73833	19328.6125
2032.7764	19331.1125
2035.8125	19273.6125
2038.84664	19250.8125
2041.87881	19254.0125
2044.90903	19212.4125
2047.93729	19189.4125
2050.96359	19180.9125
2053.98794	19153.3125
2057.01034	19130.6125
2060.03078	19114.4125
2063.04927	19081.8125
2066.06582	19056.1125
2069.08042	19027.5125
2072.09307	19046.8125
2075.10378	19032.2125
2078.11255	18993.7125
2081.11938	18953.7125
2084.12426	18962.6125
2087.12722	18906.2125
2090.12824	18917.7125
2093.12732	18924.9125
2096.12447	18927.0125
2099.11969	18955.3125
2102.11299	18940.5125
2105.10435	18973.9125
2108.09379	18959.3125
2111.08131	18966.4125
2114.0669	18934.1125
2117.05057	18986.8125
2120.03233	19007.4125
2123.01216	18999.1125
2125.99008	18990.0125
2128.96609	19005.6125
2131.94018	18995.9125
2134.91236	18988.0125
2137.88263	19000.3125
2140.851	19048.1125
2143.81746	19031.4125
2146.78201	19076.4125
2149.74466	19080.2125
2152.7054	19055.1125
2155.66425	19043.1125
2158.6212	19060.6125
2161.57625	19063.5125
2164.52941	19027.1125
2167.48067	19003.9125
2170.43004	19016.3125
2173.37752	18978.6125
2176.32311	18959.0125
2179.26681	18991.1125
2182.20863	18996.2125
2185.14856	18999.2125
2188.08661	18985.1125
2191.02278	18989.8125
2193.95707	18975.7125
2196.88948	18967.6125
2199.82001	18951.5125
2202.74867	18957.1125
2205.67545	18921.6125
2208.60037	18875.0125
2211.52341	18868.0125
2214.44458	18873.5125
2217.36388	18847.7125
2220.28132	18826.8125
2223.1969	18802.6125
2226.11061	18791.4125
2229.02246	18691.0125
2231.93245	18696.4125
2234.84058	18610.5125
2237.74686	18585.4125
2240.65128	18587.1125
2243.55385	18564.5125
2246.45456	18559.9125
2249.35343	18500.1125
2252.25044	18477.8125
2255.14561	18445.5125
2258.03893	18431.2125
2260.93041	18409.3125
2263.82004	18349.0125
2266.70783	18282.1125
2269.59378	18232.1125
2272.4779	18186.1125
2275.36017	18126.3125
2278.24061	18135.1125
2281.11922	18051.3125
2283.996	18044.2125
2286.87094	18026.7125
2289.74405	17990.9125
2292.61534	17981.3125
2295.4848	17983.1125
2298.35243	17958.5125
2301.21824	17967.7125
2304.08223	17965.0125
2306.94439	17955.6125
2309.80474	17972.9125
2312.66327	17971.8125
2315.51999	17948.5125
2318.37489	17967.2125
2321.22797	17951.5125
2324.07925	17933.5125
2326.92871	17909.7125
2329.77637	17905.6125
2332.62222	17895.4125
2335.46626	17881.0125
2338.3085	17891.2125
2341.14893	17883.4125
2343.98756	17890.5125
2346.8244	17877.3125
2349.65943	17894.6125
2352.49267	17882.4125
2355.32411	17893.6125
2358.15376	17851.4125
2360.98161	17870.4125
2363.80768	17855.4125
2366.63195	17817.9125
2369.45444	17793.5125
2372.27514	17779.0125
2375.09405	17760.5125
2377.91118	17675.6125
2380.72652	17677.7125
2383.54009	17684.7125
2386.35187	17622.8125
2389.16188	17537.8125
2391.97011	17548.3125
2394.77657	17505.3125
2397.58125	17528.0125
2400.38416	17471.8125
2403.18529	17429.5125
2405.98466	17407.7125
2408.78226	17409.0125
2411.57809	17374.5125
2414.37216	17339.5125
2417.16446	17340.0125
2419.955	17287.3125
2422.74378	17286.9125
2425.5308	17275.1125
2428.31606	17263.7125
2431.09956	17278.0125
2433.88131	17229.9125
2436.6613	17257.4125
2439.43954	17226.3125
2442.21603	17198.1125
2444.99077	17174.9125
2447.76377	17224.0125
2450.53501	17190.0125
2453.30451	17205.7125
2456.07226	17189.9125
2458.83827	17172.4125
2461.60254	17169.1125
2464.36507	17213.9125
2467.12586	17218.1125
2469.88492	17184.1125
2472.64224	17214.1125
2475.39782	17209.9125
2478.15167	17225.2125
2480.90379	17249.0125
2483.65417	17258.3125
2486.40283	17260.4125
2489.14976	17279.0125
2491.89497	17266.8125
2494.63845	17319.3125
2497.3802	17282.8125
2500.12024	17288.8125
2502.85855	17281.2125
2505.59514	17309.0125
2508.33002	17295.7125
2511.06318	17273.9125
2513.79462	17261.4125
2516.52435	17256.7125
2519.25237	17253.6125
2521.97867	17200.7125
2524.70327	17185.3125
2527.42616	17169.9125
2530.14734	17210.5125
2532.86681	17176.6125
2535.58458	17185.1125
2538.30065	17144.2125
2541.01501	17154.8125
2543.72768	17139.4125
2546.43864	17093.4125
2549.14791	17055.3125
2551.85548	17098.7125
2554.56136	17093.5125
2557.26554	17065.5125
2559.96803	17025.2125
2562.66883	17059.5125
2565.36794	17038.0125
2568.06536	17070.5125
2570.7611	17001.0125
2573.45514	17028.0125
2576.14751	17020.7125
2578.83819	16968.8125
2581.52719	16998.7125
2584.21451	17007.6125
2586.90015	16981.6125
2589.58411	17008.5125
2592.2664	17005.2125
2594.94701	16959.9125
2597.62594	16961.7125
2600.30321	16950.9125
2602.9788	16976.7125
2605.65273	16956.1125
2608.32498	16986.2125
2610.99557	17000.0125
2613.66449	17007.1125
2616.33175	16994.9125
2618.99734	17043.4125
2621.66128	17004.6125
2624.32355	17019.4125
2626.98416	17036.9125
2629.64311	17053.1125
2632.30041	17054.7125
2634.95605	17034.9125
2637.61004	17059.1125
2640.26238	17009.6125
2642.91306	16983.0125
2645.56209	16980.5125
2648.20948	16981.8125
2650.85521	16977.6125
2653.4993	16983.9125
2656.14175	16991.5125
2658.78255	17014.9125
2661.42171	17008.7125
2664.05923	17055.0125
2666.6951	17040.5125
2669.32934	17065.8125
2671.96194	17036.3125
2674.59291	17073.7125
2677.22224	17075.7125
2679.84993	17064.1125
2682.476	17023.0125
2685.10043	17049.1125
2687.72324	17011.6125
2690.34441	17024.1125
2692.96396	17035.3125
2695.58188	17008.5125
2698.19818	17011.3125
2700.81285	17025.7125
2703.4259	17043.2125
2706.03733	17067.5125
2708.64714	17059.0125
2711.25533	17055.7125
2713.86191	17074.3125
2716.46687	17111.8125
2719.07021	17078.5125
2721.67194	17123.6125
2724.27206	17126.5125
2726.87057	17140.1125
2729.46747	17156.2125
2732.06276	17185.1125
2734.65644	17146.9125
2737.24852	17154.4125
2739.83899	17112.9125
2742.42786	17101.1125
2745.01513	17086.7125
2747.60079	17113.4125
2750.18486	17121.0125
2752.76733	17128.6125
2755.3482	17138.2125
2757.92747	17188.1125
2760.50515	17205.8125
2763.08123	17156.1125
2765.65573	17171.8125
2768.22863	17175.0125
2770.79994	17144.6125
2773.36967	17145.0125
2775.9378	17143.9125
2778.50435	17131.9125
2781.06932	17106.5125
2783.6327	17130.1125
2786.1945	17126.3125
2788.75471	17135.7125
2791.31335	17078.3125
2793.87041	17104.1125
2796.42589	17076.2125
2798.97979	17045.6125
2801.53212	17047.3125
2804.08288	17004.9125
2806.63206	16982.2125
2809.17967	16937.5125
2811.72571	16912.1125
2814.27018	16909.1125
2816.81308	16893.4125
2819.35442	16841.7125
2821.89419	16811.1125
2824.43239	16825.9125
2826.96904	16788.5125
2829.50412	16815.0125
2832.03763	16777.8125
2834.56959	16765.8125
2837.1	16714.0125
2839.62884	16706.8125
2842.15613	16697.9125
2844.68186	16751.1125
2847.20604	16769.2125
2849.72867	16782.1125
2852.24974	16767.3125
2854.76927	16749.8125
2857.28724	16723.2125
2859.80367	16698.7125
2862.31855	16680.8125
2864.83189	16684.0125
2867.34368	16662.8125
2869.85393	16679.0125
2872.36264	16652.7125
2874.8698	16646.2125
2877.37543	16678.0125
2879.87952	16667.9125
2882.38207	16657.0125
2884.88308	16662.9125
2887.38256	16681.9125
2889.88051	16681.7125
2892.37692	16710.3125
2894.8718	16683.2125
2897.36515	16690.2125
2899.85698	16711.8125
2902.34727	16739.1125
2904.83604	16754.3125
2907.32328	16794.9125
2909.809	16770.2125
2912.29319	16803.2125
2914.77587	16792.1125
2917.25702	16741.9125
2919.73665	16767.6125
2922.21476	16761.4125
2924.69136	16755.7125
2927.16644	16792.1125
2929.64	16760.1125
2932.11205	16736.1125
2934.58258	16710.1125
2937.05161	16734.1125
2939.51912	16756.3125
2941.98513	16681.6125
2944.44962	16621.1125
2946.91261	16548.6125
2949.37409	16589.1125
2951.83407	16541.0125
2954.29254	16538.4125
2956.74951	16502.9125
2959.20498	16509.3125
2961.65895	16444.5125
2964.11142	16498.2125
2966.56239	16411.8125
2969.01186	16421.3125
2971.45984	16323.2125
2973.90632	16334.4125
2976.35131	16253.0125
2978.7948	16234.5125
2981.23681	16216.5125
2983.67732	16165.7125
2986.11635	16109.4125
2988.55388	16086.2125
2990.98993	16073.1125
2993.4245	16014.6125
2995.85758	15978.6125
2998.28917	15951.4125
3000.71928	15920.7125
3003.14791	15884.8125
3005.57506	15863.7125
3008.00073	15809.9125
3010.42493	15759.4125
3012.84764	15748.6125
3015.26888	15766.9125
3017.68865	15729.7125
3020.10694	15686.2125
3022.52376	15669.2125
