Data from AgNPs_FTO_APTES_UA_2uM_CRN_5uM_R6G_10uM_NaF_0.1M_Addition_RamanShift__31__13-14-35-132.txt Node

Date: Wed Feb 02 13:14:35 GMT 2022
User: TCL
Spectrometer: QEP01345
Trigger mode: 4
Integration Time (sec): 7.000000E0
Scans to average: 10
Electric dark correction enabled: true
Nonlinearity correction enabled: false
Boxcar width: 0
XAxis mode: Raman Shifts
Number of Pixels in Spectrum: 1044
>>>>>Begin Spectral Data<<<<<
46.04893	1.9125
50.45542	1.4125
54.85868	-1.5875
59.25871	-0.2875
63.6555	34.2125
68.04907	37.0125
72.43941	38.3125
76.82654	41.7125
81.21044	41.6125
85.59113	47.3125
89.96862	47.0125
94.34289	48.1125
98.71396	51.7125
103.08183	55.8125
107.4465	55.9125
111.80798	57.4125
116.16626	58.1125
120.52136	60.9125
124.87327	63.2125
129.222	64.6125
133.56755	68.2125
137.90993	73.2125
142.24913	80.7125
146.58517	91.5125
150.91804	103.9125
155.24774	127.7125
159.57429	158.7125
163.89768	204.5125
168.21792	268.2125
172.53501	361.5125
176.84895	504.4125
181.15975	687.7125
185.46741	972.0125
189.77193	1337.6125
194.07331	1791.0125
198.37157	2297.2125
202.6667	2823.3125
206.9587	3358.2125
211.24758	3884.0125
215.53334	4482.1125
219.81599	5132.4125
224.09553	5900.0125
228.37195	6734.4125
232.64527	7644.3125
236.91549	8502.5125
241.18261	9242.7125
245.44663	9793.0125
249.70755	10202.3125
253.96539	10512.1125
258.22014	10839.8125
262.4718	11158.0125
266.72039	11449.8125
270.96589	11594.5125
275.20832	11646.8125
279.44768	11551.9125
283.68397	11412.8125
287.91719	11361.0125
292.14735	11469.2125
296.37445	11832.9125
300.59849	12395.9125
304.81948	13119.0125
309.03742	13650.6125
313.25231	13664.7125
317.46415	12893.0125
321.67296	11579.4125
325.87872	10499.4125
330.08145	9943.4125
334.28114	9855.9125
338.47781	10027.2125
342.67145	10390.2125
346.86207	10972.7125
351.04966	11841.9125
355.23424	12876.0125
359.4158	13561.2125
363.59435	13893.4125
367.76989	13897.1125
371.94243	13743.5125
376.11196	13547.6125
380.27849	13352.2125
384.44203	13083.6125
388.60257	12825.7125
392.76012	12682.5125
396.91468	12836.0125
401.06626	13263.3125
405.21485	13585.6125
409.36047	13260.8125
413.50311	12294.8125
417.64277	11431.5125
421.77947	10914.4125
425.9132	10675.2125
430.04396	10613.9125
434.17176	10629.2125
438.2966	10773.0125
442.41849	11011.5125
446.53742	11373.6125
450.6534	11699.4125
454.76644	11915.4125
458.87653	11938.0125
462.98368	11790.2125
467.08789	11589.6125
471.18916	11251.8125
475.2875	10894.3125
479.38291	10632.1125
483.4754	10397.3125
487.56496	10256.5125
491.6516	10148.6125
495.73531	10144.7125
499.81612	10232.7125
503.89401	10412.5125
507.96899	10593.3125
512.04106	10779.0125
516.11023	10996.2125
520.1765	11128.6125
524.23987	11077.7125
528.30034	10767.2125
532.35792	10403.3125
536.41261	10075.9125
540.46441	9713.1125
544.51333	9565.6125
548.55936	9662.8125
552.60252	9992.6125
556.64279	10391.0125
560.6802	10566.5125
564.71473	10828.1125
568.7464	11484.1125
572.7752	11935.7125
576.80114	11520.1125
580.82422	10948.4125
584.84444	10712.1125
588.86181	10513.0125
592.87633	10414.8125
596.888	10526.1125
600.89682	11067.2125
604.9028	12948.3125
608.90594	17898.5125
612.90624	24420.9125
616.90371	23408.4125
620.89834	14974.9125
624.89015	10870.1125
628.87913	10101.6125
632.86528	10204.4125
636.84862	10448.0125
640.82913	10295.1125
644.80683	9675.2125
648.78172	9238.2125
652.75379	9342.1125
656.72306	9964.1125
660.68952	10699.2125
664.65319	10558.8125
668.61405	9791.8125
672.57211	9386.9125
676.52738	9316.4125
680.47986	9275.8125
684.42955	9168.6125
688.37646	9105.3125
692.32058	9115.7125
696.26192	9260.3125
700.20048	9454.8125
704.13626	9631.3125
708.06928	9629.9125
711.99952	9518.7125
715.927	9434.4125
719.85171	9421.5125
723.77365	9413.9125
727.69284	9269.1125
731.60928	9112.6125
735.52295	9106.5125
739.43388	9148.1125
743.34206	9208.0125
747.24749	9280.7125
751.15017	9414.3125
755.05012	9693.3125
758.94733	10376.8125
762.8418	11968.9125
766.73354	14820.5125
770.62254	17755.5125
774.50882	19151.5125
778.39237	18118.7125
782.27321	15183.9125
786.15132	12218.9125
790.02671	10487.1125
793.89938	9717.5125
797.76935	9390.5125
801.6366	9237.2125
805.50115	9121.2125
809.36299	9024.1125
813.22213	8978.5125
817.07857	8947.7125
820.93231	8955.8125
824.78336	8969.8125
828.63172	9030.6125
832.47738	9068.0125
836.32036	9038.6125
840.16066	8940.3125
843.99827	8878.6125
847.8332	8801.1125
851.66546	8821.0125
855.49504	8793.9125
859.32195	8767.2125
863.1462	8687.3125
866.96777	8623.8125
870.78668	8615.2125
874.60293	8628.0125
878.41652	8676.1125
882.22745	8729.4125
886.03573	8790.5125
889.84136	8790.3125
893.64433	8716.5125
897.44466	8676.6125
901.24235	8699.9125
905.0374	8645.1125
908.8298	8626.5125
912.61957	8621.1125
916.40671	8689.5125
920.19121	8802.7125
923.97308	8903.1125
927.75233	9049.9125
931.52895	9187.1125
935.30295	9012.6125
939.07433	8641.0125
942.84309	8272.9125
946.60924	8117.5125
950.37278	7979.0125
954.13371	7937.1125
957.89203	7898.8125
961.64774	7869.6125
965.40086	7834.9125
969.15137	7800.6125
972.89929	7800.3125
976.64461	7766.5125
980.38733	7783.6125
984.12747	7788.1125
987.86502	7811.0125
991.59999	7876.9125
995.33237	7988.1125
999.06217	8166.8125
1002.78939	8446.0125
1006.51404	8693.8125
1010.23611	8981.3125
1013.95561	9166.5125
1017.67255	9077.3125
1021.38692	8919.9125
1025.09872	8694.7125
1028.80796	8566.7125
1032.51465	8576.2125
1036.21877	8718.1125
1039.92035	8877.2125
1043.61937	8968.8125
1047.31584	8979.4125
1051.00976	8943.8125
1054.70114	8860.9125
1058.38998	8850.6125
1062.07627	8916.5125
1065.76003	8990.0125
1069.44126	9095.8125
1073.11995	9246.7125
1076.79611	9396.2125
1080.46974	9585.4125
1084.14085	9958.4125
1087.80943	10388.2125
1091.47549	10573.1125
1095.13903	10333.6125
1098.80005	9810.7125
1102.45857	9367.5125
1106.11456	9136.9125
1109.76805	9165.3125
1113.41903	9376.6125
1117.06751	9793.6125
1120.71348	10347.1125
1124.35696	11010.9125
1127.99793	11643.8125
1131.63641	11623.0125
1135.2724	10907.9125
1138.90589	10175.4125
1142.5369	9737.2125
1146.16542	9459.6125
1149.79145	9307.9125
1153.415	9323.6125
1157.03607	9471.1125
1160.65467	9760.3125
1164.27079	10229.7125
1167.88443	10970.7125
1171.49561	12190.7125
1175.10432	14275.1125
1178.71056	17016.6125
1182.31434	18853.1125
1185.91565	19141.9125
1189.51451	18422.8125
1193.11091	16986.4125
1196.70485	15263.4125
1200.29634	14017.3125
1203.88538	13120.7125
1207.47197	12068.1125
1211.05612	11190.2125
1214.63782	10658.6125
1218.21708	10502.9125
1221.79391	10546.0125
1225.36829	10677.6125
1228.94024	10843.2125
1232.50976	11011.2125
1236.07685	11123.0125
1239.6415	11128.7125
1243.20374	11069.7125
1246.76355	11052.2125
1250.32093	11159.4125
1253.8759	11453.4125
1257.42845	11858.7125
1260.97859	12368.2125
1264.52631	12886.6125
1268.07163	13395.1125
1271.61453	13880.4125
1275.15503	14256.9125
1278.69312	14332.1125
1282.22882	14410.8125
1285.76211	14782.4125
1289.29301	15387.1125
1292.82151	15983.3125
1296.34761	16490.7125
1299.87133	17313.7125
1303.39266	18861.1125
1306.9116	21403.6125
1310.42815	24622.6125
1313.94233	26829.7125
1317.45412	26651.0125
1320.96354	24705.4125
1324.47058	22405.3125
1327.97525	20309.7125
1331.47754	18963.1125
1334.97747	18390.8125
1338.47502	18283.4125
1341.97022	18481.9125
1345.46305	19170.5125
1348.95352	20446.3125
1352.44163	22248.3125
1355.92738	24895.6125
1359.41078	29138.0125
1362.89183	33665.2125
1366.37053	33271.9125
1369.84688	27740.0125
1373.32088	21957.8125
1376.79254	18281.1125
1380.26186	16527.1125
1383.72883	15614.9125
1387.19347	14862.6125
1390.65578	13988.8125
1394.11575	13353.9125
1397.57339	13001.9125
1401.0287	13000.8125
1404.48168	13182.4125
1407.93234	13398.6125
1411.38068	13536.0125
1414.82669	13510.4125
1418.27039	13291.8125
1421.71177	13002.6125
1425.15083	12686.8125
1428.58758	12420.9125
1432.02203	12363.3125
1435.45416	12426.6125
1438.88399	12528.9125
1442.31151	12535.4125
1445.73673	12602.5125
1449.15965	12730.2125
1452.58027	12686.7125
1455.9986	12556.0125
1459.41463	12512.2125
1462.82837	12617.6125
1466.23982	12910.7125
1469.64898	13328.3125
1473.05586	13613.6125
1476.46045	13807.1125
1479.86276	14108.9125
1483.26279	14525.5125
1486.66054	14987.3125
1490.05602	15616.2125
1493.44922	16555.0125
1496.84016	17985.2125
1500.22882	20218.6125
1503.61521	23237.9125
1506.99934	26694.8125
1510.38121	30123.1125
1513.76081	32158.1125
1517.13816	30992.9125
1520.51324	26981.4125
1523.88607	22561.0125
1527.25665	19366.2125
1530.62498	17442.6125
1533.99105	16278.0125
1537.35488	15519.6125
1540.71647	14998.8125
1544.07581	14723.6125
1547.4329	14550.8125
1550.78776	14409.2125
1554.14038	14373.1125
1557.49077	14582.5125
1560.83892	15002.7125
1564.18484	15595.3125
1567.52853	16253.7125
1570.86999	16799.0125
1574.20922	17125.8125
1577.54624	17042.9125
1580.88103	16067.5125
1584.2136	14661.2125
1587.54395	13879.4125
1590.87208	14018.7125
1594.19801	14831.5125
1597.52172	15983.5125
1600.84321	16418.1125
1604.16251	15687.6125
1607.47959	14470.9125
1610.79447	13251.7125
1614.10715	12082.7125
1617.41763	11105.8125
1620.7259	10522.4125
1624.03199	10228.4125
1627.33587	10262.0125
1630.63757	10529.6125
1633.93707	11156.1125
1637.23439	12145.8125
1640.52951	13578.0125
1643.82246	15546.7125
1647.11321	17993.1125
1650.40179	20070.4125
1653.68819	19983.7125
1656.97241	17319.0125
1660.25446	13876.3125
1663.53433	11288.0125
1666.81203	9753.4125
1670.08756	8855.8125
1673.36092	8344.7125
1676.63211	7999.3125
1679.90115	7794.0125
1683.16801	7647.8125
1686.43272	7514.3125
1689.69527	7426.8125
1692.95567	7359.9125
1696.2139	7323.7125
1699.46999	7311.6125
1702.72392	7274.6125
1705.97571	7246.1125
1709.22535	7216.8125
1712.47284	7205.7125
1715.71819	7224.7125
1718.96139	7243.1125
1722.20246	7214.8125
1725.44139	7174.9125
1728.67818	7120.7125
1731.91284	7023.9125
1735.14537	6952.9125
1738.37576	6883.3125
1741.60403	6843.9125
1744.83017	6792.3125
1748.05418	6787.2125
1751.27607	6772.3125
1754.49584	6762.3125
1757.71349	6738.4125
1760.92903	6728.1125
1764.14244	6708.1125
1767.35375	6705.0125
1770.56294	6669.1125
1773.77002	6618.6125
1776.97499	6583.8125
1780.17785	6550.9125
1783.37861	6516.6125
1786.57727	6504.6125
1789.77382	6489.2125
1792.96828	6482.2125
1796.16064	6456.0125
1799.3509	6443.5125
1802.53907	6416.0125
1805.72514	6388.9125
1808.90913	6356.0125
1812.09102	6369.1125
1815.27083	6339.5125
1818.44856	6351.1125
1821.6242	6306.1125
1824.79776	6307.4125
1827.96924	6297.1125
1831.13864	6293.9125
1834.30597	6292.0125
1837.47122	6263.3125
1840.6344	6246.7125
1843.7955	6262.9125
1846.95454	6279.7125
1850.11151	6239.8125
1853.26642	6252.6125
1856.41926	6251.9125
1859.57004	6268.7125
1862.71876	6275.0125
1865.86542	6274.4125
1869.01003	6285.8125
1872.15258	6307.5125
1875.29308	6317.5125
1878.43152	6321.0125
1881.56792	6335.8125
1884.70227	6350.6125
1887.83457	6375.4125
1890.96482	6386.9125
1894.09304	6375.4125
1897.21921	6386.8125
1900.34335	6385.1125
1903.46544	6380.9125
1906.58551	6385.5125
1909.70353	6407.8125
1912.81953	6390.4125
1915.93349	6387.1125
1919.04543	6379.1125
1922.15534	6374.6125
1925.26322	6342.2125
1928.36908	6347.7125
1931.47292	6278.0125
1934.57473	6228.4125
1937.67453	6143.8125
1940.77232	6105.3125
1943.86808	6077.2125
1946.96184	6022.5125
1950.05358	5976.5125
1953.14331	5974.8125
1956.23103	5933.6125
1959.31675	5885.6125
1962.40046	5876.4125
1965.48217	5845.3125
1968.56188	5830.4125
1971.63959	5822.9125
1974.7153	5805.0125
1977.78901	5780.7125
1980.86073	5762.1125
1983.93046	5739.2125
1986.99819	5704.8125
1990.06394	5672.1125
1993.1277	5659.2125
1996.18947	5628.6125
1999.24925	5605.6125
2002.30706	5592.5125
2005.36288	5584.1125
2008.41672	5543.1125
2011.46859	5529.7125
2014.51848	5506.3125
2017.56639	5504.0125
2020.61233	5486.3125
2023.6563	5480.7125
2026.6983	5474.3125
2029.73833	5449.8125
2032.7764	5426.2125
2035.8125	5404.4125
2038.84664	5401.7125
2041.87881	5394.0125
2044.90903	5363.0125
2047.93729	5365.9125
2050.96359	5357.9125
2053.98794	5341.5125
2057.01034	5343.2125
2060.03078	5321.1125
2063.04927	5340.7125
2066.06582	5321.1125
2069.08042	5312.1125
2072.09307	5291.1125
2075.10378	5289.5125
2078.11255	5288.0125
2081.11938	5305.4125
2084.12426	5291.8125
2087.12722	5284.0125
2090.12824	5286.6125
2093.12732	5270.4125
2096.12447	5262.7125
2099.11969	5264.2125
2102.11299	5262.1125
2105.10435	5287.3125
2108.09379	5263.9125
2111.08131	5279.6125
2114.0669	5263.0125
2117.05057	5282.3125
2120.03233	5268.5125
2123.01216	5288.8125
2125.99008	5295.0125
2128.96609	5275.7125
2131.94018	5259.1125
2134.91236	5266.4125
2137.88263	5265.9125
2140.851	5277.9125
2143.81746	5278.8125
2146.78201	5272.2125
2149.74466	5259.1125
2152.7054	5275.4125
2155.66425	5243.4125
2158.6212	5253.8125
2161.57625	5252.5125
2164.52941	5240.5125
2167.48067	5232.2125
2170.43004	5232.0125
2173.37752	5231.1125
2176.32311	5236.9125
2179.26681	5234.7125
2182.20863	5218.2125
2185.14856	5235.9125
2188.08661	5230.3125
2191.02278	5234.6125
2193.95707	5191.9125
2196.88948	5195.9125
2199.82001	5185.5125
2202.74867	5184.2125
2205.67545	5208.8125
2208.60037	5177.4125
2211.52341	5179.2125
2214.44458	5163.0125
2217.36388	5153.2125
2220.28132	5145.2125
2223.1969	5114.0125
2226.11061	5110.3125
2229.02246	5088.8125
2231.93245	5082.8125
2234.84058	5074.6125
2237.74686	5066.1125
2240.65128	5060.5125
2243.55385	5025.0125
2246.45456	5038.2125
2249.35343	5045.7125
2252.25044	5052.3125
2255.14561	5044.8125
2258.03893	5038.5125
2260.93041	5033.9125
2263.82004	5029.3125
2266.70783	5013.6125
2269.59378	4984.9125
2272.4779	4998.0125
2275.36017	4957.7125
2278.24061	4959.5125
2281.11922	4948.7125
2283.996	4938.6125
2286.87094	4933.1125
2289.74405	4893.9125
2292.61534	4898.1125
2295.4848	4889.9125
2298.35243	4879.1125
2301.21824	4864.6125
2304.08223	4862.0125
2306.94439	4882.5125
2309.80474	4856.5125
2312.66327	4852.7125
2315.51999	4863.5125
2318.37489	4861.7125
2321.22797	4833.3125
2324.07925	4834.9125
2326.92871	4845.6125
2329.77637	4827.4125
2332.62222	4831.9125
2335.46626	4826.1125
2338.3085	4811.1125
2341.14893	4833.1125
2343.98756	4815.7125
2346.8244	4802.3125
2349.65943	4824.5125
2352.49267	4825.0125
2355.32411	4838.9125
2358.15376	4862.9125
2360.98161	4857.1125
2363.80768	4879.0125
2366.63195	4891.4125
2369.45444	4872.3125
2372.27514	4889.1125
2375.09405	4870.4125
2377.91118	4848.2125
2380.72652	4815.8125
2383.54009	4802.5125
2386.35187	4792.0125
2389.16188	4751.4125
2391.97011	4732.6125
2394.77657	4707.1125
2397.58125	4696.6125
2400.38416	4678.5125
2403.18529	4674.9125
2405.98466	4642.1125
2408.78226	4646.1125
2411.57809	4644.0125
2414.37216	4633.9125
2417.16446	4629.1125
2419.955	4628.3125
2422.74378	4627.1125
2425.5308	4601.6125
2428.31606	4622.5125
2431.09956	4608.0125
2433.88131	4611.0125
2436.6613	4619.9125
2439.43954	4621.5125
2442.21603	4614.1125
2444.99077	4616.2125
2447.76377	4624.8125
2450.53501	4621.1125
2453.30451	4616.9125
2456.07226	4631.3125
2458.83827	4617.9125
2461.60254	4624.6125
2464.36507	4622.0125
2467.12586	4597.6125
2469.88492	4586.9125
2472.64224	4609.6125
2475.39782	4612.8125
2478.15167	4637.2125
2480.90379	4620.4125
2483.65417	4632.8125
2486.40283	4650.5125
2489.14976	4663.3125
2491.89497	4680.1125
2494.63845	4689.2125
2497.3802	4661.1125
2500.12024	4669.5125
2502.85855	4669.6125
2505.59514	4644.6125
2508.33002	4638.2125
2511.06318	4603.6125
2513.79462	4590.5125
2516.52435	4560.9125
2519.25237	4528.9125
2521.97867	4518.0125
2524.70327	4493.9125
2527.42616	4488.6125
2530.14734	4481.0125
2532.86681	4474.5125
2535.58458	4466.2125
2538.30065	4475.9125
2541.01501	4473.4125
2543.72768	4452.5125
2546.43864	4461.5125
2549.14791	4458.6125
2551.85548	4474.2125
2554.56136	4462.2125
2557.26554	4475.2125
2559.96803	4464.5125
2562.66883	4442.2125
2565.36794	4444.5125
2568.06536	4447.4125
2570.7611	4423.6125
2573.45514	4407.8125
2576.14751	4413.6125
2578.83819	4415.8125
2581.52719	4404.8125
2584.21451	4377.2125
2586.90015	4372.0125
2589.58411	4385.6125
2592.2664	4361.0125
2594.94701	4375.0125
2597.62594	4369.0125
2600.30321	4355.1125
2602.9788	4357.7125
2605.65273	4362.1125
2608.32498	4342.6125
2610.99557	4353.9125
2613.66449	4354.0125
2616.33175	4349.4125
2618.99734	4356.4125
2621.66128	4340.3125
2624.32355	4353.7125
2626.98416	4342.7125
2629.64311	4326.4125
2632.30041	4328.3125
2634.95605	4312.7125
2637.61004	4308.2125
2640.26238	4306.6125
2642.91306	4299.4125
2645.56209	4287.9125
2648.20948	4270.0125
2650.85521	4268.0125
2653.4993	4280.5125
2656.14175	4267.5125
2658.78255	4288.8125
2661.42171	4296.9125
2664.05923	4282.5125
2666.6951	4293.3125
2669.32934	4305.5125
2671.96194	4315.2125
2674.59291	4319.5125
2677.22224	4316.2125
2679.84993	4323.4125
2682.476	4326.7125
2685.10043	4313.1125
2687.72324	4322.3125
2690.34441	4318.6125
2692.96396	4333.9125
2695.58188	4326.7125
2698.19818	4312.8125
2700.81285	4304.7125
2703.4259	4316.4125
2706.03733	4347.0125
2708.64714	4325.5125
2711.25533	4325.8125
2713.86191	4337.5125
2716.46687	4343.4125
2719.07021	4343.9125
2721.67194	4341.0125
2724.27206	4340.3125
2726.87057	4317.4125
2729.46747	4338.9125
2732.06276	4336.9125
2734.65644	4326.9125
2737.24852	4322.1125
2739.83899	4317.6125
2742.42786	4305.3125
2745.01513	4285.2125
2747.60079	4276.7125
2750.18486	4260.0125
2752.76733	4279.9125
2755.3482	4281.6125
2757.92747	4263.6125
2760.50515	4248.8125
2763.08123	4240.6125
2765.65573	4233.9125
2768.22863	4236.0125
2770.79994	4227.9125
2773.36967	4227.6125
2775.9378	4229.6125
2778.50435	4226.7125
2781.06932	4213.7125
2783.6327	4237.2125
2786.1945	4233.9125
2788.75471	4228.2125
2791.31335	4213.8125
2793.87041	4203.6125
2796.42589	4219.8125
2798.97979	4217.6125
2801.53212	4240.0125
2804.08288	4215.1125
2806.63206	4217.4125
2809.17967	4218.2125
2811.72571	4225.2125
2814.27018	4237.1125
2816.81308	4241.1125
2819.35442	4241.4125
2821.89419	4253.3125
2824.43239	4264.7125
2826.96904	4268.3125
2829.50412	4266.9125
2832.03763	4262.3125
2834.56959	4285.2125
2837.1	4304.7125
2839.62884	4328.6125
2842.15613	4346.9125
2844.68186	4398.1125
2847.20604	4459.2125
2849.72867	4531.1125
2852.24974	4556.2125
2854.76927	4547.5125
2857.28724	4549.8125
2859.80367	4537.0125
2862.31855	4509.4125
2864.83189	4494.4125
2867.34368	4485.1125
2869.85393	4481.3125
2872.36264	4476.2125
2874.8698	4484.2125
2877.37543	4474.9125
2879.87952	4457.5125
2882.38207	4480.6125
2884.88308	4462.3125
2887.38256	4449.4125
2889.88051	4450.3125
2892.37692	4458.2125
2894.8718	4449.0125
2897.36515	4458.4125
2899.85698	4465.5125
2902.34727	4465.6125
2904.83604	4463.9125
2907.32328	4479.9125
2909.809	4445.9125
2912.29319	4449.0125
2914.77587	4447.7125
2917.25702	4455.4125
2919.73665	4448.5125
2922.21476	4452.1125
2924.69136	4451.8125
2927.16644	4420.7125
2929.64	4424.7125
2932.11205	4415.9125
2934.58258	4371.4125
2937.05161	4367.5125
2939.51912	4345.6125
2941.98513	4305.1125
2944.44962	4274.6125
2946.91261	4221.6125
2949.37409	4198.6125
2951.83407	4176.9125
2954.29254	4146.7125
2956.74951	4134.0125
2959.20498	4125.2125
2961.65895	4114.6125
2964.11142	4085.9125
2966.56239	4083.6125
2969.01186	4069.8125
2971.45984	4051.7125
2973.90632	4042.1125
2976.35131	4013.1125
2978.7948	3988.6125
2981.23681	3967.4125
2983.67732	3983.1125
2986.11635	3950.1125
2988.55388	3929.3125
2990.98993	3912.5125
2993.4245	3905.5125
2995.85758	3882.4125
2998.28917	3881.2125
3000.71928	3876.6125
3003.14791	3878.6125
3005.57506	3867.8125
3008.00073	3848.6125
3010.42493	3852.6125
3012.84764	3835.7125
3015.26888	3852.7125
3017.68865	3836.7125
3020.10694	3831.1125
3022.52376	3821.6125
3024.9391	3815.7125
3027.35298	3810.3125
3029.76539	3814.2125
3032.17632	3795.7125
3034.5858	3771.7125
3036.9938	3781.6125
3039.40034	3776.8125
3041.80542	3772.4125
3044.20903	3760.4125
3046.61118	3751.0125
3049.01187	3736.7125
3051.4111	3745.0125
3053.80888	3735.4125
3056.20519	3722.2125
3058.60005	3718.6125
3060.99345	3707.9125
3063.3854	3703.3125
3065.7759	3696.4125
3068.16494	3704.4125
3070.55254	3678.5125
3072.93868	3665.8125
3075.32338	3659.7125
3077.70662	3648.2125
3080.08842	3617.7125
3082.46878	3618.1125
3084.84769	3596.2125
3087.22515	3593.6125
3089.60118	3588.0125
3091.97576	3597.1125
3094.3489	3575.9125
3096.72061	3585.9125
