Data from AgNPs_FTO_APTES_UA_2uM_CRN_20uM_R6G_10uM_NaF_0.1M_Addition_RamanShift__7__14-05-55-192.txt Node

Date: Wed Feb 02 14:05:55 GMT 2022
User: TCL
Spectrometer: QEP01345
Trigger mode: 4
Integration Time (sec): 7.000000E0
Scans to average: 10
Electric dark correction enabled: true
Nonlinearity correction enabled: false
Boxcar width: 0
XAxis mode: Raman Shifts
Number of Pixels in Spectrum: 1044
>>>>>Begin Spectral Data<<<<<
46.04893	1.075
50.45542	1.075
54.85868	-0.525
59.25871	-1.225
63.6555	98.075
68.04907	106.175
72.43941	109.675
76.82654	118.275
81.21044	116.375
85.59113	126.575
89.96862	127.475
94.34289	133.675
98.71396	135.575
103.08183	145.175
107.4465	144.975
111.80798	149.975
116.16626	153.075
120.52136	161.275
124.87327	167.775
129.222	173.575
133.56755	186.375
137.90993	200.375
142.24913	226.275
146.58517	253.975
150.91804	297.775
155.24774	359.575
159.57429	446.675
163.89768	572.875
168.21792	761.275
172.53501	1039.575
176.84895	1450.175
181.15975	2050.975
185.46741	2853.875
189.77193	3937.875
194.07331	5274.075
198.37157	6772.175
202.6667	8372.975
206.9587	9949.075
211.24758	11521.075
215.53334	13064.075
219.81599	14693.075
224.09553	16537.375
228.37195	18489.175
232.64527	20649.475
236.91549	22978.275
241.18261	25231.875
245.44663	27339.175
249.70755	29226.175
253.96539	30869.275
258.22014	32291.775
262.4718	33458.275
266.72039	34260.875
270.96589	34689.375
275.20832	34744.275
279.44768	34586.275
283.68397	34352.775
287.91719	34065.575
292.14735	34008.675
296.37445	34003.775
300.59849	34103.475
304.81948	34291.575
309.03742	34349.175
313.25231	34072.375
317.46415	33508.275
321.67296	32691.275
325.87872	31968.275
330.08145	31668.075
334.28114	31510.275
338.47781	31651.575
342.67145	31917.475
346.86207	32349.875
351.04966	32874.275
355.23424	33329.975
359.4158	33853.575
363.59435	34259.275
367.76989	34488.575
371.94243	34654.975
376.11196	34732.375
380.27849	34741.775
384.44203	34787.075
388.60257	35078.775
392.76012	35534.575
396.91468	36116.775
401.06626	36781.675
405.21485	37160.375
409.36047	37010.475
413.50311	36623.075
417.64277	36530.175
421.77947	36794.075
425.9132	36990.175
430.04396	37162.875
434.17176	37331.675
438.2966	37456.475
442.41849	37889.075
446.53742	38770.375
450.6534	39814.875
454.76644	40495.075
458.87653	40729.575
462.98368	40565.075
467.08789	40085.575
471.18916	39506.775
475.2875	39002.875
479.38291	38778.775
483.4754	38609.575
487.56496	38148.175
491.6516	37560.875
495.73531	36879.675
499.81612	36414.975
503.89401	36554.075
507.96899	36767.875
512.04106	36704.975
516.11023	36415.375
520.1765	35857.075
524.23987	35330.475
528.30034	34899.875
532.35792	34491.575
536.41261	34078.075
540.46441	33777.275
544.51333	33813.175
548.55936	34288.175
552.60252	35056.375
556.64279	36016.375
560.6802	36732.375
564.71473	37326.175
568.7464	38098.175
572.7752	39573.175
576.80114	41340.975
580.82422	43125.075
584.84444	45146.175
588.86181	47668.075
592.87633	49593.175
596.888	48903.575
600.89682	45891.375
604.9028	44155.075
608.90594	45382.475
612.90624	47033.775
616.90371	43742.675
620.89834	37582.875
624.89015	34881.875
628.87913	34777.775
632.86528	35033.375
636.84862	35002.875
640.82913	34242.075
644.80683	33335.675
648.78172	32883.975
652.75379	32912.175
656.72306	33247.975
660.68952	33571.875
664.65319	33275.575
668.61405	32703.575
672.57211	32615.875
676.52738	32769.275
680.47986	32779.275
684.42955	32546.375
688.37646	32392.575
692.32058	32600.675
696.26192	33103.775
700.20048	33666.175
704.13626	34020.575
708.06928	34178.075
711.99952	34088.775
715.927	34104.475
719.85171	34213.475
723.77365	33927.975
727.69284	33231.975
731.60928	32649.375
735.52295	32407.375
739.43388	32337.675
743.34206	32442.675
747.24749	32782.575
751.15017	33129.075
755.05012	33866.675
758.94733	35010.075
762.8418	36665.075
766.73354	39000.075
770.62254	40898.175
774.50882	40845.075
778.39237	38800.675
782.27321	36298.975
786.15132	34331.775
790.02671	33141.875
793.89938	32497.275
797.76935	32193.775
801.6366	32160.875
805.50115	32098.875
809.36299	31922.275
813.22213	31594.775
817.07857	31476.175
820.93231	31344.775
824.78336	31132.575
828.63172	30875.075
832.47738	30723.475
836.32036	30627.375
840.16066	30656.675
843.99827	30724.475
847.8332	30670.575
851.66546	30669.175
855.49504	30713.575
859.32195	30664.275
863.1462	30592.175
866.96777	30484.075
870.78668	30402.475
874.60293	30390.875
878.41652	30398.175
882.22745	30484.675
886.03573	30585.075
889.84136	30551.975
893.64433	30462.075
897.44466	30345.075
901.24235	30284.875
905.0374	30241.575
908.8298	30190.875
912.61957	30274.975
916.40671	30685.875
920.19121	31273.475
923.97308	31658.675
927.75233	31607.375
931.52895	31122.775
935.30295	30456.875
939.07433	29793.075
942.84309	29303.175
946.60924	29047.475
950.37278	29051.175
954.13371	29060.275
957.89203	29105.875
961.64774	29083.875
965.40086	29140.975
969.15137	29094.375
972.89929	28836.975
976.64461	28648.375
980.38733	28586.775
984.12747	28563.875
987.86502	28707.075
991.59999	28861.375
995.33237	29105.175
999.06217	29541.075
1002.78939	30242.675
1006.51404	30918.875
1010.23611	31522.375
1013.95561	31901.675
1017.67255	32010.075
1021.38692	31688.175
1025.09872	31103.375
1028.80796	30649.175
1032.51465	30647.975
1036.21877	30861.275
1039.92035	31065.375
1043.61937	31134.875
1047.31584	31004.875
1051.00976	30936.875
1054.70114	30961.475
1058.38998	31231.675
1062.07627	31596.075
1065.76003	32062.975
1069.44126	32582.175
1073.11995	33198.375
1076.79611	33720.475
1080.46974	33929.175
1084.14085	34129.575
1087.80943	34550.175
1091.47549	34955.075
1095.13903	35165.475
1098.80005	34634.475
1102.45857	33581.475
1106.11456	32717.575
1109.76805	32247.375
1113.41903	32188.675
1117.06751	32352.875
1120.71348	32690.075
1124.35696	32979.275
1127.99793	33383.475
1131.63641	33732.775
1135.2724	33790.875
1138.90589	33793.075
1142.5369	34083.275
1146.16542	34528.675
1149.79145	35027.675
1153.415	35621.875
1157.03607	36396.375
1160.65467	37761.775
1164.27079	39952.475
1167.88443	42436.275
1171.49561	44715.475
1175.10432	47296.175
1178.71056	50662.075
1182.31434	53732.575
1185.91565	55245.775
1189.51451	54991.375
1193.11091	53811.975
1196.70485	52186.175
1200.29634	50379.175
1203.88538	49164.275
1207.47197	48994.175
1211.05612	48981.175
1214.63782	48278.575
1218.21708	46613.575
1221.79391	44697.175
1225.36829	43165.175
1228.94024	42255.375
1232.50976	41616.875
1236.07685	41036.775
1239.6415	40697.775
1243.20374	40713.875
1246.76355	41107.375
1250.32093	41807.175
1253.8759	42770.075
1257.42845	44057.375
1260.97859	45536.975
1264.52631	47063.575
1268.07163	48459.675
1271.61453	49961.075
1275.15503	51512.875
1278.69312	53315.575
1282.22882	55431.975
1285.76211	57925.675
1289.29301	60783.775
1292.82151	64136.075
1296.34761	68281.875
1299.87133	72697.675
1303.39266	76914.775
1306.9116	80138.775
1310.42815	81967.575
1313.94233	82434.975
1317.45412	81647.475
1320.96354	80616.275
1324.47058	80081.175
1327.97525	80032.575
1331.47754	80147.875
1334.97747	79848.175
1338.47502	78892.575
1341.97022	77495.475
1345.46305	75623.475
1348.95352	73967.875
1352.44163	72973.075
1355.92738	73702.875
1359.41078	75904.675
1362.89183	77860.175
1366.37053	77037.375
1369.84688	71906.375
1373.32088	64455.375
1376.79254	59011.575
1380.26186	57293.175
1383.72883	57922.775
1387.19347	58456.975
1390.65578	58043.175
1394.11575	57947.375
1397.57339	58718.375
1401.0287	59928.375
1404.48168	61039.375
1407.93234	60927.875
1411.38068	59204.875
1414.82669	56573.975
1418.27039	53636.775
1421.71177	50853.675
1425.15083	48664.575
1428.58758	47836.175
1432.02203	48433.375
1435.45416	50145.575
1438.88399	52178.775
1442.31151	53583.975
1445.73673	54392.375
1449.15965	54858.675
1452.58027	54995.875
1455.9986	54882.375
1459.41463	55046.175
1462.82837	55720.775
1466.23982	56695.275
1469.64898	57612.675
1473.05586	58125.475
1476.46045	58205.875
1479.86276	57683.375
1483.26279	56963.375
1486.66054	56560.975
1490.05602	56840.675
1493.44922	57335.275
1496.84016	57987.475
1500.22882	58711.475
1503.61521	59645.675
1506.99934	60680.875
1510.38121	61621.475
1513.76081	61744.275
1517.13816	61209.275
1520.51324	60439.675
1523.88607	60253.675
1527.25665	60833.875
1530.62498	61234.875
1533.99105	60939.075
1537.35488	59809.775
1540.71647	57934.275
1544.07581	55696.275
1547.4329	53556.075
1550.78776	51812.275
1554.14038	50647.175
1557.49077	49923.675
1560.83892	49546.975
1564.18484	49264.675
1567.52853	49335.675
1570.86999	49855.375
1574.20922	51040.575
1577.54624	52477.575
1580.88103	53500.275
1584.2136	54835.575
1587.54395	57280.975
1590.87208	60839.975
1594.19801	64743.675
1597.52172	67800.275
1600.84321	67643.475
1604.16251	63538.575
1607.47959	57537.575
1610.79447	51603.175
1614.10715	46616.175
1617.41763	42678.475
1620.7259	40110.675
1624.03199	38910.675
1627.33587	39075.575
1630.63757	40629.575
1633.93707	43916.075
1637.23439	49490.975
1640.52951	57570.175
1643.82246	67028.575
1647.11321	74164.275
1650.40179	74831.975
1653.68819	68208.975
1656.97241	57644.575
1660.25446	47743.075
1663.53433	40549.075
1666.81203	35949.875
1670.08756	33038.075
1673.36092	31204.675
1676.63211	30063.175
1679.90115	29207.075
1683.16801	28633.275
1686.43272	28195.775
1689.69527	27812.075
1692.95567	27567.775
1696.2139	27430.175
1699.46999	27274.375
1702.72392	27159.475
1705.97571	27007.775
1709.22535	26911.675
1712.47284	26806.175
1715.71819	26760.775
1718.96139	26693.175
1722.20246	26547.375
1725.44139	26385.875
1728.67818	26170.075
1731.91284	26027.875
1735.14537	25852.275
1738.37576	25692.575
1741.60403	25577.875
1744.83017	25484.175
1748.05418	25451.475
1751.27607	25393.375
1754.49584	25310.475
1757.71349	25332.775
1760.92903	25248.075
1764.14244	25228.975
1767.35375	25161.675
1770.56294	25139.975
1773.77002	25015.375
1776.97499	25008.175
1780.17785	24934.575
1783.37861	24875.075
1786.57727	24794.475
1789.77382	24725.575
1792.96828	24687.175
1796.16064	24654.875
1799.3509	24597.875
1802.53907	24541.375
1805.72514	24461.875
1808.90913	24372.675
1812.09102	24319.575
1815.27083	24303.175
1818.44856	24287.375
1821.6242	24273.275
1824.79776	24235.375
1827.96924	24215.175
1831.13864	24192.375
1834.30597	24202.875
1837.47122	24195.575
1840.6344	24208.975
1843.7955	24175.175
1846.95454	24182.675
1850.11151	24217.375
1853.26642	24167.575
1856.41926	24107.975
1859.57004	24101.875
1862.71876	24091.475
1865.86542	24052.875
1869.01003	23987.075
1872.15258	23931.575
1875.29308	23899.475
1878.43152	23876.275
1881.56792	23827.975
1884.70227	23853.075
1887.83457	23773.575
1890.96482	23772.475
1894.09304	23712.775
1897.21921	23697.775
1900.34335	23627.775
1903.46544	23584.975
1906.58551	23549.675
1909.70353	23506.675
1912.81953	23470.075
1915.93349	23398.575
1919.04543	23332.975
1922.15534	23277.775
1925.26322	23260.775
1928.36908	23155.675
1931.47292	23108.175
1934.57473	23030.975
1937.67453	22972.375
1940.77232	22907.875
1943.86808	22843.175
1946.96184	22822.775
1950.05358	22765.275
1953.14331	22701.175
1956.23103	22598.375
1959.31675	22559.175
1962.40046	22479.675
1965.48217	22427.675
1968.56188	22342.375
1971.63959	22227.975
1974.7153	22180.575
1977.78901	22131.075
1980.86073	22030.775
1983.93046	21951.575
1986.99819	21869.875
1990.06394	21814.375
1993.1277	21785.875
1996.18947	21715.675
1999.24925	21630.975
2002.30706	21536.375
2005.36288	21456.575
2008.41672	21429.875
2011.46859	21335.475
2014.51848	21280.875
2017.56639	21222.675
2020.61233	21197.475
2023.6563	21148.775
2026.6983	21110.875
2029.73833	21054.775
2032.7764	21042.175
2035.8125	20985.875
2038.84664	20930.975
2041.87881	20947.675
2044.90903	20863.275
2047.93729	20811.475
2050.96359	20800.475
2053.98794	20776.675
2057.01034	20756.875
2060.03078	20725.275
2063.04927	20716.075
2066.06582	20683.175
2069.08042	20697.275
2072.09307	20675.175
2075.10378	20649.875
2078.11255	20617.275
2081.11938	20612.175
2084.12426	20573.675
2087.12722	20571.375
2090.12824	20599.475
2093.12732	20554.175
2096.12447	20569.675
2099.11969	20616.975
2102.11299	20588.775
2105.10435	20570.675
2108.09379	20559.075
2111.08131	20575.375
2114.0669	20583.275
2117.05057	20569.675
2120.03233	20632.075
2123.01216	20641.275
2125.99008	20642.975
2128.96609	20637.275
2131.94018	20651.875
2134.91236	20686.375
2137.88263	20669.275
2140.851	20629.075
2143.81746	20662.775
2146.78201	20653.475
2149.74466	20651.975
2152.7054	20616.775
2155.66425	20603.475
2158.6212	20583.475
2161.57625	20552.375
2164.52941	20590.075
2167.48067	20548.375
2170.43004	20572.975
2173.37752	20562.475
2176.32311	20565.175
2179.26681	20555.575
2182.20863	20554.375
2185.14856	20557.575
2188.08661	20533.275
2191.02278	20571.775
2193.95707	20525.775
2196.88948	20511.575
2199.82001	20479.975
2202.74867	20468.575
2205.67545	20432.075
2208.60037	20395.375
2211.52341	20339.775
2214.44458	20354.075
2217.36388	20304.775
2220.28132	20275.575
2223.1969	20222.075
2226.11061	20234.275
2229.02246	20140.075
2231.93245	20124.175
2234.84058	20147.975
2237.74686	20144.375
2240.65128	20092.175
2243.55385	20032.275
2246.45456	19997.275
2249.35343	19966.175
2252.25044	19912.475
2255.14561	19879.975
2258.03893	19831.175
2260.93041	19783.275
2263.82004	19701.775
2266.70783	19640.675
2269.59378	19553.775
2272.4779	19522.975
2275.36017	19494.775
2278.24061	19437.375
2281.11922	19434.775
2283.996	19399.775
2286.87094	19401.875
2289.74405	19302.275
2292.61534	19282.775
2295.4848	19259.075
2298.35243	19293.175
2301.21824	19279.675
2304.08223	19259.375
2306.94439	19266.275
2309.80474	19244.875
2312.66327	19234.875
2315.51999	19224.175
2318.37489	19190.875
2321.22797	19168.575
2324.07925	19162.475
2326.92871	19083.075
2329.77637	19128.275
2332.62222	19108.075
2335.46626	19047.075
2338.3085	19037.175
2341.14893	19004.575
2343.98756	19012.975
2346.8244	18998.275
2349.65943	19043.475
2352.49267	19000.875
2355.32411	19007.775
2358.15376	19004.175
2360.98161	18986.775
2363.80768	18962.475
2366.63195	18924.375
2369.45444	18919.675
2372.27514	18912.975
2375.09405	18896.175
2377.91118	18828.075
2380.72652	18776.775
2383.54009	18736.875
2386.35187	18742.875
2389.16188	18712.875
2391.97011	18666.575
2394.77657	18590.075
2397.58125	18564.275
2400.38416	18554.675
2403.18529	18528.275
2405.98466	18543.475
2408.78226	18473.175
2411.57809	18496.675
2414.37216	18476.775
2417.16446	18470.875
2419.955	18461.975
2422.74378	18463.275
2425.5308	18402.875
2428.31606	18429.875
2431.09956	18379.475
2433.88131	18350.175
2436.6613	18354.675
2439.43954	18323.775
2442.21603	18308.475
2444.99077	18336.875
2447.76377	18299.175
2450.53501	18295.975
2453.30451	18283.975
2456.07226	18257.675
2458.83827	18300.175
2461.60254	18264.075
2464.36507	18265.875
2467.12586	18267.775
2469.88492	18235.175
2472.64224	18246.975
2475.39782	18233.275
2478.15167	18263.775
2480.90379	18249.775
2483.65417	18225.875
2486.40283	18273.975
2489.14976	18283.675
2491.89497	18255.175
2494.63845	18265.675
2497.3802	18251.075
2500.12024	18278.175
2502.85855	18228.175
2505.59514	18244.175
2508.33002	18224.275
2511.06318	18250.675
2513.79462	18172.675
2516.52435	18197.175
2519.25237	18193.275
2521.97867	18161.775
2524.70327	18166.075
2527.42616	18173.575
2530.14734	18142.275
2532.86681	18109.875
2535.58458	18098.375
2538.30065	18081.275
2541.01501	18056.475
2543.72768	18069.175
2546.43864	18001.575
2549.14791	17971.075
2551.85548	17982.375
2554.56136	17962.975
2557.26554	17981.775
2559.96803	17962.575
2562.66883	17950.675
2565.36794	17930.875
2568.06536	17940.075
2570.7611	17904.075
2573.45514	17894.975
2576.14751	17880.975
2578.83819	17850.375
2581.52719	17860.375
2584.21451	17827.075
2586.90015	17803.375
2589.58411	17787.775
2592.2664	17816.775
2594.94701	17783.775
2597.62594	17786.175
2600.30321	17755.075
2602.9788	17736.475
2605.65273	17717.075
2608.32498	17766.375
2610.99557	17768.875
2613.66449	17745.775
2616.33175	17731.275
2618.99734	17743.375
2621.66128	17719.675
2624.32355	17730.075
2626.98416	17703.875
2629.64311	17703.275
2632.30041	17679.075
2634.95605	17673.175
2637.61004	17652.475
2640.26238	17638.075
2642.91306	17657.375
2645.56209	17594.175
2648.20948	17619.375
2650.85521	17622.875
2653.4993	17640.175
2656.14175	17645.375
2658.78255	17680.375
2661.42171	17688.075
2664.05923	17690.975
2666.6951	17708.875
2669.32934	17703.675
2671.96194	17728.875
2674.59291	17696.275
2677.22224	17691.175
2679.84993	17696.575
2682.476	17714.275
2685.10043	17718.575
2687.72324	17690.275
2690.34441	17694.875
2692.96396	17706.175
2695.58188	17692.775
2698.19818	17673.275
2700.81285	17664.875
2703.4259	17691.575
2706.03733	17699.675
2708.64714	17759.475
2711.25533	17760.275
2713.86191	17707.575
2716.46687	17718.875
2719.07021	17718.875
2721.67194	17761.575
2724.27206	17751.875
2726.87057	17775.375
2729.46747	17768.875
2732.06276	17744.975
2734.65644	17748.875
2737.24852	17766.775
2739.83899	17737.975
2742.42786	17739.375
2745.01513	17725.575
2747.60079	17720.175
2750.18486	17706.575
2752.76733	17726.975
2755.3482	17730.575
2757.92747	17742.675
2760.50515	17735.875
2763.08123	17736.775
2765.65573	17695.075
2768.22863	17720.075
2770.79994	17676.075
2773.36967	17684.775
2775.9378	17659.975
2778.50435	17655.275
2781.06932	17672.675
2783.6327	17678.975
2786.1945	17641.475
2788.75471	17646.675
2791.31335	17567.975
2793.87041	17552.975
2796.42589	17502.275
2798.97979	17532.875
2801.53212	17496.175
2804.08288	17510.775
2806.63206	17487.175
2809.17967	17444.875
2811.72571	17410.875
2814.27018	17363.575
2816.81308	17358.375
2819.35442	17294.775
2821.89419	17261.575
2824.43239	17254.575
2826.96904	17272.175
2829.50412	17235.475
2832.03763	17215.175
2834.56959	17207.575
2837.1	17182.775
2839.62884	17169.675
2842.15613	17179.875
2844.68186	17200.075
2847.20604	17218.975
2849.72867	17248.775
2852.24974	17234.575
2854.76927	17195.275
2857.28724	17190.175
2859.80367	17196.575
2862.31855	17138.775
2864.83189	17080.975
2867.34368	17055.675
2869.85393	17041.975
2872.36264	17003.375
2874.8698	17021.175
2877.37543	17014.675
2879.87952	17027.675
2882.38207	17008.875
2884.88308	17009.275
2887.38256	17031.775
2889.88051	17025.075
2892.37692	17053.375
2894.8718	17020.475
2897.36515	17083.775
2899.85698	17028.175
2902.34727	17058.175
2904.83604	17077.975
2907.32328	17091.775
2909.809	17052.075
2912.29319	17051.175
2914.77587	17052.975
2917.25702	17052.275
2919.73665	16969.175
2922.21476	17027.575
2924.69136	17049.475
2927.16644	17089.775
2929.64	17045.175
2932.11205	17056.575
2934.58258	17023.275
2937.05161	17045.875
2939.51912	17006.775
2941.98513	17034.375
2944.44962	16974.675
2946.91261	16841.675
2949.37409	16894.875
2951.83407	16872.875
2954.29254	16883.075
2956.74951	16863.175
2959.20498	16835.575
2961.65895	16819.475
2964.11142	16773.575
2966.56239	16756.875
2969.01186	16712.575
2971.45984	16706.375
2973.90632	16688.675
2976.35131	16605.475
2978.7948	16567.575
2981.23681	16519.775
2983.67732	16484.675
2986.11635	16449.175
2988.55388	16409.775
2990.98993	16369.575
2993.4245	16320.475
2995.85758	16290.175
2998.28917	16212.775
3000.71928	16223.675
3003.14791	16198.375
3005.57506	16175.775
3008.00073	16088.975
3010.42493	16087.175
3012.84764	16036.975
3015.26888	16019.075
3017.68865	15972.175
3020.10694	15939.075
3022.52376	15939.575
3024.9391	15851.875
3027.35298	15844.975
3029.76539	15827.175
3032.17632	15806.275
3034.5858	15796.975
3036.9938	15767.375
3039.40034	15791.575
3041.80542	15749.275
3044.20903	15750.475
3046.61118	15709.375
3049.01187	15670.175
3051.4111	15653.175
3053.80888	15626.975
3056.20519	15592.475
3058.60005	15523.175
3060.99345	15506.575
3063.3854	15448.075
3065.7759	15408.575
3068.16494	15331.875
3070.55254	15277.875
3072.93868	15244.275
3075.32338	15210.675
3077.70662	15198.875
3080.08842	15148.175
3082.46878	15146.775
3084.84769	15078.475
3087.22515	15074.575
3089.60118	15078.975
3091.97576	15090.075
3094.3489	15025.175
3096.72061	15004.875
3099.09087	14992.575
3101.4597	14984.175
3103.82709	14971.575
3106.19305	14939.175
3108.55757	14918.975
3110.92066	14868.475
3113.28232	14828.475
3115.64255	14799.575
3118.00134	14772.875
3120.35871	14749.375
3122.71466	14697.975
3125.06917	14654.775
3127.42226	14615.275
