Data from AgNPs_FTO_APTES_UA_2uM_CRN_100uM_R6G_10uM_NaF_0.1M_Addition_RamanShift__18__15-59-05-324.txt Node

Date: Wed Feb 02 15:59:05 GMT 2022
User: TCL
Spectrometer: QEP01345
Trigger mode: 4
Integration Time (sec): 7.000000E0
Scans to average: 10
Electric dark correction enabled: true
Nonlinearity correction enabled: false
Boxcar width: 0
XAxis mode: Raman Shifts
Number of Pixels in Spectrum: 1044
>>>>>Begin Spectral Data<<<<<
46.04893	0.9
50.45542	0.1
54.85868	-0.7
59.25871	0.2
63.6555	66.5
68.04907	70.4
72.43941	72.2
76.82654	83
81.21044	86.3
85.59113	90.9
89.96862	94.1
94.34289	95.1
98.71396	101
103.08183	105.8
107.4465	110.2
111.80798	109.9
116.16626	109.7
120.52136	110.9
124.87327	115.9
129.222	124.6
133.56755	130.5
137.90993	139.1
142.24913	147.7
146.58517	167.1
150.91804	191.3
155.24774	224
159.57429	274.6
163.89768	349.4
168.21792	456
172.53501	623
176.84895	867.1
181.15975	1206.1
185.46741	1680.2
189.77193	2315.9
194.07331	3098.1
198.37157	3965.2
202.6667	4920.6
206.9587	5844.9
211.24758	6749.9
215.53334	7656.6
219.81599	8626.7
224.09553	9695.8
228.37195	10861.4
232.64527	12105.9
236.91549	13422.5
241.18261	14772.3
245.44663	16045.6
249.70755	17195.5
253.96539	18199
258.22014	19133.6
262.4718	19808.8
266.72039	20393.1
270.96589	20662.1
275.20832	20813.5
279.44768	20837.6
283.68397	20797.2
287.91719	20820.3
292.14735	20871.9
296.37445	21023.9
300.59849	21087.7
304.81948	21063.1
309.03742	20825.6
313.25231	20377.5
317.46415	19765.1
321.67296	19064.2
325.87872	18483.3
330.08145	18165.2
334.28114	18079.4
338.47781	18133.5
342.67145	18285.3
346.86207	18504.6
351.04966	18763.6
355.23424	18990
359.4158	19165.2
363.59435	19287
367.76989	19396.6
371.94243	19472.7
376.11196	19572.9
380.27849	19656.1
384.44203	19824.5
388.60257	20048.8
392.76012	20309.4
396.91468	20580.3
401.06626	20901.7
405.21485	21097.3
409.36047	21016.8
413.50311	20765.9
417.64277	20567.3
421.77947	20529.2
425.9132	20636.3
430.04396	20824.4
434.17176	20968.6
438.2966	21109.5
442.41849	21483.7
446.53742	22027.1
450.6534	22778.5
454.76644	23309.8
458.87653	23589.8
462.98368	23607
467.08789	23518.6
471.18916	23376.9
475.2875	23384.3
479.38291	23579.2
483.4754	23567.4
487.56496	23145.9
491.6516	22437.4
495.73531	21784.7
499.81612	21343
503.89401	21266.9
507.96899	21294.7
512.04106	21173.6
516.11023	20909.3
520.1765	20623.8
524.23987	20245.9
528.30034	20027
532.35792	19825.4
536.41261	19672.9
540.46441	19573.9
544.51333	19686.1
548.55936	20055.7
552.60252	20662.6
556.64279	21319.3
560.6802	21817.9
564.71473	22175.8
568.7464	22666.8
572.7752	23377.8
576.80114	23935
580.82422	24339.6
584.84444	24653.6
588.86181	24886.1
592.87633	25047.9
596.888	25033.7
600.89682	24897
604.9028	25109.7
608.90594	26187
612.90624	26975.4
616.90371	24976.9
620.89834	21379.8
624.89015	19837.6
628.87913	19765.9
632.86528	20006.9
636.84862	20065.6
640.82913	19832.7
644.80683	19304.5
648.78172	18840.6
652.75379	18645.2
656.72306	18691.7
660.68952	18865.5
664.65319	18767.1
668.61405	18540.6
672.57211	18477.4
676.52738	18555.3
680.47986	18598.5
684.42955	18542.2
688.37646	18443.3
692.32058	18439.8
696.26192	18571.1
700.20048	18858.5
704.13626	18955.6
708.06928	19056.5
711.99952	18948.7
715.927	18913.1
719.85171	18916.4
723.77365	18825.5
727.69284	18657
731.60928	18461.8
735.52295	18349.3
739.43388	18305.7
743.34206	18379.2
747.24749	18436.6
751.15017	18655
755.05012	19070.4
758.94733	19782.8
762.8418	20878.6
766.73354	22415
770.62254	23689.3
774.50882	23713.8
778.39237	22334.8
782.27321	20643.4
786.15132	19343.5
790.02671	18537.9
793.89938	18157.8
797.76935	18022
801.6366	17967.7
805.50115	17933.9
809.36299	17894.7
813.22213	17750.4
817.07857	17699.5
820.93231	17636.3
824.78336	17554.8
828.63172	17418.6
832.47738	17334.9
836.32036	17314.7
840.16066	17338.7
843.99827	17357.9
847.8332	17261
851.66546	17190
855.49504	17166.2
859.32195	17143.3
863.1462	17051.4
866.96777	17023.6
870.78668	16959.3
874.60293	16953.8
878.41652	16951.9
882.22745	17006.3
886.03573	17012.8
889.84136	17029.6
893.64433	17009.9
897.44466	16903.3
901.24235	16870
905.0374	16760.9
908.8298	16752.7
912.61957	16834.5
916.40671	17096.9
920.19121	17414.7
923.97308	17570.6
927.75233	17462.7
931.52895	17232
935.30295	16931.9
939.07433	16584.9
942.84309	16296.4
946.60924	16111.4
950.37278	16066.3
954.13371	16042.3
957.89203	16047.6
961.64774	16084.9
965.40086	16082.9
969.15137	15976.1
972.89929	15824
976.64461	15697.7
980.38733	15628.8
984.12747	15684.1
987.86502	15751.9
991.59999	15867.2
995.33237	16081.9
999.06217	16437.5
1002.78939	16890.9
1006.51404	17153.2
1010.23611	17344.3
1013.95561	17472.1
1017.67255	17524.1
1021.38692	17363.3
1025.09872	17154.6
1028.80796	17028.7
1032.51465	17242.8
1036.21877	17481.9
1039.92035	17567.7
1043.61937	17542.5
1047.31584	17407.1
1051.00976	17252.5
1054.70114	17226.2
1058.38998	17372.2
1062.07627	17657.4
1065.76003	17908.4
1069.44126	18110.7
1073.11995	18356
1076.79611	18531.9
1080.46974	18549.1
1084.14085	18597.3
1087.80943	18744.1
1091.47549	18965
1095.13903	19116.2
1098.80005	18967
1102.45857	18510.4
1106.11456	18020.9
1109.76805	17807
1113.41903	17810.9
1117.06751	17905
1120.71348	18125.9
1124.35696	18332.9
1127.99793	18602.4
1131.63641	18811.3
1135.2724	18787.2
1138.90589	18713.3
1142.5369	18782.6
1146.16542	19026.8
1149.79145	19347.1
1153.415	19786.4
1157.03607	20264.8
1160.65467	21057.2
1164.27079	22036.9
1167.88443	23424.9
1171.49561	24998.3
1175.10432	26984.7
1178.71056	29294.5
1182.31434	31490.1
1185.91565	32704
1189.51451	32855.3
1193.11091	32302.8
1196.70485	31302.5
1200.29634	30069.9
1203.88538	28967.6
1207.47197	28344.7
1211.05612	27921.3
1214.63782	27317
1218.21708	26555.2
1221.79391	25688.7
1225.36829	25078.6
1228.94024	24502.2
1232.50976	23981.9
1236.07685	23499
1239.6415	23333
1243.20374	23365.2
1246.76355	23579.9
1250.32093	23895.5
1253.8759	24429.7
1257.42845	25114.8
1260.97859	25866.4
1264.52631	26588.2
1268.07163	27260.6
1271.61453	28074.3
1275.15503	29076.3
1278.69312	30132.9
1282.22882	31278.7
1285.76211	32483.4
1289.29301	33928.1
1292.82151	35885.8
1296.34761	38238.9
1299.87133	40821.4
1303.39266	43309.7
1306.9116	45429.4
1310.42815	47183.1
1313.94233	48326.4
1317.45412	48669.6
1320.96354	48691.3
1324.47058	48753.4
1327.97525	48785.2
1331.47754	48734.4
1334.97747	48709.7
1338.47502	48483
1341.97022	47905.3
1345.46305	46940.9
1348.95352	45473
1352.44163	43994.4
1355.92738	42975.6
1359.41078	43007.3
1362.89183	43262.3
1366.37053	42394.7
1369.84688	39718.1
1373.32088	36407
1376.79254	34089
1380.26186	33437.2
1383.72883	33865.1
1387.19347	34499.6
1390.65578	34904.7
1394.11575	35385.2
1397.57339	36145.6
1401.0287	37113.9
1404.48168	37692.4
1407.93234	37529.2
1411.38068	36313.9
1414.82669	34450.1
1418.27039	32270.8
1421.71177	30177.6
1425.15083	28536.2
1428.58758	27538.3
1432.02203	27492
1435.45416	28188
1438.88399	29314.3
1442.31151	30379.7
1445.73673	31259.5
1449.15965	32199.7
1452.58027	32990.3
1455.9986	33578.5
1459.41463	34042.7
1462.82837	34586.3
1466.23982	35038.5
1469.64898	35338.4
1473.05586	35322.2
1476.46045	35096.9
1479.86276	34439.4
1483.26279	33672.7
1486.66054	33028
1490.05602	32755.4
1493.44922	32697.7
1496.84016	32784.6
1500.22882	33131.3
1503.61521	33843.8
1506.99934	34787.8
1510.38121	35598.7
1513.76081	35909.5
1517.13816	35647.9
1520.51324	34929.7
1523.88607	34392.3
1527.25665	34240.3
1530.62498	34391.4
1533.99105	34478.5
1537.35488	34284.9
1540.71647	33706.1
1544.07581	32783.1
1547.4329	31690.9
1550.78776	30851.3
1554.14038	30241.3
1557.49077	29932
1560.83892	29789.4
1564.18484	29733
1567.52853	29771.8
1570.86999	29995.2
1574.20922	30605.2
1577.54624	31378.6
1580.88103	32033.8
1584.2136	32775.3
1587.54395	33990.4
1590.87208	35642.1
1594.19801	37450.6
1597.52172	39050.7
1600.84321	39277.9
1604.16251	37345.7
1607.47959	34250.7
1610.79447	30974.4
1614.10715	27929.7
1617.41763	25425.4
1620.7259	23640.4
1624.03199	22674.6
1627.33587	22566.1
1630.63757	23301.4
1633.93707	25052.8
1637.23439	27936.5
1640.52951	31961.5
1643.82246	36462.9
1647.11321	39986.1
1650.40179	40606.6
1653.68819	37919.5
1656.97241	32900.9
1660.25446	27657.6
1663.53433	23477.1
1666.81203	20622.6
1670.08756	18762.1
1673.36092	17549.3
1676.63211	16767.3
1679.90115	16239.2
1683.16801	15842.2
1686.43272	15571.2
1689.69527	15341.1
1692.95567	15192.6
1696.2139	15054.4
1699.46999	14948.2
1702.72392	14855.8
1705.97571	14759
1709.22535	14653.9
1712.47284	14571.8
1715.71819	14525.8
1718.96139	14460.7
1722.20246	14385.5
1725.44139	14355.1
1728.67818	14247.2
1731.91284	14128.2
1735.14537	14065.9
1738.37576	13987.3
1741.60403	13934.3
1744.83017	13889.9
1748.05418	13886.5
1751.27607	13863.2
1754.49584	13850.4
1757.71349	13818.8
1760.92903	13808.1
1764.14244	13768.3
1767.35375	13736.2
1770.56294	13672.3
1773.77002	13615.5
1776.97499	13564.1
1780.17785	13528.8
1783.37861	13479.6
1786.57727	13427.8
1789.77382	13421.3
1792.96828	13360.3
1796.16064	13312.2
1799.3509	13287
1802.53907	13286.6
1805.72514	13200.7
1808.90913	13167.6
1812.09102	13160
1815.27083	13149.5
1818.44856	13102.7
1821.6242	13040.9
1824.79776	13051.8
1827.96924	13028.4
1831.13864	13003.9
1834.30597	13027.8
1837.47122	13019.5
1840.6344	13011.6
1843.7955	13027.2
1846.95454	12993
1850.11151	12997.1
1853.26642	12997.2
1856.41926	12966.8
1859.57004	12948.4
1862.71876	12952.9
1865.86542	12946.3
1869.01003	12925
1872.15258	12906.9
1875.29308	12873.9
1878.43152	12869.5
1881.56792	12854.3
1884.70227	12842.4
1887.83457	12866.2
1890.96482	12838.1
1894.09304	12816.9
1897.21921	12800.4
1900.34335	12791.2
1903.46544	12752.1
1906.58551	12738.5
1909.70353	12704.7
1912.81953	12678.6
1915.93349	12680.6
1919.04543	12623.1
1922.15534	12619.2
1925.26322	12566.7
1928.36908	12533.3
1931.47292	12508.7
1934.57473	12459.6
1937.67453	12409.9
1940.77232	12411
1943.86808	12364.3
1946.96184	12343.9
1950.05358	12268.6
1953.14331	12242.2
1956.23103	12213.1
1959.31675	12151.9
1962.40046	12149.2
1965.48217	12077.1
1968.56188	12060.1
1971.63959	11994.6
1974.7153	11934.7
1977.78901	11943.4
1980.86073	11882.9
1983.93046	11815.6
1986.99819	11776.2
1990.06394	11768.7
1993.1277	11742.1
1996.18947	11687.6
1999.24925	11643.8
2002.30706	11599.1
2005.36288	11563.8
2008.41672	11542.6
2011.46859	11521.1
2014.51848	11483.9
2017.56639	11418.9
2020.61233	11399
2023.6563	11393.5
2026.6983	11365.6
2029.73833	11354
2032.7764	11336.8
2035.8125	11293.6
2038.84664	11270.1
2041.87881	11293.8
2044.90903	11263.1
2047.93729	11223.7
2050.96359	11203.6
2053.98794	11220.3
2057.01034	11187.8
2060.03078	11170
2063.04927	11201.1
2066.06582	11143.8
2069.08042	11136.6
2072.09307	11117.6
2075.10378	11124.4
2078.11255	11093.3
2081.11938	11102.5
2084.12426	11083
2087.12722	11056.3
2090.12824	11079.8
2093.12732	11073.1
2096.12447	11072.8
2099.11969	11065.9
2102.11299	11060.5
2105.10435	11050.4
2108.09379	11078.7
2111.08131	11069.4
2114.0669	11060.1
2117.05057	11078.6
2120.03233	11092.8
2123.01216	11085.6
2125.99008	11089
2128.96609	11087.3
2131.94018	11107
2134.91236	11093.3
2137.88263	11068.1
2140.851	11089.2
2143.81746	11109.6
2146.78201	11138.7
2149.74466	11100.9
2152.7054	11102.9
2155.66425	11093.6
2158.6212	11081.1
2161.57625	11062.5
2164.52941	11107.4
2167.48067	11097.6
2170.43004	11052.1
2173.37752	11036.6
2176.32311	11017.2
2179.26681	11046.3
2182.20863	11011.3
2185.14856	11040
2188.08661	11024.5
2191.02278	11025.6
2193.95707	11010.6
2196.88948	10979.5
2199.82001	10982.4
2202.74867	10987.9
2205.67545	10958.9
2208.60037	10972.9
2211.52341	10939.6
2214.44458	10914.1
2217.36388	10924.6
2220.28132	10899.9
2223.1969	10867
2226.11061	10851.6
2229.02246	10827.2
2231.93245	10809.8
2234.84058	10778.5
2237.74686	10761.7
2240.65128	10734.5
2243.55385	10744.5
2246.45456	10721.4
2249.35343	10690.4
2252.25044	10676.9
2255.14561	10672.3
2258.03893	10656.1
2260.93041	10608.4
2263.82004	10558.5
2266.70783	10536.4
2269.59378	10530.3
2272.4779	10488.6
2275.36017	10435.7
2278.24061	10415.3
2281.11922	10418.1
2283.996	10400.6
2286.87094	10390.3
2289.74405	10364.9
2292.61534	10344.3
2295.4848	10351
2298.35243	10322.9
2301.21824	10333.3
2304.08223	10313.2
2306.94439	10350.4
2309.80474	10327.1
2312.66327	10304.8
2315.51999	10329.3
2318.37489	10302
2321.22797	10282.1
2324.07925	10279.8
2326.92871	10283.5
2329.77637	10284.9
2332.62222	10266.8
2335.46626	10239.8
2338.3085	10243.9
2341.14893	10240.9
2343.98756	10210.5
2346.8244	10256
2349.65943	10249.1
2352.49267	10254.2
2355.32411	10237.2
2358.15376	10251.1
2360.98161	10216.8
2363.80768	10203.1
2366.63195	10200.3
2369.45444	10178.2
2372.27514	10194.3
2375.09405	10169.2
2377.91118	10143.6
2380.72652	10143.9
2383.54009	10115.1
2386.35187	10095.8
2389.16188	10040.1
2391.97011	10064.6
2394.77657	10035
2397.58125	10014.6
2400.38416	9992.4
2403.18529	9963.1
2405.98466	9965.6
2408.78226	9947.1
2411.57809	9928.8
2414.37216	9921
2417.16446	9908.9
2419.955	9896.7
2422.74378	9887.2
2425.5308	9884
2428.31606	9894.6
2431.09956	9860.8
2433.88131	9848.2
2436.6613	9861.6
2439.43954	9868.9
2442.21603	9854
2444.99077	9861
2447.76377	9855
2450.53501	9856.5
2453.30451	9843
2456.07226	9824.6
2458.83827	9844.4
2461.60254	9848.9
2464.36507	9834.7
2467.12586	9840.3
2469.88492	9825.6
2472.64224	9826.2
2475.39782	9854.9
2478.15167	9850.4
2480.90379	9837.6
2483.65417	9828.7
2486.40283	9855.8
2489.14976	9858.7
2491.89497	9859.6
2494.63845	9865.8
2497.3802	9849.4
2500.12024	9871.7
2502.85855	9848.6
2505.59514	9850.2
2508.33002	9857.9
2511.06318	9838.4
2513.79462	9840.9
2516.52435	9818.4
2519.25237	9810.5
2521.97867	9814.4
2524.70327	9806.2
2527.42616	9795.1
2530.14734	9783.3
2532.86681	9801.3
2535.58458	9776
2538.30065	9777.8
2541.01501	9752.2
2543.72768	9755.1
2546.43864	9724.5
2549.14791	9696
2551.85548	9730.8
2554.56136	9722.4
2557.26554	9719
2559.96803	9693
2562.66883	9683.2
2565.36794	9690.4
2568.06536	9699.6
2570.7611	9682.6
2573.45514	9652.1
2576.14751	9689.7
2578.83819	9656.1
2581.52719	9637.5
2584.21451	9664.2
2586.90015	9643.1
2589.58411	9653.3
2592.2664	9654.1
2594.94701	9633
2597.62594	9667.2
2600.30321	9642.8
2602.9788	9634.5
2605.65273	9611.2
2608.32498	9613.5
2610.99557	9638.5
2613.66449	9642.2
2616.33175	9639.5
2618.99734	9662.8
2621.66128	9636.8
2624.32355	9615.1
2626.98416	9649.9
2629.64311	9639.5
2632.30041	9654.4
2634.95605	9647.7
2637.61004	9635.9
2640.26238	9616.5
2642.91306	9625.4
2645.56209	9624.2
2648.20948	9627.3
2650.85521	9626.8
2653.4993	9627.6
2656.14175	9623
2658.78255	9637.6
2661.42171	9637.6
2664.05923	9647.5
2666.6951	9662.9
2669.32934	9657.9
2671.96194	9641.9
2674.59291	9649.6
2677.22224	9657.5
2679.84993	9661.5
2682.476	9612.3
2685.10043	9625
2687.72324	9621.2
2690.34441	9625.8
2692.96396	9603.8
2695.58188	9624.9
2698.19818	9603.7
2700.81285	9621.5
2703.4259	9621
2706.03733	9674.5
2708.64714	9666.6
2711.25533	9647.6
2713.86191	9625.1
2716.46687	9654.6
2719.07021	9677.8
2721.67194	9658.9
2724.27206	9693.3
2726.87057	9702.5
2729.46747	9709.9
2732.06276	9704.1
2734.65644	9690.9
2737.24852	9695.7
2739.83899	9668.3
2742.42786	9683.2
2745.01513	9666.8
2747.60079	9682.2
2750.18486	9678.4
2752.76733	9686
2755.3482	9690.4
2757.92747	9692.7
2760.50515	9689.6
2763.08123	9710.4
2765.65573	9684.1
2768.22863	9685.5
2770.79994	9682
2773.36967	9691.4
2775.9378	9712.6
2778.50435	9679.6
2781.06932	9690.9
2783.6327	9712.1
2786.1945	9691.4
2788.75471	9694.2
2791.31335	9677.1
2793.87041	9681.2
2796.42589	9670.2
2798.97979	9665.8
2801.53212	9626.2
2804.08288	9632.6
2806.63206	9605.2
2809.17967	9596.5
2811.72571	9564.7
2814.27018	9567.4
2816.81308	9548
2819.35442	9535.3
2821.89419	9499.5
2824.43239	9490.8
2826.96904	9502.1
2829.50412	9502.3
2832.03763	9472.7
2834.56959	9487.2
2837.1	9460.9
2839.62884	9483.5
2842.15613	9483.5
2844.68186	9499.9
2847.20604	9508.3
2849.72867	9543.9
2852.24974	9525.7
2854.76927	9515.6
2857.28724	9531.9
2859.80367	9504
2862.31855	9498
2864.83189	9476.3
2867.34368	9488.5
2869.85393	9482.8
2872.36264	9471.2
2874.8698	9475.2
2877.37543	9475.9
2879.87952	9466.8
2882.38207	9478.9
2884.88308	9480.4
2887.38256	9502.2
2889.88051	9490.8
2892.37692	9493.4
2894.8718	9487.1
2897.36515	9511.9
2899.85698	9495.6
2902.34727	9544.1
2904.83604	9518.8
2907.32328	9568.7
2909.809	9561.7
2912.29319	9562.5
2914.77587	9567.5
2917.25702	9567.1
2919.73665	9549.5
2922.21476	9538.8
2924.69136	9571
2927.16644	9585.2
2929.64	9585.1
2932.11205	9568.3
2934.58258	9521.9
2937.05161	9567.9
2939.51912	9549.8
2941.98513	9523.9
2944.44962	9472.5
2946.91261	9438.6
2949.37409	9458.1
2951.83407	9439.7
2954.29254	9426.7
2956.74951	9398.4
2959.20498	9398.5
2961.65895	9375.2
2964.11142	9341.2
2966.56239	9341.5
2969.01186	9316.2
2971.45984	9298
2973.90632	9258.8
2976.35131	9216.9
2978.7948	9210.4
2981.23681	9188.6
2983.67732	9173.1
2986.11635	9134.2
2988.55388	9120.4
2990.98993	9101.4
2993.4245	9100.4
2995.85758	9067.7
2998.28917	9051.8
3000.71928	9014.4
3003.14791	9007.6
3005.57506	8993.4
3008.00073	8968.8
3010.42493	8948.1
3012.84764	8948.4
3015.26888	8929.5
3017.68865	8893.9
3020.10694	8912.1
3022.52376	8887
3024.9391	8856.6
3027.35298	8821.8
3029.76539	8829.7
3032.17632	8810.5
3034.5858	8821.1
3036.9938	8825.1
3039.40034	8817.1
3041.80542	8816.3
3044.20903	8786.1
3046.61118	8779.2
3049.01187	8761.9
3051.4111	8762.4
3053.80888	8727.3
3056.20519	8711.9
3058.60005	8685.4
3060.99345	8667.5
3063.3854	8641
3065.7759	8631.9
3068.16494	8612.8
3070.55254	8563
3072.93868	8560.6
3075.32338	8538.4
3077.70662	8513.4
3080.08842	8482.5
3082.46878	8501.8
3084.84769	8474.6
3087.22515	8457.9
3089.60118	8466.4
3091.97576	8483.4
3094.3489	8445.2
3096.72061	8463.1
3099.09087	8438.4
3101.4597	8438.8
3103.82709	8434.9
3106.19305	8415.6
3108.55757	8392.8
3110.92066	8386.1
3113.28232	8365.5
3115.64255	8327.2
3118.00134	8324.9
3120.35871	8293.3
3122.71466	8275.4
3125.06917	8269.9
3127.42226	8278.5
3129.77393	8273.8
3132.12417	8238.7
3134.47299	8238.2
3136.82039	8233.1
3139.16636	8239.2
3141.51092	8219.4
3143.85406	8231.7
3146.19579	8247.6
3148.53609	8258.5
3150.87499	8254.1
3153.21246	8250.5
3155.54853	8254.1
3157.88318	8236.5
3160.21642	8229.8
3162.54826	8233.3
3164.87868	8234.6
3167.2077	8235.6
3169.5353	8236.3
3171.86151	8254.3
3174.18631	8239.1
3176.5097	8230.7
3178.83169	8244.6
3181.15228	8231.1
3183.47147	8203.9
3185.78926	8194.7
3188.10565	8199.7
3190.42065	8213.9
3192.73424	8194.7
3195.04645	8211.1
3197.35725	8183.2
3199.66667	8184.4
3201.97469	8195.3
3204.28132	8168.3
3206.58656	8210.5
3208.8904	8198.1
3211.19287	8188.8
3213.49394	8194
3215.79363	8186.5
3218.09193	8183.8
3220.38884	8187.1
3222.68438	8193.2
3224.97853	8185.4
3227.2713	8162.4
3229.56269	8162.4
3231.8527	8161.7
3234.14133	8152.3
3236.42858	8120.7
3238.71446	8129.1
3240.99896	8114.1
3243.28209	8120.8
3245.56384	8111
3247.84423	8111.3
3250.12324	8088.7
3252.40088	8086.4
3254.67715	8078.3
3256.95205	8064.8
3259.22558	8056.2
3261.49775	8028.3
3263.76855	8021
3266.03799	7999.2
3268.30606	7980.9
3270.57277	7955.5
3272.83812	7946.5
3275.10211	7911.2
3277.36474	7936.9
3279.62601	7948.3
3281.88593	7931
3284.14448	7934.2
3286.40168	7935.1
3288.65753	7931.5
3290.91202	7913.9
3293.16516	7885.8
3295.41695	7869.5
3297.66738	7806
3299.91647	7779.3
3302.16421	7719.3
3304.4106	7705
3306.65564	7663.5
3308.89933	7627.6
3311.14169	7561.9
3313.38269	7522.7
3315.62236	7496.5
3317.86068	7407.4
3320.09766	7341.7
3322.3333	7289.9
3324.5676	7253.1
3326.80056	7151.6
3329.03219	7109.3
3331.26248	2.1
3333.49143	-0.4
3335.71905	-1.7
