Data from AgNPs_FTO_APTES_UA_2uM_CRN_0uM_R6G_10uM_NaF_0.1M_Addition_RamanShift__14__10-20-44-930.txt Node

Date: Wed Feb 02 10:20:44 GMT 2022
User: TCL
Spectrometer: QEP01345
Trigger mode: 4
Integration Time (sec): 7.000000E0
Scans to average: 10
Electric dark correction enabled: true
Nonlinearity correction enabled: false
Boxcar width: 0
XAxis mode: Raman Shifts
Number of Pixels in Spectrum: 1044
>>>>>Begin Spectral Data<<<<<
46.04893	-0.4375
50.45542	0.8625
54.85868	-0.5375
59.25871	1.2625
63.6555	25.5625
68.04907	29.6625
72.43941	30.4625
76.82654	32.4625
81.21044	34.4625
85.59113	37.8625
89.96862	38.9625
94.34289	40.6625
98.71396	40.2625
103.08183	45.1625
107.4465	43.8625
111.80798	44.3625
116.16626	42.0625
120.52136	45.6625
124.87327	42.9625
129.222	43.3625
133.56755	50.6625
137.90993	52.8625
142.24913	58.5625
146.58517	64.2625
150.91804	70.9625
155.24774	85.9625
159.57429	103.9625
163.89768	127.1625
168.21792	167.4625
172.53501	225.7625
176.84895	307.3625
181.15975	427.0625
185.46741	592.2625
189.77193	813.7625
194.07331	1105.2625
198.37157	1421.3625
202.6667	1767.8625
206.9587	2121.3625
211.24758	2459.8625
215.53334	2809.1625
219.81599	3172.3625
224.09553	3594.3625
228.37195	4050.6625
232.64527	4534.9625
236.91549	5018.3625
241.18261	5489.7625
245.44663	5894.1625
249.70755	6201.0625
253.96539	6428.6625
258.22014	6663.4625
262.4718	6808.8625
266.72039	6933.6625
270.96589	6987.3625
275.20832	6901.6625
279.44768	6784.4625
283.68397	6631.9625
287.91719	6466.4625
292.14735	6409.9625
296.37445	6392.6625
300.59849	6477.6625
304.81948	6624.0625
309.03742	6760.9625
313.25231	6804.4625
317.46415	6659.3625
321.67296	6431.6625
325.87872	6178.2625
330.08145	6054.2625
334.28114	6020.5625
338.47781	6055.9625
342.67145	6116.5625
346.86207	6230.5625
351.04966	6402.7625
355.23424	6638.8625
359.4158	6796.0625
363.59435	6887.2625
367.76989	6921.5625
371.94243	6922.7625
376.11196	6912.4625
380.27849	6903.5625
384.44203	6891.0625
388.60257	6871.9625
392.76012	6825.4625
396.91468	6864.2625
401.06626	6938.7625
405.21485	7009.1625
409.36047	6896.5625
413.50311	6635.0625
417.64277	6396.8625
421.77947	6263.2625
425.9132	6215.1625
430.04396	6238.6625
434.17176	6264.1625
438.2966	6334.9625
442.41849	6480.8625
446.53742	6656.7625
450.6534	6834.5625
454.76644	6907.7625
458.87653	6878.1625
462.98368	6730.0625
467.08789	6603.0625
471.18916	6498.3625
475.2875	6365.6625
479.38291	6246.1625
483.4754	6203.4625
487.56496	6138.0625
491.6516	6144.7625
495.73531	6141.3625
499.81612	6154.9625
503.89401	6234.2625
507.96899	6337.1625
512.04106	6386.3625
516.11023	6470.1625
520.1765	6543.9625
524.23987	6540.3625
528.30034	6502.9625
532.35792	6433.9625
536.41261	6340.7625
540.46441	6209.6625
544.51333	6137.6625
548.55936	6120.5625
552.60252	6198.7625
556.64279	6343.7625
560.6802	6439.7625
564.71473	6452.8625
568.7464	6567.9625
572.7752	6623.9625
576.80114	6524.2625
580.82422	6396.8625
584.84444	6398.9625
588.86181	6542.0625
592.87633	6920.2625
596.888	7197.5625
600.89682	7163.2625
604.9028	7304.6625
608.90594	8462.4625
612.90624	10318.6625
616.90371	10337.1625
620.89834	7952.8625
624.89015	6560.7625
628.87913	6202.4625
632.86528	6186.1625
636.84862	6276.2625
640.82913	6245.4625
644.80683	6114.2625
648.78172	5964.6625
652.75379	5951.5625
656.72306	6118.3625
660.68952	6318.6625
664.65319	6302.0625
668.61405	6060.3625
672.57211	5979.1625
676.52738	6015.6625
680.47986	6066.2625
684.42955	6035.7625
688.37646	6004.6625
692.32058	5957.9625
696.26192	5960.2625
700.20048	6001.8625
704.13626	6039.9625
708.06928	6050.6625
711.99952	6044.5625
715.927	6042.0625
719.85171	6077.3625
723.77365	6091.4625
727.69284	6049.5625
731.60928	6018.3625
735.52295	6002.3625
739.43388	6011.1625
743.34206	6012.3625
747.24749	6023.6625
751.15017	6053.5625
755.05012	6086.8625
758.94733	6212.3625
762.8418	6593.5625
766.73354	7370.7625
770.62254	8315.1625
774.50882	8845.8625
778.39237	8564.2625
782.27321	7684.4625
786.15132	6807.0625
790.02671	6286.3625
793.89938	6073.1625
797.76935	5977.5625
801.6366	5914.3625
805.50115	5865.6625
809.36299	5828.7625
813.22213	5790.7625
817.07857	5766.6625
820.93231	5736.3625
824.78336	5716.8625
828.63172	5736.9625
832.47738	5739.8625
836.32036	5736.3625
840.16066	5706.6625
843.99827	5707.4625
847.8332	5691.4625
851.66546	5689.4625
855.49504	5690.1625
859.32195	5683.9625
863.1462	5664.3625
866.96777	5648.6625
870.78668	5660.5625
874.60293	5676.1625
878.41652	5713.9625
882.22745	5727.0625
886.03573	5778.6625
889.84136	5804.4625
893.64433	5795.6625
897.44466	5786.2625
901.24235	5812.1625
905.0374	5826.7625
908.8298	5823.2625
912.61957	5903.8625
916.40671	5994.5625
920.19121	6085.6625
923.97308	6199.6625
927.75233	6319.8625
931.52895	6345.0625
935.30295	6260.0625
939.07433	6076.8625
942.84309	5900.7625
946.60924	5765.2625
950.37278	5675.6625
954.13371	5604.0625
957.89203	5529.2625
961.64774	5485.2625
965.40086	5420.6625
969.15137	5365.8625
972.89929	5332.6625
976.64461	5291.6625
980.38733	5271.8625
984.12747	5248.3625
987.86502	5258.2625
991.59999	5274.8625
995.33237	5323.6625
999.06217	5377.2625
1002.78939	5468.8625
1006.51404	5563.5625
1010.23611	5618.1625
1013.95561	5655.5625
1017.67255	5671.7625
1021.38692	5618.1625
1025.09872	5506.8625
1028.80796	5424.0625
1032.51465	5371.5625
1036.21877	5385.9625
1039.92035	5415.8625
1043.61937	5452.7625
1047.31584	5490.5625
1051.00976	5554.0625
1054.70114	5592.8625
1058.38998	5611.2625
1062.07627	5626.2625
1065.76003	5620.5625
1069.44126	5567.5625
1073.11995	5547.2625
1076.79611	5573.5625
1080.46974	5594.6625
1084.14085	5687.6625
1087.80943	5786.1625
1091.47549	5833.7625
1095.13903	5785.0625
1098.80005	5647.3625
1102.45857	5534.2625
1106.11456	5455.8625
1109.76805	5447.7625
1113.41903	5539.5625
1117.06751	5661.6625
1120.71348	5828.8625
1124.35696	5997.1625
1127.99793	6185.1625
1131.63641	6249.5625
1135.2724	6033.9625
1138.90589	5760.2625
1142.5369	5589.2625
1146.16542	5500.8625
1149.79145	5408.7625
1153.415	5384.1625
1157.03607	5383.3625
1160.65467	5430.3625
1164.27079	5580.8625
1167.88443	5825.9625
1171.49561	6279.6625
1175.10432	6968.1625
1178.71056	7919.4625
1182.31434	8759.5625
1185.91565	9000.7625
1189.51451	8699.1625
1193.11091	8132.4625
1196.70485	7548.5625
1200.29634	7045.4625
1203.88538	6659.1625
1207.47197	6252.6625
1211.05612	5912.0625
1214.63782	5738.7625
1218.21708	5712.1625
1221.79391	5780.4625
1225.36829	5914.1625
1228.94024	5971.1625
1232.50976	5920.1625
1236.07685	5810.3625
1239.6415	5718.5625
1243.20374	5665.2625
1246.76355	5615.9625
1250.32093	5650.8625
1253.8759	5721.6625
1257.42845	5824.7625
1260.97859	5972.4625
1264.52631	6180.2625
1268.07163	6345.3625
1271.61453	6493.0625
1275.15503	6645.8625
1278.69312	6706.7625
1282.22882	6758.7625
1285.76211	6901.7625
1289.29301	7201.2625
1292.82151	7490.1625
1296.34761	7845.6625
1299.87133	8207.8625
1303.39266	8740.3625
1306.9116	9525.5625
1310.42815	10535.2625
1313.94233	11233.3625
1317.45412	11104.9625
1320.96354	10342.4625
1324.47058	9361.8625
1327.97525	8468.7625
1331.47754	7902.6625
1334.97747	7591.2625
1338.47502	7526.7625
1341.97022	7562.2625
1345.46305	7778.1625
1348.95352	8265.2625
1352.44163	9077.0625
1355.92738	10225.1625
1359.41078	11766.5625
1362.89183	13430.3625
1366.37053	13729.8625
1369.84688	11988.0625
1373.32088	9747.5625
1376.79254	8230.8625
1380.26186	7575.1625
1383.72883	7290.0625
1387.19347	7156.6625
1390.65578	6985.6625
1394.11575	6821.1625
1397.57339	6750.0625
1401.0287	6745.7625
1404.48168	6746.8625
1407.93234	6678.9625
1411.38068	6575.9625
1414.82669	6462.1625
1418.27039	6391.0625
1421.71177	6314.3625
1425.15083	6187.0625
1428.58758	6105.1625
1432.02203	6072.3625
1435.45416	6184.4625
1438.88399	6249.4625
1442.31151	6276.1625
1445.73673	6260.1625
1449.15965	6266.6625
1452.58027	6205.9625
1455.9986	6125.2625
1459.41463	6045.6625
1462.82837	6033.6625
1466.23982	6107.5625
1469.64898	6236.0625
1473.05586	6319.6625
1476.46045	6396.2625
1479.86276	6460.1625
1483.26279	6512.4625
1486.66054	6580.9625
1490.05602	6751.9625
1493.44922	6972.1625
1496.84016	7320.9625
1500.22882	7919.8625
1503.61521	8796.6625
1506.99934	9891.4625
1510.38121	10980.8625
1513.76081	11542.1625
1517.13816	11046.6625
1520.51324	9765.3625
1523.88607	8425.4625
1527.25665	7542.3625
1530.62498	7046.2625
1533.99105	6780.9625
1537.35488	6580.8625
1540.71647	6399.1625
1544.07581	6279.1625
1547.4329	6163.2625
1550.78776	6108.1625
1554.14038	6117.8625
1557.49077	6155.1625
1560.83892	6252.9625
1564.18484	6388.7625
1567.52853	6586.0625
1570.86999	6779.5625
1574.20922	6936.0625
1577.54624	6969.9625
1580.88103	6711.8625
1584.2136	6242.4625
1587.54395	5955.5625
1590.87208	5923.0625
1594.19801	6145.5625
1597.52172	6599.1625
1600.84321	6905.4625
1604.16251	6788.6625
1607.47959	6376.8625
1610.79447	5935.9625
1614.10715	5505.1625
1617.41763	5175.7625
1620.7259	4979.4625
1624.03199	4871.6625
1627.33587	4872.7625
1630.63757	4938.2625
1633.93707	5131.7625
1637.23439	5465.7625
1640.52951	6053.0625
1643.82246	6945.9625
1647.11321	7960.6625
1650.40179	8606.8625
1653.68819	8365.8625
1656.97241	7265.6625
1660.25446	6016.6625
1663.53433	5115.7625
1666.81203	4597.6625
1670.08756	4301.6625
1673.36092	4107.1625
1676.63211	3977.1625
1679.90115	3893.4625
1683.16801	3799.4625
1686.43272	3770.9625
1689.69527	3705.5625
1692.95567	3651.4625
1696.2139	3626.6625
1699.46999	3595.2625
1702.72392	3575.9625
1705.97571	3564.7625
1709.22535	3552.3625
1712.47284	3541.4625
1715.71819	3526.0625
1718.96139	3525.8625
1722.20246	3505.9625
1725.44139	3493.6625
1728.67818	3472.3625
1731.91284	3433.8625
1735.14537	3409.2625
1738.37576	3386.5625
1741.60403	3373.9625
1744.83017	3354.5625
1748.05418	3334.0625
1751.27607	3326.9625
1754.49584	3311.7625
1757.71349	3303.1625
1760.92903	3293.3625
1764.14244	3271.9625
1767.35375	3252.7625
1770.56294	3234.7625
1773.77002	3207.3625
1776.97499	3195.2625
1780.17785	3179.9625
1783.37861	3184.7625
1786.57727	3166.3625
1789.77382	3154.3625
1792.96828	3148.3625
1796.16064	3145.3625
1799.3509	3127.7625
1802.53907	3112.2625
1805.72514	3101.8625
1808.90913	3080.3625
1812.09102	3065.0625
1815.27083	3067.7625
1818.44856	3053.2625
1821.6242	3038.2625
1824.79776	3043.2625
1827.96924	3026.7625
1831.13864	3020.0625
1834.30597	3025.1625
1837.47122	3013.2625
1840.6344	2998.6625
1843.7955	3003.8625
1846.95454	2994.4625
1850.11151	2982.9625
1853.26642	2980.0625
1856.41926	2980.2625
1859.57004	2979.5625
1862.71876	2977.9625
1865.86542	2961.5625
1869.01003	2966.2625
1872.15258	2946.0625
1875.29308	2955.3625
1878.43152	2949.4625
1881.56792	2942.2625
1884.70227	2936.6625
1887.83457	2928.3625
1890.96482	2923.0625
1894.09304	2927.0625
1897.21921	2913.1625
1900.34335	2896.8625
1903.46544	2917.7625
1906.58551	2911.6625
1909.70353	2906.3625
1912.81953	2898.9625
1915.93349	2880.0625
1919.04543	2865.4625
1922.15534	2860.3625
1925.26322	2848.3625
1928.36908	2844.3625
1931.47292	2832.2625
1934.57473	2813.2625
1937.67453	2793.7625
1940.77232	2802.5625
1943.86808	2790.8625
1946.96184	2782.9625
1950.05358	2771.4625
1953.14331	2757.3625
1956.23103	2748.9625
1959.31675	2735.4625
1962.40046	2730.3625
1965.48217	2713.5625
1968.56188	2698.5625
1971.63959	2703.3625
1974.7153	2695.8625
1977.78901	2677.2625
1980.86073	2672.0625
1983.93046	2655.3625
1986.99819	2651.4625
1990.06394	2647.3625
1993.1277	2634.9625
1996.18947	2610.5625
1999.24925	2608.9625
2002.30706	2598.8625
2005.36288	2582.7625
2008.41672	2582.7625
2011.46859	2566.6625
2014.51848	2542.3625
2017.56639	2547.5625
2020.61233	2532.9625
2023.6563	2531.8625
2026.6983	2519.5625
2029.73833	2501.8625
2032.7764	2504.3625
2035.8125	2506.5625
2038.84664	2492.6625
2041.87881	2488.7625
2044.90903	2477.6625
2047.93729	2475.7625
2050.96359	2474.8625
2053.98794	2474.4625
2057.01034	2465.3625
2060.03078	2461.9625
2063.04927	2450.7625
2066.06582	2449.8625
2069.08042	2448.3625
2072.09307	2448.4625
2075.10378	2434.5625
2078.11255	2438.7625
2081.11938	2437.2625
2084.12426	2440.3625
2087.12722	2434.4625
2090.12824	2429.2625
2093.12732	2419.3625
2096.12447	2431.4625
2099.11969	2427.5625
2102.11299	2436.8625
2105.10435	2431.7625
2108.09379	2422.0625
2111.08131	2421.9625
2114.0669	2420.5625
2117.05057	2401.1625
2120.03233	2402.9625
2123.01216	2426.7625
2125.99008	2419.3625
2128.96609	2408.8625
2131.94018	2411.3625
2134.91236	2413.4625
2137.88263	2407.0625
2140.851	2406.5625
2143.81746	2405.2625
2146.78201	2413.2625
2149.74466	2398.3625
2152.7054	2395.0625
2155.66425	2383.1625
2158.6212	2404.2625
2161.57625	2398.1625
2164.52941	2390.7625
2167.48067	2378.5625
2170.43004	2390.5625
2173.37752	2373.5625
2176.32311	2364.2625
2179.26681	2371.8625
2182.20863	2370.1625
2185.14856	2362.0625
2188.08661	2366.8625
2191.02278	2358.3625
2193.95707	2346.0625
2196.88948	2357.9625
2199.82001	2349.5625
2202.74867	2349.3625
2205.67545	2342.4625
2208.60037	2339.1625
2211.52341	2339.6625
2214.44458	2328.5625
2217.36388	2316.7625
2220.28132	2313.6625
2223.1969	2304.1625
2226.11061	2302.4625
2229.02246	2285.4625
2231.93245	2295.9625
2234.84058	2277.0625
2237.74686	2267.9625
2240.65128	2278.5625
2243.55385	2265.3625
2246.45456	2256.9625
2249.35343	2250.1625
2252.25044	2249.7625
2255.14561	2236.7625
2258.03893	2243.8625
2260.93041	2244.9625
2263.82004	2234.8625
2266.70783	2239.0625
2269.59378	2220.5625
2272.4779	2216.3625
2275.36017	2200.7625
2278.24061	2193.0625
2281.11922	2191.0625
2283.996	2189.4625
2286.87094	2192.5625
2289.74405	2177.5625
2292.61534	2151.5625
2295.4848	2158.7625
2298.35243	2163.3625
2301.21824	2146.4625
2304.08223	2152.0625
2306.94439	2146.8625
2309.80474	2144.8625
2312.66327	2136.5625
2315.51999	2144.4625
2318.37489	2126.5625
2321.22797	2123.2625
2324.07925	2136.0625
2326.92871	2124.0625
2329.77637	2127.5625
2332.62222	2118.0625
2335.46626	2102.4625
2338.3085	2107.4625
2341.14893	2097.3625
2343.98756	2103.5625
2346.8244	2096.8625
2349.65943	2101.5625
2352.49267	2102.6625
2355.32411	2102.8625
2358.15376	2087.2625
2360.98161	2099.8625
2363.80768	2103.2625
2366.63195	2104.6625
2369.45444	2107.0625
2372.27514	2106.8625
2375.09405	2105.8625
2377.91118	2095.3625
2380.72652	2085.5625
2383.54009	2078.3625
2386.35187	2068.6625
2389.16188	2046.5625
2391.97011	2039.2625
2394.77657	2038.0625
2397.58125	2028.8625
2400.38416	2030.5625
2403.18529	2007.4625
2405.98466	2008.3625
2408.78226	2011.0625
2411.57809	2009.2625
2414.37216	1999.2625
2417.16446	1984.5625
2419.955	1997.9625
2422.74378	1993.4625
2425.5308	1988.6625
2428.31606	1987.9625
2431.09956	1984.9625
2433.88131	1983.7625
2436.6613	1977.6625
2439.43954	1982.3625
2442.21603	1969.9625
2444.99077	1981.6625
2447.76377	1971.9625
2450.53501	1972.5625
2453.30451	1971.5625
2456.07226	1969.4625
2458.83827	1977.5625
2461.60254	1956.4625
2464.36507	1959.8625
2467.12586	1951.3625
2469.88492	1956.6625
2472.64224	1953.4625
2475.39782	1957.3625
2478.15167	1948.6625
2480.90379	1951.4625
2483.65417	1958.6625
2486.40283	1952.8625
2489.14976	1955.3625
2491.89497	1954.8625
2494.63845	1961.4625
2497.3802	1942.9625
2500.12024	1943.1625
2502.85855	1942.8625
2505.59514	1933.5625
2508.33002	1926.5625
2511.06318	1920.5625
2513.79462	1911.2625
2516.52435	1897.7625
2519.25237	1891.8625
2521.97867	1883.4625
2524.70327	1882.5625
2527.42616	1874.6625
2530.14734	1874.5625
2532.86681	1857.7625
2535.58458	1875.3625
2538.30065	1855.6625
2541.01501	1858.7625
2543.72768	1853.0625
2546.43864	1853.4625
2549.14791	1854.6625
2551.85548	1855.1625
2554.56136	1843.2625
2557.26554	1837.9625
2559.96803	1833.6625
2562.66883	1839.5625
2565.36794	1835.0625
2568.06536	1833.7625
2570.7611	1820.6625
2573.45514	1818.3625
2576.14751	1814.4625
2578.83819	1819.2625
2581.52719	1812.9625
2584.21451	1805.6625
2586.90015	1806.2625
2589.58411	1803.0625
2592.2664	1793.0625
2594.94701	1789.5625
2597.62594	1783.7625
2600.30321	1783.8625
2602.9788	1767.1625
2605.65273	1786.2625
2608.32498	1775.5625
2610.99557	1779.4625
2613.66449	1770.9625
2616.33175	1760.8625
2618.99734	1772.5625
2621.66128	1763.1625
2624.32355	1765.8625
2626.98416	1757.9625
2629.64311	1759.9625
2632.30041	1758.7625
2634.95605	1741.1625
2637.61004	1744.4625
2640.26238	1748.0625
2642.91306	1738.1625
2645.56209	1739.0625
2648.20948	1734.5625
2650.85521	1732.1625
2653.4993	1742.0625
2656.14175	1738.4625
2658.78255	1735.3625
2661.42171	1739.4625
2664.05923	1740.0625
2666.6951	1744.0625
2669.32934	1740.4625
2671.96194	1739.1625
2674.59291	1740.5625
2677.22224	1740.5625
2679.84993	1740.0625
2682.476	1747.3625
2685.10043	1738.4625
2687.72324	1740.5625
2690.34441	1734.6625
2692.96396	1734.1625
2695.58188	1746.7625
2698.19818	1740.0625
2700.81285	1740.1625
2703.4259	1730.4625
2706.03733	1724.5625
2708.64714	1733.4625
2711.25533	1742.0625
2713.86191	1744.3625
2716.46687	1750.0625
2719.07021	1747.1625
2721.67194	1755.4625
2724.27206	1757.3625
2726.87057	1754.9625
2729.46747	1757.5625
2732.06276	1752.8625
2734.65644	1758.7625
2737.24852	1750.9625
2739.83899	1758.8625
2742.42786	1755.4625
2745.01513	1748.4625
2747.60079	1747.6625
2750.18486	1754.3625
2752.76733	1752.4625
2755.3482	1764.4625
2757.92747	1760.1625
2760.50515	1753.2625
2763.08123	1763.9625
2765.65573	1752.2625
2768.22863	1737.7625
2770.79994	1745.4625
2773.36967	1745.2625
2775.9378	1750.7625
2778.50435	1745.8625
2781.06932	1750.2625
2783.6327	1754.9625
2786.1945	1748.3625
2788.75471	1748.9625
2791.31335	1738.5625
2793.87041	1752.6625
2796.42589	1741.0625
2798.97979	1740.0625
2801.53212	1743.0625
2804.08288	1751.1625
2806.63206	1737.5625
2809.17967	1743.6625
2811.72571	1735.7625
2814.27018	1741.6625
2816.81308	1737.3625
2819.35442	1741.9625
2821.89419	1743.2625
2824.43239	1741.3625
2826.96904	1751.5625
2829.50412	1740.3625
2832.03763	1750.3625
2834.56959	1754.0625
2837.1	1761.1625
2839.62884	1778.9625
2842.15613	1805.3625
2844.68186	1847.2625
2847.20604	1892.3625
2849.72867	1921.1625
2852.24974	1935.1625
2854.76927	1950.4625
2857.28724	1944.4625
2859.80367	1967.1625
2862.31855	1979.6625
2864.83189	1989.1625
2867.34368	1988.6625
2869.85393	2013.1625
2872.36264	2027.7625
2874.8698	2043.9625
2877.37543	2038.4625
2879.87952	2054.5625
2882.38207	2071.1625
2884.88308	2073.9625
2887.38256	2092.6625
2889.88051	2093.4625
2892.37692	2098.3625
2894.8718	2099.7625
2897.36515	2111.6625
2899.85698	2109.9625
2902.34727	2124.9625
2904.83604	2129.2625
2907.32328	2128.0625
2909.809	2128.8625
2912.29319	2118.5625
2914.77587	2143.9625
2917.25702	2132.2625
2919.73665	2133.5625
2922.21476	2136.5625
2924.69136	2130.5625
2927.16644	2131.1625
2929.64	2131.0625
2932.11205	2114.9625
2934.58258	2111.3625
2937.05161	2084.7625
2939.51912	2076.0625
2941.98513	2048.3625
2944.44962	2010.1625
2946.91261	1985.9625
2949.37409	1942.9625
2951.83407	1929.0625
2954.29254	1904.6625
2956.74951	1876.5625
2959.20498	1857.0625
2961.65895	1829.6625
2964.11142	1796.4625
2966.56239	1784.2625
2969.01186	1767.0625
2971.45984	1740.2625
2973.90632	1728.3625
2976.35131	1703.1625
2978.7948	1682.0625
2981.23681	1673.2625
2983.67732	1650.5625
2986.11635	1646.1625
2988.55388	1627.5625
2990.98993	1610.1625
2993.4245	1611.5625
2995.85758	1605.4625
2998.28917	1587.9625
3000.71928	1590.8625
3003.14791	1583.6625
3005.57506	1586.7625
3008.00073	1570.6625
3010.42493	1574.0625
3012.84764	1569.3625
3015.26888	1567.4625
3017.68865	1561.1625
3020.10694	1556.2625
3022.52376	1552.3625
3024.9391	1541.9625
3027.35298	1538.4625
3029.76539	1533.3625
3032.17632	1546.2625
3034.5858	1534.2625
3036.9938	1529.7625
3039.40034	1533.1625
3041.80542	1525.8625
3044.20903	1520.9625
3046.61118	1513.7625
3049.01187	1506.0625
3051.4111	1510.1625
3053.80888	1515.0625
3056.20519	1516.3625
3058.60005	1516.1625
3060.99345	1511.3625
3063.3854	1516.6625
3065.7759	1504.9625
3068.16494	1513.9625
3070.55254	1500.0625
3072.93868	1510.6625
3075.32338	1508.8625
3077.70662	1502.4625
3080.08842	1501.3625
3082.46878	1512.9625
3084.84769	1500.8625
3087.22515	1506.0625
3089.60118	1505.0625
3091.97576	1517.7625
3094.3489	1505.1625
3096.72061	1517.7625
3099.09087	1524.4625
3101.4597	1518.5625
3103.82709	1527.8625
3106.19305	1523.3625
3108.55757	1531.6625
3110.92066	1529.5625
3113.28232	1522.3625
3115.64255	1517.1625
3118.00134	1527.9625
3120.35871	1527.9625
3122.71466	1537.5625
