Data from AgNPs_FTO_APTES_UA_2uM_CRN_50uM_R6G_10uM_NaF_0.1M_Addition_RamanShift__33__15-14-45-272.txt Node

Date: Wed Feb 02 15:14:45 GMT 2022
User: TCL
Spectrometer: QEP01345
Trigger mode: 4
Integration Time (sec): 7.000000E0
Scans to average: 10
Electric dark correction enabled: true
Nonlinearity correction enabled: false
Boxcar width: 0
XAxis mode: Raman Shifts
Number of Pixels in Spectrum: 1044
>>>>>Begin Spectral Data<<<<<
46.04893	-0.2875
50.45542	0.9125
54.85868	-0.0875
59.25871	-0.7875
63.6555	73.2125
68.04907	77.0125
72.43941	79.6125
76.82654	89.4125
81.21044	90.3125
85.59113	95.6125
89.96862	98.6125
94.34289	103.4125
98.71396	105.6125
103.08183	112.3125
107.4465	114.1125
111.80798	114.3125
116.16626	116.8125
120.52136	121.7125
124.87327	121.6125
129.222	129.9125
133.56755	135.8125
137.90993	139.9125
142.24913	157.5125
146.58517	169.7125
150.91804	191.9125
155.24774	231.0125
159.57429	282.3125
163.89768	357.2125
168.21792	465.7125
172.53501	632.9125
176.84895	873.6125
181.15975	1212.8125
185.46741	1701.2125
189.77193	2344.1125
194.07331	3141.4125
198.37157	4032.7125
202.6667	4991.3125
206.9587	5928.7125
211.24758	6877.0125
215.53334	7804.9125
219.81599	8871.3125
224.09553	10000.2125
228.37195	11230.0125
232.64527	12571.6125
236.91549	13925.7125
241.18261	15276.2125
245.44663	16509.2125
249.70755	17523.6125
253.96539	18466.3125
258.22014	19345.0125
262.4718	20062.6125
266.72039	20609.4125
270.96589	20895.8125
275.20832	20924.1125
279.44768	20810.1125
283.68397	20654.6125
287.91719	20513.8125
292.14735	20474.0125
296.37445	20501.5125
300.59849	20746.5125
304.81948	21034.2125
309.03742	21090.3125
313.25231	20905.7125
317.46415	20370.0125
321.67296	19529.9125
325.87872	18873.4125
330.08145	18472.0125
334.28114	18448.4125
338.47781	18644.9125
342.67145	18869.3125
346.86207	19241.1125
351.04966	19750.1125
355.23424	20332.6125
359.4158	20832.4125
363.59435	21125.4125
367.76989	21291.0125
371.94243	21398.7125
376.11196	21420.1125
380.27849	21459.1125
384.44203	21472.6125
388.60257	21535.6125
392.76012	21643.4125
396.91468	21922.2125
401.06626	22308.7125
405.21485	22595.1125
409.36047	22446.4125
413.50311	21960.9125
417.64277	21503.6125
421.77947	21313.5125
425.9132	21257.6125
430.04396	21395.1125
434.17176	21570.3125
438.2966	21831.8125
442.41849	22386.8125
446.53742	23152.1125
450.6534	24097.1125
454.76644	24715.3125
458.87653	24910.0125
462.98368	24670.5125
467.08789	24282.1125
471.18916	23888.5125
475.2875	23586.3125
479.38291	23526.4125
483.4754	23353.9125
487.56496	23023.5125
491.6516	22560.2125
495.73531	22073.0125
499.81612	21717.1125
503.89401	21724.2125
507.96899	21731.1125
512.04106	21669.0125
516.11023	21539.2125
520.1765	21417.9125
524.23987	21280.8125
528.30034	21100.2125
532.35792	20857.5125
536.41261	20566.0125
540.46441	20275.5125
544.51333	20194.6125
548.55936	20470.5125
552.60252	20933.1125
556.64279	21534.8125
560.6802	22015.4125
564.71473	22428.7125
568.7464	23051.7125
572.7752	23665.4125
576.80114	23767.0125
580.82422	23733.1125
584.84444	23916.5125
588.86181	24375.0125
592.87633	25054.9125
596.888	25520.9125
600.89682	25580.3125
604.9028	26351.0125
608.90594	29146.9125
612.90624	32383.6125
616.90371	30478.5125
620.89834	24441.3125
624.89015	21619.5125
628.87913	21278.6125
632.86528	21407.5125
636.84862	21404.8125
640.82913	21020.4125
644.80683	20282.3125
648.78172	19737.3125
652.75379	19633.6125
656.72306	19988.1125
660.68952	20499.8125
664.65319	20372.3125
668.61405	19862.9125
672.57211	19658.9125
676.52738	19643.8125
680.47986	19632.8125
684.42955	19529.8125
688.37646	19429.9125
692.32058	19492.0125
696.26192	19753.5125
700.20048	20018.2125
704.13626	20166.5125
708.06928	20176.9125
711.99952	19983.5125
715.927	19983.1125
719.85171	20032.7125
723.77365	20003.1125
727.69284	19776.4125
731.60928	19550.8125
735.52295	19536.9125
739.43388	19503.3125
743.34206	19546.6125
747.24749	19653.4125
751.15017	19840.4125
755.05012	20196.0125
758.94733	20919.2125
762.8418	22263.5125
766.73354	24358.5125
770.62254	26431.8125
774.50882	27068.7125
778.39237	25857.4125
782.27321	23566.4125
786.15132	21509.9125
790.02671	20299.4125
793.89938	19755.7125
797.76935	19502.2125
801.6366	19453.3125
805.50115	19409.7125
809.36299	19340.6125
813.22213	19277.1125
817.07857	19224.0125
820.93231	19224.8125
824.78336	19158.1125
828.63172	19172.3125
832.47738	19151.0125
836.32036	19175.5125
840.16066	19178.3125
843.99827	19205.5125
847.8332	19102.0125
851.66546	18978.2125
855.49504	18938.1125
859.32195	18892.3125
863.1462	18831.7125
866.96777	18739.6125
870.78668	18678.9125
874.60293	18682.8125
878.41652	18682.5125
882.22745	18746.2125
886.03573	18840.1125
889.84136	18779.4125
893.64433	18675.6125
897.44466	18607.3125
901.24235	18539.6125
905.0374	18487.5125
908.8298	18475.8125
912.61957	18528.9125
916.40671	18688.3125
920.19121	18969.2125
923.97308	19217.1125
927.75233	19344.7125
931.52895	19321.2125
935.30295	19069.9125
939.07433	18658.9125
942.84309	18255.1125
946.60924	18087.7125
950.37278	18038.7125
954.13371	17963.8125
957.89203	17892.1125
961.64774	17840.3125
965.40086	17848.9125
969.15137	17777.1125
972.89929	17671.9125
976.64461	17608.2125
980.38733	17652.2125
984.12747	17748.9125
987.86502	17842.6125
991.59999	18105.6125
995.33237	18451.7125
999.06217	18998.1125
1002.78939	19671.3125
1006.51404	20060.5125
1010.23611	20267.6125
1013.95561	20432.7125
1017.67255	20331.8125
1021.38692	20073.1125
1025.09872	19801.4125
1028.80796	19875.1125
1032.51465	20390.4125
1036.21877	20903.4125
1039.92035	21015.8125
1043.61937	20783.6125
1047.31584	20354.6125
1051.00976	19909.2125
1054.70114	19655.6125
1058.38998	19611.1125
1062.07627	19694.8125
1065.76003	19773.7125
1069.44126	19918.4125
1073.11995	20088.2125
1076.79611	20303.9125
1080.46974	20515.2125
1084.14085	20772.3125
1087.80943	21089.8125
1091.47549	21340.6125
1095.13903	21290.9125
1098.80005	20938.5125
1102.45857	20475.5125
1106.11456	20166.9125
1109.76805	20075.9125
1113.41903	20210.7125
1117.06751	20462.3125
1120.71348	20799.0125
1124.35696	21176.5125
1127.99793	21582.9125
1131.63641	21737.1125
1135.2724	21341.1125
1138.90589	21038.5125
1142.5369	20901.0125
1146.16542	20936.7125
1149.79145	21114.8125
1153.415	21375.5125
1157.03607	21706.4125
1160.65467	22342.2125
1164.27079	23319.9125
1167.88443	24599.4125
1171.49561	26267.1125
1175.10432	28662.4125
1178.71056	31662.5125
1182.31434	34140.1125
1185.91565	35213.8125
1189.51451	34751.8125
1193.11091	33390.3125
1196.70485	31839.7125
1200.29634	30344.6125
1203.88538	29352.0125
1207.47197	28472.3125
1211.05612	27769.7125
1214.63782	27202.2125
1218.21708	26730.6125
1221.79391	26533.5125
1225.36829	26397.5125
1228.94024	26039.2125
1232.50976	25523.5125
1236.07685	25043.5125
1239.6415	24878.7125
1243.20374	24914.9125
1246.76355	25127.3125
1250.32093	25537.8125
1253.8759	26108.5125
1257.42845	26889.2125
1260.97859	27601.1125
1264.52631	28296.4125
1268.07163	29092.2125
1271.61453	29889.4125
1275.15503	30744.4125
1278.69312	31656.7125
1282.22882	32402.4125
1285.76211	33468.0125
1289.29301	34747.6125
1292.82151	36388.0125
1296.34761	38340.2125
1299.87133	40774.4125
1303.39266	43591.6125
1306.9116	46730.8125
1310.42815	49725.6125
1313.94233	51649.4125
1317.45412	51620.7125
1320.96354	50399.8125
1324.47058	48793.9125
1327.97525	47306.6125
1331.47754	46221.0125
1334.97747	45635.8125
1338.47502	45292.8125
1341.97022	44619.7125
1345.46305	43673.4125
1348.95352	43020.4125
1352.44163	43232.7125
1355.92738	44590.1125
1359.41078	47352.6125
1362.89183	50225.9125
1366.37053	49782.6125
1369.84688	45182.9125
1373.32088	39482.0125
1376.79254	35735.8125
1380.26186	34416.1125
1383.72883	34403.8125
1387.19347	34467.7125
1390.65578	34270.6125
1394.11575	34317.7125
1397.57339	34919.0125
1401.0287	35946.0125
1404.48168	36825.5125
1407.93234	37002.2125
1411.38068	36405.3125
1414.82669	34999.4125
1418.27039	33267.9125
1421.71177	31499.2125
1425.15083	30034.4125
1428.58758	29190.1125
1432.02203	29229.4125
1435.45416	29857.5125
1438.88399	30822.5125
1442.31151	31674.3125
1445.73673	32392.6125
1449.15965	33068.4125
1452.58027	33526.9125
1455.9986	33573.6125
1459.41463	33671.3125
1462.82837	34075.8125
1466.23982	34648.5125
1469.64898	35210.2125
1473.05586	35509.5125
1476.46045	35513.0125
1479.86276	35401.8125
1483.26279	35038.2125
1486.66054	34683.6125
1490.05602	34669.6125
1493.44922	34754.4125
1496.84016	35016.7125
1500.22882	35742.3125
1503.61521	36992.1125
1506.99934	38743.3125
1510.38121	40584.1125
1513.76081	41401.9125
1517.13816	40606.2125
1520.51324	38406.2125
1523.88607	36307.3125
1527.25665	34963.3125
1530.62498	34360.9125
1533.99105	34152.2125
1537.35488	33894.8125
1540.71647	33456.3125
1544.07581	32769.3125
1547.4329	32002.7125
1550.78776	31269.3125
1554.14038	30762.4125
1557.49077	30522.9125
1560.83892	30472.1125
1564.18484	30676.9125
1567.52853	30963.5125
1570.86999	31392.8125
1574.20922	32035.5125
1577.54624	32511.0125
1580.88103	32575.9125
1584.2136	32716.9125
1587.54395	33609.3125
1590.87208	35322.8125
1594.19801	37666.2125
1597.52172	39967.4125
1600.84321	40651.9125
1604.16251	38758.3125
1607.47959	35206.8125
1610.79447	31522.6125
1614.10715	28361.3125
1617.41763	26033.4125
1620.7259	24618.8125
1624.03199	24031.6125
1627.33587	24130.6125
1630.63757	25001.5125
1633.93707	26734.8125
1637.23439	29293.6125
1640.52951	33102.7125
1643.82246	37590.6125
1647.11321	41379.8125
1650.40179	42488.3125
1653.68819	39725.9125
1656.97241	34218.7125
1660.25446	28670.3125
1663.53433	24586.8125
1666.81203	22004.3125
1670.08756	20446.5125
1673.36092	19480.7125
1676.63211	18847.1125
1679.90115	18466.7125
1683.16801	18095.0125
1686.43272	17905.0125
1689.69527	17736.4125
1692.95567	17574.9125
1696.2139	17541.4125
1699.46999	17483.8125
1702.72392	17408.0125
1705.97571	17353.4125
1709.22535	17271.5125
1712.47284	17225.2125
1715.71819	17211.3125
1718.96139	17164.1125
1722.20246	17121.0125
1725.44139	17029.9125
1728.67818	16943.0125
1731.91284	16832.6125
1735.14537	16758.9125
1738.37576	16687.7125
1741.60403	16605.7125
1744.83017	16595.3125
1748.05418	16543.8125
1751.27607	16516.9125
1754.49584	16492.5125
1757.71349	16503.7125
1760.92903	16473.4125
1764.14244	16475.0125
1767.35375	16425.6125
1770.56294	16398.7125
1773.77002	16358.0125
1776.97499	16322.6125
1780.17785	16288.9125
1783.37861	16266.7125
1786.57727	16223.7125
1789.77382	16227.6125
1792.96828	16175.1125
1796.16064	16144.9125
1799.3509	16114.0125
1802.53907	16078.2125
1805.72514	16052.6125
1808.90913	16005.9125
1812.09102	15971.2125
1815.27083	15941.4125
1818.44856	15934.2125
1821.6242	15887.9125
1824.79776	15885.0125
1827.96924	15890.2125
1831.13864	15821.0125
1834.30597	15823.7125
1837.47122	15823.5125
1840.6344	15796.9125
1843.7955	15869.9125
1846.95454	15825.3125
1850.11151	15788.9125
1853.26642	15832.8125
1856.41926	15794.7125
1859.57004	15802.9125
1862.71876	15753.9125
1865.86542	15763.7125
1869.01003	15753.5125
1872.15258	15762.8125
1875.29308	15776.0125
1878.43152	15769.3125
1881.56792	15762.6125
1884.70227	15728.2125
1887.83457	15751.6125
1890.96482	15749.4125
1894.09304	15715.4125
1897.21921	15723.8125
1900.34335	15741.2125
1903.46544	15728.1125
1906.58551	15745.9125
1909.70353	15737.9125
1912.81953	15698.1125
1915.93349	15664.2125
1919.04543	15654.6125
1922.15534	15617.8125
1925.26322	15605.2125
1928.36908	15572.8125
1931.47292	15519.8125
1934.57473	15456.8125
1937.67453	15416.7125
1940.77232	15381.7125
1943.86808	15302.5125
1946.96184	15285.3125
1950.05358	15261.2125
1953.14331	15182.5125
1956.23103	15150.3125
1959.31675	15115.2125
1962.40046	15072.5125
1965.48217	15031.5125
1968.56188	14963.3125
1971.63959	14946.0125
1974.7153	14899.0125
1977.78901	14874.2125
1980.86073	14819.0125
1983.93046	14760.4125
1986.99819	14683.1125
1990.06394	14673.1125
1993.1277	14625.4125
1996.18947	14569.0125
1999.24925	14537.5125
2002.30706	14474.9125
2005.36288	14473.1125
2008.41672	14448.2125
2011.46859	14425.1125
2014.51848	14346.9125
2017.56639	14285.6125
2020.61233	14273.9125
2023.6563	14266.1125
2026.6983	14212.6125
2029.73833	14215.1125
2032.7764	14206.4125
2035.8125	14164.6125
2038.84664	14174.6125
2041.87881	14166.6125
2044.90903	14128.0125
2047.93729	14111.6125
2050.96359	14107.3125
2053.98794	14073.5125
2057.01034	14074.7125
2060.03078	14048.7125
2063.04927	14026.0125
2066.06582	14038.9125
2069.08042	14036.9125
2072.09307	14017.2125
2075.10378	13991.5125
2078.11255	13985.8125
2081.11938	13973.5125
2084.12426	13939.0125
2087.12722	13937.2125
2090.12824	13954.3125
2093.12732	13952.0125
2096.12447	13969.8125
2099.11969	13983.7125
2102.11299	14005.7125
2105.10435	14009.2125
2108.09379	14001.2125
2111.08131	13998.1125
2114.0669	14012.8125
2117.05057	14034.0125
2120.03233	14036.5125
2123.01216	14034.7125
2125.99008	14029.4125
2128.96609	14071.0125
2131.94018	14044.6125
2134.91236	14053.2125
2137.88263	14070.1125
2140.851	14089.8125
2143.81746	14116.9125
2146.78201	14085.7125
2149.74466	14115.6125
2152.7054	14082.4125
2155.66425	14110.1125
2158.6212	14105.1125
2161.57625	14083.2125
2164.52941	14102.7125
2167.48067	14098.8125
2170.43004	14053.6125
2173.37752	14061.4125
2176.32311	14077.4125
2179.26681	14081.8125
2182.20863	14064.5125
2185.14856	14073.7125
2188.08661	14100.6125
2191.02278	14115.1125
2193.95707	14083.1125
2196.88948	14083.1125
2199.82001	14077.3125
2202.74867	14072.5125
2205.67545	14072.4125
2208.60037	14043.5125
2211.52341	14031.7125
2214.44458	14040.4125
2217.36388	14016.8125
2220.28132	13989.5125
2223.1969	13996.7125
2226.11061	13960.7125
2229.02246	13912.1125
2231.93245	13893.3125
2234.84058	13886.6125
2237.74686	13809.4125
2240.65128	13849.9125
2243.55385	13818.9125
2246.45456	13848.5125
2249.35343	13783.2125
2252.25044	13754.4125
2255.14561	13770.6125
2258.03893	13744.5125
2260.93041	13713.9125
2263.82004	13674.1125
2266.70783	13681.5125
2269.59378	13602.9125
2272.4779	13558.9125
2275.36017	13549.6125
2278.24061	13526.5125
2281.11922	13498.0125
2283.996	13497.0125
2286.87094	13461.1125
2289.74405	13440.8125
2292.61534	13427.8125
2295.4848	13421.3125
2298.35243	13443.0125
2301.21824	13416.9125
2304.08223	13461.6125
2306.94439	13484.3125
2309.80474	13449.8125
2312.66327	13463.9125
2315.51999	13442.8125
2318.37489	13443.8125
2321.22797	13400.7125
2324.07925	13427.5125
2326.92871	13421.7125
2329.77637	13399.8125
2332.62222	13393.5125
2335.46626	13401.7125
2338.3085	13393.4125
2341.14893	13391.7125
2343.98756	13377.0125
2346.8244	13382.7125
2349.65943	13399.2125
2352.49267	13390.6125
2355.32411	13400.5125
2358.15376	13378.3125
2360.98161	13365.7125
2363.80768	13354.2125
2366.63195	13321.0125
2369.45444	13289.2125
2372.27514	13287.0125
2375.09405	13275.9125
2377.91118	13264.5125
2380.72652	13222.3125
2383.54009	13250.6125
2386.35187	13200.5125
2389.16188	13167.6125
2391.97011	13153.6125
2394.77657	13155.4125
2397.58125	13114.7125
2400.38416	13061.4125
2403.18529	13079.3125
2405.98466	13046.5125
2408.78226	13036.1125
2411.57809	13031.8125
2414.37216	12976.0125
2417.16446	12981.1125
2419.955	12975.2125
2422.74378	12973.8125
2425.5308	12940.8125
2428.31606	12962.2125
2431.09956	12958.6125
2433.88131	12928.8125
2436.6613	12921.1125
2439.43954	12944.3125
2442.21603	12944.5125
2444.99077	12874.9125
2447.76377	12909.0125
2450.53501	12906.0125
2453.30451	12916.8125
2456.07226	12915.2125
2458.83827	12933.7125
2461.60254	12902.1125
2464.36507	12913.4125
2467.12586	12921.8125
2469.88492	12890.0125
2472.64224	12920.0125
2475.39782	12925.3125
2478.15167	12930.4125
2480.90379	12925.6125
2483.65417	12948.4125
2486.40283	12973.6125
2489.14976	12948.5125
2491.89497	12961.1125
2494.63845	13000.5125
2497.3802	12976.4125
2500.12024	12954.6125
2502.85855	12967.0125
2505.59514	12976.0125
2508.33002	12961.4125
2511.06318	12933.4125
2513.79462	12936.4125
2516.52435	12903.2125
2519.25237	12899.9125
2521.97867	12887.1125
2524.70327	12842.7125
2527.42616	12851.7125
2530.14734	12872.7125
2532.86681	12839.7125
2535.58458	12857.5125
2538.30065	12810.1125
2541.01501	12843.2125
2543.72768	12819.4125
2546.43864	12798.9125
2549.14791	12782.2125
2551.85548	12797.0125
2554.56136	12801.5125
2557.26554	12797.6125
2559.96803	12781.6125
2562.66883	12770.5125
2565.36794	12797.4125
2568.06536	12759.0125
2570.7611	12752.1125
2573.45514	12756.4125
2576.14751	12737.8125
2578.83819	12730.0125
2581.52719	12699.4125
2584.21451	12707.6125
2586.90015	12723.5125
2589.58411	12702.1125
2592.2664	12708.5125
2594.94701	12704.8125
2597.62594	12687.6125
2600.30321	12641.3125
2602.9788	12650.5125
2605.65273	12621.9125
2608.32498	12665.6125
2610.99557	12681.8125
2613.66449	12689.7125
2616.33175	12672.4125
2618.99734	12673.4125
2621.66128	12692.0125
2624.32355	12646.3125
2626.98416	12669.0125
2629.64311	12648.8125
2632.30041	12673.2125
2634.95605	12655.4125
2637.61004	12647.5125
2640.26238	12616.7125
2642.91306	12637.2125
2645.56209	12623.6125
2648.20948	12632.9125
2650.85521	12605.8125
2653.4993	12610.9125
2656.14175	12613.4125
2658.78255	12639.2125
2661.42171	12614.2125
2664.05923	12682.2125
2666.6951	12646.8125
2669.32934	12683.6125
2671.96194	12648.9125
2674.59291	12677.0125
2677.22224	12670.2125
2679.84993	12685.3125
2682.476	12645.3125
2685.10043	12657.4125
2687.72324	12624.6125
2690.34441	12646.8125
2692.96396	12632.9125
2695.58188	12603.2125
2698.19818	12620.3125
2700.81285	12646.1125
2703.4259	12668.2125
2706.03733	12712.7125
2708.64714	12719.2125
2711.25533	12703.0125
2713.86191	12687.6125
2716.46687	12715.1125
2719.07021	12723.3125
2721.67194	12759.6125
2724.27206	12766.4125
2726.87057	12757.8125
2729.46747	12786.3125
2732.06276	12752.3125
2734.65644	12767.6125
2737.24852	12718.6125
2739.83899	12706.2125
2742.42786	12709.0125
2745.01513	12690.9125
2747.60079	12661.7125
2750.18486	12664.1125
2752.76733	12695.7125
2755.3482	12685.4125
2757.92747	12724.3125
2760.50515	12738.7125
2763.08123	12755.3125
2765.65573	12704.8125
2768.22863	12707.2125
2770.79994	12699.3125
2773.36967	12682.7125
2775.9378	12684.8125
2778.50435	12688.0125
2781.06932	12682.6125
2783.6327	12712.2125
2786.1945	12687.6125
2788.75471	12679.3125
2791.31335	12655.4125
2793.87041	12651.7125
2796.42589	12619.7125
2798.97979	12637.7125
2801.53212	12617.2125
2804.08288	12588.7125
2806.63206	12557.3125
2809.17967	12543.4125
2811.72571	12509.3125
2814.27018	12539.8125
2816.81308	12490.6125
2819.35442	12477.1125
2821.89419	12479.8125
2824.43239	12460.2125
2826.96904	12478.4125
2829.50412	12479.0125
2832.03763	12424.9125
2834.56959	12475.0125
2837.1	12452.4125
2839.62884	12446.5125
2842.15613	12461.9125
2844.68186	12507.6125
2847.20604	12544.7125
2849.72867	12583.1125
2852.24974	12599.8125
2854.76927	12582.1125
2857.28724	12553.6125
2859.80367	12538.5125
2862.31855	12531.7125
2864.83189	12519.8125
2867.34368	12517.7125
2869.85393	12537.3125
2872.36264	12530.1125
2874.8698	12516.3125
2877.37543	12534.7125
2879.87952	12499.1125
2882.38207	12520.9125
2884.88308	12499.2125
2887.38256	12503.4125
2889.88051	12520.4125
2892.37692	12514.2125
2894.8718	12533.5125
2897.36515	12560.3125
2899.85698	12536.2125
2902.34727	12575.3125
2904.83604	12591.5125
2907.32328	12608.4125
2909.809	12593.0125
2912.29319	12605.5125
2914.77587	12574.5125
2917.25702	12628.0125
2919.73665	12592.8125
2922.21476	12575.4125
2924.69136	12595.2125
2927.16644	12621.4125
2929.64	12620.1125
2932.11205	12607.8125
2934.58258	12560.8125
2937.05161	12548.4125
2939.51912	12571.6125
2941.98513	12545.9125
2944.44962	12473.7125
2946.91261	12406.2125
2949.37409	12416.3125
2951.83407	12405.6125
2954.29254	12361.5125
2956.74951	12367.7125
2959.20498	12349.2125
2961.65895	12329.7125
2964.11142	12303.7125
2966.56239	12285.4125
2969.01186	12317.0125
2971.45984	12287.6125
2973.90632	12242.7125
2976.35131	12215.8125
2978.7948	12174.5125
2981.23681	12140.9125
2983.67732	12104.1125
2986.11635	12103.4125
2988.55388	12068.9125
2990.98993	12042.9125
2993.4245	12045.4125
2995.85758	12010.0125
2998.28917	11995.2125
3000.71928	11975.2125
3003.14791	11929.7125
3005.57506	11903.6125
3008.00073	11902.9125
3010.42493	11890.0125
3012.84764	11874.8125
3015.26888	11888.0125
3017.68865	11869.0125
3020.10694	11856.1125
3022.52376	11842.4125
