Data from AgNPs_FTO_APTES_UA_2uM_CRN_10uM_R6G_10uM_NaF_0.1M_Addition_RamanShift__27__13-49-35-173.txt Node

Date: Wed Feb 02 13:49:35 GMT 2022
User: TCL
Spectrometer: QEP01345
Trigger mode: 4
Integration Time (sec): 7.000000E0
Scans to average: 10
Electric dark correction enabled: true
Nonlinearity correction enabled: false
Boxcar width: 0
XAxis mode: Raman Shifts
Number of Pixels in Spectrum: 1044
>>>>>Begin Spectral Data<<<<<
46.04893	1.3125
50.45542	-0.4875
54.85868	-0.6875
59.25871	-0.9875
63.6555	80.3125
68.04907	83.9125
72.43941	85.9125
76.82654	97.0125
81.21044	97.6125
85.59113	103.0125
89.96862	104.1125
94.34289	106.9125
98.71396	110.5125
103.08183	118.1125
107.4465	121.4125
111.80798	121.8125
116.16626	123.4125
120.52136	129.7125
124.87327	131.7125
129.222	139.2125
133.56755	150.4125
137.90993	163.3125
142.24913	179.3125
146.58517	200.9125
150.91804	225.5125
155.24774	278.0125
159.57429	343.2125
163.89768	442.7125
168.21792	580.7125
172.53501	794.9125
176.84895	1100.8125
181.15975	1544.1125
185.46741	2170.2125
189.77193	2966.6125
194.07331	3973.2125
198.37157	5127.9125
202.6667	6320.5125
206.9587	7514.2125
211.24758	8690.5125
215.53334	9934.9125
219.81599	11283.0125
224.09553	12843.2125
228.37195	14541.3125
232.64527	16430.4125
236.91549	18292.4125
241.18261	20036.2125
245.44663	21471.3125
249.70755	22674.8125
253.96539	23667.6125
258.22014	24656.9125
262.4718	25533.7125
266.72039	26219.5125
270.96589	26636.0125
275.20832	26724.2125
279.44768	26630.5125
283.68397	26458.3125
287.91719	26380.8125
292.14735	26537.2125
296.37445	26977.5125
300.59849	27647.7125
304.81948	28372.5125
309.03742	28871.4125
313.25231	28727.5125
317.46415	27446.0125
321.67296	25546.2125
325.87872	23824.2125
330.08145	23046.1125
334.28114	22880.1125
338.47781	23200.5125
342.67145	23676.2125
346.86207	24571.4125
351.04966	25812.8125
355.23424	27170.8125
359.4158	28277.9125
363.59435	28726.5125
367.76989	28815.4125
371.94243	28782.7125
376.11196	28566.7125
380.27849	28407.6125
384.44203	28202.2125
388.60257	27975.1125
392.76012	27942.4125
396.91468	28304.2125
401.06626	28983.8125
405.21485	29499.6125
409.36047	29049.6125
413.50311	27813.1125
417.64277	26628.1125
421.77947	26020.7125
425.9132	25804.7125
430.04396	25855.8125
434.17176	25967.8125
438.2966	26229.1125
442.41849	26785.8125
446.53742	27586.8125
450.6534	28438.1125
454.76644	29073.7125
458.87653	29251.5125
462.98368	29086.6125
467.08789	28721.8125
471.18916	28135.3125
475.2875	27529.7125
479.38291	27045.7125
483.4754	26648.7125
487.56496	26159.0125
491.6516	25841.4125
495.73531	25554.2125
499.81612	25508.1125
503.89401	25719.4125
507.96899	25941.2125
512.04106	26110.0125
516.11023	26244.4125
520.1765	26286.7125
524.23987	26098.4125
528.30034	25630.7125
532.35792	25135.6125
536.41261	24587.4125
540.46441	24096.0125
544.51333	24028.6125
548.55936	24314.7125
552.60252	25078.3125
556.64279	25904.9125
560.6802	26384.1125
564.71473	26882.9125
568.7464	27877.6125
572.7752	28738.1125
576.80114	28386.0125
580.82422	27758.0125
584.84444	27444.2125
588.86181	27303.8125
592.87633	27411.7125
596.888	27751.1125
600.89682	28587.6125
604.9028	31353.2125
608.90594	38556.5125
612.90624	47446.0125
616.90371	45085.4125
620.89834	32380.8125
624.89015	26257.7125
628.87913	25225.2125
632.86528	25366.1125
636.84862	25656.4125
640.82913	25102.9125
644.80683	23983.1125
648.78172	23201.6125
652.75379	23227.6125
656.72306	24024.0125
660.68952	25179.4125
664.65319	25052.5125
668.61405	23920.0125
672.57211	23432.2125
676.52738	23365.8125
680.47986	23345.7125
684.42955	23193.9125
688.37646	23067.5125
692.32058	23169.6125
696.26192	23412.0125
700.20048	23791.8125
704.13626	24064.6125
708.06928	24077.0125
711.99952	23823.5125
715.927	23716.2125
719.85171	23746.4125
723.77365	23647.5125
727.69284	23334.5125
731.60928	23015.3125
735.52295	22937.0125
739.43388	22968.1125
743.34206	23090.7125
747.24749	23267.1125
751.15017	23569.8125
755.05012	24148.6125
758.94733	25399.1125
762.8418	28002.0125
766.73354	32372.6125
770.62254	36939.0125
774.50882	38699.9125
778.39237	36422.9125
782.27321	31713.4125
786.15132	27393.7125
790.02671	24844.4125
793.89938	23668.8125
797.76935	23125.7125
801.6366	22903.8125
805.50115	22740.4125
809.36299	22565.3125
813.22213	22424.0125
817.07857	22365.4125
820.93231	22341.5125
824.78336	22384.1125
828.63172	22458.2125
832.47738	22518.7125
836.32036	22442.2125
840.16066	22388.6125
843.99827	22332.9125
847.8332	22219.3125
851.66546	22176.6125
855.49504	22106.6125
859.32195	22058.8125
863.1462	21927.7125
866.96777	21799.7125
870.78668	21756.9125
874.60293	21804.7125
878.41652	21822.3125
882.22745	21970.9125
886.03573	22063.9125
889.84136	21983.3125
893.64433	21889.0125
897.44466	21771.7125
901.24235	21744.6125
905.0374	21707.7125
908.8298	21645.3125
912.61957	21699.5125
916.40671	21902.5125
920.19121	22215.2125
923.97308	22469.3125
927.75233	22697.1125
931.52895	22757.3125
935.30295	22417.0125
939.07433	21732.8125
942.84309	21158.2125
946.60924	20853.8125
950.37278	20720.8125
954.13371	20576.4125
957.89203	20496.7125
961.64774	20394.4125
965.40086	20365.1125
969.15137	20326.9125
972.89929	20217.5125
976.64461	20141.6125
980.38733	20181.6125
984.12747	20245.1125
987.86502	20421.5125
991.59999	20707.3125
995.33237	20973.8125
999.06217	21617.0125
1002.78939	22461.3125
1006.51404	23218.9125
1010.23611	23731.5125
1013.95561	24111.4125
1017.67255	24074.3125
1021.38692	23696.8125
1025.09872	23331.1125
1028.80796	23244.3125
1032.51465	23526.2125
1036.21877	23939.0125
1039.92035	24074.4125
1043.61937	23912.3125
1047.31584	23547.2125
1051.00976	23079.4125
1054.70114	22842.0125
1058.38998	22836.9125
1062.07627	23017.5125
1065.76003	23245.8125
1069.44126	23478.6125
1073.11995	23758.7125
1076.79611	24060.7125
1080.46974	24344.2125
1084.14085	24772.1125
1087.80943	25445.1125
1091.47549	25737.5125
1095.13903	25485.7125
1098.80005	24697.6125
1102.45857	23920.7125
1106.11456	23415.4125
1109.76805	23387.4125
1113.41903	23704.3125
1117.06751	24300.3125
1120.71348	25088.6125
1124.35696	25957.1125
1127.99793	26858.5125
1131.63641	26911.1125
1135.2724	26028.9125
1138.90589	25083.5125
1142.5369	24567.7125
1146.16542	24231.3125
1149.79145	24129.0125
1153.415	24267.2125
1157.03607	24649.0125
1160.65467	25309.5125
1164.27079	26393.7125
1167.88443	27929.6125
1171.49561	30316.5125
1175.10432	33934.7125
1178.71056	38772.7125
1182.31434	42567.9125
1185.91565	44193.5125
1189.51451	43819.8125
1193.11091	41807.6125
1196.70485	38967.0125
1200.29634	36411.1125
1203.88538	34262.7125
1207.47197	32244.6125
1211.05612	30497.2125
1214.63782	29548.4125
1218.21708	29321.8125
1221.79391	29319.5125
1225.36829	29411.1125
1228.94024	29554.6125
1232.50976	29550.1125
1236.07685	29500.0125
1239.6415	29373.2125
1243.20374	29219.1125
1246.76355	29243.3125
1250.32093	29617.1125
1253.8759	30367.4125
1257.42845	31424.9125
1260.97859	32531.4125
1264.52631	33527.0125
1268.07163	34633.6125
1271.61453	35668.4125
1275.15503	36707.1125
1278.69312	37392.3125
1282.22882	38011.5125
1285.76211	38856.7125
1289.29301	40086.1125
1292.82151	41421.7125
1296.34761	42899.1125
1299.87133	45024.5125
1303.39266	48181.1125
1306.9116	52827.2125
1310.42815	58273.2125
1313.94233	62393.0125
1317.45412	62906.2125
1320.96354	60714.5125
1324.47058	57764.5125
1327.97525	54898.3125
1331.47754	52852.2125
1334.97747	51858.1125
1338.47502	51713.0125
1341.97022	52005.7125
1345.46305	52366.2125
1348.95352	52888.6125
1352.44163	54149.0125
1355.92738	56894.4125
1359.41078	62425.6125
1362.89183	68592.4125
1366.37053	67861.8125
1369.84688	59325.4125
1373.32088	50063.3125
1376.79254	44110.4125
1380.26186	41411.0125
1383.72883	40221.3125
1387.19347	39333.8125
1390.65578	38392.1125
1394.11575	37853.6125
1397.57339	37927.3125
1401.0287	38538.2125
1404.48168	39442.6125
1407.93234	40172.3125
1411.38068	40421.7125
1414.82669	39744.1125
1418.27039	38461.8125
1421.71177	36899.0125
1425.15083	35491.3125
1428.58758	34584.1125
1432.02203	34367.9125
1435.45416	34602.7125
1438.88399	35006.6125
1442.31151	35402.4125
1445.73673	35722.9125
1449.15965	36249.7125
1452.58027	36513.8125
1455.9986	36532.4125
1459.41463	36740.7125
1462.82837	37195.0125
1466.23982	37979.2125
1469.64898	38757.1125
1473.05586	39305.1125
1476.46045	39469.5125
1479.86276	39719.8125
1483.26279	40062.4125
1486.66054	40561.7125
1490.05602	41311.2125
1493.44922	42381.3125
1496.84016	43902.7125
1500.22882	46361.2125
1503.61521	49847.5125
1506.99934	54330.7125
1510.38121	59014.5125
1513.76081	62011.9125
1517.13816	60649.2125
1520.51324	55602.7125
1523.88607	49731.1125
1527.25665	45482.1125
1530.62498	42874.6125
1533.99105	41228.6125
1537.35488	40192.6125
1540.71647	39431.3125
1544.07581	38815.7125
1547.4329	38302.6125
1550.78776	37785.7125
1554.14038	37660.8125
1557.49077	37903.0125
1560.83892	38377.0125
1564.18484	39087.3125
1567.52853	39673.0125
1570.86999	39942.2125
1574.20922	40306.7125
1577.54624	40288.3125
1580.88103	39176.3125
1584.2136	37862.6125
1587.54395	37670.9125
1590.87208	38999.7125
1594.19801	41474.1125
1597.52172	44348.4125
1600.84321	45403.7125
1604.16251	43667.0125
1607.47959	40320.6125
1610.79447	36859.5125
1614.10715	33586.0125
1617.41763	30860.7125
1620.7259	29037.9125
1624.03199	28092.5125
1627.33587	28104.9125
1630.63757	28886.5125
1633.93707	30683.4125
1637.23439	33503.9125
1640.52951	37115.7125
1643.82246	41501.6125
1647.11321	45728.2125
1650.40179	48210.0125
1653.68819	46792.7125
1656.97241	41005.0125
1660.25446	34160.5125
1663.53433	28969.7125
1666.81203	25721.1125
1670.08756	23702.8125
1673.36092	22501.0125
1676.63211	21728.7125
1679.90115	21186.5125
1683.16801	20784.8125
1686.43272	20523.6125
1689.69527	20300.6125
1692.95567	20131.2125
1696.2139	20036.2125
1699.46999	19993.3125
1702.72392	19940.8125
1705.97571	19869.4125
1709.22535	19824.7125
1712.47284	19796.8125
1715.71819	19743.7125
1718.96139	19752.7125
1722.20246	19671.7125
1725.44139	19619.0125
1728.67818	19468.4125
1731.91284	19283.6125
1735.14537	19191.3125
1738.37576	19077.9125
1741.60403	19030.2125
1744.83017	18971.2125
1748.05418	18920.4125
1751.27607	18867.6125
1754.49584	18845.8125
1757.71349	18821.2125
1760.92903	18779.1125
1764.14244	18783.3125
1767.35375	18739.5125
1770.56294	18676.5125
1773.77002	18654.1125
1776.97499	18574.0125
1780.17785	18552.2125
1783.37861	18482.9125
1786.57727	18454.1125
1789.77382	18424.2125
1792.96828	18390.6125
1796.16064	18375.2125
1799.3509	18360.5125
1802.53907	18318.7125
1805.72514	18255.8125
1808.90913	18228.5125
1812.09102	18173.3125
1815.27083	18153.1125
1818.44856	18107.8125
1821.6242	18101.8125
1824.79776	18074.5125
1827.96924	18071.4125
1831.13864	18020.1125
1834.30597	18035.9125
1837.47122	18004.4125
1840.6344	17985.5125
1843.7955	18032.9125
1846.95454	18083.6125
1850.11151	18043.4125
1853.26642	18039.7125
1856.41926	18068.8125
1859.57004	18066.2125
1862.71876	18070.8125
1865.86542	18124.9125
1869.01003	18158.4125
1872.15258	18132.9125
1875.29308	18158.2125
1878.43152	18187.2125
1881.56792	18184.0125
1884.70227	18238.3125
1887.83457	18256.4125
1890.96482	18260.9125
1894.09304	18310.5125
1897.21921	18336.4125
1900.34335	18316.6125
1903.46544	18341.4125
1906.58551	18323.6125
1909.70353	18347.1125
1912.81953	18346.5125
1915.93349	18354.8125
1919.04543	18335.4125
1922.15534	18324.1125
1925.26322	18258.9125
1928.36908	18167.4125
1931.47292	18060.2125
1934.57473	17936.0125
1937.67453	17866.4125
1940.77232	17733.3125
1943.86808	17607.0125
1946.96184	17531.2125
1950.05358	17430.4125
1953.14331	17338.6125
1956.23103	17295.0125
1959.31675	17203.7125
1962.40046	17163.2125
1965.48217	17115.6125
1968.56188	17077.4125
1971.63959	17015.1125
1974.7153	16960.1125
1977.78901	16906.3125
1980.86073	16834.1125
1983.93046	16787.9125
1986.99819	16712.5125
1990.06394	16662.6125
1993.1277	16609.8125
1996.18947	16544.1125
1999.24925	16503.4125
2002.30706	16442.5125
2005.36288	16386.9125
2008.41672	16335.5125
2011.46859	16307.0125
2014.51848	16282.1125
2017.56639	16221.7125
2020.61233	16216.1125
2023.6563	16168.9125
2026.6983	16112.3125
2029.73833	16068.5125
2032.7764	16048.3125
2035.8125	16003.9125
2038.84664	15954.7125
2041.87881	15979.0125
2044.90903	15909.6125
2047.93729	15910.0125
2050.96359	15874.6125
2053.98794	15888.2125
2057.01034	15844.0125
2060.03078	15847.1125
2063.04927	15820.9125
2066.06582	15796.4125
2069.08042	15781.0125
2072.09307	15769.0125
2075.10378	15729.5125
2078.11255	15723.8125
2081.11938	15717.3125
2084.12426	15711.7125
2087.12722	15686.2125
2090.12824	15688.3125
2093.12732	15709.1125
2096.12447	15689.6125
2099.11969	15717.5125
2102.11299	15715.2125
2105.10435	15692.4125
2108.09379	15693.3125
2111.08131	15671.4125
2114.0669	15702.4125
2117.05057	15728.7125
2120.03233	15715.6125
2123.01216	15738.7125
2125.99008	15787.2125
2128.96609	15770.2125
2131.94018	15790.5125
2134.91236	15783.6125
2137.88263	15785.5125
2140.851	15787.5125
2143.81746	15811.2125
2146.78201	15789.4125
2149.74466	15769.1125
2152.7054	15781.7125
2155.66425	15762.3125
2158.6212	15742.5125
2161.57625	15761.2125
2164.52941	15758.2125
2167.48067	15721.2125
2170.43004	15733.9125
2173.37752	15729.8125
2176.32311	15724.1125
2179.26681	15737.6125
2182.20863	15702.5125
2185.14856	15720.8125
2188.08661	15746.6125
2191.02278	15727.8125
2193.95707	15715.3125
2196.88948	15693.0125
2199.82001	15704.7125
2202.74867	15712.6125
2205.67545	15693.7125
2208.60037	15688.9125
2211.52341	15638.1125
2214.44458	15667.2125
2217.36388	15646.6125
2220.28132	15602.2125
2223.1969	15564.8125
2226.11061	15567.4125
2229.02246	15515.3125
2231.93245	15495.6125
2234.84058	15451.3125
2237.74686	15409.0125
2240.65128	15406.7125
2243.55385	15374.2125
2246.45456	15334.5125
2249.35343	15363.7125
2252.25044	15346.1125
2255.14561	15340.0125
2258.03893	15308.3125
2260.93041	15295.3125
2263.82004	15248.5125
2266.70783	15223.4125
2269.59378	15188.6125
2272.4779	15152.2125
2275.36017	15096.9125
2278.24061	15078.9125
2281.11922	15047.6125
2283.996	15025.3125
2286.87094	15011.8125
2289.74405	14953.4125
2292.61534	14942.3125
2295.4848	14919.3125
2298.35243	14942.7125
2301.21824	14935.7125
2304.08223	14930.4125
2306.94439	14918.8125
2309.80474	14929.5125
2312.66327	14940.5125
2315.51999	14945.8125
2318.37489	14901.7125
2321.22797	14894.1125
2324.07925	14895.4125
2326.92871	14859.4125
2329.77637	14870.9125
2332.62222	14867.9125
2335.46626	14869.1125
2338.3085	14861.3125
2341.14893	14845.3125
2343.98756	14904.1125
2346.8244	14897.8125
2349.65943	14909.3125
2352.49267	14912.6125
2355.32411	14884.3125
2358.15376	14918.6125
2360.98161	14913.3125
2363.80768	14920.1125
2366.63195	14913.7125
2369.45444	14871.1125
2372.27514	14867.8125
2375.09405	14834.9125
2377.91118	14821.1125
2380.72652	14772.3125
2383.54009	14707.9125
2386.35187	14651.7125
2389.16188	14623.3125
2391.97011	14601.1125
2394.77657	14536.9125
2397.58125	14511.6125
2400.38416	14513.1125
2403.18529	14506.8125
2405.98466	14448.0125
2408.78226	14421.2125
2411.57809	14417.5125
2414.37216	14380.0125
2417.16446	14378.2125
2419.955	14361.3125
2422.74378	14351.7125
2425.5308	14358.4125
2428.31606	14332.8125
2431.09956	14328.9125
2433.88131	14278.9125
2436.6613	14309.8125
2439.43954	14283.5125
2442.21603	14274.5125
2444.99077	14253.3125
2447.76377	14286.8125
2450.53501	14267.8125
2453.30451	14292.5125
2456.07226	14276.2125
2458.83827	14302.7125
2461.60254	14274.2125
2464.36507	14283.4125
2467.12586	14272.5125
2469.88492	14263.0125
2472.64224	14259.1125
2475.39782	14263.7125
2478.15167	14296.7125
2480.90379	14298.0125
2483.65417	14313.8125
2486.40283	14342.8125
2489.14976	14370.7125
2491.89497	14375.2125
2494.63845	14426.3125
2497.3802	14393.2125
2500.12024	14389.7125
2502.85855	14395.4125
2505.59514	14382.7125
2508.33002	14359.0125
2511.06318	14307.5125
2513.79462	14277.3125
2516.52435	14233.7125
2519.25237	14212.8125
2521.97867	14191.5125
2524.70327	14179.7125
2527.42616	14171.8125
2530.14734	14160.4125
2532.86681	14129.0125
2535.58458	14129.6125
2538.30065	14084.3125
2541.01501	14096.8125
2543.72768	14090.0125
2546.43864	14073.7125
2549.14791	14054.6125
2551.85548	14072.1125
2554.56136	14069.1125
2557.26554	14046.3125
2559.96803	14050.2125
2562.66883	14039.5125
2565.36794	14004.7125
2568.06536	13980.6125
2570.7611	13949.7125
2573.45514	13921.7125
2576.14751	13939.8125
2578.83819	13927.3125
2581.52719	13953.8125
2584.21451	13903.9125
2586.90015	13916.9125
2589.58411	13904.0125
2592.2664	13932.6125
2594.94701	13893.7125
2597.62594	13925.6125
2600.30321	13874.4125
2602.9788	13872.4125
2605.65273	13889.8125
2608.32498	13849.0125
2610.99557	13887.4125
2613.66449	13914.6125
2616.33175	13868.6125
2618.99734	13905.9125
2621.66128	13894.5125
2624.32355	13904.6125
2626.98416	13874.8125
2629.64311	13884.5125
2632.30041	13888.1125
2634.95605	13893.5125
2637.61004	13867.1125
2640.26238	13837.9125
2642.91306	13822.5125
2645.56209	13770.0125
2648.20948	13784.9125
2650.85521	13741.9125
2653.4993	13788.6125
2656.14175	13775.6125
2658.78255	13796.3125
2661.42171	13795.5125
2664.05923	13813.3125
2666.6951	13804.0125
2669.32934	13865.4125
2671.96194	13852.2125
2674.59291	13862.9125
2677.22224	13864.4125
2679.84993	13889.4125
2682.476	13849.5125
2685.10043	13857.6125
2687.72324	13885.9125
2690.34441	13845.0125
2692.96396	13825.5125
2695.58188	13852.3125
2698.19818	13809.4125
2700.81285	13848.8125
2703.4259	13839.7125
2706.03733	13878.5125
2708.64714	13877.7125
2711.25533	13858.1125
2713.86191	13810.7125
2716.46687	13859.5125
2719.07021	13844.1125
2721.67194	13870.2125
2724.27206	13842.4125
2726.87057	13846.1125
2729.46747	13840.6125
2732.06276	13852.4125
2734.65644	13817.9125
2737.24852	13849.2125
2739.83899	13814.5125
2742.42786	13833.5125
2745.01513	13797.4125
2747.60079	13800.0125
2750.18486	13790.5125
2752.76733	13798.3125
2755.3482	13813.0125
2757.92747	13782.6125
2760.50515	13793.7125
2763.08123	13785.5125
2765.65573	13766.3125
2768.22863	13724.7125
2770.79994	13735.2125
2773.36967	13721.2125
2775.9378	13723.3125
2778.50435	13731.9125
2781.06932	13723.7125
2783.6327	13713.7125
2786.1945	13720.4125
2788.75471	13709.1125
2791.31335	13676.2125
2793.87041	13634.7125
2796.42589	13640.3125
2798.97979	13618.1125
2801.53212	13605.9125
2804.08288	13586.8125
2806.63206	13593.4125
2809.17967	13558.4125
2811.72571	13542.8125
2814.27018	13541.2125
2816.81308	13529.1125
2819.35442	13530.1125
2821.89419	13516.7125
2824.43239	13512.9125
2826.96904	13545.9125
2829.50412	13540.9125
2832.03763	13512.3125
2834.56959	13496.3125
2837.1	13506.4125
2839.62884	13528.3125
2842.15613	13544.5125
2844.68186	13571.9125
2847.20604	13628.1125
2849.72867	13665.0125
2852.24974	13650.0125
2854.76927	13636.8125
2857.28724	13647.1125
2859.80367	13629.0125
2862.31855	13624.5125
2864.83189	13581.6125
2867.34368	13564.6125
2869.85393	13548.0125
2872.36264	13557.6125
2874.8698	13566.8125
2877.37543	13567.4125
2879.87952	13553.8125
2882.38207	13573.4125
2884.88308	13524.8125
2887.38256	13552.1125
2889.88051	13538.9125
2892.37692	13567.5125
2894.8718	13533.8125
2897.36515	13560.8125
2899.85698	13563.7125
2902.34727	13564.9125
2904.83604	13591.9125
2907.32328	13594.7125
2909.809	13597.5125
2912.29319	13601.6125
2914.77587	13582.6125
2917.25702	13549.4125
2919.73665	13553.5125
2922.21476	13546.5125
2924.69136	13554.8125
2927.16644	13544.3125
2929.64	13539.4125
2932.11205	13521.6125
2934.58258	13463.9125
2937.05161	13472.7125
2939.51912	13446.5125
2941.98513	13398.2125
2944.44962	13359.1125
2946.91261	13272.1125
2949.37409	13297.2125
2951.83407	13250.6125
2954.29254	13247.9125
2956.74951	13222.9125
2959.20498	13203.1125
2961.65895	13158.3125
2964.11142	13156.7125
2966.56239	13107.4125
2969.01186	13101.4125
2971.45984	13065.4125
2973.90632	13039.1125
2976.35131	12990.2125
2978.7948	12959.1125
2981.23681	12927.7125
2983.67732	12886.9125
2986.11635	12860.9125
2988.55388	12827.8125
2990.98993	12818.4125
2993.4245	12782.5125
2995.85758	12711.3125
2998.28917	12728.9125
3000.71928	12706.8125
3003.14791	12663.8125
3005.57506	12645.2125
3008.00073	12631.1125
3010.42493	12618.5125
3012.84764	12569.2125
3015.26888	12583.8125
3017.68865	12558.4125
3020.10694	12527.7125
3022.52376	12487.4125
