Data from AgNPs_FTO_APTES_UA_2uM_CRN_500uM_R6G_10uM_NaF_0.1M_Addition_RamanShift__18__17-19-35-418.txt Node

Date: Wed Feb 02 17:19:35 GMT 2022
User: TCL
Spectrometer: QEP01345
Trigger mode: 4
Integration Time (sec): 7.000000E0
Scans to average: 10
Electric dark correction enabled: true
Nonlinearity correction enabled: false
Boxcar width: 0
XAxis mode: Raman Shifts
Number of Pixels in Spectrum: 1044
>>>>>Begin Spectral Data<<<<<
46.04893	0.4125
50.45542	0.6125
54.85868	-0.8875
59.25871	-1.2875
63.6555	57.6125
68.04907	65.8125
72.43941	68.3125
76.82654	72.6125
81.21044	74.3125
85.59113	78.0125
89.96862	82.7125
94.34289	83.8125
98.71396	83.6125
103.08183	91.3125
107.4465	93.4125
111.80798	97.6125
116.16626	94.5125
120.52136	98.3125
124.87327	101.9125
129.222	110.6125
133.56755	118.4125
137.90993	124.5125
142.24913	137.2125
146.58517	156.7125
150.91804	178.2125
155.24774	213.1125
159.57429	263.6125
163.89768	339.6125
168.21792	451.4125
172.53501	607.6125
176.84895	858.2125
181.15975	1195.1125
185.46741	1685.8125
189.77193	2309.6125
194.07331	3094.3125
198.37157	3974.8125
202.6667	4885.1125
206.9587	5803.7125
211.24758	6709.3125
215.53334	7634.9125
219.81599	8604.4125
224.09553	9674.5125
228.37195	10807.2125
232.64527	12016.0125
236.91549	13338.0125
241.18261	14621.0125
245.44663	15867.8125
249.70755	17046.6125
253.96539	18057.1125
258.22014	18943.0125
262.4718	19658.4125
266.72039	20174.3125
270.96589	20464.1125
275.20832	20628.2125
279.44768	20720.2125
283.68397	20682.5125
287.91719	20675.1125
292.14735	20716.4125
296.37445	20819.5125
300.59849	20924.7125
304.81948	20908.2125
309.03742	20690.9125
313.25231	20310.1125
317.46415	19667.6125
321.67296	18982.5125
325.87872	18436.6125
330.08145	18161.9125
334.28114	18004.6125
338.47781	18030.2125
342.67145	18180.4125
346.86207	18388.5125
351.04966	18613.6125
355.23424	18940.6125
359.4158	19155.0125
363.59435	19286.1125
367.76989	19384.1125
371.94243	19471.8125
376.11196	19541.4125
380.27849	19647.5125
384.44203	19784.1125
388.60257	19999.4125
392.76012	20243.0125
396.91468	20558.7125
401.06626	20819.5125
405.21485	21036.5125
409.36047	20959.8125
413.50311	20762.5125
417.64277	20629.7125
421.77947	20673.4125
425.9132	20768.6125
430.04396	20996.2125
434.17176	21117.8125
438.2966	21293.9125
442.41849	21667.1125
446.53742	22272.5125
450.6534	22938.9125
454.76644	23527.0125
458.87653	23780.9125
462.98368	23795.9125
467.08789	23677.3125
471.18916	23510.4125
475.2875	23573.7125
479.38291	23752.7125
483.4754	23813.7125
487.56496	23487.4125
491.6516	22793.9125
495.73531	22057.2125
499.81612	21528.9125
503.89401	21411.3125
507.96899	21400.8125
512.04106	21287.6125
516.11023	21022.2125
520.1765	20604.4125
524.23987	20281.7125
528.30034	20063.4125
532.35792	19831.0125
536.41261	19642.7125
540.46441	19554.2125
544.51333	19666.2125
548.55936	20035.1125
552.60252	20689.7125
556.64279	21382.0125
560.6802	21976.7125
564.71473	22478.4125
568.7464	23089.2125
572.7752	23939.6125
576.80114	24596.2125
580.82422	25042.2125
584.84444	25245.3125
588.86181	25466.1125
592.87633	25608.5125
596.888	25340.1125
600.89682	24866.2125
604.9028	24898.9125
608.90594	25780.4125
612.90624	26472.4125
616.90371	24570.9125
620.89834	21163.2125
624.89015	19671.7125
628.87913	19552.8125
632.86528	19791.9125
636.84862	19901.4125
640.82913	19699.2125
644.80683	19244.0125
648.78172	18808.3125
652.75379	18592.5125
656.72306	18634.6125
660.68952	18764.3125
664.65319	18676.2125
668.61405	18472.6125
672.57211	18406.7125
676.52738	18473.5125
680.47986	18534.3125
684.42955	18515.9125
688.37646	18440.9125
692.32058	18403.0125
696.26192	18576.2125
700.20048	18802.2125
704.13626	18963.3125
708.06928	19030.5125
711.99952	18974.4125
715.927	18969.5125
719.85171	18965.0125
723.77365	18882.7125
727.69284	18696.3125
731.60928	18514.5125
735.52295	18417.7125
739.43388	18349.1125
743.34206	18388.7125
747.24749	18450.9125
751.15017	18673.9125
755.05012	19046.9125
758.94733	19725.8125
762.8418	20825.4125
766.73354	22259.4125
770.62254	23445.1125
774.50882	23366.5125
778.39237	22073.5125
782.27321	20474.2125
786.15132	19242.2125
790.02671	18522.8125
793.89938	18170.5125
797.76935	18052.8125
801.6366	18049.5125
805.50115	18033.6125
809.36299	17907.0125
813.22213	17813.3125
817.07857	17821.6125
820.93231	17779.6125
824.78336	17627.0125
828.63172	17426.3125
832.47738	17305.5125
836.32036	17285.1125
840.16066	17283.9125
843.99827	17278.3125
847.8332	17246.3125
851.66546	17138.5125
855.49504	17109.4125
859.32195	17131.4125
863.1462	17079.0125
866.96777	17013.9125
870.78668	16997.6125
874.60293	17006.6125
878.41652	16996.5125
882.22745	17010.5125
886.03573	17053.5125
889.84136	17088.4125
893.64433	17060.2125
897.44466	16979.5125
901.24235	16885.9125
905.0374	16801.3125
908.8298	16767.3125
912.61957	16834.0125
916.40671	17050.4125
920.19121	17360.7125
923.97308	17511.5125
927.75233	17332.9125
931.52895	17091.5125
935.30295	16758.3125
939.07433	16472.4125
942.84309	16189.5125
946.60924	16011.2125
950.37278	15937.1125
954.13371	15999.7125
957.89203	16025.2125
961.64774	16031.7125
965.40086	16025.3125
969.15137	15942.0125
972.89929	15751.6125
976.64461	15607.2125
980.38733	15541.7125
984.12747	15513.1125
987.86502	15580.4125
991.59999	15699.3125
995.33237	15841.6125
999.06217	16151.9125
1002.78939	16531.1125
1006.51404	16806.4125
1010.23611	17045.9125
1013.95561	17202.0125
1017.67255	17233.9125
1021.38692	17092.6125
1025.09872	16837.8125
1028.80796	16642.0125
1032.51465	16646.4125
1036.21877	16784.7125
1039.92035	16841.7125
1043.61937	16849.0125
1047.31584	16824.9125
1051.00976	16807.1125
1054.70114	16881.1125
1058.38998	17047.2125
1062.07627	17290.7125
1065.76003	17593.6125
1069.44126	17768.2125
1073.11995	18003.5125
1076.79611	18126.6125
1080.46974	18211.2125
1084.14085	18249.7125
1087.80943	18397.6125
1091.47549	18645.8125
1095.13903	18852.4125
1098.80005	18720.2125
1102.45857	18326.7125
1106.11456	17841.2125
1109.76805	17600.0125
1113.41903	17569.5125
1117.06751	17660.8125
1120.71348	17879.4125
1124.35696	18091.2125
1127.99793	18388.0125
1131.63641	18635.4125
1135.2724	18556.6125
1138.90589	18554.0125
1142.5369	18678.4125
1146.16542	18921.2125
1149.79145	19301.8125
1153.415	19732.1125
1157.03607	20314.7125
1160.65467	21130.0125
1164.27079	22249.9125
1167.88443	23629.1125
1171.49561	25160.4125
1175.10432	27016.2125
1178.71056	29224.7125
1182.31434	31323.1125
1185.91565	32490.1125
1189.51451	32618.9125
1193.11091	32145.9125
1196.70485	31351.3125
1200.29634	30252.5125
1203.88538	29342.8125
1207.47197	28896.6125
1211.05612	28583.5125
1214.63782	27993.0125
1218.21708	27101.7125
1221.79391	26111.7125
1225.36829	25352.3125
1228.94024	24692.7125
1232.50976	24045.4125
1236.07685	23619.4125
1239.6415	23423.2125
1243.20374	23402.5125
1246.76355	23598.3125
1250.32093	23956.1125
1253.8759	24468.3125
1257.42845	25209.5125
1260.97859	25976.3125
1264.52631	26717.2125
1268.07163	27441.6125
1271.61453	28253.9125
1275.15503	29169.0125
1278.69312	30146.0125
1282.22882	31257.8125
1285.76211	32537.8125
1289.29301	34278.4125
1292.82151	36324.7125
1296.34761	39026.4125
1299.87133	41785.5125
1303.39266	44302.8125
1306.9116	46337.3125
1310.42815	47906.0125
1313.94233	48832.1125
1317.45412	49127.9125
1320.96354	49166.5125
1324.47058	49307.3125
1327.97525	49537.7125
1331.47754	49653.6125
1334.97747	49704.6125
1338.47502	49493.5125
1341.97022	48887.4125
1345.46305	47778.5125
1348.95352	46172.5125
1352.44163	44555.6125
1355.92738	43553.6125
1359.41078	43368.2125
1362.89183	43389.2125
1366.37053	42405.4125
1369.84688	39738.8125
1373.32088	36391.8125
1376.79254	34176.8125
1380.26186	33645.4125
1383.72883	34296.7125
1387.19347	35016.4125
1390.65578	35540.5125
1394.11575	36091.4125
1397.57339	36984.7125
1401.0287	37994.0125
1404.48168	38648.5125
1407.93234	38554.6125
1411.38068	37382.4125
1414.82669	35410.7125
1418.27039	33026.8125
1421.71177	30782.7125
1425.15083	28931.0125
1428.58758	27906.4125
1432.02203	27873.9125
1435.45416	28646.8125
1438.88399	29875.3125
1442.31151	31053.3125
1445.73673	32066.5125
1449.15965	33000.8125
1452.58027	33744.2125
1455.9986	34262.4125
1459.41463	34635.2125
1462.82837	35034.5125
1466.23982	35427.0125
1469.64898	35712.1125
1473.05586	35615.1125
1476.46045	35329.4125
1479.86276	34689.4125
1483.26279	33833.8125
1486.66054	33195.4125
1490.05602	32811.0125
1493.44922	32711.0125
1496.84016	32645.2125
1500.22882	32844.7125
1503.61521	33342.8125
1506.99934	34106.5125
1510.38121	34774.9125
1513.76081	35098.1125
1517.13816	34929.4125
1520.51324	34445.2125
1523.88607	34137.1125
1527.25665	34222.6125
1530.62498	34501.5125
1533.99105	34764.6125
1537.35488	34616.3125
1540.71647	33970.9125
1544.07581	32997.8125
1547.4329	31891.4125
1550.78776	30883.4125
1554.14038	30151.2125
1557.49077	29816.9125
1560.83892	29642.6125
1564.18484	29597.2125
1567.52853	29605.0125
1570.86999	29902.4125
1574.20922	30665.7125
1577.54624	31568.9125
1580.88103	32398.0125
1584.2136	33352.5125
1587.54395	34773.5125
1590.87208	36483.6125
1594.19801	38399.3125
1597.52172	40061.0125
1600.84321	40244.4125
1604.16251	38250.0125
1607.47959	34935.4125
1610.79447	31343.9125
1614.10715	28082.1125
1617.41763	25446.7125
1620.7259	23634.7125
1624.03199	22582.7125
1627.33587	22512.7125
1630.63757	23284.3125
1633.93707	25062.2125
1637.23439	28086.6125
1640.52951	32342.3125
1643.82246	37102.1125
1647.11321	40796.8125
1650.40179	41422.1125
1653.68819	38405.9125
1656.97241	33083.6125
1660.25446	27700.9125
1663.53433	23373.5125
1666.81203	20473.6125
1670.08756	18542.4125
1673.36092	17309.2125
1676.63211	16563.8125
1679.90115	16008.2125
1683.16801	15600.4125
1686.43272	15312.4125
1689.69527	15053.2125
1692.95567	14886.8125
1696.2139	14761.6125
1699.46999	14681.5125
1702.72392	14602.3125
1705.97571	14490.0125
1709.22535	14404.1125
1712.47284	14351.2125
1715.71819	14287.4125
1718.96139	14204.5125
1722.20246	14123.5125
1725.44139	14021.4125
1728.67818	13933.2125
1731.91284	13850.1125
1735.14537	13790.7125
1738.37576	13726.8125
1741.60403	13674.5125
1744.83017	13576.3125
1748.05418	13590.5125
1751.27607	13573.0125
1754.49584	13544.8125
1757.71349	13551.9125
1760.92903	13528.4125
1764.14244	13521.2125
1767.35375	13464.3125
1770.56294	13432.3125
1773.77002	13366.3125
1776.97499	13296.5125
1780.17785	13249.0125
1783.37861	13197.9125
1786.57727	13178.6125
1789.77382	13122.7125
1792.96828	13102.5125
1796.16064	13035.6125
1799.3509	13035.3125
1802.53907	12949.5125
1805.72514	12941.5125
1808.90913	12882.5125
1812.09102	12872.6125
1815.27083	12836.8125
1818.44856	12822.5125
1821.6242	12760.2125
1824.79776	12752.9125
1827.96924	12727.3125
1831.13864	12700.9125
1834.30597	12699.4125
1837.47122	12721.8125
1840.6344	12711.4125
1843.7955	12709.7125
1846.95454	12701.3125
1850.11151	12695.9125
1853.26642	12690.0125
1856.41926	12678.1125
1859.57004	12669.1125
1862.71876	12662.1125
1865.86542	12607.9125
1869.01003	12604.6125
1872.15258	12606.2125
1875.29308	12588.6125
1878.43152	12586.8125
1881.56792	12577.4125
1884.70227	12519.2125
1887.83457	12532.4125
1890.96482	12484.1125
1894.09304	12495.2125
1897.21921	12458.0125
1900.34335	12468.9125
1903.46544	12442.0125
1906.58551	12430.8125
1909.70353	12442.2125
1912.81953	12400.3125
1915.93349	12344.3125
1919.04543	12333.2125
1922.15534	12286.6125
1925.26322	12263.2125
1928.36908	12228.0125
1931.47292	12206.4125
1934.57473	12156.2125
1937.67453	12122.1125
1940.77232	12055.4125
1943.86808	12054.7125
1946.96184	11994.1125
1950.05358	11940.2125
1953.14331	11919.6125
1956.23103	11872.9125
1959.31675	11847.3125
1962.40046	11798.7125
1965.48217	11777.5125
1968.56188	11718.7125
1971.63959	11684.0125
1974.7153	11653.5125
1977.78901	11613.5125
1980.86073	11583.9125
1983.93046	11551.1125
1986.99819	11505.0125
1990.06394	11497.2125
1993.1277	11443.1125
1996.18947	11386.5125
1999.24925	11334.0125
2002.30706	11308.7125
2005.36288	11294.1125
2008.41672	11246.6125
2011.46859	11216.2125
2014.51848	11169.9125
2017.56639	11142.3125
2020.61233	11117.5125
2023.6563	11106.5125
2026.6983	11059.7125
2029.73833	11055.1125
2032.7764	11046.3125
2035.8125	10999.8125
2038.84664	10964.8125
2041.87881	10961.9125
2044.90903	10920.6125
2047.93729	10891.7125
2050.96359	10929.9125
2053.98794	10890.4125
2057.01034	10883.6125
2060.03078	10867.6125
2063.04927	10837.8125
2066.06582	10860.1125
2069.08042	10858.4125
2072.09307	10843.2125
2075.10378	10795.7125
2078.11255	10786.0125
2081.11938	10806.6125
2084.12426	10801.7125
2087.12722	10788.9125
2090.12824	10780.1125
2093.12732	10767.0125
2096.12447	10750.5125
2099.11969	10767.3125
2102.11299	10763.4125
2105.10435	10755.4125
2108.09379	10760.9125
2111.08131	10783.6125
2114.0669	10771.4125
2117.05057	10780.8125
2120.03233	10785.6125
2123.01216	10768.4125
2125.99008	10789.0125
2128.96609	10749.0125
2131.94018	10768.0125
2134.91236	10785.2125
2137.88263	10769.7125
2140.851	10793.0125
2143.81746	10789.1125
2146.78201	10770.4125
2149.74466	10777.1125
2152.7054	10776.8125
2155.66425	10753.3125
2158.6212	10748.1125
2161.57625	10742.8125
2164.52941	10730.6125
2167.48067	10727.7125
2170.43004	10715.3125
2173.37752	10704.6125
2176.32311	10714.3125
2179.26681	10743.7125
2182.20863	10708.7125
2185.14856	10698.8125
2188.08661	10705.7125
2191.02278	10662.0125
2193.95707	10672.9125
2196.88948	10674.1125
2199.82001	10657.4125
2202.74867	10636.0125
2205.67545	10628.3125
2208.60037	10617.1125
2211.52341	10588.3125
2214.44458	10571.8125
2217.36388	10563.9125
2220.28132	10549.2125
2223.1969	10524.6125
2226.11061	10523.5125
2229.02246	10486.2125
2231.93245	10471.7125
2234.84058	10447.9125
2237.74686	10431.4125
2240.65128	10407.1125
2243.55385	10413.0125
2246.45456	10382.3125
2249.35343	10341.9125
2252.25044	10288.5125
2255.14561	10272.7125
2258.03893	10244.8125
2260.93041	10256.7125
2263.82004	10213.2125
2266.70783	10187.5125
2269.59378	10166.5125
2272.4779	10131.9125
2275.36017	10112.2125
2278.24061	10076.8125
2281.11922	10065.7125
2283.996	10063.3125
2286.87094	10038.7125
2289.74405	10003.7125
2292.61534	10014.6125
2295.4848	9974.4125
2298.35243	9997.1125
2301.21824	9982.4125
2304.08223	9965.5125
2306.94439	9962.4125
2309.80474	9939.8125
2312.66327	9954.1125
2315.51999	9944.5125
2318.37489	9938.7125
2321.22797	9920.1125
2324.07925	9914.8125
2326.92871	9892.5125
2329.77637	9881.4125
2332.62222	9861.5125
2335.46626	9876.8125
2338.3085	9846.1125
2341.14893	9837.8125
2343.98756	9852.0125
2346.8244	9845.3125
2349.65943	9837.1125
2352.49267	9831.1125
2355.32411	9837.5125
2358.15376	9842.7125
2360.98161	9832.2125
2363.80768	9791.4125
2366.63195	9804.4125
2369.45444	9811.4125
2372.27514	9778.2125
2375.09405	9780.7125
2377.91118	9765.3125
2380.72652	9715.2125
2383.54009	9707.8125
2386.35187	9695.2125
2389.16188	9649.1125
2391.97011	9646.0125
2394.77657	9635.1125
2397.58125	9626.7125
2400.38416	9593.7125
2403.18529	9576.8125
2405.98466	9549.0125
2408.78226	9525.5125
2411.57809	9551.1125
2414.37216	9535.3125
2417.16446	9522.8125
2419.955	9517.8125
2422.74378	9499.8125
2425.5308	9485.5125
2428.31606	9489.5125
2431.09956	9485.2125
2433.88131	9483.6125
2436.6613	9465.2125
2439.43954	9441.7125
2442.21603	9446.8125
2444.99077	9448.8125
2447.76377	9440.0125
2450.53501	9447.8125
2453.30451	9447.5125
2456.07226	9441.7125
2458.83827	9424.5125
2461.60254	9435.6125
2464.36507	9411.8125
2467.12586	9418.2125
2469.88492	9444.4125
2472.64224	9426.0125
2475.39782	9442.8125
2478.15167	9435.7125
2480.90379	9435.2125
2483.65417	9437.3125
2486.40283	9422.3125
2489.14976	9429.7125
2491.89497	9436.0125
2494.63845	9466.0125
2497.3802	9454.3125
2500.12024	9433.3125
2502.85855	9441.8125
2505.59514	9430.3125
2508.33002	9441.9125
2511.06318	9450.4125
2513.79462	9406.2125
2516.52435	9418.5125
2519.25237	9388.2125
2521.97867	9404.7125
2524.70327	9396.9125
2527.42616	9381.1125
2530.14734	9363.6125
2532.86681	9350.7125
2535.58458	9345.6125
2538.30065	9351.6125
2541.01501	9338.1125
2543.72768	9323.4125
2546.43864	9312.1125
2549.14791	9300.0125
2551.85548	9308.8125
2554.56136	9276.9125
2557.26554	9278.6125
2559.96803	9275.7125
2562.66883	9274.7125
2565.36794	9246.7125
2568.06536	9271.1125
2570.7611	9250.1125
2573.45514	9259.7125
2576.14751	9222.2125
2578.83819	9216.7125
2581.52719	9226.4125
2584.21451	9214.0125
2586.90015	9214.8125
2589.58411	9211.1125
2592.2664	9216.2125
2594.94701	9214.1125
2597.62594	9210.0125
2600.30321	9208.2125
2602.9788	9219.8125
2605.65273	9196.7125
2608.32498	9193.1125
2610.99557	9201.9125
2613.66449	9227.2125
2616.33175	9173.5125
2618.99734	9203.9125
2621.66128	9183.5125
2624.32355	9200.3125
2626.98416	9204.2125
2629.64311	9213.0125
2632.30041	9192.4125
2634.95605	9188.6125
2637.61004	9197.3125
2640.26238	9162.9125
2642.91306	9158.5125
2645.56209	9173.6125
2648.20948	9198.3125
2650.85521	9164.6125
2653.4993	9183.1125
2656.14175	9177.9125
2658.78255	9181.8125
2661.42171	9203.5125
2664.05923	9202.7125
2666.6951	9192.5125
2669.32934	9199.5125
2671.96194	9214.6125
2674.59291	9208.8125
2677.22224	9192.2125
2679.84993	9203.9125
2682.476	9208.7125
2685.10043	9198.5125
2687.72324	9207.9125
2690.34441	9209.3125
2692.96396	9202.4125
2695.58188	9207.7125
2698.19818	9202.3125
2700.81285	9188.5125
2703.4259	9213.0125
2706.03733	9226.5125
2708.64714	9211.9125
2711.25533	9247.6125
2713.86191	9231.9125
2716.46687	9251.4125
2719.07021	9208.9125
2721.67194	9232.9125
2724.27206	9228.9125
2726.87057	9248.2125
2729.46747	9255.4125
2732.06276	9254.8125
2734.65644	9274.2125
2737.24852	9254.0125
2739.83899	9276.9125
2742.42786	9253.0125
2745.01513	9241.3125
2747.60079	9264.4125
2750.18486	9256.6125
2752.76733	9258.2125
2755.3482	9275.4125
2757.92747	9263.2125
2760.50515	9253.3125
2763.08123	9253.4125
2765.65573	9299.3125
2768.22863	9283.0125
2770.79994	9237.3125
2773.36967	9248.7125
2775.9378	9263.5125
2778.50435	9261.5125
2781.06932	9279.8125
2783.6327	9247.9125
2786.1945	9258.7125
2788.75471	9249.0125
2791.31335	9227.6125
2793.87041	9246.6125
2796.42589	9206.8125
2798.97979	9207.1125
2801.53212	9210.8125
2804.08288	9191.7125
2806.63206	9172.7125
2809.17967	9152.7125
2811.72571	9135.4125
2814.27018	9135.6125
2816.81308	9105.4125
2819.35442	9069.4125
2821.89419	9074.1125
2824.43239	9071.3125
2826.96904	9069.0125
2829.50412	9037.2125
2832.03763	9031.2125
2834.56959	9054.1125
2837.1	9030.3125
2839.62884	9058.9125
2842.15613	9073.9125
2844.68186	9088.9125
2847.20604	9107.0125
2849.72867	9131.2125
2852.24974	9134.9125
2854.76927	9120.9125
2857.28724	9076.5125
2859.80367	9075.2125
2862.31855	9070.7125
2864.83189	9075.7125
2867.34368	9055.5125
2869.85393	9063.4125
2872.36264	9043.1125
2874.8698	9047.0125
2877.37543	9040.6125
2879.87952	9050.2125
2882.38207	9073.1125
2884.88308	9022.5125
2887.38256	9046.2125
2889.88051	9043.5125
2892.37692	9042.5125
2894.8718	9037.4125
2897.36515	9076.0125
2899.85698	9072.6125
2902.34727	9092.7125
2904.83604	9090.8125
2907.32328	9100.8125
2909.809	9118.3125
2912.29319	9125.0125
2914.77587	9107.7125
2917.25702	9110.2125
2919.73665	9094.0125
2922.21476	9128.2125
2924.69136	9106.8125
2927.16644	9095.8125
2929.64	9117.0125
2932.11205	9095.1125
2934.58258	9068.7125
2937.05161	9054.4125
2939.51912	9078.8125
2941.98513	9058.4125
2944.44962	9029.7125
2946.91261	8963.4125
2949.37409	8974.7125
2951.83407	8954.2125
2954.29254	8946.6125
2956.74951	8914.0125
2959.20498	8901.4125
2961.65895	8870.9125
2964.11142	8864.8125
2966.56239	8853.9125
2969.01186	8820.5125
2971.45984	8775.0125
2973.90632	8781.5125
2976.35131	8748.8125
2978.7948	8722.1125
2981.23681	8713.4125
2983.67732	8687.2125
2986.11635	8691.3125
2988.55388	8651.6125
2990.98993	8598.9125
2993.4245	8600.0125
2995.85758	8563.1125
2998.28917	8554.3125
3000.71928	8544.4125
3003.14791	8506.7125
3005.57506	8481.9125
3008.00073	8465.5125
3010.42493	8472.3125
3012.84764	8445.3125
3015.26888	8433.5125
3017.68865	8404.3125
3020.10694	8416.4125
3022.52376	8380.1125
3024.9391	8370.3125
3027.35298	8360.7125
3029.76539	8344.9125
3032.17632	8326.6125
3034.5858	8305.8125
3036.9938	8325.7125
3039.40034	8312.2125
3041.80542	8298.0125
3044.20903	8281.2125
3046.61118	8277.9125
3049.01187	8260.7125
3051.4111	8273.0125
3053.80888	8243.6125
3056.20519	8204.6125
