Data from AgNPs_FTO_APTES_UA_2uM_CRN_10uM_R6G_10uM_NaF_0.1M_Addition_RamanShift__15__13-35-35-157.txt Node

Date: Wed Feb 02 13:35:35 GMT 2022
User: TCL
Spectrometer: QEP01345
Trigger mode: 4
Integration Time (sec): 7.000000E0
Scans to average: 10
Electric dark correction enabled: true
Nonlinearity correction enabled: false
Boxcar width: 0
XAxis mode: Raman Shifts
Number of Pixels in Spectrum: 1044
>>>>>Begin Spectral Data<<<<<
46.04893	-0.05
50.45542	0.25
54.85868	-1.65
59.25871	-0.25
63.6555	89.95
68.04907	94.35
72.43941	100.75
76.82654	108.75
81.21044	105.75
85.59113	112.55
89.96862	115.45
94.34289	121.65
98.71396	126.55
103.08183	133.25
107.4465	137.05
111.80798	139.55
116.16626	138.75
120.52136	146.45
124.87327	149.35
129.222	160.75
133.56755	174.65
137.90993	189.85
142.24913	207.35
146.58517	236.35
150.91804	272.35
155.24774	336.75
159.57429	421.75
163.89768	539.85
168.21792	709.35
172.53501	979.25
176.84895	1371.45
181.15975	1925.85
185.46741	2717.45
189.77193	3733.55
194.07331	5003.95
198.37157	6443.25
202.6667	7955.45
206.9587	9469.85
211.24758	10958.25
215.53334	12434.95
219.81599	14027.55
224.09553	15729.15
228.37195	17619.65
232.64527	19710.15
236.91549	21900.85
241.18261	24128.45
245.44663	26172.85
249.70755	27980.25
253.96539	29616.95
258.22014	31028.15
262.4718	32170.85
266.72039	33016.75
270.96589	33501.45
275.20832	33590.85
279.44768	33495.95
283.68397	33222.25
287.91719	33020.85
292.14735	32892.15
296.37445	32948.65
300.59849	33064.85
304.81948	33203.75
309.03742	33120.05
313.25231	32792.45
317.46415	31982.75
321.67296	30995.45
325.87872	30106.65
330.08145	29711.35
334.28114	29616.75
338.47781	29796.85
342.67145	30106.15
346.86207	30533.45
351.04966	31068.85
355.23424	31680.95
359.4158	32168.45
363.59435	32532.75
367.76989	32793.05
371.94243	33001.55
376.11196	33126.85
380.27849	33264.05
384.44203	33403.85
388.60257	33664.25
392.76012	34001.35
396.91468	34438.15
401.06626	34998.65
405.21485	35323.15
409.36047	35124.85
413.50311	34653.65
417.64277	34185.75
421.77947	34091.25
425.9132	34143.15
430.04396	34246.55
434.17176	34392.35
438.2966	34558.55
442.41849	34989.45
446.53742	35720.85
450.6534	36529.85
454.76644	37168.35
458.87653	37538.15
462.98368	37593.85
467.08789	37376.95
471.18916	37126.15
475.2875	36874.55
479.38291	36818.95
483.4754	36697.05
487.56496	36330.45
491.6516	35736.75
495.73531	35130.05
499.81612	34756.75
503.89401	34858.25
507.96899	34998.65
512.04106	35020.45
516.11023	34817.65
520.1765	34546.85
524.23987	34156.35
528.30034	33746.45
532.35792	33346.15
536.41261	32974.95
540.46441	32726.45
544.51333	32794.25
548.55936	33253.95
552.60252	34079.05
556.64279	34832.85
560.6802	35473.85
564.71473	35911.45
568.7464	36519.35
572.7752	37533.95
576.80114	38465.15
580.82422	39230.05
584.84444	39900.55
588.86181	40407.95
592.87633	40440.65
596.888	39916.65
600.89682	39411.55
604.9028	40168.55
608.90594	43128.15
612.90624	46081.05
616.90371	43413.45
620.89834	36853.15
624.89015	33884.75
628.87913	33551.05
632.86528	33774.25
636.84862	33878.35
640.82913	33414.75
644.80683	32672.45
648.78172	32070.35
652.75379	31963.05
656.72306	32241.95
660.68952	32702.15
664.65319	32558.95
668.61405	32085.45
672.57211	31956.85
676.52738	32057.05
680.47986	32049.05
684.42955	31909.25
688.37646	31776.25
692.32058	31893.75
696.26192	32231.45
700.20048	32674.65
704.13626	32902.75
708.06928	32975.45
711.99952	32776.95
715.927	32765.85
719.85171	32811.65
723.77365	32653.45
727.69284	32269.75
731.60928	31870.65
735.52295	31653.05
739.43388	31595.45
743.34206	31648.65
747.24749	31846.05
751.15017	32170.85
755.05012	32711.65
758.94733	33750.05
762.8418	35324.55
766.73354	37743.25
770.62254	40044.45
774.50882	40542.75
778.39237	38779.45
782.27321	36253.05
786.15132	34041.35
790.02671	32708.25
793.89938	31987.95
797.76935	31660.95
801.6366	31539.75
805.50115	31457.65
809.36299	31238.05
813.22213	31051.25
817.07857	30909.85
820.93231	30893.85
824.78336	30771.55
828.63172	30658.95
832.47738	30527.65
836.32036	30450.55
840.16066	30470.45
843.99827	30521.15
847.8332	30519.25
851.66546	30407.45
855.49504	30411.05
859.32195	30407.85
863.1462	30408.05
866.96777	30296.15
870.78668	30258.65
874.60293	30234.55
878.41652	30229.25
882.22745	30307.85
886.03573	30432.35
889.84136	30419.85
893.64433	30346.65
897.44466	30198.05
901.24235	30164.45
905.0374	30063.45
908.8298	30030.55
912.61957	30105.35
916.40671	30357.65
920.19121	30741.75
923.97308	31045.95
927.75233	31039.95
931.52895	30754.75
935.30295	30315.25
939.07433	29762.25
942.84309	29373.55
946.60924	29136.05
950.37278	29056.15
954.13371	29012.05
957.89203	29006.05
961.64774	28960.35
965.40086	29053.25
969.15137	28922.05
972.89929	28822.35
976.64461	28689.55
980.38733	28652.05
984.12747	28671.25
987.86502	28844.55
991.59999	29062.65
995.33237	29344.15
999.06217	29818.35
1002.78939	30394.05
1006.51404	30844.45
1010.23611	31229.45
1013.95561	31527.45
1017.67255	31601.95
1021.38692	31365.85
1025.09872	30983.75
1028.80796	30853.65
1032.51465	31058.75
1036.21877	31463.85
1039.92035	31711.75
1043.61937	31594.85
1047.31584	31379.85
1051.00976	31075.55
1054.70114	31039.05
1058.38998	31212.25
1062.07627	31538.45
1065.76003	31972.35
1069.44126	32302.45
1073.11995	32760.15
1076.79611	33190.55
1080.46974	33402.65
1084.14085	33586.35
1087.80943	33935.85
1091.47549	34284.55
1095.13903	34399.05
1098.80005	34074.35
1102.45857	33348.65
1106.11456	32615.85
1109.76805	32229.75
1113.41903	32192.95
1117.06751	32329.65
1120.71348	32572.75
1124.35696	32926.25
1127.99793	33340.95
1131.63641	33611.05
1135.2724	33449.35
1138.90589	33289.45
1142.5369	33314.85
1146.16542	33517.05
1149.79145	33770.35
1153.415	34129.05
1157.03607	34732.55
1160.65467	35614.35
1164.27079	37078.85
1167.88443	38988.95
1171.49561	41159.25
1175.10432	43859.95
1178.71056	47234.85
1182.31434	50424.55
1185.91565	52390.45
1189.51451	52701.25
1193.11091	51830.55
1196.70485	50076.35
1200.29634	48007.15
1203.88538	46445.15
1207.47197	45382.45
1211.05612	44776.25
1214.63782	44046.85
1218.21708	42892.85
1221.79391	41727.15
1225.36829	40727.05
1228.94024	40119.35
1232.50976	39566.95
1236.07685	39211.25
1239.6415	38984.45
1243.20374	39016.55
1246.76355	39287.85
1250.32093	39875.25
1253.8759	40722.65
1257.42845	41759.55
1260.97859	43056.65
1264.52631	44184.85
1268.07163	45438.55
1271.61453	46633.05
1275.15503	47939.45
1278.69312	49226.65
1282.22882	50461.55
1285.76211	51972.65
1289.29301	53633.35
1292.82151	55781.25
1296.34761	58541.55
1299.87133	61723.95
1303.39266	65014.45
1306.9116	68063.25
1310.42815	70567.65
1313.94233	71778.25
1317.45412	71678.85
1320.96354	71093.95
1324.47058	70799.35
1327.97525	70688.95
1331.47754	70603.85
1334.97747	70468.95
1338.47502	70201.85
1341.97022	69940.75
1345.46305	69357.85
1348.95352	68326.15
1352.44163	67168.25
1355.92738	66777.95
1359.41078	67818.15
1362.89183	69020.65
1366.37053	67896.65
1369.84688	63264.65
1373.32088	57570.95
1376.79254	53509.45
1380.26186	51927.35
1383.72883	51859.55
1387.19347	51986.75
1390.65578	51795.75
1394.11575	51737.65
1397.57339	52042.65
1401.0287	52650.85
1404.48168	53129.15
1407.93234	52955.85
1411.38068	51794.45
1414.82669	49977.75
1418.27039	47871.95
1421.71177	45776.35
1425.15083	44220.35
1428.58758	43441.65
1432.02203	43670.95
1435.45416	44616.95
1438.88399	45954.95
1442.31151	47011.15
1445.73673	47759.15
1449.15965	48411.15
1452.58027	48979.55
1455.9986	49259.15
1459.41463	49702.65
1462.82837	50276.55
1466.23982	50878.55
1469.64898	51368.65
1473.05586	51585.75
1476.46045	51412.65
1479.86276	51022.15
1483.26279	50541.55
1486.66054	50231.75
1490.05602	50461.05
1493.44922	51154.45
1496.84016	52033.75
1500.22882	53513.95
1503.61521	55459.35
1506.99934	57659.45
1510.38121	59352.55
1513.76081	59752.95
1517.13816	58570.25
1520.51324	56631.45
1523.88607	55021.45
1527.25665	54209.55
1530.62498	53831.85
1533.99105	53497.75
1537.35488	52863.65
1540.71647	51811.45
1544.07581	50408.65
1547.4329	49064.95
1550.78776	48009.65
1554.14038	47261.65
1557.49077	46969.25
1560.83892	46857.15
1564.18484	46897.35
1567.52853	47116.35
1570.86999	47534.35
1574.20922	48338.35
1577.54624	49168.95
1580.88103	49607.85
1584.2136	50092.65
1587.54395	51074.35
1590.87208	53061.55
1594.19801	55423.75
1597.52172	57548.05
1600.84321	57809.45
1604.16251	55274.95
1607.47959	51452.05
1610.79447	47544.05
1614.10715	43760.95
1617.41763	40518.35
1620.7259	38196.25
1624.03199	36929.75
1627.33587	36832.05
1630.63757	37749.05
1633.93707	39927.35
1637.23439	43788.85
1640.52951	49055.75
1643.82246	55029.15
1647.11321	59603.85
1650.40179	60632.85
1653.68819	57142.25
1656.97241	50484.35
1660.25446	43479.05
1663.53433	37978.05
1666.81203	34225.75
1670.08756	31745.55
1673.36092	30245.85
1676.63211	29222.65
1679.90115	28479.15
1683.16801	27963.85
1686.43272	27620.15
1689.69527	27316.35
1692.95567	27088.15
1696.2139	26983.15
1699.46999	26837.75
1702.72392	26777.85
1705.97571	26622.85
1709.22535	26553.65
1712.47284	26444.95
1715.71819	26396.45
1718.96139	26340.15
1722.20246	26200.25
1725.44139	26077.85
1728.67818	25922.85
1731.91284	25808.65
1735.14537	25614.85
1738.37576	25488.15
1741.60403	25450.55
1744.83017	25339.85
1748.05418	25301.25
1751.27607	25202.95
1754.49584	25210.85
1757.71349	25190.35
1760.92903	25126.65
1764.14244	25077.65
1767.35375	25035.25
1770.56294	25031.25
1773.77002	24948.05
1776.97499	24899.15
1780.17785	24793.45
1783.37861	24747.15
1786.57727	24720.05
1789.77382	24638.45
1792.96828	24609.65
1796.16064	24585.45
1799.3509	24527.45
1802.53907	24472.05
1805.72514	24394.15
1808.90913	24338.75
1812.09102	24286.35
1815.27083	24242.35
1818.44856	24248.65
1821.6242	24191.55
1824.79776	24186.45
1827.96924	24164.25
1831.13864	24141.35
1834.30597	24146.65
1837.47122	24126.45
1840.6344	24143.15
1843.7955	24176.95
1846.95454	24173.05
1850.11151	24190.75
1853.26642	24163.55
1856.41926	24158.35
1859.57004	24103.05
1862.71876	24065.75
1865.86542	24021.35
1869.01003	24037.75
1872.15258	23961.85
1875.29308	23930.95
1878.43152	23883.75
1881.56792	23841.55
1884.70227	23859.15
1887.83457	23767.05
1890.96482	23765.35
1894.09304	23715.85
1897.21921	23705.75
1900.34335	23625.45
1903.46544	23590.85
1906.58551	23572.15
1909.70353	23490.75
1912.81953	23425.45
1915.93349	23365.65
1919.04543	23300.75
1922.15534	23304.35
1925.26322	23219.55
1928.36908	23174.75
1931.47292	23115.75
1934.57473	23042.55
1937.67453	23001.85
1940.77232	22929.15
1943.86808	22844.05
1946.96184	22777.75
1950.05358	22725.05
1953.14331	22663.85
1956.23103	22583.35
1959.31675	22498.95
1962.40046	22478.05
1965.48217	22379.25
1968.56188	22333.85
1971.63959	22240.15
1974.7153	22208.95
1977.78901	22141.85
1980.86073	22021.65
1983.93046	21997.45
1986.99819	21903.65
1990.06394	21850.75
1993.1277	21818.85
1996.18947	21733.35
1999.24925	21651.05
2002.30706	21573.55
2005.36288	21475.95
2008.41672	21430.05
2011.46859	21381.35
2014.51848	21299.55
2017.56639	21286.55
2020.61233	21228.65
2023.6563	21179.05
2026.6983	21149.95
2029.73833	21113.75
2032.7764	21060.05
2035.8125	20975.95
2038.84664	20941.45
2041.87881	20935.95
2044.90903	20885.95
2047.93729	20782.25
2050.96359	20862.05
2053.98794	20820.05
2057.01034	20760.75
2060.03078	20756.15
2063.04927	20705.55
2066.06582	20749.45
2069.08042	20696.35
2072.09307	20687.15
2075.10378	20675.45
2078.11255	20625.85
2081.11938	20618.25
2084.12426	20626.85
2087.12722	20588.05
2090.12824	20570.85
2093.12732	20594.25
2096.12447	20621.55
2099.11969	20617.25
2102.11299	20647.25
2105.10435	20626.35
2108.09379	20612.45
2111.08131	20616.25
2114.0669	20645.15
2117.05057	20631.95
2120.03233	20654.65
2123.01216	20675.65
2125.99008	20701.85
2128.96609	20716.15
2131.94018	20705.65
2134.91236	20707.35
2137.88263	20750.15
2140.851	20754.05
2143.81746	20750.65
2146.78201	20733.95
2149.74466	20750.65
2152.7054	20755.65
2155.66425	20689.15
2158.6212	20686.15
2161.57625	20677.95
2164.52941	20690.95
2167.48067	20678.95
2170.43004	20662.35
2173.37752	20636.45
2176.32311	20621.35
2179.26681	20635.65
2182.20863	20616.05
2185.14856	20634.95
2188.08661	20625.05
2191.02278	20648.95
2193.95707	20642.95
2196.88948	20565.55
2199.82001	20617.25
2202.74867	20575.05
2205.67545	20552.25
2208.60037	20478.95
2211.52341	20455.05
2214.44458	20462.45
2217.36388	20437.75
2220.28132	20386.95
2223.1969	20321.95
2226.11061	20339.05
2229.02246	20249.45
2231.93245	20268.65
2234.84058	20201.95
2237.74686	20173.85
2240.65128	20096.95
2243.55385	20100.35
2246.45456	20049.75
2249.35343	20043.95
2252.25044	20000.35
2255.14561	19948.15
2258.03893	19944.55
2260.93041	19899.55
2263.82004	19849.75
2266.70783	19829.55
2269.59378	19709.65
2272.4779	19695.15
2275.36017	19631.15
2278.24061	19587.05
2281.11922	19544.75
2283.996	19537.25
2286.87094	19464.15
2289.74405	19476.45
2292.61534	19478.55
2295.4848	19418.95
2298.35243	19427.35
2301.21824	19400.85
2304.08223	19372.65
2306.94439	19430.65
2309.80474	19426.95
2312.66327	19396.15
2315.51999	19355.95
2318.37489	19366.65
2321.22797	19286.25
2324.07925	19253.85
2326.92871	19225.05
2329.77637	19249.35
2332.62222	19218.75
2335.46626	19200.75
2338.3085	19145.85
2341.14893	19164.65
2343.98756	19189.55
2346.8244	19178.25
2349.65943	19176.35
2352.49267	19143.75
2355.32411	19165.15
2358.15376	19129.55
2360.98161	19105.75
2363.80768	19099.25
2366.63195	19127.85
2369.45444	19035.75
2372.27514	19032.95
2375.09405	18997.85
2377.91118	18985.65
2380.72652	18939.35
2383.54009	18864.35
2386.35187	18879.95
2389.16188	18817.55
2391.97011	18782.95
2394.77657	18752.15
2397.58125	18715.35
2400.38416	18687.05
2403.18529	18693.25
2405.98466	18653.35
2408.78226	18609.65
2411.57809	18632.45
2414.37216	18578.35
2417.16446	18551.45
2419.955	18530.15
2422.74378	18532.75
2425.5308	18524.65
2428.31606	18536.35
2431.09956	18502.95
2433.88131	18449.55
2436.6613	18485.75
2439.43954	18416.05
2442.21603	18441.45
2444.99077	18406.85
2447.76377	18383.75
2450.53501	18347.55
2453.30451	18360.35
2456.07226	18346.45
2458.83827	18368.45
2461.60254	18359.15
2464.36507	18364.05
2467.12586	18347.95
2469.88492	18329.05
2472.64224	18324.15
2475.39782	18305.45
2478.15167	18359.95
2480.90379	18324.35
2483.65417	18301.65
2486.40283	18306.15
2489.14976	18302.15
2491.89497	18311.95
2494.63845	18365.05
2497.3802	18307.65
2500.12024	18272.45
2502.85855	18268.05
2505.59514	18298.75
2508.33002	18278.45
2511.06318	18317.05
2513.79462	18246.85
2516.52435	18210.95
2519.25237	18201.45
2521.97867	18162.75
2524.70327	18215.45
2527.42616	18145.95
2530.14734	18156.25
2532.86681	18116.45
2535.58458	18117.95
2538.30065	18095.85
2541.01501	18035.35
2543.72768	18025.35
2546.43864	18014.65
2549.14791	17984.55
2551.85548	17970.75
2554.56136	17957.15
2557.26554	17968.35
2559.96803	17947.55
2562.66883	17923.65
2565.36794	17876.95
2568.06536	17889.55
2570.7611	17837.95
2573.45514	17808.25
2576.14751	17804.05
2578.83819	17783.95
2581.52719	17780.25
2584.21451	17753.45
2586.90015	17732.25
2589.58411	17698.25
2592.2664	17693.65
2594.94701	17691.65
2597.62594	17703.15
2600.30321	17630.95
2602.9788	17630.95
2605.65273	17593.65
2608.32498	17571.25
2610.99557	17576.65
2613.66449	17610.65
2616.33175	17618.85
2618.99734	17596.45
2621.66128	17550.95
2624.32355	17560.15
2626.98416	17541.45
2629.64311	17542.35
2632.30041	17537.95
2634.95605	17511.75
2637.61004	17519.15
2640.26238	17478.85
2642.91306	17461.25
2645.56209	17448.15
2648.20948	17424.85
2650.85521	17428.45
2653.4993	17435.55
2656.14175	17427.05
2658.78255	17460.85
2661.42171	17439.95
2664.05923	17484.35
2666.6951	17478.75
2669.32934	17504.85
2671.96194	17500.55
2674.59291	17481.35
2677.22224	17469.25
2679.84993	17477.85
2682.476	17447.95
2685.10043	17455.15
2687.72324	17452.85
2690.34441	17469.35
2692.96396	17428.75
2695.58188	17445.15
2698.19818	17424.25
2700.81285	17453.35
2703.4259	17422.35
2706.03733	17503.25
2708.64714	17476.55
2711.25533	17437.15
2713.86191	17443.35
2716.46687	17449.15
2719.07021	17437.45
2721.67194	17475.55
2724.27206	17442.55
2726.87057	17482.55
2729.46747	17477.65
2732.06276	17469.85
2734.65644	17463.95
2737.24852	17447.75
2739.83899	17447.45
2742.42786	17442.55
2745.01513	17417.15
2747.60079	17430.55
2750.18486	17402.95
2752.76733	17416.45
2755.3482	17419.45
2757.92747	17400.05
2760.50515	17374.95
2763.08123	17380.95
2765.65573	17366.25
2768.22863	17352.65
2770.79994	17306.35
2773.36967	17305.35
2775.9378	17308.05
2778.50435	17308.45
2781.06932	17260.45
2783.6327	17271.05
2786.1945	17278.95
2788.75471	17254.75
2791.31335	17200.45
2793.87041	17159.25
2796.42589	17124.85
2798.97979	17101.25
2801.53212	17072.35
2804.08288	17090.35
2806.63206	17023.65
2809.17967	17021.65
2811.72571	16957.85
2814.27018	16952.05
2816.81308	16909.55
2819.35442	16903.45
2821.89419	16856.15
2824.43239	16854.05
2826.96904	16839.45
2829.50412	16847.05
2832.03763	16788.85
2834.56959	16788.15
2837.1	16795.15
2839.62884	16799.75
2842.15613	16772.65
2844.68186	16793.45
2847.20604	16795.55
2849.72867	16789.25
2852.24974	16776.45
2854.76927	16761.05
2857.28724	16769.25
2859.80367	16734.15
2862.31855	16724.75
2864.83189	16685.15
2867.34368	16655.25
2869.85393	16649.45
2872.36264	16608.95
2874.8698	16633.05
2877.37543	16621.55
2879.87952	16633.55
2882.38207	16640.85
2884.88308	16592.25
2887.38256	16648.55
2889.88051	16637.05
2892.37692	16648.35
2894.8718	16639.95
2897.36515	16647.75
2899.85698	16658.75
2902.34727	16670.35
2904.83604	16663.05
2907.32328	16701.85
2909.809	16654.65
2912.29319	16644.95
2914.77587	16650.95
2917.25702	16640.35
2919.73665	16631.35
2922.21476	16650.35
2924.69136	16657.55
2927.16644	16640.05
2929.64	16622.45
2932.11205	16625.95
2934.58258	16571.35
2937.05161	16580.15
2939.51912	16615.65
2941.98513	16561.45
2944.44962	16547.95
2946.91261	16459.95
2949.37409	16478.65
2951.83407	16455.35
2954.29254	16438.25
2956.74951	16405.55
2959.20498	16398.15
2961.65895	16338.95
2964.11142	16337.05
2966.56239	16274.75
2969.01186	16302.35
2971.45984	16248.55
2973.90632	16229.05
2976.35131	16187.45
2978.7948	16162.95
2981.23681	16113.95
2983.67732	16090.75
2986.11635	16026.25
2988.55388	16005.65
2990.98993	15987.85
2993.4245	15924.65
2995.85758	15925.35
2998.28917	15854.15
3000.71928	15831.35
3003.14791	15818.05
3005.57506	15782.35
3008.00073	15729.85
3010.42493	15721.15
3012.84764	15688.05
3015.26888	15666.05
3017.68865	15641.15
3020.10694	15616.45
3022.52376	15591.55
3024.9391	15554.95
3027.35298	15506.25
3029.76539	15499.95
3032.17632	15462.55
3034.5858	15436.05
3036.9938	15452.65
3039.40034	15414.75
3041.80542	15437.55
3044.20903	15390.65
3046.61118	15382.45
3049.01187	15334.95
3051.4111	15318.15
3053.80888	15271.05
3056.20519	15244.75
3058.60005	15204.05
3060.99345	15172.15
3063.3854	15138.95
3065.7759	15106.75
3068.16494	15067.35
3070.55254	15010.35
3072.93868	14994.35
3075.32338	14936.25
3077.70662	14985.05
3080.08842	14866.35
3082.46878	14874.75
3084.84769	14816.75
3087.22515	14839.05
3089.60118	14829.35
3091.97576	14793.45
3094.3489	14774.35
3096.72061	14745.05
3099.09087	14769.25
3101.4597	14766.15
3103.82709	14762.45
3106.19305	14747.85
3108.55757	14694.35
3110.92066	14623.45
3113.28232	14620.55
3115.64255	14558.55
3118.00134	14557.95
3120.35871	14543.65
3122.71466	14483.25
3125.06917	14446.85
3127.42226	14403.05
3129.77393	14434.15
3132.12417	14405.15
3134.47299	14407.35
3136.82039	14395.55
3139.16636	14399.45
3141.51092	14392.45
3143.85406	14381.05
3146.19579	14374.85
3148.53609	14366.35
3150.87499	14377.45
3153.21246	14355.05
3155.54853	14380.35
3157.88318	14348.25
3160.21642	14350.75
3162.54826	14355.95
3164.87868	14336.75
3167.2077	14304.45
3169.5353	14300.55
3171.86151	14296.55
3174.18631	14274.25
3176.5097	14267.75
3178.83169	14267.75
3181.15228	14275.95
3183.47147	14222.55
3185.78926	14252.05
3188.10565	14226.55
3190.42065	14210.55
3192.73424	14194.15
3195.04645	14167.25
3197.35725	14174.75
3199.66667	14160.95
3201.97469	14183.45
3204.28132	14173.45
3206.58656	14163.45
3208.8904	14154.85
3211.19287	14175.85
3213.49394	14171.85
3215.79363	14148.45
3218.09193	14148.75
3220.38884	14126.35
3222.68438	14142.75
3224.97853	14091.15
3227.2713	14107.55
3229.56269	14093.85
3231.8527	14058.15
3234.14133	14006.65
3236.42858	14008.75
3238.71446	13986.45
