Data from AgNPs_FTO_APTES_UA_2uM_CRN_50uM_R6G_10uM_NaF_0.1M_Addition_RamanShift__14__14-52-35-246.txt Node

Date: Wed Feb 02 14:52:35 GMT 2022
User: TCL
Spectrometer: QEP01345
Trigger mode: 4
Integration Time (sec): 7.000000E0
Scans to average: 10
Electric dark correction enabled: true
Nonlinearity correction enabled: false
Boxcar width: 0
XAxis mode: Raman Shifts
Number of Pixels in Spectrum: 1044
>>>>>Begin Spectral Data<<<<<
46.04893	1.175
50.45542	0.275
54.85868	-1.325
59.25871	-0.925
63.6555	83.975
68.04907	92.075
72.43941	95.275
76.82654	101.875
81.21044	103.175
85.59113	108.275
89.96862	114.175
94.34289	118.975
98.71396	120.275
103.08183	129.975
107.4465	129.575
111.80798	133.175
116.16626	135.375
120.52136	144.275
124.87327	145.675
129.222	155.175
133.56755	165.075
137.90993	176.175
142.24913	193.875
146.58517	217.775
150.91804	253.475
155.24774	302.875
159.57429	374.875
163.89768	483.375
168.21792	630.675
172.53501	869.275
176.84895	1210.475
181.15975	1694.175
185.46741	2384.375
189.77193	3285.275
194.07331	4400.375
198.37157	5694.775
202.6667	7042.375
206.9587	8385.175
211.24758	9700.275
215.53334	11013.975
219.81599	12380.675
224.09553	13910.175
228.37195	15527.275
232.64527	17326.375
236.91549	19238.275
241.18261	21151.575
245.44663	22999.875
249.70755	24632.475
253.96539	26122.775
258.22014	27356.975
262.4718	28334.075
266.72039	29103.475
270.96589	29523.875
275.20832	29639.675
279.44768	29609.775
283.68397	29549.075
287.91719	29456.675
292.14735	29428.875
296.37445	29446.275
300.59849	29583.975
304.81948	29630.275
309.03742	29465.575
313.25231	29075.275
317.46415	28398.775
321.67296	27572.775
325.87872	26861.175
330.08145	26480.375
334.28114	26376.475
338.47781	26536.475
342.67145	26800.075
346.86207	27150.175
351.04966	27467.075
355.23424	27806.275
359.4158	28141.975
363.59435	28329.075
367.76989	28544.175
371.94243	28654.175
376.11196	28739.375
380.27849	28775.575
384.44203	28836.475
388.60257	29037.275
392.76012	29326.475
396.91468	29787.975
401.06626	30269.675
405.21485	30555.275
409.36047	30456.675
413.50311	30077.375
417.64277	29712.975
421.77947	29641.475
425.9132	29661.275
430.04396	29833.675
434.17176	29917.475
438.2966	30093.875
442.41849	30382.675
446.53742	30942.575
450.6534	31591.675
454.76644	32136.075
458.87653	32402.975
462.98368	32514.675
467.08789	32446.475
471.18916	32301.675
475.2875	32160.375
479.38291	32159.475
483.4754	32067.275
487.56496	31779.875
491.6516	31263.975
495.73531	30720.975
499.81612	30417.675
503.89401	30430.975
507.96899	30469.875
512.04106	30530.275
516.11023	30453.575
520.1765	30228.575
524.23987	29871.375
528.30034	29478.575
532.35792	29166.775
536.41261	28869.575
540.46441	28719.375
544.51333	28813.575
548.55936	29261.275
552.60252	29923.975
556.64279	30609.875
560.6802	31134.475
564.71473	31472.575
568.7464	32026.575
572.7752	32981.175
576.80114	34024.975
580.82422	34834.875
584.84444	35363.475
588.86181	35444.975
592.87633	35249.775
596.888	34799.375
600.89682	34364.875
604.9028	34717.575
608.90594	36457.275
612.90624	38230.875
616.90371	36066.775
620.89834	31346.475
624.89015	29194.175
628.87913	29036.875
632.86528	29299.275
636.84862	29424.575
640.82913	29181.875
644.80683	28592.175
648.78172	28091.375
652.75379	27927.975
656.72306	28147.375
660.68952	28427.975
664.65319	28397.375
668.61405	28086.775
672.57211	28038.775
676.52738	28058.175
680.47986	28073.475
684.42955	27946.575
688.37646	27846.675
692.32058	27939.975
696.26192	28150.075
700.20048	28415.275
704.13626	28669.375
708.06928	28859.875
711.99952	28812.975
715.927	28736.175
719.85171	28627.675
723.77365	28442.675
727.69284	28090.375
731.60928	27767.275
735.52295	27592.875
739.43388	27469.975
743.34206	27501.275
747.24749	27628.475
751.15017	27914.575
755.05012	28392.775
758.94733	29214.675
762.8418	30587.775
766.73354	32575.975
770.62254	34399.975
774.50882	34543.675
778.39237	32996.375
782.27321	30982.175
786.15132	29299.275
790.02671	28235.575
793.89938	27617.875
797.76935	27352.775
801.6366	27214.175
805.50115	27142.575
809.36299	27025.075
813.22213	26901.475
817.07857	26869.575
820.93231	26856.775
824.78336	26776.275
828.63172	26670.775
832.47738	26527.775
836.32036	26468.475
840.16066	26458.675
843.99827	26405.775
847.8332	26356.975
851.66546	26330.675
855.49504	26373.375
859.32195	26371.375
863.1462	26302.175
866.96777	26242.275
870.78668	26208.175
874.60293	26176.075
878.41652	26189.875
882.22745	26247.675
886.03573	26297.675
889.84136	26320.375
893.64433	26247.675
897.44466	26214.375
901.24235	26156.275
905.0374	26105.875
908.8298	26128.775
912.61957	26216.175
916.40671	26454.775
920.19121	26894.075
923.97308	27056.175
927.75233	26920.675
931.52895	26616.875
935.30295	26240.975
939.07433	25772.375
942.84309	25428.675
946.60924	25154.275
950.37278	25050.475
954.13371	25028.275
957.89203	25055.175
961.64774	25060.575
965.40086	25069.875
969.15137	24977.075
972.89929	24856.675
976.64461	24755.575
980.38733	24680.175
984.12747	24692.075
987.86502	24767.575
991.59999	24854.775
995.33237	24997.275
999.06217	25238.875
1002.78939	25496.975
1006.51404	25787.075
1010.23611	26098.475
1013.95561	26322.375
1017.67255	26373.575
1021.38692	26290.575
1025.09872	26028.075
1028.80796	25832.475
1032.51465	25794.475
1036.21877	25904.375
1039.92035	26050.675
1043.61937	26139.975
1047.31584	26209.575
1051.00976	26255.375
1054.70114	26394.275
1058.38998	26674.775
1062.07627	27053.075
1065.76003	27499.675
1069.44126	27839.075
1073.11995	28167.175
1076.79611	28485.075
1080.46974	28606.775
1084.14085	28637.475
1087.80943	28855.075
1091.47549	29093.475
1095.13903	29248.175
1098.80005	29061.775
1102.45857	28433.275
1106.11456	27810.775
1109.76805	27361.875
1113.41903	27229.675
1117.06751	27354.475
1120.71348	27552.775
1124.35696	27820.875
1127.99793	28238.175
1131.63641	28420.575
1135.2724	28357.675
1138.90589	28253.775
1142.5369	28328.075
1146.16542	28464.475
1149.79145	28822.475
1153.415	29164.475
1157.03607	29641.475
1160.65467	30376.075
1164.27079	31464.375
1167.88443	32904.475
1171.49561	34478.975
1175.10432	36496.575
1178.71056	38877.575
1182.31434	41150.075
1185.91565	42705.575
1189.51451	43249.975
1193.11091	43011.175
1196.70485	41922.575
1200.29634	40322.075
1203.88538	38958.775
1207.47197	38114.875
1211.05612	37577.375
1214.63782	36969.375
1218.21708	35974.475
1221.79391	34808.975
1225.36829	33863.075
1228.94024	33253.575
1232.50976	32903.675
1236.07685	32755.075
1239.6415	32682.675
1243.20374	32847.875
1246.76355	33042.475
1250.32093	33420.475
1253.8759	33986.975
1257.42845	34897.175
1260.97859	35778.875
1264.52631	36633.575
1268.07163	37495.775
1271.61453	38317.575
1275.15503	39137.475
1278.69312	40209.475
1282.22882	41062.875
1285.76211	42281.075
1289.29301	43667.375
1292.82151	45387.575
1296.34761	47388.575
1299.87133	49694.675
1303.39266	51806.875
1306.9116	53648.175
1310.42815	55036.675
1313.94233	55777.275
1317.45412	55741.175
1320.96354	55726.475
1324.47058	55838.075
1327.97525	56326.375
1331.47754	56681.575
1334.97747	57067.875
1338.47502	57491.575
1341.97022	57730.175
1345.46305	57896.975
1348.95352	57534.475
1352.44163	56508.375
1355.92738	55589.875
1359.41078	55258.875
1362.89183	55315.775
1366.37053	54015.175
1369.84688	50801.775
1373.32088	46763.075
1376.79254	43936.275
1380.26186	42845.675
1383.72883	42725.975
1387.19347	42899.675
1390.65578	42791.075
1394.11575	42689.275
1397.57339	42672.375
1401.0287	42924.375
1404.48168	42956.775
1407.93234	42581.575
1411.38068	41641.975
1414.82669	40173.775
1418.27039	38518.775
1421.71177	36944.375
1425.15083	35691.475
1428.58758	35016.475
1432.02203	35102.675
1435.45416	35650.575
1438.88399	36560.175
1442.31151	37352.775
1445.73673	38043.475
1449.15965	38685.675
1452.58027	39348.075
1455.9986	39725.775
1459.41463	40174.175
1462.82837	40667.875
1466.23982	41195.775
1469.64898	41595.775
1473.05586	41842.475
1476.46045	41759.875
1479.86276	41541.175
1483.26279	41296.275
1486.66054	41216.075
1490.05602	41432.375
1493.44922	42075.775
1496.84016	43010.275
1500.22882	44386.175
1503.61521	46120.875
1506.99934	48003.075
1510.38121	49255.975
1513.76081	49568.275
1517.13816	48812.775
1520.51324	47684.675
1523.88607	46661.775
1527.25665	46158.075
1530.62498	45861.275
1533.99105	45448.475
1537.35488	44707.975
1540.71647	43618.475
1544.07581	42330.175
1547.4329	41046.675
1550.78776	40004.275
1554.14038	39451.675
1557.49077	39185.375
1560.83892	39088.575
1564.18484	39230.075
1567.52853	39418.375
1570.86999	39689.075
1574.20922	40387.075
1577.54624	41034.775
1580.88103	41263.675
1584.2136	41394.875
1587.54395	41851.275
1590.87208	42813.175
1594.19801	44177.575
1597.52172	45533.075
1600.84321	45646.575
1604.16251	43963.175
1607.47959	41441.775
1610.79447	38846.075
1614.10715	36222.975
1617.41763	33860.075
1620.7259	32040.375
1624.03199	30927.175
1627.33587	30608.275
1630.63757	31129.875
1633.93707	32637.875
1637.23439	35161.475
1640.52951	38882.175
1643.82246	43340.675
1647.11321	47144.975
1650.40179	48688.775
1653.68819	47008.275
1656.97241	42462.175
1660.25446	37251.375
1663.53433	32722.375
1666.81203	29469.075
1670.08756	27246.175
1673.36092	25838.475
1676.63211	24803.875
1679.90115	24188.775
1683.16801	23777.775
1686.43272	23418.975
1689.69527	23105.575
1692.95567	22980.875
1696.2139	22813.375
1699.46999	22731.875
1702.72392	22628.875
1705.97571	22507.175
1709.22535	22385.175
1712.47284	22333.875
1715.71819	22249.275
1718.96139	22155.875
1722.20246	22099.575
1725.44139	21985.275
1728.67818	21858.675
1731.91284	21741.375
1735.14537	21633.775
1738.37576	21539.075
1741.60403	21433.275
1744.83017	21376.675
1748.05418	21352.775
1751.27607	21261.875
1754.49584	21234.875
1757.71349	21253.575
1760.92903	21223.275
1764.14244	21168.075
1767.35375	21125.975
1770.56294	21056.975
1773.77002	21001.475
1776.97499	20944.575
1780.17785	20932.875
1783.37861	20853.675
1786.57727	20802.375
1789.77382	20771.875
1792.96828	20709.475
1796.16064	20685.675
1799.3509	20591.675
1802.53907	20563.275
1805.72514	20504.975
1808.90913	20420.675
1812.09102	20402.875
1815.27083	20376.675
1818.44856	20352.875
1821.6242	20299.775
1824.79776	20294.775
1827.96924	20291.475
1831.13864	20215.775
1834.30597	20251.575
1837.47122	20245.575
1840.6344	20254.475
1843.7955	20287.575
1846.95454	20257.475
1850.11151	20203.675
1853.26642	20203.875
1856.41926	20154.375
1859.57004	20128.975
1862.71876	20112.975
1865.86542	20033.775
1869.01003	20059.375
1872.15258	20003.375
1875.29308	19987.875
1878.43152	19952.575
1881.56792	19870.975
1884.70227	19814.075
1887.83457	19791.775
1890.96482	19773.775
1894.09304	19741.275
1897.21921	19733.675
1900.34335	19670.575
1903.46544	19607.675
1906.58551	19622.075
1909.70353	19542.075
1912.81953	19513.675
1915.93349	19465.375
1919.04543	19425.875
1922.15534	19385.375
1925.26322	19367.475
1928.36908	19268.475
1931.47292	19252.875
1934.57473	19205.175
1937.67453	19137.575
1940.77232	19058.175
1943.86808	19066.975
1946.96184	19011.875
1950.05358	18926.875
1953.14331	18879.075
1956.23103	18838.675
1959.31675	18747.875
1962.40046	18684.675
1965.48217	18639.575
1968.56188	18588.075
1971.63959	18499.475
1974.7153	18488.175
1977.78901	18424.675
1980.86073	18347.975
1983.93046	18259.175
1986.99819	18200.875
1990.06394	18199.675
1993.1277	18087.975
1996.18947	18017.475
1999.24925	17985.675
2002.30706	17922.775
2005.36288	17871.075
2008.41672	17826.075
2011.46859	17760.475
2014.51848	17686.975
2017.56639	17609.175
2020.61233	17573.775
2023.6563	17524.275
2026.6983	17501.075
2029.73833	17427.575
2032.7764	17406.375
2035.8125	17370.275
2038.84664	17303.175
2041.87881	17291.575
2044.90903	17283.475
2047.93729	17203.975
2050.96359	17208.275
2053.98794	17135.875
2057.01034	17163.075
2060.03078	17145.175
2063.04927	17095.275
2066.06582	17082.075
2069.08042	17060.175
2072.09307	17049.075
2075.10378	17068.675
2078.11255	17028.375
2081.11938	17013.975
2084.12426	16981.775
2087.12722	16995.975
2090.12824	16990.875
2093.12732	16970.375
2096.12447	16965.075
2099.11969	16983.875
2102.11299	16993.175
2105.10435	17018.975
2108.09379	17015.875
2111.08131	17001.575
2114.0669	16991.375
2117.05057	17004.275
2120.03233	17031.975
2123.01216	17025.175
2125.99008	17045.975
2128.96609	17058.175
2131.94018	17040.875
2134.91236	17038.175
2137.88263	17040.275
2140.851	17017.275
2143.81746	17052.275
2146.78201	17049.675
2149.74466	17035.375
2152.7054	17043.275
2155.66425	17022.875
2158.6212	17013.075
2161.57625	17011.975
2164.52941	16977.575
2167.48067	16969.475
2170.43004	16935.675
2173.37752	16932.375
2176.32311	16912.075
2179.26681	16958.975
2182.20863	16909.075
2185.14856	16927.175
2188.08661	16875.075
2191.02278	16893.575
2193.95707	16909.275
2196.88948	16862.875
2199.82001	16875.175
2202.74867	16838.275
2205.67545	16798.875
2208.60037	16759.675
2211.52341	16732.075
2214.44458	16681.075
2217.36388	16687.875
2220.28132	16669.175
2223.1969	16634.075
2226.11061	16559.675
2229.02246	16532.475
2231.93245	16475.575
2234.84058	16444.975
2237.74686	16418.875
2240.65128	16427.075
2243.55385	16403.875
2246.45456	16373.775
2249.35343	16345.675
2252.25044	16298.675
2255.14561	16268.575
2258.03893	16265.075
2260.93041	16218.875
2263.82004	16174.075
2266.70783	16116.475
2269.59378	16070.875
2272.4779	16020.675
2275.36017	15953.975
2278.24061	15949.975
2281.11922	15933.875
2283.996	15900.575
2286.87094	15850.775
2289.74405	15826.275
2292.61534	15803.975
2295.4848	15778.375
2298.35243	15775.975
2301.21824	15749.875
2304.08223	15707.875
2306.94439	15708.075
2309.80474	15697.375
2312.66327	15700.875
2315.51999	15655.675
2318.37489	15647.175
2321.22797	15622.175
2324.07925	15623.675
2326.92871	15568.075
2329.77637	15524.175
2332.62222	15529.375
2335.46626	15486.775
2338.3085	15493.575
2341.14893	15453.875
2343.98756	15464.675
2346.8244	15418.875
2349.65943	15428.775
2352.49267	15456.175
2355.32411	15430.375
2358.15376	15392.175
2360.98161	15410.175
2363.80768	15377.075
2366.63195	15370.875
2369.45444	15361.075
2372.27514	15321.575
2375.09405	15315.775
2377.91118	15319.975
2380.72652	15265.075
2383.54009	15246.775
2386.35187	15239.575
2389.16188	15171.675
2391.97011	15142.875
2394.77657	15106.775
2397.58125	15091.875
2400.38416	15049.675
2403.18529	15027.275
2405.98466	15023.275
2408.78226	15007.475
2411.57809	14963.375
2414.37216	14961.575
2417.16446	14948.775
2419.955	14905.475
2422.74378	14909.475
2425.5308	14907.675
2428.31606	14886.975
2431.09956	14840.675
2433.88131	14846.075
2436.6613	14833.975
2439.43954	14803.675
2442.21603	14773.375
2444.99077	14771.675
2447.76377	14741.275
2450.53501	14734.775
2453.30451	14738.275
2456.07226	14700.975
2458.83827	14746.575
2461.60254	14695.175
2464.36507	14719.175
2467.12586	14700.375
2469.88492	14655.875
2472.64224	14658.175
2475.39782	14684.975
2478.15167	14652.875
2480.90379	14624.375
2483.65417	14623.075
2486.40283	14624.275
2489.14976	14619.475
2491.89497	14596.975
2494.63845	14613.375
2497.3802	14621.675
2500.12024	14561.075
2502.85855	14579.375
2505.59514	14553.375
2508.33002	14588.475
2511.06318	14587.175
2513.79462	14534.275
2516.52435	14520.975
2519.25237	14472.075
2521.97867	14495.075
2524.70327	14499.875
2527.42616	14449.875
2530.14734	14445.075
2532.86681	14412.775
2535.58458	14406.675
2538.30065	14370.675
2541.01501	14393.675
2543.72768	14331.475
2546.43864	14310.675
2549.14791	14258.475
2551.85548	14271.475
2554.56136	14249.375
2557.26554	14243.475
2559.96803	14223.975
2562.66883	14207.075
2565.36794	14177.575
2568.06536	14156.775
2570.7611	14142.675
2573.45514	14143.275
2576.14751	14098.675
2578.83819	14079.775
2581.52719	14062.475
2584.21451	14027.775
2586.90015	14035.275
2589.58411	13991.775
2592.2664	13996.475
2594.94701	13939.475
2597.62594	13934.675
2600.30321	13910.275
2602.9788	13906.175
2605.65273	13867.575
2608.32498	13895.875
2610.99557	13885.975
2613.66449	13870.575
2616.33175	13869.575
2618.99734	13838.975
2621.66128	13812.675
2624.32355	13836.075
2626.98416	13805.575
2629.64311	13794.175
2632.30041	13793.975
2634.95605	13788.275
2637.61004	13776.375
2640.26238	13724.575
2642.91306	13730.075
2645.56209	13711.375
2648.20948	13734.775
2650.85521	13679.675
2653.4993	13697.575
2656.14175	13728.975
2658.78255	13721.875
2661.42171	13713.975
2664.05923	13701.075
2666.6951	13705.175
2669.32934	13728.275
2671.96194	13697.075
2674.59291	13717.875
2677.22224	13690.375
2679.84993	13727.475
2682.476	13686.775
2685.10043	13697.675
2687.72324	13683.675
2690.34441	13661.675
2692.96396	13680.575
2695.58188	13690.675
2698.19818	13699.275
2700.81285	13676.475
2703.4259	13662.175
2706.03733	13701.075
2708.64714	13695.475
2711.25533	13703.675
2713.86191	13685.975
2716.46687	13727.575
2719.07021	13708.675
2721.67194	13722.275
2724.27206	13684.175
2726.87057	13733.475
2729.46747	13708.875
2732.06276	13715.075
2734.65644	13692.775
2737.24852	13651.675
2739.83899	13647.575
2742.42786	13627.075
2745.01513	13639.675
2747.60079	13605.275
2750.18486	13608.175
2752.76733	13588.475
2755.3482	13611.075
2757.92747	13617.375
2760.50515	13630.675
2763.08123	13634.875
2765.65573	13581.275
2768.22863	13586.075
2770.79994	13509.275
2773.36967	13509.075
2775.9378	13531.075
2778.50435	13505.375
2781.06932	13469.575
2783.6327	13481.875
2786.1945	13465.375
2788.75471	13465.575
2791.31335	13426.675
2793.87041	13388.375
2796.42589	13391.175
2798.97979	13375.975
2801.53212	13350.375
2804.08288	13334.975
2806.63206	13276.775
2809.17967	13261.375
2811.72571	13204.275
2814.27018	13223.975
2816.81308	13189.875
2819.35442	13181.775
2821.89419	13118.875
2824.43239	13127.975
2826.96904	13097.475
2829.50412	13093.575
2832.03763	13094.075
2834.56959	13081.075
2837.1	13060.675
2839.62884	13049.875
2842.15613	13049.975
2844.68186	13073.375
2847.20604	13088.075
2849.72867	13113.375
2852.24974	13067.675
2854.76927	13081.175
2857.28724	13030.075
2859.80367	13016.875
2862.31855	12969.775
2864.83189	12991.475
2867.34368	12958.175
2869.85393	12954.575
2872.36264	12950.975
2874.8698	12934.575
2877.37543	12912.775
2879.87952	12922.775
2882.38207	12910.075
2884.88308	12888.175
2887.38256	12889.875
2889.88051	12876.075
2892.37692	12880.975
2894.8718	12885.875
2897.36515	12880.875
2899.85698	12878.275
2902.34727	12888.775
2904.83604	12885.675
2907.32328	12926.575
2909.809	12888.175
2912.29319	12895.975
2914.77587	12877.675
2917.25702	12891.375
2919.73665	12862.875
2922.21476	12857.175
2924.69136	12891.975
2927.16644	12883.175
2929.64	12878.875
2932.11205	12871.675
2934.58258	12812.275
2937.05161	12831.075
2939.51912	12844.675
2941.98513	12828.775
2944.44962	12772.875
2946.91261	12680.075
2949.37409	12717.375
2951.83407	12685.875
2954.29254	12670.275
2956.74951	12655.775
2959.20498	12633.675
2961.65895	12613.175
2964.11142	12613.675
2966.56239	12567.075
2969.01186	12608.075
2971.45984	12519.675
2973.90632	12524.775
2976.35131	12480.775
2978.7948	12454.575
2981.23681	12421.575
2983.67732	12433.275
2986.11635	12366.975
2988.55388	12361.375
2990.98993	12333.275
2993.4245	12299.175
2995.85758	12282.675
2998.28917	12247.475
3000.71928	12243.575
3003.14791	12191.075
3005.57506	12171.875
3008.00073	12132.475
3010.42493	12094.475
3012.84764	12064.075
3015.26888	12098.475
3017.68865	12047.175
3020.10694	12047.875
3022.52376	12008.375
3024.9391	11973.175
3027.35298	11923.275
3029.76539	11947.675
3032.17632	11929.275
3034.5858	11905.075
3036.9938	11892.775
3039.40034	11898.875
3041.80542	11866.675
3044.20903	11832.375
3046.61118	11815.375
3049.01187	11756.475
3051.4111	11759.375
3053.80888	11717.775
3056.20519	11691.375
3058.60005	11684.075
3060.99345	11658.775
3063.3854	11640.675
3065.7759	11610.175
3068.16494	11563.575
3070.55254	11513.575
3072.93868	11507.975
3075.32338	11474.175
3077.70662	11448.175
3080.08842	11416.175
3082.46878	11396.875
3084.84769	11398.975
3087.22515	11388.075
3089.60118	11392.175
3091.97576	11352.175
3094.3489	11370.075
3096.72061	11342.275
3099.09087	11335.275
3101.4597	11315.475
3103.82709	11303.775
3106.19305	11285.675
3108.55757	11269.775
3110.92066	11211.175
3113.28232	11200.175
3115.64255	11165.775
3118.00134	11126.575
3120.35871	11102.075
3122.71466	11084.375
3125.06917	11057.875
3127.42226	11061.575
