Data from AgNPs_FTO_APTES_UA_2uM_CRN_200uM_R6G_10uM_NaF_0.1M_Addition_RamanShift__12__16-32-55-364.txt Node

Date: Wed Feb 02 16:32:55 GMT 2022
User: TCL
Spectrometer: QEP01345
Trigger mode: 4
Integration Time (sec): 7.000000E0
Scans to average: 10
Electric dark correction enabled: true
Nonlinearity correction enabled: false
Boxcar width: 0
XAxis mode: Raman Shifts
Number of Pixels in Spectrum: 1044
>>>>>Begin Spectral Data<<<<<
46.04893	0.9125
50.45542	0.8125
54.85868	-1.4875
59.25871	-0.7875
63.6555	62.3125
68.04907	68.1125
72.43941	68.2125
76.82654	73.7125
81.21044	78.6125
85.59113	83.2125
89.96862	83.5125
94.34289	90.0125
98.71396	89.3125
103.08183	95.0125
107.4465	97.7125
111.80798	98.2125
116.16626	98.8125
120.52136	103.1125
124.87327	106.2125
129.222	109.2125
133.56755	113.9125
137.90993	123.1125
142.24913	132.8125
146.58517	152.3125
150.91804	176.3125
155.24774	203.7125
159.57429	251.7125
163.89768	319.9125
168.21792	417.3125
172.53501	564.7125
176.84895	781.5125
181.15975	1096.5125
185.46741	1529.3125
189.77193	2114.8125
194.07331	2835.9125
198.37157	3658.4125
202.6667	4534.8125
206.9587	5387.0125
211.24758	6223.2125
215.53334	7078.7125
219.81599	7948.6125
224.09553	8910.2125
228.37195	9943.3125
232.64527	11095.7125
236.91549	12277.3125
241.18261	13507.1125
245.44663	14712.0125
249.70755	15774.3125
253.96539	16706.3125
258.22014	17453.1125
262.4718	18101.7125
266.72039	18569.5125
270.96589	18782.7125
275.20832	18868.6125
279.44768	18877.1125
283.68397	18769.0125
287.91719	18733.7125
292.14735	18713.9125
296.37445	18742.9125
300.59849	18790.2125
304.81948	18827.8125
309.03742	18768.5125
313.25231	18530.4125
317.46415	18150.3125
321.67296	17638.2125
325.87872	17215.1125
330.08145	16947.5125
334.28114	16851.2125
338.47781	16909.5125
342.67145	17012.4125
346.86207	17197.7125
351.04966	17334.5125
355.23424	17501.0125
359.4158	17600.2125
363.59435	17710.6125
367.76989	17798.8125
371.94243	17807.0125
376.11196	17847.6125
380.27849	17856.5125
384.44203	17933.2125
388.60257	18003.0125
392.76012	18199.5125
396.91468	18522.0125
401.06626	18853.6125
405.21485	19068.9125
409.36047	19063.4125
413.50311	18848.5125
417.64277	18741.0125
421.77947	18793.1125
425.9132	18910.2125
430.04396	19017.7125
434.17176	19140.5125
438.2966	19218.9125
442.41849	19406.6125
446.53742	19776.8125
450.6534	20210.4125
454.76644	20501.9125
458.87653	20682.9125
462.98368	20726.1125
467.08789	20657.4125
471.18916	20510.6125
475.2875	20414.7125
479.38291	20437.8125
483.4754	20412.0125
487.56496	20227.6125
491.6516	19904.8125
495.73531	19469.7125
499.81612	19189.0125
503.89401	19159.6125
507.96899	19195.6125
512.04106	19205.2125
516.11023	19119.5125
520.1765	18922.3125
524.23987	18692.9125
528.30034	18437.4125
532.35792	18238.4125
536.41261	18051.5125
540.46441	17942.2125
544.51333	17990.4125
548.55936	18298.9125
552.60252	18774.2125
556.64279	19173.6125
560.6802	19598.3125
564.71473	19862.7125
568.7464	20328.5125
572.7752	21145.0125
576.80114	22158.4125
580.82422	23006.1125
584.84444	23551.4125
588.86181	24007.5125
592.87633	24225.3125
596.888	23987.1125
600.89682	23177.5125
604.9028	22589.4125
608.90594	22895.1125
612.90624	23306.3125
616.90371	21897.7125
620.89834	19366.4125
624.89015	18285.4125
628.87913	18285.1125
632.86528	18551.9125
636.84862	18601.1125
640.82913	18285.4125
644.80683	17853.8125
648.78172	17577.5125
652.75379	17457.3125
656.72306	17550.8125
660.68952	17689.1125
664.65319	17670.1125
668.61405	17502.7125
672.57211	17505.6125
676.52738	17541.6125
680.47986	17547.9125
684.42955	17488.4125
688.37646	17455.3125
692.32058	17504.5125
696.26192	17623.9125
700.20048	17832.7125
704.13626	18006.4125
708.06928	18131.9125
711.99952	18216.6125
715.927	18116.4125
719.85171	18027.0125
723.77365	17819.6125
727.69284	17582.0125
731.60928	17332.0125
735.52295	17186.2125
739.43388	17092.2125
743.34206	17119.8125
747.24749	17218.9125
751.15017	17423.2125
755.05012	17797.0125
758.94733	18354.3125
762.8418	19178.0125
766.73354	20373.0125
770.62254	21353.8125
774.50882	21344.8125
778.39237	20378.1125
782.27321	19107.4125
786.15132	18149.9125
790.02671	17509.7125
793.89938	17162.3125
797.76935	16969.5125
801.6366	16876.7125
805.50115	16821.0125
809.36299	16754.2125
813.22213	16673.2125
817.07857	16665.3125
820.93231	16631.8125
824.78336	16609.7125
828.63172	16485.1125
832.47738	16387.6125
836.32036	16364.8125
840.16066	16328.3125
843.99827	16320.6125
847.8332	16294.6125
851.66546	16276.0125
855.49504	16297.2125
859.32195	16255.3125
863.1462	16211.4125
866.96777	16194.9125
870.78668	16174.1125
874.60293	16160.4125
878.41652	16150.8125
882.22745	16180.0125
886.03573	16183.5125
889.84136	16208.5125
893.64433	16187.5125
897.44466	16154.5125
901.24235	16144.2125
905.0374	16106.7125
908.8298	16109.5125
912.61957	16229.3125
916.40671	16471.9125
920.19121	16784.2125
923.97308	16932.6125
927.75233	16850.1125
931.52895	16552.0125
935.30295	16200.1125
939.07433	15887.5125
942.84309	15627.4125
946.60924	15427.4125
950.37278	15347.7125
954.13371	15295.2125
957.89203	15325.5125
961.64774	15334.9125
965.40086	15355.9125
969.15137	15292.1125
972.89929	15180.5125
976.64461	15089.7125
980.38733	15015.9125
984.12747	14979.3125
987.86502	15018.1125
991.59999	15063.7125
995.33237	15113.2125
999.06217	15227.9125
1002.78939	15424.9125
1006.51404	15572.8125
1010.23611	15802.3125
1013.95561	15939.1125
1017.67255	16011.8125
1021.38692	15924.3125
1025.09872	15792.4125
1028.80796	15624.0125
1032.51465	15526.4125
1036.21877	15546.3125
1039.92035	15659.7125
1043.61937	15743.7125
1047.31584	15844.3125
1051.00976	15919.7125
1054.70114	16078.6125
1058.38998	16273.4125
1062.07627	16535.9125
1065.76003	16842.7125
1069.44126	17104.0125
1073.11995	17353.6125
1076.79611	17493.4125
1080.46974	17521.3125
1084.14085	17523.8125
1087.80943	17622.3125
1091.47549	17822.1125
1095.13903	17957.9125
1098.80005	17846.1125
1102.45857	17392.1125
1106.11456	16926.8125
1109.76805	16614.9125
1113.41903	16503.4125
1117.06751	16553.0125
1120.71348	16717.4125
1124.35696	16877.6125
1127.99793	17152.6125
1131.63641	17346.2125
1135.2724	17316.3125
1138.90589	17266.1125
1142.5369	17379.0125
1146.16542	17566.9125
1149.79145	17851.4125
1153.415	18191.3125
1157.03607	18554.7125
1160.65467	19064.0125
1164.27079	19809.4125
1167.88443	20711.5125
1171.49561	21723.7125
1175.10432	22873.5125
1178.71056	24210.1125
1182.31434	25527.1125
1185.91565	26428.6125
1189.51451	26719.7125
1193.11091	26577.0125
1196.70485	26017.3125
1200.29634	25219.9125
1203.88538	24570.5125
1207.47197	24228.6125
1211.05612	24192.1125
1214.63782	23916.5125
1218.21708	23207.1125
1221.79391	22255.8125
1225.36829	21395.1125
1228.94024	20847.5125
1232.50976	20535.2125
1236.07685	20369.1125
1239.6415	20301.9125
1243.20374	20315.0125
1246.76355	20521.0125
1250.32093	20750.5125
1253.8759	21123.9125
1257.42845	21696.5125
1260.97859	22312.7125
1264.52631	22867.7125
1268.07163	23454.9125
1271.61453	24018.9125
1275.15503	24715.3125
1278.69312	25491.9125
1282.22882	26298.7125
1285.76211	27277.8125
1289.29301	28434.4125
1292.82151	29802.1125
1296.34761	31392.7125
1299.87133	33112.4125
1303.39266	34666.1125
1306.9116	35804.3125
1310.42815	36481.7125
1313.94233	36736.8125
1317.45412	36576.5125
1320.96354	36422.1125
1324.47058	36506.9125
1327.97525	36764.7125
1331.47754	37070.8125
1334.97747	37310.9125
1338.47502	37369.9125
1341.97022	37377.8125
1345.46305	37254.5125
1348.95352	36832.2125
1352.44163	36221.3125
1355.92738	35585.2125
1359.41078	35432.4125
1362.89183	35341.8125
1366.37053	34554.9125
1369.84688	32622.0125
1373.32088	30107.1125
1376.79254	28251.6125
1380.26186	27586.1125
1383.72883	27721.1125
1387.19347	27973.9125
1390.65578	27957.2125
1394.11575	27959.7125
1397.57339	28087.0125
1401.0287	28349.4125
1404.48168	28482.2125
1407.93234	28112.2125
1411.38068	27286.3125
1414.82669	26104.2125
1418.27039	24773.5125
1421.71177	23531.7125
1425.15083	22614.7125
1428.58758	22042.2125
1432.02203	22028.3125
1435.45416	22505.6125
1438.88399	23116.4125
1442.31151	23659.4125
1445.73673	24090.8125
1449.15965	24536.5125
1452.58027	24989.3125
1455.9986	25294.1125
1459.41463	25624.0125
1462.82837	26013.7125
1466.23982	26343.0125
1469.64898	26662.1125
1473.05586	26869.1125
1476.46045	26883.2125
1479.86276	26718.2125
1483.26279	26531.0125
1486.66054	26392.3125
1490.05602	26525.6125
1493.44922	26818.2125
1496.84016	27351.8125
1500.22882	28017.6125
1503.61521	28866.6125
1506.99934	29713.1125
1510.38121	30332.8125
1513.76081	30513.1125
1517.13816	30380.5125
1520.51324	30086.1125
1523.88607	29955.5125
1527.25665	30022.3125
1530.62498	30044.4125
1533.99105	29805.0125
1537.35488	29207.2125
1540.71647	28351.3125
1544.07581	27297.7125
1547.4329	26288.1125
1550.78776	25452.6125
1554.14038	24854.6125
1557.49077	24555.1125
1560.83892	24391.6125
1564.18484	24441.4125
1567.52853	24481.6125
1570.86999	24682.1125
1574.20922	25168.4125
1577.54624	25659.5125
1580.88103	26003.5125
1584.2136	26324.3125
1587.54395	26842.1125
1590.87208	27732.2125
1594.19801	28860.9125
1597.52172	29934.8125
1600.84321	30033.2125
1604.16251	28739.2125
1607.47959	26771.4125
1610.79447	24682.8125
1614.10715	22738.9125
1617.41763	21116.2125
1620.7259	19926.3125
1624.03199	19211.2125
1627.33587	19007.3125
1630.63757	19379.9125
1633.93707	20417.8125
1637.23439	22243.7125
1640.52951	25018.7125
1643.82246	28403.1125
1647.11321	31509.2125
1650.40179	32975.6125
1653.68819	31777.0125
1656.97241	28611.9125
1660.25446	24694.3125
1663.53433	21285.0125
1666.81203	18762.8125
1670.08756	17024.2125
1673.36092	15951.3125
1676.63211	15207.1125
1679.90115	14732.5125
1683.16801	14406.0125
1686.43272	14157.8125
1689.69527	13955.0125
1692.95567	13824.1125
1696.2139	13734.4125
1699.46999	13665.1125
1702.72392	13562.9125
1705.97571	13487.9125
1709.22535	13380.1125
1712.47284	13327.5125
1715.71819	13275.6125
1718.96139	13242.7125
1722.20246	13168.9125
1725.44139	13084.5125
1728.67818	13036.9125
1731.91284	12959.4125
1735.14537	12882.1125
1738.37576	12803.4125
1741.60403	12739.4125
1744.83017	12691.0125
1748.05418	12663.7125
1751.27607	12615.7125
1754.49584	12614.4125
1757.71349	12624.1125
1760.92903	12607.1125
1764.14244	12580.7125
1767.35375	12585.0125
1770.56294	12496.5125
1773.77002	12448.1125
1776.97499	12406.3125
1780.17785	12355.4125
1783.37861	12316.5125
1786.57727	12275.9125
1789.77382	12224.5125
1792.96828	12196.9125
1796.16064	12147.9125
1799.3509	12115.1125
1802.53907	12092.7125
1805.72514	12067.8125
1808.90913	12026.9125
1812.09102	11953.4125
1815.27083	11960.1125
1818.44856	11929.9125
1821.6242	11908.2125
1824.79776	11895.7125
1827.96924	11903.0125
1831.13864	11874.5125
1834.30597	11874.1125
1837.47122	11844.8125
1840.6344	11834.8125
1843.7955	11828.7125
1846.95454	11804.1125
1850.11151	11812.6125
1853.26642	11780.1125
1856.41926	11797.8125
1859.57004	11781.0125
1862.71876	11730.7125
1865.86542	11726.5125
1869.01003	11726.0125
1872.15258	11679.6125
1875.29308	11661.8125
1878.43152	11601.8125
1881.56792	11604.1125
1884.70227	11574.6125
1887.83457	11553.5125
1890.96482	11511.7125
1894.09304	11513.7125
1897.21921	11502.0125
1900.34335	11482.4125
1903.46544	11421.1125
1906.58551	11441.9125
1909.70353	11406.8125
1912.81953	11371.7125
1915.93349	11362.7125
1919.04543	11313.7125
1922.15534	11281.9125
1925.26322	11266.8125
1928.36908	11238.8125
1931.47292	11209.5125
1934.57473	11155.0125
1937.67453	11138.7125
1940.77232	11104.0125
1943.86808	11054.8125
1946.96184	11027.4125
1950.05358	10996.9125
1953.14331	10976.6125
1956.23103	10933.2125
1959.31675	10884.3125
1962.40046	10860.8125
1965.48217	10821.1125
1968.56188	10770.3125
1971.63959	10730.0125
1974.7153	10706.9125
1977.78901	10653.3125
1980.86073	10626.7125
1983.93046	10573.2125
1986.99819	10516.4125
1990.06394	10512.2125
1993.1277	10470.0125
1996.18947	10443.4125
1999.24925	10403.3125
2002.30706	10351.3125
2005.36288	10320.6125
2008.41672	10255.4125
2011.46859	10261.6125
2014.51848	10187.7125
2017.56639	10161.1125
2020.61233	10149.0125
2023.6563	10137.4125
2026.6983	10081.6125
2029.73833	10079.6125
2032.7764	10032.0125
2035.8125	10022.2125
2038.84664	10000.3125
2041.87881	9983.5125
2044.90903	9946.9125
2047.93729	9924.1125
2050.96359	9895.1125
2053.98794	9905.5125
2057.01034	9884.9125
2060.03078	9852.1125
2063.04927	9869.7125
2066.06582	9828.8125
2069.08042	9805.4125
2072.09307	9830.7125
2075.10378	9822.4125
2078.11255	9783.1125
2081.11938	9791.1125
2084.12426	9772.3125
2087.12722	9765.7125
2090.12824	9762.7125
2093.12732	9747.7125
2096.12447	9775.6125
2099.11969	9767.2125
2102.11299	9767.4125
2105.10435	9774.0125
2108.09379	9781.7125
2111.08131	9737.4125
2114.0669	9759.6125
2117.05057	9765.0125
2120.03233	9755.2125
2123.01216	9780.3125
2125.99008	9774.0125
2128.96609	9771.5125
2131.94018	9777.7125
2134.91236	9744.6125
2137.88263	9736.2125
2140.851	9734.8125
2143.81746	9748.6125
2146.78201	9761.3125
2149.74466	9733.2125
2152.7054	9738.5125
2155.66425	9714.1125
2158.6212	9709.2125
2161.57625	9702.7125
2164.52941	9689.9125
2167.48067	9674.1125
2170.43004	9690.9125
2173.37752	9671.6125
2176.32311	9657.9125
2179.26681	9618.5125
2182.20863	9629.9125
2185.14856	9671.5125
2188.08661	9653.7125
2191.02278	9632.0125
2193.95707	9599.6125
2196.88948	9595.4125
2199.82001	9597.7125
2202.74867	9575.5125
2205.67545	9550.0125
2208.60037	9527.4125
2211.52341	9505.6125
2214.44458	9472.2125
2217.36388	9457.9125
2220.28132	9453.9125
2223.1969	9425.0125
2226.11061	9418.6125
2229.02246	9387.8125
2231.93245	9380.0125
2234.84058	9341.5125
2237.74686	9329.0125
2240.65128	9336.0125
2243.55385	9321.2125
2246.45456	9310.0125
2249.35343	9275.7125
2252.25044	9244.3125
2255.14561	9251.8125
2258.03893	9206.8125
2260.93041	9157.7125
2263.82004	9130.0125
2266.70783	9121.5125
2269.59378	9074.3125
2272.4779	9053.9125
2275.36017	9009.1125
2278.24061	9005.8125
2281.11922	8972.9125
2283.996	8958.0125
2286.87094	8946.3125
2289.74405	8906.9125
2292.61534	8899.9125
2295.4848	8888.7125
2298.35243	8869.5125
2301.21824	8879.1125
2304.08223	8855.5125
2306.94439	8844.6125
2309.80474	8829.0125
2312.66327	8829.3125
2315.51999	8802.9125
2318.37489	8793.3125
2321.22797	8785.9125
2324.07925	8758.9125
2326.92871	8749.8125
2329.77637	8727.8125
2332.62222	8741.7125
2335.46626	8715.5125
2338.3085	8696.4125
2341.14893	8674.8125
2343.98756	8656.4125
2346.8244	8655.3125
2349.65943	8668.2125
2352.49267	8679.2125
2355.32411	8667.1125
2358.15376	8645.2125
2360.98161	8635.0125
2363.80768	8650.6125
2366.63195	8623.4125
2369.45444	8630.4125
2372.27514	8594.2125
2375.09405	8605.3125
2377.91118	8574.7125
2380.72652	8562.2125
2383.54009	8548.1125
2386.35187	8547.8125
2389.16188	8501.3125
2391.97011	8460.5125
2394.77657	8458.0125
2397.58125	8434.5125
2400.38416	8427.7125
2403.18529	8406.1125
2405.98466	8379.6125
2408.78226	8370.0125
2411.57809	8378.3125
2414.37216	8357.6125
2417.16446	8376.5125
2419.955	8362.0125
2422.74378	8339.6125
2425.5308	8314.2125
2428.31606	8314.5125
2431.09956	8301.1125
2433.88131	8271.7125
2436.6613	8278.3125
2439.43954	8260.0125
2442.21603	8250.8125
2444.99077	8226.2125
2447.76377	8251.9125
2450.53501	8238.8125
2453.30451	8229.0125
2456.07226	8219.5125
2458.83827	8191.2125
2461.60254	8212.0125
2464.36507	8197.8125
2467.12586	8196.6125
2469.88492	8168.2125
2472.64224	8179.4125
2475.39782	8170.3125
2478.15167	8164.8125
2480.90379	8168.6125
2483.65417	8163.8125
2486.40283	8162.2125
2489.14976	8151.9125
2491.89497	8143.5125
2494.63845	8148.8125
2497.3802	8120.6125
2500.12024	8127.6125
2502.85855	8108.2125
2505.59514	8121.6125
2508.33002	8115.3125
2511.06318	8111.1125
2513.79462	8077.1125
2516.52435	8085.2125
2519.25237	8067.4125
2521.97867	8048.7125
2524.70327	8034.6125
2527.42616	8017.5125
2530.14734	8026.0125
2532.86681	7989.9125
2535.58458	8018.1125
2538.30065	8005.4125
2541.01501	7986.8125
2543.72768	7974.3125
2546.43864	7952.6125
2549.14791	7932.8125
2551.85548	7933.6125
2554.56136	7922.8125
2557.26554	7927.4125
2559.96803	7901.5125
2562.66883	7885.8125
2565.36794	7873.6125
2568.06536	7878.6125
2570.7611	7881.3125
2573.45514	7870.0125
2576.14751	7839.4125
2578.83819	7826.2125
2581.52719	7799.7125
2584.21451	7821.9125
2586.90015	7822.3125
2589.58411	7786.9125
2592.2664	7775.6125
2594.94701	7755.0125
2597.62594	7732.6125
2600.30321	7738.0125
2602.9788	7722.7125
2605.65273	7715.8125
2608.32498	7720.3125
2610.99557	7709.3125
2613.66449	7708.7125
2616.33175	7693.1125
2618.99734	7699.7125
2621.66128	7688.2125
2624.32355	7667.6125
2626.98416	7656.4125
2629.64311	7661.8125
2632.30041	7662.5125
2634.95605	7639.8125
2637.61004	7653.9125
2640.26238	7623.1125
2642.91306	7634.1125
2645.56209	7642.2125
2648.20948	7650.0125
2650.85521	7643.7125
2653.4993	7621.3125
2656.14175	7599.8125
2658.78255	7618.0125
2661.42171	7627.5125
2664.05923	7630.9125
2666.6951	7637.0125
2669.32934	7642.0125
2671.96194	7621.5125
2674.59291	7609.9125
2677.22224	7603.1125
2679.84993	7624.8125
2682.476	7604.6125
2685.10043	7607.8125
2687.72324	7616.0125
2690.34441	7590.9125
2692.96396	7603.0125
2695.58188	7621.0125
2698.19818	7606.4125
2700.81285	7592.3125
2703.4259	7597.5125
2706.03733	7658.4125
2708.64714	7628.2125
2711.25533	7625.8125
2713.86191	7601.6125
2716.46687	7613.7125
2719.07021	7609.4125
2721.67194	7619.1125
2724.27206	7590.7125
2726.87057	7622.3125
2729.46747	7627.1125
2732.06276	7617.8125
2734.65644	7616.0125
2737.24852	7585.0125
2739.83899	7587.5125
2742.42786	7579.4125
2745.01513	7554.2125
2747.60079	7562.4125
2750.18486	7538.4125
2752.76733	7556.8125
2755.3482	7550.8125
2757.92747	7557.2125
2760.50515	7548.2125
2763.08123	7579.2125
2765.65573	7557.6125
2768.22863	7532.7125
2770.79994	7527.5125
2773.36967	7524.9125
2775.9378	7515.5125
2778.50435	7491.5125
2781.06932	7486.0125
2783.6327	7488.2125
2786.1945	7463.0125
2788.75471	7458.6125
2791.31335	7446.5125
2793.87041	7441.7125
2796.42589	7440.9125
2798.97979	7434.7125
2801.53212	7409.6125
2804.08288	7410.6125
2806.63206	7384.2125
2809.17967	7376.8125
2811.72571	7361.5125
2814.27018	7346.4125
2816.81308	7340.8125
2819.35442	7313.4125
2821.89419	7309.1125
2824.43239	7296.2125
2826.96904	7277.0125
2829.50412	7277.0125
2832.03763	7285.9125
2834.56959	7267.1125
2837.1	7278.4125
2839.62884	7274.0125
2842.15613	7280.5125
2844.68186	7315.2125
2847.20604	7318.4125
2849.72867	7354.5125
2852.24974	7345.9125
2854.76927	7337.0125
2857.28724	7360.0125
2859.80367	7332.4125
2862.31855	7316.6125
2864.83189	7305.8125
2867.34368	7270.7125
2869.85393	7265.9125
2872.36264	7253.6125
2874.8698	7258.0125
2877.37543	7244.6125
2879.87952	7236.0125
2882.38207	7235.4125
2884.88308	7246.9125
2887.38256	7236.0125
2889.88051	7216.9125
2892.37692	7225.9125
2894.8718	7225.8125
2897.36515	7221.6125
2899.85698	7229.7125
2902.34727	7236.4125
2904.83604	7244.0125
2907.32328	7242.8125
2909.809	7247.8125
2912.29319	7232.1125
2914.77587	7230.6125
2917.25702	7257.2125
2919.73665	7218.5125
2922.21476	7219.9125
2924.69136	7207.6125
2927.16644	7241.8125
2929.64	7225.6125
2932.11205	7238.4125
2934.58258	7205.3125
2937.05161	7212.4125
2939.51912	7208.6125
2941.98513	7187.6125
2944.44962	7146.4125
2946.91261	7104.1125
2949.37409	7100.8125
2951.83407	7069.7125
2954.29254	7071.1125
2956.74951	7059.2125
2959.20498	7060.6125
2961.65895	7047.1125
2964.11142	7019.3125
2966.56239	7010.7125
2969.01186	6997.2125
2971.45984	6970.0125
2973.90632	6965.5125
2976.35131	6937.4125
2978.7948	6900.1125
2981.23681	6885.6125
2983.67732	6870.4125
2986.11635	6848.6125
2988.55388	6837.3125
2990.98993	6812.6125
2993.4245	6810.8125
2995.85758	6788.9125
2998.28917	6771.5125
3000.71928	6763.0125
3003.14791	6743.8125
3005.57506	6739.9125
3008.00073	6713.7125
3010.42493	6675.1125
3012.84764	6687.9125
3015.26888	6662.7125
3017.68865	6629.6125
3020.10694	6634.3125
3022.52376	6614.6125
3024.9391	6602.7125
3027.35298	6591.9125
3029.76539	6587.0125
3032.17632	6567.5125
3034.5858	6561.1125
3036.9938	6553.0125
3039.40034	6535.0125
3041.80542	6536.5125
3044.20903	6534.2125
3046.61118	6521.9125
3049.01187	6501.6125
3051.4111	6493.7125
3053.80888	6465.9125
3056.20519	6438.9125
3058.60005	6443.4125
3060.99345	6417.9125
3063.3854	6416.0125
3065.7759	6399.3125
