Data from AgNPs_FTO_APTES_UA_2uM_CRN_5uM_R6G_10uM_NaF_0.1M_Addition_RamanShift__2__12-40-45-093.txt Node

Date: Wed Feb 02 12:40:45 GMT 2022
User: TCL
Spectrometer: QEP01345
Trigger mode: 4
Integration Time (sec): 7.000000E0
Scans to average: 10
Electric dark correction enabled: true
Nonlinearity correction enabled: false
Boxcar width: 0
XAxis mode: Raman Shifts
Number of Pixels in Spectrum: 1044
>>>>>Begin Spectral Data<<<<<
46.04893	0.25
50.45542	1.45
54.85868	-1.75
59.25871	-1.95
63.6555	102.35
68.04907	106.55
72.43941	111.55
76.82654	114.35
81.21044	120.25
85.59113	125.15
89.96862	128.25
94.34289	129.95
98.71396	134.85
103.08183	147.35
107.4465	143.45
111.80798	151.05
116.16626	153.45
120.52136	161.55
124.87327	170.85
129.222	178.65
133.56755	193.25
137.90993	212.15
142.24913	237.85
146.58517	273.15
150.91804	316.15
155.24774	384.75
159.57429	483.75
163.89768	632.55
168.21792	847.25
172.53501	1154.85
176.84895	1624.35
181.15975	2278.65
185.46741	3192.25
189.77193	4424.55
194.07331	5907.95
198.37157	7615.55
202.6667	9373.15
206.9587	11150.65
211.24758	12897.95
215.53334	14649.95
219.81599	16571.95
224.09553	18686.25
228.37195	20984.95
232.64527	23507.15
236.91549	26125.45
241.18261	28714.75
245.44663	31051.25
249.70755	33204.85
253.96539	35027.85
258.22014	36633.95
262.4718	38009.25
266.72039	38826.35
270.96589	39304.95
275.20832	39325.85
279.44768	38991.25
283.68397	38615.95
287.91719	38258.05
292.14735	38083.35
296.37445	38129.05
300.59849	38233.15
304.81948	38463.55
309.03742	38474.95
313.25231	38325.95
317.46415	37786.25
321.67296	36986.45
325.87872	36317.25
330.08145	35937.25
334.28114	35751.85
338.47781	35966.85
342.67145	36296.45
346.86207	36886.65
351.04966	37585.55
355.23424	38437.85
359.4158	39098.75
363.59435	39564.35
367.76989	40032.75
371.94243	40316.95
376.11196	40545.65
380.27849	40672.95
384.44203	40903.05
388.60257	41331.95
392.76012	41754.15
396.91468	42324.45
401.06626	43011.15
405.21485	43391.65
409.36047	43327.35
413.50311	42962.65
417.64277	42869.25
421.77947	43086.45
425.9132	43321.65
430.04396	43561.95
434.17176	43756.85
438.2966	43970.45
442.41849	44645.65
446.53742	45963.45
450.6534	47512.75
454.76644	48553.65
458.87653	48707.25
462.98368	48199.45
467.08789	47392.55
471.18916	46396.35
475.2875	45485.35
479.38291	44901.45
483.4754	44604.95
487.56496	44220.75
491.6516	43667.25
495.73531	43181.75
499.81612	42945.75
503.89401	43155.25
507.96899	43275.05
512.04106	43120.65
516.11023	42650.65
520.1765	42164.95
524.23987	41801.85
528.30034	41552.05
532.35792	41216.25
536.41261	40639.15
540.46441	40029.55
544.51333	39951.35
548.55936	40386.35
552.60252	41267.75
556.64279	42423.25
560.6802	43354.25
564.71473	43767.75
568.7464	44422.45
572.7752	45614.45
576.80114	47005.85
580.82422	48674.25
584.84444	50918.45
588.86181	53520.45
592.87633	55539.55
596.888	55098.45
600.89682	52393.65
604.9028	51713.05
608.90594	54936.15
612.90624	58628.65
616.90371	55067.15
620.89834	46584.35
624.89015	42762.95
628.87913	42246.95
632.86528	42160.95
636.84862	41692.35
640.82913	40738.55
644.80683	39759.45
648.78172	39145.45
652.75379	39237.65
656.72306	39859.35
660.68952	40445.05
664.65319	40060.95
668.61405	39323.45
672.57211	39241.85
676.52738	39516.15
680.47986	39473.65
684.42955	39063.55
688.37646	38990.25
692.32058	39326.85
696.26192	40097.85
700.20048	40885.05
704.13626	41193.15
708.06928	40946.85
711.99952	40645.55
715.927	40674.75
719.85171	41054.15
723.77365	40981.65
727.69284	40206.75
731.60928	39539.35
735.52295	39338.55
739.43388	39396.75
743.34206	39566.25
747.24749	39784.95
751.15017	40208.05
755.05012	40990.45
758.94733	42197.95
762.8418	44107.25
766.73354	46955.95
770.62254	49468.35
774.50882	49693.25
778.39237	47579.95
782.27321	44590.95
786.15132	42115.35
790.02671	40622.15
793.89938	39932.45
797.76935	39778.15
801.6366	39675.15
805.50115	39705.75
809.36299	39464.35
813.22213	39083.45
817.07857	38750.15
820.93231	38545.55
824.78336	38348.45
828.63172	38210.05
832.47738	38206.75
836.32036	38415.85
840.16066	38728.85
843.99827	38906.65
847.8332	38776.15
851.66546	38453.95
855.49504	38396.85
859.32195	38347.85
863.1462	38199.85
866.96777	38048.45
870.78668	37964.15
874.60293	37921.65
878.41652	38013.65
882.22745	38191.95
886.03573	38407.45
889.84136	38451.55
893.64433	38194.35
897.44466	37918.55
901.24235	37758.25
905.0374	37708.95
908.8298	37623.55
912.61957	37743.45
916.40671	38160.85
920.19121	38741.15
923.97308	39356.45
927.75233	39641.95
931.52895	39485.95
935.30295	38904.95
939.07433	38163.25
942.84309	37563.15
946.60924	37385.65
950.37278	37279.45
954.13371	37210.75
957.89203	37062.45
961.64774	37019.35
965.40086	37065.05
969.15137	36981.35
972.89929	36873.35
976.64461	36870.15
980.38733	36987.25
984.12747	37156.45
987.86502	37489.65
991.59999	37971.95
995.33237	38796.25
999.06217	40061.95
1002.78939	41596.25
1006.51404	42712.85
1010.23611	43343.25
1013.95561	43634.85
1017.67255	43535.85
1021.38692	42918.55
1025.09872	42346.95
1028.80796	42639.95
1032.51465	44094.75
1036.21877	45824.85
1039.92035	46316.15
1043.61937	45700.45
1047.31584	44363.65
1051.00976	42790.05
1054.70114	41844.35
1058.38998	41459.15
1062.07627	41459.35
1065.76003	41648.05
1069.44126	41938.45
1073.11995	42635.45
1076.79611	43310.05
1080.46974	43739.75
1084.14085	44225.15
1087.80943	44705.55
1091.47549	45029.75
1095.13903	44850.65
1098.80005	44165.25
1102.45857	43188.35
1106.11456	42496.95
1109.76805	42164.15
1113.41903	42068.45
1117.06751	42124.25
1120.71348	42480.05
1124.35696	42870.85
1127.99793	43309.25
1131.63641	43653.35
1135.2724	43597.15
1138.90589	43477.25
1142.5369	43595.15
1146.16542	43926.25
1149.79145	44320.15
1153.415	44675.25
1157.03607	45416.85
1160.65467	47032.65
1164.27079	49582.45
1167.88443	52676.95
1171.49561	55720.35
1175.10432	59472.35
1178.71056	64502.85
1182.31434	69284.65
1185.91565	71553.95
1189.51451	70925.05
1193.11091	68564.95
1196.70485	65886.05
1200.29634	63345.55
1203.88538	61670.05
1207.47197	60774.85
1211.05612	60069.75
1214.63782	58983.45
1218.21708	57652.95
1221.79391	56374.95
1225.36829	55396.25
1228.94024	54437.75
1232.50976	53185.95
1236.07685	52075.35
1239.6415	51524.95
1243.20374	51494.35
1246.76355	52072.25
1250.32093	53127.25
1253.8759	54546.15
1257.42845	56232.75
1260.97859	58149.55
1264.52631	60189.95
1268.07163	62269.05
1271.61453	64583.25
1275.15503	66842.95
1278.69312	69070.95
1282.22882	71291.15
1285.76211	73661.95
1289.29301	76321.75
1292.82151	79602.85
1296.34761	83933.05
1299.87133	89510.85
1303.39266	95726.25
1306.9116	101533.35
1310.42815	105822.75
1313.94233	107376.05
1317.45412	105937.95
1320.96354	103103.05
1324.47058	100543.15
1327.97525	98660.85
1331.47754	97391.55
1334.97747	96443.95
1338.47502	95108.05
1341.97022	92549.85
1345.46305	89689.35
1348.95352	87785.05
1352.44163	87891.85
1355.92738	91067.65
1359.41078	96416.95
1362.89183	100547.15
1366.37053	99408.85
1369.84688	91721.95
1373.32088	81205.95
1376.79254	73662.45
1380.26186	70973.15
1383.72883	71311.05
1387.19347	71512.95
1390.65578	70401.65
1394.11575	70040.85
1397.57339	70823.75
1401.0287	72475.65
1404.48168	74102.85
1407.93234	74485.25
1411.38068	73391.45
1414.82669	71339.85
1418.27039	68585.55
1421.71177	65518.85
1425.15083	63043.75
1428.58758	61941.35
1432.02203	62673.55
1435.45416	64797.65
1438.88399	67143.95
1442.31151	68881.25
1445.73673	69691.95
1449.15965	70035.55
1452.58027	69749.75
1455.9986	68972.75
1459.41463	68782.35
1462.82837	69637.85
1466.23982	71219.55
1469.64898	72768.25
1473.05586	73948.95
1476.46045	74579.65
1479.86276	74211.25
1483.26279	73405.65
1486.66054	72751.95
1490.05602	72876.15
1493.44922	73243.15
1496.84016	73292.45
1500.22882	73394.15
1503.61521	74105.35
1506.99934	75280.35
1510.38121	76336.05
1513.76081	76643.85
1517.13816	75419.75
1520.51324	73445.15
1523.88607	71978.95
1527.25665	71796.55
1530.62498	71955.15
1533.99105	71909.25
1537.35488	71335.55
1540.71647	70061.25
1544.07581	68335.65
1547.4329	66509.05
1550.78776	64796.05
1554.14038	63570.15
1557.49077	62618.95
1560.83892	62037.05
1564.18484	61633.55
1567.52853	61538.65
1570.86999	61906.75
1574.20922	62908.85
1577.54624	64251.45
1580.88103	65185.25
1584.2136	66756.25
1587.54395	70174.15
1590.87208	75345.35
1594.19801	81457.35
1597.52172	86586.45
1600.84321	87630.65
1604.16251	82776.05
1607.47959	74547.05
1610.79447	66181.25
1614.10715	59171.25
1617.41763	54155.35
1620.7259	51081.85
1624.03199	49958.45
1627.33587	50420.45
1630.63757	52450.35
1633.93707	56319.85
1637.23439	62510.35
1640.52951	71465.05
1643.82246	82063.15
1647.11321	89761.65
1650.40179	89857.95
1653.68819	81412.25
1656.97241	68940.65
1660.25446	57818.95
1663.53433	50034.85
1666.81203	45322.85
1670.08756	42418.85
1673.36092	40625.85
1676.63211	39463.85
1679.90115	38616.45
1683.16801	38016.85
1686.43272	37573.15
1689.69527	37240.65
1692.95567	36972.65
1696.2139	36851.25
1699.46999	36697.95
1702.72392	36587.75
1705.97571	36451.65
1709.22535	36356.45
1712.47284	36347.05
1715.71819	36351.25
1718.96139	36239.35
1722.20246	36152.55
1725.44139	35945.55
1728.67818	35768.65
1731.91284	35576.55
1735.14537	35386.55
1738.37576	35260.15
1741.60403	35146.85
1744.83017	34970.65
1748.05418	34979.75
1751.27607	34913.05
1754.49584	34873.55
1757.71349	34780.85
1760.92903	34830.25
1764.14244	34791.35
1767.35375	34710.55
1770.56294	34655.05
1773.77002	34622.45
1776.97499	34587.95
1780.17785	34495.95
1783.37861	34521.05
1786.57727	34472.25
1789.77382	34389.15
1792.96828	34315.95
1796.16064	34278.65
1799.3509	34137.35
1802.53907	34113.35
1805.72514	33994.15
1808.90913	33997.05
1812.09102	33959.25
1815.27083	33922.35
1818.44856	33884.85
1821.6242	33863.95
1824.79776	33867.95
1827.96924	33869.75
1831.13864	33941.75
1834.30597	33894.85
1837.47122	33867.45
1840.6344	33863.65
1843.7955	33927.75
1846.95454	33887.85
1850.11151	33867.15
1853.26642	33859.55
1856.41926	33875.95
1859.57004	33834.45
1862.71876	33810.75
1865.86542	33797.85
1869.01003	33794.65
1872.15258	33769.65
1875.29308	33784.05
1878.43152	33728.75
1881.56792	33732.65
1884.70227	33689.35
1887.83457	33714.35
1890.96482	33680.85
1894.09304	33614.15
1897.21921	33572.65
1900.34335	33611.75
1903.46544	33521.35
1906.58551	33459.85
1909.70353	33435.45
1912.81953	33355.75
1915.93349	33317.85
1919.04543	33233.25
1922.15534	33135.45
1925.26322	33066.75
1928.36908	33020.65
1931.47292	32974.75
1934.57473	32843.95
1937.67453	32760.45
1940.77232	32681.75
1943.86808	32649.55
1946.96184	32576.55
1950.05358	32464.25
1953.14331	32404.65
1956.23103	32320.35
1959.31675	32217.95
1962.40046	32184.45
1965.48217	32070.05
1968.56188	31985.35
1971.63959	31912.75
1974.7153	31841.35
1977.78901	31789.85
1980.86073	31618.95
1983.93046	31586.85
1986.99819	31448.25
1990.06394	31314.05
1993.1277	31276.35
1996.18947	31236.65
1999.24925	31186.55
2002.30706	31081.35
2005.36288	31005.25
2008.41672	30876.75
2011.46859	30884.75
2014.51848	30797.05
2017.56639	30729.15
2020.61233	30683.95
2023.6563	30630.65
2026.6983	30610.65
2029.73833	30562.65
2032.7764	30491.25
2035.8125	30509.35
2038.84664	30490.65
2041.87881	30441.65
2044.90903	30446.75
2047.93729	30333.95
2050.96359	30338.65
2053.98794	30248.05
2057.01034	30257.15
2060.03078	30267.85
2063.04927	30218.55
2066.06582	30229.85
2069.08042	30173.25
2072.09307	30157.05
2075.10378	30134.95
2078.11255	30125.85
2081.11938	30182.65
2084.12426	30129.15
2087.12722	30118.75
2090.12824	30087.85
2093.12732	30094.75
2096.12447	30135.95
2099.11969	30203.35
2102.11299	30200.75
2105.10435	30198.85
2108.09379	30219.95
2111.08131	30240.15
2114.0669	30214.95
2117.05057	30201.45
2120.03233	30298.65
2123.01216	30277.55
2125.99008	30331.35
2128.96609	30329.55
2131.94018	30367.65
2134.91236	30387.85
2137.88263	30388.15
2140.851	30368.15
2143.81746	30435.85
2146.78201	30450.15
2149.74466	30479.85
2152.7054	30516.15
2155.66425	30463.75
2158.6212	30505.45
2161.57625	30545.55
2164.52941	30524.75
2167.48067	30495.55
2170.43004	30495.85
2173.37752	30452.75
2176.32311	30508.45
2179.26681	30531.05
2182.20863	30547.95
2185.14856	30603.45
2188.08661	30601.45
2191.02278	30665.05
2193.95707	30593.25
2196.88948	30554.15
2199.82001	30622.75
2202.74867	30600.55
2205.67545	30584.15
2208.60037	30572.95
2211.52341	30527.95
2214.44458	30545.15
2217.36388	30514.75
2220.28132	30503.55
2223.1969	30452.55
2226.11061	30484.65
2229.02246	30373.15
2231.93245	30356.45
2234.84058	30367.55
2237.74686	30276.55
2240.65128	30277.45
2243.55385	30168.15
2246.45456	30156.25
2249.35343	30119.55
2252.25044	30040.85
2255.14561	30017.45
2258.03893	29976.85
2260.93041	29876.25
2263.82004	29754.25
2266.70783	29767.25
2269.59378	29684.45
2272.4779	29634.85
2275.36017	29563.05
2278.24061	29534.25
2281.11922	29533.15
2283.996	29446.35
2286.87094	29484.55
2289.74405	29481.85
2292.61534	29443.05
2295.4848	29463.05
2298.35243	29463.85
2301.21824	29458.15
2304.08223	29487.55
2306.94439	29553.55
2309.80474	29607.55
2312.66327	29571.85
2315.51999	29572.95
2318.37489	29626.35
2321.22797	29570.45
2324.07925	29532.65
2326.92871	29497.75
2329.77637	29583.85
2332.62222	29502.05
2335.46626	29500.85
2338.3085	29502.05
2341.14893	29530.15
2343.98756	29512.95
2346.8244	29504.55
2349.65943	29496.95
2352.49267	29485.55
2355.32411	29513.15
2358.15376	29517.95
2360.98161	29545.75
2363.80768	29477.15
2366.63195	29406.55
2369.45444	29345.25
2372.27514	29301.25
2375.09405	29216.75
2377.91118	29191.05
2380.72652	29134.85
2383.54009	29075.35
2386.35187	29141.95
2389.16188	29021.25
2391.97011	29031.45
2394.77657	29027.35
2397.58125	28959.55
2400.38416	28958.85
2403.18529	28884.25
2405.98466	28889.15
2408.78226	28839.15
2411.57809	28811.55
2414.37216	28795.15
2417.16446	28746.55
2419.955	28733.35
2422.74378	28738.65
2425.5308	28702.25
2428.31606	28714.05
2431.09956	28721.75
2433.88131	28697.65
2436.6613	28693.35
2439.43954	28683.85
2442.21603	28675.65
2444.99077	28675.05
2447.76377	28667.15
2450.53501	28665.65
2453.30451	28674.35
2456.07226	28658.15
2458.83827	28637.85
2461.60254	28629.85
2464.36507	28647.55
2467.12586	28677.85
2469.88492	28702.05
2472.64224	28696.35
2475.39782	28734.35
2478.15167	28768.25
2480.90379	28705.65
2483.65417	28759.55
2486.40283	28781.45
2489.14976	28789.75
2491.89497	28811.35
2494.63845	28843.95
2497.3802	28829.95
2500.12024	28807.15
2502.85855	28817.65
2505.59514	28850.15
2508.33002	28774.55
2511.06318	28784.85
2513.79462	28809.15
2516.52435	28807.85
2519.25237	28785.25
2521.97867	28759.95
2524.70327	28731.15
2527.42616	28733.45
2530.14734	28758.25
2532.86681	28745.75
2535.58458	28687.65
2538.30065	28671.95
2541.01501	28683.15
2543.72768	28664.75
2546.43864	28690.75
2549.14791	28642.05
2551.85548	28660.85
2554.56136	28631.35
2557.26554	28663.75
2559.96803	28639.95
2562.66883	28572.95
2565.36794	28576.45
2568.06536	28598.25
2570.7611	28612.55
2573.45514	28606.55
2576.14751	28592.65
2578.83819	28555.75
2581.52719	28549.55
2584.21451	28543.95
2586.90015	28548.25
2589.58411	28560.55
2592.2664	28536.85
2594.94701	28478.15
2597.62594	28461.25
2600.30321	28491.05
2602.9788	28466.55
2605.65273	28395.05
2608.32498	28478.95
2610.99557	28468.25
2613.66449	28468.35
2616.33175	28413.45
2618.99734	28456.45
2621.66128	28496.65
2624.32355	28536.55
2626.98416	28484.35
2629.64311	28425.25
2632.30041	28435.55
2634.95605	28435.15
2637.61004	28418.75
2640.26238	28356.05
2642.91306	28345.65
2645.56209	28354.15
2648.20948	28322.65
2650.85521	28336.25
2653.4993	28340.75
2656.14175	28319.25
2658.78255	28371.45
2661.42171	28361.85
2664.05923	28419.45
2666.6951	28427.05
2669.32934	28443.55
2671.96194	28460.75
2674.59291	28443.85
2677.22224	28444.55
2679.84993	28451.85
2682.476	28429.85
2685.10043	28414.95
2687.72324	28360.05
2690.34441	28408.95
2692.96396	28445.45
2695.58188	28460.45
2698.19818	28400.65
2700.81285	28463.05
2703.4259	28444.45
2706.03733	28510.35
2708.64714	28466.65
2711.25533	28482.25
2713.86191	28514.55
2716.46687	28595.35
2719.07021	28591.35
2721.67194	28615.55
2724.27206	28622.25
2726.87057	28658.55
2729.46747	28629.35
2732.06276	28655.35
2734.65644	28665.45
2737.24852	28727.15
2739.83899	28706.45
2742.42786	28710.45
2745.01513	28643.05
2747.60079	28648.55
2750.18486	28643.35
2752.76733	28665.05
2755.3482	28673.85
2757.92747	28657.75
2760.50515	28622.25
2763.08123	28625.45
2765.65573	28592.95
2768.22863	28618.85
2770.79994	28549.65
2773.36967	28569.55
2775.9378	28630.25
2778.50435	28626.05
2781.06932	28605.25
2783.6327	28585.45
2786.1945	28547.85
2788.75471	28570.25
2791.31335	28472.55
2793.87041	28454.75
2796.42589	28413.65
2798.97979	28496.85
2801.53212	28441.75
2804.08288	28420.25
2806.63206	28356.35
2809.17967	28263.05
2811.72571	28183.15
2814.27018	28161.05
2816.81308	28132.05
2819.35442	28114.65
2821.89419	28076.85
2824.43239	28060.65
2826.96904	28022.25
2829.50412	28060.65
2832.03763	28007.65
2834.56959	28011.15
2837.1	28019.55
2839.62884	27964.25
2842.15613	27973.35
2844.68186	28026.15
2847.20604	28010.25
2849.72867	28020.55
2852.24974	28023.05
2854.76927	28048.95
2857.28724	27988.25
2859.80367	27962.95
2862.31855	27922.35
2864.83189	27931.65
2867.34368	27889.95
2869.85393	27872.25
2872.36264	27845.05
2874.8698	27881.95
2877.37543	27938.25
2879.87952	27942.45
2882.38207	27915.05
2884.88308	27900.45
2887.38256	27943.95
2889.88051	27967.75
2892.37692	28026.85
2894.8718	28056.45
2897.36515	28129.45
2899.85698	28086.95
2902.34727	28133.95
2904.83604	28166.05
2907.32328	28216.35
2909.809	28125.75
2912.29319	28122.75
2914.77587	28133.05
2917.25702	28184.25
2919.73665	28174.55
2922.21476	28203.75
2924.69136	28149.85
2927.16644	28141.55
2929.64	28159.15
2932.11205	28052.95
2934.58258	27997.95
2937.05161	28050.95
2939.51912	28062.05
2941.98513	28002.35
2944.44962	27994.65
2946.91261	27864.15
2949.37409	27946.55
2951.83407	27954.65
2954.29254	27919.55
2956.74951	27844.55
2959.20498	27870.35
2961.65895	27850.85
2964.11142	27844.35
2966.56239	27784.95
2969.01186	27782.45
2971.45984	27721.75
2973.90632	27653.55
2976.35131	27624.55
2978.7948	27600.55
2981.23681	27516.55
2983.67732	27439.95
2986.11635	27391.55
2988.55388	27329.35
2990.98993	27229.95
2993.4245	27204.25
2995.85758	27136.25
2998.28917	27096.75
3000.71928	27103.55
3003.14791	27034.15
3005.57506	27026.95
3008.00073	26984.25
3010.42493	26943.45
3012.84764	26890.05
3015.26888	26883.25
3017.68865	26831.45
3020.10694	26844.85
3022.52376	26729.05
3024.9391	26715.75
3027.35298	26693.95
3029.76539	26700.05
3032.17632	26701.25
3034.5858	26640.95
3036.9938	26621.45
3039.40034	26602.55
3041.80542	26628.25
3044.20903	26533.95
3046.61118	26540.55
3049.01187	26481.15
3051.4111	26468.05
3053.80888	26395.95
3056.20519	26395.75
3058.60005	26301.65
3060.99345	26230.35
3063.3854	26248.55
3065.7759	26102.75
3068.16494	26076.15
3070.55254	26021.35
3072.93868	26035.15
3075.32338	25914.25
3077.70662	25934.05
3080.08842	25834.35
3082.46878	25799.75
3084.84769	25745.75
3087.22515	25733.55
3089.60118	25797.05
3091.97576	25772.15
3094.3489	25778.05
3096.72061	25761.15
3099.09087	25700.95
3101.4597	25649.55
3103.82709	25622.15
3106.19305	25603.35
3108.55757	25584.55
3110.92066	25486.35
3113.28232	25461.85
3115.64255	25421.65
3118.00134	25378.15
3120.35871	25356.45
3122.71466	25305.35
3125.06917	25222.05
3127.42226	25230.45
3129.77393	25201.95
3132.12417	25217.95
3134.47299	25220.15
3136.82039	25156.35
3139.16636	25190.95
3141.51092	25221.65
3143.85406	25192.65
3146.19579	25209.95
3148.53609	25168.95
3150.87499	25210.05
3153.21246	25182.45
3155.54853	25207.65
3157.88318	25169.95
3160.21642	25128.15
3162.54826	25119.95
3164.87868	25119.05
3167.2077	25090.95
3169.5353	25069.65
3171.86151	25077.95
3174.18631	25029.45
3176.5097	25048.85
3178.83169	25001.85
3181.15228	25064.65
3183.47147	25024.15
3185.78926	24942.05
3188.10565	24945.85
3190.42065	24914.35
3192.73424	24969.55
3195.04645	24925.05
3197.35725	24970.15
3199.66667	24925.85
3201.97469	24951.45
3204.28132	24888.05
3206.58656	24872.15
3208.8904	24891.75
3211.19287	24897.35
3213.49394	24953.65
3215.79363	24919.65
3218.09193	24909.25
3220.38884	24884.15
3222.68438	24962.65
3224.97853	24844.95
3227.2713	24863.95
3229.56269	24836.25
3231.8527	24777.15
3234.14133	24790.35
3236.42858	24746.35
