Data from AgNPs_FTO_APTES_UA_2uM_CRN_20uM_R6G_10uM_NaF_0.1M_Addition_RamanShift__19__14-19-55-208.txt Node

Date: Wed Feb 02 14:19:55 GMT 2022
User: TCL
Spectrometer: QEP01345
Trigger mode: 4
Integration Time (sec): 7.000000E0
Scans to average: 10
Electric dark correction enabled: true
Nonlinearity correction enabled: false
Boxcar width: 0
XAxis mode: Raman Shifts
Number of Pixels in Spectrum: 1044
>>>>>Begin Spectral Data<<<<<
46.04893	0.3125
50.45542	-1.1875
54.85868	-1.4875
59.25871	-0.5875
63.6555	98.1125
68.04907	105.7125
72.43941	107.0125
76.82654	113.3125
81.21044	118.7125
85.59113	126.5125
89.96862	131.2125
94.34289	133.5125
98.71396	135.4125
103.08183	143.3125
107.4465	146.4125
111.80798	149.5125
116.16626	148.0125
120.52136	157.3125
124.87327	164.4125
129.222	166.6125
133.56755	185.0125
137.90993	194.4125
142.24913	219.8125
146.58517	243.6125
150.91804	280.9125
155.24774	332.2125
159.57429	414.8125
163.89768	536.8125
168.21792	705.9125
172.53501	971.3125
176.84895	1342.9125
181.15975	1880.7125
185.46741	2640.6125
189.77193	3636.7125
194.07331	4848.8125
198.37157	6248.7125
202.6667	7688.1125
206.9587	9141.9125
211.24758	10559.3125
215.53334	11975.2125
219.81599	13502.2125
224.09553	15195.5125
228.37195	17020.0125
232.64527	19078.7125
236.91549	21199.6125
241.18261	23339.3125
245.44663	25319.7125
249.70755	27041.1125
253.96539	28662.6125
258.22014	30018.5125
262.4718	31164.4125
266.72039	32061.6125
270.96589	32536.7125
275.20832	32765.8125
279.44768	32759.6125
283.68397	32666.2125
287.91719	32572.3125
292.14735	32624.5125
296.37445	32802.0125
300.59849	32954.6125
304.81948	32892.9125
309.03742	32623.8125
313.25231	32095.6125
317.46415	31137.0125
321.67296	29978.3125
325.87872	29054.7125
330.08145	28613.2125
334.28114	28460.6125
338.47781	28646.7125
342.67145	28966.3125
346.86207	29449.1125
351.04966	29983.0125
355.23424	30602.1125
359.4158	31111.6125
363.59435	31485.9125
367.76989	31727.3125
371.94243	31854.8125
376.11196	32034.7125
380.27849	32109.9125
384.44203	32315.0125
388.60257	32609.0125
392.76012	32920.8125
396.91468	33428.7125
401.06626	33979.1125
405.21485	34322.4125
409.36047	34163.0125
413.50311	33643.4125
417.64277	33237.7125
421.77947	33145.9125
425.9132	33298.3125
430.04396	33527.6125
434.17176	33764.8125
438.2966	34040.8125
442.41849	34653.4125
446.53742	35540.9125
450.6534	36619.2125
454.76644	37516.9125
458.87653	37938.7125
462.98368	37847.5125
467.08789	37457.5125
471.18916	37123.9125
475.2875	36760.2125
479.38291	36701.4125
483.4754	36547.5125
487.56496	35985.6125
491.6516	35217.6125
495.73531	34509.5125
499.81612	34055.9125
503.89401	34138.5125
507.96899	34185.9125
512.04106	34027.5125
516.11023	33706.1125
520.1765	33288.6125
524.23987	32854.8125
528.30034	32481.1125
532.35792	32132.6125
536.41261	31738.8125
540.46441	31450.5125
544.51333	31560.7125
548.55936	32118.7125
552.60252	33008.1125
556.64279	33942.9125
560.6802	34598.5125
564.71473	35004.1125
568.7464	35622.4125
572.7752	36603.7125
576.80114	37334.3125
580.82422	37902.2125
584.84444	38276.2125
588.86181	38565.7125
592.87633	38959.1125
596.888	39235.7125
600.89682	39321.5125
604.9028	40475.5125
608.90594	43715.9125
612.90624	46677.3125
616.90371	43387.6125
620.89834	36161.6125
624.89015	33080.4125
628.87913	32876.6125
632.86528	33058.4125
636.84862	32940.6125
640.82913	32367.7125
644.80683	31317.2125
648.78172	30528.3125
652.75379	30308.1125
656.72306	30549.9125
660.68952	31042.3125
664.65319	30938.4125
668.61405	30373.0125
672.57211	30203.6125
676.52738	30219.9125
680.47986	30219.2125
684.42955	30105.8125
688.37646	30048.3125
692.32058	30161.3125
696.26192	30492.1125
700.20048	30849.9125
704.13626	31127.3125
708.06928	31104.1125
711.99952	30854.3125
715.927	30767.2125
719.85171	30765.5125
723.77365	30638.9125
727.69284	30274.0125
731.60928	29922.5125
735.52295	29793.0125
739.43388	29811.0125
743.34206	29919.7125
747.24749	30125.5125
751.15017	30507.7125
755.05012	31135.3125
758.94733	32281.7125
762.8418	34196.1125
766.73354	37036.2125
770.62254	39642.4125
774.50882	39979.3125
778.39237	37718.6125
782.27321	34551.7125
786.15132	32182.3125
790.02671	30728.2125
793.89938	30040.1125
797.76935	29747.1125
801.6366	29713.4125
805.50115	29654.4125
809.36299	29411.5125
813.22213	29163.4125
817.07857	29066.5125
820.93231	28962.8125
824.78336	28815.3125
828.63172	28664.8125
832.47738	28597.9125
836.32036	28643.9125
840.16066	28753.2125
843.99827	28809.1125
847.8332	28710.8125
851.66546	28566.0125
855.49504	28455.0125
859.32195	28427.0125
863.1462	28304.4125
866.96777	28214.7125
870.78668	28121.3125
874.60293	28063.0125
878.41652	28069.1125
882.22745	28135.5125
886.03573	28234.3125
889.84136	28240.9125
893.64433	28123.2125
897.44466	28028.8125
901.24235	27878.2125
905.0374	27759.9125
908.8298	27705.5125
912.61957	27790.6125
916.40671	28150.3125
920.19121	28634.3125
923.97308	29007.1125
927.75233	29009.7125
931.52895	28817.2125
935.30295	28358.3125
939.07433	27735.0125
942.84309	27226.6125
946.60924	27016.7125
950.37278	26949.1125
954.13371	26866.4125
957.89203	26752.0125
961.64774	26732.9125
965.40086	26734.0125
969.15137	26607.2125
972.89929	26383.4125
976.64461	26280.2125
980.38733	26205.9125
984.12747	26338.8125
987.86502	26575.3125
991.59999	27022.2125
995.33237	27565.5125
999.06217	28509.2125
1002.78939	29579.0125
1006.51404	30224.7125
1010.23611	30570.1125
1013.95561	30800.0125
1017.67255	30897.1125
1021.38692	30557.4125
1025.09872	30256.6125
1028.80796	30400.2125
1032.51465	31232.7125
1036.21877	32096.9125
1039.92035	32224.4125
1043.61937	31782.5125
1047.31584	30989.2125
1051.00976	30107.6125
1054.70114	29732.7125
1058.38998	29784.2125
1062.07627	30024.1125
1065.76003	30292.9125
1069.44126	30608.4125
1073.11995	30987.8125
1076.79611	31309.1125
1080.46974	31470.5125
1084.14085	31715.6125
1087.80943	32070.0125
1091.47549	32394.3125
1095.13903	32437.2125
1098.80005	32057.9125
1102.45857	31322.3125
1106.11456	30631.0125
1109.76805	30334.7125
1113.41903	30472.6125
1117.06751	30748.8125
1120.71348	31095.2125
1124.35696	31460.2125
1127.99793	31857.8125
1131.63641	32141.5125
1135.2724	32016.3125
1138.90589	31800.2125
1142.5369	31781.6125
1146.16542	31911.7125
1149.79145	32227.3125
1153.415	32684.5125
1157.03607	33410.0125
1160.65467	34415.5125
1164.27079	36124.5125
1167.88443	38316.5125
1171.49561	41089.3125
1175.10432	44607.1125
1178.71056	48910.6125
1182.31434	52965.1125
1185.91565	55467.6125
1189.51451	55984.5125
1193.11091	54759.8125
1196.70485	52541.9125
1200.29634	49922.6125
1203.88538	47698.6125
1207.47197	46136.6125
1211.05612	45079.8125
1214.63782	44161.4125
1218.21708	43335.3125
1221.79391	42617.8125
1225.36829	42123.6125
1228.94024	41511.4125
1232.50976	40792.6125
1236.07685	40219.8125
1239.6415	39918.0125
1243.20374	39776.4125
1246.76355	40007.2125
1250.32093	40659.2125
1253.8759	41646.7125
1257.42845	42987.2125
1260.97859	44421.5125
1264.52631	45720.8125
1268.07163	47126.4125
1271.61453	48630.2125
1275.15503	50379.3125
1278.69312	52224.0125
1282.22882	53786.4125
1285.76211	55343.4125
1289.29301	56951.4125
1292.82151	59235.5125
1296.34761	62295.1125
1299.87133	66086.2125
1303.39266	70284.7125
1306.9116	74723.5125
1310.42815	78883.6125
1313.94233	81648.7125
1317.45412	82112.9125
1320.96354	81324.1125
1324.47058	80268.9125
1327.97525	79380.3125
1331.47754	78777.9125
1334.97747	78551.5125
1338.47502	78474.1125
1341.97022	78281.4125
1345.46305	77116.0125
1348.95352	75032.8125
1352.44163	72852.7125
1355.92738	72131.6125
1359.41078	73402.7125
1362.89183	75064.6125
1366.37053	73559.1125
1369.84688	68204.6125
1373.32088	61698.3125
1376.79254	57127.7125
1380.26186	55352.8125
1383.72883	55339.9125
1387.19347	55693.9125
1390.65578	55745.2125
1394.11575	56099.8125
1397.57339	57142.6125
1401.0287	58624.5125
1404.48168	59902.0125
1407.93234	60352.4125
1411.38068	59471.5125
1414.82669	57404.1125
1418.27039	54445.3125
1421.71177	51464.3125
1425.15083	49034.5125
1428.58758	47646.2125
1432.02203	47582.4125
1435.45416	48507.0125
1438.88399	50003.7125
1442.31151	51477.4125
1445.73673	52633.5125
1449.15965	53755.5125
1452.58027	54727.5125
1455.9986	55289.8125
1459.41463	55891.6125
1462.82837	56723.0125
1466.23982	57726.0125
1469.64898	58531.8125
1473.05586	58792.4125
1476.46045	58545.1125
1479.86276	57889.3125
1483.26279	56990.2125
1486.66054	56301.1125
1490.05602	56161.9125
1493.44922	56295.5125
1496.84016	56568.7125
1500.22882	57069.0125
1503.61521	58372.2125
1506.99934	60090.4125
1510.38121	61818.4125
1513.76081	62526.9125
1517.13816	61665.6125
1520.51324	59769.3125
1523.88607	58016.2125
1527.25665	57064.3125
1530.62498	56685.2125
1533.99105	56516.0125
1537.35488	56307.2125
1540.71647	55759.1125
1544.07581	54752.1125
1547.4329	53509.2125
1550.78776	52310.7125
1554.14038	51562.4125
1557.49077	51206.7125
1560.83892	51036.0125
1564.18484	50850.7125
1567.52853	50722.1125
1570.86999	50782.8125
1574.20922	51386.3125
1577.54624	52230.2125
1580.88103	52761.2125
1584.2136	53515.3125
1587.54395	55311.2125
1590.87208	58283.4125
1594.19801	61878.0125
1597.52172	65230.8125
1600.84321	66128.3125
1604.16251	63220.8125
1607.47959	58132.3125
1610.79447	52644.5125
1614.10715	47600.2125
1617.41763	43418.3125
1620.7259	40381.7125
1624.03199	38800.8125
1627.33587	38623.4125
1630.63757	39868.2125
1633.93707	42662.6125
1637.23439	47231.7125
1640.52951	53332.5125
1643.82246	59873.4125
1647.11321	64391.9125
1650.40179	64679.8125
1653.68819	60189.9125
1656.97241	52376.5125
1660.25446	44490.6125
1663.53433	38277.3125
1666.81203	34163.2125
1670.08756	31483.0125
1673.36092	29781.0125
1676.63211	28669.6125
1679.90115	27905.5125
1683.16801	27329.3125
1686.43272	26908.7125
1689.69527	26573.5125
1692.95567	26348.7125
1696.2139	26172.4125
1699.46999	26030.4125
1702.72392	25897.6125
1705.97571	25802.6125
1709.22535	25705.1125
1712.47284	25591.9125
1715.71819	25563.3125
1718.96139	25479.5125
1722.20246	25341.7125
1725.44139	25199.2125
1728.67818	25083.6125
1731.91284	24928.3125
1735.14537	24737.3125
1738.37576	24607.8125
1741.60403	24522.1125
1744.83017	24400.4125
1748.05418	24416.9125
1751.27607	24349.3125
1754.49584	24321.4125
1757.71349	24299.9125
1760.92903	24282.2125
1764.14244	24228.6125
1767.35375	24155.1125
1770.56294	24126.0125
1773.77002	24066.3125
1776.97499	24024.4125
1780.17785	23931.9125
1783.37861	23928.2125
1786.57727	23852.5125
1789.77382	23816.0125
1792.96828	23792.0125
1796.16064	23731.6125
1799.3509	23701.1125
1802.53907	23639.6125
1805.72514	23590.0125
1808.90913	23515.2125
1812.09102	23462.6125
1815.27083	23446.9125
1818.44856	23432.6125
1821.6242	23383.2125
1824.79776	23366.4125
1827.96924	23357.2125
1831.13864	23348.4125
1834.30597	23352.6125
1837.47122	23365.1125
1840.6344	23328.3125
1843.7955	23411.5125
1846.95454	23433.5125
1850.11151	23420.8125
1853.26642	23416.5125
1856.41926	23383.8125
1859.57004	23417.5125
1862.71876	23384.8125
1865.86542	23380.8125
1869.01003	23352.7125
1872.15258	23345.4125
1875.29308	23346.8125
1878.43152	23380.7125
1881.56792	23374.1125
1884.70227	23383.6125
1887.83457	23367.8125
1890.96482	23366.6125
1894.09304	23357.7125
1897.21921	23338.8125
1900.34335	23353.8125
1903.46544	23323.4125
1906.58551	23312.1125
1909.70353	23242.3125
1912.81953	23252.3125
1915.93349	23198.2125
1919.04543	23066.9125
1922.15534	23089.8125
1925.26322	23028.1125
1928.36908	22924.3125
1931.47292	22842.0125
1934.57473	22739.9125
1937.67453	22689.5125
1940.77232	22576.6125
1943.86808	22500.0125
1946.96184	22438.0125
1950.05358	22344.3125
1953.14331	22251.4125
1956.23103	22177.8125
1959.31675	22086.8125
1962.40046	22063.3125
1965.48217	22003.3125
1968.56188	21912.3125
1971.63959	21840.4125
1974.7153	21794.7125
1977.78901	21714.1125
1980.86073	21620.2125
1983.93046	21581.4125
1986.99819	21478.1125
1990.06394	21405.6125
1993.1277	21351.8125
1996.18947	21294.7125
1999.24925	21247.6125
2002.30706	21160.2125
2005.36288	21094.6125
2008.41672	21072.0125
2011.46859	21004.7125
2014.51848	20945.4125
2017.56639	20887.4125
2020.61233	20836.7125
2023.6563	20852.0125
2026.6983	20773.1125
2029.73833	20759.5125
2032.7764	20754.4125
2035.8125	20685.1125
2038.84664	20637.4125
2041.87881	20650.0125
2044.90903	20567.1125
2047.93729	20558.9125
2050.96359	20554.6125
2053.98794	20532.6125
2057.01034	20522.4125
2060.03078	20505.7125
2063.04927	20468.2125
2066.06582	20462.2125
2069.08042	20444.9125
2072.09307	20394.0125
2075.10378	20387.2125
2078.11255	20368.2125
2081.11938	20366.4125
2084.12426	20297.3125
2087.12722	20307.0125
2090.12824	20324.6125
2093.12732	20329.7125
2096.12447	20312.2125
2099.11969	20328.0125
2102.11299	20330.5125
2105.10435	20309.7125
2108.09379	20310.8125
2111.08131	20339.2125
2114.0669	20352.2125
2117.05057	20382.1125
2120.03233	20375.9125
2123.01216	20409.6125
2125.99008	20413.7125
2128.96609	20407.3125
2131.94018	20439.1125
2134.91236	20439.2125
2137.88263	20407.0125
2140.851	20488.8125
2143.81746	20475.0125
2146.78201	20497.4125
2149.74466	20476.7125
2152.7054	20482.5125
2155.66425	20476.9125
2158.6212	20461.4125
2161.57625	20414.4125
2164.52941	20455.5125
2167.48067	20456.8125
2170.43004	20434.5125
2173.37752	20425.7125
2176.32311	20438.0125
2179.26681	20453.0125
2182.20863	20408.3125
2185.14856	20448.2125
2188.08661	20402.7125
2191.02278	20433.7125
2193.95707	20426.4125
2196.88948	20401.3125
2199.82001	20416.6125
2202.74867	20438.0125
2205.67545	20405.0125
2208.60037	20378.3125
2211.52341	20371.2125
2214.44458	20375.6125
2217.36388	20301.7125
2220.28132	20333.9125
2223.1969	20274.4125
2226.11061	20294.1125
2229.02246	20223.6125
2231.93245	20175.8125
2234.84058	20138.8125
2237.74686	20077.1125
2240.65128	20035.0125
2243.55385	20033.6125
2246.45456	19988.5125
2249.35343	19959.3125
2252.25044	19925.8125
2255.14561	19904.1125
2258.03893	19905.9125
2260.93041	19852.7125
2263.82004	19798.6125
2266.70783	19732.3125
2269.59378	19652.0125
2272.4779	19642.8125
2275.36017	19610.5125
2278.24061	19585.0125
2281.11922	19539.1125
2283.996	19482.8125
2286.87094	19488.0125
2289.74405	19466.4125
2292.61534	19460.3125
2295.4848	19451.5125
2298.35243	19431.2125
2301.21824	19455.7125
2304.08223	19472.7125
2306.94439	19458.8125
2309.80474	19484.2125
2312.66327	19474.3125
2315.51999	19480.0125
2318.37489	19465.3125
2321.22797	19445.0125
2324.07925	19462.7125
2326.92871	19440.4125
2329.77637	19401.6125
2332.62222	19414.5125
2335.46626	19431.6125
2338.3085	19372.8125
2341.14893	19419.0125
2343.98756	19447.1125
2346.8244	19487.1125
2349.65943	19492.4125
2352.49267	19441.8125
2355.32411	19459.3125
2358.15376	19418.9125
2360.98161	19419.3125
2363.80768	19399.2125
2366.63195	19350.9125
2369.45444	19339.5125
2372.27514	19294.1125
2375.09405	19266.6125
2377.91118	19255.0125
2380.72652	19181.9125
2383.54009	19135.3125
2386.35187	19160.1125
2389.16188	19102.8125
2391.97011	19039.4125
2394.77657	19031.3125
2397.58125	18978.0125
2400.38416	18967.0125
2403.18529	18958.6125
2405.98466	18903.2125
2408.78226	18903.9125
2411.57809	18864.5125
2414.37216	18834.2125
2417.16446	18841.2125
2419.955	18815.5125
2422.74378	18788.3125
2425.5308	18754.3125
2428.31606	18769.4125
2431.09956	18766.8125
2433.88131	18710.7125
2436.6613	18746.5125
2439.43954	18713.4125
2442.21603	18719.5125
2444.99077	18677.5125
2447.76377	18727.6125
2450.53501	18665.7125
2453.30451	18689.2125
2456.07226	18678.5125
2458.83827	18687.9125
2461.60254	18707.9125
2464.36507	18716.2125
2467.12586	18718.8125
2469.88492	18695.6125
2472.64224	18707.7125
2475.39782	18710.9125
2478.15167	18767.2125
2480.90379	18723.4125
2483.65417	18773.5125
2486.40283	18780.3125
2489.14976	18826.0125
2491.89497	18829.7125
2494.63845	18855.0125
2497.3802	18861.6125
2500.12024	18851.6125
2502.85855	18812.0125
2505.59514	18819.4125
2508.33002	18812.8125
2511.06318	18839.0125
2513.79462	18780.7125
2516.52435	18775.1125
2519.25237	18767.4125
2521.97867	18774.5125
2524.70327	18748.9125
2527.42616	18747.4125
2530.14734	18769.3125
2532.86681	18724.2125
2535.58458	18716.4125
2538.30065	18685.3125
2541.01501	18677.2125
2543.72768	18622.3125
2546.43864	18675.0125
2549.14791	18619.5125
2551.85548	18633.2125
2554.56136	18606.4125
2557.26554	18646.7125
2559.96803	18593.4125
2562.66883	18567.3125
2565.36794	18566.7125
2568.06536	18570.0125
2570.7611	18556.3125
2573.45514	18550.6125
2576.14751	18533.5125
2578.83819	18556.0125
2581.52719	18556.4125
2584.21451	18517.7125
2586.90015	18532.8125
2589.58411	18509.4125
2592.2664	18538.2125
2594.94701	18533.0125
2597.62594	18541.0125
2600.30321	18517.5125
2602.9788	18506.1125
2605.65273	18499.0125
2608.32498	18550.3125
2610.99557	18511.1125
2613.66449	18546.3125
2616.33175	18546.1125
2618.99734	18539.6125
2621.66128	18549.8125
2624.32355	18601.0125
2626.98416	18592.5125
2629.64311	18616.4125
2632.30041	18622.6125
2634.95605	18628.4125
2637.61004	18628.4125
2640.26238	18565.0125
2642.91306	18536.8125
2645.56209	18516.1125
2648.20948	18506.5125
2650.85521	18480.4125
2653.4993	18504.3125
2656.14175	18534.5125
2658.78255	18503.7125
2661.42171	18509.8125
2664.05923	18559.3125
2666.6951	18558.9125
2669.32934	18577.4125
2671.96194	18622.4125
2674.59291	18579.7125
2677.22224	18611.3125
2679.84993	18603.0125
2682.476	18570.8125
2685.10043	18566.9125
2687.72324	18565.5125
2690.34441	18581.7125
2692.96396	18538.5125
2695.58188	18565.3125
2698.19818	18524.1125
2700.81285	18517.9125
2703.4259	18524.7125
2706.03733	18599.4125
2708.64714	18560.0125
2711.25533	18590.7125
2713.86191	18540.6125
2716.46687	18549.8125
2719.07021	18558.4125
2721.67194	18605.7125
2724.27206	18588.5125
2726.87057	18601.4125
2729.46747	18617.7125
2732.06276	18589.7125
2734.65644	18618.6125
2737.24852	18616.1125
2739.83899	18553.1125
2742.42786	18613.3125
2745.01513	18584.7125
2747.60079	18587.3125
2750.18486	18606.6125
2752.76733	18624.0125
2755.3482	18629.4125
2757.92747	18634.0125
2760.50515	18612.5125
2763.08123	18631.6125
2765.65573	18664.5125
2768.22863	18614.5125
2770.79994	18594.1125
2773.36967	18592.7125
2775.9378	18644.7125
2778.50435	18637.3125
2781.06932	18608.9125
2783.6327	18641.1125
2786.1945	18615.2125
2788.75471	18587.1125
2791.31335	18539.0125
2793.87041	18520.8125
2796.42589	18474.9125
2798.97979	18481.9125
2801.53212	18473.4125
2804.08288	18464.8125
2806.63206	18418.6125
2809.17967	18397.4125
2811.72571	18352.5125
2814.27018	18342.1125
2816.81308	18326.4125
2819.35442	18317.0125
2821.89419	18258.4125
2824.43239	18253.0125
2826.96904	18233.8125
2829.50412	18242.3125
2832.03763	18214.9125
2834.56959	18202.2125
2837.1	18174.6125
2839.62884	18208.6125
2842.15613	18181.6125
2844.68186	18239.8125
2847.20604	18192.7125
2849.72867	18224.2125
2852.24974	18230.3125
2854.76927	18223.5125
2857.28724	18199.3125
2859.80367	18166.3125
2862.31855	18134.9125
2864.83189	18112.5125
2867.34368	18073.5125
2869.85393	18101.3125
2872.36264	18057.3125
2874.8698	18105.6125
2877.37543	18113.5125
2879.87952	18088.4125
2882.38207	18090.6125
2884.88308	18128.9125
2887.38256	18135.4125
2889.88051	18170.1125
2892.37692	18192.6125
2894.8718	18147.9125
2897.36515	18185.5125
2899.85698	18183.0125
2902.34727	18242.2125
2904.83604	18267.8125
2907.32328	18290.4125
2909.809	18281.7125
2912.29319	18276.9125
2914.77587	18263.0125
2917.25702	18242.5125
2919.73665	18226.4125
2922.21476	18278.1125
2924.69136	18220.1125
2927.16644	18309.4125
2929.64	18239.5125
2932.11205	18216.3125
2934.58258	18166.0125
2937.05161	18194.6125
2939.51912	18183.1125
2941.98513	18154.4125
2944.44962	18136.0125
2946.91261	18025.1125
2949.37409	18060.1125
2951.83407	18054.2125
2954.29254	18042.9125
2956.74951	18044.7125
2959.20498	17992.9125
2961.65895	17933.2125
2964.11142	17932.8125
2966.56239	17867.3125
2969.01186	17886.9125
2971.45984	17850.3125
2973.90632	17850.0125
2976.35131	17746.5125
2978.7948	17706.3125
2981.23681	17647.1125
2983.67732	17643.5125
2986.11635	17590.1125
2988.55388	17545.1125
2990.98993	17513.8125
2993.4245	17479.8125
2995.85758	17445.3125
2998.28917	17381.7125
3000.71928	17381.9125
3003.14791	17331.2125
3005.57506	17294.6125
3008.00073	17254.5125
3010.42493	17253.0125
3012.84764	17183.4125
3015.26888	17180.1125
3017.68865	17149.3125
3020.10694	17124.5125
3022.52376	17071.9125
