Data from AgNPs_FTO_APTES_UA_2uM_CRN_100uM_R6G_10uM_NaF_0.1M_Addition_RamanShift__4__15-42-45-305.txt Node

Date: Wed Feb 02 15:42:45 GMT 2022
User: TCL
Spectrometer: QEP01345
Trigger mode: 4
Integration Time (sec): 7.000000E0
Scans to average: 10
Electric dark correction enabled: true
Nonlinearity correction enabled: false
Boxcar width: 0
XAxis mode: Raman Shifts
Number of Pixels in Spectrum: 1044
>>>>>Begin Spectral Data<<<<<
46.04893	0.35
50.45542	0.65
54.85868	-1.75
59.25871	0.15
63.6555	68.75
68.04907	78.45
72.43941	79.25
76.82654	86.95
81.21044	91.25
85.59113	94.85
89.96862	96.35
94.34289	100.95
98.71396	102.15
103.08183	111.55
107.4465	110.55
111.80798	112.15
116.16626	112.55
120.52136	117.85
124.87327	123.85
129.222	128.85
133.56755	137.95
137.90993	148.35
142.24913	159.95
146.58517	181.15
150.91804	208.05
155.24774	250.65
159.57429	303.95
163.89768	388.95
168.21792	502.45
172.53501	689.05
176.84895	961.75
181.15975	1339.55
185.46741	1882.35
189.77193	2590.45
194.07331	3468.05
198.37157	4462.75
202.6667	5512.55
206.9587	6556.45
211.24758	7573.25
215.53334	8613.35
219.81599	9733.55
224.09553	10944.05
228.37195	12269.65
232.64527	13681.85
236.91549	15152.55
241.18261	16611.35
245.44663	18018.45
249.70755	19249.95
253.96539	20318.35
258.22014	21190.65
262.4718	21960.65
266.72039	22431.55
270.96589	22737.35
275.20832	22828.15
279.44768	22815.05
283.68397	22681.15
287.91719	22660.25
292.14735	22681.55
296.37445	22827.75
300.59849	23074.15
304.81948	23209.45
309.03742	23183.95
313.25231	22904.05
317.46415	22302.35
321.67296	21488.85
325.87872	20771.65
330.08145	20424.05
334.28114	20223.55
338.47781	20284.95
342.67145	20467.25
346.86207	20735.15
351.04966	21012.35
355.23424	21326.55
359.4158	21565.85
363.59435	21719.75
367.76989	21810.05
371.94243	21844.55
376.11196	21835.25
380.27849	21903.65
384.44203	21941.25
388.60257	22142.65
392.76012	22404.25
396.91468	22843.35
401.06626	23276.65
405.21485	23494.35
409.36047	23385.95
413.50311	23020.65
417.64277	22766.35
421.77947	22739.25
425.9132	22781.55
430.04396	22849.45
434.17176	22965.45
438.2966	23017.45
442.41849	23297.35
446.53742	23918.15
450.6534	24626.65
454.76644	25167.55
458.87653	25345.55
462.98368	25316.95
467.08789	25184.15
471.18916	25011.95
475.2875	24892.15
479.38291	24987.25
483.4754	24908.75
487.56496	24592.55
491.6516	23938.15
495.73531	23307.25
499.81612	22907.75
503.89401	22875.55
507.96899	22901.05
512.04106	22847.25
516.11023	22646.65
520.1765	22351.35
524.23987	22048.05
528.30034	21662.45
532.35792	21376.85
536.41261	21111.25
540.46441	20931.85
544.51333	21019.75
548.55936	21404.95
552.60252	22022.85
556.64279	22750.35
560.6802	23299.35
564.71473	23699.05
568.7464	24371.35
572.7752	25470.45
576.80114	26560.45
580.82422	27413.05
584.84444	28209.45
588.86181	28894.35
592.87633	29099.45
596.888	28478.05
600.89682	27307.15
604.9028	27097.85
608.90594	28484.15
612.90624	30011.35
616.90371	27919.95
620.89834	23312.25
624.89015	21281.55
628.87913	21110.15
632.86528	21331.45
636.84862	21410.45
640.82913	21062.55
644.80683	20453.55
648.78172	20044.95
652.75379	19903.75
656.72306	20103.65
660.68952	20327.05
664.65319	20236.25
668.61405	19868.35
672.57211	19766.95
676.52738	19857.25
680.47986	19887.95
684.42955	19758.95
688.37646	19683.45
692.32058	19720.55
696.26192	19946.05
700.20048	20266.55
704.13626	20490.85
708.06928	20618.25
711.99952	20599.45
715.927	20525.05
719.85171	20533.45
723.77365	20342.55
727.69284	20060.15
731.60928	19756.35
735.52295	19618.05
739.43388	19524.25
743.34206	19540.05
747.24749	19707.95
751.15017	19977.65
755.05012	20448.25
758.94733	21291.95
762.8418	22644.25
766.73354	24561.55
770.62254	26211.15
774.50882	26226.45
778.39237	24687.05
782.27321	22700.75
786.15132	21126.65
790.02671	20139.05
793.89938	19636.95
797.76935	19381.25
801.6366	19278.85
805.50115	19267.05
809.36299	19180.95
813.22213	19045.65
817.07857	19017.85
820.93231	18974.35
824.78336	18785.15
828.63172	18635.55
832.47738	18545.25
836.32036	18536.95
840.16066	18530.85
843.99827	18570.25
847.8332	18489.05
851.66546	18442.35
855.49504	18425.65
859.32195	18384.55
863.1462	18335.95
866.96777	18280.95
870.78668	18181.95
874.60293	18164.65
878.41652	18158.95
882.22745	18212.95
886.03573	18270.45
889.84136	18264.55
893.64433	18224.05
897.44466	18173.85
901.24235	18127.05
905.0374	18029.85
908.8298	18023.45
912.61957	18130.55
916.40671	18444.85
920.19121	18806.55
923.97308	19021.45
927.75233	18929.15
931.52895	18671.85
935.30295	18266.25
939.07433	17815.35
942.84309	17454.45
946.60924	17230.85
950.37278	17133.35
954.13371	17152.65
957.89203	17151.45
961.64774	17153.95
965.40086	17194.25
969.15137	17128.95
972.89929	16957.45
976.64461	16814.15
980.38733	16766.65
984.12747	16768.55
987.86502	16858.65
991.59999	16976.45
995.33237	17171.65
999.06217	17459.65
1002.78939	17868.25
1006.51404	18101.45
1010.23611	18378.45
1013.95561	18597.55
1017.67255	18665.85
1021.38692	18540.85
1025.09872	18251.95
1028.80796	18078.25
1032.51465	18224.25
1036.21877	18469.15
1039.92035	18683.95
1043.61937	18733.35
1047.31584	18690.95
1051.00976	18539.45
1054.70114	18522.85
1058.38998	18701.25
1062.07627	18960.55
1065.76003	19253.95
1069.44126	19620.65
1073.11995	19980.95
1076.79611	20238.85
1080.46974	20286.05
1084.14085	20332.35
1087.80943	20528.95
1091.47549	20792.75
1095.13903	20906.35
1098.80005	20658.45
1102.45857	20030.75
1106.11456	19391.25
1109.76805	19078.05
1113.41903	19022.65
1117.06751	19160.65
1120.71348	19433.95
1124.35696	19763.55
1127.99793	20111.45
1131.63641	20358.25
1135.2724	20256.65
1138.90589	20134.05
1142.5369	20246.15
1146.16542	20516.55
1149.79145	20851.85
1153.415	21247.95
1157.03607	21764.95
1160.65467	22589.55
1164.27079	23833.35
1167.88443	25383.25
1171.49561	27154.95
1175.10432	29303.75
1178.71056	31726.25
1182.31434	34016.45
1185.91565	35163.55
1189.51451	35081.45
1193.11091	34283.55
1196.70485	33046.55
1200.29634	31633.35
1203.88538	30642.05
1207.47197	30183.35
1211.05612	29938.95
1214.63782	29323.75
1218.21708	28263.05
1221.79391	27045.15
1225.36829	26102.55
1228.94024	25505.45
1232.50976	24995.15
1236.07685	24657.75
1239.6415	24475.75
1243.20374	24524.35
1246.76355	24693.95
1250.32093	25112.35
1253.8759	25722.05
1257.42845	26499.65
1260.97859	27389.95
1264.52631	28253.85
1268.07163	29091.15
1271.61453	30022.25
1275.15503	31061.15
1278.69312	32268.15
1282.22882	33510.85
1285.76211	35023.75
1289.29301	36806.35
1292.82151	39085.35
1296.34761	41841.35
1299.87133	44817.55
1303.39266	47538.95
1306.9116	49881.25
1310.42815	51330.05
1313.94233	51920.05
1317.45412	51622.95
1320.96354	51017.05
1324.47058	50764.15
1327.97525	50741.05
1331.47754	50582.45
1334.97747	50381.05
1338.47502	49791.35
1341.97022	49043.55
1345.46305	48190.85
1348.95352	47247.95
1352.44163	46525.15
1355.92738	46481.35
1359.41078	47412.35
1362.89183	48374.25
1366.37053	47633.65
1369.84688	44174.65
1373.32088	39727.75
1376.79254	36520.15
1380.26186	35470.75
1383.72883	35693.85
1387.19347	36143.25
1390.65578	36170.95
1394.11575	36281.65
1397.57339	36752.05
1401.0287	37350.75
1404.48168	37701.35
1407.93234	37216.05
1411.38068	35895.15
1414.82669	33980.75
1418.27039	31996.95
1421.71177	30122.15
1425.15083	28685.75
1428.58758	28023.45
1432.02203	28171.15
1435.45416	29075.95
1438.88399	30167.75
1442.31151	31060.45
1445.73673	31737.45
1449.15965	32414.85
1452.58027	32959.75
1455.9986	33164.45
1459.41463	33462.15
1462.82837	33859.85
1466.23982	34320.35
1469.64898	34702.65
1473.05586	34896.75
1476.46045	34797.25
1479.86276	34388.15
1483.26279	33924.05
1486.66054	33730.75
1490.05602	33890.55
1493.44922	34427.25
1496.84016	35195.35
1500.22882	36360.55
1503.61521	37811.35
1506.99934	39439.25
1510.38121	40732.55
1513.76081	41023.65
1517.13816	40129.65
1520.51324	38853.65
1523.88607	37957.65
1527.25665	37642.55
1530.62498	37600.95
1533.99105	37435.75
1537.35488	36813.95
1540.71647	35750.25
1544.07581	34366.85
1547.4329	32977.25
1550.78776	31797.05
1554.14038	31125.35
1557.49077	30765.05
1560.83892	30603.85
1564.18484	30670.25
1567.52853	30832.85
1570.86999	31306.35
1574.20922	32145.05
1577.54624	33034.35
1580.88103	33560.55
1584.2136	34144.85
1587.54395	35232.35
1590.87208	36744.75
1594.19801	38576.35
1597.52172	40130.15
1600.84321	40106.45
1604.16251	37887.05
1607.47959	34540.35
1610.79447	31177.35
1614.10715	28193.25
1617.41763	25790.55
1620.7259	24047.45
1624.03199	23181.55
1627.33587	23193.85
1630.63757	24048.25
1633.93707	25929.35
1637.23439	29047.65
1640.52951	33476.05
1643.82246	38780.55
1647.11321	43140.05
1650.40179	44426.25
1653.68819	41480.75
1656.97241	35764.55
1660.25446	29720.25
1663.53433	24991.95
1666.81203	21739.55
1670.08756	19651.85
1673.36092	18363.85
1676.63211	17530.95
1679.90115	16965.95
1683.16801	16545.55
1686.43272	16253.25
1689.69527	16041.55
1692.95567	15847.15
1696.2139	15745.05
1699.46999	15633.75
1702.72392	15544.35
1705.97571	15441.75
1709.22535	15355.85
1712.47284	15308.35
1715.71819	15231.95
1718.96139	15162.95
1722.20246	15115.45
1725.44139	15013.75
1728.67818	14922.05
1731.91284	14794.55
1735.14537	14718.25
1738.37576	14630.25
1741.60403	14557.45
1744.83017	14490.75
1748.05418	14434.95
1751.27607	14432.95
1754.49584	14437.55
1757.71349	14407.85
1760.92903	14400.45
1764.14244	14363.55
1767.35375	14336.35
1770.56294	14250.05
1773.77002	14228.85
1776.97499	14155.35
1780.17785	14142.65
1783.37861	14047.75
1786.57727	14015.75
1789.77382	13957.95
1792.96828	13949.95
1796.16064	13898.85
1799.3509	13894.15
1802.53907	13836.15
1805.72514	13783.35
1808.90913	13737.35
1812.09102	13707.35
1815.27083	13668.75
1818.44856	13649.75
1821.6242	13656.15
1824.79776	13611.85
1827.96924	13605.75
1831.13864	13597.55
1834.30597	13596.95
1837.47122	13603.45
1840.6344	13571.75
1843.7955	13598.75
1846.95454	13575.05
1850.11151	13564.35
1853.26642	13530.55
1856.41926	13522.25
1859.57004	13528.85
1862.71876	13468.45
1865.86542	13490.65
1869.01003	13454.85
1872.15258	13406.85
1875.29308	13390.35
1878.43152	13396.15
1881.56792	13368.95
1884.70227	13318.65
1887.83457	13307.45
1890.96482	13312.65
1894.09304	13257.85
1897.21921	13267.45
1900.34335	13240.95
1903.46544	13196.95
1906.58551	13205.35
1909.70353	13154.95
1912.81953	13119.05
1915.93349	13093.75
1919.04543	13054.35
1922.15534	13050.65
1925.26322	13003.25
1928.36908	12986.25
1931.47292	12938.85
1934.57473	12884.45
1937.67453	12861.05
1940.77232	12827.05
1943.86808	12769.15
1946.96184	12761.55
1950.05358	12718.55
1953.14331	12658.45
1956.23103	12618.15
1959.31675	12596.85
1962.40046	12547.85
1965.48217	12514.05
1968.56188	12448.85
1971.63959	12421.25
1974.7153	12407.35
1977.78901	12369.85
1980.86073	12311.75
1983.93046	12252.35
1986.99819	12204.45
1990.06394	12184.05
1993.1277	12134.95
1996.18947	12093.75
1999.24925	12053.05
2002.30706	12017.75
2005.36288	11984.05
2008.41672	11948.55
2011.46859	11900.35
2014.51848	11853.45
2017.56639	11850.05
2020.61233	11808.45
2023.6563	11785.85
2026.6983	11733.75
2029.73833	11738.15
2032.7764	11703.95
2035.8125	11679.45
2038.84664	11648.85
2041.87881	11659.45
2044.90903	11612.65
2047.93729	11593.85
2050.96359	11567.35
2053.98794	11560.45
2057.01034	11550.85
2060.03078	11529.65
2063.04927	11517.85
2066.06582	11504.95
2069.08042	11510.85
2072.09307	11499.35
2075.10378	11489.45
2078.11255	11456.25
2081.11938	11448.95
2084.12426	11460.15
2087.12722	11444.15
2090.12824	11447.25
2093.12732	11444.35
2096.12447	11438.75
2099.11969	11436.75
2102.11299	11454.05
2105.10435	11434.45
2108.09379	11431.15
2111.08131	11448.95
2114.0669	11451.35
2117.05057	11459.85
2120.03233	11451.45
2123.01216	11476.25
2125.99008	11480.65
2128.96609	11468.75
2131.94018	11440.35
2134.91236	11446.45
2137.88263	11443.45
2140.851	11436.45
2143.81746	11473.95
2146.78201	11458.65
2149.74466	11456.35
2152.7054	11463.25
2155.66425	11424.05
2158.6212	11440.85
2161.57625	11409.05
2164.52941	11429.75
2167.48067	11406.05
2170.43004	11407.85
2173.37752	11370.95
2176.32311	11405.65
2179.26681	11396.75
2182.20863	11377.85
2185.14856	11393.95
2188.08661	11376.25
2191.02278	11369.85
2193.95707	11347.45
2196.88948	11342.05
2199.82001	11341.85
2202.74867	11323.15
2205.67545	11315.15
2208.60037	11293.95
2211.52341	11258.85
2214.44458	11246.45
2217.36388	11235.65
2220.28132	11213.85
2223.1969	11187.55
2226.11061	11153.65
2229.02246	11158.55
2231.93245	11117.35
2234.84058	11096.15
2237.74686	11087.75
2240.65128	11091.85
2243.55385	11046.25
2246.45456	11046.95
2249.35343	11010.25
2252.25044	10973.75
2255.14561	10992.15
2258.03893	10960.55
2260.93041	10929.25
2263.82004	10869.75
2266.70783	10862.65
2269.59378	10822.55
2272.4779	10816.65
2275.36017	10781.05
2278.24061	10753.25
2281.11922	10730.05
2283.996	10718.45
2286.87094	10683.75
2289.74405	10664.95
2292.61534	10648.65
2295.4848	10643.15
2298.35243	10647.25
2301.21824	10643.55
2304.08223	10637.05
2306.94439	10633.55
2309.80474	10627.05
2312.66327	10603.65
2315.51999	10602.15
2318.37489	10583.95
2321.22797	10590.65
2324.07925	10599.95
2326.92871	10567.15
2329.77637	10548.95
2332.62222	10532.15
2335.46626	10523.25
2338.3085	10520.45
2341.14893	10505.55
2343.98756	10517.05
2346.8244	10533.25
2349.65943	10539.55
2352.49267	10513.35
2355.32411	10508.75
2358.15376	10514.45
2360.98161	10495.75
2363.80768	10487.95
2366.63195	10497.05
2369.45444	10467.55
2372.27514	10469.25
2375.09405	10444.65
2377.91118	10418.05
2380.72652	10405.25
2383.54009	10382.55
2386.35187	10376.15
2389.16188	10339.15
2391.97011	10332.95
2394.77657	10304.65
2397.58125	10293.35
2400.38416	10251.25
2403.18529	10244.75
2405.98466	10239.05
2408.78226	10218.45
2411.57809	10195.75
2414.37216	10190.95
2417.16446	10195.95
2419.955	10175.75
2422.74378	10183.45
2425.5308	10179.45
2428.31606	10157.05
2431.09956	10157.85
2433.88131	10125.15
2436.6613	10132.65
2439.43954	10134.85
2442.21603	10128.25
2444.99077	10130.15
2447.76377	10118.65
2450.53501	10124.85
2453.30451	10124.05
2456.07226	10126.55
2458.83827	10113.35
2461.60254	10096.95
2464.36507	10104.45
2467.12586	10079.05
2469.88492	10093.75
2472.64224	10098.35
2475.39782	10108.75
2478.15167	10115.15
2480.90379	10110.55
2483.65417	10099.55
2486.40283	10097.05
2489.14976	10125.35
2491.89497	10102.75
2494.63845	10133.45
2497.3802	10088.45
2500.12024	10113.35
2502.85855	10071.25
2505.59514	10077.15
2508.33002	10073.35
2511.06318	10079.05
2513.79462	10061.35
2516.52435	10048.15
2519.25237	10072.15
2521.97867	10029.55
2524.70327	10034.55
2527.42616	9997.75
2530.14734	9998.45
2532.86681	9961.75
2535.58458	10000.35
2538.30065	9991.05
2541.01501	9982.35
2543.72768	9943.65
2546.43864	9932.75
2549.14791	9919.95
2551.85548	9916.45
2554.56136	9915.65
2557.26554	9913.05
2559.96803	9926.75
2562.66883	9919.75
2565.36794	9905.75
2568.06536	9891.85
2570.7611	9886.05
2573.45514	9876.35
2576.14751	9899.95
2578.83819	9870.65
2581.52719	9856.85
2584.21451	9862.25
2586.90015	9855.55
2589.58411	9829.35
2592.2664	9849.75
2594.94701	9821.85
2597.62594	9859.25
2600.30321	9803.65
2602.9788	9789.95
2605.65273	9804.75
2608.32498	9790.15
2610.99557	9797.05
2613.66449	9825.25
2616.33175	9796.35
2618.99734	9818.35
2621.66128	9807.15
2624.32355	9770.95
2626.98416	9817.35
2629.64311	9767.65
2632.30041	9798.25
2634.95605	9790.95
2637.61004	9777.25
2640.26238	9726.95
2642.91306	9762.05
2645.56209	9752.65
2648.20948	9732.15
2650.85521	9747.95
2653.4993	9757.45
2656.14175	9754.35
2658.78255	9773.95
2661.42171	9743.95
2664.05923	9789.45
2666.6951	9802.95
2669.32934	9811.65
2671.96194	9803.55
2674.59291	9780.35
2677.22224	9785.15
2679.84993	9777.55
2682.476	9768.15
2685.10043	9779.45
2687.72324	9755.75
2690.34441	9751.15
2692.96396	9754.45
2695.58188	9757.55
2698.19818	9754.45
2700.81285	9748.15
2703.4259	9765.45
2706.03733	9815.75
2708.64714	9791.15
2711.25533	9789.85
2713.86191	9786.25
2716.46687	9804.25
2719.07021	9817.45
2721.67194	9817.95
2724.27206	9801.75
2726.87057	9851.45
2729.46747	9831.25
2732.06276	9847.95
2734.65644	9796.75
2737.24852	9815.25
2739.83899	9801.25
2742.42786	9802.95
2745.01513	9779.45
2747.60079	9788.25
2750.18486	9769.75
2752.76733	9790.55
2755.3482	9785.95
2757.92747	9796.35
2760.50515	9809.95
2763.08123	9817.45
2765.65573	9774.15
2768.22863	9796.55
2770.79994	9769.25
2773.36967	9774.95
2775.9378	9788.75
2778.50435	9794.85
2781.06932	9765.85
2783.6327	9779.85
2786.1945	9781.75
2788.75471	9741.35
2791.31335	9746.65
2793.87041	9719.55
2796.42589	9735.25
2798.97979	9727.25
2801.53212	9716.95
2804.08288	9693.85
2806.63206	9677.15
2809.17967	9663.55
2811.72571	9634.15
2814.27018	9612.25
2816.81308	9621.15
2819.35442	9619.35
2821.89419	9582.85
2824.43239	9578.35
2826.96904	9584.95
2829.50412	9567.45
2832.03763	9567.25
2834.56959	9566.75
2837.1	9574.25
2839.62884	9584.25
2842.15613	9578.45
2844.68186	9624.85
2847.20604	9657.05
2849.72867	9645.25
2852.24974	9674.35
2854.76927	9651.65
2857.28724	9643.75
2859.80367	9607.45
2862.31855	9606.65
2864.83189	9596.05
2867.34368	9592.85
2869.85393	9595.55
2872.36264	9586.25
2874.8698	9589.65
2877.37543	9587.95
2879.87952	9568.35
2882.38207	9588.25
2884.88308	9591.75
2887.38256	9579.35
2889.88051	9578.45
2892.37692	9584.05
2894.8718	9596.85
2897.36515	9600.35
2899.85698	9594.05
2902.34727	9620.25
2904.83604	9599.85
2907.32328	9644.05
2909.809	9618.65
2912.29319	9655.65
2914.77587	9638.35
2917.25702	9638.15
2919.73665	9627.85
2922.21476	9629.65
2924.69136	9632.55
2927.16644	9637.15
2929.64	9653.75
2932.11205	9643.15
2934.58258	9617.05
2937.05161	9605.05
2939.51912	9602.85
2941.98513	9582.85
2944.44962	9555.35
2946.91261	9492.45
2949.37409	9492.85
2951.83407	9478.85
2954.29254	9452.25
2956.74951	9447.45
2959.20498	9431.25
2961.65895	9402.95
2964.11142	9402.75
2966.56239	9378.75
2969.01186	9378.55
2971.45984	9350.55
2973.90632	9323.65
2976.35131	9272.85
2978.7948	9278.05
2981.23681	9253.55
2983.67732	9205.75
2986.11635	9195.65
2988.55388	9168.45
2990.98993	9157.15
2993.4245	9138.45
2995.85758	9120.85
2998.28917	9104.25
3000.71928	9074.35
3003.14791	9057.65
3005.57506	9037.15
3008.00073	9013.05
3010.42493	8982.75
3012.84764	8993.85
3015.26888	8983.95
3017.68865	8938.75
3020.10694	8935.55
3022.52376	8928.85
3024.9391	8887.15
3027.35298	8882.35
3029.76539	8880.25
3032.17632	8886.35
3034.5858	8865.35
3036.9938	8875.05
3039.40034	8847.85
3041.80542	8849.85
3044.20903	8829.25
3046.61118	8825.85
3049.01187	8787.85
3051.4111	8766.15
3053.80888	8740.75
3056.20519	8728.55
3058.60005	8734.45
3060.99345	8691.05
3063.3854	8686.95
3065.7759	8671.35
3068.16494	8657.65
3070.55254	8582.45
3072.93868	8594.45
3075.32338	8554.35
3077.70662	8552.45
3080.08842	8530.45
3082.46878	8519.05
3084.84769	8486.85
3087.22515	8486.05
3089.60118	8485.25
3091.97576	8491.65
3094.3489	8456.95
3096.72061	8468.45
3099.09087	8462.85
3101.4597	8450.15
3103.82709	8431.75
3106.19305	8418.45
3108.55757	8425.55
3110.92066	8385.05
3113.28232	8377.25
3115.64255	8345.95
3118.00134	8317.25
3120.35871	8307.55
3122.71466	8275.35
3125.06917	8282.35
3127.42226	8273.05
3129.77393	8273.65
3132.12417	8251.95
3134.47299	8239.65
3136.82039	8233.45
3139.16636	8245.35
3141.51092	8252.75
3143.85406	8275.75
3146.19579	8269.05
3148.53609	8261.15
3150.87499	8260.35
3153.21246	8272.95
3155.54853	8270.95
3157.88318	8274.15
3160.21642	8273.35
3162.54826	8246.55
3164.87868	8254.75
3167.2077	8229.25
3169.5353	8261.55
3171.86151	8252.15
3174.18631	8246.85
3176.5097	8253.65
3178.83169	8243.15
3181.15228	8228.15
3183.47147	8231.45
3185.78926	8199.55
3188.10565	8219.45
3190.42065	8204.25
3192.73424	8207.35
3195.04645	8198.25
3197.35725	8197.25
3199.66667	8175.05
3201.97469	8175.45
3204.28132	8164.05
3206.58656	8184.25
3208.8904	8150.85
3211.19287	8193.75
3213.49394	8187.25
3215.79363	8180.65
3218.09193	8187.45
3220.38884	8191.45
3222.68438	8193.95
3224.97853	8163.75
3227.2713	8155.95
3229.56269	8150.55
3231.8527	8149.25
3234.14133	8132.15
3236.42858	8127.55
3238.71446	8122.35
3240.99896	8099.75
3243.28209	8098.75
3245.56384	8087.05
3247.84423	8081.45
3250.12324	8075.35
3252.40088	8062.25
3254.67715	8078.85
3256.95205	8050.75
3259.22558	8040.15
3261.49775	8005.75
3263.76855	7991.65
3266.03799	7967.15
3268.30606	7945.35
3270.57277	7932.15
3272.83812	7926.25
