Data from AgNPs_FTO_APTES_UA_5uM_CRN_1000uM_R6G_10uM_NaF_0.1M_Addition_RamanShift__9__17-34-21-872.txt Node

Date: Mon Feb 07 17:34:21 GMT 2022
User: TCL
Spectrometer: QEP01345
Trigger mode: 4
Integration Time (sec): 7.000000E0
Scans to average: 10
Electric dark correction enabled: true
Nonlinearity correction enabled: false
Boxcar width: 0
XAxis mode: Raman Shifts
Number of Pixels in Spectrum: 1044
>>>>>Begin Spectral Data<<<<<
46.04893	-1.4
50.45542	0.4
54.85868	0
59.25871	-0.6
63.6555	54.9
68.04907	60.6
72.43941	61.8
76.82654	63.9
81.21044	65
85.59113	67.1
89.96862	71.1
94.34289	71.3
98.71396	78.9
103.08183	79.2
107.4465	77.4
111.80798	82.6
116.16626	82.6
120.52136	90.7
124.87327	93
129.222	98.4
133.56755	104.5
137.90993	110.6
142.24913	129.6
146.58517	139.1
150.91804	165.1
155.24774	203.6
159.57429	253.7
163.89768	325.2
168.21792	440.3
172.53501	605.8
176.84895	836.9
181.15975	1185.1
185.46741	1670.2
189.77193	2297.8
194.07331	3087
198.37157	3967.4
202.6667	4903.8
206.9587	5840
211.24758	6759.6
215.53334	7651.4
219.81599	8624.5
224.09553	9689.7
228.37195	10805.1
232.64527	12065.5
236.91549	13378.1
241.18261	14698.7
245.44663	15962.2
249.70755	17074.3
253.96539	18132.9
258.22014	18961.2
262.4718	19656
266.72039	20139.9
270.96589	20410.5
275.20832	20540.2
279.44768	20503.4
283.68397	20375.3
287.91719	20259.1
292.14735	20207
296.37445	20269.4
300.59849	20304
304.81948	20390.2
309.03742	20276.9
313.25231	20049.4
317.46415	19641.5
321.67296	19169.9
325.87872	18727.7
330.08145	18482.7
334.28114	18369.4
338.47781	18474.4
342.67145	18622.1
346.86207	18850.5
351.04966	19138.2
355.23424	19375.2
359.4158	19609.3
363.59435	19782.2
367.76989	19900.1
371.94243	20012.6
376.11196	20055.2
380.27849	20066.3
384.44203	20181.2
388.60257	20372
392.76012	20616.7
396.91468	20863.5
401.06626	21174.5
405.21485	21335.5
409.36047	21263.7
413.50311	20986.3
417.64277	20869.1
421.77947	20884.4
425.9132	21044.3
430.04396	21203.8
434.17176	21369
438.2966	21499.1
442.41849	21840.5
446.53742	22337.6
450.6534	22933.9
454.76644	23362.7
458.87653	23586.5
462.98368	23538.8
467.08789	23380.6
471.18916	23247.4
475.2875	23169.2
479.38291	23229.1
483.4754	23188
487.56496	22914.7
491.6516	22411.1
495.73531	21853.7
499.81612	21433.5
503.89401	21406.2
507.96899	21446
512.04106	21389.3
516.11023	21266.4
520.1765	20963.1
524.23987	20725.5
528.30034	20543.9
532.35792	20355.8
536.41261	20166.9
540.46441	19991.2
544.51333	20031.2
548.55936	20296.7
552.60252	20827.2
556.64279	21413.8
560.6802	21906.4
564.71473	22300
568.7464	22847
572.7752	23681.5
576.80114	24540.5
580.82422	25134.4
584.84444	25708.1
588.86181	26449.1
592.87633	27105.7
596.888	26833.1
600.89682	25677.4
604.9028	25069.9
608.90594	25642
612.90624	26510.9
616.90371	24857.7
620.89834	21638.1
624.89015	20197.8
628.87913	20133.1
632.86528	20330.7
636.84862	20382
640.82913	20134.4
644.80683	19690.4
648.78172	19428
652.75379	19346.6
656.72306	19462.1
660.68952	19610.1
664.65319	19521.3
668.61405	19289.4
672.57211	19224.7
676.52738	19293.1
680.47986	19351.9
684.42955	19313
688.37646	19206.1
692.32058	19231.5
696.26192	19405.4
700.20048	19571.6
704.13626	19770
708.06928	19830.3
711.99952	19873.6
715.927	19842.2
719.85171	19822.5
723.77365	19686.5
727.69284	19471.7
731.60928	19233.7
735.52295	19116.8
739.43388	19119.2
743.34206	19087.4
747.24749	19217.4
751.15017	19403.4
755.05012	19777.7
758.94733	20357.1
762.8418	21274.2
766.73354	22584.1
770.62254	23754.7
774.50882	23831.7
778.39237	22757
782.27321	21289.6
786.15132	20141.5
790.02671	19458.8
793.89938	19079.1
797.76935	18889.8
801.6366	18828.7
805.50115	18776.7
809.36299	18695.1
813.22213	18615.3
817.07857	18582.8
820.93231	18567.7
824.78336	18443.3
828.63172	18245.8
832.47738	18168.4
836.32036	18134.6
840.16066	18097.1
843.99827	18081.4
847.8332	18074
851.66546	18096.7
855.49504	18086.5
859.32195	18096
863.1462	18021.9
866.96777	18001.2
870.78668	17963.2
874.60293	17978.7
878.41652	17953.8
882.22745	18014.6
886.03573	18051.1
889.84136	18041.6
893.64433	18019.4
897.44466	17995.5
901.24235	17918
905.0374	17891.2
908.8298	17825.4
912.61957	17877.4
916.40671	18081.9
920.19121	18383.7
923.97308	18569.9
927.75233	18466.4
931.52895	18193.5
935.30295	17827.5
939.07433	17507.4
942.84309	17252.5
946.60924	17084.8
950.37278	17022.5
954.13371	17043.9
957.89203	17053.2
961.64774	17045.9
965.40086	17016.8
969.15137	16917.2
972.89929	16817.2
976.64461	16653.9
980.38733	16627.3
984.12747	16571.8
987.86502	16616.1
991.59999	16662.8
995.33237	16778.2
999.06217	16922.8
1002.78939	17189.2
1006.51404	17440.1
1010.23611	17709
1013.95561	17909.5
1017.67255	18015.8
1021.38692	17918.3
1025.09872	17620.9
1028.80796	17364.6
1032.51465	17236.4
1036.21877	17273.1
1039.92035	17351.8
1043.61937	17423.2
1047.31584	17519.7
1051.00976	17638.5
1054.70114	17728.5
1058.38998	17878.1
1062.07627	18111.6
1065.76003	18341.8
1069.44126	18522.4
1073.11995	18764.7
1076.79611	18949.4
1080.46974	19005.8
1084.14085	19090.9
1087.80943	19214.8
1091.47549	19429.2
1095.13903	19507.6
1098.80005	19344.7
1102.45857	18922.7
1106.11456	18512
1109.76805	18278.2
1113.41903	18253.6
1117.06751	18385
1120.71348	18573.1
1124.35696	18871.9
1127.99793	19196
1131.63641	19377.8
1135.2724	19330
1138.90589	19194.9
1142.5369	19322
1146.16542	19561.8
1149.79145	19866.3
1153.415	20172.3
1157.03607	20552
1160.65467	21216.3
1164.27079	22288.1
1167.88443	23538.2
1171.49561	24797
1175.10432	26339.5
1178.71056	28116.4
1182.31434	29762
1185.91565	30548.6
1189.51451	30479.8
1193.11091	29894.6
1196.70485	29012.3
1200.29634	28059.6
1203.88538	27451.5
1207.47197	27234.1
1211.05612	26983.2
1214.63782	26492.8
1218.21708	25619.1
1221.79391	24686.3
1225.36829	23967.1
1228.94024	23566.9
1232.50976	23135
1236.07685	22796.5
1239.6415	22568.9
1243.20374	22558.8
1246.76355	22719.3
1250.32093	22976.3
1253.8759	23417.2
1257.42845	23991.4
1260.97859	24636
1264.52631	25307.3
1268.07163	25939.8
1271.61453	26587.7
1275.15503	27368.8
1278.69312	28274.8
1282.22882	29304.5
1285.76211	30644.8
1289.29301	32259.3
1292.82151	34092.8
1296.34761	36416.8
1299.87133	38742
1303.39266	40840.6
1306.9116	42438.2
1310.42815	43451.1
1313.94233	43912.2
1317.45412	43671.1
1320.96354	43221.2
1324.47058	42850.6
1327.97525	42601.9
1331.47754	42423.5
1334.97747	42152.1
1338.47502	41716.6
1341.97022	41171.5
1345.46305	40484.3
1348.95352	39823.8
1352.44163	39402.8
1355.92738	39539.3
1359.41078	40402.4
1362.89183	41092.3
1366.37053	40419.8
1369.84688	37720.6
1373.32088	34165.8
1376.79254	31732.6
1380.26186	31029.9
1383.72883	31396.5
1387.19347	31802.9
1390.65578	31858.8
1394.11575	31991.8
1397.57339	32357.7
1401.0287	32850
1404.48168	33059.3
1407.93234	32627.2
1411.38068	31515.7
1414.82669	29965.8
1418.27039	28230.1
1421.71177	26770.8
1425.15083	25588.7
1428.58758	25059
1432.02203	25216.2
1435.45416	25950.2
1438.88399	26859.7
1442.31151	27586.1
1445.73673	28049.7
1449.15965	28471.8
1452.58027	28819.9
1455.9986	29021.2
1459.41463	29263.4
1462.82837	29630.8
1466.23982	29955.2
1469.64898	30234
1473.05586	30365.1
1476.46045	30245.8
1479.86276	29878.1
1483.26279	29452.7
1486.66054	29190.4
1490.05602	29192.2
1493.44922	29415.2
1496.84016	29772.1
1500.22882	30299
1503.61521	31014.5
1506.99934	31989.1
1510.38121	32721.5
1513.76081	33000.9
1517.13816	32640.4
1520.51324	32177.8
1523.88607	31991.2
1527.25665	32178.5
1530.62498	32377.2
1533.99105	32347.2
1537.35488	31850.2
1540.71647	30990.9
1544.07581	29907.6
1547.4329	28798.9
1550.78776	27815.7
1554.14038	27122.6
1557.49077	26757.4
1560.83892	26495.8
1564.18484	26477.7
1567.52853	26584.7
1570.86999	27026.6
1574.20922	27778.3
1577.54624	28585.6
1580.88103	29021.7
1584.2136	29517.8
1587.54395	30301
1590.87208	31562.9
1594.19801	33074.3
1597.52172	34251.8
1600.84321	34380.8
1604.16251	32641.6
1607.47959	29874.4
1610.79447	27157.4
1614.10715	24718.2
1617.41763	22778.2
1620.7259	21454.9
1624.03199	20841.5
1627.33587	20854
1630.63757	21614.9
1633.93707	23179.3
1637.23439	25752.4
1640.52951	29478.1
1643.82246	33888
1647.11321	37312.4
1650.40179	37864.9
1653.68819	34963.6
1656.97241	30036.8
1660.25446	25173.9
1663.53433	21547.7
1666.81203	19137.9
1670.08756	17637.9
1673.36092	16709.9
1676.63211	16096.5
1679.90115	15681.8
1683.16801	15353.7
1686.43272	15099
1689.69527	14899
1692.95567	14767.6
1696.2139	14652.2
1699.46999	14559.9
1702.72392	14450.4
1705.97571	14414.4
1709.22535	14345.5
1712.47284	14298.8
1715.71819	14235.4
1718.96139	14193.8
1722.20246	14127
1725.44139	14018.6
1728.67818	13941.4
1731.91284	13846.7
1735.14537	13737.7
1738.37576	13684.4
1741.60403	13646.7
1744.83017	13555.3
1748.05418	13526.1
1751.27607	13509
1754.49584	13471.7
1757.71349	13486.2
1760.92903	13427.9
1764.14244	13421.9
1767.35375	13398.4
1770.56294	13343.3
1773.77002	13276.1
1776.97499	13273.5
1780.17785	13210.3
1783.37861	13192.6
1786.57727	13177.4
1789.77382	13132
1792.96828	13080.4
1796.16064	13019.1
1799.3509	12990.8
1802.53907	12930.8
1805.72514	12950.4
1808.90913	12880.5
1812.09102	12823.4
1815.27083	12798.4
1818.44856	12738.8
1821.6242	12729.7
1824.79776	12713.9
1827.96924	12711
1831.13864	12664.5
1834.30597	12651.5
1837.47122	12631.6
1840.6344	12591.2
1843.7955	12610.3
1846.95454	12570.9
1850.11151	12581.7
1853.26642	12548.8
1856.41926	12535.3
1859.57004	12493.4
1862.71876	12500.7
1865.86542	12473.4
1869.01003	12464.5
1872.15258	12431.6
1875.29308	12396.1
1878.43152	12389.3
1881.56792	12367.6
1884.70227	12325.9
1887.83457	12338.7
1890.96482	12319.1
1894.09304	12253.4
1897.21921	12264.9
1900.34335	12247.3
1903.46544	12223.4
1906.58551	12209.6
1909.70353	12177
1912.81953	12119.6
1915.93349	12068.6
1919.04543	12081.2
1922.15534	12037.2
1925.26322	12012.5
1928.36908	11959.4
1931.47292	11939.5
1934.57473	11930.3
1937.67453	11890.6
1940.77232	11848.8
1943.86808	11811.8
1946.96184	11760.2
1950.05358	11721.4
1953.14331	11674.8
1956.23103	11637
1959.31675	11595.4
1962.40046	11580.4
1965.48217	11526.8
1968.56188	11474.9
1971.63959	11436.4
1974.7153	11394.3
1977.78901	11312.6
1980.86073	11315.7
1983.93046	11286.5
1986.99819	11218.1
1990.06394	11196.4
1993.1277	11145.9
1996.18947	11105.2
1999.24925	11095.1
2002.30706	11040.8
2005.36288	10980
2008.41672	10982.6
2011.46859	10927.5
2014.51848	10861.5
2017.56639	10864.7
2020.61233	10839.8
2023.6563	10781
2026.6983	10722.4
2029.73833	10713.6
2032.7764	10677
2035.8125	10685.6
2038.84664	10635.6
2041.87881	10611.8
2044.90903	10587.2
2047.93729	10549.3
2050.96359	10563.3
2053.98794	10522.4
2057.01034	10515
2060.03078	10519.9
2063.04927	10500.3
2066.06582	10503.5
2069.08042	10472.8
2072.09307	10491.5
2075.10378	10444.6
2078.11255	10426.8
2081.11938	10441.7
2084.12426	10417.9
2087.12722	10390.3
2090.12824	10381
2093.12732	10384.7
2096.12447	10388.8
2099.11969	10367.4
2102.11299	10346.1
2105.10435	10345.4
2108.09379	10341.6
2111.08131	10346.2
2114.0669	10330.5
2117.05057	10347.6
2120.03233	10376.2
2123.01216	10364.4
2125.99008	10363.4
2128.96609	10343.9
2131.94018	10339.9
2134.91236	10338.5
2137.88263	10367
2140.851	10350.5
2143.81746	10351.8
2146.78201	10353
2149.74466	10299.3
2152.7054	10301.5
2155.66425	10274.2
2158.6212	10299.3
2161.57625	10266.4
2164.52941	10255.1
2167.48067	10226.1
2170.43004	10240.3
2173.37752	10227.3
2176.32311	10229.1
2179.26681	10214.5
2182.20863	10207.4
2185.14856	10215.8
2188.08661	10221.2
2191.02278	10189.4
2193.95707	10185.2
2196.88948	10135
2199.82001	10138.6
2202.74867	10134.5
2205.67545	10091.9
2208.60037	10054
2211.52341	10045.3
2214.44458	10018.1
2217.36388	10005.2
2220.28132	9981.8
2223.1969	9958.7
2226.11061	9936.9
2229.02246	9919.6
2231.93245	9916
2234.84058	9900.1
2237.74686	9858
2240.65128	9834.5
2243.55385	9811.7
2246.45456	9801.9
2249.35343	9796.1
2252.25044	9782.6
2255.14561	9741
2258.03893	9681.9
2260.93041	9669.8
2263.82004	9627.7
2266.70783	9605.8
2269.59378	9593.8
2272.4779	9550.6
2275.36017	9513.7
2278.24061	9499.7
2281.11922	9473.5
2283.996	9442.8
2286.87094	9456.2
2289.74405	9395.7
2292.61534	9380.9
2295.4848	9377.9
2298.35243	9378.9
2301.21824	9372.4
2304.08223	9362.8
2306.94439	9369.9
2309.80474	9351.7
2312.66327	9333.1
2315.51999	9329.5
2318.37489	9311.4
2321.22797	9289.9
2324.07925	9260.1
2326.92871	9239.6
2329.77637	9234.6
2332.62222	9212.2
2335.46626	9192.6
2338.3085	9186.8
2341.14893	9186.5
2343.98756	9197
2346.8244	9179.3
2349.65943	9158.9
2352.49267	9150.5
2355.32411	9141.7
2358.15376	9152.7
2360.98161	9146.3
2363.80768	9158.4
2366.63195	9143.8
2369.45444	9103.4
2372.27514	9108.9
2375.09405	9073.6
2377.91118	9053.7
2380.72652	9050.4
2383.54009	8991.6
2386.35187	8999.2
2389.16188	8961.8
2391.97011	8928
2394.77657	8896.1
2397.58125	8882.1
2400.38416	8864.8
2403.18529	8857.2
2405.98466	8854.3
2408.78226	8855.4
2411.57809	8831.6
2414.37216	8824.8
2417.16446	8791.7
2419.955	8775
2422.74378	8772
2425.5308	8765.1
2428.31606	8753.9
2431.09956	8731.6
2433.88131	8703.3
2436.6613	8731.3
2439.43954	8710.3
2442.21603	8698.8
2444.99077	8683.1
2447.76377	8690.4
2450.53501	8679.6
2453.30451	8689.2
2456.07226	8668
2458.83827	8664.7
2461.60254	8642.7
2464.36507	8648.4
2467.12586	8650.2
2469.88492	8631.1
2472.64224	8637.8
2475.39782	8624.1
2478.15167	8637.7
2480.90379	8588.6
2483.65417	8619.1
2486.40283	8605.8
2489.14976	8609.8
2491.89497	8597.8
2494.63845	8584.3
2497.3802	8595.6
2500.12024	8590.5
2502.85855	8563.4
2505.59514	8558.6
2508.33002	8562.3
2511.06318	8554.1
2513.79462	8536.2
2516.52435	8532.5
2519.25237	8514.9
2521.97867	8494.6
2524.70327	8480.4
2527.42616	8484
2530.14734	8497.7
2532.86681	8476.1
2535.58458	8486.2
2538.30065	8455.6
2541.01501	8452.4
2543.72768	8413.4
2546.43864	8415.6
2549.14791	8402.5
2551.85548	8396.4
2554.56136	8386.7
2557.26554	8363.2
2559.96803	8354.5
2562.66883	8323.9
2565.36794	8323.5
2568.06536	8318.9
2570.7611	8300.5
2573.45514	8296.5
2576.14751	8267.6
2578.83819	8246.2
2581.52719	8256.3
2584.21451	8257.6
2586.90015	8261.8
2589.58411	8231.1
2592.2664	8216.5
2594.94701	8212.7
2597.62594	8222.8
2600.30321	8187.8
2602.9788	8208.9
2605.65273	8187.1
2608.32498	8192.3
2610.99557	8204.9
2613.66449	8211.3
2616.33175	8183.3
2618.99734	8181.2
2621.66128	8154.5
2624.32355	8143.3
2626.98416	8128
2629.64311	8136.4
2632.30041	8119.5
2634.95605	8114.8
2637.61004	8095.8
2640.26238	8067
2642.91306	8057.1
2645.56209	8067
2648.20948	8083.7
2650.85521	8072.1
2653.4993	8086.1
2656.14175	8063.6
2658.78255	8113.3
2661.42171	8095.2
2664.05923	8082.1
2666.6951	8094.1
2669.32934	8105.8
2671.96194	8094.9
2674.59291	8069.2
2677.22224	8067.9
2679.84993	8084.4
2682.476	8068.9
2685.10043	8045.3
2687.72324	8040.3
2690.34441	8068.4
2692.96396	8046.1
2695.58188	8037.8
2698.19818	8052.2
2700.81285	8059.9
2703.4259	8035
2706.03733	8050
2708.64714	8048.2
2711.25533	8042.6
2713.86191	8046.2
2716.46687	8062.3
2719.07021	8056.5
2721.67194	8055.9
2724.27206	8063.2
2726.87057	8062.8
2729.46747	8049.8
2732.06276	8076.4
2734.65644	8053.7
2737.24852	8038.4
2739.83899	8035.9
2742.42786	8037.5
2745.01513	8029.3
2747.60079	8046.1
2750.18486	8027.2
2752.76733	7996.9
2755.3482	7991.6
2757.92747	7999.6
2760.50515	7983.4
2763.08123	7983.4
2765.65573	7944.8
2768.22863	7964.5
2770.79994	7946.5
2773.36967	7973.5
2775.9378	7947.9
2778.50435	7940.6
2781.06932	7953.7
2783.6327	7910.5
2786.1945	7913.7
2788.75471	7929.7
2791.31335	7895.8
2793.87041	7894
2796.42589	7880
2798.97979	7882
2801.53212	7861.6
2804.08288	7853.2
2806.63206	7838.5
2809.17967	7819.3
2811.72571	7788.1
2814.27018	7799.7
2816.81308	7764.7
2819.35442	7757.2
2821.89419	7724.2
2824.43239	7740.2
2826.96904	7732.8
2829.50412	7740
2832.03763	7706.7
2834.56959	7700
2837.1	7701.7
2839.62884	7735.3
2842.15613	7744.6
2844.68186	7791.1
2847.20604	7823.2
2849.72867	7855.1
2852.24974	7838.3
2854.76927	7818.5
2857.28724	7813.5
2859.80367	7798.7
2862.31855	7793.2
2864.83189	7764.6
2867.34368	7741.5
2869.85393	7732.1
2872.36264	7714
2874.8698	7729.9
2877.37543	7708.8
2879.87952	7701.1
2882.38207	7683.1
2884.88308	7681.8
2887.38256	7690.8
2889.88051	7690
2892.37692	7685
2894.8718	7687.3
2897.36515	7697.1
2899.85698	7676.1
2902.34727	7710.2
2904.83604	7710.7
2907.32328	7716.8
2909.809	7698.7
2912.29319	7692.9
2914.77587	7715.2
2917.25702	7706.1
2919.73665	7702.2
2922.21476	7690.4
2924.69136	7700.5
2927.16644	7694.8
2929.64	7681.7
2932.11205	7685.7
2934.58258	7666.4
2937.05161	7672.9
2939.51912	7638
2941.98513	7622.7
2944.44962	7582.6
2946.91261	7555.5
2949.37409	7537.9
2951.83407	7539.6
2954.29254	7493.3
2956.74951	7493.9
2959.20498	7494.8
2961.65895	7462.9
2964.11142	7460.4
2966.56239	7440.9
2969.01186	7408.4
2971.45984	7390.6
2973.90632	7408.2
2976.35131	7358.4
2978.7948	7329.2
2981.23681	7292.3
2983.67732	7295.4
2986.11635	7276.2
2988.55388	7234
2990.98993	7218.5
2993.4245	7176.4
2995.85758	7161.7
2998.28917	7148.2
3000.71928	7131.7
3003.14791	7125
3005.57506	7101.3
3008.00073	7092.4
3010.42493	7048.1
3012.84764	7060
3015.26888	7039.3
3017.68865	7008.9
3020.10694	6985.8
3022.52376	6980
3024.9391	6967.4
3027.35298	6941.1
3029.76539	6941.5
3032.17632	6953
3034.5858	6916.6
3036.9938	6918.1
3039.40034	6900.8
3041.80542	6916.6
3044.20903	6877.7
3046.61118	6915.5
3049.01187	6863.1
3051.4111	6866.4
3053.80888	6850.9
3056.20519	6832.6
3058.60005	6816.5
3060.99345	6804.6
3063.3854	6771.5
3065.7759	6746.4
3068.16494	6722.5
3070.55254	6680.9
3072.93868	6685.5
3075.32338	6655.9
3077.70662	6641.1
3080.08842	6617.3
3082.46878	6610
3084.84769	6574.9
3087.22515	6574.4
3089.60118	6582.1
3091.97576	6571.8
3094.3489	6552.8
3096.72061	6573.3
3099.09087	6548.2
3101.4597	6553.7
3103.82709	6551.8
3106.19305	6529
3108.55757	6526.3
3110.92066	6488
3113.28232	6486.3
3115.64255	6492.5
3118.00134	6455.3
3120.35871	6456
3122.71466	6449.2
3125.06917	6425.1
3127.42226	6393.1
3129.77393	6389.2
3132.12417	6370.5
3134.47299	6389
3136.82039	6391.6
3139.16636	6366.8
3141.51092	6353.2
3143.85406	6359.2
3146.19579	6348.8
3148.53609	6371.7
3150.87499	6352.5
3153.21246	6363.4
3155.54853	6374.5
3157.88318	6371.1
3160.21642	6380.8
3162.54826	6372.5
3164.87868	6387.9
3167.2077	6375.2
3169.5353	6372.1
3171.86151	6382.8
3174.18631	6356.2
3176.5097	6351.7
3178.83169	6337.2
3181.15228	6364
3183.47147	6342.3
3185.78926	6321.7
3188.10565	6305.3
3190.42065	6312.3
3192.73424	6308.1
3195.04645	6287.1
3197.35725	6274.6
3199.66667	6256.4
3201.97469	6271.4
3204.28132	6258
3206.58656	6273.9
3208.8904	6276.5
3211.19287	6261.1
3213.49394	6259.5
3215.79363	6264.4
3218.09193	6257.7
3220.38884	6226.2
3222.68438	6256.8
3224.97853	6258.6
3227.2713	6266.5
3229.56269	6234.3
3231.8527	6233.3
3234.14133	6220.4
3236.42858	6209.6
3238.71446	6203.2
3240.99896	6194.7
3243.28209	6174.4
3245.56384	6158.8
3247.84423	6157.3
3250.12324	6154.5
3252.40088	6118.5
3254.67715	6110.8
3256.95205	6082.8
3259.22558	6080.5
3261.49775	6070.3
3263.76855	6062.7
3266.03799	6032.5
3268.30606	6039.3
3270.57277	6027.5
3272.83812	6010.1
3275.10211	5998.3
3277.36474	5992.2
3279.62601	5992.1
3281.88593	5975
3284.14448	5986.1
3286.40168	6001.2
3288.65753	6005.6
3290.91202	5977.3
3293.16516	5963.1
3295.41695	5945.3
3297.66738	5895.3
3299.91647	5868
3302.16421	5815.8
3304.4106	5757.4
3306.65564	5726.9
3308.89933	5702.8
3311.14169	5656.2
3313.38269	5606.2
3315.62236	5564.2
3317.86068	5516.2
3320.09766	5460.4
3322.3333	5442.8
3324.5676	5405.5
3326.80056	5313.1
3329.03219	5284.8
3331.26248	3
3333.49143	-0.5
3335.71905	-0.9
