Data from AgNPs_FTO_APTES_UA_5uM_CRN_1000uM_R6G_10uM_NaF_0.1M_Addition_RamanShift__29__17-57-41-900.txt Node

Date: Mon Feb 07 17:57:41 GMT 2022
User: TCL
Spectrometer: QEP01345
Trigger mode: 4
Integration Time (sec): 7.000000E0
Scans to average: 10
Electric dark correction enabled: true
Nonlinearity correction enabled: false
Boxcar width: 0
XAxis mode: Raman Shifts
Number of Pixels in Spectrum: 1044
>>>>>Begin Spectral Data<<<<<
46.04893	-0.8875
50.45542	-1.8875
54.85868	0.1125
59.25871	-0.1875
63.6555	37.1125
68.04907	39.5125
72.43941	44.4125
76.82654	44.7125
81.21044	44.6125
85.59113	45.6125
89.96862	48.2125
94.34289	50.7125
98.71396	49.3125
103.08183	53.3125
107.4465	51.9125
111.80798	55.5125
116.16626	55.7125
120.52136	59.1125
124.87327	62.3125
129.222	60.8125
133.56755	62.6125
137.90993	72.8125
142.24913	79.7125
146.58517	88.0125
150.91804	97.5125
155.24774	122.1125
159.57429	146.6125
163.89768	185.6125
168.21792	248.9125
172.53501	338.9125
176.84895	470.4125
181.15975	653.7125
185.46741	911.3125
189.77193	1268.9125
194.07331	1702.5125
198.37157	2206.0125
202.6667	2714.6125
206.9587	3242.7125
211.24758	3750.6125
215.53334	4315.2125
219.81599	4886.0125
224.09553	5581.8125
228.37195	6310.1125
232.64527	7138.8125
236.91549	7942.2125
241.18261	8703.6125
245.44663	9367.5125
249.70755	9882.4125
253.96539	10374.5125
258.22014	10742.7125
262.4718	11064.4125
266.72039	11251.8125
270.96589	11365.1125
275.20832	11368.7125
279.44768	11289.4125
283.68397	11183.4125
287.91719	11137.6125
292.14735	11212.5125
296.37445	11418.3125
300.59849	11735.0125
304.81948	12143.8125
309.03742	12440.2125
313.25231	12402.1125
317.46415	11840.2125
321.67296	10987.5125
325.87872	10275.0125
330.08145	9928.3125
334.28114	9928.8125
338.47781	10088.2125
342.67145	10337.2125
346.86207	10766.2125
351.04966	11346.5125
355.23424	12020.1125
359.4158	12448.8125
363.59435	12637.9125
367.76989	12649.6125
371.94243	12601.5125
376.11196	12481.5125
380.27849	12369.1125
384.44203	12253.2125
388.60257	12122.4125
392.76012	12076.8125
396.91468	12210.4125
401.06626	12554.1125
405.21485	12830.8125
409.36047	12681.7125
413.50311	12104.2125
417.64277	11549.6125
421.77947	11233.4125
425.9132	11139.2125
430.04396	11150.9125
434.17176	11219.5125
438.2966	11356.7125
442.41849	11648.9125
446.53742	11967.5125
450.6534	12335.5125
454.76644	12573.6125
458.87653	12569.8125
462.98368	12441.5125
467.08789	12239.3125
471.18916	12028.6125
475.2875	11849.6125
479.38291	11675.6125
483.4754	11474.3125
487.56496	11313.8125
491.6516	11151.5125
495.73531	11034.3125
499.81612	11054.4125
503.89401	11152.9125
507.96899	11261.9125
512.04106	11350.2125
516.11023	11459.9125
520.1765	11505.8125
524.23987	11446.7125
528.30034	11324.9125
532.35792	11110.5125
536.41261	10913.5125
540.46441	10707.8125
544.51333	10589.1125
548.55936	10686.2125
552.60252	10950.0125
556.64279	11290.4125
560.6802	11544.4125
564.71473	11765.3125
568.7464	12339.6125
572.7752	12707.5125
576.80114	12399.8125
580.82422	11950.3125
584.84444	11753.8125
588.86181	11746.7125
592.87633	11848.6125
596.888	11978.7125
600.89682	12172.7125
604.9028	13170.6125
608.90594	16221.1125
612.90624	20524.8125
616.90371	19860.1125
620.89834	14196.8125
624.89015	11480.2125
628.87913	10994.6125
632.86528	11069.7125
636.84862	11186.6125
640.82913	10998.0125
644.80683	10557.5125
648.78172	10240.8125
652.75379	10240.6125
656.72306	10621.4125
660.68952	11121.6125
664.65319	11046.8125
668.61405	10552.6125
672.57211	10344.4125
676.52738	10334.9125
680.47986	10356.3125
684.42955	10272.4125
688.37646	10224.4125
692.32058	10256.0125
696.26192	10353.5125
700.20048	10489.9125
704.13626	10605.7125
708.06928	10608.0125
711.99952	10484.8125
715.927	10413.8125
719.85171	10387.6125
723.77365	10391.1125
727.69284	10260.2125
731.60928	10178.3125
735.52295	10124.0125
739.43388	10167.6125
743.34206	10171.3125
747.24749	10238.4125
751.15017	10319.7125
755.05012	10555.3125
758.94733	11066.0125
762.8418	12221.6125
766.73354	14156.2125
770.62254	16117.0125
774.50882	17020.8125
778.39237	16315.5125
782.27321	14239.1125
786.15132	12167.1125
790.02671	10944.4125
793.89938	10412.6125
797.76935	10198.6125
801.6366	10086.9125
805.50115	10037.1125
809.36299	9979.2125
813.22213	9926.0125
817.07857	9927.6125
820.93231	9907.4125
824.78336	9963.0125
828.63172	10002.7125
832.47738	10024.7125
836.32036	9994.6125
840.16066	9939.0125
843.99827	9868.6125
847.8332	9821.8125
851.66546	9814.1125
855.49504	9802.2125
859.32195	9792.2125
863.1462	9722.9125
866.96777	9694.0125
870.78668	9645.7125
874.60293	9701.7125
878.41652	9714.7125
882.22745	9788.5125
886.03573	9802.5125
889.84136	9795.5125
893.64433	9739.8125
897.44466	9714.3125
901.24235	9748.0125
905.0374	9681.6125
908.8298	9623.6125
912.61957	9627.4125
916.40671	9691.4125
920.19121	9809.2125
923.97308	9887.4125
927.75233	9968.0125
931.52895	10002.8125
935.30295	9880.7125
939.07433	9594.3125
942.84309	9341.5125
946.60924	9206.6125
950.37278	9113.9125
954.13371	9093.6125
957.89203	9029.9125
961.64774	9044.3125
965.40086	8980.6125
969.15137	8982.2125
972.89929	8940.4125
976.64461	8895.0125
980.38733	8918.2125
984.12747	8920.7125
987.86502	8965.7125
991.59999	9009.3125
995.33237	9114.7125
999.06217	9287.6125
1002.78939	9530.3125
1006.51404	9753.2125
1010.23611	9949.3125
1013.95561	10048.3125
1017.67255	9996.9125
1021.38692	9818.7125
1025.09872	9652.0125
1028.80796	9553.6125
1032.51465	9602.6125
1036.21877	9672.7125
1039.92035	9785.6125
1043.61937	9834.4125
1047.31584	9847.6125
1051.00976	9831.9125
1054.70114	9838.9125
1058.38998	9843.7125
1062.07627	9920.4125
1065.76003	10011.0125
1069.44126	10097.1125
1073.11995	10200.1125
1076.79611	10305.5125
1080.46974	10442.3125
1084.14085	10657.3125
1087.80943	10916.2125
1091.47549	11038.0125
1095.13903	10880.9125
1098.80005	10547.1125
1102.45857	10237.8125
1106.11456	10050.6125
1109.76805	10072.8125
1113.41903	10260.0125
1117.06751	10607.1125
1120.71348	11041.9125
1124.35696	11563.4125
1127.99793	11966.8125
1131.63641	11843.4125
1135.2724	11265.9125
1138.90589	10788.2125
1142.5369	10520.5125
1146.16542	10354.4125
1149.79145	10323.5125
1153.415	10343.3125
1157.03607	10419.0125
1160.65467	10661.3125
1164.27079	11049.6125
1167.88443	11633.6125
1171.49561	12648.2125
1175.10432	14119.3125
1178.71056	16050.0125
1182.31434	17380.0125
1185.91565	17586.3125
1189.51451	17150.0125
1193.11091	16274.5125
1196.70485	15282.0125
1200.29634	14521.4125
1203.88538	13815.9125
1207.47197	13035.8125
1211.05612	12376.7125
1214.63782	12042.0125
1218.21708	11934.8125
1221.79391	11923.5125
1225.36829	11943.8125
1228.94024	11888.6125
1232.50976	11824.4125
1236.07685	11773.0125
1239.6415	11761.2125
1243.20374	11780.8125
1246.76355	11822.7125
1250.32093	11970.1125
1253.8759	12213.5125
1257.42845	12532.3125
1260.97859	12902.1125
1264.52631	13240.7125
1268.07163	13557.4125
1271.61453	13909.9125
1275.15503	14116.4125
1278.69312	14244.1125
1282.22882	14404.7125
1285.76211	14763.7125
1289.29301	15307.4125
1292.82151	15890.9125
1296.34761	16565.0125
1299.87133	17506.4125
1303.39266	18946.7125
1306.9116	21034.9125
1310.42815	23260.4125
1313.94233	24442.7125
1317.45412	23926.9125
1320.96354	22493.3125
1324.47058	20972.2125
1327.97525	19703.5125
1331.47754	18948.5125
1334.97747	18656.1125
1338.47502	18743.0125
1341.97022	19099.5125
1345.46305	19659.6125
1348.95352	20266.8125
1352.44163	21228.2125
1355.92738	22864.1125
1359.41078	25614.8125
1362.89183	27977.7125
1366.37053	26849.4125
1369.84688	23062.9125
1373.32088	19574.4125
1376.79254	17274.9125
1380.26186	16108.0125
1383.72883	15504.5125
1387.19347	15113.0125
1390.65578	14765.1125
1394.11575	14533.3125
1397.57339	14585.9125
1401.0287	14765.5125
1404.48168	15018.9125
1407.93234	15142.7125
1411.38068	15153.3125
1414.82669	14941.4125
1418.27039	14445.7125
1421.71177	13877.6125
1425.15083	13405.2125
1428.58758	13132.0125
1432.02203	13165.6125
1435.45416	13263.1125
1438.88399	13363.5125
1442.31151	13403.2125
1445.73673	13493.7125
1449.15965	13635.2125
1452.58027	13724.1125
1455.9986	13720.2125
1459.41463	13794.6125
1462.82837	14010.5125
1466.23982	14280.7125
1469.64898	14603.0125
1473.05586	14774.2125
1476.46045	14841.5125
1479.86276	14925.1125
1483.26279	15080.2125
1486.66054	15355.1125
1490.05602	15753.8125
1493.44922	16308.8125
1496.84016	17195.9125
1500.22882	18548.6125
1503.61521	20535.2125
1506.99934	22770.0125
1510.38121	24848.8125
1513.76081	25673.0125
1517.13816	24378.3125
1520.51324	21633.8125
1523.88607	19025.1125
1527.25665	17328.8125
1530.62498	16409.5125
1533.99105	15934.9125
1537.35488	15629.2125
1540.71647	15429.2125
1544.07581	15278.3125
1547.4329	15116.6125
1550.78776	14952.0125
1554.14038	14790.9125
1557.49077	14843.6125
1560.83892	15007.9125
1564.18484	15357.1125
1567.52853	15779.3125
1570.86999	16053.6125
1574.20922	16215.3125
1577.54624	16142.3125
1580.88103	15410.4125
1584.2136	14578.5125
1587.54395	14243.2125
1590.87208	14576.5125
1594.19801	15426.2125
1597.52172	16483.9125
1600.84321	16987.8125
1604.16251	16446.6125
1607.47959	15277.2125
1610.79447	13979.3125
1614.10715	12760.9125
1617.41763	11824.4125
1620.7259	11207.0125
1624.03199	10902.3125
1627.33587	10899.6125
1630.63757	11100.5125
1633.93707	11639.0125
1637.23439	12487.4125
1640.52951	13856.8125
1643.82246	15710.2125
1647.11321	17772.9125
1650.40179	18984.6125
1653.68819	18322.1125
1656.97241	15893.7125
1660.25446	13279.1125
1663.53433	11417.9125
1666.81203	10267.3125
1670.08756	9625.6125
1673.36092	9199.0125
1676.63211	8953.4125
1679.90115	8760.2125
1683.16801	8629.7125
1686.43272	8528.0125
1689.69527	8421.1125
1692.95567	8344.2125
1696.2139	8289.8125
1699.46999	8244.3125
1702.72392	8204.7125
1705.97571	8197.9125
1709.22535	8190.6125
1712.47284	8202.4125
1715.71819	8190.1125
1718.96139	8195.1125
1722.20246	8174.5125
1725.44139	8159.3125
1728.67818	8076.9125
1731.91284	8025.1125
1735.14537	7990.6125
1738.37576	7912.9125
1741.60403	7905.2125
1744.83017	7838.5125
1748.05418	7826.1125
1751.27607	7817.4125
1754.49584	7799.6125
1757.71349	7766.2125
1760.92903	7750.2125
1764.14244	7737.8125
1767.35375	7733.0125
1770.56294	7692.2125
1773.77002	7685.3125
1776.97499	7655.5125
1780.17785	7617.7125
1783.37861	7637.1125
1786.57727	7609.2125
1789.77382	7598.4125
1792.96828	7574.8125
1796.16064	7554.3125
1799.3509	7550.7125
1802.53907	7519.2125
1805.72514	7506.0125
1808.90913	7488.6125
1812.09102	7463.6125
1815.27083	7444.3125
1818.44856	7415.1125
1821.6242	7402.0125
1824.79776	7393.2125
1827.96924	7371.9125
1831.13864	7372.6125
1834.30597	7357.4125
1837.47122	7336.5125
1840.6344	7346.5125
1843.7955	7320.9125
1846.95454	7332.2125
1850.11151	7318.8125
1853.26642	7327.7125
1856.41926	7297.7125
1859.57004	7286.4125
1862.71876	7302.9125
1865.86542	7295.4125
1869.01003	7290.0125
1872.15258	7289.0125
1875.29308	7282.3125
1878.43152	7266.7125
1881.56792	7277.3125
1884.70227	7282.4125
1887.83457	7282.8125
1890.96482	7275.1125
1894.09304	7252.6125
1897.21921	7276.0125
1900.34335	7241.5125
1903.46544	7232.3125
1906.58551	7258.7125
1909.70353	7249.0125
1912.81953	7233.9125
1915.93349	7210.4125
1919.04543	7221.1125
1922.15534	7223.1125
1925.26322	7189.9125
1928.36908	7193.2125
1931.47292	7175.1125
1934.57473	7115.0125
1937.67453	7115.2125
1940.77232	7061.6125
1943.86808	7023.5125
1946.96184	6989.6125
1950.05358	6979.5125
1953.14331	6950.8125
1956.23103	6922.5125
1959.31675	6901.8125
1962.40046	6884.6125
1965.48217	6884.3125
1968.56188	6857.9125
1971.63959	6818.3125
1974.7153	6806.3125
1977.78901	6805.3125
1980.86073	6756.4125
1983.93046	6718.9125
1986.99819	6699.3125
1990.06394	6703.8125
1993.1277	6681.9125
1996.18947	6634.9125
1999.24925	6618.9125
2002.30706	6599.5125
2005.36288	6588.2125
2008.41672	6545.4125
2011.46859	6535.0125
2014.51848	6521.3125
2017.56639	6499.1125
2020.61233	6473.1125
2023.6563	6466.6125
2026.6983	6451.3125
2029.73833	6403.6125
2032.7764	6404.8125
2035.8125	6383.8125
2038.84664	6365.8125
2041.87881	6386.4125
2044.90903	6346.2125
2047.93729	6341.9125
2050.96359	6333.3125
2053.98794	6327.4125
2057.01034	6312.1125
2060.03078	6312.0125
2063.04927	6304.6125
2066.06582	6287.9125
2069.08042	6294.1125
2072.09307	6283.2125
2075.10378	6266.5125
2078.11255	6266.3125
2081.11938	6272.0125
2084.12426	6261.1125
2087.12722	6235.7125
2090.12824	6229.6125
2093.12732	6244.0125
2096.12447	6247.6125
2099.11969	6237.9125
2102.11299	6223.1125
2105.10435	6219.2125
2108.09379	6229.3125
2111.08131	6228.8125
2114.0669	6227.4125
2117.05057	6244.5125
2120.03233	6243.4125
2123.01216	6255.2125
2125.99008	6261.1125
2128.96609	6236.6125
2131.94018	6257.6125
2134.91236	6260.0125
2137.88263	6267.4125
2140.851	6260.1125
2143.81746	6258.6125
2146.78201	6261.0125
2149.74466	6277.2125
2152.7054	6231.6125
2155.66425	6215.9125
2158.6212	6203.8125
2161.57625	6218.9125
2164.52941	6209.2125
2167.48067	6217.1125
2170.43004	6186.4125
2173.37752	6206.5125
2176.32311	6201.0125
2179.26681	6199.0125
2182.20863	6215.0125
2185.14856	6205.6125
2188.08661	6194.5125
2191.02278	6199.9125
2193.95707	6175.2125
2196.88948	6173.3125
2199.82001	6154.9125
2202.74867	6147.1125
2205.67545	6126.8125
2208.60037	6126.2125
2211.52341	6128.3125
2214.44458	6118.1125
2217.36388	6094.5125
2220.28132	6084.7125
2223.1969	6064.5125
2226.11061	6046.4125
2229.02246	6019.3125
2231.93245	6023.2125
2234.84058	6016.1125
2237.74686	6000.3125
2240.65128	5982.6125
2243.55385	5991.7125
2246.45456	5988.7125
2249.35343	5969.3125
2252.25044	5968.4125
2255.14561	5955.4125
2258.03893	5941.7125
2260.93041	5935.3125
2263.82004	5925.9125
2266.70783	5917.8125
2269.59378	5899.9125
2272.4779	5878.7125
2275.36017	5851.1125
2278.24061	5851.3125
2281.11922	5846.4125
2283.996	5814.9125
2286.87094	5798.3125
2289.74405	5791.2125
2292.61534	5773.0125
2295.4848	5759.8125
2298.35243	5778.3125
2301.21824	5772.5125
2304.08223	5775.8125
2306.94439	5778.2125
2309.80474	5766.0125
2312.66327	5770.6125
2315.51999	5738.4125
2318.37489	5765.0125
2321.22797	5729.8125
2324.07925	5720.0125
2326.92871	5719.7125
2329.77637	5703.9125
2332.62222	5704.9125
2335.46626	5714.5125
2338.3085	5699.8125
2341.14893	5695.7125
2343.98756	5697.0125
2346.8244	5687.5125
2349.65943	5683.7125
2352.49267	5675.0125
2355.32411	5673.3125
2358.15376	5684.3125
2360.98161	5693.0125
2363.80768	5689.2125
2366.63195	5694.4125
2369.45444	5707.9125
2372.27514	5696.4125
2375.09405	5673.9125
2377.91118	5639.5125
2380.72652	5640.6125
2383.54009	5615.3125
2386.35187	5599.3125
2389.16188	5569.1125
2391.97011	5556.6125
2394.77657	5550.3125
2397.58125	5536.2125
2400.38416	5504.5125
2403.18529	5496.7125
2405.98466	5483.3125
2408.78226	5477.4125
2411.57809	5479.2125
2414.37216	5473.3125
2417.16446	5453.8125
2419.955	5435.9125
2422.74378	5445.1125
2425.5308	5435.2125
2428.31606	5428.3125
2431.09956	5435.1125
2433.88131	5413.5125
2436.6613	5438.2125
2439.43954	5431.8125
2442.21603	5427.1125
2444.99077	5404.2125
2447.76377	5412.3125
2450.53501	5421.4125
2453.30451	5408.3125
2456.07226	5411.0125
2458.83827	5414.9125
2461.60254	5393.4125
2464.36507	5390.5125
2467.12586	5399.9125
2469.88492	5387.8125
2472.64224	5389.8125
2475.39782	5381.7125
2478.15167	5392.9125
2480.90379	5385.3125
2483.65417	5406.0125
2486.40283	5405.2125
2489.14976	5425.3125
2491.89497	5417.7125
2494.63845	5414.3125
2497.3802	5409.7125
2500.12024	5400.7125
2502.85855	5391.7125
2505.59514	5388.0125
2508.33002	5380.0125
2511.06318	5363.5125
2513.79462	5335.0125
2516.52435	5318.2125
2519.25237	5294.1125
2521.97867	5284.1125
2524.70327	5279.0125
2527.42616	5268.2125
2530.14734	5271.5125
2532.86681	5269.2125
2535.58458	5253.8125
2538.30065	5253.2125
2541.01501	5243.5125
2543.72768	5236.9125
2546.43864	5246.1125
2549.14791	5219.1125
2551.85548	5227.4125
2554.56136	5210.4125
2557.26554	5205.1125
2559.96803	5203.7125
2562.66883	5185.5125
2565.36794	5174.4125
2568.06536	5183.7125
2570.7611	5176.0125
2573.45514	5157.2125
2576.14751	5142.3125
2578.83819	5146.8125
2581.52719	5134.1125
2584.21451	5124.6125
2586.90015	5123.8125
2589.58411	5095.5125
2592.2664	5111.8125
2594.94701	5102.7125
2597.62594	5090.7125
2600.30321	5081.4125
2602.9788	5081.3125
2605.65273	5094.2125
2608.32498	5096.7125
2610.99557	5078.5125
2613.66449	5093.7125
2616.33175	5071.6125
2618.99734	5079.1125
2621.66128	5068.4125
2624.32355	5046.7125
2626.98416	5047.9125
2629.64311	5022.8125
2632.30041	5027.8125
2634.95605	5023.5125
2637.61004	5003.9125
2640.26238	5015.8125
2642.91306	4991.2125
2645.56209	4982.0125
2648.20948	4992.4125
2650.85521	4994.0125
2653.4993	4991.9125
2656.14175	4987.1125
2658.78255	5002.3125
2661.42171	5009.1125
2664.05923	4991.5125
2666.6951	4999.8125
2669.32934	5023.5125
2671.96194	5009.4125
2674.59291	5008.7125
2677.22224	5000.4125
2679.84993	5000.4125
2682.476	4994.4125
2685.10043	4997.4125
2687.72324	5007.9125
2690.34441	4989.3125
2692.96396	4983.5125
2695.58188	4999.9125
2698.19818	4987.2125
2700.81285	5005.1125
2703.4259	4999.9125
2706.03733	4987.4125
2708.64714	5016.5125
2711.25533	5014.8125
2713.86191	5013.9125
2716.46687	5025.2125
2719.07021	5007.9125
2721.67194	5026.1125
2724.27206	5022.0125
2726.87057	5020.8125
2729.46747	5019.3125
2732.06276	5012.8125
2734.65644	5016.9125
2737.24852	5016.9125
2739.83899	4979.4125
2742.42786	4994.5125
2745.01513	4968.9125
2747.60079	4977.9125
2750.18486	4954.1125
2752.76733	4957.4125
2755.3482	4941.0125
2757.92747	4950.0125
2760.50515	4921.3125
2763.08123	4916.3125
2765.65573	4912.9125
2768.22863	4904.0125
2770.79994	4921.6125
2773.36967	4903.2125
2775.9378	4903.4125
2778.50435	4899.9125
2781.06932	4909.3125
2783.6327	4911.6125
2786.1945	4897.5125
2788.75471	4909.3125
2791.31335	4904.8125
2793.87041	4894.7125
2796.42589	4902.2125
2798.97979	4892.6125
2801.53212	4876.5125
2804.08288	4888.7125
2806.63206	4861.3125
2809.17967	4870.7125
2811.72571	4865.6125
2814.27018	4869.3125
2816.81308	4859.8125
2819.35442	4877.9125
2821.89419	4851.0125
2824.43239	4876.8125
2826.96904	4869.4125
2829.50412	4885.5125
2832.03763	4884.4125
2834.56959	4869.5125
2837.1	4892.5125
2839.62884	4896.8125
2842.15613	4920.9125
2844.68186	4985.8125
2847.20604	5061.8125
2849.72867	5090.9125
2852.24974	5107.9125
2854.76927	5101.4125
2857.28724	5067.3125
2859.80367	5062.9125
2862.31855	5058.9125
2864.83189	5028.5125
2867.34368	5029.3125
2869.85393	5005.5125
2872.36264	5014.9125
2874.8698	5024.4125
2877.37543	5016.8125
2879.87952	5003.1125
2882.38207	5007.5125
2884.88308	4998.8125
2887.38256	4993.7125
2889.88051	5003.1125
2892.37692	5007.2125
2894.8718	5004.9125
2897.36515	5000.5125
2899.85698	5013.9125
2902.34727	5012.6125
2904.83604	5030.7125
2907.32328	5014.4125
2909.809	5023.9125
2912.29319	5014.8125
2914.77587	5027.1125
2917.25702	4998.8125
2919.73665	4983.7125
2922.21476	4967.6125
2924.69136	4987.7125
2927.16644	4973.7125
2929.64	4972.4125
2932.11205	4968.9125
2934.58258	4941.3125
2937.05161	4926.2125
2939.51912	4903.5125
2941.98513	4880.0125
2944.44962	4845.6125
2946.91261	4823.0125
2949.37409	4795.2125
2951.83407	4778.0125
2954.29254	4760.5125
2956.74951	4731.0125
2959.20498	4712.9125
2961.65895	4700.2125
2964.11142	4685.0125
2966.56239	4660.9125
2969.01186	4666.2125
2971.45984	4633.4125
2973.90632	4640.4125
2976.35131	4616.1125
2978.7948	4613.7125
2981.23681	4579.3125
2983.67732	4590.5125
2986.11635	4572.9125
2988.55388	4548.9125
2990.98993	4529.5125
2993.4245	4520.1125
2995.85758	4507.0125
2998.28917	4501.5125
3000.71928	4502.9125
3003.14791	4497.1125
3005.57506	4488.1125
3008.00073	4473.8125
3010.42493	4563.9125
3012.84764	4466.7125
3015.26888	4471.9125
3017.68865	4444.4125
3020.10694	4431.3125
3022.52376	4424.7125
3024.9391	4425.0125
3027.35298	4423.7125
3029.76539	4407.2125
3032.17632	4404.7125
3034.5858	4389.3125
3036.9938	4379.3125
3039.40034	4379.1125
3041.80542	4369.7125
3044.20903	4352.7125
3046.61118	4356.3125
3049.01187	4345.0125
3051.4111	4349.7125
3053.80888	4337.5125
3056.20519	4326.4125
3058.60005	4315.8125
3060.99345	4319.9125
3063.3854	4298.5125
3065.7759	4283.4125
3068.16494	4280.8125
3070.55254	4271.7125
3072.93868	4253.1125
3075.32338	4243.6125
3077.70662	4223.5125
3080.08842	4221.9125
3082.46878	4217.8125
3084.84769	4194.0125
3087.22515	4202.7125
3089.60118	4189.2125
