Data from AgNPs_FTO_APTES_UA_5uM_CRN_1uM_R6G_10uM_NaF_0.1M_Addition_RamanShift__21__10-41-46-592.txt Node

Date: Mon Feb 07 10:41:46 GMT 2022
User: TCL
Spectrometer: QEP01345
Trigger mode: 4
Integration Time (sec): 7.000000E0
Scans to average: 10
Electric dark correction enabled: true
Nonlinearity correction enabled: false
Boxcar width: 0
XAxis mode: Raman Shifts
Number of Pixels in Spectrum: 1044
>>>>>Begin Spectral Data<<<<<
46.04893	-0.7875
50.45542	-0.9875
54.85868	-0.8875
59.25871	-0.0875
63.6555	99.6125
68.04907	104.8125
72.43941	110.0125
76.82654	114.2125
81.21044	115.2125
85.59113	125.6125
89.96862	127.3125
94.34289	126.8125
98.71396	134.4125
103.08183	135.6125
107.4465	141.8125
111.80798	145.1125
116.16626	152.2125
120.52136	158.1125
124.87327	165.4125
129.222	175.7125
133.56755	186.9125
137.90993	204.7125
142.24913	225.9125
146.58517	257.3125
150.91804	301.0125
155.24774	363.8125
159.57429	453.4125
163.89768	589.6125
168.21792	787.2125
172.53501	1081.2125
176.84895	1510.3125
181.15975	2131.3125
185.46741	2992.8125
189.77193	4121.3125
194.07331	5517.3125
198.37157	7093.5125
202.6667	8742.1125
206.9587	10405.2125
211.24758	12034.0125
215.53334	13732.2125
219.81599	15531.0125
224.09553	17577.2125
228.37195	19805.3125
232.64527	22296.2125
236.91549	24853.3125
241.18261	27306.3125
245.44663	29545.9125
249.70755	31487.4125
253.96539	33210.5125
258.22014	34650.6125
262.4718	35936.0125
266.72039	36909.7125
270.96589	37480.4125
275.20832	37674.0125
279.44768	37547.5125
283.68397	37363.3125
287.91719	37262.0125
292.14735	37245.4125
296.37445	37340.4125
300.59849	37603.2125
304.81948	37977.9125
309.03742	38107.6125
313.25231	37658.3125
317.46415	36357.8125
321.67296	34620.6125
325.87872	33150.2125
330.08145	32450.6125
334.28114	32303.8125
338.47781	32606.1125
342.67145	33090.2125
346.86207	33827.2125
351.04966	34836.4125
355.23424	36051.4125
359.4158	36984.7125
363.59435	37547.0125
367.76989	37847.2125
371.94243	37952.0125
376.11196	37949.1125
380.27849	37963.7125
384.44203	37973.2125
388.60257	38073.6125
392.76012	38342.0125
396.91468	38886.8125
401.06626	39745.2125
405.21485	40419.5125
409.36047	40216.2125
413.50311	39288.0125
417.64277	38484.2125
421.77947	38238.7125
425.9132	38378.4125
430.04396	38555.8125
434.17176	38737.1125
438.2966	38959.4125
442.41849	39463.7125
446.53742	40443.9125
450.6534	41711.1125
454.76644	42759.9125
458.87653	43176.2125
462.98368	43036.4125
467.08789	42482.5125
471.18916	41776.1125
475.2875	41058.9125
479.38291	40725.0125
483.4754	40561.3125
487.56496	40296.3125
491.6516	39746.2125
495.73531	39217.8125
499.81612	38927.4125
503.89401	38979.2125
507.96899	39065.9125
512.04106	38900.5125
516.11023	38587.1125
520.1765	38192.5125
524.23987	37713.5125
528.30034	37114.0125
532.35792	36472.6125
536.41261	35843.1125
540.46441	35299.0125
544.51333	35229.1125
548.55936	35843.7125
552.60252	36951.6125
556.64279	38127.4125
560.6802	38756.9125
564.71473	39208.7125
568.7464	40231.4125
572.7752	41596.5125
576.80114	42229.7125
580.82422	42834.7125
584.84444	43225.6125
588.86181	43478.0125
592.87633	43789.3125
596.888	44248.8125
600.89682	44656.9125
604.9028	46884.1125
608.90594	53174.6125
612.90624	60326.0125
616.90371	56757.7125
620.89834	44606.1125
624.89015	39095.5125
628.87913	38461.2125
632.86528	38476.3125
636.84862	38045.7125
640.82913	37123.9125
644.80683	35620.2125
648.78172	34483.4125
652.75379	34265.8125
656.72306	34965.1125
660.68952	36007.2125
664.65319	35986.5125
668.61405	35143.7125
672.57211	34749.3125
676.52738	34691.3125
680.47986	34604.8125
684.42955	34385.2125
688.37646	34215.2125
692.32058	34443.1125
696.26192	34915.5125
700.20048	35451.1125
704.13626	35854.4125
708.06928	35804.3125
711.99952	35436.6125
715.927	35252.9125
719.85171	35268.5125
723.77365	35061.3125
727.69284	34502.6125
731.60928	33974.6125
735.52295	33916.6125
739.43388	33965.0125
743.34206	34198.0125
747.24749	34491.2125
751.15017	34986.1125
755.05012	35781.8125
758.94733	37238.9125
762.8418	40013.2125
766.73354	44506.6125
770.62254	48968.1125
774.50882	50118.1125
778.39237	47174.2125
782.27321	42446.5125
786.15132	38391.1125
790.02671	35938.4125
793.89938	34853.2125
797.76935	34454.2125
801.6366	34324.6125
805.50115	34157.9125
809.36299	33886.7125
813.22213	33565.5125
817.07857	33427.0125
820.93231	33376.4125
824.78336	33318.0125
828.63172	33233.3125
832.47738	33265.2125
836.32036	33367.1125
840.16066	33447.6125
843.99827	33704.3125
847.8332	33584.4125
851.66546	33386.6125
855.49504	33200.2125
859.32195	33123.8125
863.1462	32920.1125
866.96777	32654.7125
870.78668	32527.2125
874.60293	32443.1125
878.41652	32463.0125
882.22745	32557.0125
886.03573	32750.6125
889.84136	32700.6125
893.64433	32538.7125
897.44466	32401.2125
901.24235	32333.1125
905.0374	32154.9125
908.8298	32081.6125
912.61957	32130.9125
916.40671	32553.9125
920.19121	33304.1125
923.97308	34013.8125
927.75233	34435.0125
931.52895	34387.3125
935.30295	33760.4125
939.07433	32765.2125
942.84309	31945.9125
946.60924	31625.4125
950.37278	31506.7125
954.13371	31308.7125
957.89203	31028.4125
961.64774	30862.5125
965.40086	30758.9125
969.15137	30659.8125
972.89929	30543.1125
976.64461	30457.4125
980.38733	30502.9125
984.12747	30666.2125
987.86502	31040.6125
991.59999	31675.0125
995.33237	32632.0125
999.06217	34174.1125
1002.78939	35947.5125
1006.51404	37135.3125
1010.23611	37629.3125
1013.95561	37965.7125
1017.67255	37963.8125
1021.38692	37415.0125
1025.09872	37066.3125
1028.80796	37920.4125
1032.51465	39900.0125
1036.21877	41742.6125
1039.92035	41902.7125
1043.61937	40769.0125
1047.31584	38877.3125
1051.00976	36975.0125
1054.70114	35963.3125
1058.38998	35696.7125
1062.07627	35794.2125
1065.76003	36012.5125
1069.44126	36248.8125
1073.11995	36844.5125
1076.79611	37399.0125
1080.46974	37730.6125
1084.14085	38130.4125
1087.80943	38795.6125
1091.47549	39194.4125
1095.13903	39026.2125
1098.80005	38220.4125
1102.45857	37015.8125
1106.11456	36069.7125
1109.76805	35733.2125
1113.41903	35843.6125
1117.06751	36265.6125
1120.71348	36864.6125
1124.35696	37522.8125
1127.99793	38235.0125
1131.63641	38584.2125
1135.2724	38141.8125
1138.90589	37568.0125
1142.5369	37191.8125
1146.16542	37026.3125
1149.79145	36929.4125
1153.415	37318.1125
1157.03607	37993.0125
1160.65467	39066.6125
1164.27079	40902.9125
1167.88443	43618.5125
1171.49561	47300.9125
1175.10432	52298.6125
1178.71056	58647.8125
1182.31434	64355.5125
1185.91565	67661.9125
1189.51451	67828.2125
1193.11091	65023.2125
1196.70485	60847.2125
1200.29634	56954.9125
1203.88538	53945.3125
1207.47197	51696.9125
1211.05612	49834.1125
1214.63782	48664.4125
1218.21708	48042.5125
1221.79391	48005.8125
1225.36829	48135.1125
1228.94024	47674.0125
1232.50976	46728.2125
1236.07685	45951.5125
1239.6415	45457.5125
1243.20374	45169.6125
1246.76355	45368.9125
1250.32093	46171.5125
1253.8759	47519.4125
1257.42845	49373.1125
1260.97859	51314.5125
1264.52631	53035.3125
1268.07163	54790.8125
1271.61453	56891.4125
1275.15503	59252.0125
1278.69312	61662.8125
1282.22882	63658.8125
1285.76211	65384.8125
1289.29301	67111.9125
1292.82151	69312.8125
1296.34761	72534.1125
1299.87133	76947.5125
1303.39266	82747.3125
1306.9116	89781.3125
1310.42815	96907.7125
1313.94233	101294.0125
1317.45412	101140.9125
1320.96354	98247.6125
1324.47058	94749.2125
1327.97525	91686.4125
1331.47754	89772.6125
1334.97747	88745.5125
1338.47502	88430.6125
1341.97022	88061.2125
1345.46305	86901.4125
1348.95352	85125.8125
1352.44163	83933.7125
1355.92738	85230.0125
1359.41078	90127.6125
1362.89183	95630.6125
1366.37053	94543.3125
1369.84688	85811.5125
1373.32088	75473.5125
1376.79254	68078.8125
1380.26186	64517.4125
1383.72883	63446.4125
1387.19347	62824.6125
1390.65578	62034.3125
1394.11575	61883.5125
1397.57339	62758.3125
1401.0287	64320.6125
1404.48168	65945.2125
1407.93234	66819.0125
1411.38068	66608.0125
1414.82669	64882.2125
1418.27039	61922.4125
1421.71177	58675.8125
1425.15083	55997.0125
1428.58758	54437.7125
1432.02203	54360.4125
1435.45416	55191.3125
1438.88399	56403.1125
1442.31151	57555.7125
1445.73673	58663.1125
1449.15965	59702.4125
1452.58027	60407.8125
1455.9986	60704.0125
1459.41463	61034.8125
1462.82837	61964.9125
1466.23982	63241.6125
1469.64898	64491.4125
1473.05586	65207.1125
1476.46045	65342.1125
1479.86276	65291.7125
1483.26279	65126.5125
1486.66054	65288.4125
1490.05602	65885.2125
1493.44922	66772.2125
1496.84016	67774.8125
1500.22882	69478.0125
1503.61521	72194.5125
1506.99934	75777.2125
1510.38121	79462.5125
1513.76081	81313.4125
1517.13816	79646.2125
1520.51324	75447.7125
1523.88607	71115.3125
1527.25665	67891.4125
1530.62498	66054.3125
1533.99105	64833.5125
1537.35488	64035.1125
1540.71647	63224.2125
1544.07581	62103.0125
1547.4329	60864.1125
1550.78776	59625.8125
1554.14038	58864.0125
1557.49077	58634.5125
1560.83892	58587.3125
1564.18484	58708.9125
1567.52853	58806.7125
1570.86999	58876.8125
1574.20922	59350.6125
1577.54624	59895.2125
1580.88103	59596.0125
1584.2136	59519.3125
1587.54395	61133.4125
1590.87208	64817.5125
1594.19801	69942.7125
1597.52172	75116.6125
1600.84321	76965.1125
1604.16251	73340.9125
1607.47959	66586.6125
1610.79447	59553.2125
1614.10715	53215.7125
1617.41763	48291.1125
1620.7259	45026.4125
1624.03199	43447.2125
1627.33587	43446.1125
1630.63757	45163.0125
1633.93707	48490.9125
1637.23439	53549.4125
1640.52951	60285.7125
1643.82246	67743.5125
1647.11321	73790.9125
1650.40179	75571.0125
1653.68819	70904.0125
1656.97241	61418.9125
1660.25446	51425.6125
1663.53433	43801.4125
1666.81203	38796.9125
1670.08756	35839.3125
1673.36092	33901.6125
1676.63211	32723.5125
1679.90115	31850.9125
1683.16801	31283.9125
1686.43272	30779.3125
1689.69527	30473.3125
1692.95567	30243.5125
1696.2139	30104.3125
1699.46999	29952.8125
1702.72392	29822.8125
1705.97571	29715.6125
1709.22535	29658.0125
1712.47284	29558.0125
1715.71819	29481.1125
1718.96139	29445.9125
1722.20246	29330.7125
1725.44139	29216.9125
1728.67818	29009.4125
1731.91284	28806.9125
1735.14537	28680.1125
1738.37576	28501.4125
1741.60403	28366.6125
1744.83017	28267.8125
1748.05418	28142.1125
1751.27607	28105.0125
1754.49584	28035.0125
1757.71349	28017.5125
1760.92903	27972.7125
1764.14244	27957.5125
1767.35375	27956.0125
1770.56294	27896.0125
1773.77002	27827.5125
1776.97499	27807.2125
1780.17785	27731.1125
1783.37861	27715.0125
1786.57727	27674.4125
1789.77382	27621.7125
1792.96828	27552.3125
1796.16064	27545.0125
1799.3509	27532.2125
1802.53907	27470.7125
1805.72514	27376.3125
1808.90913	27305.5125
1812.09102	27246.8125
1815.27083	27154.9125
1818.44856	27119.6125
1821.6242	27070.8125
1824.79776	27116.6125
1827.96924	27059.2125
1831.13864	27020.0125
1834.30597	27081.6125
1837.47122	27014.6125
1840.6344	27034.7125
1843.7955	27098.3125
1846.95454	27154.5125
1850.11151	27124.6125
1853.26642	27119.6125
1856.41926	27155.1125
1859.57004	27215.5125
1862.71876	27182.5125
1865.86542	27204.2125
1869.01003	27144.8125
1872.15258	27144.1125
1875.29308	27183.1125
1878.43152	27193.0125
1881.56792	27220.1125
1884.70227	27229.5125
1887.83457	27284.1125
1890.96482	27231.0125
1894.09304	27263.6125
1897.21921	27266.8125
1900.34335	27261.7125
1903.46544	27247.9125
1906.58551	27271.9125
1909.70353	27215.0125
1912.81953	27193.9125
1915.93349	27222.8125
1919.04543	27141.8125
1922.15534	27068.6125
1925.26322	26970.2125
1928.36908	26878.7125
1931.47292	26730.6125
1934.57473	26600.8125
1937.67453	26492.9125
1940.77232	26393.8125
1943.86808	26289.2125
1946.96184	26100.3125
1950.05358	25999.6125
1953.14331	25944.9125
1956.23103	25845.3125
1959.31675	25745.9125
1962.40046	25650.0125
1965.48217	25582.2125
1968.56188	25549.2125
1971.63959	25434.9125
1974.7153	25394.4125
1977.78901	25301.5125
1980.86073	25214.5125
1983.93046	25109.1125
1986.99819	25036.4125
1990.06394	24941.9125
1993.1277	24893.2125
1996.18947	24808.4125
1999.24925	24738.2125
2002.30706	24609.3125
2005.36288	24540.4125
2008.41672	24501.5125
2011.46859	24429.2125
2014.51848	24351.6125
2017.56639	24308.8125
2020.61233	24251.5125
2023.6563	24208.9125
2026.6983	24146.0125
2029.73833	24091.4125
2032.7764	24085.5125
2035.8125	24063.8125
2038.84664	24021.9125
2041.87881	24010.8125
2044.90903	23953.2125
2047.93729	23887.8125
2050.96359	23916.5125
2053.98794	23874.8125
2057.01034	23845.3125
2060.03078	23807.1125
2063.04927	23845.0125
2066.06582	23826.3125
2069.08042	23777.3125
2072.09307	23735.4125
2075.10378	23684.0125
2078.11255	23674.2125
2081.11938	23697.9125
2084.12426	23619.7125
2087.12722	23615.7125
2090.12824	23585.1125
2093.12732	23568.4125
2096.12447	23599.1125
2099.11969	23578.1125
2102.11299	23597.3125
2105.10435	23589.9125
2108.09379	23540.8125
2111.08131	23528.6125
2114.0669	23565.3125
2117.05057	23612.9125
2120.03233	23633.4125
2123.01216	23664.2125
2125.99008	23655.5125
2128.96609	23711.6125
2131.94018	23721.3125
2134.91236	23729.5125
2137.88263	23759.6125
2140.851	23763.8125
2143.81746	23776.9125
2146.78201	23787.6125
2149.74466	23755.6125
2152.7054	23747.1125
2155.66425	23743.4125
2158.6212	23742.7125
2161.57625	23675.7125
2164.52941	23715.7125
2167.48067	23699.5125
2170.43004	23696.0125
2173.37752	23687.0125
2176.32311	23680.5125
2179.26681	23700.7125
2182.20863	23685.5125
2185.14856	23678.9125
2188.08661	23701.4125
2191.02278	23775.5125
2193.95707	23732.6125
2196.88948	23698.2125
2199.82001	23706.6125
2202.74867	23733.8125
2205.67545	23713.2125
2208.60037	23692.1125
2211.52341	23691.0125
2214.44458	23701.6125
2217.36388	23691.0125
2220.28132	23619.6125
2223.1969	23601.8125
2226.11061	23585.4125
2229.02246	23534.4125
2231.93245	23465.6125
2234.84058	23415.4125
2237.74686	23330.8125
2240.65128	23345.7125
2243.55385	23305.5125
2246.45456	23296.3125
2249.35343	23244.5125
2252.25044	23203.9125
2255.14561	23130.0125
2258.03893	23102.8125
2260.93041	23082.2125
2263.82004	23057.5125
2266.70783	22954.2125
2269.59378	22893.5125
2272.4779	22830.0125
2275.36017	22764.7125
2278.24061	22750.9125
2281.11922	22724.8125
2283.996	22743.2125
2286.87094	22671.5125
2289.74405	22639.8125
2292.61534	22638.2125
2295.4848	22629.2125
2298.35243	22632.2125
2301.21824	22646.5125
2304.08223	22693.6125
2306.94439	22714.1125
2309.80474	22801.5125
2312.66327	22854.8125
2315.51999	22841.8125
2318.37489	22798.1125
2321.22797	22816.8125
2324.07925	22822.2125
2326.92871	22787.9125
2329.77637	22773.7125
2332.62222	22743.0125
2335.46626	22765.4125
2338.3085	22829.2125
2341.14893	22853.7125
2343.98756	22895.6125
2346.8244	22961.1125
2349.65943	22919.0125
2352.49267	22946.2125
2355.32411	22963.1125
2358.15376	22911.7125
2360.98161	22884.2125
2363.80768	22801.9125
2366.63195	22808.3125
2369.45444	22814.3125
2372.27514	22719.4125
2375.09405	22678.4125
2377.91118	22595.8125
2380.72652	22511.2125
2383.54009	22425.0125
2386.35187	22424.9125
2389.16188	22346.9125
2391.97011	22304.4125
2394.77657	22328.6125
2397.58125	22283.7125
2400.38416	22262.3125
2403.18529	22213.3125
2405.98466	22166.1125
2408.78226	22056.3125
2411.57809	22040.3125
2414.37216	21999.8125
2417.16446	21971.4125
2419.955	21943.9125
2422.74378	21906.5125
2425.5308	21870.0125
2428.31606	21911.7125
2431.09956	21887.9125
2433.88131	21875.4125
2436.6613	21893.3125
2439.43954	21903.8125
2442.21603	21908.4125
2444.99077	21896.5125
2447.76377	21866.7125
2450.53501	21852.8125
2453.30451	21836.7125
2456.07226	21838.2125
2458.83827	21818.2125
2461.60254	21842.1125
2464.36507	21845.5125
2467.12586	21842.1125
2469.88492	21845.1125
2472.64224	21901.9125
2475.39782	21936.5125
2478.15167	21963.2125
2480.90379	21960.8125
2483.65417	22028.4125
2486.40283	22044.8125
2489.14976	22075.1125
2491.89497	22100.7125
2494.63845	22139.1125
2497.3802	22176.7125
2500.12024	22171.6125
2502.85855	22117.8125
2505.59514	22105.2125
2508.33002	22037.2125
2511.06318	22007.6125
2513.79462	21983.8125
2516.52435	21956.1125
2519.25237	21972.0125
2521.97867	21925.2125
2524.70327	21918.0125
2527.42616	21907.0125
2530.14734	21916.0125
2532.86681	21929.3125
2535.58458	21890.1125
2538.30065	21907.7125
2541.01501	21910.3125
2543.72768	21865.9125
2546.43864	21891.0125
2549.14791	21872.7125
2551.85548	21865.3125
2554.56136	21828.7125
2557.26554	21790.8125
2559.96803	21797.7125
2562.66883	21810.2125
2565.36794	21748.4125
2568.06536	21744.4125
2570.7611	21718.9125
2573.45514	21719.8125
2576.14751	21728.5125
2578.83819	21720.0125
2581.52719	21725.7125
2584.21451	21720.3125
2586.90015	21757.3125
2589.58411	21766.0125
2592.2664	21805.8125
2594.94701	21740.9125
2597.62594	21776.4125
2600.30321	21751.0125
2602.9788	21728.3125
2605.65273	21754.0125
2608.32498	21806.3125
2610.99557	21818.9125
2613.66449	21808.2125
2616.33175	21786.1125
2618.99734	21860.4125
2621.66128	21859.0125
2624.32355	21812.4125
2626.98416	21892.4125
2629.64311	21923.5125
2632.30041	21922.6125
2634.95605	21880.0125
2637.61004	21852.0125
2640.26238	21836.2125
2642.91306	21796.1125
2645.56209	21743.2125
2648.20948	21719.8125
2650.85521	21695.2125
2653.4993	21691.2125
2656.14175	21680.2125
2658.78255	21715.4125
2661.42171	21735.3125
2664.05923	21741.8125
2666.6951	21803.6125
2669.32934	21835.1125
2671.96194	21860.6125
2674.59291	21862.2125
2677.22224	21833.4125
2679.84993	21857.1125
2682.476	21802.1125
2685.10043	21780.5125
2687.72324	21707.8125
2690.34441	21671.6125
2692.96396	21656.6125
2695.58188	21634.9125
2698.19818	21616.2125
2700.81285	21608.3125
2703.4259	21599.7125
2706.03733	21667.8125
2708.64714	21640.8125
2711.25533	21648.8125
2713.86191	21626.7125
2716.46687	21670.1125
2719.07021	21698.9125
2721.67194	21727.0125
2724.27206	21710.6125
2726.87057	21715.9125
2729.46747	21746.1125
2732.06276	21741.3125
2734.65644	21746.1125
2737.24852	21742.2125
2739.83899	21713.5125
2742.42786	21721.6125
2745.01513	21679.1125
2747.60079	21701.8125
2750.18486	21642.3125
2752.76733	21654.8125
2755.3482	21619.5125
2757.92747	21623.7125
2760.50515	21581.8125
2763.08123	21627.0125
2765.65573	21601.9125
2768.22863	21602.4125
2770.79994	21572.3125
2773.36967	21635.6125
2775.9378	21647.6125
2778.50435	21644.5125
2781.06932	21645.0125
2783.6327	21723.6125
2786.1945	21681.8125
2788.75471	21667.4125
2791.31335	21667.8125
2793.87041	21603.1125
2796.42589	21538.7125
2798.97979	21559.0125
2801.53212	21481.8125
2804.08288	21439.4125
2806.63206	21360.5125
2809.17967	21405.7125
2811.72571	21340.4125
2814.27018	21317.7125
2816.81308	21284.9125
2819.35442	21281.7125
2821.89419	21259.4125
2824.43239	21303.0125
2826.96904	21318.9125
2829.50412	21329.3125
2832.03763	21292.0125
2834.56959	21270.9125
2837.1	21218.7125
2839.62884	21227.5125
2842.15613	21227.7125
2844.68186	21289.0125
2847.20604	21310.2125
2849.72867	21253.7125
2852.24974	21311.3125
2854.76927	21263.5125
2857.28724	21286.6125
2859.80367	21261.0125
2862.31855	21246.7125
2864.83189	21206.5125
2867.34368	21178.2125
2869.85393	21172.4125
2872.36264	21128.5125
2874.8698	21138.2125
2877.37543	21139.7125
2879.87952	21161.8125
2882.38207	21182.8125
2884.88308	21156.7125
2887.38256	21173.7125
2889.88051	21178.5125
2892.37692	21200.3125
2894.8718	21193.6125
2897.36515	21207.4125
2899.85698	21227.5125
2902.34727	21298.2125
2904.83604	21320.1125
2907.32328	21391.1125
2909.809	21354.5125
2912.29319	21394.1125
2914.77587	21400.7125
2917.25702	21396.9125
2919.73665	21360.3125
2922.21476	21355.5125
2924.69136	21306.2125
2927.16644	21284.7125
2929.64	21223.2125
2932.11205	21178.1125
2934.58258	21098.1125
2937.05161	21094.4125
2939.51912	21056.4125
2941.98513	21077.0125
2944.44962	21034.9125
2946.91261	20943.7125
2949.37409	20966.3125
2951.83407	20920.7125
2954.29254	20887.0125
2956.74951	20854.0125
2959.20498	20848.0125
2961.65895	20845.5125
2964.11142	20835.5125
2966.56239	20788.7125
2969.01186	20750.0125
2971.45984	20705.8125
2973.90632	20680.9125
2976.35131	20630.1125
2978.7948	20583.8125
2981.23681	20493.8125
2983.67732	20512.6125
2986.11635	20481.3125
2988.55388	20413.8125
2990.98993	20360.7125
2993.4245	20322.7125
2995.85758	20227.3125
2998.28917	20186.5125
3000.71928	20169.6125
3003.14791	20075.3125
3005.57506	20078.5125
3008.00073	20020.4125
3010.42493	19975.2125
3012.84764	19944.7125
3015.26888	19994.8125
3017.68865	19889.0125
3020.10694	19879.4125
3022.52376	19828.7125
