Data from AgNPs_FTO_APTES_UA_5uM_CRN_1000uM_R6G_10uM_NaF_0.1M_Addition_RamanShift__4__17-28-31-865.txt Node

Date: Mon Feb 07 17:28:31 GMT 2022
User: TCL
Spectrometer: QEP01345
Trigger mode: 4
Integration Time (sec): 7.000000E0
Scans to average: 10
Electric dark correction enabled: true
Nonlinearity correction enabled: false
Boxcar width: 0
XAxis mode: Raman Shifts
Number of Pixels in Spectrum: 1044
>>>>>Begin Spectral Data<<<<<
46.04893	-1.5875
50.45542	-0.3875
54.85868	0.9125
59.25871	0.1125
63.6555	61.6125
68.04907	63.6125
72.43941	66.4125
76.82654	64.2125
81.21044	69.2125
85.59113	70.6125
89.96862	74.4125
94.34289	78.1125
98.71396	83.3125
103.08183	78.7125
107.4465	83.5125
111.80798	86.8125
116.16626	90.0125
120.52136	94.0125
124.87327	103.0125
129.222	105.9125
133.56755	112.1125
137.90993	121.7125
142.24913	137.1125
146.58517	153.6125
150.91804	175.1125
155.24774	221.3125
159.57429	273.7125
163.89768	356.2125
168.21792	470.6125
172.53501	647.8125
176.84895	909.3125
181.15975	1290.6125
185.46741	1799.2125
189.77193	2484.6125
194.07331	3341.0125
198.37157	4308.9125
202.6667	5300.4125
206.9587	6310.7125
211.24758	7283.0125
215.53334	8277.2125
219.81599	9350.7125
224.09553	10516.3125
228.37195	11762.7125
232.64527	13118.8125
236.91549	14546.2125
241.18261	16006.0125
245.44663	17344.7125
249.70755	18516.5125
253.96539	19599.9125
258.22014	20532.0125
262.4718	21236.6125
266.72039	21751.4125
270.96589	22062.8125
275.20832	22135.1125
279.44768	22019.3125
283.68397	21857.9125
287.91719	21700.0125
292.14735	21642.3125
296.37445	21685.6125
300.59849	21762.5125
304.81948	21923.0125
309.03742	21804.0125
313.25231	21599.8125
317.46415	21209.8125
321.67296	20647.1125
325.87872	20216.2125
330.08145	19974.2125
334.28114	19875.4125
338.47781	19916.7125
342.67145	20108.3125
346.86207	20391.8125
351.04966	20726.7125
355.23424	21072.7125
359.4158	21359.0125
363.59435	21586.7125
367.76989	21710.3125
371.94243	21863.5125
376.11196	21863.0125
380.27849	21933.8125
384.44203	22057.5125
388.60257	22275.4125
392.76012	22504.1125
396.91468	22776.5125
401.06626	23075.0125
405.21485	23256.1125
409.36047	23099.4125
413.50311	22808.6125
417.64277	22646.0125
421.77947	22660.5125
425.9132	22748.0125
430.04396	22923.4125
434.17176	23085.7125
438.2966	23314.8125
442.41849	23743.6125
446.53742	24439.2125
450.6534	25175.7125
454.76644	25701.0125
458.87653	25854.3125
462.98368	25664.0125
467.08789	25373.4125
471.18916	25069.4125
475.2875	24894.5125
479.38291	24885.0125
483.4754	24845.5125
487.56496	24555.6125
491.6516	24007.4125
495.73531	23461.1125
499.81612	23056.7125
503.89401	22974.7125
507.96899	23011.8125
512.04106	22915.0125
516.11023	22743.6125
520.1765	22467.1125
524.23987	22235.3125
528.30034	22074.1125
532.35792	21927.7125
536.41261	21686.1125
540.46441	21448.0125
544.51333	21450.4125
548.55936	21704.1125
552.60252	22264.7125
556.64279	22923.1125
560.6802	23497.5125
564.71473	23940.6125
568.7464	24471.9125
572.7752	25325.6125
576.80114	26042.1125
580.82422	26580.0125
584.84444	27245.5125
588.86181	28243.1125
592.87633	29132.0125
596.888	28984.0125
600.89682	27762.3125
604.9028	27147.3125
608.90594	28195.8125
612.90624	29559.8125
616.90371	27783.6125
620.89834	23616.7125
624.89015	21784.8125
628.87913	21582.9125
632.86528	21754.8125
636.84862	21760.2125
640.82913	21471.8125
644.80683	21010.9125
648.78172	20675.0125
652.75379	20611.0125
656.72306	20806.1125
660.68952	21001.3125
664.65319	20848.5125
668.61405	20507.8125
672.57211	20414.7125
676.52738	20495.2125
680.47986	20539.2125
684.42955	20448.7125
688.37646	20341.4125
692.32058	20401.5125
696.26192	20597.7125
700.20048	20847.6125
704.13626	20991.9125
708.06928	21076.2125
711.99952	21048.0125
715.927	21044.5125
719.85171	21047.7125
723.77365	20959.4125
727.69284	20703.9125
731.60928	20461.3125
735.52295	20409.7125
739.43388	20395.1125
743.34206	20406.7125
747.24749	20516.8125
751.15017	20743.5125
755.05012	21085.5125
758.94733	21728.7125
762.8418	22796.2125
766.73354	24375.1125
770.62254	25783.9125
774.50882	26058.1125
778.39237	24879.1125
782.27321	23084.9125
786.15132	21646.8125
790.02671	20769.0125
793.89938	20336.1125
797.76935	20171.4125
801.6366	20090.8125
805.50115	20013.6125
809.36299	19926.3125
813.22213	19786.8125
817.07857	19745.2125
820.93231	19693.4125
824.78336	19537.1125
828.63172	19426.1125
832.47738	19294.8125
836.32036	19304.1125
840.16066	19325.8125
843.99827	19323.3125
847.8332	19283.6125
851.66546	19250.3125
855.49504	19240.7125
859.32195	19256.3125
863.1462	19181.1125
866.96777	19170.6125
870.78668	19101.9125
874.60293	19095.4125
878.41652	19108.5125
882.22745	19151.0125
886.03573	19190.5125
889.84136	19206.5125
893.64433	19146.6125
897.44466	19082.5125
901.24235	19052.5125
905.0374	18954.6125
908.8298	18869.0125
912.61957	18913.0125
916.40671	19117.5125
920.19121	19397.3125
923.97308	19656.5125
927.75233	19592.9125
931.52895	19359.1125
935.30295	19007.8125
939.07433	18603.4125
942.84309	18327.8125
946.60924	18161.1125
950.37278	18085.5125
954.13371	18085.2125
957.89203	18083.6125
961.64774	18076.3125
965.40086	18049.9125
969.15137	17987.2125
972.89929	17838.3125
976.64461	17721.5125
980.38733	17654.1125
984.12747	17644.2125
987.86502	17688.4125
991.59999	17793.2125
995.33237	17995.9125
999.06217	18246.4125
1002.78939	18618.3125
1006.51404	18913.4125
1010.23611	19210.3125
1013.95561	19416.7125
1017.67255	19524.6125
1021.38692	19367.1125
1025.09872	19030.6125
1028.80796	18736.5125
1032.51465	18753.8125
1036.21877	18879.3125
1039.92035	18956.2125
1043.61937	19019.0125
1047.31584	19015.3125
1051.00976	18951.9125
1054.70114	18968.7125
1058.38998	19037.4125
1062.07627	19268.8125
1065.76003	19452.0125
1069.44126	19647.7125
1073.11995	19872.5125
1076.79611	20087.0125
1080.46974	20183.1125
1084.14085	20294.7125
1087.80943	20469.2125
1091.47549	20682.3125
1095.13903	20779.8125
1098.80005	20564.4125
1102.45857	20109.4125
1106.11456	19701.0125
1109.76805	19528.6125
1113.41903	19583.0125
1117.06751	19718.7125
1120.71348	19975.0125
1124.35696	20307.9125
1127.99793	20649.8125
1131.63641	20858.0125
1135.2724	20727.0125
1138.90589	20525.7125
1142.5369	20606.9125
1146.16542	20770.6125
1149.79145	21094.9125
1153.415	21443.2125
1157.03607	21877.8125
1160.65467	22575.5125
1164.27079	23781.8125
1167.88443	25145.9125
1171.49561	26715.7125
1175.10432	28546.9125
1178.71056	30864.5125
1182.31434	32948.8125
1185.91565	33869.7125
1189.51451	33500.1125
1193.11091	32528.2125
1196.70485	31329.7125
1200.29634	30189.3125
1203.88538	29449.3125
1207.47197	29061.0125
1211.05612	28643.4125
1214.63782	28051.5125
1218.21708	27244.1125
1221.79391	26455.5125
1225.36829	25956.5125
1228.94024	25528.9125
1232.50976	24972.5125
1236.07685	24508.0125
1239.6415	24159.4125
1243.20374	24112.7125
1246.76355	24268.5125
1250.32093	24573.2125
1253.8759	25083.7125
1257.42845	25679.6125
1260.97859	26423.3125
1264.52631	27143.8125
1268.07163	27839.3125
1271.61453	28625.5125
1275.15503	29493.7125
1278.69312	30479.8125
1282.22882	31600.3125
1285.76211	32989.7125
1289.29301	34803.8125
1292.82151	36833.4125
1296.34761	39359.0125
1299.87133	42128.0125
1303.39266	44724.4125
1306.9116	46980.6125
1310.42815	48783.9125
1313.94233	49621.4125
1317.45412	49338.6125
1320.96354	48437.4125
1324.47058	47563.7125
1327.97525	46726.0125
1331.47754	46173.5125
1334.97747	45656.5125
1338.47502	45030.9125
1341.97022	44268.5125
1345.46305	43478.9125
1348.95352	42849.2125
1352.44163	42741.0125
1355.92738	43503.0125
1359.41078	45184.6125
1362.89183	46609.1125
1366.37053	46004.8125
1369.84688	42379.0125
1373.32088	37690.8125
1376.79254	34493.6125
1380.26186	33518.5125
1383.72883	33835.3125
1387.19347	34189.4125
1390.65578	34242.1125
1394.11575	34405.6125
1397.57339	35049.0125
1401.0287	35901.0125
1404.48168	36356.5125
1407.93234	36060.0125
1411.38068	35019.8125
1414.82669	33379.8125
1418.27039	31464.6125
1421.71177	29787.6125
1425.15083	28316.5125
1428.58758	27616.3125
1432.02203	27824.2125
1435.45416	28632.2125
1438.88399	29714.5125
1442.31151	30553.3125
1445.73673	31048.0125
1449.15965	31481.4125
1452.58027	31790.5125
1455.9986	31904.5125
1459.41463	32047.9125
1462.82837	32389.6125
1466.23982	32876.0125
1469.64898	33297.0125
1473.05586	33545.8125
1476.46045	33512.7125
1479.86276	33153.9125
1483.26279	32720.0125
1486.66054	32386.6125
1490.05602	32379.5125
1493.44922	32594.5125
1496.84016	32864.3125
1500.22882	33393.3125
1503.61521	34264.2125
1506.99934	35369.2125
1510.38121	36325.6125
1513.76081	36664.5125
1517.13816	36038.7125
1520.51324	35022.6125
1523.88607	34363.0125
1527.25665	34193.9125
1530.62498	34389.8125
1533.99105	34394.7125
1537.35488	34025.9125
1540.71647	33206.2125
1544.07581	32054.4125
1547.4329	30919.8125
1550.78776	29952.1125
1554.14038	29211.6125
1557.49077	28758.8125
1560.83892	28516.6125
1564.18484	28581.2125
1567.52853	28710.8125
1570.86999	29150.1125
1574.20922	29939.9125
1577.54624	30670.7125
1580.88103	31151.9125
1584.2136	31599.9125
1587.54395	32623.6125
1590.87208	34286.0125
1594.19801	36316.7125
1597.52172	38099.9125
1600.84321	38485.0125
1604.16251	36616.5125
1607.47959	33290.9125
1610.79447	29862.2125
1614.10715	26940.3125
1617.41763	24622.5125
1620.7259	23140.2125
1624.03199	22405.4125
1627.33587	22504.8125
1630.63757	23337.6125
1633.93707	25047.6125
1637.23439	28036.3125
1640.52951	32374.9125
1643.82246	37558.6125
1647.11321	41702.8125
1650.40179	42470.7125
1653.68819	39048.1125
1656.97241	33189.5125
1660.25446	27513.1125
1663.53433	23388.0125
1666.81203	20674.3125
1670.08756	19061.6125
1673.36092	18018.9125
1676.63211	17389.6125
1679.90115	16912.3125
1683.16801	16555.8125
1686.43272	16296.4125
1689.69527	16079.1125
1692.95567	15935.4125
1696.2139	15814.4125
1699.46999	15720.9125
1702.72392	15657.0125
1705.97571	15568.6125
1709.22535	15523.7125
1712.47284	15482.8125
1715.71819	15403.5125
1718.96139	15381.4125
1722.20246	15311.0125
1725.44139	15213.5125
1728.67818	15126.4125
1731.91284	15003.8125
1735.14537	14903.4125
1738.37576	14831.7125
1741.60403	14780.0125
1744.83017	14686.7125
1748.05418	14682.9125
1751.27607	14646.7125
1754.49584	14614.9125
1757.71349	14611.7125
1760.92903	14574.9125
1764.14244	14560.4125
1767.35375	14519.4125
1770.56294	14500.4125
1773.77002	14445.6125
1776.97499	14417.1125
1780.17785	14372.9125
1783.37861	14344.7125
1786.57727	14295.0125
1789.77382	14270.5125
1792.96828	14235.1125
1796.16064	14182.2125
1799.3509	14121.8125
1802.53907	14112.3125
1805.72514	14096.7125
1808.90913	14011.7125
1812.09102	13944.6125
1815.27083	13912.5125
1818.44856	13894.3125
1821.6242	13860.2125
1824.79776	13851.4125
1827.96924	13808.5125
1831.13864	13793.1125
1834.30597	13758.4125
1837.47122	13760.9125
1840.6344	13739.5125
1843.7955	13742.1125
1846.95454	13719.7125
1850.11151	13686.6125
1853.26642	13678.5125
1856.41926	13671.3125
1859.57004	13665.3125
1862.71876	13620.2125
1865.86542	13617.9125
1869.01003	13589.2125
1872.15258	13580.2125
1875.29308	13551.9125
1878.43152	13514.2125
1881.56792	13514.6125
1884.70227	13507.7125
1887.83457	13487.5125
1890.96482	13459.9125
1894.09304	13419.7125
1897.21921	13436.4125
1900.34335	13420.8125
1903.46544	13393.5125
1906.58551	13387.3125
1909.70353	13355.5125
1912.81953	13326.0125
1915.93349	13283.6125
1919.04543	13266.2125
1922.15534	13254.2125
1925.26322	13206.2125
1928.36908	13157.4125
1931.47292	13143.9125
1934.57473	13101.7125
1937.67453	13078.1125
1940.77232	13016.7125
1943.86808	12952.5125
1946.96184	12920.2125
1950.05358	12881.8125
1953.14331	12843.5125
1956.23103	12788.8125
1959.31675	12748.8125
1962.40046	12718.6125
1965.48217	12666.6125
1968.56188	12636.2125
1971.63959	12575.8125
1974.7153	12537.9125
1977.78901	12499.9125
1980.86073	12456.5125
1983.93046	12409.7125
1986.99819	12374.4125
1990.06394	12337.2125
1993.1277	12291.0125
1996.18947	12228.6125
1999.24925	12202.3125
2002.30706	12186.3125
2005.36288	12114.1125
2008.41672	12086.1125
2011.46859	12060.0125
2014.51848	12027.9125
2017.56639	11979.0125
2020.61233	11942.1125
2023.6563	11910.0125
2026.6983	11858.8125
2029.73833	11841.4125
2032.7764	11803.5125
2035.8125	11803.4125
2038.84664	11773.4125
2041.87881	11774.5125
2044.90903	11696.1125
2047.93729	11670.9125
2050.96359	11672.1125
2053.98794	11664.3125
2057.01034	11642.6125
2060.03078	11645.5125
2063.04927	11647.5125
2066.06582	11612.0125
2069.08042	11605.7125
2072.09307	11609.5125
2075.10378	11570.5125
2078.11255	11556.7125
2081.11938	11562.7125
2084.12426	11547.9125
2087.12722	11503.7125
2090.12824	11516.7125
2093.12732	11512.5125
2096.12447	11510.6125
2099.11969	11498.0125
2102.11299	11489.6125
2105.10435	11468.3125
2108.09379	11482.4125
2111.08131	11484.6125
2114.0669	11479.9125
2117.05057	11523.7125
2120.03233	11501.1125
2123.01216	11544.0125
2125.99008	11529.5125
2128.96609	11483.8125
2131.94018	11495.7125
2134.91236	11522.4125
2137.88263	11511.8125
2140.851	11546.1125
2143.81746	11503.5125
2146.78201	11493.6125
2149.74466	11477.0125
2152.7054	11466.6125
2155.66425	11412.6125
2158.6212	11423.3125
2161.57625	11427.2125
2164.52941	11424.9125
2167.48067	11407.8125
2170.43004	11385.0125
2173.37752	11379.3125
2176.32311	11406.1125
2179.26681	11394.6125
2182.20863	11387.8125
2185.14856	11424.1125
2188.08661	11393.6125
2191.02278	11401.2125
2193.95707	11382.2125
2196.88948	11335.8125
2199.82001	11326.3125
2202.74867	11301.0125
2205.67545	11289.5125
2208.60037	11266.8125
2211.52341	11236.3125
2214.44458	11229.9125
2217.36388	11180.7125
2220.28132	11147.4125
2223.1969	11126.9125
2226.11061	11106.6125
2229.02246	11113.4125
2231.93245	11083.9125
2234.84058	11055.5125
2237.74686	11026.7125
2240.65128	11053.9125
2243.55385	11003.4125
2246.45456	10984.1125
2249.35343	10974.5125
2252.25044	10956.9125
2255.14561	10924.7125
2258.03893	10876.1125
2260.93041	10830.1125
2263.82004	10796.9125
2266.70783	10773.5125
2269.59378	10759.0125
2272.4779	10719.1125
2275.36017	10673.1125
2278.24061	10674.1125
2281.11922	10647.5125
2283.996	10644.6125
2286.87094	10613.7125
2289.74405	10586.7125
2292.61534	10558.0125
2295.4848	10540.6125
2298.35243	10563.8125
2301.21824	10562.6125
2304.08223	10554.3125
2306.94439	10551.8125
2309.80474	10531.2125
2312.66327	10538.9125
2315.51999	10516.7125
2318.37489	10511.9125
2321.22797	10479.5125
2324.07925	10449.7125
2326.92871	10455.5125
2329.77637	10435.1125
2332.62222	10433.1125
2335.46626	10408.1125
2338.3085	10379.4125
2341.14893	10369.4125
2343.98756	10401.8125
2346.8244	10364.5125
2349.65943	10368.7125
2352.49267	10346.6125
2355.32411	10348.3125
2358.15376	10351.4125
2360.98161	10342.0125
2363.80768	10342.1125
2366.63195	10355.4125
2369.45444	10326.0125
2372.27514	10344.5125
2375.09405	10266.2125
2377.91118	10259.5125
2380.72652	10249.5125
2383.54009	10258.5125
2386.35187	10216.9125
2389.16188	10172.2125
2391.97011	10130.7125
2394.77657	10115.6125
2397.58125	10101.1125
2400.38416	10068.9125
2403.18529	10054.9125
2405.98466	10047.5125
2408.78226	10054.0125
2411.57809	10071.2125
2414.37216	9989.0125
2417.16446	10012.9125
2419.955	9973.0125
2422.74378	9978.1125
2425.5308	9962.5125
2428.31606	9970.9125
2431.09956	9930.6125
2433.88131	9923.7125
2436.6613	9931.8125
2439.43954	9909.0125
2442.21603	9924.7125
2444.99077	9884.1125
2447.76377	9914.6125
2450.53501	9882.7125
2453.30451	9888.3125
2456.07226	9888.1125
2458.83827	9884.7125
2461.60254	9849.3125
2464.36507	9874.5125
2467.12586	9852.3125
2469.88492	9851.7125
2472.64224	9864.5125
2475.39782	9825.6125
2478.15167	9858.7125
2480.90379	9837.8125
2483.65417	9862.6125
2486.40283	9862.8125
2489.14976	9855.4125
2491.89497	9870.6125
2494.63845	9848.1125
2497.3802	9844.9125
2500.12024	9831.2125
2502.85855	9839.0125
2505.59514	9803.2125
2508.33002	9802.4125
2511.06318	9791.7125
2513.79462	9763.9125
2516.52435	9801.4125
2519.25237	9765.2125
2521.97867	9753.0125
2524.70327	9714.6125
2527.42616	9709.1125
2530.14734	9714.7125
2532.86681	9716.3125
2535.58458	9714.1125
2538.30065	9696.0125
2541.01501	9667.0125
2543.72768	9671.9125
2546.43864	9671.6125
2549.14791	9642.2125
2551.85548	9630.8125
2554.56136	9627.3125
2557.26554	9622.2125
2559.96803	9619.6125
2562.66883	9574.7125
2565.36794	9571.1125
2568.06536	9581.8125
2570.7611	9555.2125
2573.45514	9551.8125
2576.14751	9549.2125
2578.83819	9535.0125
2581.52719	9545.8125
2584.21451	9526.4125
2586.90015	9527.3125
2589.58411	9518.9125
2592.2664	9490.5125
2594.94701	9489.0125
2597.62594	9488.4125
2600.30321	9465.0125
2602.9788	9468.3125
2605.65273	9478.4125
2608.32498	9502.7125
2610.99557	9477.8125
2613.66449	9493.8125
2616.33175	9449.9125
2618.99734	9460.7125
2621.66128	9429.7125
2624.32355	9436.3125
2626.98416	9419.9125
2629.64311	9432.6125
2632.30041	9410.9125
2634.95605	9400.2125
2637.61004	9386.3125
2640.26238	9384.5125
2642.91306	9360.8125
2645.56209	9353.7125
2648.20948	9380.4125
2650.85521	9364.6125
2653.4993	9378.1125
2656.14175	9364.5125
2658.78255	9404.8125
2661.42171	9391.1125
2664.05923	9393.5125
2666.6951	9412.2125
2669.32934	9432.2125
2671.96194	9398.7125
2674.59291	9403.4125
2677.22224	9398.4125
2679.84993	9384.9125
2682.476	9367.2125
2685.10043	9331.8125
2687.72324	9349.5125
2690.34441	9349.5125
2692.96396	9367.0125
2695.58188	9344.3125
2698.19818	9364.8125
2700.81285	9360.3125
2703.4259	9363.1125
2706.03733	9357.0125
2708.64714	9364.3125
2711.25533	9367.8125
2713.86191	9381.7125
2716.46687	9400.0125
2719.07021	9386.8125
2721.67194	9414.3125
2724.27206	9391.4125
2726.87057	9400.9125
2729.46747	9404.5125
2732.06276	9444.3125
2734.65644	9424.4125
2737.24852	9411.4125
2739.83899	9368.4125
2742.42786	9403.5125
2745.01513	9390.5125
2747.60079	9355.9125
2750.18486	9364.4125
2752.76733	9347.6125
2755.3482	9335.9125
2757.92747	9333.3125
2760.50515	9332.5125
2763.08123	9320.7125
2765.65573	9320.7125
2768.22863	9299.0125
2770.79994	9324.3125
2773.36967	9315.1125
2775.9378	9323.2125
2778.50435	9327.6125
2781.06932	9293.8125
2783.6327	9298.5125
2786.1945	9292.5125
2788.75471	9310.9125
2791.31335	9294.1125
2793.87041	9275.5125
2796.42589	9260.6125
2798.97979	9244.2125
2801.53212	9221.1125
2804.08288	9215.9125
2806.63206	9184.5125
2809.17967	9181.5125
2811.72571	9169.0125
2814.27018	9162.4125
2816.81308	9125.9125
2819.35442	9123.2125
2821.89419	9101.3125
2824.43239	9082.7125
2826.96904	9102.1125
2829.50412	9074.2125
2832.03763	9063.5125
2834.56959	9065.2125
2837.1	9069.6125
2839.62884	9082.9125
2842.15613	9106.0125
2844.68186	9145.4125
2847.20604	9191.0125
2849.72867	9211.6125
2852.24974	9202.2125
2854.76927	9196.2125
2857.28724	9174.0125
2859.80367	9160.4125
2862.31855	9133.6125
2864.83189	9112.7125
2867.34368	9118.7125
2869.85393	9091.1125
2872.36264	9107.2125
2874.8698	9085.8125
2877.37543	9087.9125
2879.87952	9073.8125
2882.38207	9053.0125
2884.88308	9058.2125
2887.38256	9066.1125
2889.88051	9067.2125
2892.37692	9067.1125
2894.8718	9100.2125
2897.36515	9096.3125
2899.85698	9097.8125
2902.34727	9092.8125
2904.83604	9123.3125
2907.32328	9132.9125
2909.809	9135.5125
2912.29319	9115.7125
2914.77587	9113.8125
2917.25702	9094.4125
2919.73665	9102.0125
2922.21476	9088.9125
2924.69136	9083.6125
2927.16644	9104.4125
2929.64	9096.5125
2932.11205	9079.9125
2934.58258	9054.8125
2937.05161	9042.9125
2939.51912	9035.2125
2941.98513	9008.4125
2944.44962	8978.3125
2946.91261	8939.9125
2949.37409	8948.6125
2951.83407	8938.5125
2954.29254	8905.4125
2956.74951	8894.9125
2959.20498	8898.7125
2961.65895	8861.5125
2964.11142	8870.2125
2966.56239	8838.0125
2969.01186	8819.5125
2971.45984	8798.1125
2973.90632	8788.1125
2976.35131	8753.2125
2978.7948	8725.3125
2981.23681	8695.6125
2983.67732	8706.3125
2986.11635	8663.2125
2988.55388	8612.2125
2990.98993	8600.5125
2993.4245	8593.2125
2995.85758	8555.8125
2998.28917	8528.0125
3000.71928	8508.1125
3003.14791	8492.9125
3005.57506	8515.4125
3008.00073	8446.0125
3010.42493	8444.4125
3012.84764	8423.4125
3015.26888	8424.6125
3017.68865	8378.3125
3020.10694	8369.7125
3022.52376	8325.2125
3024.9391	8317.2125
3027.35298	8319.2125
3029.76539	8316.2125
3032.17632	8311.6125
3034.5858	8272.6125
3036.9938	8281.9125
3039.40034	8297.0125
3041.80542	8275.3125
3044.20903	8267.3125
3046.61118	8271.0125
3049.01187	8241.6125
3051.4111	8240.7125
