Data from AgNPs_FTO_APTES_UA_5uM_CRN_1uM_R6G_10uM_NaF_0.1M_Addition_RamanShift__12__10-31-16-580.txt Node

Date: Mon Feb 07 10:31:16 GMT 2022
User: TCL
Spectrometer: QEP01345
Trigger mode: 4
Integration Time (sec): 7.000000E0
Scans to average: 10
Electric dark correction enabled: true
Nonlinearity correction enabled: false
Boxcar width: 0
XAxis mode: Raman Shifts
Number of Pixels in Spectrum: 1044
>>>>>Begin Spectral Data<<<<<
46.04893	-0.35
50.45542	0.05
54.85868	-0.95
59.25871	0.05
63.6555	92.85
68.04907	98.45
72.43941	103.55
76.82654	106.75
81.21044	110.55
85.59113	116.75
89.96862	118.85
94.34289	121.35
98.71396	128.05
103.08183	131.85
107.4465	134.45
111.80798	133.85
116.16626	140.85
120.52136	154.25
124.87327	156.75
129.222	169.85
133.56755	182.85
137.90993	198.95
142.24913	219.55
146.58517	251.35
150.91804	292.15
155.24774	359.35
159.57429	456.55
163.89768	591.95
168.21792	794.75
172.53501	1083.35
176.84895	1517.05
181.15975	2131.75
185.46741	3005.05
189.77193	4144.05
194.07331	5557.15
198.37157	7131.95
202.6667	8839.25
206.9587	10525.55
211.24758	12159.15
215.53334	13845.65
219.81599	15531.45
224.09553	17435.25
228.37195	19493.65
232.64527	21833.35
236.91549	24228.25
241.18261	26694.35
245.44663	29028.65
249.70755	31153.95
253.96539	32928.65
258.22014	34420.45
262.4718	35596.15
266.72039	36376.75
270.96589	36812.05
275.20832	36796.05
279.44768	36560.25
283.68397	36261.25
287.91719	35969.75
292.14735	35779.95
296.37445	35612.85
300.59849	35601.75
304.81948	35658.55
309.03742	35733.25
313.25231	35575.15
317.46415	35129.25
321.67296	34341.75
325.87872	33703.55
330.08145	33265.85
334.28114	33184.95
338.47781	33317.35
342.67145	33614.45
346.86207	34045.75
351.04966	34576.05
355.23424	35141.45
359.4158	35746.95
363.59435	36198.65
367.76989	36506.85
371.94243	36624.95
376.11196	36575.95
380.27849	36420.15
384.44203	36459.65
388.60257	36687.65
392.76012	37094.35
396.91468	37790.25
401.06626	38558.35
405.21485	38996.85
409.36047	38855.35
413.50311	38433.25
417.64277	38306.15
421.77947	38646.55
425.9132	38944.75
430.04396	39081.15
434.17176	39205.45
438.2966	39177.75
442.41849	39290.25
446.53742	39918.15
450.6534	40653.25
454.76644	41240.35
458.87653	41448.65
462.98368	41382.85
467.08789	41152.45
471.18916	40630.05
475.2875	40129.85
479.38291	39942.85
483.4754	40032.55
487.56496	39928.65
491.6516	39543.55
495.73531	39021.05
499.81612	38595.55
503.89401	38645.45
507.96899	38860.45
512.04106	38936.75
516.11023	38605.95
520.1765	37957.45
524.23987	37368.15
528.30034	36792.15
532.35792	36322.05
536.41261	35880.65
540.46441	35532.65
544.51333	35544.85
548.55936	35969.85
552.60252	36746.25
556.64279	37582.95
560.6802	38212.55
564.71473	38828.05
568.7464	39797.35
572.7752	41538.55
576.80114	43784.35
580.82422	46045.85
584.84444	48440.55
588.86181	51368.85
592.87633	54177.95
596.888	53735.55
600.89682	49849.25
604.9028	47055.55
608.90594	48039.35
612.90624	49739.75
616.90371	46587.15
620.89834	40336.15
624.89015	37608.55
628.87913	37644.65
632.86528	38300.55
636.84862	38321.05
640.82913	37417.55
644.80683	36177.15
648.78172	35462.25
652.75379	35411.45
656.72306	35732.85
660.68952	36173.75
664.65319	35984.25
668.61405	35510.25
672.57211	35439.55
676.52738	35554.35
680.47986	35454.35
684.42955	35098.25
688.37646	34907.45
692.32058	35201.05
696.26192	35731.25
700.20048	36285.95
704.13626	36674.15
708.06928	37027.15
711.99952	37056.55
715.927	37016.05
719.85171	36939.05
723.77365	36531.75
727.69284	35727.65
731.60928	35053.85
735.52295	34754.55
739.43388	34681.45
743.34206	34808.25
747.24749	35128.55
751.15017	35637.05
755.05012	36399.75
758.94733	37483.15
762.8418	39171.75
766.73354	41656.05
770.62254	43758.25
774.50882	43774.75
778.39237	41760.45
782.27321	39261.15
786.15132	37286.75
790.02671	35988.85
793.89938	35236.85
797.76935	34816.55
801.6366	34678.95
805.50115	34525.15
809.36299	34396.05
813.22213	34245.85
817.07857	34135.55
820.93231	34023.75
824.78336	33812.95
828.63172	33575.65
832.47738	33383.15
836.32036	33346.85
840.16066	33354.25
843.99827	33354.95
847.8332	33383.85
851.66546	33421.15
855.49504	33550.75
859.32195	33591.05
863.1462	33494.15
866.96777	33437.05
870.78668	33396.05
874.60293	33368.95
878.41652	33367.55
882.22745	33427.35
886.03573	33510.45
889.84136	33498.55
893.64433	33450.15
897.44466	33434.25
901.24235	33453.95
905.0374	33391.75
908.8298	33352.05
912.61957	33476.75
916.40671	33832.15
920.19121	34492.95
923.97308	35081.45
927.75233	35172.45
931.52895	34694.05
935.30295	33829.15
939.07433	32960.55
942.84309	32329.55
946.60924	32015.45
950.37278	31880.25
954.13371	31869.65
957.89203	31893.85
961.64774	31865.65
965.40086	31882.25
969.15137	31855.05
972.89929	31643.55
976.64461	31484.25
980.38733	31375.05
984.12747	31280.35
987.86502	31361.05
991.59999	31463.15
995.33237	31652.45
999.06217	32039.05
1002.78939	32541.15
1006.51404	33207.25
1010.23611	33915.95
1013.95561	34380.95
1017.67255	34444.45
1021.38692	34016.05
1025.09872	33442.65
1028.80796	32964.65
1032.51465	32763.85
1036.21877	32784.95
1039.92035	32957.65
1043.61937	33169.65
1047.31584	33310.05
1051.00976	33448.15
1054.70114	33644.85
1058.38998	33918.35
1062.07627	34360.35
1065.76003	34946.35
1069.44126	35603.55
1073.11995	36414.95
1076.79611	37186.25
1080.46974	37396.85
1084.14085	37550.35
1087.80943	38075.65
1091.47549	38633.75
1095.13903	38925.55
1098.80005	38389.95
1102.45857	37183.45
1106.11456	36050.25
1109.76805	35309.05
1113.41903	35010.55
1117.06751	35015.95
1120.71348	35274.05
1124.35696	35637.75
1127.99793	36078.95
1131.63641	36410.05
1135.2724	36481.75
1138.90589	36547.25
1142.5369	36708.25
1146.16542	37078.15
1149.79145	37573.05
1153.415	38069.85
1157.03607	38737.15
1160.65467	39982.95
1164.27079	41983.65
1167.88443	44277.05
1171.49561	46417.45
1175.10432	48807.85
1178.71056	51790.95
1182.31434	54665.25
1185.91565	56164.45
1189.51451	56163.05
1193.11091	55124.15
1196.70485	53546.05
1200.29634	51797.45
1203.88538	50751.35
1207.47197	50642.15
1211.05612	50885.55
1214.63782	50334.75
1218.21708	48670.35
1221.79391	46551.95
1225.36829	44851.75
1228.94024	43844.85
1232.50976	43213.05
1236.07685	42772.25
1239.6415	42454.55
1243.20374	42374.45
1246.76355	42581.55
1250.32093	43230.85
1253.8759	44158.45
1257.42845	45414.25
1260.97859	46935.15
1264.52631	48475.35
1268.07163	50035.75
1271.61453	51603.85
1275.15503	53351.95
1278.69312	55351.75
1282.22882	57594.15
1285.76211	60251.25
1289.29301	63102.25
1292.82151	66270.25
1296.34761	69941.45
1299.87133	74027.45
1303.39266	78006.45
1306.9116	80896.65
1310.42815	82346.95
1313.94233	82447.05
1317.45412	81411.15
1320.96354	80309.85
1324.47058	80076.35
1327.97525	80304.95
1331.47754	80646.55
1334.97747	80154.15
1338.47502	79004.95
1341.97022	77839.55
1345.46305	76436.85
1348.95352	75305.75
1352.44163	74465.45
1355.92738	74790.25
1359.41078	76751.85
1362.89183	78804.65
1366.37053	78491.35
1369.84688	74090.45
1373.32088	66849.15
1376.79254	61145.25
1380.26186	58977.55
1383.72883	59015.65
1387.19347	59084.65
1390.65578	58445.65
1394.11575	57942.05
1397.57339	58412.15
1401.0287	59752.75
1404.48168	60739.25
1407.93234	60465.55
1411.38068	58592.65
1414.82669	55738.25
1418.27039	52714.45
1421.71177	50229.65
1425.15083	48403.25
1428.58758	47824.05
1432.02203	48464.35
1435.45416	50108.85
1438.88399	51780.85
1442.31151	52990.65
1445.73673	53634.35
1449.15965	54121.75
1452.58027	54394.25
1455.9986	54397.15
1459.41463	54891.05
1462.82837	55754.55
1466.23982	56889.75
1469.64898	57918.05
1473.05586	58252.55
1476.46045	58165.45
1479.86276	57826.75
1483.26279	57349.65
1486.66054	57228.25
1490.05602	57642.45
1493.44922	58532.35
1496.84016	59576.95
1500.22882	60904.35
1503.61521	62212.05
1506.99934	63544.15
1510.38121	64543.35
1513.76081	64937.15
1517.13816	64680.55
1520.51324	64282.35
1523.88607	64303.55
1527.25665	64627.95
1530.62498	64727.85
1533.99105	63918.85
1537.35488	62166.05
1540.71647	59944.65
1544.07581	57388.55
1547.4329	55012.35
1550.78776	53188.85
1554.14038	51936.95
1557.49077	51271.35
1560.83892	50940.95
1564.18484	50790.85
1567.52853	50798.75
1570.86999	51227.65
1574.20922	52355.95
1577.54624	53457.05
1580.88103	54129.65
1584.2136	55247.75
1587.54395	57531.65
1590.87208	60991.25
1594.19801	64768.85
1597.52172	67788.35
1600.84321	67354.95
1604.16251	63023.35
1607.47959	57083.35
1610.79447	51533.75
1614.10715	46783.55
1617.41763	43152.55
1620.7259	40793.95
1624.03199	39705.05
1627.33587	39788.15
1630.63757	41216.55
1633.93707	44357.75
1637.23439	49717.85
1640.52951	57927.15
1643.82246	67994.85
1647.11321	76486.95
1650.40179	78323.15
1653.68819	71769.65
1656.97241	60934.05
1660.25446	50488.25
1663.53433	42859.35
1666.81203	37975.45
1670.08756	34973.65
1673.36092	33100.55
1676.63211	31945.65
1679.90115	31158.25
1683.16801	30546.05
1686.43272	30076.55
1689.69527	29772.85
1692.95567	29443.15
1696.2139	29276.65
1699.46999	29122.85
1702.72392	28999.75
1705.97571	28853.15
1709.22535	28725.05
1712.47284	28661.55
1715.71819	28575.85
1718.96139	28511.05
1722.20246	28365.45
1725.44139	28254.55
1728.67818	28069.85
1731.91284	27817.25
1735.14537	27669.55
1738.37576	27526.95
1741.60403	27371.55
1744.83017	27252.15
1748.05418	27191.55
1751.27607	27092.45
1754.49584	27009.15
1757.71349	26944.85
1760.92903	26952.75
1764.14244	26910.45
1767.35375	26885.05
1770.56294	26843.05
1773.77002	26741.15
1776.97499	26664.15
1780.17785	26635.45
1783.37861	26557.85
1786.57727	26486.25
1789.77382	26458.85
1792.96828	26410.15
1796.16064	26319.85
1799.3509	26240.65
1802.53907	26176.95
1805.72514	26091.25
1808.90913	26011.85
1812.09102	25982.05
1815.27083	25846.95
1818.44856	25838.65
1821.6242	25794.45
1824.79776	25766.85
1827.96924	25732.45
1831.13864	25657.55
1834.30597	25718.25
1837.47122	25658.15
1840.6344	25644.75
1843.7955	25688.15
1846.95454	25695.15
1850.11151	25680.45
1853.26642	25696.95
1856.41926	25672.95
1859.57004	25679.05
1862.71876	25592.75
1865.86542	25569.85
1869.01003	25465.15
1872.15258	25400.25
1875.29308	25388.35
1878.43152	25348.45
1881.56792	25298.35
1884.70227	25253.95
1887.83457	25241.45
1890.96482	25145.65
1894.09304	25107.05
1897.21921	25111.05
1900.34335	25032.55
1903.46544	24969.55
1906.58551	24950.85
1909.70353	24843.85
1912.81953	24798.95
1915.93349	24781.45
1919.04543	24726.75
1922.15534	24666.35
1925.26322	24559.25
1928.36908	24479.45
1931.47292	24402.95
1934.57473	24290.85
1937.67453	24240.05
1940.77232	24187.05
1943.86808	24073.85
1946.96184	24004.15
1950.05358	23941.05
1953.14331	23893.45
1956.23103	23791.45
1959.31675	23726.45
1962.40046	23628.65
1965.48217	23593.05
1968.56188	23513.15
1971.63959	23415.75
1974.7153	23289.15
1977.78901	23168.95
1980.86073	23111.15
1983.93046	23035.85
1986.99819	22966.65
1990.06394	22863.55
1993.1277	22822.05
1996.18947	22777.15
1999.24925	22640.35
2002.30706	22577.15
2005.36288	22519.05
2008.41672	22457.75
2011.46859	22372.95
2014.51848	22296.65
2017.56639	22262.55
2020.61233	22134.25
2023.6563	22075.85
2026.6983	22060.65
2029.73833	21979.95
2032.7764	21958.35
2035.8125	21875.95
2038.84664	21774.05
2041.87881	21749.45
2044.90903	21711.15
2047.93729	21674.85
2050.96359	21621.95
2053.98794	21618.45
2057.01034	21552.45
2060.03078	21570.55
2063.04927	21580.45
2066.06582	21560.05
2069.08042	21525.55
2072.09307	21491.45
2075.10378	21487.55
2078.11255	21490.55
2081.11938	21448.85
2084.12426	21380.85
2087.12722	21423.25
2090.12824	21397.05
2093.12732	21392.25
2096.12447	21394.85
2099.11969	21347.75
2102.11299	21365.85
2105.10435	21349.65
2108.09379	21338.95
2111.08131	21342.05
2114.0669	21324.65
2117.05057	21346.15
2120.03233	21376.45
2123.01216	21363.35
2125.99008	21377.35
2128.96609	21380.85
2131.94018	21427.65
2134.91236	21425.45
2137.88263	21386.55
2140.851	21402.35
2143.81746	21376.35
2146.78201	21334.05
2149.74466	21315.85
2152.7054	21304.65
2155.66425	21290.05
2158.6212	21271.35
2161.57625	21247.15
2164.52941	21254.75
2167.48067	21224.55
2170.43004	21208.05
2173.37752	21199.85
2176.32311	21178.55
2179.26681	21158.05
2182.20863	21197.15
2185.14856	21190.25
2188.08661	21147.55
2191.02278	21182.35
2193.95707	21151.95
2196.88948	21080.85
2199.82001	21033.95
2202.74867	21014.55
2205.67545	20961.45
2208.60037	20879.05
2211.52341	20859.35
2214.44458	20880.25
2217.36388	20818.95
2220.28132	20760.15
2223.1969	20710.95
2226.11061	20705.65
2229.02246	20690.25
2231.93245	20669.05
2234.84058	20609.45
2237.74686	20603.25
2240.65128	20625.35
2243.55385	20558.15
2246.45456	20535.75
2249.35343	20483.25
2252.25044	20371.75
2255.14561	20299.05
2258.03893	20263.05
2260.93041	20218.15
2263.82004	20155.65
2266.70783	20110.15
2269.59378	19998.25
2272.4779	19948.35
2275.36017	19870.55
2278.24061	19863.75
2281.11922	19817.15
2283.996	19763.45
2286.87094	19763.95
2289.74405	19689.15
2292.61534	19714.65
2295.4848	19616.75
2298.35243	19611.25
2301.21824	19613.05
2304.08223	19578.15
2306.94439	19587.05
2309.80474	19592.65
2312.66327	19575.85
2315.51999	19530.45
2318.37489	19469.35
2321.22797	19448.55
2324.07925	19438.65
2326.92871	19358.95
2329.77637	19341.15
2332.62222	19321.05
2335.46626	19258.15
2338.3085	19296.95
2341.14893	19278.65
2343.98756	19270.95
2346.8244	19259.35
2349.65943	19242.05
2352.49267	19187.35
2355.32411	19270.75
2358.15376	19211.65
2360.98161	19186.75
2363.80768	19171.35
2366.63195	19191.25
2369.45444	19188.25
2372.27514	19176.85
2375.09405	19125.45
2377.91118	19055.65
2380.72652	19040.35
2383.54009	18960.75
2386.35187	18943.65
2389.16188	18839.95
2391.97011	18812.25
2394.77657	18788.45
2397.58125	18727.95
2400.38416	18700.75
2403.18529	18706.75
2405.98466	18666.85
2408.78226	18644.75
2411.57809	18620.35
2414.37216	18603.75
2417.16446	18620.45
2419.955	18542.55
2422.74378	18552.75
2425.5308	18528.15
2428.31606	18532.85
2431.09956	18501.35
2433.88131	18482.75
2436.6613	18525.55
2439.43954	18486.85
2442.21603	18468.35
2444.99077	18445.75
2447.76377	18448.85
2450.53501	18415.45
2453.30451	18380.95
2456.07226	18332.15
2458.83827	18353.55
2461.60254	18306.55
2464.36507	18314.25
2467.12586	18338.25
2469.88492	18258.15
2472.64224	18310.55
2475.39782	18286.35
2478.15167	18335.75
2480.90379	18308.35
2483.65417	18293.55
2486.40283	18273.95
2489.14976	18287.05
2491.89497	18267.45
2494.63845	18297.95
2497.3802	18248.95
2500.12024	18225.55
2502.85855	18208.55
2505.59514	18166.55
2508.33002	18155.75
2511.06318	18135.65
2513.79462	18084.65
2516.52435	18102.75
2519.25237	18108.35
2521.97867	18095.85
2524.70327	18080.15
2527.42616	18002.25
2530.14734	18028.25
2532.86681	18006.55
2535.58458	18000.75
2538.30065	17981.45
2541.01501	17974.95
2543.72768	17975.85
2546.43864	17933.15
2549.14791	17908.35
2551.85548	17894.05
2554.56136	17812.05
2557.26554	17831.15
2559.96803	17792.95
2562.66883	17791.05
2565.36794	17765.85
2568.06536	17760.25
2570.7611	17706.15
2573.45514	17710.45
2576.14751	17680.35
2578.83819	17621.65
2581.52719	17606.75
2584.21451	17614.45
2586.90015	17584.15
2589.58411	17562.55
2592.2664	17562.05
2594.94701	17486.35
2597.62594	17525.35
2600.30321	17495.35
2602.9788	17502.75
2605.65273	17463.75
2608.32498	17499.75
2610.99557	17477.05
2613.66449	17478.05
2616.33175	17447.75
2618.99734	17473.65
2621.66128	17385.05
2624.32355	17350.85
2626.98416	17346.95
2629.64311	17352.55
2632.30041	17332.95
2634.95605	17334.15
2637.61004	17285.15
2640.26238	17294.85
2642.91306	17280.75
2645.56209	17283.45
2648.20948	17281.35
2650.85521	17299.85
2653.4993	17305.25
2656.14175	17283.55
2658.78255	17319.55
2661.42171	17322.35
2664.05923	17321.85
2666.6951	17342.05
2669.32934	17368.45
2671.96194	17337.55
2674.59291	17348.15
2677.22224	17330.35
2679.84993	17356.45
2682.476	17323.95
2685.10043	17335.15
2687.72324	17273.05
2690.34441	17291.35
2692.96396	17238.65
2695.58188	17289.05
2698.19818	17256.45
2700.81285	17273.75
2703.4259	17238.95
2706.03733	17298.15
2708.64714	17259.45
2711.25533	17294.95
2713.86191	17249.85
2716.46687	17263.15
2719.07021	17295.95
2721.67194	17314.15
2724.27206	17311.55
2726.87057	17355.65
2729.46747	17339.55
2732.06276	17344.55
2734.65644	17341.35
2737.24852	17339.05
2739.83899	17329.25
2742.42786	17302.15
2745.01513	17250.95
2747.60079	17237.65
2750.18486	17221.65
2752.76733	17172.75
2755.3482	17204.55
2757.92747	17164.65
2760.50515	17135.75
2763.08123	17175.65
2765.65573	17137.15
2768.22863	17121.85
2770.79994	17102.65
2773.36967	17097.35
2775.9378	17124.25
2778.50435	17118.45
2781.06932	17090.45
2783.6327	17101.45
2786.1945	17107.55
2788.75471	17092.15
2791.31335	17037.65
2793.87041	17033.55
2796.42589	16989.55
2798.97979	16991.95
2801.53212	16913.05
2804.08288	16880.35
2806.63206	16846.55
2809.17967	16823.85
2811.72571	16793.45
2814.27018	16777.05
2816.81308	16734.55
2819.35442	16669.85
2821.89419	16617.05
2824.43239	16667.35
2826.96904	16625.55
2829.50412	16656.85
2832.03763	16578.05
2834.56959	16573.85
2837.1	16519.55
2839.62884	16544.35
2842.15613	16494.85
2844.68186	16569.75
2847.20604	16580.55
2849.72867	16556.15
2852.24974	16579.75
2854.76927	16537.95
2857.28724	16512.15
2859.80367	16517.15
2862.31855	16483.15
2864.83189	16463.75
2867.34368	16426.45
2869.85393	16378.55
2872.36264	16337.95
2874.8698	16326.05
2877.37543	16329.55
2879.87952	16315.55
2882.38207	16301.05
2884.88308	16273.75
2887.38256	16309.35
2889.88051	16253.95
2892.37692	16318.15
2894.8718	16273.95
2897.36515	16310.75
2899.85698	16296.75
2902.34727	16326.95
2904.83604	16322.65
2907.32328	16371.35
2909.809	16365.65
2912.29319	16345.85
2914.77587	16330.25
2917.25702	16294.55
2919.73665	16312.75
2922.21476	16313.15
2924.69136	16302.55
2927.16644	16294.25
2929.64	16244.15
2932.11205	16249.25
2934.58258	16192.75
2937.05161	16247.75
2939.51912	16203.05
2941.98513	16172.75
2944.44962	16136.65
2946.91261	16076.25
2949.37409	16064.25
2951.83407	16030.55
2954.29254	16005.45
2956.74951	16000.45
2959.20498	15983.85
2961.65895	15963.35
2964.11142	15941.95
2966.56239	15939.35
2969.01186	15886.45
2971.45984	15887.85
2973.90632	15889.15
2976.35131	15858.35
2978.7948	15771.65
2981.23681	15735.35
2983.67732	15698.45
2986.11635	15700.85
2988.55388	15616.35
2990.98993	15561.75
2993.4245	15498.95
2995.85758	15457.85
2998.28917	15428.55
3000.71928	15361.05
3003.14791	15311.65
3005.57506	15336.75
3008.00073	15259.85
3010.42493	15265.95
3012.84764	15199.15
3015.26888	15191.35
3017.68865	15146.85
3020.10694	15079.75
3022.52376	15058.25
3024.9391	15049.35
3027.35298	15000.75
3029.76539	15004.65
3032.17632	14989.55
3034.5858	14939.15
3036.9938	14955.85
3039.40034	14934.55
3041.80542	14911.95
3044.20903	14881.85
3046.61118	14864.55
3049.01187	14833.05
3051.4111	14811.85
3053.80888	14774.45
3056.20519	14757.75
3058.60005	14691.65
3060.99345	14675.15
3063.3854	14604.85
3065.7759	14524.25
3068.16494	14471.25
3070.55254	14428.45
3072.93868	14370.55
3075.32338	14339.85
3077.70662	14299.35
3080.08842	14221.75
3082.46878	14215.35
3084.84769	14188.85
3087.22515	14177.25
3089.60118	14187.05
3091.97576	14168.05
3094.3489	14160.15
3096.72061	14156.75
3099.09087	14148.25
3101.4597	14123.35
3103.82709	14139.55
3106.19305	14071.65
3108.55757	14049.75
3110.92066	14013.45
3113.28232	14010.25
3115.64255	13954.25
3118.00134	13920.55
3120.35871	13856.95
3122.71466	13837.25
3125.06917	13786.95
3127.42226	13750.95
3129.77393	13748.65
3132.12417	13690.55
3134.47299	13694.85
3136.82039	13674.35
3139.16636	13666.15
3141.51092	13642.45
3143.85406	13628.15
3146.19579	13636.65
3148.53609	13631.95
3150.87499	13611.85
3153.21246	13584.75
3155.54853	13581.55
3157.88318	13578.95
3160.21642	13606.25
3162.54826	13580.75
3164.87868	13585.95
3167.2077	13544.45
3169.5353	13540.55
3171.86151	13531.25
3174.18631	13507.95
3176.5097	13526.05
3178.83169	13473.35
3181.15228	13471.65
3183.47147	13429.55
3185.78926	13407.25
3188.10565	13364.75
3190.42065	13370.25
3192.73424	13341.45
3195.04645	13331.15
3197.35725	13293.95
3199.66667	13265.95
3201.97469	13281.95
3204.28132	13225.85
3206.58656	13227.05
3208.8904	13194.05
3211.19287	13198.55
3213.49394	13190.15
3215.79363	13190.55
3218.09193	13214.45
3220.38884	13142.55
3222.68438	13169.35
3224.97853	13156.15
3227.2713	13171.65
3229.56269	13130.35
3231.8527	13131.75
3234.14133	13118.15
3236.42858	13075.25
3238.71446	13093.35
