Data from AgNPs_FTO_APTES_UA_5uM_CRN_1uM_R6G_10uM_NaF_0.1M_Addition_RamanShift__9__10-27-46-575.txt Node

Date: Mon Feb 07 10:27:46 GMT 2022
User: TCL
Spectrometer: QEP01345
Trigger mode: 4
Integration Time (sec): 7.000000E0
Scans to average: 10
Electric dark correction enabled: true
Nonlinearity correction enabled: false
Boxcar width: 0
XAxis mode: Raman Shifts
Number of Pixels in Spectrum: 1044
>>>>>Begin Spectral Data<<<<<
46.04893	-0.1875
50.45542	-1.2875
54.85868	-0.9875
59.25871	-0.3875
63.6555	88.9125
68.04907	88.3125
72.43941	95.0125
76.82654	99.8125
81.21044	101.4125
85.59113	107.8125
89.96862	107.5125
94.34289	108.6125
98.71396	111.8125
103.08183	121.4125
107.4465	124.1125
111.80798	128.6125
116.16626	132.2125
120.52136	136.9125
124.87327	140.5125
129.222	151.4125
133.56755	164.3125
137.90993	180.7125
142.24913	200.3125
146.58517	233.3125
150.91804	272.2125
155.24774	334.3125
159.57429	416.9125
163.89768	533.6125
168.21792	722.0125
172.53501	982.5125
176.84895	1386.8125
181.15975	1947.2125
185.46741	2735.9125
189.77193	3781.3125
194.07331	5049.5125
198.37157	6497.1125
202.6667	8022.4125
206.9587	9544.9125
211.24758	11019.4125
215.53334	12536.4125
219.81599	14141.4125
224.09553	15937.4125
228.37195	17858.1125
232.64527	19971.0125
236.91549	22173.4125
241.18261	24392.0125
245.44663	26412.6125
249.70755	28168.3125
253.96539	29747.2125
258.22014	31041.8125
262.4718	32133.9125
266.72039	32836.0125
270.96589	33167.9125
275.20832	33188.0125
279.44768	32895.5125
283.68397	32606.7125
287.91719	32363.4125
292.14735	32212.9125
296.37445	32169.3125
300.59849	32265.5125
304.81948	32476.5125
309.03742	32541.8125
313.25231	32442.3125
317.46415	32029.1125
321.67296	31278.3125
325.87872	30590.7125
330.08145	30203.8125
334.28114	30068.5125
338.47781	30236.1125
342.67145	30508.8125
346.86207	30977.8125
351.04966	31496.5125
355.23424	32143.0125
359.4158	32838.5125
363.59435	33309.0125
367.76989	33584.8125
371.94243	33720.1125
376.11196	33733.8125
380.27849	33600.0125
384.44203	33604.1125
388.60257	33889.0125
392.76012	34329.1125
396.91468	34927.4125
401.06626	35633.9125
405.21485	36038.6125
409.36047	35911.5125
413.50311	35648.0125
417.64277	35761.7125
421.77947	36277.3125
425.9132	36402.0125
430.04396	36459.4125
434.17176	36479.2125
438.2966	36356.4125
442.41849	36578.0125
446.53742	37314.2125
450.6534	38262.9125
454.76644	38935.2125
458.87653	39110.0125
462.98368	38825.0125
467.08789	38371.5125
471.18916	37690.3125
475.2875	36993.7125
479.38291	36685.3125
483.4754	36717.8125
487.56496	36569.8125
491.6516	36177.0125
495.73531	35639.3125
499.81612	35261.8125
503.89401	35382.8125
507.96899	35641.4125
512.04106	35594.5125
516.11023	35150.0125
520.1765	34436.4125
524.23987	33798.2125
528.30034	33261.1125
532.35792	32809.8125
536.41261	32325.2125
540.46441	31900.5125
544.51333	31861.5125
548.55936	32225.0125
552.60252	33057.1125
556.64279	33977.9125
560.6802	34788.0125
564.71473	35404.4125
568.7464	36403.2125
572.7752	38147.3125
576.80114	40231.1125
580.82422	42624.9125
584.84444	45480.4125
588.86181	49242.7125
592.87633	52230.0125
596.888	51055.2125
600.89682	46258.5125
604.9028	43321.3125
608.90594	44572.6125
612.90624	46688.3125
616.90371	43603.3125
620.89834	36834.1125
624.89015	33837.0125
628.87913	33616.4125
632.86528	34106.6125
636.84862	34045.3125
640.82913	33077.0125
644.80683	31989.5125
648.78172	31452.5125
652.75379	31542.0125
656.72306	32011.1125
660.68952	32378.6125
664.65319	32041.8125
668.61405	31445.7125
672.57211	31387.9125
676.52738	31587.2125
680.47986	31547.4125
684.42955	31141.6125
688.37646	30921.5125
692.32058	31241.3125
696.26192	31990.3125
700.20048	32644.4125
704.13626	33041.5125
708.06928	33203.5125
711.99952	33168.7125
715.927	33216.8125
719.85171	33405.7125
723.77365	33088.3125
727.69284	32222.3125
731.60928	31491.5125
735.52295	31112.6125
739.43388	31113.5125
743.34206	31179.9125
747.24749	31520.0125
751.15017	32075.6125
755.05012	32784.2125
758.94733	33938.9125
762.8418	35698.7125
766.73354	38075.4125
770.62254	40227.8125
774.50882	40075.9125
778.39237	38081.6125
782.27321	35495.8125
786.15132	33411.1125
790.02671	32101.6125
793.89938	31476.5125
797.76935	31192.3125
801.6366	31129.2125
805.50115	31099.0125
809.36299	30918.3125
813.22213	30726.2125
817.07857	30537.2125
820.93231	30284.7125
824.78336	30022.7125
828.63172	29764.9125
832.47738	29626.2125
836.32036	29577.5125
840.16066	29645.9125
843.99827	29658.0125
847.8332	29629.5125
851.66546	29669.7125
855.49504	29740.9125
859.32195	29769.4125
863.1462	29683.1125
866.96777	29595.6125
870.78668	29533.9125
874.60293	29486.0125
878.41652	29458.7125
882.22745	29628.3125
886.03573	29694.3125
889.84136	29700.8125
893.64433	29628.5125
897.44466	29487.8125
901.24235	29388.0125
905.0374	29398.3125
908.8298	29311.5125
912.61957	29385.6125
916.40671	29772.9125
920.19121	30371.4125
923.97308	31012.9125
927.75233	31177.2125
931.52895	30711.2125
935.30295	29874.7125
939.07433	28985.4125
942.84309	28393.4125
946.60924	28174.3125
950.37278	28105.8125
954.13371	28171.4125
957.89203	28153.4125
961.64774	28194.9125
965.40086	28304.1125
969.15137	28252.2125
972.89929	28061.7125
976.64461	27877.4125
980.38733	27796.8125
984.12747	27766.8125
987.86502	27890.6125
991.59999	28104.8125
995.33237	28320.2125
999.06217	28865.9125
1002.78939	29535.7125
1006.51404	30303.2125
1010.23611	31126.0125
1013.95561	31610.5125
1017.67255	31619.6125
1021.38692	31099.0125
1025.09872	30460.4125
1028.80796	29975.9125
1032.51465	29958.6125
1036.21877	30196.7125
1039.92035	30401.3125
1043.61937	30495.7125
1047.31584	30416.2125
1051.00976	30312.9125
1054.70114	30367.1125
1058.38998	30532.4125
1062.07627	30881.0125
1065.76003	31404.4125
1069.44126	32059.2125
1073.11995	32880.9125
1076.79611	33654.0125
1080.46974	33909.4125
1084.14085	34192.3125
1087.80943	34752.1125
1091.47549	35270.6125
1095.13903	35419.6125
1098.80005	34800.9125
1102.45857	33531.3125
1106.11456	32523.0125
1109.76805	31858.9125
1113.41903	31602.5125
1117.06751	31648.9125
1120.71348	31982.9125
1124.35696	32276.4125
1127.99793	32741.0125
1131.63641	33138.8125
1135.2724	33247.7125
1138.90589	33227.8125
1142.5369	33546.3125
1146.16542	33986.1125
1149.79145	34439.0125
1153.415	34928.4125
1157.03607	35716.9125
1160.65467	37265.4125
1164.27079	39708.9125
1167.88443	42478.8125
1171.49561	44749.7125
1175.10432	47248.8125
1178.71056	50616.9125
1182.31434	53868.3125
1185.91565	55302.4125
1189.51451	54671.7125
1193.11091	53005.6125
1196.70485	51139.7125
1200.29634	49451.9125
1203.88538	48697.5125
1207.47197	48944.6125
1211.05612	49293.5125
1214.63782	48656.1125
1218.21708	46794.5125
1221.79391	44515.9125
1225.36829	42719.2125
1228.94024	41650.3125
1232.50976	40846.5125
1236.07685	40112.0125
1239.6415	39598.1125
1243.20374	39483.0125
1246.76355	39851.6125
1250.32093	40621.4125
1253.8759	41697.3125
1257.42845	43094.1125
1260.97859	44704.7125
1264.52631	46400.9125
1268.07163	48091.9125
1271.61453	49831.7125
1275.15503	51610.7125
1278.69312	53721.7125
1282.22882	56193.6125
1285.76211	59248.3125
1289.29301	62615.7125
1292.82151	66447.2125
1296.34761	70888.3125
1299.87133	76052.9125
1303.39266	81174.0125
1306.9116	85018.2125
1310.42815	86954.7125
1313.94233	86970.4125
1317.45412	85411.2125
1320.96354	83525.3125
1324.47058	82584.3125
1327.97525	82659.4125
1331.47754	82799.2125
1334.97747	81988.7125
1338.47502	80088.2125
1341.97022	77603.9125
1345.46305	75121.1125
1348.95352	73317.2125
1352.44163	72825.9125
1355.92738	74623.8125
1359.41078	78293.5125
1362.89183	81791.9125
1366.37053	81720.1125
1369.84688	76382.0125
1373.32088	67375.8125
1376.79254	60408.9125
1380.26186	58014.3125
1383.72883	58447.0125
1387.19347	58801.3125
1390.65578	58036.9125
1394.11575	57608.4125
1397.57339	58508.0125
1401.0287	60469.2125
1404.48168	62137.6125
1407.93234	62263.4125
1411.38068	60213.7125
1414.82669	57014.6125
1418.27039	53481.2125
1421.71177	50444.1125
1425.15083	48166.0125
1428.58758	47450.8125
1432.02203	48427.5125
1435.45416	50596.1125
1438.88399	52850.2125
1442.31151	54302.0125
1445.73673	54924.5125
1449.15965	55148.1125
1452.58027	54933.2125
1455.9986	54541.0125
1459.41463	54728.6125
1462.82837	55631.1125
1466.23982	56965.2125
1469.64898	58309.6125
1473.05586	58969.8125
1476.46045	58924.4125
1479.86276	58377.5125
1483.26279	57570.6125
1486.66054	57214.1125
1490.05602	57426.6125
1493.44922	58021.0125
1496.84016	58695.7125
1500.22882	59392.5125
1503.61521	60359.0125
1506.99934	61569.8125
1510.38121	62578.5125
1513.76081	62780.3125
1517.13816	62332.3125
1520.51324	61769.6125
1523.88607	61832.5125
1527.25665	62511.9125
1530.62498	63029.6125
1533.99105	62562.6125
1537.35488	61042.9125
1540.71647	58875.2125
1544.07581	56282.0125
1547.4329	53813.2125
1550.78776	51655.2125
1554.14038	50223.6125
1557.49077	49371.4125
1560.83892	48820.2125
1564.18484	48514.5125
1567.52853	48513.4125
1570.86999	48985.8125
1574.20922	50204.4125
1577.54624	51545.4125
1580.88103	52453.4125
1584.2136	54019.9125
1587.54395	57248.4125
1590.87208	62042.7125
1594.19801	67369.7125
1597.52172	71382.7125
1600.84321	71218.5125
1604.16251	65816.2125
1607.47959	58147.7125
1610.79447	51007.3125
1614.10715	45316.6125
1617.41763	41135.3125
1620.7259	38570.4125
1624.03199	37456.3125
1627.33587	37780.8125
1630.63757	39368.4125
1633.93707	43047.1125
1637.23439	49177.7125
1640.52951	58499.1125
1643.82246	70175.6125
1647.11321	79831.9125
1650.40179	81219.0125
1653.68819	72950.9125
1656.97241	60091.8125
1660.25446	48411.2125
1663.53433	40287.4125
1666.81203	35289.5125
1670.08756	32249.8125
1673.36092	30390.8125
1676.63211	29218.3125
1679.90115	28458.2125
1683.16801	27830.2125
1686.43272	27382.5125
1689.69527	27047.5125
1692.95567	26770.7125
1696.2139	26605.5125
1699.46999	26482.4125
1702.72392	26326.6125
1705.97571	26201.7125
1709.22535	26096.3125
1712.47284	25995.1125
1715.71819	25989.3125
1718.96139	25843.6125
1722.20246	25772.6125
1725.44139	25613.5125
1728.67818	25434.6125
1731.91284	25273.4125
1735.14537	25029.9125
1738.37576	24867.8125
1741.60403	24727.2125
1744.83017	24606.0125
1748.05418	24554.0125
1751.27607	24473.1125
1754.49584	24404.7125
1757.71349	24373.2125
1760.92903	24345.2125
1764.14244	24297.8125
1767.35375	24298.6125
1770.56294	24256.5125
1773.77002	24170.6125
1776.97499	24109.2125
1780.17785	24040.4125
1783.37861	24005.6125
1786.57727	23949.7125
1789.77382	23874.7125
1792.96828	23834.0125
1796.16064	23787.2125
1799.3509	23717.7125
1802.53907	23671.1125
1805.72514	23580.5125
1808.90913	23493.8125
1812.09102	23437.3125
1815.27083	23366.4125
1818.44856	23343.2125
1821.6242	23302.6125
1824.79776	23290.1125
1827.96924	23268.5125
1831.13864	23250.6125
1834.30597	23252.9125
1837.47122	23218.8125
1840.6344	23252.9125
1843.7955	23250.6125
1846.95454	23239.9125
1850.11151	23246.5125
1853.26642	23174.0125
1856.41926	23193.3125
1859.57004	23187.0125
1862.71876	23101.8125
1865.86542	23058.2125
1869.01003	23032.3125
1872.15258	22981.9125
1875.29308	22967.7125
1878.43152	22896.0125
1881.56792	22890.6125
1884.70227	22890.3125
1887.83457	22874.9125
1890.96482	22780.4125
1894.09304	22808.5125
1897.21921	22823.9125
1900.34335	22747.6125
1903.46544	22687.4125
1906.58551	22657.8125
1909.70353	22581.5125
1912.81953	22536.1125
1915.93349	22515.0125
1919.04543	22448.0125
1922.15534	22410.6125
1925.26322	22314.3125
1928.36908	22254.3125
1931.47292	22156.9125
1934.57473	22128.7125
1937.67453	22020.9125
1940.77232	21997.8125
1943.86808	21889.9125
1946.96184	21824.2125
1950.05358	21802.2125
1953.14331	21748.2125
1956.23103	21673.0125
1959.31675	21600.8125
1962.40046	21525.3125
1965.48217	21468.1125
1968.56188	21397.7125
1971.63959	21306.4125
1974.7153	21226.1125
1977.78901	21136.0125
1980.86073	21070.1125
1983.93046	21005.3125
1986.99819	20944.1125
1990.06394	20852.5125
1993.1277	20846.7125
1996.18947	20797.7125
1999.24925	20717.7125
2002.30706	20640.8125
2005.36288	20540.7125
2008.41672	20504.7125
2011.46859	20445.4125
2014.51848	20354.1125
2017.56639	20324.9125
2020.61233	20277.2125
2023.6563	20214.1125
2026.6983	20190.2125
2029.73833	20102.7125
2032.7764	20096.4125
2035.8125	20046.0125
2038.84664	19976.0125
2041.87881	19960.9125
2044.90903	19875.4125
2047.93729	19842.5125
2050.96359	19810.1125
2053.98794	19796.3125
2057.01034	19819.7125
2060.03078	19783.3125
2063.04927	19817.5125
2066.06582	19793.3125
2069.08042	19743.0125
2072.09307	19726.5125
2075.10378	19715.2125
2078.11255	19708.8125
2081.11938	19664.5125
2084.12426	19643.0125
2087.12722	19667.0125
2090.12824	19640.8125
2093.12732	19607.1125
2096.12447	19619.5125
2099.11969	19622.4125
2102.11299	19630.7125
2105.10435	19648.5125
2108.09379	19615.8125
2111.08131	19598.7125
2114.0669	19614.0125
2117.05057	19643.0125
2120.03233	19638.4125
2123.01216	19652.7125
2125.99008	19682.5125
2128.96609	19683.0125
2131.94018	19708.0125
2134.91236	19630.1125
2137.88263	19667.4125
2140.851	19635.2125
2143.81746	19618.6125
2146.78201	19622.6125
2149.74466	19598.4125
2152.7054	19603.4125
2155.66425	19599.1125
2158.6212	19579.8125
2161.57625	19580.7125
2164.52941	19528.9125
2167.48067	19552.6125
2170.43004	19531.8125
2173.37752	19522.5125
2176.32311	19497.5125
2179.26681	19518.0125
2182.20863	19503.4125
2185.14856	19506.6125
2188.08661	19555.2125
2191.02278	19540.6125
2193.95707	19512.9125
2196.88948	19483.7125
2199.82001	19397.2125
2202.74867	19382.2125
2205.67545	19360.4125
2208.60037	19331.2125
2211.52341	19314.9125
2214.44458	19287.3125
2217.36388	19231.1125
2220.28132	19182.0125
2223.1969	19153.0125
2226.11061	19149.9125
2229.02246	19161.8125
2231.93245	19118.6125
2234.84058	19106.4125
2237.74686	19110.2125
2240.65128	19094.1125
2243.55385	19051.5125
2246.45456	18952.0125
2249.35343	18944.3125
2252.25044	18851.3125
2255.14561	18768.4125
2258.03893	18751.8125
2260.93041	18685.8125
2263.82004	18679.2125
2266.70783	18638.3125
2269.59378	18523.2125
2272.4779	18485.2125
2275.36017	18427.4125
2278.24061	18409.4125
2281.11922	18395.2125
2283.996	18350.9125
2286.87094	18348.7125
2289.74405	18293.2125
2292.61534	18327.0125
2295.4848	18247.2125
2298.35243	18192.8125
2301.21824	18223.8125
2304.08223	18265.7125
2306.94439	18254.2125
2309.80474	18218.3125
2312.66327	18249.0125
2315.51999	18193.2125
2318.37489	18146.9125
2321.22797	18122.3125
2324.07925	18136.7125
2326.92871	18075.8125
2329.77637	18047.9125
2332.62222	18038.5125
2335.46626	18001.4125
2338.3085	18007.2125
2341.14893	18041.9125
2343.98756	18019.3125
2346.8244	18018.1125
2349.65943	18008.5125
2352.49267	18014.7125
2355.32411	18017.9125
2358.15376	18031.3125
2360.98161	17999.5125
2363.80768	17963.2125
2366.63195	18004.1125
2369.45444	17936.7125
2372.27514	17947.1125
2375.09405	17922.8125
2377.91118	17873.7125
2380.72652	17831.0125
2383.54009	17784.2125
2386.35187	17730.8125
2389.16188	17690.1125
2391.97011	17667.4125
2394.77657	17642.6125
2397.58125	17609.0125
2400.38416	17571.5125
2403.18529	17554.9125
2405.98466	17566.9125
2408.78226	17501.4125
2411.57809	17492.6125
2414.37216	17477.9125
2417.16446	17482.3125
2419.955	17415.2125
2422.74378	17418.4125
2425.5308	17405.8125
2428.31606	17388.4125
2431.09956	17390.7125
2433.88131	17355.5125
2436.6613	17414.1125
2439.43954	17377.7125
2442.21603	17345.0125
2444.99077	17356.2125
2447.76377	17357.1125
2450.53501	17333.1125
2453.30451	17346.0125
2456.07226	17310.0125
2458.83827	17298.3125
2461.60254	17285.5125
2464.36507	17298.9125
2467.12586	17282.5125
2469.88492	17286.3125
2472.64224	17281.4125
2475.39782	17317.2125
2478.15167	17364.3125
2480.90379	17326.7125
2483.65417	17342.2125
2486.40283	17291.2125
2489.14976	17334.6125
2491.89497	17339.9125
2494.63845	17357.3125
2497.3802	17308.8125
2500.12024	17300.6125
2502.85855	17271.5125
2505.59514	17265.9125
2508.33002	17247.9125
2511.06318	17216.6125
2513.79462	17201.4125
2516.52435	17202.4125
2519.25237	17209.9125
2521.97867	17183.1125
2524.70327	17178.2125
2527.42616	17160.3125
2530.14734	17197.9125
2532.86681	17177.0125
2535.58458	17148.5125
2538.30065	17126.1125
2541.01501	17130.8125
2543.72768	17125.3125
2546.43864	17112.7125
2549.14791	17099.3125
2551.85548	17095.4125
2554.56136	17073.0125
2557.26554	17028.5125
2559.96803	17050.9125
2562.66883	17060.7125
2565.36794	17013.3125
2568.06536	17032.4125
2570.7611	17003.9125
2573.45514	16983.1125
2576.14751	16975.2125
2578.83819	16920.9125
2581.52719	16936.8125
2584.21451	16933.9125
2586.90015	16895.0125
2589.58411	16894.6125
2592.2664	16887.0125
2594.94701	16863.3125
2597.62594	16901.1125
2600.30321	16858.4125
2602.9788	16863.3125
2605.65273	16876.9125
2608.32498	16918.5125
2610.99557	16886.2125
2613.66449	16895.2125
2616.33175	16889.9125
2618.99734	16873.1125
2621.66128	16845.0125
2624.32355	16838.5125
2626.98416	16808.4125
2629.64311	16790.5125
2632.30041	16790.6125
2634.95605	16772.8125
2637.61004	16761.9125
2640.26238	16759.6125
2642.91306	16738.8125
2645.56209	16730.9125
2648.20948	16752.9125
2650.85521	16757.8125
2653.4993	16838.1125
2656.14175	16787.9125
2658.78255	16818.7125
2661.42171	16824.5125
2664.05923	16864.2125
2666.6951	16854.1125
2669.32934	16871.7125
2671.96194	16852.6125
2674.59291	16878.2125
2677.22224	16883.3125
2679.84993	16899.5125
2682.476	16874.9125
2685.10043	16888.5125
2687.72324	16811.3125
2690.34441	16817.5125
2692.96396	16837.1125
2695.58188	16815.3125
2698.19818	16805.9125
2700.81285	16811.5125
2703.4259	16815.5125
2706.03733	16846.0125
2708.64714	16842.9125
2711.25533	16860.4125
2713.86191	16844.1125
2716.46687	16862.6125
2719.07021	16855.8125
2721.67194	16928.0125
2724.27206	16915.7125
2726.87057	16926.7125
2729.46747	16944.2125
2732.06276	16987.9125
2734.65644	16972.7125
2737.24852	16982.0125
2739.83899	16964.7125
2742.42786	16930.4125
2745.01513	16897.7125
2747.60079	16912.5125
2750.18486	16876.0125
2752.76733	16875.1125
2755.3482	16854.9125
2757.92747	16883.8125
2760.50515	16843.3125
2763.08123	16853.0125
2765.65573	16827.9125
2768.22863	16858.1125
2770.79994	16865.5125
2773.36967	16889.3125
2775.9378	16883.5125
2778.50435	16861.4125
2781.06932	16835.8125
2783.6327	16849.1125
2786.1945	16901.3125
2788.75471	16837.2125
2791.31335	16802.9125
2793.87041	16817.5125
2796.42589	16737.6125
2798.97979	16767.4125
2801.53212	16734.2125
2804.08288	16728.8125
2806.63206	16639.5125
2809.17967	16649.0125
2811.72571	16608.3125
2814.27018	16616.7125
2816.81308	16547.3125
2819.35442	16506.7125
2821.89419	16478.2125
2824.43239	16471.8125
2826.96904	16474.7125
2829.50412	16492.6125
2832.03763	16431.2125
2834.56959	16405.8125
2837.1	16401.9125
2839.62884	16403.9125
2842.15613	16374.9125
2844.68186	16417.8125
2847.20604	16424.9125
2849.72867	16464.9125
2852.24974	16431.2125
2854.76927	16459.6125
2857.28724	16418.7125
2859.80367	16400.4125
2862.31855	16371.0125
2864.83189	16326.8125
2867.34368	16311.9125
2869.85393	16280.5125
2872.36264	16249.8125
2874.8698	16230.9125
2877.37543	16216.2125
2879.87952	16241.6125
2882.38207	16226.6125
2884.88308	16213.9125
2887.38256	16209.1125
2889.88051	16225.6125
2892.37692	16246.7125
2894.8718	16238.3125
2897.36515	16293.2125
2899.85698	16303.5125
2902.34727	16299.3125
2904.83604	16322.1125
2907.32328	16346.8125
2909.809	16343.1125
2912.29319	16327.1125
2914.77587	16305.6125
2917.25702	16318.4125
2919.73665	16323.5125
2922.21476	16326.9125
2924.69136	16294.3125
2927.16644	16292.0125
2929.64	16237.3125
2932.11205	16206.1125
2934.58258	16205.4125
2937.05161	16198.7125
2939.51912	16215.4125
2941.98513	16195.5125
2944.44962	16118.3125
2946.91261	16095.3125
2949.37409	16103.3125
2951.83407	16054.0125
2954.29254	16016.6125
2956.74951	15990.9125
2959.20498	16022.1125
2961.65895	15967.5125
2964.11142	15973.2125
2966.56239	15921.7125
2969.01186	15920.6125
2971.45984	15880.5125
2973.90632	15893.0125
2976.35131	15837.6125
2978.7948	15798.7125
2981.23681	15735.0125
2983.67732	15704.7125
2986.11635	15664.3125
2988.55388	15604.6125
2990.98993	15561.3125
2993.4245	15489.6125
2995.85758	15445.4125
2998.28917	15405.9125
3000.71928	15366.0125
3003.14791	15332.5125
3005.57506	15303.5125
3008.00073	15274.5125
3010.42493	15268.0125
3012.84764	15235.6125
3015.26888	15228.6125
3017.68865	15163.6125
3020.10694	15109.8125
3022.52376	15077.0125
