Data from AgNPs_FTO_APTES_UA_5uM_CRN_20uM_R6G_10uM_NaF_0.1M_Addition_RamanShift__18__13-23-56-780.txt Node

Date: Mon Feb 07 13:23:56 GMT 2022
User: TCL
Spectrometer: QEP01345
Trigger mode: 4
Integration Time (sec): 7.000000E0
Scans to average: 10
Electric dark correction enabled: true
Nonlinearity correction enabled: false
Boxcar width: 0
XAxis mode: Raman Shifts
Number of Pixels in Spectrum: 1044
>>>>>Begin Spectral Data<<<<<
46.04893	-1.5
50.45542	-1.1
54.85868	-1.3
59.25871	0.4
63.6555	77.9
68.04907	81.5
72.43941	89.4
76.82654	90.3
81.21044	91
85.59113	92.4
89.96862	98.9
94.34289	98.2
98.71396	105.1
103.08183	106.7
107.4465	111.7
111.80798	112.1
116.16626	117.6
120.52136	126.2
124.87327	128.7
129.222	140.7
133.56755	150.7
137.90993	162.1
142.24913	179.9
146.58517	209.2
150.91804	242.9
155.24774	301.1
159.57429	375.9
163.89768	483.8
168.21792	653.6
172.53501	900.5
176.84895	1250.1
181.15975	1758.4
185.46741	2475.8
189.77193	3419.3
194.07331	4547.7
198.37157	5848.2
202.6667	7201.4
206.9587	8528.6
211.24758	9885
215.53334	11215.2
219.81599	12620.4
224.09553	14191.6
228.37195	15953.4
232.64527	17840.4
236.91549	19852
241.18261	21776.8
245.44663	23684.3
249.70755	25293.3
253.96539	26735
258.22014	27964.7
262.4718	29019.1
266.72039	29768.3
270.96589	30272.5
275.20832	30487
279.44768	30529.1
283.68397	30529.4
287.91719	30465.1
292.14735	30575.7
296.37445	30705.1
300.59849	30876.3
304.81948	30875
309.03742	30638.5
313.25231	30038.2
317.46415	29157.9
321.67296	28118.5
325.87872	27245.7
330.08145	26764.2
334.28114	26654.2
338.47781	26755.7
342.67145	26992.5
346.86207	27375
351.04966	27868.3
355.23424	28366.1
359.4158	28770.1
363.59435	29078.1
367.76989	29207.7
371.94243	29300.8
376.11196	29438.2
380.27849	29518.2
384.44203	29725.1
388.60257	30009.5
392.76012	30399.4
396.91468	30827.5
401.06626	31386.9
405.21485	31626.4
409.36047	31422.6
413.50311	30930.4
417.64277	30601.4
421.77947	30624.9
425.9132	30740.5
430.04396	31011.6
434.17176	31212.4
438.2966	31427.5
442.41849	31990.8
446.53742	32913.7
450.6534	34016.4
454.76644	34883.7
458.87653	35230.7
462.98368	35135.2
467.08789	34882.1
471.18916	34547.6
475.2875	34377.7
479.38291	34510.9
483.4754	34463.1
487.56496	33958.2
491.6516	33052.9
495.73531	32174.5
499.81612	31599.2
503.89401	31572.7
507.96899	31626.7
512.04106	31462.9
516.11023	31076
520.1765	30559.5
524.23987	30060.5
528.30034	29625.1
532.35792	29317.9
536.41261	28925.4
540.46441	28729.6
544.51333	28845.2
548.55936	29477.1
552.60252	30386
556.64279	31375.1
560.6802	32120.1
564.71473	32666.3
568.7464	33440.4
572.7752	34537.6
576.80114	35457.6
580.82422	36176.1
584.84444	36765.1
588.86181	37198.3
592.87633	37670.8
596.888	37704.8
600.89682	37410
604.9028	37940.1
608.90594	40257.2
612.90624	42203
616.90371	38831.5
620.89834	32611.1
624.89015	30023.6
628.87913	29997.3
632.86528	30239.5
636.84862	30104.2
640.82913	29481.9
644.80683	28518.3
648.78172	27725.4
652.75379	27445.9
656.72306	27606.3
660.68952	27926.1
664.65319	27800.8
668.61405	27344.6
672.57211	27181.8
676.52738	27250.7
680.47986	27229.5
684.42955	27043.3
688.37646	26998.2
692.32058	27100.8
696.26192	27432.8
700.20048	27805.5
704.13626	28087.6
708.06928	28127.7
711.99952	27883.5
715.927	27862.6
719.85171	27933.4
723.77365	27746.2
727.69284	27383.9
731.60928	27045.8
735.52295	26902.3
739.43388	26922.6
743.34206	26976
747.24749	27105.2
751.15017	27490.6
755.05012	28179.7
758.94733	29274
762.8418	31066.1
766.73354	33694.6
770.62254	35883.2
774.50882	35905
778.39237	33755.2
782.27321	30968.8
786.15132	28851.3
790.02671	27627.9
793.89938	26965.6
797.76935	26722.8
801.6366	26738.7
805.50115	26676
809.36299	26476.7
813.22213	26247.8
817.07857	26195.4
820.93231	26129
824.78336	25910.4
828.63172	25668.7
832.47738	25548.6
836.32036	25568.7
840.16066	25633.8
843.99827	25798.3
847.8332	25707.5
851.66546	25487
855.49504	25464.5
859.32195	25422.4
863.1462	25323
866.96777	25205.7
870.78668	25150.2
874.60293	25084.4
878.41652	25053.2
882.22745	25116.8
886.03573	25151.1
889.84136	25175.2
893.64433	25087.1
897.44466	24943.1
901.24235	24864.4
905.0374	24767.1
908.8298	24699.3
912.61957	24832.9
916.40671	25233.2
920.19121	25748.9
923.97308	26120.1
927.75233	26049.7
931.52895	25688.4
935.30295	25223.8
939.07433	24652.9
942.84309	24170.9
946.60924	23951.4
950.37278	23882.3
954.13371	23829.4
957.89203	23807.9
961.64774	23769.3
965.40086	23773.3
969.15137	23667
972.89929	23453.8
976.64461	23273.8
980.38733	23213.6
984.12747	23315.9
987.86502	23540.3
991.59999	23860.2
995.33237	24349.1
999.06217	25172.2
1002.78939	26125.5
1006.51404	26684.7
1010.23611	26907.2
1013.95561	27188
1017.67255	27234.9
1021.38692	26937.1
1025.09872	26535.4
1028.80796	26569.1
1032.51465	27283.5
1036.21877	28078.4
1039.92035	28188.6
1043.61937	27843.4
1047.31584	27146.1
1051.00976	26535.3
1054.70114	26276
1058.38998	26458.3
1062.07627	26821.2
1065.76003	27120.9
1069.44126	27422.4
1073.11995	27708.9
1076.79611	28033.8
1080.46974	28173.3
1084.14085	28356.1
1087.80943	28700.7
1091.47549	29094.4
1095.13903	29257.1
1098.80005	28964.7
1102.45857	28221.9
1106.11456	27497.1
1109.76805	27181.2
1113.41903	27154.7
1117.06751	27355.8
1120.71348	27620.7
1124.35696	27938.6
1127.99793	28302.5
1131.63641	28602.9
1135.2724	28579.2
1138.90589	28499.1
1142.5369	28595.1
1146.16542	28831.9
1149.79145	29297.3
1153.415	29913.5
1157.03607	30622.3
1160.65467	31860
1164.27079	33644.4
1167.88443	35946.6
1171.49561	38708.8
1175.10432	42085.4
1178.71056	46193.8
1182.31434	49945.6
1185.91565	52024.2
1189.51451	52116
1193.11091	50845.3
1196.70485	48720.3
1200.29634	46356.9
1203.88538	44563.1
1207.47197	43561.6
1211.05612	42833.6
1214.63782	41980.1
1218.21708	40926.5
1221.79391	39843.6
1225.36829	39049.1
1228.94024	38249
1232.50976	37229.8
1236.07685	36451
1239.6415	36077.2
1243.20374	36004.8
1246.76355	36210.8
1250.32093	36898.8
1253.8759	37934.5
1257.42845	39166.1
1260.97859	40472.8
1264.52631	41771
1268.07163	43105.7
1271.61453	44614.5
1275.15503	46373.8
1278.69312	48362.6
1282.22882	50186.3
1285.76211	52060.9
1289.29301	54274.1
1292.82151	57137
1296.34761	60829.2
1299.87133	65099.2
1303.39266	69542.5
1306.9116	73624.2
1310.42815	77043.1
1313.94233	79106.3
1317.45412	79511.2
1320.96354	78832.9
1324.47058	78121.2
1327.97525	77522.1
1331.47754	76991.8
1334.97747	76509.1
1338.47502	76009.7
1341.97022	75321.8
1345.46305	73941.8
1348.95352	71631.2
1352.44163	69376.4
1355.92738	68350.4
1359.41078	69091.6
1362.89183	70097.1
1366.37053	68583
1369.84688	63724.2
1373.32088	57708.9
1376.79254	53556
1380.26186	52219.8
1383.72883	52786.9
1387.19347	53601.1
1390.65578	53926.7
1394.11575	54472.5
1397.57339	55578.5
1401.0287	56979.8
1404.48168	58042.4
1407.93234	57914.6
1411.38068	56269.2
1414.82669	53457.7
1418.27039	50142.5
1421.71177	46937.1
1425.15083	44379.6
1428.58758	43182.6
1432.02203	43260.1
1435.45416	44566
1438.88399	46390.3
1442.31151	48134.3
1445.73673	49529.9
1449.15965	50760.7
1452.58027	51794.4
1455.9986	52428.1
1459.41463	53056.5
1462.82837	53809.1
1466.23982	54673
1469.64898	55296.2
1473.05586	55379.6
1476.46045	54831.5
1479.86276	53902.1
1483.26279	52756.9
1486.66054	51989.1
1490.05602	51614.8
1493.44922	51502.8
1496.84016	51636.8
1500.22882	52215
1503.61521	53253.3
1506.99934	54743.3
1510.38121	56117.1
1513.76081	56755.3
1517.13816	56206.1
1520.51324	55067.4
1523.88607	54086.4
1527.25665	53716.1
1530.62498	53812.2
1533.99105	53952.3
1537.35488	53700.1
1540.71647	52894.1
1544.07581	51392.4
1547.4329	49710
1550.78776	48379
1554.14038	47367.5
1557.49077	46776.4
1560.83892	46502.9
1564.18484	46360.2
1567.52853	46336.9
1570.86999	46640.5
1574.20922	47612.2
1577.54624	48677.3
1580.88103	49573
1584.2136	50718.9
1587.54395	52691.6
1590.87208	55602.3
1594.19801	59103.8
1597.52172	62188
1600.84321	62747.5
1604.16251	59436.1
1607.47959	53926.3
1610.79447	48344.3
1614.10715	43355.6
1617.41763	39266.7
1620.7259	36381.1
1624.03199	34839.3
1627.33587	34714.9
1630.63757	36076.3
1633.93707	39142
1637.23439	44171.5
1640.52951	50842.2
1643.82246	58287.6
1647.11321	63580.8
1650.40179	64110.8
1653.68819	59006.4
1656.97241	50524
1660.25446	41928.7
1663.53433	35322.3
1666.81203	30878
1670.08756	28091.3
1673.36092	26312.3
1676.63211	25141.6
1679.90115	24390.2
1683.16801	23795.4
1686.43272	23355.1
1689.69527	23001.2
1692.95567	22686.2
1696.2139	22557.8
1699.46999	22416.8
1702.72392	22271.8
1705.97571	22151.2
1709.22535	22042.5
1712.47284	21949.4
1715.71819	21883.1
1718.96139	21776.8
1722.20246	21666.6
1725.44139	21543.1
1728.67818	21424.4
1731.91284	21219.2
1735.14537	21072.9
1738.37576	20951.4
1741.60403	20830.4
1744.83017	20773.1
1748.05418	20684.8
1751.27607	20656.2
1754.49584	20578.6
1757.71349	20574.1
1760.92903	20539.7
1764.14244	20509.5
1767.35375	20482.1
1770.56294	20426
1773.77002	20374.7
1776.97499	20350.5
1780.17785	20252.1
1783.37861	20209.5
1786.57727	20174.2
1789.77382	20089.5
1792.96828	20043.9
1796.16064	20026.8
1799.3509	19998.1
1802.53907	19947.8
1805.72514	19842.2
1808.90913	19778.1
1812.09102	19694.9
1815.27083	19738.4
1818.44856	19659.2
1821.6242	19644.3
1824.79776	19596.7
1827.96924	19602.1
1831.13864	19573.7
1834.30597	19579.3
1837.47122	19559.5
1840.6344	19577.3
1843.7955	19556
1846.95454	19560.1
1850.11151	19599.4
1853.26642	19571.4
1856.41926	19602.5
1859.57004	19612.2
1862.71876	19577.1
1865.86542	19512.5
1869.01003	19485
1872.15258	19461.7
1875.29308	19436.5
1878.43152	19454.7
1881.56792	19449.3
1884.70227	19404.5
1887.83457	19405.6
1890.96482	19390.1
1894.09304	19359.6
1897.21921	19360.3
1900.34335	19356.7
1903.46544	19363.3
1906.58551	19297.9
1909.70353	19297.5
1912.81953	19267.3
1915.93349	19174.8
1919.04543	19114.2
1922.15534	19088.2
1925.26322	19026.6
1928.36908	18939.3
1931.47292	18938.1
1934.57473	18815
1937.67453	18776.7
1940.77232	18703.7
1943.86808	18646.8
1946.96184	18576.7
1950.05358	18503.2
1953.14331	18449.6
1956.23103	18366.8
1959.31675	18299.1
1962.40046	18220.5
1965.48217	18207.2
1968.56188	18137.2
1971.63959	18092
1974.7153	18020.4
1977.78901	17967.5
1980.86073	17883.6
1983.93046	17833.5
1986.99819	17763.4
1990.06394	17699.9
1993.1277	17673.8
1996.18947	17615.9
1999.24925	17557.7
2002.30706	17497
2005.36288	17457.4
2008.41672	17399.7
2011.46859	17364.3
2014.51848	17316.8
2017.56639	17267.5
2020.61233	17266.3
2023.6563	17198.9
2026.6983	17159
2029.73833	17116.8
2032.7764	17077.5
2035.8125	17042.3
2038.84664	17008
2041.87881	16995.1
2044.90903	16983.2
2047.93729	16928.5
2050.96359	16914.5
2053.98794	16885.1
2057.01034	16892.4
2060.03078	16897.4
2063.04927	16858.8
2066.06582	16865.9
2069.08042	16837.7
2072.09307	16809.7
2075.10378	16779
2078.11255	16784.1
2081.11938	16763.6
2084.12426	16755.2
2087.12722	16754
2090.12824	16709.2
2093.12732	16681.9
2096.12447	16696.6
2099.11969	16690
2102.11299	16680.1
2105.10435	16692.1
2108.09379	16697.9
2111.08131	16720.2
2114.0669	16706.4
2117.05057	16721
2120.03233	16724.6
2123.01216	16760.3
2125.99008	16746.2
2128.96609	16753.9
2131.94018	16772
2134.91236	16775.1
2137.88263	16789.6
2140.851	16772.9
2143.81746	16797.6
2146.78201	16784
2149.74466	16759
2152.7054	16782.8
2155.66425	16753.4
2158.6212	16755.2
2161.57625	16761
2164.52941	16702.3
2167.48067	16712.8
2170.43004	16709
2173.37752	16742.4
2176.32311	16690.7
2179.26681	16726
2182.20863	16704.1
2185.14856	16733.6
2188.08661	16737.2
2191.02278	16729.5
2193.95707	16736.4
2196.88948	16701
2199.82001	16670.5
2202.74867	16656.2
2205.67545	16657.2
2208.60037	16654.5
2211.52341	16623.5
2214.44458	16615.9
2217.36388	16586.5
2220.28132	16558.5
2223.1969	16524.5
2226.11061	16499
2229.02246	16466.6
2231.93245	16422.8
2234.84058	16402.9
2237.74686	16340.1
2240.65128	16315.8
2243.55385	16264
2246.45456	16237.1
2249.35343	16238.1
2252.25044	16178
2255.14561	16145.1
2258.03893	16108.3
2260.93041	16098
2263.82004	16092.8
2266.70783	16045.8
2269.59378	15943.7
2272.4779	15929.8
2275.36017	15890.3
2278.24061	15876.4
2281.11922	15796.9
2283.996	15822.5
2286.87094	15795.3
2289.74405	15767.5
2292.61534	15733.9
2295.4848	15732.7
2298.35243	15764.1
2301.21824	15780.2
2304.08223	15769.3
2306.94439	15778.5
2309.80474	15829.5
2312.66327	15819.7
2315.51999	15801.2
2318.37489	15801
2321.22797	15760.7
2324.07925	15728
2326.92871	15746.6
2329.77637	15726.6
2332.62222	15713.2
2335.46626	15687.2
2338.3085	15724.7
2341.14893	15710.6
2343.98756	15743.3
2346.8244	15726.5
2349.65943	15755.7
2352.49267	15743
2355.32411	15765.2
2358.15376	15734.1
2360.98161	15731.6
2363.80768	15700.2
2366.63195	15690.9
2369.45444	15632.7
2372.27514	15623.6
2375.09405	15601.8
2377.91118	15569.1
2380.72652	15484.6
2383.54009	15478.7
2386.35187	15494.8
2389.16188	15417.1
2391.97011	15430
2394.77657	15395.6
2397.58125	15371
2400.38416	15356.8
2403.18529	15326.9
2405.98466	15292.2
2408.78226	15282.2
2411.57809	15241.1
2414.37216	15211.3
2417.16446	15200.9
2419.955	15217.2
2422.74378	15188.4
2425.5308	15140.6
2428.31606	15130.8
2431.09956	15106.3
2433.88131	15139.2
2436.6613	15175.1
2439.43954	15150.1
2442.21603	15188
2444.99077	15129.9
2447.76377	15121.4
2450.53501	15122.6
2453.30451	15129
2456.07226	15105.6
2458.83827	15125
2461.60254	15121.6
2464.36507	15113
2467.12586	15094.4
2469.88492	15129.9
2472.64224	15148.1
2475.39782	15186.9
2478.15167	15211
2480.90379	15185.3
2483.65417	15165.6
2486.40283	15214.1
2489.14976	15262.2
2491.89497	15250.9
2494.63845	15254.7
2497.3802	15256.7
2500.12024	15295.3
2502.85855	15264.8
2505.59514	15228.5
2508.33002	15230.6
2511.06318	15202.8
2513.79462	15208.5
2516.52435	15192.9
2519.25237	15216.1
2521.97867	15211.4
2524.70327	15201.6
2527.42616	15186
2530.14734	15193.8
2532.86681	15157.8
2535.58458	15196.3
2538.30065	15179.4
2541.01501	15155.5
2543.72768	15121.5
2546.43864	15155.7
2549.14791	15141.8
2551.85548	15137.8
2554.56136	15116.1
2557.26554	15117.2
2559.96803	15102.8
2562.66883	15085.8
2565.36794	15073
2568.06536	15061.8
2570.7611	15010.9
2573.45514	15070.9
2576.14751	15063.8
2578.83819	15029.6
2581.52719	15054.3
2584.21451	15058.3
2586.90015	15079.6
2589.58411	15099.6
2592.2664	15066
2594.94701	15063.2
2597.62594	15065.4
2600.30321	15069.2
2602.9788	15091
2605.65273	15049.3
2608.32498	15079.5
2610.99557	15081.5
2613.66449	15098.1
2616.33175	15073
2618.99734	15101.3
2621.66128	15106.8
2624.32355	15098.4
2626.98416	15120.8
2629.64311	15106
2632.30041	15170.1
2634.95605	15147.3
2637.61004	15105.3
2640.26238	15102.1
2642.91306	15070.4
2645.56209	15038.2
2648.20948	15105.5
2650.85521	15111.2
2653.4993	15135.3
2656.14175	15102.8
2658.78255	15139
2661.42171	15125.5
2664.05923	15161.5
2666.6951	15159.4
2669.32934	15170.9
2671.96194	15165.1
2674.59291	15197.8
2677.22224	15167.4
2679.84993	15188.9
2682.476	15132.8
2685.10043	15164.1
2687.72324	15112.4
2690.34441	15107.1
2692.96396	15075.2
2695.58188	15078.6
2698.19818	15083.5
2700.81285	15103.4
2703.4259	15128.2
2706.03733	15170.5
2708.64714	15142.9
2711.25533	15111.5
2713.86191	15169.3
2716.46687	15175.9
2719.07021	15204
2721.67194	15219.3
2724.27206	15202.1
2726.87057	15237.7
2729.46747	15232.3
2732.06276	15287.2
2734.65644	15262.8
2737.24852	15238.8
2739.83899	15218.2
2742.42786	15238.7
2745.01513	15244.7
2747.60079	15255
2750.18486	15232.8
2752.76733	15205.9
2755.3482	15221.8
2757.92747	15247.3
2760.50515	15226
2763.08123	15233.6
2765.65573	15255.8
2768.22863	15251.2
2770.79994	15239.4
2773.36967	15262.8
2775.9378	15235.7
2778.50435	15245.6
2781.06932	15242.5
2783.6327	15272.2
2786.1945	15282.9
2788.75471	15302.4
2791.31335	15284.9
2793.87041	15229.3
2796.42589	15228.7
2798.97979	15233.3
2801.53212	15182.9
2804.08288	15158.7
2806.63206	15107
2809.17967	15096
2811.72571	15064.5
2814.27018	15035.3
2816.81308	15036.9
2819.35442	14989.5
2821.89419	14957.6
2824.43239	14979
2826.96904	14993.9
2829.50412	14978.6
2832.03763	14946.4
2834.56959	14906.6
2837.1	14899.3
2839.62884	14894.7
2842.15613	14886.5
2844.68186	14965
2847.20604	14965.5
2849.72867	14987.6
2852.24974	14993.5
2854.76927	14971.9
2857.28724	14955.6
2859.80367	14963.1
2862.31855	14945.2
2864.83189	14910.9
2867.34368	14897.9
2869.85393	14919.9
2872.36264	14884.8
2874.8698	14851.2
2877.37543	14824.8
2879.87952	14838.9
2882.38207	14851.7
2884.88308	14850.2
2887.38256	14858.7
2889.88051	14873.7
2892.37692	14883.6
2894.8718	14881.9
2897.36515	14907.9
2899.85698	14923.6
2902.34727	14935.8
2904.83604	14966
2907.32328	15046.8
2909.809	15018.5
2912.29319	15066.7
2914.77587	15045.7
2917.25702	15054
2919.73665	15013.5
2922.21476	14995.6
2924.69136	15030.5
2927.16644	15016.1
2929.64	14980.9
2932.11205	14947.6
2934.58258	14894.3
2937.05161	14908.8
2939.51912	14905.2
2941.98513	14875.7
2944.44962	14864.4
2946.91261	14804.2
2949.37409	14792.8
2951.83407	14785.5
2954.29254	14762.8
2956.74951	14747.8
2959.20498	14731.8
2961.65895	14700.6
2964.11142	14696.7
2966.56239	14680.4
2969.01186	14685.1
2971.45984	14630.9
2973.90632	14626.6
2976.35131	14577.1
2978.7948	14567.4
2981.23681	14513.4
2983.67732	14496.9
2986.11635	14453.4
2988.55388	14425
2990.98993	14400.7
2993.4245	14354.3
2995.85758	14284.3
2998.28917	14221.1
3000.71928	14226.7
3003.14791	14204.6
3005.57506	14173
3008.00073	14113.9
3010.42493	14034.1
3012.84764	14066
3015.26888	14069.7
3017.68865	14000.6
3020.10694	14008.4
3022.52376	13982.9
3024.9391	13980.6
3027.35298	13947.8
3029.76539	13939.4
3032.17632	13920.1
3034.5858	13881.5
3036.9938	13908.2
3039.40034	13920.4
3041.80542	13902.1
3044.20903	13919.9
3046.61118	13902.4
3049.01187	13860.5
3051.4111	13865.9
3053.80888	13817.1
3056.20519	13784.7
3058.60005	13746.3
3060.99345	13737.1
3063.3854	13705.3
3065.7759	13634.7
3068.16494	13564.2
3070.55254	13514.7
3072.93868	13515.4
3075.32338	13458.6
3077.70662	13407.7
3080.08842	13376.6
3082.46878	13347.5
3084.84769	13335.5
3087.22515	13353.8
3089.60118	13314.2
3091.97576	13308.5
3094.3489	13299.4
3096.72061	13300.5
3099.09087	13276.5
3101.4597	13285
3103.82709	13274.4
3106.19305	13259
3108.55757	13262
3110.92066	13197.3
3113.28232	13200.2
3115.64255	13190.1
3118.00134	13168.4
3120.35871	13127.9
3122.71466	13106.8
3125.06917	13033.5
3127.42226	13011.3
3129.77393	13016
3132.12417	12951.9
3134.47299	12963.6
3136.82039	12965.2
3139.16636	12949.2
3141.51092	12954
3143.85406	12910
3146.19579	12917.5
3148.53609	12929.8
3150.87499	12935.7
3153.21246	12925.6
3155.54853	12958.6
3157.88318	12953.8
3160.21642	12968
3162.54826	12944.6
3164.87868	12946.3
3167.2077	12952.3
3169.5353	12962.9
3171.86151	12969.1
3174.18631	12973.8
3176.5097	12965.3
3178.83169	12940.7
3181.15228	12921.6
3183.47147	12911.2
3185.78926	12884.4
3188.10565	12889.1
3190.42065	12857.8
3192.73424	12840.1
3195.04645	12843.2
3197.35725	12818.9
3199.66667	12808.6
3201.97469	12816.2
3204.28132	12820.9
3206.58656	12849.2
3208.8904	12794.8
3211.19287	12828.3
3213.49394	12820.8
3215.79363	12837.5
3218.09193	12825
3220.38884	12845.6
3222.68438	12818.6
3224.97853	12791
3227.2713	12803.3
3229.56269	12774.9
3231.8527	12778.8
3234.14133	12780.8
3236.42858	12735.9
3238.71446	12746.6
3240.99896	12692.8
3243.28209	12692.4
3245.56384	12665.1
3247.84423	12661
3250.12324	12626.2
3252.40088	12601.1
3254.67715	12610.2
3256.95205	12592.4
3259.22558	12615.1
3261.49775	12550
3263.76855	12571
3266.03799	12515.9
3268.30606	12512.8
3270.57277	12492.6
3272.83812	12438.6
3275.10211	12431.5
3277.36474	12426.3
3279.62601	12430.9
3281.88593	12404.6
3284.14448	12420.4
3286.40168	12428.6
3288.65753	12434.7
3290.91202	12430.1
3293.16516	12374.9
3295.41695	12361.2
3297.66738	12274
3299.91647	12211.8
3302.16421	12155
3304.4106	12075.7
3306.65564	12009.4
3308.89933	11930.3
3311.14169	11826.5
3313.38269	11737.1
3315.62236	11645
3317.86068	11556.4
3320.09766	11448.3
3322.3333	11389.8
3324.5676	11338.7
3326.80056	11172.5
3329.03219	11086.1
3331.26248	3.8
3333.49143	-1.3
3335.71905	0.1
