Data from AgNPs_FTO_APTES_UA_5uM_CRN_0uM_R6G_10uM_NaF_0.1M_Addition_RamanShift__8__09-48-06-529.txt Node

Date: Mon Feb 07 09:48:06 GMT 2022
User: TCL
Spectrometer: QEP01345
Trigger mode: 4
Integration Time (sec): 7.000000E0
Scans to average: 10
Electric dark correction enabled: true
Nonlinearity correction enabled: false
Boxcar width: 0
XAxis mode: Raman Shifts
Number of Pixels in Spectrum: 1044
>>>>>Begin Spectral Data<<<<<
46.04893	-0.375
50.45542	-1.075
54.85868	-0.675
59.25871	1.125
63.6555	80.525
68.04907	78.525
72.43941	85.125
76.82654	88.925
81.21044	89.125
85.59113	97.425
89.96862	100.725
94.34289	102.725
98.71396	104.325
103.08183	109.525
107.4465	110.325
111.80798	113.525
116.16626	117.325
120.52136	125.925
124.87327	132.025
129.222	143.025
133.56755	151.925
137.90993	167.725
142.24913	183.025
146.58517	216.525
150.91804	256.025
155.24774	312.725
159.57429	392.325
163.89768	512.325
168.21792	692.625
172.53501	940.025
176.84895	1313.825
181.15975	1861.625
185.46741	2615.125
189.77193	3597.625
194.07331	4791.725
198.37157	6180.925
202.6667	7622.425
206.9587	9080.525
211.24758	10508.125
215.53334	11915.825
219.81599	13469.525
224.09553	15198.825
228.37195	17103.725
232.64527	19169.425
236.91549	21363.025
241.18261	23475.725
245.44663	25445.625
249.70755	27217.225
253.96539	28772.225
258.22014	30118.425
262.4718	31125.325
266.72039	31808.825
270.96589	32175.525
275.20832	32212.525
279.44768	32047.925
283.68397	31835.725
287.91719	31692.025
292.14735	31604.025
296.37445	31575.725
300.59849	31636.225
304.81948	31719.925
309.03742	31853.625
313.25231	31714.925
317.46415	30998.025
321.67296	29844.025
325.87872	28717.125
330.08145	27941.625
334.28114	27702.725
338.47781	27818.025
342.67145	28067.025
346.86207	28405.025
351.04966	28870.325
355.23424	29422.725
359.4158	29980.625
363.59435	30384.325
367.76989	30572.025
371.94243	30617.725
376.11196	30495.725
380.27849	30282.925
384.44203	30068.325
388.60257	30168.725
392.76012	30576.325
396.91468	31233.625
401.06626	32023.625
405.21485	32480.725
409.36047	32256.825
413.50311	31659.025
417.64277	31225.225
421.77947	31280.425
425.9132	31410.025
430.04396	31458.125
434.17176	31379.925
438.2966	31114.025
442.41849	31140.825
446.53742	31611.825
450.6534	32324.425
454.76644	32950.725
458.87653	33343.325
462.98368	33465.425
467.08789	33341.225
471.18916	33075.225
475.2875	32863.025
479.38291	32986.025
483.4754	33376.025
487.56496	33540.425
491.6516	33236.525
495.73531	32711.825
499.81612	32228.625
503.89401	32184.325
507.96899	32118.125
512.04106	31839.625
516.11023	31303.125
520.1765	30463.625
524.23987	29643.425
528.30034	29037.525
532.35792	28516.025
536.41261	28079.225
540.46441	27756.125
544.51333	27781.725
548.55936	28298.125
552.60252	29292.325
556.64279	30345.425
560.6802	30942.225
564.71473	31453.325
568.7464	32532.125
572.7752	34349.825
576.80114	36448.925
580.82422	38549.125
584.84444	40520.325
588.86181	42648.425
592.87633	43884.325
596.888	42611.025
600.89682	39589.925
604.9028	38394.625
608.90594	40642.825
612.90624	43296.025
616.90371	40099.625
620.89834	32613.225
624.89015	29085.725
628.87913	28951.125
632.86528	29657.325
636.84862	30008.125
640.82913	29299.225
644.80683	28072.325
648.78172	27301.925
652.75379	27177.225
656.72306	27551.825
660.68952	27975.125
664.65319	27742.225
668.61405	27157.425
672.57211	26976.325
676.52738	27085.925
680.47986	26950.225
684.42955	26678.425
688.37646	26441.625
692.32058	26609.725
696.26192	27166.525
700.20048	27674.525
704.13626	28157.825
708.06928	28534.425
711.99952	28630.725
715.927	28567.325
719.85171	28497.325
723.77365	28181.825
727.69284	27470.725
731.60928	26724.025
735.52295	26371.825
739.43388	26237.225
743.34206	26308.625
747.24749	26596.325
751.15017	27134.825
755.05012	28000.625
758.94733	29265.825
762.8418	31338.525
766.73354	34369.425
770.62254	37000.925
774.50882	36798.525
778.39237	34111.325
782.27321	31050.525
786.15132	28780.625
790.02671	27269.425
793.89938	26476.325
797.76935	26016.225
801.6366	25906.525
805.50115	25808.125
809.36299	25669.725
813.22213	25530.625
817.07857	25479.425
820.93231	25388.025
824.78336	25162.325
828.63172	24869.325
832.47738	24660.625
836.32036	24571.825
840.16066	24590.625
843.99827	24573.425
847.8332	24586.125
851.66546	24668.225
855.49504	24718.125
859.32195	24765.625
863.1462	24635.125
866.96777	24492.625
870.78668	24483.725
874.60293	24397.725
878.41652	24329.425
882.22745	24343.125
886.03573	24438.825
889.84136	24492.825
893.64433	24447.925
897.44466	24440.025
901.24235	24480.225
905.0374	24414.925
908.8298	24343.325
912.61957	24327.225
916.40671	24708.225
920.19121	25410.125
923.97308	26083.325
927.75233	26277.925
931.52895	25780.125
935.30295	24890.725
939.07433	23946.525
942.84309	23278.025
946.60924	22877.925
950.37278	22762.125
954.13371	22831.925
957.89203	22912.625
961.64774	22946.025
965.40086	22992.325
969.15137	22995.825
972.89929	22861.525
976.64461	22580.225
980.38733	22365.825
984.12747	22276.825
987.86502	22217.425
991.59999	22298.825
995.33237	22385.325
999.06217	22642.825
1002.78939	22954.125
1006.51404	23379.425
1010.23611	23927.725
1013.95561	24353.625
1017.67255	24472.125
1021.38692	24271.125
1025.09872	23818.125
1028.80796	23346.725
1032.51465	23212.825
1036.21877	23244.725
1039.92035	23421.625
1043.61937	23654.025
1047.31584	23862.925
1051.00976	24051.425
1054.70114	24317.025
1058.38998	24571.925
1062.07627	24978.725
1065.76003	25526.225
1069.44126	26341.125
1073.11995	27326.625
1076.79611	28280.325
1080.46974	28602.725
1084.14085	28700.525
1087.80943	29098.525
1091.47549	29660.925
1095.13903	30055.925
1098.80005	29623.725
1102.45857	28167.525
1106.11456	26545.625
1109.76805	25471.725
1113.41903	24978.325
1117.06751	24940.325
1120.71348	25183.825
1124.35696	25576.625
1127.99793	26100.825
1131.63641	26591.425
1135.2724	26756.125
1138.90589	26818.625
1142.5369	26933.225
1146.16542	27224.325
1149.79145	27628.225
1153.415	28173.425
1157.03607	28891.625
1160.65467	30167.025
1164.27079	32112.125
1167.88443	34490.325
1171.49561	36959.025
1175.10432	39734.625
1178.71056	43273.725
1182.31434	46467.225
1185.91565	48131.225
1189.51451	48123.225
1193.11091	46922.625
1196.70485	44824.825
1200.29634	42342.325
1203.88538	40852.025
1207.47197	40386.325
1211.05612	40406.325
1214.63782	39882.725
1218.21708	38378.625
1221.79391	36404.625
1225.36829	34622.025
1228.94024	33562.825
1232.50976	32912.925
1236.07685	32410.825
1239.6415	32110.225
1243.20374	32038.425
1246.76355	32227.725
1250.32093	32737.025
1253.8759	33663.725
1257.42845	35052.425
1260.97859	36708.625
1264.52631	38428.025
1268.07163	39986.425
1271.61453	41580.025
1275.15503	43253.425
1278.69312	45240.725
1282.22882	47571.925
1285.76211	50374.525
1289.29301	53408.825
1292.82151	56629.325
1296.34761	60188.525
1299.87133	64294.525
1303.39266	68118.925
1306.9116	70915.625
1310.42815	72463.825
1313.94233	72639.225
1317.45412	72014.425
1320.96354	71768.125
1324.47058	72361.025
1327.97525	73318.925
1331.47754	73740.925
1334.97747	73011.925
1338.47502	71310.825
1341.97022	69345.725
1345.46305	67329.925
1348.95352	65238.525
1352.44163	63362.525
1355.92738	62623.025
1359.41078	64039.525
1362.89183	66672.625
1366.37053	67805.625
1369.84688	64804.525
1373.32088	58515.325
1376.79254	52579.325
1380.26186	49448.025
1383.72883	48621.825
1387.19347	48726.425
1390.65578	48555.725
1394.11575	48357.225
1397.57339	48914.425
1401.0287	50006.825
1404.48168	50757.325
1407.93234	50014.825
1411.38068	47742.825
1414.82669	44607.925
1418.27039	41434.225
1421.71177	38702.525
1425.15083	36741.025
1428.58758	35812.125
1432.02203	36115.125
1435.45416	37404.125
1438.88399	38967.825
1442.31151	40225.425
1445.73673	41203.925
1449.15965	42060.425
1452.58027	42657.225
1455.9986	42906.025
1459.41463	43278.925
1462.82837	44045.925
1466.23982	45075.525
1469.64898	45934.125
1473.05586	46260.625
1476.46045	46184.025
1479.86276	45848.825
1483.26279	45649.425
1486.66054	45943.725
1490.05602	46741.525
1493.44922	48012.925
1496.84016	49496.025
1500.22882	51403.525
1503.61521	53559.325
1506.99934	55711.925
1510.38121	57614.425
1513.76081	58509.625
1517.13816	58147.325
1520.51324	57224.125
1523.88607	56459.025
1527.25665	55933.825
1530.62498	55408.525
1533.99105	54235.725
1537.35488	52493.325
1540.71647	50110.325
1544.07581	47479.225
1547.4329	44938.525
1550.78776	43133.625
1554.14038	41941.325
1557.49077	41543.725
1560.83892	41508.725
1564.18484	41544.025
1567.52853	41592.625
1570.86999	41759.425
1574.20922	42577.225
1577.54624	43469.625
1580.88103	43953.225
1584.2136	44671.325
1587.54395	46640.725
1590.87208	49635.125
1594.19801	52746.725
1597.52172	54685.625
1600.84321	53761.725
1604.16251	49523.225
1607.47959	44252.525
1610.79447	39639.925
1614.10715	35599.225
1617.41763	32289.425
1620.7259	29960.925
1624.03199	28839.925
1627.33587	28834.725
1630.63757	29933.125
1633.93707	32658.325
1637.23439	37375.025
1640.52951	44776.525
1643.82246	54117.225
1647.11321	62714.125
1650.40179	66037.325
1653.68819	61962.125
1656.97241	52691.125
1660.25446	42429.425
1663.53433	34362.225
1666.81203	28898.525
1670.08756	25602.325
1673.36092	23587.025
1676.63211	22344.625
1679.90115	21456.725
1683.16801	20877.525
1686.43272	20381.925
1689.69527	20078.925
1692.95567	19785.725
1696.2139	19596.325
1699.46999	19453.625
1702.72392	19328.625
1705.97571	19194.825
1709.22535	19076.525
1712.47284	18970.125
1715.71819	18869.925
1718.96139	18765.625
1722.20246	18643.225
1725.44139	18483.125
1728.67818	18308.925
1731.91284	18140.725
1735.14537	17998.525
1738.37576	17872.025
1741.60403	17725.325
1744.83017	17667.525
1748.05418	17594.725
1751.27607	17499.225
1754.49584	17468.425
1757.71349	17392.825
1760.92903	17343.925
1764.14244	17321.625
1767.35375	17313.325
1770.56294	17240.025
1773.77002	17198.625
1776.97499	17139.225
1780.17785	17043.925
1783.37861	17053.125
1786.57727	16984.725
1789.77382	16901.825
1792.96828	16869.425
1796.16064	16781.825
1799.3509	16758.225
1802.53907	16697.025
1805.72514	16605.225
1808.90913	16536.925
1812.09102	16481.325
1815.27083	16434.625
1818.44856	16418.425
1821.6242	16405.925
1824.79776	16347.725
1827.96924	16272.125
1831.13864	16269.925
1834.30597	16284.425
1837.47122	16246.425
1840.6344	16253.225
1843.7955	16232.725
1846.95454	16239.125
1850.11151	16211.925
1853.26642	16187.825
1856.41926	16206.925
1859.57004	16129.725
1862.71876	16112.725
1865.86542	16069.525
1869.01003	16028.925
1872.15258	15990.025
1875.29308	15916.325
1878.43152	15849.225
1881.56792	15825.625
1884.70227	15804.525
1887.83457	15802.425
1890.96482	15793.725
1894.09304	15730.025
1897.21921	15706.025
1900.34335	15655.325
1903.46544	15620.525
1906.58551	15613.625
1909.70353	15560.825
1912.81953	15505.525
1915.93349	15455.225
1919.04543	15416.325
1922.15534	15346.325
1925.26322	15306.125
1928.36908	15280.825
1931.47292	15239.325
1934.57473	15162.625
1937.67453	15096.625
1940.77232	15023.725
1943.86808	14966.725
1946.96184	14926.525
1950.05358	14871.025
1953.14331	14827.725
1956.23103	14805.125
1959.31675	14732.825
1962.40046	14698.525
1965.48217	14649.025
1968.56188	14603.925
1971.63959	14525.225
1974.7153	14458.625
1977.78901	14426.725
1980.86073	14360.225
1983.93046	14277.925
1986.99819	14242.425
1990.06394	14177.825
1993.1277	14144.325
1996.18947	14076.125
1999.24925	14025.825
2002.30706	13951.325
2005.36288	13906.325
2008.41672	13843.625
2011.46859	13785.025
2014.51848	13759.225
2017.56639	13716.325
2020.61233	13681.625
2023.6563	13651.625
2026.6983	13585.725
2029.73833	13563.225
2032.7764	13516.925
2035.8125	13490.725
2038.84664	13439.825
2041.87881	13375.825
2044.90903	13348.825
2047.93729	13322.425
2050.96359	13318.425
2053.98794	13282.925
2057.01034	13311.125
2060.03078	13284.925
2063.04927	13244.325
2066.06582	13250.625
2069.08042	13225.825
2072.09307	13196.725
2075.10378	13173.825
2078.11255	13162.625
2081.11938	13179.625
2084.12426	13124.425
2087.12722	13138.225
2090.12824	13112.725
2093.12732	13133.825
2096.12447	13116.025
2099.11969	13074.625
2102.11299	13095.225
2105.10435	13077.325
2108.09379	13065.925
2111.08131	13079.525
2114.0669	13067.925
2117.05057	13103.725
2120.03233	13098.325
2123.01216	13119.325
2125.99008	13093.025
2128.96609	13103.825
2131.94018	13110.825
2134.91236	13093.625
2137.88263	13074.625
2140.851	13053.825
2143.81746	13038.425
2146.78201	13031.225
2149.74466	13031.425
2152.7054	12987.625
2155.66425	12972.725
2158.6212	12977.825
2161.57625	12917.525
2164.52941	12929.925
2167.48067	12902.625
2170.43004	12882.325
2173.37752	12860.125
2176.32311	12845.825
2179.26681	12870.825
2182.20863	12864.025
2185.14856	12862.325
2188.08661	12827.225
2191.02278	12807.325
2193.95707	12791.925
2196.88948	12761.225
2199.82001	12715.125
2202.74867	12700.425
2205.67545	12684.725
2208.60037	12659.225
2211.52341	12635.825
2214.44458	12618.625
2217.36388	12588.925
2220.28132	12543.725
2223.1969	12525.125
2226.11061	12516.625
2229.02246	12490.125
2231.93245	12488.825
2234.84058	12467.025
2237.74686	12440.125
2240.65128	12424.925
2243.55385	12352.825
2246.45456	12342.525
2249.35343	12291.925
2252.25044	12284.825
2255.14561	12229.625
2258.03893	12186.825
2260.93041	12159.325
2263.82004	12136.025
2266.70783	12089.825
2269.59378	12045.825
2272.4779	12031.625
2275.36017	11942.725
2278.24061	11945.125
2281.11922	11898.925
2283.996	11898.025
2286.87094	11870.525
2289.74405	11858.925
2292.61534	11822.925
2295.4848	11770.625
2298.35243	11774.525
2301.21824	11748.225
2304.08223	11741.425
2306.94439	11762.525
2309.80474	11741.425
2312.66327	11705.625
2315.51999	11678.725
2318.37489	11660.825
2321.22797	11662.325
2324.07925	11637.225
2326.92871	11584.325
2329.77637	11618.925
2332.62222	11601.825
2335.46626	11557.925
2338.3085	11559.125
2341.14893	11556.525
2343.98756	11581.025
2346.8244	11553.825
2349.65943	11567.025
2352.49267	11588.325
2355.32411	11593.225
2358.15376	11580.925
2360.98161	11609.825
2363.80768	11586.325
2366.63195	11568.625
2369.45444	11531.425
2372.27514	11544.825
2375.09405	11520.325
2377.91118	11493.925
2380.72652	11453.725
2383.54009	11404.225
2386.35187	11367.625
2389.16188	11339.225
2391.97011	11282.425
2394.77657	11231.625
2397.58125	11206.725
2400.38416	11209.025
2403.18529	11167.725
2405.98466	11149.225
2408.78226	11122.625
2411.57809	11131.125
2414.37216	11098.025
2417.16446	11108.725
2419.955	11103.425
2422.74378	11085.425
2425.5308	11077.725
2428.31606	11066.025
2431.09956	11063.325
2433.88131	11051.525
2436.6613	11081.925
2439.43954	11075.725
2442.21603	11072.425
2444.99077	11055.025
2447.76377	11065.825
2450.53501	11056.025
2453.30451	11028.125
2456.07226	11008.525
2458.83827	11007.225
2461.60254	11025.525
2464.36507	11011.725
2467.12586	10979.625
2469.88492	10972.625
2472.64224	10975.625
2475.39782	10988.625
2478.15167	10972.225
2480.90379	10955.925
2483.65417	10963.425
2486.40283	10961.925
2489.14976	10950.925
2491.89497	10950.125
2494.63845	10977.825
2497.3802	10947.325
2500.12024	10939.725
2502.85855	10935.025
2505.59514	10906.725
2508.33002	10902.225
2511.06318	10878.825
2513.79462	10851.925
2516.52435	10858.825
2519.25237	10853.125
2521.97867	10816.925
2524.70327	10826.025
2527.42616	10770.025
2530.14734	10784.725
2532.86681	10750.825
2535.58458	10747.325
2538.30065	10753.225
2541.01501	10740.925
2543.72768	10731.125
2546.43864	10736.825
2549.14791	10711.625
2551.85548	10681.625
2554.56136	10662.825
2557.26554	10658.425
2559.96803	10644.725
2562.66883	10633.625
2565.36794	10652.425
2568.06536	10600.125
2570.7611	10616.825
2573.45514	10590.625
2576.14751	10583.625
2578.83819	10559.325
2581.52719	10560.325
2584.21451	10544.825
2586.90015	10535.825
2589.58411	10527.025
2592.2664	10542.825
2594.94701	10509.325
2597.62594	10523.125
2600.30321	10510.125
2602.9788	10494.125
2605.65273	10493.625
2608.32498	10473.525
2610.99557	10535.725
2613.66449	10493.025
2616.33175	10494.325
2618.99734	10494.025
2621.66128	10463.525
2624.32355	10429.825
2626.98416	10433.925
2629.64311	10400.725
2632.30041	10413.625
2634.95605	10402.825
2637.61004	10405.625
2640.26238	10384.625
2642.91306	10408.725
2645.56209	10404.825
2648.20948	10392.325
2650.85521	10379.225
2653.4993	10409.225
2656.14175	10400.825
2658.78255	10404.025
2661.42171	10407.625
2664.05923	10394.625
2666.6951	10379.625
2669.32934	10426.125
2671.96194	10407.025
2674.59291	10411.825
2677.22224	10425.225
2679.84993	10427.525
2682.476	10404.925
2685.10043	10414.225
2687.72324	10365.825
2690.34441	10405.325
2692.96396	10390.025
2695.58188	10372.825
2698.19818	10369.325
2700.81285	10369.325
2703.4259	10375.725
2706.03733	10370.625
2708.64714	10378.025
2711.25533	10387.125
2713.86191	10358.025
2716.46687	10367.725
2719.07021	10374.525
2721.67194	10391.925
2724.27206	10382.125
2726.87057	10401.025
2729.46747	10390.425
2732.06276	10407.225
2734.65644	10377.625
2737.24852	10403.825
2739.83899	10400.225
2742.42786	10413.425
2745.01513	10380.625
2747.60079	10367.225
2750.18486	10361.025
2752.76733	10333.325
2755.3482	10294.825
2757.92747	10307.325
2760.50515	10284.425
2763.08123	10301.725
2765.65573	10280.325
2768.22863	10271.425
2770.79994	10264.025
2773.36967	10262.025
2775.9378	10264.025
2778.50435	10278.825
2781.06932	10291.125
2783.6327	10255.525
2786.1945	10262.325
2788.75471	10284.525
2791.31335	10246.625
2793.87041	10271.725
2796.42589	10242.225
2798.97979	10213.525
2801.53212	10217.925
2804.08288	10212.525
2806.63206	10184.225
2809.17967	10180.325
2811.72571	10164.225
2814.27018	10156.025
2816.81308	10127.025
2819.35442	10111.825
2821.89419	10099.425
2824.43239	10074.725
2826.96904	10065.925
2829.50412	10073.925
2832.03763	10022.525
2834.56959	10042.625
2837.1	10043.125
2839.62884	10049.725
2842.15613	10052.725
2844.68186	10064.325
2847.20604	10094.425
2849.72867	10083.725
2852.24974	10098.725
2854.76927	10063.925
2857.28724	10051.025
2859.80367	10073.125
2862.31855	10039.525
2864.83189	10060.125
2867.34368	10013.725
2869.85393	10010.325
2872.36264	9979.925
2874.8698	9977.125
2877.37543	9976.725
2879.87952	9974.025
2882.38207	9970.025
2884.88308	9961.125
2887.38256	9960.225
2889.88051	9984.925
2892.37692	9990.225
2894.8718	10012.725
2897.36515	10011.425
2899.85698	10017.225
2902.34727	10044.525
2904.83604	10026.225
2907.32328	10054.125
2909.809	10021.625
2912.29319	10025.925
2914.77587	10057.425
2917.25702	10058.325
2919.73665	10005.525
2922.21476	10008.025
2924.69136	10006.025
2927.16644	10005.025
2929.64	9994.525
2932.11205	9993.425
2934.58258	9964.325
2937.05161	9918.525
2939.51912	9955.325
2941.98513	9929.325
2944.44962	9850.925
2946.91261	9832.325
2949.37409	9837.925
2951.83407	9822.725
2954.29254	9790.925
2956.74951	9747.525
2959.20498	9754.925
2961.65895	9700.725
2964.11142	9710.925
2966.56239	9687.225
2969.01186	9657.525
2971.45984	9610.025
2973.90632	9630.225
2976.35131	9605.725
2978.7948	9596.725
2981.23681	9570.825
2983.67732	9536.525
2986.11635	9481.225
2988.55388	9469.125
2990.98993	9421.325
2993.4245	9399.725
2995.85758	9360.025
2998.28917	9316.725
3000.71928	9300.325
3003.14791	9262.425
3005.57506	9254.825
3008.00073	9206.125
3010.42493	9191.725
3012.84764	9179.225
3015.26888	9162.525
3017.68865	9121.725
3020.10694	9094.125
3022.52376	9063.725
3024.9391	9030.425
3027.35298	9026.825
3029.76539	9028.725
3032.17632	9040.225
3034.5858	9023.125
3036.9938	9025.325
3039.40034	9013.525
3041.80542	9006.725
3044.20903	8980.325
3046.61118	8986.525
3049.01187	8935.725
3051.4111	8935.325
3053.80888	8931.425
3056.20519	8915.725
3058.60005	8841.325
3060.99345	8833.225
3063.3854	8775.125
3065.7759	8746.025
3068.16494	8735.325
3070.55254	8681.225
3072.93868	8630.325
3075.32338	8613.725
3077.70662	8561.025
3080.08842	8553.525
3082.46878	8536.525
3084.84769	8524.125
3087.22515	8506.725
3089.60118	8497.825
3091.97576	8514.625
3094.3489	8496.125
3096.72061	8482.725
3099.09087	8476.325
3101.4597	8453.325
3103.82709	8458.925
3106.19305	8440.825
3108.55757	8449.925
3110.92066	8410.225
3113.28232	8394.825
3115.64255	8363.325
3118.00134	8323.025
3120.35871	8329.425
3122.71466	8281.325
3125.06917	8292.225
3127.42226	8272.025
3129.77393	8291.125
3132.12417	8238.825
3134.47299	8234.825
3136.82039	8217.625
3139.16636	8214.125
