Data from AgNPs_FTO_APTES_UA_5uM_CRN_0uM_R6G_10uM_NaF_0.1M_Addition_RamanShift__22__10-04-26-549.txt Node

Date: Mon Feb 07 10:04:26 GMT 2022
User: TCL
Spectrometer: QEP01345
Trigger mode: 4
Integration Time (sec): 7.000000E0
Scans to average: 10
Electric dark correction enabled: true
Nonlinearity correction enabled: false
Boxcar width: 0
XAxis mode: Raman Shifts
Number of Pixels in Spectrum: 1044
>>>>>Begin Spectral Data<<<<<
46.04893	-0.325
50.45542	-1.025
54.85868	-1.725
59.25871	-0.125
63.6555	88.275
68.04907	89.475
72.43941	93.375
76.82654	97.875
81.21044	100.575
85.59113	103.475
89.96862	109.175
94.34289	107.275
98.71396	113.275
103.08183	123.275
107.4465	120.275
111.80798	123.075
116.16626	126.775
120.52136	136.575
124.87327	145.675
129.222	152.675
133.56755	164.675
137.90993	181.675
142.24913	197.275
146.58517	232.875
150.91804	270.475
155.24774	331.875
159.57429	419.175
163.89768	553.275
168.21792	738.475
172.53501	1020.175
176.84895	1421.375
181.15975	2013.275
185.46741	2806.075
189.77193	3861.175
194.07331	5169.675
198.37157	6635.475
202.6667	8159.275
206.9587	9697.475
211.24758	11210.875
215.53334	12781.975
219.81599	14505.575
224.09553	16453.175
228.37195	18663.375
232.64527	21014.175
236.91549	23472.975
241.18261	25747.375
245.44663	27720.575
249.70755	29500.075
253.96539	31060.775
258.22014	32483.575
262.4718	33717.675
266.72039	34578.875
270.96589	35151.775
275.20832	35472.075
279.44768	35428.575
283.68397	35428.975
287.91719	35520.875
292.14735	35644.275
296.37445	35849.475
300.59849	36063.675
304.81948	36418.575
309.03742	36683.375
313.25231	36170.575
317.46415	34556.075
321.67296	32162.375
325.87872	30139.175
330.08145	29044.275
334.28114	28795.675
338.47781	29060.775
342.67145	29586.175
346.86207	30324.375
351.04966	31484.875
355.23424	32723.575
359.4158	33719.075
363.59435	34154.375
367.76989	34248.375
371.94243	34209.775
376.11196	34110.875
380.27849	33964.875
384.44203	33726.075
388.60257	33568.675
392.76012	33741.275
396.91468	34232.375
401.06626	35140.575
405.21485	35914.275
409.36047	35610.475
413.50311	34538.775
417.64277	33639.975
421.77947	33275.375
425.9132	33358.975
430.04396	33460.875
434.17176	33366.875
438.2966	33216.375
442.41849	33367.775
446.53742	33965.075
450.6534	34876.375
454.76644	35636.775
458.87653	35904.675
462.98368	35935.075
467.08789	35624.475
471.18916	35232.975
475.2875	34856.475
479.38291	34697.475
483.4754	34791.175
487.56496	34638.675
491.6516	34385.775
495.73531	34173.075
499.81612	34208.875
503.89401	34532.075
507.96899	34602.375
512.04106	34301.175
516.11023	33673.275
520.1765	32890.375
524.23987	32037.475
528.30034	31233.975
532.35792	30528.175
536.41261	29866.275
540.46441	29301.575
544.51333	29277.475
548.55936	29898.375
552.60252	31131.875
556.64279	32377.875
560.6802	32927.375
564.71473	33420.775
568.7464	34860.175
572.7752	36669.275
576.80114	37381.775
580.82422	37722.675
584.84444	38004.075
588.86181	37431.775
592.87633	36386.375
596.888	35881.775
600.89682	36482.575
604.9028	39559.975
608.90594	47195.475
612.90624	55920.875
616.90371	52513.775
620.89834	38711.975
624.89015	32015.775
628.87913	30890.775
632.86528	31079.675
636.84862	31260.575
640.82913	30688.375
644.80683	29168.875
648.78172	27999.175
652.75379	27693.875
656.72306	28445.975
660.68952	29684.175
664.65319	29794.775
668.61405	29044.475
672.57211	28610.675
676.52738	28462.775
680.47986	28286.675
684.42955	27937.775
688.37646	27614.375
692.32058	27674.375
696.26192	27956.575
700.20048	28448.375
704.13626	29013.275
708.06928	29294.975
711.99952	29056.675
715.927	28771.775
719.85171	28518.575
723.77365	28287.675
727.69284	27829.075
731.60928	27286.475
735.52295	27108.375
739.43388	27118.375
743.34206	27302.575
747.24749	27673.575
751.15017	28194.575
755.05012	29050.475
758.94733	30676.375
762.8418	33971.875
766.73354	39523.175
770.62254	44983.775
774.50882	46086.375
778.39237	42361.675
782.27321	36855.375
786.15132	32305.575
790.02671	29553.675
793.89938	28125.675
797.76935	27421.375
801.6366	27168.875
805.50115	27028.575
809.36299	26760.275
813.22213	26462.675
817.07857	26354.175
820.93231	26242.075
824.78336	26197.275
828.63172	26242.475
832.47738	26299.575
836.32036	26279.475
840.16066	26278.675
843.99827	26388.675
847.8332	26324.975
851.66546	26200.975
855.49504	26127.075
859.32195	26055.275
863.1462	25835.475
866.96777	25587.775
870.78668	25362.375
874.60293	25277.975
878.41652	25200.475
882.22745	25215.575
886.03573	25355.975
889.84136	25352.675
893.64433	25203.575
897.44466	25152.175
901.24235	25042.175
905.0374	24889.875
908.8298	24791.475
912.61957	24825.875
916.40671	25243.975
920.19121	26025.075
923.97308	26854.175
927.75233	27244.775
931.52895	27005.975
935.30295	26255.175
939.07433	25194.875
942.84309	24323.375
946.60924	23951.675
950.37278	23789.075
954.13371	23616.875
957.89203	23403.875
961.64774	23279.075
965.40086	23213.875
969.15137	23125.475
972.89929	23014.475
976.64461	22880.175
980.38733	22947.875
984.12747	22972.875
987.86502	23189.675
991.59999	23574.275
995.33237	24163.975
999.06217	25316.275
1002.78939	26828.975
1006.51404	27942.975
1010.23611	28458.575
1013.95561	28748.875
1017.67255	28695.675
1021.38692	28328.975
1025.09872	28163.075
1028.80796	28827.075
1032.51465	30419.375
1036.21877	31842.775
1039.92035	31915.075
1043.61937	31013.675
1047.31584	29572.875
1051.00976	28036.575
1054.70114	27236.075
1058.38998	27107.175
1062.07627	27318.375
1065.76003	27633.475
1069.44126	28262.475
1073.11995	29247.075
1076.79611	30054.675
1080.46974	30252.575
1084.14085	30412.575
1087.80943	30964.175
1091.47549	31521.875
1095.13903	31456.575
1098.80005	30632.775
1102.45857	29085.675
1106.11456	27646.675
1109.76805	26901.775
1113.41903	26752.875
1117.06751	27042.475
1120.71348	27672.675
1124.35696	28373.475
1127.99793	29275.475
1131.63641	29813.975
1135.2724	29524.775
1138.90589	28827.375
1142.5369	28324.775
1146.16542	27999.775
1149.79145	27944.575
1153.415	28116.075
1157.03607	28639.975
1160.65467	29638.775
1164.27079	31231.575
1167.88443	33693.175
1171.49561	37349.175
1175.10432	42465.075
1178.71056	48738.075
1182.31434	53948.675
1185.91565	56612.675
1189.51451	56769.375
1193.11091	54370.475
1196.70485	50442.575
1200.29634	46503.375
1203.88538	43430.275
1207.47197	40707.975
1211.05612	38512.875
1214.63782	37018.175
1218.21708	36498.275
1221.79391	36442.875
1225.36829	36425.475
1228.94024	35883.375
1232.50976	34864.475
1236.07685	34073.975
1239.6415	33811.875
1243.20374	33713.975
1246.76355	33988.975
1250.32093	34669.375
1253.8759	35945.675
1257.42845	37749.375
1260.97859	39593.375
1264.52631	41230.375
1268.07163	42719.575
1271.61453	44590.175
1275.15503	46617.075
1278.69312	48431.575
1282.22882	49790.175
1285.76211	51041.275
1289.29301	52549.875
1292.82151	54753.175
1296.34761	57738.975
1299.87133	61903.975
1303.39266	67384.875
1306.9116	74033.775
1310.42815	80699.075
1313.94233	84920.475
1317.45412	85088.075
1320.96354	82859.175
1324.47058	80609.775
1327.97525	78718.675
1331.47754	77307.975
1334.97747	76184.975
1338.47502	75228.675
1341.97022	74500.075
1345.46305	73407.275
1348.95352	71429.675
1352.44163	69585.075
1355.92738	70068.575
1359.41078	74395.675
1362.89183	80204.875
1366.37053	80542.675
1369.84688	73391.175
1373.32088	64355.275
1376.79254	56964.075
1380.26186	52535.275
1383.72883	50482.975
1387.19347	49621.075
1390.65578	49028.875
1394.11575	49017.675
1397.57339	49689.475
1401.0287	50944.675
1404.48168	52079.875
1407.93234	52519.575
1411.38068	51866.675
1414.82669	49991.775
1418.27039	47121.675
1421.71177	43968.475
1425.15083	41416.275
1428.58758	39692.875
1432.02203	39196.975
1435.45416	39772.275
1438.88399	40708.275
1442.31151	41634.175
1445.73673	42715.375
1449.15965	43843.075
1452.58027	44847.575
1455.9986	45426.475
1459.41463	45988.375
1462.82837	47086.975
1466.23982	48420.875
1469.64898	49704.775
1473.05586	50509.175
1476.46045	50824.775
1479.86276	50933.975
1483.26279	51000.075
1486.66054	51348.875
1490.05602	52143.675
1493.44922	53408.775
1496.84016	55169.375
1500.22882	57880.575
1503.61521	61769.275
1506.99934	66609.875
1510.38121	71765.275
1513.76081	74804.475
1517.13816	73629.575
1520.51324	69072.975
1523.88607	63678.375
1527.25665	59299.175
1530.62498	56181.675
1533.99105	54102.375
1537.35488	52602.475
1540.71647	51454.375
1544.07581	50277.075
1547.4329	48922.875
1550.78776	47722.975
1554.14038	46969.375
1557.49077	46988.175
1560.83892	47522.575
1564.18484	48304.375
1567.52853	48755.675
1570.86999	48877.575
1574.20922	48985.875
1577.54624	49062.675
1580.88103	47932.375
1584.2136	46557.275
1587.54395	46840.275
1590.87208	49268.975
1594.19801	53559.575
1597.52172	58317.475
1600.84321	60189.275
1604.16251	57205.975
1607.47959	51444.775
1610.79447	45537.275
1614.10715	40271.075
1617.41763	36097.675
1620.7259	33253.075
1624.03199	31811.875
1627.33587	31643.875
1630.63757	32730.675
1633.93707	35069.175
1637.23439	38714.175
1640.52951	43926.375
1643.82246	50346.875
1647.11321	56891.775
1650.40179	61072.275
1653.68819	59679.075
1656.97241	52351.075
1660.25446	42881.075
1663.53433	35016.175
1666.81203	29767.775
1670.08756	26651.675
1673.36092	24775.175
1676.63211	23542.775
1679.90115	22721.175
1683.16801	22100.775
1686.43272	21673.275
1689.69527	21376.475
1692.95567	21115.175
1696.2139	20927.875
1699.46999	20802.875
1702.72392	20702.675
1705.97571	20598.375
1709.22535	20501.675
1712.47284	20400.475
1715.71819	20373.175
1718.96139	20277.075
1722.20246	20116.075
1725.44139	20031.775
1728.67818	19854.975
1731.91284	19678.575
1735.14537	19486.675
1738.37576	19415.175
1741.60403	19286.975
1744.83017	19186.775
1748.05418	19161.275
1751.27607	19057.875
1754.49584	19044.875
1757.71349	18986.875
1760.92903	18937.775
1764.14244	18903.675
1767.35375	18910.175
1770.56294	18845.075
1773.77002	18775.775
1776.97499	18749.675
1780.17785	18688.075
1783.37861	18603.175
1786.57727	18621.175
1789.77382	18542.875
1792.96828	18506.875
1796.16064	18507.175
1799.3509	18449.475
1802.53907	18388.575
1805.72514	18337.775
1808.90913	18277.675
1812.09102	18182.975
1815.27083	18149.875
1818.44856	18127.375
1821.6242	18057.875
1824.79776	18047.075
1827.96924	18032.675
1831.13864	17995.375
1834.30597	18014.875
1837.47122	18013.775
1840.6344	18036.175
1843.7955	18022.475
1846.95454	17993.275
1850.11151	18024.775
1853.26642	17974.175
1856.41926	17964.375
1859.57004	17952.475
1862.71876	17955.275
1865.86542	17940.275
1869.01003	17917.675
1872.15258	17899.175
1875.29308	17870.575
1878.43152	17823.475
1881.56792	17842.975
1884.70227	17797.175
1887.83457	17842.075
1890.96482	17845.075
1894.09304	17848.875
1897.21921	17862.475
1900.34335	17809.175
1903.46544	17794.075
1906.58551	17808.475
1909.70353	17781.675
1912.81953	17749.375
1915.93349	17748.875
1919.04543	17703.575
1922.15534	17656.675
1925.26322	17618.275
1928.36908	17545.775
1931.47292	17491.775
1934.57473	17410.975
1937.67453	17344.575
1940.77232	17285.675
1943.86808	17175.075
1946.96184	17133.975
1950.05358	17053.675
1953.14331	17014.975
1956.23103	16990.075
1959.31675	16929.975
1962.40046	16873.475
1965.48217	16819.575
1968.56188	16812.575
1971.63959	16755.375
1974.7153	16718.675
1977.78901	16629.575
1980.86073	16558.475
1983.93046	16554.375
1986.99819	16439.475
1990.06394	16389.375
1993.1277	16328.475
1996.18947	16253.775
1999.24925	16257.775
2002.30706	16154.375
2005.36288	16106.775
2008.41672	16057.175
2011.46859	16012.875
2014.51848	15957.075
2017.56639	15964.575
2020.61233	15899.675
2023.6563	15868.575
2026.6983	15823.175
2029.73833	15784.575
2032.7764	15807.675
2035.8125	15765.575
2038.84664	15742.375
2041.87881	15739.075
2044.90903	15713.075
2047.93729	15680.075
2050.96359	15658.275
2053.98794	15633.575
2057.01034	15645.875
2060.03078	15634.075
2063.04927	15596.175
2066.06582	15542.075
2069.08042	15525.275
2072.09307	15512.175
2075.10378	15477.875
2078.11255	15450.675
2081.11938	15445.175
2084.12426	15418.675
2087.12722	15401.775
2090.12824	15401.075
2093.12732	15382.175
2096.12447	15398.175
2099.11969	15384.275
2102.11299	15398.875
2105.10435	15363.875
2108.09379	15359.575
2111.08131	15373.475
2114.0669	15370.675
2117.05057	15400.875
2120.03233	15362.175
2123.01216	15396.575
2125.99008	15433.175
2128.96609	15445.275
2131.94018	15438.875
2134.91236	15434.875
2137.88263	15462.375
2140.851	15447.575
2143.81746	15477.075
2146.78201	15485.775
2149.74466	15455.875
2152.7054	15450.375
2155.66425	15478.675
2158.6212	15460.075
2161.57625	15435.175
2164.52941	15459.175
2167.48067	15416.075
2170.43004	15424.175
2173.37752	15399.375
2176.32311	15397.075
2179.26681	15384.775
2182.20863	15398.475
2185.14856	15394.075
2188.08661	15382.175
2191.02278	15390.375
2193.95707	15383.975
2196.88948	15365.875
2199.82001	15367.275
2202.74867	15381.775
2205.67545	15361.575
2208.60037	15373.375
2211.52341	15386.975
2214.44458	15408.675
2217.36388	15394.075
2220.28132	15346.775
2223.1969	15327.275
2226.11061	15332.975
2229.02246	15284.975
2231.93245	15247.475
2234.84058	15184.375
2237.74686	15165.575
2240.65128	15095.275
2243.55385	15060.775
2246.45456	15019.175
2249.35343	15012.775
2252.25044	15006.375
2255.14561	15002.575
2258.03893	14952.875
2260.93041	14978.175
2263.82004	14939.575
2266.70783	14911.275
2269.59378	14836.575
2272.4779	14787.075
2275.36017	14752.075
2278.24061	14744.775
2281.11922	14718.075
2283.996	14703.175
2286.87094	14710.775
2289.74405	14709.475
2292.61534	14698.975
2295.4848	14648.475
2298.35243	14639.975
2301.21824	14694.075
2304.08223	14695.775
2306.94439	14716.175
2309.80474	14781.675
2312.66327	14802.875
2315.51999	14804.575
2318.37489	14791.675
2321.22797	14829.075
2324.07925	14806.075
2326.92871	14821.275
2329.77637	14822.875
2332.62222	14828.875
2335.46626	14845.475
2338.3085	14868.575
2341.14893	14918.775
2343.98756	14948.975
2346.8244	15001.475
2349.65943	15009.575
2352.49267	15026.875
2355.32411	15054.775
2358.15376	15030.175
2360.98161	15003.875
2363.80768	14976.175
2366.63195	14969.275
2369.45444	14937.175
2372.27514	14854.475
2375.09405	14830.175
2377.91118	14765.375
2380.72652	14697.175
2383.54009	14616.575
2386.35187	14624.675
2389.16188	14554.875
2391.97011	14562.675
2394.77657	14545.175
2397.58125	14492.075
2400.38416	14486.475
2403.18529	14435.775
2405.98466	14361.275
2408.78226	14321.075
2411.57809	14258.775
2414.37216	14232.375
2417.16446	14231.075
2419.955	14214.575
2422.74378	14173.875
2425.5308	14133.275
2428.31606	14129.675
2431.09956	14151.475
2433.88131	14131.575
2436.6613	14140.875
2439.43954	14163.375
2442.21603	14191.575
2444.99077	14145.675
2447.76377	14157.275
2450.53501	14158.875
2453.30451	14149.375
2456.07226	14153.875
2458.83827	14182.775
2461.60254	14165.275
2464.36507	14172.275
2467.12586	14174.975
2469.88492	14145.075
2472.64224	14175.875
2475.39782	14215.475
2478.15167	14251.975
2480.90379	14260.875
2483.65417	14274.075
2486.40283	14316.075
2489.14976	14365.075
2491.89497	14361.275
2494.63845	14421.575
2497.3802	14428.575
2500.12024	14374.775
2502.85855	14395.175
2505.59514	14366.375
2508.33002	14331.675
2511.06318	14315.275
2513.79462	14295.875
2516.52435	14274.075
2519.25237	14276.075
2521.97867	14229.875
2524.70327	14260.975
2527.42616	14195.275
2530.14734	14202.375
2532.86681	14199.975
2535.58458	14188.575
2538.30065	14213.375
2541.01501	14177.775
2543.72768	14151.575
2546.43864	14155.375
2549.14791	14141.675
2551.85548	14140.675
2554.56136	14146.575
2557.26554	14112.875
2559.96803	14081.875
2562.66883	14146.275
2565.36794	14127.875
2568.06536	14082.175
2570.7611	14071.875
2573.45514	14098.675
2576.14751	14056.075
2578.83819	14072.075
2581.52719	14115.275
2584.21451	14100.375
2586.90015	14112.775
2589.58411	14128.675
2592.2664	14115.775
2594.94701	14129.175
2597.62594	14126.475
2600.30321	14131.675
2602.9788	14114.675
2605.65273	14128.375
2608.32498	14166.875
2610.99557	14193.575
2613.66449	14198.575
2616.33175	14166.975
2618.99734	14216.975
2621.66128	14253.075
2624.32355	14232.175
2626.98416	14245.075
2629.64311	14253.675
2632.30041	14247.475
2634.95605	14265.375
2637.61004	14194.975
2640.26238	14192.975
2642.91306	14155.475
2645.56209	14124.775
2648.20948	14127.275
2650.85521	14109.775
2653.4993	14100.975
2656.14175	14089.475
2658.78255	14064.675
2661.42171	14076.675
2664.05923	14131.375
2666.6951	14130.975
2669.32934	14176.775
2671.96194	14189.075
2674.59291	14163.375
2677.22224	14154.475
2679.84993	14159.575
2682.476	14139.975
2685.10043	14117.875
2687.72324	14070.675
2690.34441	14034.875
2692.96396	14027.975
2695.58188	14015.775
2698.19818	13975.975
2700.81285	13999.575
2703.4259	14000.375
2706.03733	13991.075
2708.64714	14012.675
2711.25533	14011.675
2713.86191	13998.575
2716.46687	14007.675
2719.07021	13973.475
2721.67194	14008.775
2724.27206	13998.675
2726.87057	14030.675
2729.46747	14059.875
2732.06276	14026.575
2734.65644	14058.075
2737.24852	14037.675
2739.83899	13984.375
2742.42786	14000.275
2745.01513	13983.575
2747.60079	13996.275
2750.18486	13965.775
2752.76733	13964.375
2755.3482	13959.975
2757.92747	13975.775
2760.50515	13936.275
2763.08123	13931.475
2765.65573	13931.975
2768.22863	13944.775
2770.79994	13925.775
2773.36967	13958.375
2775.9378	13951.575
2778.50435	13960.575
2781.06932	13968.975
2783.6327	13971.975
2786.1945	13981.375
2788.75471	13976.175
2791.31335	13956.275
2793.87041	13932.375
2796.42589	13920.675
2798.97979	13934.175
2801.53212	13927.075
2804.08288	13870.775
2806.63206	13895.275
2809.17967	13895.575
2811.72571	13861.175
2814.27018	13860.475
2816.81308	13869.275
2819.35442	13857.675
2821.89419	13851.275
2824.43239	13833.875
2826.96904	13857.475
2829.50412	13877.375
2832.03763	13827.775
2834.56959	13821.175
2837.1	13840.575
2839.62884	13866.675
2842.15613	13855.475
2844.68186	13877.275
2847.20604	13915.075
2849.72867	13918.775
2852.24974	13911.975
2854.76927	13899.675
2857.28724	13946.475
2859.80367	13929.575
2862.31855	13923.275
2864.83189	13905.775
2867.34368	13861.475
2869.85393	13897.675
2872.36264	13862.775
2874.8698	13846.375
2877.37543	13843.675
2879.87952	13863.575
2882.38207	13861.175
2884.88308	13843.175
2887.38256	13847.975
2889.88051	13897.375
2892.37692	13874.475
2894.8718	13901.175
2897.36515	13899.675
2899.85698	13931.275
2902.34727	13992.275
2904.83604	13981.875
2907.32328	14015.375
2909.809	14019.675
2912.29319	14064.075
2914.77587	14077.275
2917.25702	14047.575
2919.73665	14002.375
2922.21476	13978.975
2924.69136	13973.475
2927.16644	13958.275
2929.64	13906.575
2932.11205	13865.575
2934.58258	13822.675
2937.05161	13801.575
2939.51912	13793.875
2941.98513	13761.775
2944.44962	13714.975
2946.91261	13659.975
2949.37409	13650.175
2951.83407	13619.375
2954.29254	13584.375
2956.74951	13565.375
2959.20498	13539.475
2961.65895	13515.775
2964.11142	13512.675
2966.56239	13466.575
2969.01186	13467.575
2971.45984	13387.375
2973.90632	13383.475
2976.35131	13361.075
2978.7948	13328.875
2981.23681	13303.775
2983.67732	13275.975
2986.11635	13244.475
2988.55388	13219.675
2990.98993	13139.975
2993.4245	13119.675
2995.85758	13071.975
2998.28917	13014.675
3000.71928	13003.975
3003.14791	12959.975
3005.57506	12970.575
3008.00073	12901.975
3010.42493	12897.075
3012.84764	12909.675
3015.26888	12867.575
3017.68865	12836.775
3020.10694	12807.975
3022.52376	12745.675
3024.9391	12742.075
3027.35298	12706.575
3029.76539	12693.375
3032.17632	12704.575
3034.5858	12672.375
3036.9938	12672.975
3039.40034	12687.775
3041.80542	12675.275
3044.20903	12642.675
3046.61118	12656.375
3049.01187	12633.075
3051.4111	12625.575
3053.80888	12594.175
3056.20519	12549.275
3058.60005	12508.475
3060.99345	12493.075
3063.3854	12426.875
3065.7759	12394.075
3068.16494	12354.075
3070.55254	12311.475
3072.93868	12250.975
3075.32338	12210.675
3077.70662	12184.575
3080.08842	12139.575
3082.46878	12109.775
3084.84769	12118.275
3087.22515	12124.475
3089.60118	12084.575
3091.97576	12088.075
3094.3489	12089.975
3096.72061	12086.975
3099.09087	12070.975
3101.4597	12027.975
3103.82709	12053.975
3106.19305	12051.575
3108.55757	12033.175
3110.92066	12002.175
3113.28232	11988.875
3115.64255	11932.875
3118.00134	11937.475
3120.35871	11952.575
3122.71466	11924.975
3125.06917	11896.175
3127.42226	11860.275
