Data from AgNPs_FTO_APTES_UA_5uM_CRN_50uM_R6G_10uM_NaF_0.1M_Addition_RamanShift__36__14-24-36-850.txt Node

Date: Mon Feb 07 14:24:36 GMT 2022
User: TCL
Spectrometer: QEP01345
Trigger mode: 4
Integration Time (sec): 7.000000E0
Scans to average: 10
Electric dark correction enabled: true
Nonlinearity correction enabled: false
Boxcar width: 0
XAxis mode: Raman Shifts
Number of Pixels in Spectrum: 1044
>>>>>Begin Spectral Data<<<<<
46.04893	-1.15
50.45542	-2.05
54.85868	-0.25
59.25871	-0.45
63.6555	75.45
68.04907	79.95
72.43941	82.75
76.82654	85.55
81.21044	88.55
85.59113	92.15
89.96862	95.25
94.34289	97.85
98.71396	100.85
103.08183	102.85
107.4465	107.05
111.80798	108.25
116.16626	112.95
120.52136	118.75
124.87327	124.55
129.222	131.85
133.56755	142.95
137.90993	155.85
142.24913	167.05
146.58517	199.85
150.91804	228.35
155.24774	274.65
159.57429	349.15
163.89768	451.15
168.21792	611.35
172.53501	836.15
176.84895	1173.65
181.15975	1655.65
185.46741	2310.15
189.77193	3203.65
194.07331	4273.55
198.37157	5517.65
202.6667	6821.85
206.9587	8106.95
211.24758	9372.75
215.53334	10609.75
219.81599	11966.45
224.09553	13481.95
228.37195	15070.75
232.64527	16832.55
236.91549	18652.45
241.18261	20501.35
245.44663	22257.95
249.70755	23817.35
253.96539	25218.85
258.22014	26428.65
262.4718	27429.35
266.72039	28061.55
270.96589	28512.65
275.20832	28578.45
279.44768	28433.45
283.68397	28228.75
287.91719	28005.15
292.14735	27836.45
296.37445	27816.95
300.59849	27879.75
304.81948	27989.15
309.03742	27960.55
313.25231	27725.55
317.46415	27265.45
321.67296	26682.25
325.87872	26211.45
330.08145	25974.15
334.28114	25913.05
338.47781	26050.95
342.67145	26231.25
346.86207	26618.55
351.04966	27054.55
355.23424	27531.05
359.4158	27915.35
363.59435	28259.85
367.76989	28524.55
371.94243	28646.65
376.11196	28775.65
380.27849	28907.35
384.44203	29016.55
388.60257	29249.75
392.76012	29620.55
396.91468	30009.35
401.06626	30472.65
405.21485	30777.35
409.36047	30688.65
413.50311	30429.15
417.64277	30286.95
421.77947	30381.35
425.9132	30469.25
430.04396	30648.95
434.17176	30867.35
438.2966	31174.95
442.41849	31750.65
446.53742	32718.35
450.6534	33775.55
454.76644	34465.25
458.87653	34687.15
462.98368	34439.05
467.08789	34005.95
471.18916	33472.05
475.2875	33064.65
479.38291	32871.75
483.4754	32718.25
487.56496	32402.85
491.6516	31836.65
495.73531	31182.85
499.81612	30813.25
503.89401	30760.45
507.96899	30830.05
512.04106	30725.45
516.11023	30468.05
520.1765	30100.05
524.23987	29778.45
528.30034	29517.35
532.35792	29354.35
536.41261	29057.45
540.46441	28757.65
544.51333	28718.05
548.55936	29043.65
552.60252	29641.45
556.64279	30502.05
560.6802	31147.55
564.71473	31612.95
568.7464	32317.25
572.7752	33349.75
576.80114	34375.15
580.82422	35283.55
584.84444	36547.75
588.86181	38257.85
592.87633	39673.85
596.888	39385.45
600.89682	37669.35
604.9028	36665.25
608.90594	37785.15
612.90624	39473.55
616.90371	37127.35
620.89834	32152.45
624.89015	29901.55
628.87913	29655.25
632.86528	29776.25
636.84862	29616.45
640.82913	29145.45
644.80683	28498.95
648.78172	28104.15
652.75379	28054.25
656.72306	28344.45
660.68952	28659.15
664.65319	28495.65
668.61405	28032.35
672.57211	28014.15
676.52738	28103.35
680.47986	28154.15
684.42955	27959.15
688.37646	27811.95
692.32058	28008.85
696.26192	28368.95
700.20048	28796.05
704.13626	29028.95
708.06928	29061.55
711.99952	28995.65
715.927	29030.35
719.85171	29141.85
723.77365	29046.05
727.69284	28614.65
731.60928	28232.55
735.52295	28068.35
739.43388	28078.65
743.34206	28166.45
747.24749	28381.15
751.15017	28655.25
755.05012	29144.35
758.94733	29968.85
762.8418	31284.75
766.73354	33073.35
770.62254	34609.35
774.50882	34829.75
778.39237	33314.25
782.27321	31258.15
786.15132	29577.05
790.02671	28632.95
793.89938	28126.35
797.76935	27904.45
801.6366	27877.35
805.50115	27851.75
809.36299	27786.35
813.22213	27586.05
817.07857	27519.85
820.93231	27402.75
824.78336	27224.25
828.63172	27090.35
832.47738	27051.35
836.32036	27088.25
840.16066	27189.65
843.99827	27216.15
847.8332	27153.65
851.66546	27091.55
855.49504	27100.85
859.32195	27052.35
863.1462	26966.05
866.96777	26884.45
870.78668	26795.45
874.60293	26790.15
878.41652	26794.05
882.22745	26859.05
886.03573	26923.75
889.84136	26940.15
893.64433	26824.55
897.44466	26736.35
901.24235	26614.75
905.0374	26564.25
908.8298	26572.95
912.61957	26658.25
916.40671	26950.05
920.19121	27424.95
923.97308	27783.55
927.75233	27766.35
931.52895	27425.15
935.30295	26958.25
939.07433	26500.15
942.84309	26202.55
946.60924	26065.45
950.37278	25964.35
954.13371	25942.55
957.89203	25894.35
961.64774	25831.95
965.40086	25885.75
969.15137	25823.25
972.89929	25685.75
976.64461	25629.45
980.38733	25636.75
984.12747	25655.45
987.86502	25831.85
991.59999	26028.45
995.33237	26307.35
999.06217	26808.65
1002.78939	27504.05
1006.51404	28002.75
1010.23611	28375.75
1013.95561	28604.35
1017.67255	28645.65
1021.38692	28382.05
1025.09872	27938.25
1028.80796	27828.95
1032.51465	28235.75
1036.21877	28761.95
1039.92035	28904.25
1043.61937	28827.95
1047.31584	28461.25
1051.00976	28075.45
1054.70114	27942.05
1058.38998	27952.35
1062.07627	28170.95
1065.76003	28418.65
1069.44126	28653.45
1073.11995	29017.95
1076.79611	29318.45
1080.46974	29478.85
1084.14085	29664.35
1087.80943	29898.85
1091.47549	30213.05
1095.13903	30317.55
1098.80005	29941.65
1102.45857	29338.85
1106.11456	28817.45
1109.76805	28608.45
1113.41903	28636.75
1117.06751	28763.05
1120.71348	29050.05
1124.35696	29329.15
1127.99793	29648.95
1131.63641	29905.05
1135.2724	29856.15
1138.90589	29780.25
1142.5369	29916.05
1146.16542	30260.15
1149.79145	30595.35
1153.415	31051.25
1157.03607	31680.35
1160.65467	32806.25
1164.27079	34498.45
1167.88443	36440.35
1171.49561	38329.95
1175.10432	40471.65
1178.71056	43355.45
1182.31434	45900.15
1185.91565	47084.55
1189.51451	46510.95
1193.11091	45216.45
1196.70485	43897.25
1200.29634	42673.35
1203.88538	42015.95
1207.47197	41802.25
1211.05612	41482.45
1214.63782	40655.25
1218.21708	39504.05
1221.79391	38301.25
1225.36829	37472.55
1228.94024	36726.95
1232.50976	36009.95
1236.07685	35426.75
1239.6415	35130.95
1243.20374	35144.45
1246.76355	35518.05
1250.32093	36073.15
1253.8759	36831.75
1257.42845	37731.45
1260.97859	38706.55
1264.52631	39706.95
1268.07163	40792.45
1271.61453	41947.05
1275.15503	43212.85
1278.69312	44709.85
1282.22882	46270.35
1285.76211	48166.25
1289.29301	50386.65
1292.82151	53109.15
1296.34761	56549.55
1299.87133	60362.85
1303.39266	64030.75
1306.9116	66968.85
1310.42815	68984.15
1313.94233	69717.25
1317.45412	69207.85
1320.96354	68152.05
1324.47058	67048.95
1327.97525	66200.15
1331.47754	65649.85
1334.97747	65105.95
1338.47502	64221.85
1341.97022	62881.55
1345.46305	61249.45
1348.95352	59887.25
1352.44163	59663.65
1355.92738	61024.15
1359.41078	63450.95
1362.89183	65320.05
1366.37053	64423.35
1369.84688	59816.35
1373.32088	53561.05
1376.79254	49291.45
1380.26186	48056.15
1383.72883	48708.85
1387.19347	49225.25
1390.65578	49016.45
1394.11575	49003.15
1397.57339	49794.55
1401.0287	51033.05
1404.48168	51930.95
1407.93234	51954.35
1411.38068	50707.65
1414.82669	48607.75
1418.27039	46142.25
1421.71177	43730.75
1425.15083	41729.05
1428.58758	40715.95
1432.02203	41028.85
1435.45416	42282.35
1438.88399	43902.15
1442.31151	45170.45
1445.73673	46042.35
1449.15965	46664.85
1452.58027	46915.85
1455.9986	46741.95
1459.41463	46756.75
1462.82837	47249.85
1466.23982	48092.65
1469.64898	48924.55
1473.05586	49486.95
1476.46045	49695.15
1479.86276	49458.55
1483.26279	48793.25
1486.66054	48332.05
1490.05602	48255.85
1493.44922	48370.95
1496.84016	48522.85
1500.22882	48681.15
1503.61521	49192.85
1506.99934	49989.35
1510.38121	50704.25
1513.76081	50989.15
1517.13816	50454.35
1520.51324	49644.75
1523.88607	49113.05
1527.25665	49234.05
1530.62498	49598.95
1533.99105	49660.95
1537.35488	49152.35
1540.71647	48079.95
1544.07581	46626.25
1547.4329	45073.85
1550.78776	43735.75
1554.14038	42860.75
1557.49077	42260.45
1560.83892	41859.75
1564.18484	41656.05
1567.52853	41793.05
1570.86999	42267.25
1574.20922	43238.05
1577.54624	44313.65
1580.88103	45066.65
1584.2136	46095.25
1587.54395	48018.65
1590.87208	50872.15
1594.19801	54188.65
1597.52172	56823.45
1600.84321	57034.45
1604.16251	53967.05
1607.47959	48932.55
1610.79447	43968.55
1614.10715	39754.25
1617.41763	36688.25
1620.7259	34826.55
1624.03199	34034.65
1627.33587	34202.85
1630.63757	35469.95
1633.93707	38065.65
1637.23439	42215.25
1640.52951	48183.35
1643.82246	55217.65
1647.11321	60727.95
1650.40179	61387.45
1653.68819	56281.75
1656.97241	48168.55
1660.25446	40466.05
1663.53433	34879.55
1666.81203	31330.05
1670.08756	29130.65
1673.36092	27746.55
1676.63211	26856.45
1679.90115	26230.95
1683.16801	25808.75
1686.43272	25466.35
1689.69527	25217.55
1692.95567	25054.85
1696.2139	24866.35
1699.46999	24767.95
1702.72392	24662.55
1705.97571	24561.15
1709.22535	24529.45
1712.47284	24459.75
1715.71819	24402.25
1718.96139	24330.75
1722.20246	24250.45
1725.44139	24124.45
1728.67818	24010.95
1731.91284	23907.75
1735.14537	23743.35
1738.37576	23601.05
1741.60403	23509.15
1744.83017	23433.65
1748.05418	23349.75
1751.27607	23347.65
1754.49584	23364.25
1757.71349	23328.15
1760.92903	23314.95
1764.14244	23285.45
1767.35375	23252.65
1770.56294	23240.45
1773.77002	23160.15
1776.97499	23099.25
1780.17785	23047.25
1783.37861	23033.55
1786.57727	22970.45
1789.77382	22919.25
1792.96828	22883.85
1796.16064	22882.75
1799.3509	22810.85
1802.53907	22800.45
1805.72514	22681.35
1808.90913	22625.45
1812.09102	22594.65
1815.27083	22485.65
1818.44856	22460.35
1821.6242	22470.45
1824.79776	22430.25
1827.96924	22408.95
1831.13864	22386.25
1834.30597	22373.25
1837.47122	22316.75
1840.6344	22329.85
1843.7955	22318.45
1846.95454	22330.15
1850.11151	22301.55
1853.26642	22282.15
1856.41926	22274.95
1859.57004	22259.25
1862.71876	22245.95
1865.86542	22238.15
1869.01003	22193.25
1872.15258	22162.95
1875.29308	22144.95
1878.43152	22102.05
1881.56792	22139.95
1884.70227	22121.15
1887.83457	22108.45
1890.96482	22046.95
1894.09304	22056.25
1897.21921	22029.65
1900.34335	22001.65
1903.46544	21986.05
1906.58551	21961.25
1909.70353	21983.45
1912.81953	21893.35
1915.93349	21895.95
1919.04543	21837.75
1922.15534	21784.45
1925.26322	21731.55
1928.36908	21677.35
1931.47292	21622.45
1934.57473	21613.95
1937.67453	21540.65
1940.77232	21495.65
1943.86808	21414.15
1946.96184	21407.45
1950.05358	21344.25
1953.14331	21329.15
1956.23103	21230.35
1959.31675	21172.15
1962.40046	21105.45
1965.48217	21048.75
1968.56188	20954.25
1971.63959	20891.35
1974.7153	20842.35
1977.78901	20794.55
1980.86073	20703.15
1983.93046	20668.55
1986.99819	20603.05
1990.06394	20540.65
1993.1277	20509.45
1996.18947	20467.95
1999.24925	20383.95
2002.30706	20315.35
2005.36288	20297.55
2008.41672	20250.05
2011.46859	20180.05
2014.51848	20136.65
2017.56639	20064.25
2020.61233	20028.45
2023.6563	19966.85
2026.6983	19918.75
2029.73833	19887.45
2032.7764	19851.55
2035.8125	19809.05
2038.84664	19773.55
2041.87881	19766.45
2044.90903	19749.15
2047.93729	19705.55
2050.96359	19678.65
2053.98794	19638.65
2057.01034	19642.95
2060.03078	19651.65
2063.04927	19626.35
2066.06582	19593.95
2069.08042	19610.75
2072.09307	19570.05
2075.10378	19554.25
2078.11255	19505.25
2081.11938	19521.45
2084.12426	19520.95
2087.12722	19533.75
2090.12824	19506.75
2093.12732	19500.55
2096.12447	19486.35
2099.11969	19491.65
2102.11299	19483.45
2105.10435	19539.15
2108.09379	19492.75
2111.08131	19532.65
2114.0669	19523.85
2117.05057	19573.25
2120.03233	19588.25
2123.01216	19592.35
2125.99008	19639.55
2128.96609	19580.15
2131.94018	19619.65
2134.91236	19628.85
2137.88263	19620.95
2140.851	19665.75
2143.81746	19653.15
2146.78201	19631.25
2149.74466	19632.55
2152.7054	19632.25
2155.66425	19620.55
2158.6212	19593.75
2161.57625	19617.15
2164.52941	19598.35
2167.48067	19613.05
2170.43004	19618.35
2173.37752	19578.45
2176.32311	19606.75
2179.26681	19616.35
2182.20863	19642.65
2185.14856	19632.45
2188.08661	19609.45
2191.02278	19630.85
2193.95707	19640.35
2196.88948	19588.05
2199.82001	19564.95
2202.74867	19536.65
2205.67545	19533.75
2208.60037	19512.45
2211.52341	19505.15
2214.44458	19502.95
2217.36388	19451.15
2220.28132	19413.45
2223.1969	19359.15
2226.11061	19341.05
2229.02246	19374.55
2231.93245	19299.35
2234.84058	19268.35
2237.74686	19203.45
2240.65128	19250.85
2243.55385	19192.35
2246.45456	19159.15
2249.35343	19130.25
2252.25044	19089.45
2255.14561	19051.35
2258.03893	19032.95
2260.93041	18981.95
2263.82004	18966.75
2266.70783	18924.75
2269.59378	18819.25
2272.4779	18786.25
2275.36017	18742.05
2278.24061	18747.85
2281.11922	18720.75
2283.996	18667.55
2286.87094	18681.85
2289.74405	18609.45
2292.61534	18626.95
2295.4848	18578.55
2298.35243	18607.95
2301.21824	18624.65
2304.08223	18598.05
2306.94439	18628.45
2309.80474	18649.25
2312.66327	18633.05
2315.51999	18627.25
2318.37489	18584.85
2321.22797	18571.35
2324.07925	18574.25
2326.92871	18543.65
2329.77637	18535.45
2332.62222	18472.85
2335.46626	18461.15
2338.3085	18467.25
2341.14893	18482.15
2343.98756	18478.05
2346.8244	18435.05
2349.65943	18408.55
2352.49267	18451.25
2355.32411	18448.35
2358.15376	18429.05
2360.98161	18404.95
2363.80768	18367.75
2366.63195	18379.75
2369.45444	18347.45
2372.27514	18302.15
2375.09405	18309.65
2377.91118	18290.05
2380.72652	18220.75
2383.54009	18223.15
2386.35187	18195.25
2389.16188	18166.75
2391.97011	18165.45
2394.77657	18070.25
2397.58125	18058.75
2400.38416	18053.65
2403.18529	18012.75
2405.98466	18031.75
2408.78226	17969.55
2411.57809	17948.45
2414.37216	17959.85
2417.16446	17954.95
2419.955	17935.45
2422.74378	17937.65
2425.5308	17879.65
2428.31606	17878.85
2431.09956	17867.05
2433.88131	17838.65
2436.6613	17899.55
2439.43954	17875.35
2442.21603	17862.75
2444.99077	17828.75
2447.76377	17822.95
2450.53501	17829.95
2453.30451	17823.25
2456.07226	17814.75
2458.83827	17835.75
2461.60254	17823.05
2464.36507	17825.15
2467.12586	17805.55
2469.88492	17821.35
2472.64224	17839.75
2475.39782	17866.85
2478.15167	17871.65
2480.90379	17833.55
2483.65417	17835.25
2486.40283	17837.85
2489.14976	17877.95
2491.89497	17856.45
2494.63845	17875.95
2497.3802	17890.65
2500.12024	17878.55
2502.85855	17796.65
2505.59514	17819.35
2508.33002	17826.55
2511.06318	17808.45
2513.79462	17770.45
2516.52435	17774.95
2519.25237	17811.55
2521.97867	17724.45
2524.70327	17768.45
2527.42616	17728.35
2530.14734	17759.25
2532.86681	17747.75
2535.58458	17742.15
2538.30065	17711.65
2541.01501	17728.25
2543.72768	17700.05
2546.43864	17674.95
2549.14791	17679.35
2551.85548	17669.25
2554.56136	17650.85
2557.26554	17656.25
2559.96803	17637.95
2562.66883	17594.55
2565.36794	17592.75
2568.06536	17558.65
2570.7611	17581.25
2573.45514	17572.45
2576.14751	17514.65
2578.83819	17502.25
2581.52719	17549.85
2584.21451	17523.95
2586.90015	17545.65
2589.58411	17511.35
2592.2664	17522.75
2594.94701	17506.55
2597.62594	17488.85
2600.30321	17444.75
2602.9788	17470.45
2605.65273	17459.35
2608.32498	17470.45
2610.99557	17419.45
2613.66449	17474.15
2616.33175	17486.05
2618.99734	17446.85
2621.66128	17440.35
2624.32355	17433.75
2626.98416	17419.05
2629.64311	17396.65
2632.30041	17372.95
2634.95605	17411.85
2637.61004	17391.15
2640.26238	17377.25
2642.91306	17369.85
2645.56209	17364.95
2648.20948	17392.25
2650.85521	17371.85
2653.4993	17412.55
2656.14175	17373.15
2658.78255	17390.85
2661.42171	17446.35
2664.05923	17488.05
2666.6951	17443.75
2669.32934	17497.65
2671.96194	17473.75
2674.59291	17495.65
2677.22224	17504.45
2679.84993	17520.95
2682.476	17466.95
2685.10043	17469.45
2687.72324	17443.55
2690.34441	17420.05
2692.96396	17410.05
2695.58188	17455.35
2698.19818	17416.95
2700.81285	17505.25
2703.4259	17471.15
2706.03733	17525.25
2708.64714	17497.45
2711.25533	17516.65
2713.86191	17508.25
2716.46687	17526.65
2719.07021	17556.05
2721.67194	17584.35
2724.27206	17569.65
2726.87057	17601.05
2729.46747	17634.55
2732.06276	17678.55
2734.65644	17644.05
2737.24852	17621.45
2739.83899	17600.95
2742.42786	17622.05
2745.01513	17609.95
2747.60079	17614.85
2750.18486	17559.15
2752.76733	17552.95
2755.3482	17574.05
2757.92747	17576.05
2760.50515	17542.85
2763.08123	17556.45
2765.65573	17584.55
2768.22863	17603.65
2770.79994	17572.15
2773.36967	17585.15
2775.9378	17538.55
2778.50435	17571.75
2781.06932	17586.35
2783.6327	17553.75
2786.1945	17582.35
2788.75471	17571.05
2791.31335	17528.05
2793.87041	17505.55
2796.42589	17484.25
2798.97979	17438.55
2801.53212	17451.65
2804.08288	17464.15
2806.63206	17358.55
2809.17967	17348.25
2811.72571	17301.75
2814.27018	17314.25
2816.81308	17249.15
2819.35442	17224.35
2821.89419	17175.65
2824.43239	17219.45
2826.96904	17214.85
2829.50412	17188.65
2832.03763	17108.25
2834.56959	17162.75
2837.1	17165.25
2839.62884	17155.35
2842.15613	17149.85
2844.68186	17277.05
2847.20604	17208.65
2849.72867	17259.65
2852.24974	17263.45
2854.76927	17244.15
2857.28724	17229.65
2859.80367	17204.95
2862.31855	17169.35
2864.83189	17131.05
2867.34368	17107.85
2869.85393	17113.65
2872.36264	17095.65
2874.8698	17065.45
2877.37543	17052.95
2879.87952	17079.35
2882.38207	17041.85
2884.88308	17072.55
2887.38256	17069.75
2889.88051	17070.95
2892.37692	17090.75
2894.8718	17090.55
2897.36515	17103.35
2899.85698	17105.45
2902.34727	17153.15
2904.83604	17178.25
2907.32328	17218.95
2909.809	17220.55
2912.29319	17191.75
2914.77587	17231.35
2917.25702	17218.25
2919.73665	17217.25
2922.21476	17222.25
2924.69136	17195.65
2927.16644	17216.95
2929.64	17161.75
2932.11205	17110.65
2934.58258	17104.75
2937.05161	17129.45
2939.51912	17145.25
2941.98513	17112.05
2944.44962	17063.75
2946.91261	17023.45
2949.37409	17007.55
2951.83407	17002.05
2954.29254	17005.95
2956.74951	16987.15
2959.20498	16994.15
2961.65895	16932.75
2964.11142	16960.65
2966.56239	16930.75
2969.01186	16904.55
2971.45984	16911.55
2973.90632	16914.35
2976.35131	16864.55
2978.7948	16844.15
2981.23681	16801.85
2983.67732	16765.45
2986.11635	16723.35
2988.55388	16705.65
2990.98993	16661.45
2993.4245	16629.35
2995.85758	16576.35
2998.28917	16553.35
3000.71928	16537.75
3003.14791	16466.95
3005.57506	16460.55
3008.00073	16397.55
3010.42493	16316.15
3012.84764	16388.65
3015.26888	16346.15
3017.68865	16322.15
3020.10694	16266.55
3022.52376	16254.85
3024.9391	16262.25
3027.35298	16235.15
3029.76539	16214.95
3032.17632	16204.25
3034.5858	16171.05
3036.9938	16154.25
3039.40034	16147.05
3041.80542	16190.65
3044.20903	16146.25
3046.61118	16134.75
3049.01187	16097.65
3051.4111	16068.95
3053.80888	16040.25
3056.20519	16059.75
3058.60005	16007.85
3060.99345	16005.85
3063.3854	15948.25
3065.7759	15890.45
3068.16494	15827.75
3070.55254	15765.15
3072.93868	15750.65
3075.32338	15714.65
3077.70662	15683.05
3080.08842	15649.35
3082.46878	15612.55
3084.84769	15595.35
3087.22515	15594.65
3089.60118	15608.75
3091.97576	15576.85
3094.3489	15596.25
3096.72061	15564.05
3099.09087	15586.75
3101.4597	15567.15
3103.82709	15572.35
3106.19305	15523.55
3108.55757	15536.25
3110.92066	15489.45
3113.28232	15512.05
3115.64255	15423.25
3118.00134	15409.35
3120.35871	15399.25
3122.71466	15365.35
3125.06917	15319.75
3127.42226	15318.25
3129.77393	15292.65
3132.12417	15253.45
3134.47299	15252.25
3136.82039	15276.15
3139.16636	15231.55
3141.51092	15203.85
3143.85406	15222.25
3146.19579	15211.15
3148.53609	15206.35
3150.87499	15209.65
3153.21246	15194.55
3155.54853	15219.05
3157.88318	15214.65
3160.21642	15233.25
3162.54826	15248.95
3164.87868	15226.05
3167.2077	15227.85
3169.5353	15211.75
3171.86151	15228.75
3174.18631	15185.15
3176.5097	15177.35
3178.83169	15137.55
3181.15228	15164.25
3183.47147	15118.85
3185.78926	15129.55
3188.10565	15109.75
3190.42065	15067.15
3192.73424	15056.75
3195.04645	15033.35
3197.35725	15036.95
3199.66667	15002.95
3201.97469	15014.45
3204.28132	15007.15
3206.58656	15056.45
3208.8904	15027.65
3211.19287	15014.45
3213.49394	15008.65
3215.79363	15076.45
3218.09193	15033.75
3220.38884	15031.65
3222.68438	15046.05
3224.97853	15016.45
3227.2713	14995.55
3229.56269	14986.05
3231.8527	14984.75
3234.14133	14968.85
3236.42858	14937.55
3238.71446	14919.85
