Data from AgNPs_FTO_APTES_UA_5uM_CRN_10uM_R6G_10uM_NaF_0.1M_Addition_RamanShift__20__12-46-36-737.txt Node

Date: Mon Feb 07 12:46:36 GMT 2022
User: TCL
Spectrometer: QEP01345
Trigger mode: 4
Integration Time (sec): 7.000000E0
Scans to average: 10
Electric dark correction enabled: true
Nonlinearity correction enabled: false
Boxcar width: 0
XAxis mode: Raman Shifts
Number of Pixels in Spectrum: 1044
>>>>>Begin Spectral Data<<<<<
46.04893	-0.5875
50.45542	-2.3875
54.85868	0.0125
59.25871	-0.1875
63.6555	87.3125
68.04907	91.1125
72.43941	96.7125
76.82654	96.8125
81.21044	99.6125
85.59113	105.7125
89.96862	109.9125
94.34289	110.5125
98.71396	116.6125
103.08183	123.3125
107.4465	125.0125
111.80798	126.8125
116.16626	130.2125
120.52136	140.9125
124.87327	144.4125
129.222	152.8125
133.56755	163.7125
137.90993	178.4125
142.24913	196.7125
146.58517	228.0125
150.91804	268.0125
155.24774	318.0125
159.57429	405.0125
163.89768	522.2125
168.21792	691.3125
172.53501	955.9125
176.84895	1329.8125
181.15975	1867.6125
185.46741	2622.9125
189.77193	3615.0125
194.07331	4822.9125
198.37157	6175.2125
202.6667	7616.3125
206.9587	9049.2125
211.24758	10448.1125
215.53334	11840.4125
219.81599	13329.8125
224.09553	14992.4125
228.37195	16847.6125
232.64527	18873.6125
236.91549	20965.0125
241.18261	23073.8125
245.44663	25028.9125
249.70755	26760.4125
253.96539	28317.5125
258.22014	29655.1125
262.4718	30748.5125
266.72039	31560.8125
270.96589	32069.9125
275.20832	32333.1125
279.44768	32329.4125
283.68397	32269.3125
287.91719	32264.1125
292.14735	32348.4125
296.37445	32478.0125
300.59849	32631.7125
304.81948	32615.8125
309.03742	32380.5125
313.25231	31760.9125
317.46415	30814.0125
321.67296	29697.4125
325.87872	28716.4125
330.08145	28230.1125
334.28114	28123.7125
338.47781	28270.2125
342.67145	28602.9125
346.86207	29060.3125
351.04966	29625.8125
355.23424	30219.0125
359.4158	30695.9125
363.59435	31059.2125
367.76989	31274.0125
371.94243	31348.0125
376.11196	31501.4125
380.27849	31625.6125
384.44203	31803.5125
388.60257	32032.3125
392.76012	32402.0125
396.91468	32872.8125
401.06626	33355.3125
405.21485	33778.8125
409.36047	33581.4125
413.50311	33037.2125
417.64277	32592.0125
421.77947	32607.8125
425.9132	32705.4125
430.04396	32934.8125
434.17176	33143.2125
438.2966	33512.8125
442.41849	34057.6125
446.53742	34985.1125
450.6534	36110.1125
454.76644	37009.1125
458.87653	37382.3125
462.98368	37358.9125
467.08789	37049.5125
471.18916	36605.5125
475.2875	36359.1125
479.38291	36402.6125
483.4754	36285.3125
487.56496	35761.1125
491.6516	34943.5125
495.73531	34139.3125
499.81612	33626.2125
503.89401	33635.6125
507.96899	33768.5125
512.04106	33551.6125
516.11023	33169.0125
520.1765	32729.4125
524.23987	32275.8125
528.30034	31807.3125
532.35792	31416.0125
536.41261	31046.9125
540.46441	30764.2125
544.51333	30869.6125
548.55936	31449.2125
552.60252	32425.5125
556.64279	33423.8125
560.6802	34090.5125
564.71473	34588.1125
568.7464	35315.6125
572.7752	36346.1125
576.80114	37176.4125
580.82422	37766.2125
584.84444	38271.3125
588.86181	38581.7125
592.87633	39022.6125
596.888	39273.6125
600.89682	39286.7125
604.9028	40242.4125
608.90594	43153.8125
612.90624	45986.4125
616.90371	42756.7125
620.89834	35558.5125
624.89015	32647.8125
628.87913	32478.8125
632.86528	32637.2125
636.84862	32389.1125
640.82913	31704.9125
644.80683	30706.9125
648.78172	29847.8125
652.75379	29556.2125
656.72306	29787.1125
660.68952	30309.2125
664.65319	30210.4125
668.61405	29641.0125
672.57211	29491.2125
676.52738	29480.2125
680.47986	29434.9125
684.42955	29266.2125
688.37646	29251.6125
692.32058	29394.8125
696.26192	29666.9125
700.20048	30113.1125
704.13626	30345.3125
708.06928	30355.1125
711.99952	30097.0125
715.927	30017.7125
719.85171	30001.0125
723.77365	29902.9125
727.69284	29519.8125
731.60928	29205.7125
735.52295	28978.4125
739.43388	29045.1125
743.34206	29089.2125
747.24749	29276.1125
751.15017	29685.0125
755.05012	30366.9125
758.94733	31563.2125
762.8418	33482.7125
766.73354	36398.1125
770.62254	38996.3125
774.50882	39217.1125
778.39237	36913.7125
782.27321	33743.5125
786.15132	31361.4125
790.02671	29926.5125
793.89938	29202.0125
797.76935	28981.9125
801.6366	28923.6125
805.50115	28848.6125
809.36299	28647.7125
813.22213	28421.4125
817.07857	28340.7125
820.93231	28308.0125
824.78336	28038.0125
828.63172	27908.2125
832.47738	27809.3125
836.32036	27801.8125
840.16066	27957.5125
843.99827	28118.8125
847.8332	27990.5125
851.66546	27822.4125
855.49504	27689.9125
859.32195	27666.8125
863.1462	27546.5125
866.96777	27403.1125
870.78668	27292.0125
874.60293	27243.4125
878.41652	27196.2125
882.22745	27301.3125
886.03573	27399.5125
889.84136	27388.9125
893.64433	27273.1125
897.44466	27177.2125
901.24235	27020.8125
905.0374	26951.3125
908.8298	26883.4125
912.61957	26973.9125
916.40671	27368.5125
920.19121	27896.2125
923.97308	28330.4125
927.75233	28333.4125
931.52895	28035.8125
935.30295	27603.1125
939.07433	26938.3125
942.84309	26429.1125
946.60924	26176.5125
950.37278	26082.6125
954.13371	26005.1125
957.89203	25913.0125
961.64774	25896.7125
965.40086	25840.8125
969.15137	25725.4125
972.89929	25557.9125
976.64461	25393.0125
980.38733	25402.6125
984.12747	25503.5125
987.86502	25742.3125
991.59999	26140.6125
995.33237	26767.0125
999.06217	27762.0125
1002.78939	28875.7125
1006.51404	29565.1125
1010.23611	29845.1125
1013.95561	30081.3125
1017.67255	30166.8125
1021.38692	29786.6125
1025.09872	29427.2125
1028.80796	29666.0125
1032.51465	30647.8125
1036.21877	31580.4125
1039.92035	31735.8125
1043.61937	31242.1125
1047.31584	30297.1125
1051.00976	29394.8125
1054.70114	28985.0125
1058.38998	29085.5125
1062.07627	29338.3125
1065.76003	29624.3125
1069.44126	29876.5125
1073.11995	30235.5125
1076.79611	30501.8125
1080.46974	30727.8125
1084.14085	30913.9125
1087.80943	31307.6125
1091.47549	31685.0125
1095.13903	31803.6125
1098.80005	31429.3125
1102.45857	30651.9125
1106.11456	29947.4125
1109.76805	29645.1125
1113.41903	29764.6125
1117.06751	30008.4125
1120.71348	30338.3125
1124.35696	30690.1125
1127.99793	31071.3125
1131.63641	31322.4125
1135.2724	31243.3125
1138.90589	31081.3125
1142.5369	31105.9125
1146.16542	31251.1125
1149.79145	31535.9125
1153.415	32101.4125
1157.03607	32889.7125
1160.65467	34090.3125
1164.27079	35798.8125
1167.88443	38164.3125
1171.49561	41104.3125
1175.10432	44760.0125
1178.71056	49264.4125
1182.31434	53425.1125
1185.91565	55875.7125
1189.51451	56269.5125
1193.11091	54927.3125
1196.70485	52420.6125
1200.29634	49738.8125
1203.88538	47644.3125
1207.47197	46195.7125
1211.05612	45177.5125
1214.63782	44216.8125
1218.21708	43183.4125
1221.79391	42461.3125
1225.36829	41853.9125
1228.94024	41191.5125
1232.50976	40262.5125
1236.07685	39528.9125
1239.6415	39110.4125
1243.20374	38997.1125
1246.76355	39254.4125
1250.32093	39897.1125
1253.8759	40952.7125
1257.42845	42368.5125
1260.97859	43833.6125
1264.52631	45142.4125
1268.07163	46617.7125
1271.61453	48273.3125
1275.15503	50150.7125
1278.69312	52155.9125
1282.22882	53980.0125
1285.76211	55724.6125
1289.29301	57729.1125
1292.82151	60261.9125
1296.34761	63771.7125
1299.87133	67920.1125
1303.39266	72633.6125
1306.9116	77321.8125
1310.42815	81604.7125
1313.94233	84209.1125
1317.45412	84647.7125
1320.96354	83707.9125
1324.47058	82595.5125
1327.97525	81530.9125
1331.47754	80754.5125
1334.97747	80374.8125
1338.47502	80110.5125
1341.97022	79699.9125
1345.46305	78454.0125
1348.95352	76315.8125
1352.44163	74027.9125
1355.92738	73089.6125
1359.41078	74236.9125
1362.89183	75769.9125
1366.37053	74151.0125
1369.84688	68507.1125
1373.32088	61894.9125
1376.79254	57415.2125
1380.26186	55727.8125
1383.72883	55985.2125
1387.19347	56516.5125
1390.65578	56714.9125
1394.11575	57163.6125
1397.57339	58294.8125
1401.0287	59867.5125
1404.48168	61127.4125
1407.93234	61237.0125
1411.38068	60064.1125
1414.82669	57472.9125
1418.27039	54253.0125
1421.71177	50958.0125
1425.15083	48450.8125
1428.58758	47078.0125
1432.02203	47013.8125
1435.45416	48157.9125
1438.88399	49806.9125
1442.31151	51391.9125
1445.73673	52745.0125
1449.15965	53957.7125
1452.58027	54964.0125
1455.9986	55622.9125
1459.41463	56264.4125
1462.82837	57228.0125
1466.23982	58079.2125
1469.64898	58815.2125
1473.05586	58982.7125
1476.46045	58566.7125
1479.86276	57640.4125
1483.26279	56653.4125
1486.66054	55947.9125
1490.05602	55697.9125
1493.44922	55733.6125
1496.84016	55923.4125
1500.22882	56605.3125
1503.61521	57837.4125
1506.99934	59661.2125
1510.38121	61371.7125
1513.76081	62177.0125
1517.13816	61526.8125
1520.51324	59884.6125
1523.88607	58389.4125
1527.25665	57628.9125
1530.62498	57360.9125
1533.99105	57363.7125
1537.35488	57124.5125
1540.71647	56433.2125
1544.07581	55211.2125
1547.4329	53650.9125
1550.78776	52312.1125
1554.14038	51418.8125
1557.49077	50936.2125
1560.83892	50647.8125
1564.18484	50443.2125
1567.52853	50416.6125
1570.86999	50576.0125
1574.20922	51341.3125
1577.54624	52324.2125
1580.88103	53078.4125
1584.2136	53965.5125
1587.54395	55958.6125
1590.87208	59086.5125
1594.19801	62902.4125
1597.52172	66308.7125
1600.84321	67081.0125
1604.16251	63702.3125
1607.47959	58021.4125
1610.79447	52374.0125
1614.10715	47156.3125
1617.41763	42787.5125
1620.7259	39687.3125
1624.03199	38048.2125
1627.33587	37922.5125
1630.63757	39345.6125
1633.93707	42461.7125
1637.23439	47468.9125
1640.52951	53996.5125
1643.82246	60977.2125
1647.11321	66019.0125
1650.40179	66408.0125
1653.68819	61352.5125
1656.97241	52959.5125
1660.25446	44364.2125
1663.53433	37775.6125
1666.81203	33365.2125
1670.08756	30594.8125
1673.36092	28819.3125
1676.63211	27633.3125
1679.90115	26848.9125
1683.16801	26257.0125
1686.43272	25779.0125
1689.69527	25436.5125
1692.95567	25220.3125
1696.2139	24988.5125
1699.46999	24837.6125
1702.72392	24669.6125
1705.97571	24604.0125
1709.22535	24503.3125
1712.47284	24429.7125
1715.71819	24376.6125
1718.96139	24271.9125
1722.20246	24136.0125
1725.44139	24011.6125
1728.67818	23878.9125
1731.91284	23660.4125
1735.14537	23501.2125
1738.37576	23383.9125
1741.60403	23267.1125
1744.83017	23189.5125
1748.05418	23126.8125
1751.27607	23063.8125
1754.49584	22997.0125
1757.71349	22985.0125
1760.92903	22973.9125
1764.14244	22895.8125
1767.35375	22905.5125
1770.56294	22828.6125
1773.77002	22780.5125
1776.97499	22698.4125
1780.17785	22660.8125
1783.37861	22614.3125
1786.57727	22606.9125
1789.77382	22555.5125
1792.96828	22490.6125
1796.16064	22470.7125
1799.3509	22433.6125
1802.53907	22371.1125
1805.72514	22310.2125
1808.90913	22241.4125
1812.09102	22177.1125
1815.27083	22154.7125
1818.44856	22099.9125
1821.6242	22018.7125
1824.79776	22024.9125
1827.96924	22013.6125
1831.13864	22018.3125
1834.30597	22049.0125
1837.47122	22051.6125
1840.6344	22069.9125
1843.7955	22063.6125
1846.95454	22085.1125
1850.11151	22067.4125
1853.26642	22080.8125
1856.41926	22084.3125
1859.57004	22068.7125
1862.71876	22066.4125
1865.86542	22032.0125
1869.01003	22021.6125
1872.15258	22004.3125
1875.29308	21979.0125
1878.43152	21970.4125
1881.56792	22002.8125
1884.70227	21928.0125
1887.83457	22005.4125
1890.96482	21961.8125
1894.09304	21920.5125
1897.21921	21964.8125
1900.34335	21939.5125
1903.46544	21964.7125
1906.58551	21953.7125
1909.70353	21899.1125
1912.81953	21840.3125
1915.93349	21790.1125
1919.04543	21745.4125
1922.15534	21641.9125
1925.26322	21631.8125
1928.36908	21514.8125
1931.47292	21437.6125
1934.57473	21332.7125
1937.67453	21293.8125
1940.77232	21178.7125
1943.86808	21101.7125
1946.96184	21038.0125
1950.05358	20956.8125
1953.14331	20889.4125
1956.23103	20789.1125
1959.31675	20701.2125
1962.40046	20632.6125
1965.48217	20571.6125
1968.56188	20531.2125
1971.63959	20482.2125
1974.7153	20410.3125
1977.78901	20325.7125
1980.86073	20241.2125
1983.93046	20161.7125
1986.99819	20071.7125
1990.06394	20084.2125
1993.1277	20035.7125
1996.18947	19958.2125
1999.24925	19923.2125
2002.30706	19847.1125
2005.36288	19743.3125
2008.41672	19713.5125
2011.46859	19656.3125
2014.51848	19609.9125
2017.56639	19523.5125
2020.61233	19496.0125
2023.6563	19447.9125
2026.6983	19400.6125
2029.73833	19354.7125
2032.7764	19370.2125
2035.8125	19315.9125
2038.84664	19258.6125
2041.87881	19240.4125
2044.90903	19206.2125
2047.93729	19196.4125
2050.96359	19158.3125
2053.98794	19176.5125
2057.01034	19136.9125
2060.03078	19161.3125
2063.04927	19115.1125
2066.06582	19081.4125
2069.08042	19093.7125
2072.09307	19059.1125
2075.10378	19013.9125
2078.11255	18997.9125
2081.11938	19008.7125
2084.12426	18961.5125
2087.12722	18958.5125
2090.12824	18939.4125
2093.12732	18884.8125
2096.12447	18917.7125
2099.11969	18939.7125
2102.11299	18941.8125
2105.10435	18955.8125
2108.09379	18937.0125
2111.08131	18950.1125
2114.0669	18941.6125
2117.05057	18977.4125
2120.03233	18974.3125
2123.01216	18964.6125
2125.99008	18989.0125
2128.96609	19019.7125
2131.94018	19013.5125
2134.91236	18991.3125
2137.88263	19002.2125
2140.851	19039.3125
2143.81746	19065.3125
2146.78201	19012.3125
2149.74466	19032.1125
2152.7054	19000.5125
2155.66425	18997.8125
2158.6212	19007.0125
2161.57625	18989.4125
2164.52941	19006.9125
2167.48067	18976.7125
2170.43004	18977.8125
2173.37752	18965.8125
2176.32311	18964.7125
2179.26681	18998.4125
2182.20863	18961.1125
2185.14856	18988.7125
2188.08661	18983.6125
2191.02278	19028.9125
2193.95707	18939.8125
2196.88948	18968.4125
2199.82001	18939.5125
2202.74867	18921.9125
2205.67545	18879.7125
2208.60037	18907.0125
2211.52341	18917.2125
2214.44458	18884.9125
2217.36388	18900.4125
2220.28132	18830.9125
2223.1969	18792.2125
2226.11061	18765.9125
2229.02246	18692.4125
2231.93245	18665.4125
2234.84058	18648.8125
2237.74686	18587.2125
2240.65128	18596.0125
2243.55385	18533.7125
2246.45456	18517.2125
2249.35343	18467.6125
2252.25044	18448.2125
2255.14561	18409.5125
2258.03893	18366.3125
2260.93041	18348.1125
2263.82004	18334.9125
2266.70783	18290.2125
2269.59378	18193.0125
2272.4779	18126.1125
2275.36017	18082.5125
2278.24061	18062.7125
2281.11922	18035.4125
2283.996	18021.2125
2286.87094	18009.6125
2289.74405	17962.8125
2292.61534	17987.7125
2295.4848	17941.3125
2298.35243	17962.7125
2301.21824	17990.6125
2304.08223	18028.4125
2306.94439	18010.4125
2309.80474	18019.4125
2312.66327	18035.4125
2315.51999	18024.6125
2318.37489	18022.9125
2321.22797	18000.0125
2324.07925	17984.5125
2326.92871	17975.1125
2329.77637	17962.8125
2332.62222	17906.4125
2335.46626	17939.9125
2338.3085	17936.1125
2341.14893	17983.2125
2343.98756	18039.9125
2346.8244	18045.2125
2349.65943	18037.6125
2352.49267	18046.6125
2355.32411	18054.0125
2358.15376	18020.0125
2360.98161	18007.6125
2363.80768	17965.5125
2366.63195	17945.9125
2369.45444	17911.9125
2372.27514	17887.5125
2375.09405	17861.3125
2377.91118	17822.7125
2380.72652	17772.2125
2383.54009	17742.9125
2386.35187	17690.3125
2389.16188	17629.9125
2391.97011	17649.5125
2394.77657	17594.1125
2397.58125	17599.4125
2400.38416	17568.1125
2403.18529	17560.3125
2405.98466	17529.1125
2408.78226	17438.5125
2411.57809	17433.9125
2414.37216	17431.2125
2417.16446	17413.8125
2419.955	17378.9125
2422.74378	17361.3125
2425.5308	17278.0125
2428.31606	17327.3125
2431.09956	17332.0125
2433.88131	17291.7125
2436.6613	17336.6125
2439.43954	17310.1125
2442.21603	17296.3125
2444.99077	17298.0125
2447.76377	17341.0125
2450.53501	17303.3125
2453.30451	17307.6125
2456.07226	17279.0125
2458.83827	17263.5125
2461.60254	17287.9125
2464.36507	17293.9125
2467.12586	17319.0125
2469.88492	17303.7125
2472.64224	17322.6125
2475.39782	17368.4125
2478.15167	17422.1125
2480.90379	17367.5125
2483.65417	17387.1125
2486.40283	17433.5125
2489.14976	17438.7125
2491.89497	17437.2125
2494.63845	17494.0125
2497.3802	17473.3125
2500.12024	17512.1125
2502.85855	17483.3125
2505.59514	17472.6125
2508.33002	17434.0125
2511.06318	17434.6125
2513.79462	17391.9125
2516.52435	17430.3125
2519.25237	17456.1125
2521.97867	17429.1125
2524.70327	17410.4125
2527.42616	17373.7125
2530.14734	17414.7125
2532.86681	17351.1125
2535.58458	17403.3125
2538.30065	17382.2125
2541.01501	17389.0125
2543.72768	17361.9125
2546.43864	17383.8125
2549.14791	17345.8125
2551.85548	17360.8125
2554.56136	17291.6125
2557.26554	17270.0125
2559.96803	17286.6125
2562.66883	17302.6125
2565.36794	17266.8125
2568.06536	17269.7125
2570.7611	17231.9125
2573.45514	17236.4125
2576.14751	17227.5125
2578.83819	17211.0125
2581.52719	17259.8125
2584.21451	17248.8125
2586.90015	17279.1125
2589.58411	17280.4125
2592.2664	17302.4125
2594.94701	17272.2125
2597.62594	17301.2125
2600.30321	17270.5125
2602.9788	17286.9125
2605.65273	17289.5125
2608.32498	17316.5125
2610.99557	17301.0125
2613.66449	17355.8125
2616.33175	17315.4125
2618.99734	17349.2125
2621.66128	17366.9125
2624.32355	17372.6125
2626.98416	17370.9125
2629.64311	17382.0125
2632.30041	17420.2125
2634.95605	17370.8125
2637.61004	17369.5125
2640.26238	17365.0125
2642.91306	17353.9125
2645.56209	17317.9125
2648.20948	17321.7125
2650.85521	17340.2125
2653.4993	17331.6125
2656.14175	17296.1125
2658.78255	17324.8125
2661.42171	17353.2125
2664.05923	17379.4125
2666.6951	17342.4125
2669.32934	17421.7125
2671.96194	17421.0125
2674.59291	17431.7125
2677.22224	17423.0125
2679.84993	17421.1125
2682.476	17384.6125
2685.10043	17357.1125
2687.72324	17364.4125
2690.34441	17314.4125
2692.96396	17305.4125
2695.58188	17310.7125
2698.19818	17309.2125
2700.81285	17297.4125
2703.4259	17312.5125
2706.03733	17339.9125
2708.64714	17345.7125
2711.25533	17334.8125
2713.86191	17341.0125
2716.46687	17381.2125
2719.07021	17381.9125
2721.67194	17434.8125
2724.27206	17427.7125
2726.87057	17486.4125
2729.46747	17441.6125
2732.06276	17510.5125
2734.65644	17468.3125
2737.24852	17471.3125
2739.83899	17459.9125
2742.42786	17474.1125
2745.01513	17436.7125
2747.60079	17467.7125
2750.18486	17420.5125
2752.76733	17452.2125
2755.3482	17418.8125
2757.92747	17433.8125
2760.50515	17432.1125
2763.08123	17472.7125
2765.65573	17488.3125
2768.22863	17453.7125
2770.79994	17436.1125
2773.36967	17474.6125
2775.9378	17493.6125
2778.50435	17459.2125
2781.06932	17463.3125
2783.6327	17514.3125
2786.1945	17515.8125
2788.75471	17517.0125
2791.31335	17467.0125
2793.87041	17435.7125
2796.42589	17397.1125
2798.97979	17393.6125
2801.53212	17343.2125
2804.08288	17324.9125
2806.63206	17275.9125
2809.17967	17265.0125
2811.72571	17217.7125
2814.27018	17209.4125
2816.81308	17200.9125
2819.35442	17144.6125
2821.89419	17129.5125
2824.43239	17159.2125
2826.96904	17184.8125
2829.50412	17141.5125
2832.03763	17097.9125
2834.56959	17073.3125
2837.1	17046.9125
2839.62884	17047.3125
2842.15613	17058.2125
2844.68186	17081.8125
2847.20604	17089.6125
2849.72867	17119.8125
2852.24974	17100.0125
2854.76927	17107.4125
2857.28724	17091.6125
2859.80367	17070.1125
2862.31855	17033.2125
2864.83189	17022.9125
2867.34368	17029.3125
2869.85393	17032.3125
2872.36264	16995.3125
2874.8698	16972.5125
2877.37543	16955.3125
2879.87952	16998.2125
2882.38207	16970.6125
2884.88308	16952.0125
2887.38256	16997.2125
2889.88051	16990.8125
2892.37692	17028.6125
2894.8718	17045.5125
2897.36515	17051.0125
2899.85698	17070.9125
2902.34727	17135.6125
2904.83604	17145.6125
2907.32328	17196.2125
2909.809	17191.2125
2912.29319	17223.9125
2914.77587	17223.1125
2917.25702	17242.6125
2919.73665	17199.1125
2922.21476	17217.2125
2924.69136	17195.4125
2927.16644	17156.5125
2929.64	17112.8125
2932.11205	17087.9125
2934.58258	17024.9125
2937.05161	17035.6125
2939.51912	17052.9125
2941.98513	17007.3125
2944.44962	17006.6125
2946.91261	16933.3125
2949.37409	16917.0125
2951.83407	16922.1125
2954.29254	16870.8125
2956.74951	16904.9125
2959.20498	16875.5125
2961.65895	16842.1125
2964.11142	16811.6125
2966.56239	16790.0125
2969.01186	16798.3125
2971.45984	16723.0125
2973.90632	16754.7125
2976.35131	16701.5125
2978.7948	16653.7125
2981.23681	16590.6125
2983.67732	16568.8125
2986.11635	16569.2125
2988.55388	16501.1125
2990.98993	16477.3125
2993.4245	16371.8125
2995.85758	16323.3125
2998.28917	16297.6125
3000.71928	16288.4125
3003.14791	16268.9125
3005.57506	16228.8125
3008.00073	16188.0125
3010.42493	16077.1125
3012.84764	16124.9125
3015.26888	16118.1125
3017.68865	16073.8125
3020.10694	16053.1125
3022.52376	16051.5125
