Data from AgNPs_FTO_APTES_UA_5uM_CRN_200uM_R6G_10uM_NaF_0.1M_Addition_RamanShift__28__16-32-31-798.txt Node

Date: Mon Feb 07 16:32:31 GMT 2022
User: TCL
Spectrometer: QEP01345
Trigger mode: 4
Integration Time (sec): 7.000000E0
Scans to average: 10
Electric dark correction enabled: true
Nonlinearity correction enabled: false
Boxcar width: 0
XAxis mode: Raman Shifts
Number of Pixels in Spectrum: 1044
>>>>>Begin Spectral Data<<<<<
46.04893	-1.9
50.45542	-0
54.85868	0.6
59.25871	-0.4
63.6555	79.8
68.04907	84.4
72.43941	88.6
76.82654	91
81.21044	90.6
85.59113	92.8
89.96862	102.1
94.34289	102.2
98.71396	104.9
103.08183	105.8
107.4465	113.7
111.80798	116.5
116.16626	118.9
120.52136	126.1
124.87327	135.4
129.222	138.2
133.56755	151.7
137.90993	168.5
142.24913	187.9
146.58517	209
150.91804	250.2
155.24774	303.1
159.57429	387.6
163.89768	497.1
168.21792	673.6
172.53501	924
176.84895	1282.3
181.15975	1818.1
185.46741	2541.2
189.77193	3509.8
194.07331	4728.3
198.37157	6090.9
202.6667	7545.6
206.9587	8989.4
211.24758	10409
215.53334	11927.7
219.81599	13566.8
224.09553	15368.4
228.37195	17430.3
232.64527	19615.3
236.91549	21811.2
241.18261	23930.4
245.44663	25725.1
249.70755	27239
253.96539	28600.1
258.22014	29797.3
262.4718	30771.7
266.72039	31579.1
270.96589	32077.7
275.20832	32131.7
279.44768	31934.6
283.68397	31710.7
287.91719	31535.9
292.14735	31754.8
296.37445	32337.4
300.59849	33148.2
304.81948	33924.6
309.03742	34312.9
313.25231	33963.7
317.46415	32454.9
321.67296	30384.7
325.87872	28579.4
330.08145	27728.4
334.28114	27609.2
338.47781	27942.9
342.67145	28575.9
346.86207	29518.5
351.04966	30931.7
355.23424	32392.8
359.4158	33472.8
363.59435	33988.6
367.76989	34172.3
371.94243	34181.2
376.11196	34061.1
380.27849	33988.8
384.44203	33886.2
388.60257	33641.1
392.76012	33532.8
396.91468	33765.9
401.06626	34535.3
405.21485	35022.2
409.36047	34511.8
413.50311	33054.4
417.64277	31712.3
421.77947	31005.3
425.9132	30826.8
430.04396	30941.5
434.17176	31236.4
438.2966	31716.7
442.41849	32579
446.53742	33667.5
450.6534	34850.5
454.76644	35649.6
458.87653	35747.1
462.98368	35482.1
467.08789	35061.7
471.18916	34668.6
475.2875	34278.4
479.38291	34012.8
483.4754	33595.6
487.56496	32886.6
491.6516	32030
495.73531	31373.3
499.81612	31036
503.89401	31181.5
507.96899	31414.7
512.04106	31605.9
516.11023	31803.2
520.1765	31892.3
524.23987	31717.7
528.30034	31277.8
532.35792	30896.6
536.41261	30398.2
540.46441	29935.5
544.51333	29798.5
548.55936	30195.4
552.60252	31007.5
556.64279	32057.9
560.6802	32784
564.71473	33422.9
568.7464	34692.1
572.7752	35667.2
576.80114	35050.4
580.82422	33967.2
584.84444	33508.7
588.86181	33726.5
592.87633	34326.4
596.888	34820.1
600.89682	35251.8
604.9028	37453.6
608.90594	44532.4
612.90624	54355.8
616.90371	52000.2
620.89834	38023.3
624.89015	31579.5
628.87913	30484.6
632.86528	30704.9
636.84862	30917.8
640.82913	30288.4
644.80683	29057.4
648.78172	28199.5
652.75379	28070.6
656.72306	28837
660.68952	30003.4
664.65319	29787.7
668.61405	28669.9
672.57211	28107.5
676.52738	28045.4
680.47986	28091.7
684.42955	27993.8
688.37646	27796.1
692.32058	27917.2
696.26192	28094.4
700.20048	28463.9
704.13626	28671.8
708.06928	28635.2
711.99952	28366
715.927	28315.8
719.85171	28368.3
723.77365	28367.2
727.69284	28150.2
731.60928	27900.5
735.52295	27833.5
739.43388	27903.8
743.34206	27942.3
747.24749	28068
751.15017	28285.9
755.05012	28862.2
758.94733	30187
762.8418	33039.6
766.73354	37805.2
770.62254	42591.4
774.50882	44711.6
778.39237	42493.7
782.27321	37258.1
786.15132	32356.7
790.02671	29531.3
793.89938	28199.9
797.76935	27709.3
801.6366	27459.2
805.50115	27348.3
809.36299	27241.4
813.22213	27148.2
817.07857	27174.9
820.93231	27211
824.78336	27203.9
828.63172	27250.2
832.47738	27256.4
836.32036	27104.9
840.16066	26979.6
843.99827	26927
847.8332	26826.2
851.66546	26702.7
855.49504	26670.5
859.32195	26622.6
863.1462	26535.6
866.96777	26421.2
870.78668	26339.9
874.60293	26439.8
878.41652	26450.8
882.22745	26589.3
886.03573	26642
889.84136	26616.7
893.64433	26489.7
897.44466	26380.8
901.24235	26342.7
905.0374	26251.5
908.8298	26126.9
912.61957	26149.5
916.40671	26371.4
920.19121	26698.7
923.97308	26858.8
927.75233	27058.6
931.52895	27185.4
935.30295	26906.7
939.07433	26229.5
942.84309	25542.2
946.60924	25202.3
950.37278	24968.8
954.13371	24886.4
957.89203	24855.1
961.64774	24809.8
965.40086	24764.4
969.15137	24653.3
972.89929	24493.3
976.64461	24433.4
980.38733	24345.3
984.12747	24408.6
987.86502	24603.4
991.59999	24805.1
995.33237	25178
999.06217	25818.7
1002.78939	26597.5
1006.51404	27258.7
1010.23611	27687.2
1013.95561	27928
1017.67255	27859.2
1021.38692	27449.8
1025.09872	27015.7
1028.80796	26802.4
1032.51465	27059.6
1036.21877	27379.9
1039.92035	27549.2
1043.61937	27470.1
1047.31584	27263.7
1051.00976	26977.5
1054.70114	26831
1058.38998	26906.8
1062.07627	27139.9
1065.76003	27373.8
1069.44126	27470.9
1073.11995	27692.4
1076.79611	27979.4
1080.46974	28393.9
1084.14085	28943.2
1087.80943	29578.2
1091.47549	29906
1095.13903	29618.6
1098.80005	28904.9
1102.45857	28135.5
1106.11456	27832.7
1109.76805	27871.3
1113.41903	28402.9
1117.06751	29259.8
1120.71348	30268.6
1124.35696	31341
1127.99793	32213.8
1131.63641	32131.3
1135.2724	30907.6
1138.90589	29766.3
1142.5369	29131.3
1146.16542	28903.2
1149.79145	28859.5
1153.415	29085.7
1157.03607	29521.2
1160.65467	30277.2
1164.27079	31526.1
1167.88443	33339.9
1171.49561	36131.2
1175.10432	40242.4
1178.71056	45669.4
1182.31434	49909.1
1185.91565	51346.2
1189.51451	50547.5
1193.11091	48167.8
1196.70485	45350
1200.29634	42921.8
1203.88538	40970.5
1207.47197	38880.9
1211.05612	37106.7
1214.63782	35954.6
1218.21708	35437.3
1221.79391	35130.5
1225.36829	34834.6
1228.94024	34350.6
1232.50976	33747
1236.07685	33421.6
1239.6415	33309.5
1243.20374	33524.4
1246.76355	33817.3
1250.32093	34352.9
1253.8759	35088.4
1257.42845	36150.2
1260.97859	37271.1
1264.52631	38299.8
1268.07163	39322.3
1271.61453	40319.8
1275.15503	41207
1278.69312	41927.7
1282.22882	42582.2
1285.76211	43734.3
1289.29301	45342.3
1292.82151	47420.9
1296.34761	49925.6
1299.87133	53113.4
1303.39266	57396
1306.9116	63040.9
1310.42815	69161.2
1313.94233	72893.9
1317.45412	72528.6
1320.96354	69634.1
1324.47058	66130.8
1327.97525	63006.9
1331.47754	60948.8
1334.97747	60109.6
1338.47502	60309.4
1341.97022	60915.3
1345.46305	61392.7
1348.95352	61928.3
1352.44163	63040.4
1355.92738	66149
1359.41078	72483.7
1362.89183	78894.2
1366.37053	76614.5
1369.84688	66187.2
1373.32088	55975.8
1376.79254	49763.1
1380.26186	47113.6
1383.72883	46366.1
1387.19347	46122.5
1390.65578	45844.1
1394.11575	45961.1
1397.57339	46685.1
1401.0287	47857.7
1404.48168	49005.6
1407.93234	49527.6
1411.38068	49201.5
1414.82669	47770.6
1418.27039	45456.2
1421.71177	43020.9
1425.15083	40894.3
1428.58758	39652.1
1432.02203	39584.4
1435.45416	40166.5
1438.88399	40943.7
1442.31151	41722.7
1445.73673	42375
1449.15965	43286.9
1452.58027	44087.7
1455.9986	44569.1
1459.41463	45127.9
1462.82837	45881.1
1466.23982	46739.9
1469.64898	47435
1473.05586	47617.9
1476.46045	47417
1479.86276	47080.4
1483.26279	46930.6
1486.66054	46921.5
1490.05602	47467.3
1493.44922	48331.5
1496.84016	49722.8
1500.22882	52334.6
1503.61521	56479.9
1506.99934	61947.1
1510.38121	67299.4
1513.76081	69851.5
1517.13816	67213.1
1520.51324	60826.9
1523.88607	54462.3
1527.25665	50261.8
1530.62498	48081
1533.99105	47040.3
1537.35488	46448.7
1540.71647	45951.6
1544.07581	45471.9
1547.4329	44781.1
1550.78776	44222.4
1554.14038	43774.4
1557.49077	43777.3
1560.83892	44147.5
1564.18484	44855.1
1567.52853	45606
1570.86999	46228.5
1574.20922	46772.8
1577.54624	47028.3
1580.88103	46033.2
1584.2136	44728.3
1587.54395	44813.5
1590.87208	46381.3
1594.19801	49259.3
1597.52172	52515.4
1600.84321	53870.3
1604.16251	51821.4
1607.47959	47749.2
1610.79447	43230.9
1614.10715	38999.7
1617.41763	35527.8
1620.7259	33314.4
1624.03199	32154.9
1627.33587	32060.5
1630.63757	32942.6
1633.93707	34920.8
1637.23439	38215.3
1640.52951	43025.6
1643.82246	49172.2
1647.11321	55293.2
1650.40179	58604.4
1653.68819	56130
1656.97241	48382.3
1660.25446	39988.1
1663.53433	33759.7
1666.81203	29816.6
1670.08756	27458
1673.36092	26088.1
1676.63211	25169
1679.90115	24500
1683.16801	24013.5
1686.43272	23674.7
1689.69527	23420.2
1692.95567	23233.4
1696.2139	23095.3
1699.46999	22987.3
1702.72392	22906.3
1705.97571	22850
1709.22535	22762.8
1712.47284	22729.1
1715.71819	22737.1
1718.96139	22678.6
1722.20246	22595.8
1725.44139	22483.2
1728.67818	22358.2
1731.91284	22172.3
1735.14537	22055.9
1738.37576	21949.9
1741.60403	21861.7
1744.83017	21765.5
1748.05418	21716.4
1751.27607	21660
1754.49584	21649.2
1757.71349	21600
1760.92903	21545.5
1764.14244	21527.9
1767.35375	21522.6
1770.56294	21410.7
1773.77002	21394.3
1776.97499	21317.8
1780.17785	21220.4
1783.37861	21194.9
1786.57727	21175.3
1789.77382	21118.5
1792.96828	21134.9
1796.16064	21117.2
1799.3509	21050.8
1802.53907	20993.3
1805.72514	20934.6
1808.90913	20855.7
1812.09102	20795.3
1815.27083	20761
1818.44856	20680.6
1821.6242	20624.2
1824.79776	20607.7
1827.96924	20580.8
1831.13864	20563.8
1834.30597	20539.3
1837.47122	20521.3
1840.6344	20483.1
1843.7955	20460.5
1846.95454	20433.2
1850.11151	20414.2
1853.26642	20396.3
1856.41926	20398.7
1859.57004	20387.1
1862.71876	20403.7
1865.86542	20366.2
1869.01003	20398.7
1872.15258	20396.1
1875.29308	20385.4
1878.43152	20359.4
1881.56792	20369.9
1884.70227	20343.2
1887.83457	20338.3
1890.96482	20329.1
1894.09304	20293.2
1897.21921	20274.2
1900.34335	20275.7
1903.46544	20277.6
1906.58551	20245.4
1909.70353	20249.3
1912.81953	20238.5
1915.93349	20220.4
1919.04543	20170.2
1922.15534	20144.7
1925.26322	20089
1928.36908	20033.8
1931.47292	20010.2
1934.57473	19944.6
1937.67453	19888.7
1940.77232	19829.5
1943.86808	19686.9
1946.96184	19624.7
1950.05358	19548.8
1953.14331	19477
1956.23103	19398.3
1959.31675	19404.1
1962.40046	19341
1965.48217	19272.1
1968.56188	19190.9
1971.63959	19142.6
1974.7153	19118.8
1977.78901	19033.2
1980.86073	19015.8
1983.93046	18926.4
1986.99819	18851.5
1990.06394	18787.7
1993.1277	18715.3
1996.18947	18636.9
1999.24925	18576.7
2002.30706	18561.4
2005.36288	18514
2008.41672	18446.5
2011.46859	18395.2
2014.51848	18328
2017.56639	18285.6
2020.61233	18218.3
2023.6563	18139.6
2026.6983	18095.7
2029.73833	18058.9
2032.7764	18022.9
2035.8125	18000.4
2038.84664	17976
2041.87881	17977.8
2044.90903	17917
2047.93729	17869.9
2050.96359	17862.6
2053.98794	17860.5
2057.01034	17818.6
2060.03078	17805
2063.04927	17784.5
2066.06582	17758.2
2069.08042	17751.1
2072.09307	17723.9
2075.10378	17661.6
2078.11255	17703.9
2081.11938	17719.7
2084.12426	17656.1
2087.12722	17621.5
2090.12824	17652.2
2093.12732	17637.1
2096.12447	17634.9
2099.11969	17623.5
2102.11299	17589.2
2105.10435	17618.5
2108.09379	17582.5
2111.08131	17620.6
2114.0669	17578
2117.05057	17626.5
2120.03233	17658
2123.01216	17645.1
2125.99008	17664.1
2128.96609	17686.3
2131.94018	17685.7
2134.91236	17675
2137.88263	17697.9
2140.851	17686.1
2143.81746	17686.7
2146.78201	17651.4
2149.74466	17653.1
2152.7054	17676.9
2155.66425	17633.1
2158.6212	17628.7
2161.57625	17623
2164.52941	17575.3
2167.48067	17601.6
2170.43004	17585.5
2173.37752	17616.1
2176.32311	17624.9
2179.26681	17607.7
2182.20863	17573.2
2185.14856	17579.5
2188.08661	17611.7
2191.02278	17601.9
2193.95707	17557.5
2196.88948	17481
2199.82001	17511.6
2202.74867	17507
2205.67545	17482.9
2208.60037	17441.7
2211.52341	17425.4
2214.44458	17384.7
2217.36388	17344.7
2220.28132	17334.5
2223.1969	17272.6
2226.11061	17252.6
2229.02246	17227
2231.93245	17188.1
2234.84058	17134.5
2237.74686	17092.3
2240.65128	17081.1
2243.55385	17073.6
2246.45456	17087.9
2249.35343	17042.7
2252.25044	17022
2255.14561	16976.5
2258.03893	16923.5
2260.93041	16879.2
2263.82004	16894.3
2266.70783	16834.2
2269.59378	16816.4
2272.4779	16741.9
2275.36017	16682.2
2278.24061	16681.4
2281.11922	16665.6
2283.996	16637.6
2286.87094	16585.1
2289.74405	16544.8
2292.61534	16523.1
2295.4848	16505.3
2298.35243	16512.2
2301.21824	16522.3
2304.08223	16492.4
2306.94439	16532.5
2309.80474	16508.1
2312.66327	16479.6
2315.51999	16507
2318.37489	16470.2
2321.22797	16451.8
2324.07925	16407.6
2326.92871	16410.9
2329.77637	16378.7
2332.62222	16378.2
2335.46626	16395.3
2338.3085	16398.3
2341.14893	16367.2
2343.98756	16393.5
2346.8244	16371.7
2349.65943	16376.1
2352.49267	16360.8
2355.32411	16399.1
2358.15376	16399.4
2360.98161	16392.4
2363.80768	16394.6
2366.63195	16407.2
2369.45444	16397.7
2372.27514	16365
2375.09405	16310.9
2377.91118	16260.2
2380.72652	16250.9
2383.54009	16170.4
2386.35187	16107.8
2389.16188	16076.5
2391.97011	16006.3
2394.77657	15960.8
2397.58125	15929.3
2400.38416	15920.9
2403.18529	15856.8
2405.98466	15837.4
2408.78226	15821.6
2411.57809	15803.5
2414.37216	15769.4
2417.16446	15783.9
2419.955	15744.3
2422.74378	15726.2
2425.5308	15725.6
2428.31606	15714.3
2431.09956	15689.2
2433.88131	15686
2436.6613	15743.2
2439.43954	15688.8
2442.21603	15675.9
2444.99077	15685
2447.76377	15668.1
2450.53501	15659.2
2453.30451	15640
2456.07226	15659.7
2458.83827	15645.6
2461.60254	15619.8
2464.36507	15636.6
2467.12586	15619.2
2469.88492	15609.9
2472.64224	15618.5
2475.39782	15620.4
2478.15167	15643.9
2480.90379	15652.6
2483.65417	15657
2486.40283	15699.2
2489.14976	15735
2491.89497	15724.3
2494.63845	15773.4
2497.3802	15754.7
2500.12024	15765.6
2502.85855	15706.7
2505.59514	15690.2
2508.33002	15653.2
2511.06318	15596.3
2513.79462	15561.9
2516.52435	15525.4
2519.25237	15523.8
2521.97867	15439.2
2524.70327	15439.6
2527.42616	15424.2
2530.14734	15423.6
2532.86681	15428.1
2535.58458	15417.5
2538.30065	15404.1
2541.01501	15394.9
2543.72768	15360.7
2546.43864	15347.6
2549.14791	15340.8
2551.85548	15349.8
2554.56136	15292.1
2557.26554	15290.6
2559.96803	15248.9
2562.66883	15238.9
2565.36794	15213.9
2568.06536	15241.5
2570.7611	15204.3
2573.45514	15194.2
2576.14751	15203.4
2578.83819	15131.4
2581.52719	15130.5
2584.21451	15126.3
2586.90015	15129
2589.58411	15127.9
2592.2664	15130.7
2594.94701	15120.2
2597.62594	15112.4
2600.30321	15064.9
2602.9788	15073.3
2605.65273	15064.8
2608.32498	15115
2610.99557	15095.5
2613.66449	15096.8
2616.33175	15063.4
2618.99734	15041.6
2621.66128	15045.9
2624.32355	15062.4
2626.98416	15045.9
2629.64311	15042.4
2632.30041	15005
2634.95605	15017.4
2637.61004	14990
2640.26238	14958.9
2642.91306	14960.3
2645.56209	14898
2648.20948	14930.4
2650.85521	14950.6
2653.4993	14920.3
2656.14175	14924.3
2658.78255	15003.5
2661.42171	14949.6
2664.05923	14984.8
2666.6951	14988.8
2669.32934	15007.3
2671.96194	15028.1
2674.59291	15018.6
2677.22224	15006
2679.84993	15028
2682.476	14969
2685.10043	14979
2687.72324	14977.5
2690.34441	14950
2692.96396	14915
2695.58188	14915.7
2698.19818	14921.2
2700.81285	14955.7
2703.4259	14934.7
2706.03733	14951.1
2708.64714	14983.5
2711.25533	14974.1
2713.86191	14964.2
2716.46687	15036.9
2719.07021	14994.4
2721.67194	15009.5
2724.27206	15026.6
2726.87057	15034.9
2729.46747	15055
2732.06276	15044.2
2734.65644	15000.2
2737.24852	14983.6
2739.83899	14986.2
2742.42786	14982.9
2745.01513	14974.1
2747.60079	14962.1
2750.18486	14949.5
2752.76733	14940.6
2755.3482	14909.3
2757.92747	14871.4
2760.50515	14847.1
2763.08123	14890
2765.65573	14877.9
2768.22863	14864.9
2770.79994	14859.2
2773.36967	14866.1
2775.9378	14866.7
2778.50435	14877.2
2781.06932	14863.6
2783.6327	14866.7
2786.1945	14854.5
2788.75471	14851.6
2791.31335	14873.6
2793.87041	14842
2796.42589	14795.7
2798.97979	14801.7
2801.53212	14763.6
2804.08288	14746.7
2806.63206	14704
2809.17967	14707.4
2811.72571	14684.3
2814.27018	14658.5
2816.81308	14663.4
2819.35442	14630.5
2821.89419	14591.2
2824.43239	14630.5
2826.96904	14603.4
2829.50412	14593.8
2832.03763	14552.5
2834.56959	14548.7
2837.1	14540.4
2839.62884	14556.1
2842.15613	14595.8
2844.68186	14664.8
2847.20604	14681.1
2849.72867	14716
2852.24974	14716.4
2854.76927	14668.6
2857.28724	14698.3
2859.80367	14694.9
2862.31855	14635.6
2864.83189	14603.5
2867.34368	14598.7
2869.85393	14619.9
2872.36264	14626.8
2874.8698	14592.8
2877.37543	14603.7
2879.87952	14599.1
2882.38207	14576.5
2884.88308	14542.4
2887.38256	14560.8
2889.88051	14561.4
2892.37692	14563.6
2894.8718	14563.6
2897.36515	14558.8
2899.85698	14573.4
2902.34727	14602.6
2904.83604	14598.4
2907.32328	14632.8
2909.809	14623.1
2912.29319	14594.1
2914.77587	14604.4
2917.25702	14552.5
2919.73665	14572.1
2922.21476	14575.4
2924.69136	14548.5
2927.16644	14579.6
2929.64	14522.4
2932.11205	14502.5
2934.58258	14458.2
2937.05161	14443.7
2939.51912	14418.2
2941.98513	14366
2944.44962	14342.8
2946.91261	14276
2949.37409	14295.7
2951.83407	14258.5
2954.29254	14206.3
2956.74951	14220.3
2959.20498	14195.8
2961.65895	14168.6
2964.11142	14145.8
2966.56239	14102.7
2969.01186	14100.1
2971.45984	14085.7
2973.90632	14053.4
2976.35131	14011.2
2978.7948	13997.8
2981.23681	13924.4
2983.67732	13937.9
2986.11635	13862
2988.55388	13840
2990.98993	13793.7
2993.4245	13774.2
2995.85758	13772.4
2998.28917	13697.6
3000.71928	13704.5
3003.14791	13655.1
3005.57506	13630
3008.00073	13605.5
3010.42493	13591.1
3012.84764	13589.3
3015.26888	13552.3
3017.68865	13509
3020.10694	13488.1
3022.52376	13462.5
3024.9391	13440
3027.35298	13410
3029.76539	13381
3032.17632	13368.1
3034.5858	13358
3036.9938	13374.3
3039.40034	13325.9
3041.80542	13336.2
3044.20903	13264.3
3046.61118	13292.8
3049.01187	13228.1
3051.4111	13215
3053.80888	13217.1
3056.20519	13162.9
3058.60005	13127.7
3060.99345	13086
3063.3854	13055.7
3065.7759	12978.7
3068.16494	12940.9
3070.55254	12877.9
3072.93868	12865.3
3075.32338	12833.2
3077.70662	12784.7
3080.08842	12736.9
3082.46878	12708.3
3084.84769	12695.9
3087.22515	12676.4
3089.60118	12682.1
3091.97576	12654.9
3094.3489	12656.7
3096.72061	12688.3
3099.09087	12681.7
3101.4597	12638.9
3103.82709	12624.8
3106.19305	12586
3108.55757	12605.9
3110.92066	12519.6
3113.28232	12487.4
3115.64255	12455.5
3118.00134	12422.8
3120.35871	12445.7
3122.71466	12401
3125.06917	12364.3
3127.42226	12346.2
3129.77393	12317.3
3132.12417	12318.4
3134.47299	12301.6
3136.82039	12306.7
3139.16636	12294.6
3141.51092	12280.4
3143.85406	12233
3146.19579	12255.1
3148.53609	12254.6
3150.87499	12255.2
3153.21246	12247.5
3155.54853	12257.7
3157.88318	12282.1
3160.21642	12287.7
3162.54826	12254.1
3164.87868	12245.6
3167.2077	12241.1
3169.5353	12259.9
3171.86151	12248
3174.18631	12231
3176.5097	12235.2
3178.83169	12199.7
3181.15228	12190.8
3183.47147	12191.1
3185.78926	12167
3188.10565	12116.8
3190.42065	12125.9
3192.73424	12116.6
3195.04645	12118.9
3197.35725	12104.4
3199.66667	12095.9
3201.97469	12128.3
3204.28132	12084.6
3206.58656	12105.1
3208.8904	12092.8
3211.19287	12100
3213.49394	12126.7
3215.79363	12139
3218.09193	12141.1
3220.38884	12103.8
3222.68438	12133.4
3224.97853	12115.4
3227.2713	12069.9
3229.56269	12058.8
3231.8527	12057.2
3234.14133	12028.7
3236.42858	11988.5
3238.71446	11999.8
3240.99896	11956
3243.28209	11929.3
3245.56384	11911.6
3247.84423	11949.9
3250.12324	11908.7
3252.40088	11888.1
3254.67715	11895.1
3256.95205	11852.5
3259.22558	11851.2
3261.49775	11819.8
3263.76855	11817.5
3266.03799	11768.7
3268.30606	11748.8
3270.57277	11752.4
3272.83812	11686.3
3275.10211	11683.9
3277.36474	11695.7
3279.62601	11688.6
3281.88593	11670.7
3284.14448	11659.7
3286.40168	11664.5
3288.65753	11662.9
3290.91202	11671
3293.16516	11614.1
3295.41695	11595.6
3297.66738	11523.8
3299.91647	11444
3302.16421	11382.1
3304.4106	11333.6
3306.65564	11249.5
3308.89933	11186
3311.14169	11085.9
3313.38269	10973.4
3315.62236	10917.1
3317.86068	10819.1
3320.09766	10734.1
3322.3333	10669.1
3324.5676	10615.8
3326.80056	10445.7
3329.03219	10371.1
3331.26248	3.8
3333.49143	-0.2
3335.71905	-1.9
