Data from AgNPs_FTO_APTES_UA_5uM_CRN_50uM_R6G_10uM_NaF_0.1M_Addition_RamanShift__1__13-43-46-803.txt Node

Date: Mon Feb 07 13:43:46 GMT 2022
User: TCL
Spectrometer: QEP01345
Trigger mode: 4
Integration Time (sec): 7.000000E0
Scans to average: 10
Electric dark correction enabled: true
Nonlinearity correction enabled: false
Boxcar width: 0
XAxis mode: Raman Shifts
Number of Pixels in Spectrum: 1044
>>>>>Begin Spectral Data<<<<<
46.04893	0.275
50.45542	-1.825
54.85868	-1.325
59.25871	-0.725
63.6555	82.075
68.04907	85.575
72.43941	86.375
76.82654	91.875
81.21044	94.675
85.59113	94.675
89.96862	103.975
94.34289	101.075
98.71396	106.975
103.08183	112.975
107.4465	113.375
111.80798	114.075
116.16626	124.575
120.52136	127.775
124.87327	133.275
129.222	147.175
133.56755	152.275
137.90993	165.175
142.24913	181.775
146.58517	211.175
150.91804	246.275
155.24774	300.975
159.57429	375.075
163.89768	478.575
168.21792	645.275
172.53501	891.175
176.84895	1230.375
181.15975	1738.875
185.46741	2445.975
189.77193	3373.375
194.07331	4507.175
198.37157	5809.675
202.6667	7175.075
206.9587	8532.475
211.24758	9870.775
215.53334	11251.775
219.81599	12650.575
224.09553	14256.475
228.37195	16005.875
232.64527	17930.175
236.91549	19846.775
241.18261	21812.175
245.44663	23588.175
249.70755	25152.975
253.96539	26565.075
258.22014	27754.175
262.4718	28751.875
266.72039	29527.475
270.96589	29934.475
275.20832	29987.175
279.44768	29873.775
283.68397	29644.975
287.91719	29398.175
292.14735	29322.275
296.37445	29393.775
300.59849	29570.775
304.81948	29777.375
309.03742	29786.975
313.25231	29530.875
317.46415	28946.775
321.67296	28222.775
325.87872	27547.775
330.08145	27202.975
334.28114	27075.075
338.47781	27241.975
342.67145	27550.575
346.86207	27954.175
351.04966	28511.775
355.23424	29080.275
359.4158	29643.875
363.59435	30000.875
367.76989	30220.175
371.94243	30358.975
376.11196	30521.975
380.27849	30604.775
384.44203	30745.075
388.60257	30926.175
392.76012	31270.875
396.91468	31707.375
401.06626	32241.675
405.21485	32601.075
409.36047	32497.275
413.50311	32062.175
417.64277	31819.975
421.77947	31802.575
425.9132	31924.175
430.04396	32067.475
434.17176	32328.575
438.2966	32625.675
442.41849	33369.175
446.53742	34518.275
450.6534	35901.375
454.76644	36813.375
458.87653	37079.975
462.98368	36744.875
467.08789	36060.775
471.18916	35418.475
475.2875	34932.475
479.38291	34755.875
483.4754	34653.575
487.56496	34226.975
491.6516	33568.275
495.73531	32779.675
499.81612	32267.675
503.89401	32150.075
507.96899	32214.675
512.04106	32069.475
516.11023	31718.175
520.1765	31355.975
524.23987	31088.175
528.30034	30812.775
532.35792	30671.675
536.41261	30288.075
540.46441	29844.575
544.51333	29756.475
548.55936	30143.375
552.60252	30912.875
556.64279	31831.375
560.6802	32668.175
564.71473	33231.775
568.7464	34105.375
572.7752	35328.375
576.80114	36206.775
580.82422	36952.875
584.84444	38099.275
588.86181	39620.375
592.87633	40993.175
596.888	41002.475
600.89682	39469.175
604.9028	38981.975
608.90594	41167.375
612.90624	43771.075
616.90371	41006.575
620.89834	34432.675
624.89015	31478.675
628.87913	31131.975
632.86528	31203.675
636.84862	31002.975
640.82913	30288.175
644.80683	29485.175
648.78172	28938.375
652.75379	28885.075
656.72306	29249.675
660.68952	29775.975
664.65319	29547.275
668.61405	29015.175
672.57211	28853.275
676.52738	28975.275
680.47986	28920.975
684.42955	28684.175
688.37646	28510.575
692.32058	28750.675
696.26192	29222.475
700.20048	29707.075
704.13626	30003.475
708.06928	29959.075
711.99952	29788.375
715.927	29821.275
719.85171	30042.175
723.77365	29927.075
727.69284	29452.475
731.60928	29080.775
735.52295	28926.975
739.43388	28930.175
743.34206	29038.375
747.24749	29236.675
751.15017	29554.575
755.05012	30187.175
758.94733	31164.775
762.8418	32747.275
766.73354	35151.075
770.62254	37265.875
774.50882	37506.875
778.39237	35729.275
782.27321	33169.475
786.15132	31027.275
790.02671	29810.975
793.89938	29189.175
797.76935	28923.375
801.6366	28902.075
805.50115	28848.775
809.36299	28752.775
813.22213	28513.275
817.07857	28441.875
820.93231	28308.075
824.78336	28180.975
828.63172	28079.375
832.47738	28005.875
836.32036	28151.675
840.16066	28320.875
843.99827	28448.375
847.8332	28318.375
851.66546	28176.975
855.49504	28082.175
859.32195	28062.375
863.1462	27934.375
866.96777	27773.675
870.78668	27668.375
874.60293	27643.775
878.41652	27662.375
882.22745	27739.375
886.03573	27859.975
889.84136	27854.775
893.64433	27680.775
897.44466	27539.475
901.24235	27447.275
905.0374	27374.675
908.8298	27379.375
912.61957	27510.875
916.40671	27852.275
920.19121	28376.675
923.97308	28838.975
927.75233	28889.575
931.52895	28628.575
935.30295	28164.575
939.07433	27624.275
942.84309	27217.675
946.60924	27045.375
950.37278	26990.775
954.13371	26861.475
957.89203	26775.075
961.64774	26744.675
965.40086	26741.375
969.15137	26653.275
972.89929	26585.875
976.64461	26492.975
980.38733	26547.675
984.12747	26652.575
987.86502	26899.975
991.59999	27284.875
995.33237	27809.375
999.06217	28722.275
1002.78939	29675.475
1006.51404	30323.175
1010.23611	30691.375
1013.95561	30885.075
1017.67255	30859.075
1021.38692	30432.375
1025.09872	30026.775
1028.80796	30192.775
1032.51465	31142.275
1036.21877	32183.775
1039.92035	32482.575
1043.61937	32097.875
1047.31584	31289.075
1051.00976	30376.275
1054.70114	29862.675
1058.38998	29744.175
1062.07627	29839.675
1065.76003	30015.775
1069.44126	30248.175
1073.11995	30593.475
1076.79611	30983.775
1080.46974	31215.375
1084.14085	31499.875
1087.80943	31942.075
1091.47549	32215.175
1095.13903	32248.175
1098.80005	31822.875
1102.45857	31124.675
1106.11456	30545.575
1109.76805	30341.075
1113.41903	30381.775
1117.06751	30611.275
1120.71348	30896.475
1124.35696	31259.875
1127.99793	31628.875
1131.63641	31840.375
1135.2724	31734.475
1138.90589	31635.975
1142.5369	31700.475
1146.16542	32023.475
1149.79145	32461.375
1153.415	32920.275
1157.03607	33641.875
1160.65467	34931.475
1164.27079	36850.875
1167.88443	39130.975
1171.49561	41564.275
1175.10432	44494.875
1178.71056	48354.275
1182.31434	51799.475
1185.91565	53209.575
1189.51451	52515.675
1193.11091	50682.075
1196.70485	48670.175
1200.29634	46940.175
1203.88538	46044.675
1207.47197	45508.975
1211.05612	44992.275
1214.63782	44042.275
1218.21708	42832.975
1221.79391	41828.575
1225.36829	41142.775
1228.94024	40288.375
1232.50976	39244.875
1236.07685	38413.875
1239.6415	38008.575
1243.20374	37957.575
1246.76355	38409.075
1250.32093	39223.975
1253.8759	40201.875
1257.42845	41427.375
1260.97859	42549.275
1264.52631	43739.875
1268.07163	45175.975
1271.61453	46681.975
1275.15503	48315.475
1278.69312	50083.375
1282.22882	51864.075
1285.76211	53876.875
1289.29301	56310.275
1292.82151	59489.975
1296.34761	63358.575
1299.87133	68015.475
1303.39266	72751.275
1306.9116	77078.375
1310.42815	80174.275
1313.94233	81457.975
1317.45412	80702.675
1320.96354	78910.975
1324.47058	77055.075
1327.97525	75589.275
1331.47754	74452.475
1334.97747	73470.375
1338.47502	72321.275
1341.97022	70529.275
1345.46305	68501.375
1348.95352	67043.975
1352.44163	66839.575
1355.92738	68800.875
1359.41078	72278.475
1362.89183	75065.675
1366.37053	74051.175
1369.84688	68090.275
1373.32088	60413.975
1376.79254	55051.975
1380.26186	53514.275
1383.72883	54095.375
1387.19347	54568.275
1390.65578	54307.875
1394.11575	54424.775
1397.57339	55375.375
1401.0287	56890.775
1404.48168	58044.075
1407.93234	58029.575
1411.38068	56631.875
1414.82669	54182.175
1418.27039	51301.175
1421.71177	48381.475
1425.15083	46081.775
1428.58758	44906.475
1432.02203	45274.675
1435.45416	46796.475
1438.88399	48679.775
1442.31151	50270.375
1445.73673	51360.575
1449.15965	52033.975
1452.58027	52394.675
1455.9986	52101.275
1459.41463	52126.175
1462.82837	52673.675
1466.23982	53659.975
1469.64898	54699.875
1473.05586	55319.675
1476.46045	55520.975
1479.86276	55230.975
1483.26279	54536.175
1486.66054	53919.375
1490.05602	53889.175
1493.44922	54066.175
1496.84016	54153.675
1500.22882	54520.975
1503.61521	55232.475
1506.99934	56477.475
1510.38121	57719.975
1513.76081	58228.775
1517.13816	57435.175
1520.51324	55950.675
1523.88607	54791.575
1527.25665	54513.475
1530.62498	54746.275
1533.99105	54838.275
1537.35488	54412.775
1540.71647	53258.075
1544.07581	51642.875
1547.4329	49910.175
1550.78776	48472.975
1554.14038	47511.475
1557.49077	46898.675
1560.83892	46457.875
1564.18484	46295.575
1567.52853	46482.275
1570.86999	47003.575
1574.20922	48049.375
1577.54624	49205.875
1580.88103	50053.175
1584.2136	51197.075
1587.54395	53557.575
1590.87208	57230.175
1594.19801	61239.575
1597.52172	64461.775
1600.84321	64806.675
1604.16251	61044.075
1607.47959	54907.475
1610.79447	48729.375
1614.10715	43623.275
1617.41763	39948.875
1620.7259	37770.975
1624.03199	36915.975
1627.33587	37301.975
1630.63757	38875.975
1633.93707	41951.375
1637.23439	46665.375
1640.52951	53561.175
1643.82246	61568.075
1647.11321	67835.175
1650.40179	68574.975
1653.68819	62606.775
1656.97241	53075.475
1660.25446	44076.275
1663.53433	37670.475
1666.81203	33674.875
1670.08756	31170.775
1673.36092	29637.875
1676.63211	28611.275
1679.90115	27968.675
1683.16801	27464.775
1686.43272	27108.875
1689.69527	26831.775
1692.95567	26581.275
1696.2139	26474.675
1699.46999	26368.375
1702.72392	26256.075
1705.97571	26158.975
1709.22535	26057.975
1712.47284	26038.175
1715.71819	25964.275
1718.96139	25869.175
1722.20246	25782.775
1725.44139	25704.175
1728.67818	25530.875
1731.91284	25392.675
1735.14537	25185.175
1738.37576	25099.075
1741.60403	25003.475
1744.83017	24913.975
1748.05418	24861.175
1751.27607	24829.975
1754.49584	24817.175
1757.71349	24770.475
1760.92903	24761.675
1764.14244	24741.375
1767.35375	24728.775
1770.56294	24668.475
1773.77002	24671.475
1776.97499	24605.975
1780.17785	24524.875
1783.37861	24493.175
1786.57727	24451.875
1789.77382	24407.375
1792.96828	24383.075
1796.16064	24337.575
1799.3509	24317.075
1802.53907	24247.075
1805.72514	24167.475
1808.90913	24101.375
1812.09102	24026.475
1815.27083	23979.075
1818.44856	23980.475
1821.6242	23922.175
1824.79776	23891.675
1827.96924	23865.275
1831.13864	23897.175
1834.30597	23881.175
1837.47122	23847.875
1840.6344	23804.075
1843.7955	23815.875
1846.95454	23816.475
1850.11151	23802.675
1853.26642	23799.475
1856.41926	23804.575
1859.57004	23810.875
1862.71876	23778.175
1865.86542	23726.875
1869.01003	23737.675
1872.15258	23677.875
1875.29308	23699.175
1878.43152	23676.675
1881.56792	23669.075
1884.70227	23672.475
1887.83457	23671.575
1890.96482	23648.875
1894.09304	23584.775
1897.21921	23576.675
1900.34335	23600.475
1903.46544	23596.575
1906.58551	23554.575
1909.70353	23561.775
1912.81953	23500.875
1915.93349	23463.975
1919.04543	23402.275
1922.15534	23381.475
1925.26322	23300.375
1928.36908	23269.975
1931.47292	23236.975
1934.57473	23175.775
1937.67453	23112.375
1940.77232	23058.375
1943.86808	23012.275
1946.96184	22938.075
1950.05358	22893.075
1953.14331	22858.775
1956.23103	22744.975
1959.31675	22691.975
1962.40046	22633.975
1965.48217	22573.175
1968.56188	22499.175
1971.63959	22452.975
1974.7153	22370.175
1977.78901	22318.975
1980.86073	22245.475
1983.93046	22207.175
1986.99819	22100.975
1990.06394	22092.275
1993.1277	22006.175
1996.18947	21944.775
1999.24925	21916.675
2002.30706	21848.375
2005.36288	21788.475
2008.41672	21702.875
2011.46859	21708.275
2014.51848	21631.775
2017.56639	21571.275
2020.61233	21529.175
2023.6563	21462.075
2026.6983	21446.175
2029.73833	21392.475
2032.7764	21371.675
2035.8125	21369.375
2038.84664	21283.175
2041.87881	21285.475
2044.90903	21269.475
2047.93729	21245.975
2050.96359	21208.975
2053.98794	21194.975
2057.01034	21180.175
2060.03078	21175.275
2063.04927	21140.275
2066.06582	21162.575
2069.08042	21117.775
2072.09307	21103.475
2075.10378	21067.675
2078.11255	21086.175
2081.11938	21055.975
2084.12426	21036.575
2087.12722	21082.375
2090.12824	21039.875
2093.12732	21011.675
2096.12447	21017.775
2099.11969	21075.175
2102.11299	21068.375
2105.10435	21047.375
2108.09379	21040.575
2111.08131	21060.675
2114.0669	21100.575
2117.05057	21139.675
2120.03233	21105.275
2123.01216	21140.775
2125.99008	21129.275
2128.96609	21176.775
2131.94018	21180.275
2134.91236	21205.075
2137.88263	21229.975
2140.851	21242.375
2143.81746	21280.775
2146.78201	21295.675
2149.74466	21244.475
2152.7054	21208.175
2155.66425	21220.675
2158.6212	21223.275
2161.57625	21222.875
2164.52941	21217.675
2167.48067	21229.575
2170.43004	21198.375
2173.37752	21208.075
2176.32311	21205.875
2179.26681	21217.175
2182.20863	21209.175
2185.14856	21252.175
2188.08661	21244.175
2191.02278	21322.275
2193.95707	21312.775
2196.88948	21289.175
2199.82001	21208.075
2202.74867	21218.975
2205.67545	21230.475
2208.60037	21193.175
2211.52341	21213.875
2214.44458	21211.475
2217.36388	21159.475
2220.28132	21112.075
2223.1969	21062.775
2226.11061	21072.675
2229.02246	21075.175
2231.93245	20981.175
2234.84058	20967.175
2237.74686	20937.875
2240.65128	20928.175
2243.55385	20894.275
2246.45456	20875.775
2249.35343	20826.775
2252.25044	20783.775
2255.14561	20765.375
2258.03893	20709.475
2260.93041	20701.575
2263.82004	20648.075
2266.70783	20613.975
2269.59378	20536.475
2272.4779	20514.875
2275.36017	20459.575
2278.24061	20444.875
2281.11922	20408.675
2283.996	20382.775
2286.87094	20363.075
2289.74405	20356.275
2292.61534	20335.375
2295.4848	20385.675
2298.35243	20370.575
2301.21824	20430.775
2304.08223	20414.475
2306.94439	20418.775
2309.80474	20485.575
2312.66327	20489.675
2315.51999	20446.575
2318.37489	20432.075
2321.22797	20386.375
2324.07925	20374.875
2326.92871	20370.375
2329.77637	20339.075
2332.62222	20309.175
2335.46626	20339.075
2338.3085	20354.075
2341.14893	20308.675
2343.98756	20351.975
2346.8244	20358.475
2349.65943	20339.575
2352.49267	20327.075
2355.32411	20369.175
2358.15376	20307.975
2360.98161	20317.875
2363.80768	20268.075
2366.63195	20321.575
2369.45444	20252.475
2372.27514	20227.775
2375.09405	20208.975
2377.91118	20163.275
2380.72652	20097.875
2383.54009	20099.475
2386.35187	20056.275
2389.16188	20028.875
2391.97011	20008.475
2394.77657	19988.275
2397.58125	19959.075
2400.38416	19941.875
2403.18529	19934.975
2405.98466	19888.975
2408.78226	19870.075
2411.57809	19856.875
2414.37216	19866.075
2417.16446	19827.975
2419.955	19796.875
2422.74378	19801.875
2425.5308	19737.875
2428.31606	19773.675
2431.09956	19737.575
2433.88131	19763.575
2436.6613	19789.975
2439.43954	19784.675
2442.21603	19769.575
2444.99077	19732.675
2447.76377	19777.475
2450.53501	19754.275
2453.30451	19740.375
2456.07226	19734.675
2458.83827	19740.475
2461.60254	19750.475
2464.36507	19751.775
2467.12586	19736.975
2469.88492	19794.775
2472.64224	19834.275
2475.39782	19831.775
2478.15167	19864.775
2480.90379	19838.075
2483.65417	19861.175
2486.40283	19881.475
2489.14976	19920.875
2491.89497	19910.575
2494.63845	19948.775
2497.3802	19942.475
2500.12024	19937.375
2502.85855	19938.975
2505.59514	19875.175
2508.33002	19915.975
2511.06318	19864.275
2513.79462	19870.475
2516.52435	19851.675
2519.25237	19886.375
2521.97867	19855.075
2524.70327	19857.875
2527.42616	19852.475
2530.14734	19853.875
2532.86681	19862.075
2535.58458	19863.275
2538.30065	19876.975
2541.01501	19847.175
2543.72768	19810.775
2546.43864	19812.875
2549.14791	19832.575
2551.85548	19827.875
2554.56136	19825.475
2557.26554	19775.775
2559.96803	19780.875
2562.66883	19768.575
2565.36794	19746.175
2568.06536	19741.875
2570.7611	19741.875
2573.45514	19754.075
2576.14751	19747.175
2578.83819	19741.975
2581.52719	19730.575
2584.21451	19758.875
2586.90015	19784.175
2589.58411	19811.575
2592.2664	19770.475
2594.94701	19770.475
2597.62594	19717.175
2600.30321	19731.575
2602.9788	19741.575
2605.65273	19697.675
2608.32498	19771.975
2610.99557	19753.975
2613.66449	19756.175
2616.33175	19795.975
2618.99734	19810.075
2621.66128	19769.075
2624.32355	19741.875
2626.98416	19750.275
2629.64311	19759.975
2632.30041	19736.775
2634.95605	19741.275
2637.61004	19716.775
2640.26238	19750.575
2642.91306	19700.675
2645.56209	19668.775
2648.20948	19684.075
2650.85521	19729.675
2653.4993	19754.475
2656.14175	19733.575
2658.78255	19724.975
2661.42171	19792.175
2664.05923	19852.575
2666.6951	19824.575
2669.32934	19825.575
2671.96194	19863.275
2674.59291	19859.375
2677.22224	19888.575
2679.84993	19866.475
2682.476	19880.775
2685.10043	19852.875
2687.72324	19784.175
2690.34441	19817.375
2692.96396	19789.375
2695.58188	19823.175
2698.19818	19813.475
2700.81285	19824.275
2703.4259	19862.475
2706.03733	19886.575
2708.64714	19881.975
2711.25533	19906.175
2713.86191	19909.475
2716.46687	19943.175
2719.07021	19955.975
2721.67194	19988.175
2724.27206	20004.575
2726.87057	20081.875
2729.46747	20090.675
2732.06276	20095.075
2734.65644	20086.475
2737.24852	20049.075
2739.83899	20062.875
2742.42786	20079.675
2745.01513	20045.975
2747.60079	19999.275
2750.18486	20029.475
2752.76733	19999.275
2755.3482	20023.975
2757.92747	20048.575
2760.50515	20011.575
2763.08123	20044.575
2765.65573	20059.975
2768.22863	20071.775
2770.79994	20075.875
2773.36967	20083.575
2775.9378	20062.175
2778.50435	20019.175
2781.06932	20092.575
2783.6327	20101.675
2786.1945	20107.475
2788.75471	20121.875
2791.31335	20088.475
2793.87041	20028.575
2796.42589	20021.775
2798.97979	19993.175
2801.53212	19990.575
2804.08288	19968.875
2806.63206	19874.175
2809.17967	19860.375
2811.72571	19838.075
2814.27018	19839.275
2816.81308	19784.975
2819.35442	19748.275
2821.89419	19723.475
2824.43239	19708.575
2826.96904	19748.175
2829.50412	19740.175
2832.03763	19692.275
2834.56959	19711.375
2837.1	19676.375
2839.62884	19725.475
2842.15613	19688.575
2844.68186	19754.875
2847.20604	19769.875
2849.72867	19793.675
2852.24974	19778.975
2854.76927	19797.275
2857.28724	19770.475
2859.80367	19775.075
2862.31855	19738.375
2864.83189	19748.975
2867.34368	19702.275
2869.85393	19682.075
2872.36264	19688.775
2874.8698	19645.075
2877.37543	19665.375
2879.87952	19677.775
2882.38207	19691.575
2884.88308	19682.975
2887.38256	19713.275
2889.88051	19700.075
2892.37692	19711.675
2894.8718	19741.275
2897.36515	19758.475
2899.85698	19792.575
2902.34727	19832.675
2904.83604	19844.275
2907.32328	19874.575
2909.809	19868.975
2912.29319	19885.575
2914.77587	19880.075
2917.25702	19881.275
2919.73665	19889.175
2922.21476	19873.375
2924.69136	19856.675
2927.16644	19861.875
2929.64	19825.675
2932.11205	19834.075
2934.58258	19786.275
2937.05161	19811.175
2939.51912	19773.475
2941.98513	19750.675
2944.44962	19722.775
2946.91261	19674.175
2949.37409	19714.075
2951.83407	19676.975
2954.29254	19691.275
2956.74951	19668.675
2959.20498	19657.875
2961.65895	19639.475
2964.11142	19644.275
2966.56239	19600.575
2969.01186	19615.475
2971.45984	19564.175
2973.90632	19601.175
2976.35131	19588.975
2978.7948	19552.675
2981.23681	19456.275
2983.67732	19447.675
2986.11635	19390.375
2988.55388	19340.675
2990.98993	19311.775
2993.4245	19277.175
2995.85758	19227.675
2998.28917	19128.775
3000.71928	19168.675
3003.14791	19139.275
3005.57506	19095.175
3008.00073	19073.975
3010.42493	18950.775
3012.84764	19004.275
3015.26888	19011.175
3017.68865	18956.875
3020.10694	18941.975
3022.52376	18925.375
3024.9391	18906.275
3027.35298	18874.975
3029.76539	18835.875
3032.17632	18845.675
3034.5858	18814.875
3036.9938	18813.775
3039.40034	18815.675
3041.80542	18853.675
3044.20903	18807.875
3046.61118	18825.975
3049.01187	18788.775
3051.4111	18750.275
3053.80888	18718.175
3056.20519	18697.175
3058.60005	18682.675
3060.99345	18631.375
3063.3854	18611.675
3065.7759	18539.875
3068.16494	18441.475
3070.55254	18400.775
3072.93868	18372.575
3075.32338	18331.375
3077.70662	18298.775
3080.08842	18279.975
3082.46878	18259.475
3084.84769	18237.675
3087.22515	18231.775
3089.60118	18247.175
3091.97576	18255.875
3094.3489	18204.075
3096.72061	18204.775
3099.09087	18195.875
3101.4597	18184.975
3103.82709	18179.575
3106.19305	18185.575
3108.55757	18157.475
3110.92066	18129.175
3113.28232	18104.275
3115.64255	18081.775
3118.00134	18072.375
3120.35871	18049.475
3122.71466	17999.975
3125.06917	17921.575
3127.42226	17899.575
