Data from AgNPs_FTO_APTES_UA_5uM_CRN_20uM_R6G_10uM_NaF_0.1M_Addition_RamanShift__32__13-40-16-799.txt Node

Date: Mon Feb 07 13:40:16 GMT 2022
User: TCL
Spectrometer: QEP01345
Trigger mode: 4
Integration Time (sec): 7.000000E0
Scans to average: 10
Electric dark correction enabled: true
Nonlinearity correction enabled: false
Boxcar width: 0
XAxis mode: Raman Shifts
Number of Pixels in Spectrum: 1044
>>>>>Begin Spectral Data<<<<<
46.04893	-0.675
50.45542	-0.275
54.85868	-0.975
59.25871	0.225
63.6555	43.625
68.04907	46.725
72.43941	51.925
76.82654	53.325
81.21044	52.725
85.59113	54.325
89.96862	60.525
94.34289	57.725
98.71396	65.125
103.08183	68.125
107.4465	67.225
111.80798	70.225
116.16626	70.425
120.52136	72.125
124.87327	77.125
129.222	80.225
133.56755	84.425
137.90993	93.925
142.24913	100.425
146.58517	115.725
150.91804	128.225
155.24774	156.725
159.57429	195.625
163.89768	256.125
168.21792	341.825
172.53501	461.225
176.84895	635.325
181.15975	898.125
185.46741	1249.625
189.77193	1720.625
194.07331	2308.825
198.37157	2985.925
202.6667	3670.425
206.9587	4376.425
211.24758	5054.525
215.53334	5827.625
219.81599	6666.725
224.09553	7647.125
228.37195	8751.825
232.64527	9920.725
236.91549	11060.325
241.18261	12063.025
245.44663	12861.025
249.70755	13419.825
253.96539	13864.325
258.22014	14268.725
262.4718	14694.425
266.72039	15051.325
270.96589	15308.125
275.20832	15393.425
279.44768	15276.325
283.68397	15176.325
287.91719	15143.425
292.14735	15332.425
296.37445	15788.425
300.59849	16532.925
304.81948	17501.025
309.03742	18151.625
313.25231	17983.725
317.46415	16928.125
321.67296	15260.025
325.87872	13844.525
330.08145	13081.525
334.28114	12964.225
338.47781	13193.725
342.67145	13678.425
346.86207	14396.325
351.04966	15493.225
355.23424	16704.425
359.4158	17615.725
363.59435	17932.725
367.76989	17921.325
371.94243	17718.725
376.11196	17467.725
380.27849	17238.225
384.44203	16941.225
388.60257	16518.725
392.76012	16375.725
396.91468	16552.425
401.06626	17135.825
405.21485	17565.725
409.36047	17155.425
413.50311	15923.325
417.64277	14747.025
421.77947	14104.525
425.9132	13823.525
430.04396	13749.025
434.17176	13800.025
438.2966	13935.925
442.41849	14281.825
446.53742	14659.225
450.6534	15143.925
454.76644	15410.525
458.87653	15399.725
462.98368	15241.625
467.08789	14966.825
471.18916	14615.325
475.2875	14219.325
479.38291	13885.425
483.4754	13560.925
487.56496	13344.425
491.6516	13200.925
495.73531	13144.425
499.81612	13261.325
503.89401	13513.725
507.96899	13733.725
512.04106	13994.425
516.11023	14213.425
520.1765	14375.425
524.23987	14279.525
528.30034	13877.925
532.35792	13453.125
536.41261	13029.725
540.46441	12628.125
544.51333	12443.825
548.55936	12641.125
552.60252	13104.025
556.64279	13670.825
560.6802	13938.725
564.71473	14230.325
568.7464	15079.725
572.7752	15690.525
576.80114	15167.125
580.82422	14369.325
584.84444	14005.025
588.86181	13767.725
592.87633	13665.425
596.888	13775.725
600.89682	14417.025
604.9028	16739.425
608.90594	22956.525
612.90624	31599.525
616.90371	30604.725
620.89834	19466.525
624.89015	14059.225
628.87913	13034.025
632.86528	13156.725
636.84862	13547.125
640.82913	13297.625
644.80683	12473.525
648.78172	11907.725
652.75379	11943.725
656.72306	12712.625
660.68952	13656.625
664.65319	13504.525
668.61405	12548.525
672.57211	12040.825
676.52738	11964.225
680.47986	11955.825
684.42955	11820.925
688.37646	11701.525
692.32058	11732.325
696.26192	11887.025
700.20048	12120.425
704.13626	12328.625
708.06928	12336.625
711.99952	12225.325
715.927	12131.025
719.85171	12155.025
723.77365	12091.525
727.69284	11928.625
731.60928	11717.625
735.52295	11647.325
739.43388	11696.925
743.34206	11777.525
747.24749	11842.125
751.15017	12027.025
755.05012	12404.425
758.94733	13281.925
762.8418	15424.925
766.73354	19235.525
770.62254	23173.125
774.50882	24998.325
778.39237	23551.925
782.27321	19563.425
786.15132	15652.825
790.02671	13372.525
793.89938	12396.425
797.76935	11934.225
801.6366	11711.025
805.50115	11585.225
809.36299	11496.625
813.22213	11404.325
817.07857	11382.425
820.93231	11337.525
824.78336	11414.025
828.63172	11477.425
832.47738	11498.325
836.32036	11464.125
840.16066	11358.825
843.99827	11242.625
847.8332	11183.725
851.66546	11162.225
855.49504	11155.125
859.32195	11100.325
863.1462	11022.625
866.96777	10931.325
870.78668	10911.925
874.60293	10909.125
878.41652	10953.225
882.22745	11042.625
886.03573	11135.825
889.84136	11084.225
893.64433	11010.725
897.44466	10981.025
901.24235	10964.425
905.0374	10952.425
908.8298	10899.225
912.61957	10925.925
916.40671	11032.125
920.19121	11183.925
923.97308	11355.325
927.75233	11422.125
931.52895	11572.925
935.30295	11368.825
939.07433	10891.925
942.84309	10452.825
946.60924	10196.225
950.37278	10048.225
954.13371	9996.425
957.89203	9919.925
961.64774	9915.725
965.40086	9865.025
969.15137	9840.225
972.89929	9808.425
976.64461	9781.525
980.38733	9775.825
984.12747	9754.125
987.86502	9811.525
991.59999	9879.025
995.33237	10017.625
999.06217	10234.225
1002.78939	10539.325
1006.51404	10881.525
1010.23611	11246.925
1013.95561	11456.425
1017.67255	11373.225
1021.38692	11110.625
1025.09872	10893.725
1028.80796	10739.125
1032.51465	10756.125
1036.21877	10902.625
1039.92035	11097.025
1043.61937	11192.425
1047.31584	11199.625
1051.00976	11184.925
1054.70114	11194.725
1058.38998	11224.725
1062.07627	11371.225
1065.76003	11492.025
1069.44126	11637.325
1073.11995	11794.525
1076.79611	11983.725
1080.46974	12235.625
1084.14085	12637.425
1087.80943	13194.325
1091.47549	13491.625
1095.13903	13203.725
1098.80005	12570.525
1102.45857	11973.525
1106.11456	11644.725
1109.76805	11655.525
1113.41903	11945.725
1117.06751	12507.525
1120.71348	13290.125
1124.35696	14136.425
1127.99793	14927.925
1131.63641	14860.425
1135.2724	13901.725
1138.90589	12966.825
1142.5369	12383.825
1146.16542	12030.125
1149.79145	11862.025
1153.415	11854.625
1157.03607	12069.025
1160.65467	12448.025
1164.27079	13108.125
1167.88443	14109.325
1171.49561	15778.525
1175.10432	18520.225
1178.71056	22150.425
1182.31434	24453.025
1185.91565	24701.125
1189.51451	23661.025
1193.11091	21766.425
1196.70485	19595.825
1200.29634	18037.925
1203.88538	16961.425
1207.47197	15593.325
1211.05612	14396.725
1214.63782	13690.525
1218.21708	13450.225
1221.79391	13452.125
1225.36829	13562.325
1228.94024	13726.625
1232.50976	13839.025
1236.07685	13909.625
1239.6415	13884.525
1243.20374	13845.625
1246.76355	13915.325
1250.32093	14110.525
1253.8759	14514.125
1257.42845	15042.625
1260.97859	15711.425
1264.52631	16368.525
1268.07163	17030.525
1271.61453	17650.125
1275.15503	18122.225
1278.69312	18226.525
1282.22882	18312.025
1285.76211	18729.925
1289.29301	19482.125
1292.82151	20287.825
1296.34761	21089.625
1299.87133	22348.525
1303.39266	24526.425
1306.9116	28046.725
1310.42815	32200.925
1313.94233	34999.125
1317.45412	34568.825
1320.96354	31933.525
1324.47058	28830.025
1327.97525	26147.425
1331.47754	24393.425
1334.97747	23577.825
1338.47502	23476.125
1341.97022	23988.125
1345.46305	24954.425
1348.95352	26657.425
1352.44163	28994.725
1355.92738	32405.925
1359.41078	38108.825
1362.89183	44127.125
1366.37053	43304.425
1369.84688	35800.225
1373.32088	28198.025
1376.79254	23389.625
1380.26186	21087.525
1383.72883	19955.825
1387.19347	19128.425
1390.65578	18239.925
1394.11575	17438.525
1397.57339	17014.825
1401.0287	16996.125
1404.48168	17158.725
1407.93234	17319.025
1411.38068	17391.425
1414.82669	17208.225
1418.27039	16846.425
1421.71177	16323.525
1425.15083	15866.025
1428.58758	15461.425
1432.02203	15445.325
1435.45416	15615.125
1438.88399	15773.825
1442.31151	15766.025
1445.73673	15938.725
1449.15965	16119.425
1452.58027	16139.125
1455.9986	16024.725
1459.41463	16034.625
1462.82837	16261.825
1466.23982	16675.025
1469.64898	17192.425
1473.05586	17508.025
1476.46045	17696.325
1479.86276	18092.825
1483.26279	18651.125
1486.66054	19269.425
1490.05602	20151.025
1493.44922	21313.625
1496.84016	23197.825
1500.22882	26277.925
1503.61521	30380.425
1506.99934	35102.025
1510.38121	39758.225
1513.76081	42454.425
1517.13816	40884.625
1520.51324	35429.425
1523.88607	29507.025
1527.25665	25287.525
1530.62498	22777.225
1533.99105	21235.325
1537.35488	20257.525
1540.71647	19569.025
1544.07581	19183.525
1547.4329	18828.725
1550.78776	18668.525
1554.14038	18635.325
1557.49077	18896.425
1560.83892	19519.725
1564.18484	20383.925
1567.52853	21279.825
1570.86999	21963.625
1574.20922	22294.725
1577.54624	22139.025
1580.88103	20733.925
1584.2136	18829.325
1587.54395	17753.125
1590.87208	17851.625
1594.19801	18892.325
1597.52172	20389.825
1600.84321	20986.325
1604.16251	19979.825
1607.47959	18364.525
1610.79447	16753.725
1614.10715	15210.925
1617.41763	13984.525
1620.7259	13201.725
1624.03199	12802.325
1627.33587	12794.425
1630.63757	13139.425
1633.93707	13935.525
1637.23439	15271.025
1640.52951	17226.225
1643.82246	20065.925
1647.11321	23601.825
1650.40179	26660.025
1653.68819	26505.425
1656.97241	22703.525
1660.25446	17949.325
1663.53433	14448.025
1666.81203	12337.725
1670.08756	11120.225
1673.36092	10417.625
1676.63211	9972.125
1679.90115	9669.925
1683.16801	9452.625
1686.43272	9298.025
1689.69527	9186.525
1692.95567	9105.825
1696.2139	9036.925
1699.46999	8992.925
1702.72392	8953.825
1705.97571	8901.525
1709.22535	8886.825
1712.47284	8874.525
1715.71819	8900.925
1718.96139	8884.825
1722.20246	8893.325
1725.44139	8832.625
1728.67818	8740.925
1731.91284	8620.225
1735.14537	8540.525
1738.37576	8460.225
1741.60403	8381.525
1744.83017	8360.925
1748.05418	8337.725
1751.27607	8306.025
1754.49584	8277.325
1757.71349	8255.625
1760.92903	8230.525
1764.14244	8223.225
1767.35375	8206.425
1770.56294	8147.525
1773.77002	8121.225
1776.97499	8072.725
1780.17785	8035.025
1783.37861	7989.325
1786.57727	7979.725
1789.77382	7951.325
1792.96828	7954.625
1796.16064	7946.725
1799.3509	7947.125
1802.53907	7878.125
1805.72514	7845.625
1808.90913	7817.525
1812.09102	7787.925
1815.27083	7754.525
1818.44856	7744.725
1821.6242	7709.425
1824.79776	7703.225
1827.96924	7692.525
1831.13864	7665.325
1834.30597	7670.825
1837.47122	7654.025
1840.6344	7656.725
1843.7955	7642.325
1846.95454	7629.725
1850.11151	7647.225
1853.26642	7608.025
1856.41926	7625.625
1859.57004	7635.925
1862.71876	7633.025
1865.86542	7627.825
1869.01003	7626.925
1872.15258	7627.825
1875.29308	7631.525
1878.43152	7621.725
1881.56792	7651.725
1884.70227	7662.225
1887.83457	7661.225
1890.96482	7658.225
1894.09304	7670.625
1897.21921	7666.625
1900.34335	7690.825
1903.46544	7696.925
1906.58551	7726.325
1909.70353	7719.625
1912.81953	7721.925
1915.93349	7708.125
1919.04543	7711.425
1922.15534	7699.325
1925.26322	7651.325
1928.36908	7614.025
1931.47292	7581.525
1934.57473	7524.625
1937.67453	7453.025
1940.77232	7384.325
1943.86808	7350.625
1946.96184	7321.325
1950.05358	7251.825
1953.14331	7220.125
1956.23103	7189.725
1959.31675	7160.825
1962.40046	7120.425
1965.48217	7115.125
1968.56188	7096.625
1971.63959	7061.625
1974.7153	7059.225
1977.78901	7046.325
1980.86073	6988.425
1983.93046	6952.125
1986.99819	6939.425
1990.06394	6892.725
1993.1277	6863.825
1996.18947	6834.125
1999.24925	6824.925
2002.30706	6795.725
2005.36288	6760.925
2008.41672	6763.025
2011.46859	6722.325
2014.51848	6714.925
2017.56639	6679.725
2020.61233	6671.225
2023.6563	6642.325
2026.6983	6620.525
2029.73833	6578.125
2032.7764	6584.625
2035.8125	6551.625
2038.84664	6549.525
2041.87881	6515.325
2044.90903	6514.225
2047.93729	6496.025
2050.96359	6492.025
2053.98794	6479.625
2057.01034	6471.925
2060.03078	6458.525
2063.04927	6436.225
2066.06582	6441.425
2069.08042	6433.425
2072.09307	6434.125
2075.10378	6393.325
2078.11255	6401.425
2081.11938	6397.125
2084.12426	6379.525
2087.12722	6372.925
2090.12824	6373.725
2093.12732	6390.625
2096.12447	6360.425
2099.11969	6355.425
2102.11299	6358.925
2105.10435	6354.225
2108.09379	6357.625
2111.08131	6375.925
2114.0669	6377.325
2117.05057	6372.025
2120.03233	6381.925
2123.01216	6387.325
2125.99008	6379.725
2128.96609	6400.225
2131.94018	6406.925
2134.91236	6382.625
2137.88263	6390.425
2140.851	6381.025
2143.81746	6397.625
2146.78201	6382.625
2149.74466	6367.025
2152.7054	6360.625
2155.66425	6346.825
2158.6212	6341.825
2161.57625	6342.225
2164.52941	6300.725
2167.48067	6298.925
2170.43004	6335.825
2173.37752	6295.125
2176.32311	6300.925
2179.26681	6313.525
2182.20863	6296.425
2185.14856	6312.225
2188.08661	6311.525
2191.02278	6295.225
2193.95707	6302.925
2196.88948	6252.325
2199.82001	6254.425
2202.74867	6258.925
2205.67545	6251.525
2208.60037	6233.625
2211.52341	6231.225
2214.44458	6239.125
2217.36388	6202.125
2220.28132	6181.025
2223.1969	6163.725
2226.11061	6149.425
2229.02246	6120.025
2231.93245	6115.825
2234.84058	6086.325
2237.74686	6077.525
2240.65128	6090.025
2243.55385	6066.725
2246.45456	6076.325
2249.35343	6057.125
2252.25044	6072.325
2255.14561	6056.525
2258.03893	6047.325
2260.93041	6060.325
2263.82004	6070.425
2266.70783	6053.325
2269.59378	6019.025
2272.4779	5992.325
2275.36017	5978.225
2278.24061	5959.425
2281.11922	5966.225
2283.996	5933.325
2286.87094	5922.925
2289.74405	5883.425
2292.61534	5890.525
2295.4848	5890.625
2298.35243	5860.425
2301.21824	5864.825
2304.08223	5849.825
2306.94439	5853.125
2309.80474	5857.725
2312.66327	5860.925
2315.51999	5837.125
2318.37489	5850.925
2321.22797	5818.725
2324.07925	5809.025
2326.92871	5803.325
2329.77637	5804.725
2332.62222	5803.625
2335.46626	5788.325
2338.3085	5788.625
2341.14893	5778.625
2343.98756	5780.725
2346.8244	5790.225
2349.65943	5815.525
2352.49267	5822.925
2355.32411	5850.825
2358.15376	5854.325
2360.98161	5894.325
2363.80768	5879.225
2366.63195	5908.925
2369.45444	5914.425
2372.27514	5912.025
2375.09405	5910.825
2377.91118	5874.325
2380.72652	5819.225
2383.54009	5795.425
2386.35187	5762.325
2389.16188	5714.925
2391.97011	5691.525
2394.77657	5660.025
2397.58125	5662.925
2400.38416	5622.625
2403.18529	5623.525
2405.98466	5603.325
2408.78226	5593.825
2411.57809	5569.425
2414.37216	5582.225
2417.16446	5564.125
2419.955	5553.625
2422.74378	5552.525
2425.5308	5540.625
2428.31606	5553.825
2431.09956	5556.225
2433.88131	5543.325
2436.6613	5582.525
2439.43954	5560.325
2442.21603	5561.525
2444.99077	5564.725
2447.76377	5578.225
2450.53501	5563.925
2453.30451	5581.725
2456.07226	5580.825
2458.83827	5570.525
2461.60254	5579.025
2464.36507	5563.625
2467.12586	5576.025
2469.88492	5551.125
2472.64224	5576.825
2475.39782	5592.525
2478.15167	5590.825
2480.90379	5594.025
2483.65417	5617.725
2486.40283	5646.825
2489.14976	5666.625
2491.89497	5676.225
2494.63845	5686.525
2497.3802	5687.825
2500.12024	5675.525
2502.85855	5641.325
2505.59514	5612.925
2508.33002	5590.025
2511.06318	5570.825
2513.79462	5534.625
2516.52435	5498.325
2519.25237	5486.925
2521.97867	5447.525
2524.70327	5449.825
2527.42616	5414.125
2530.14734	5418.525
2532.86681	5424.925
2535.58458	5397.725
2538.30065	5391.725
2541.01501	5401.725
2543.72768	5418.425
2546.43864	5418.425
2549.14791	5415.825
2551.85548	5417.025
2554.56136	5413.225
2557.26554	5394.225
2559.96803	5367.025
2562.66883	5365.125
2565.36794	5358.825
2568.06536	5358.125
2570.7611	5347.025
2573.45514	5342.325
2576.14751	5320.125
2578.83819	5297.925
2581.52719	5311.125
2584.21451	5302.125
2586.90015	5305.025
2589.58411	5286.925
2592.2664	5276.025
2594.94701	5289.425
2597.62594	5288.125
2600.30321	5276.225
2602.9788	5273.325
2605.65273	5265.225
2608.32498	5267.625
2610.99557	5251.325
2613.66449	5280.825
2616.33175	5261.725
2618.99734	5276.425
2621.66128	5264.625
2624.32355	5253.225
2626.98416	5240.525
2629.64311	5237.025
2632.30041	5227.225
2634.95605	5218.125
2637.61004	5221.825
2640.26238	5194.725
2642.91306	5200.925
2645.56209	5180.525
2648.20948	5179.125
2650.85521	5180.325
2653.4993	5184.525
2656.14175	5167.925
2658.78255	5183.125
2661.42171	5186.825
2664.05923	5192.925
2666.6951	5209.825
2669.32934	5219.625
2671.96194	5219.925
2674.59291	5231.425
2677.22224	5236.225
2679.84993	5245.825
2682.476	5233.525
2685.10043	5234.825
2687.72324	5206.125
2690.34441	5221.525
2692.96396	5201.425
2695.58188	5209.225
2698.19818	5206.725
2700.81285	5227.725
2703.4259	5223.025
2706.03733	5261.025
2708.64714	5232.125
2711.25533	5237.725
2713.86191	5229.125
2716.46687	5239.125
2719.07021	5249.225
2721.67194	5247.325
2724.27206	5246.025
2726.87057	5244.525
2729.46747	5233.925
2732.06276	5239.125
2734.65644	5234.025
2737.24852	5224.625
2739.83899	5203.925
2742.42786	5199.825
2745.01513	5189.525
2747.60079	5173.025
2750.18486	5174.625
2752.76733	5166.225
2755.3482	5152.325
2757.92747	5145.625
2760.50515	5141.325
2763.08123	5139.225
2765.65573	5125.725
2768.22863	5127.525
2770.79994	5091.025
2773.36967	5108.725
2775.9378	5122.725
2778.50435	5094.425
2781.06932	5080.125
2783.6327	5108.225
2786.1945	5102.625
2788.75471	5105.725
2791.31335	5095.625
2793.87041	5101.525
2796.42589	5093.225
2798.97979	5104.625
2801.53212	5082.525
2804.08288	5083.025
2806.63206	5073.025
2809.17967	5076.725
2811.72571	5083.825
2814.27018	5082.525
2816.81308	5068.725
2819.35442	5099.025
2821.89419	5085.025
2824.43239	5133.525
2826.96904	5122.325
2829.50412	5135.225
2832.03763	5132.025
2834.56959	5128.725
2837.1	5140.125
2839.62884	5154.425
2842.15613	5184.625
2844.68186	5271.925
2847.20604	5327.425
2849.72867	5373.725
2852.24974	5394.125
2854.76927	5400.425
2857.28724	5412.225
2859.80367	5398.725
2862.31855	5369.225
2864.83189	5343.125
2867.34368	5340.425
2869.85393	5335.525
2872.36264	5346.625
2874.8698	5338.525
2877.37543	5327.125
2879.87952	5307.625
2882.38207	5292.725
2884.88308	5297.025
2887.38256	5293.025
2889.88051	5270.225
2892.37692	5266.325
2894.8718	5258.425
2897.36515	5282.125
2899.85698	5298.125
2902.34727	5304.025
2904.83604	5295.425
2907.32328	5318.725
2909.809	5311.725
2912.29319	5306.225
2914.77587	5301.725
2917.25702	5313.425
2919.73665	5302.625
2922.21476	5297.125
2924.69136	5302.325
2927.16644	5293.125
2929.64	5267.625
2932.11205	5218.825
2934.58258	5210.725
2937.05161	5213.825
2939.51912	5175.425
2941.98513	5143.425
2944.44962	5108.025
2946.91261	5059.425
2949.37409	5043.625
2951.83407	4992.925
2954.29254	4977.125
2956.74951	4972.925
2959.20498	4961.925
2961.65895	4931.425
2964.11142	4946.325
2966.56239	4913.325
2969.01186	4925.025
2971.45984	4894.725
2973.90632	4874.525
2976.35131	4877.825
2978.7948	4853.625
2981.23681	4845.525
2983.67732	4810.425
2986.11635	4821.425
2988.55388	4802.925
2990.98993	4780.325
2993.4245	4759.925
2995.85758	4749.625
2998.28917	4714.725
3000.71928	4738.325
3003.14791	4729.225
3005.57506	4717.225
3008.00073	4716.725
3010.42493	4622.325
3012.84764	4686.925
3015.26888	4687.625
3017.68865	4677.625
3020.10694	4681.625
3022.52376	4662.225
3024.9391	4661.425
3027.35298	4642.625
3029.76539	4640.125
3032.17632	4615.825
3034.5858	4633.625
3036.9938	4607.925
3039.40034	4612.425
3041.80542	4609.425
3044.20903	4596.025
3046.61118	4588.125
3049.01187	4569.225
3051.4111	4569.025
3053.80888	4566.025
3056.20519	4549.925
3058.60005	4529.425
3060.99345	4532.625
3063.3854	4523.925
3065.7759	4513.625
3068.16494	4492.125
3070.55254	4484.025
3072.93868	4480.025
3075.32338	4452.225
3077.70662	4426.725
3080.08842	4417.025
3082.46878	4401.625
3084.84769	4399.425
3087.22515	4388.925
3089.60118	4385.125
3091.97576	4374.625
3094.3489	4374.525
3096.72061	4350.325
3099.09087	4352.125
3101.4597	4335.825
3103.82709	4350.925
3106.19305	4351.025
3108.55757	4351.125
3110.92066	4322.525
3113.28232	4314.325
3115.64255	4333.825
3118.00134	4318.525
3120.35871	4294.125
3122.71466	4302.325
3125.06917	4294.325
3127.42226	4287.325
3129.77393	4282.525
3132.12417	4263.825
3134.47299	4270.825
3136.82039	4278.925
3139.16636	4288.325
3141.51092	4283.125
3143.85406	4274.025
3146.19579	4269.125
3148.53609	4279.625
3150.87499	4305.325
3153.21246	4289.825
3155.54853	4300.925
3157.88318	4301.525
3160.21642	4306.525
3162.54826	4316.025
3164.87868	4302.125
3167.2077	4313.325
3169.5353	4314.925
3171.86151	4314.825
3174.18631	4306.225
3176.5097	4318.925
3178.83169	4307.225
3181.15228	4297.025
3183.47147	4297.725
3185.78926	4294.425
3188.10565	4295.825
3190.42065	4294.525
3192.73424	4293.125
