Data from AgNPs_FTO_APTES_UA_5uM_CRN_20uM_R6G_10uM_NaF_0.1M_Addition_RamanShift__17__13-22-46-779.txt Node

Date: Mon Feb 07 13:22:46 GMT 2022
User: TCL
Spectrometer: QEP01345
Trigger mode: 4
Integration Time (sec): 7.000000E0
Scans to average: 10
Electric dark correction enabled: true
Nonlinearity correction enabled: false
Boxcar width: 0
XAxis mode: Raman Shifts
Number of Pixels in Spectrum: 1044
>>>>>Begin Spectral Data<<<<<
46.04893	-0.225
50.45542	-1.825
54.85868	-1.225
59.25871	0.475
63.6555	81.475
68.04907	83.375
72.43941	88.675
76.82654	88.875
81.21044	94.375
85.59113	94.475
89.96862	100.975
94.34289	100.175
98.71396	105.575
103.08183	111.975
107.4465	115.675
111.80798	118.875
116.16626	121.875
120.52136	129.575
124.87327	134.075
129.222	142.875
133.56755	154.275
137.90993	169.675
142.24913	185.775
146.58517	216.275
150.91804	257.775
155.24774	302.775
159.57429	388.375
163.89768	500.875
168.21792	674.775
172.53501	921.575
176.84895	1292.675
181.15975	1827.275
185.46741	2557.275
189.77193	3528.875
194.07331	4708.075
198.37157	6055.675
202.6667	7448.475
206.9587	8848.875
211.24758	10238.975
215.53334	11601.475
219.81599	13087.875
224.09553	14723.675
228.37195	16510.375
232.64527	18472.075
236.91549	20513.675
241.18261	22583.875
245.44663	24500.975
249.70755	26193.375
253.96539	27685.075
258.22014	28967.975
262.4718	30068.775
266.72039	30863.375
270.96589	31364.275
275.20832	31596.675
279.44768	31636.475
283.68397	31572.875
287.91719	31545.275
292.14735	31628.475
296.37445	31726.175
300.59849	31897.075
304.81948	31941.375
309.03742	31709.875
313.25231	31074.175
317.46415	30138.575
321.67296	29111.275
325.87872	28253.275
330.08145	27721.675
334.28114	27560.775
338.47781	27683.375
342.67145	27983.375
346.86207	28380.175
351.04966	28835.275
355.23424	29381.075
359.4158	29824.075
363.59435	30119.775
367.76989	30291.275
371.94243	30423.475
376.11196	30531.975
380.27849	30668.775
384.44203	30891.875
388.60257	31177.375
392.76012	31528.275
396.91468	31990.475
401.06626	32486.775
405.21485	32764.375
409.36047	32608.175
413.50311	32078.275
417.64277	31694.075
421.77947	31685.475
425.9132	31804.675
430.04396	32021.575
434.17176	32238.975
438.2966	32457.275
442.41849	33061.575
446.53742	33948.775
450.6534	35033.675
454.76644	35850.475
458.87653	36223.875
462.98368	36193.275
467.08789	35951.475
471.18916	35601.475
475.2875	35426.075
479.38291	35537.275
483.4754	35519.775
487.56496	35004.275
491.6516	34137.275
495.73531	33295.075
499.81612	32683.675
503.89401	32653.575
507.96899	32744.075
512.04106	32542.575
516.11023	32188.275
520.1765	31623.375
524.23987	31109.875
528.30034	30705.475
532.35792	30392.975
536.41261	30014.975
540.46441	29813.975
544.51333	29888.175
548.55936	30503.675
552.60252	31458.775
556.64279	32493.075
560.6802	33190.475
564.71473	33767.575
568.7464	34489.575
572.7752	35626.175
576.80114	36558.875
580.82422	37298.775
584.84444	37870.775
588.86181	38274.875
592.87633	38629.775
596.888	38620.775
600.89682	38313.275
604.9028	38988.575
608.90594	41405.775
612.90624	43551.275
616.90371	40262.975
620.89834	33815.975
624.89015	31081.175
628.87913	31029.775
632.86528	31260.975
636.84862	31207.875
640.82913	30609.475
644.80683	29679.075
648.78172	28837.975
652.75379	28529.475
656.72306	28746.075
660.68952	29064.075
664.65319	28974.975
668.61405	28515.575
672.57211	28323.175
676.52738	28336.675
680.47986	28310.175
684.42955	28184.175
688.37646	28102.675
692.32058	28194.875
696.26192	28515.175
700.20048	28890.675
704.13626	29177.875
708.06928	29216.175
711.99952	29073.975
715.927	28941.375
719.85171	28997.475
723.77365	28867.675
727.69284	28513.175
731.60928	28196.375
735.52295	28000.475
739.43388	28026.775
743.34206	28064.175
747.24749	28185.175
751.15017	28575.175
755.05012	29233.375
758.94733	30324.875
762.8418	32158.375
766.73354	34877.575
770.62254	37184.175
774.50882	37290.175
778.39237	35079.275
782.27321	32258.575
786.15132	30059.475
790.02671	28699.375
793.89938	28062.475
797.76935	27791.575
801.6366	27793.175
805.50115	27712.775
809.36299	27615.675
813.22213	27332.175
817.07857	27274.975
820.93231	27157.575
824.78336	26961.375
828.63172	26748.375
832.47738	26593.475
836.32036	26633.275
840.16066	26738.275
843.99827	26840.475
847.8332	26754.875
851.66546	26589.475
855.49504	26513.175
859.32195	26513.475
863.1462	26417.075
866.96777	26281.775
870.78668	26156.775
874.60293	26131.175
878.41652	26098.875
882.22745	26146.075
886.03573	26206.875
889.84136	26247.975
893.64433	26178.875
897.44466	26047.975
901.24235	25906.375
905.0374	25786.875
908.8298	25749.875
912.61957	25891.175
916.40671	26255.375
920.19121	26781.575
923.97308	27150.275
927.75233	27055.075
931.52895	26724.175
935.30295	26255.575
939.07433	25660.475
942.84309	25203.575
946.60924	24942.175
950.37278	24869.975
954.13371	24829.375
957.89203	24784.975
961.64774	24783.675
965.40086	24761.275
969.15137	24644.675
972.89929	24469.375
976.64461	24312.975
980.38733	24277.475
984.12747	24300.775
987.86502	24555.475
991.59999	24869.275
995.33237	25381.675
999.06217	26164.775
1002.78939	27068.475
1006.51404	27623.975
1010.23611	27892.775
1013.95561	28148.275
1017.67255	28168.975
1021.38692	27877.075
1025.09872	27429.675
1028.80796	27436.275
1032.51465	28089.875
1036.21877	28824.675
1039.92035	28953.575
1043.61937	28693.675
1047.31584	28061.075
1051.00976	27463.575
1054.70114	27283.675
1058.38998	27461.375
1062.07627	27815.475
1065.76003	28133.675
1069.44126	28447.875
1073.11995	28800.975
1076.79611	29126.575
1080.46974	29267.175
1084.14085	29445.075
1087.80943	29848.875
1091.47549	30210.575
1095.13903	30397.675
1098.80005	30115.275
1102.45857	29334.075
1106.11456	28639.975
1109.76805	28202.675
1113.41903	28251.775
1117.06751	28408.575
1120.71348	28738.075
1124.35696	29027.475
1127.99793	29424.875
1131.63641	29672.475
1135.2724	29660.275
1138.90589	29614.175
1142.5369	29633.275
1146.16542	29889.375
1149.79145	30264.375
1153.415	30819.675
1157.03607	31582.075
1160.65467	32777.375
1164.27079	34594.575
1167.88443	36886.475
1171.49561	39641.175
1175.10432	43053.675
1178.71056	47061.275
1182.31434	50868.675
1185.91565	52904.475
1189.51451	53110.275
1193.11091	51893.475
1196.70485	49757.975
1200.29634	47399.975
1203.88538	45553.575
1207.47197	44456.475
1211.05612	43748.875
1214.63782	42923.575
1218.21708	41801.375
1221.79391	40737.175
1225.36829	39897.975
1228.94024	39094.375
1232.50976	38075.775
1236.07685	37359.675
1239.6415	37019.475
1243.20374	36943.175
1246.76355	37198.775
1250.32093	37813.075
1253.8759	38833.675
1257.42845	40110.575
1260.97859	41421.975
1264.52631	42729.875
1268.07163	44080.775
1271.61453	45624.475
1275.15503	47296.975
1278.69312	49176.975
1282.22882	51032.975
1285.76211	52823.675
1289.29301	55043.175
1292.82151	57892.675
1296.34761	61482.975
1299.87133	65697.175
1303.39266	69993.175
1306.9116	74079.275
1310.42815	77576.275
1313.94233	79702.975
1317.45412	79938.075
1320.96354	79304.575
1324.47058	78555.475
1327.97525	77986.175
1331.47754	77468.975
1334.97747	77066.975
1338.47502	76688.675
1341.97022	76018.175
1345.46305	74659.475
1348.95352	72563.275
1352.44163	70351.675
1355.92738	69384.675
1359.41078	70063.575
1362.89183	71170.675
1366.37053	69606.675
1369.84688	64589.175
1373.32088	58567.775
1376.79254	54320.875
1380.26186	53052.875
1383.72883	53536.275
1387.19347	54248.575
1390.65578	54597.775
1394.11575	55050.675
1397.57339	56052.375
1401.0287	57480.175
1404.48168	58420.275
1407.93234	58287.775
1411.38068	56658.375
1414.82669	53963.875
1418.27039	50662.975
1421.71177	47523.875
1425.15083	45118.975
1428.58758	43846.775
1432.02203	43942.975
1435.45416	45234.775
1438.88399	47018.275
1442.31151	48714.075
1445.73673	50056.075
1449.15965	51288.075
1452.58027	52266.775
1455.9986	52895.575
1459.41463	53524.875
1462.82837	54360.275
1466.23982	55201.775
1469.64898	55833.675
1473.05586	55905.875
1476.46045	55358.575
1479.86276	54422.575
1483.26279	53344.575
1486.66054	52567.475
1490.05602	52293.775
1493.44922	52313.375
1496.84016	52523.075
1500.22882	53195.875
1503.61521	54449.475
1506.99934	56130.875
1510.38121	57537.575
1513.76081	58148.775
1517.13816	57569.075
1520.51324	56227.475
1523.88607	55085.575
1527.25665	54659.775
1530.62498	54677.575
1533.99105	54749.575
1537.35488	54505.175
1540.71647	53651.875
1544.07581	52227.975
1547.4329	50515.075
1550.78776	49135.375
1554.14038	48185.375
1557.49077	47641.875
1560.83892	47380.175
1564.18484	47263.575
1567.52853	47295.775
1570.86999	47567.975
1574.20922	48568.075
1577.54624	49635.975
1580.88103	50398.975
1584.2136	51362.375
1587.54395	53259.275
1590.87208	56061.775
1594.19801	59410.875
1597.52172	62461.575
1600.84321	62945.975
1604.16251	59762.275
1607.47959	54453.575
1610.79447	48988.775
1614.10715	44109.375
1617.41763	40079.275
1620.7259	37163.275
1624.03199	35606.375
1627.33587	35457.475
1630.63757	36737.775
1633.93707	39738.475
1637.23439	44668.375
1640.52951	51315.175
1643.82246	58635.475
1647.11321	64023.475
1650.40179	64501.575
1653.68819	59644.175
1656.97241	51200.075
1660.25446	42756.575
1663.53433	36104.675
1666.81203	31668.375
1670.08756	28891.775
1673.36092	27119.775
1676.63211	25972.875
1679.90115	25198.775
1683.16801	24599.475
1686.43272	24133.075
1689.69527	23813.475
1692.95567	23577.675
1696.2139	23355.175
1699.46999	23183.275
1702.72392	23045.675
1705.97571	22938.175
1709.22535	22863.375
1712.47284	22749.675
1715.71819	22683.575
1718.96139	22608.775
1722.20246	22505.275
1725.44139	22324.275
1728.67818	22152.975
1731.91284	22014.475
1735.14537	21846.575
1738.37576	21737.175
1741.60403	21636.075
1744.83017	21553.075
1748.05418	21475.875
1751.27607	21419.075
1754.49584	21392.375
1757.71349	21354.475
1760.92903	21310.675
1764.14244	21280.275
1767.35375	21277.375
1770.56294	21204.575
1773.77002	21151.475
1776.97499	21057.175
1780.17785	21025.175
1783.37861	21003.175
1786.57727	20945.175
1789.77382	20873.875
1792.96828	20846.375
1796.16064	20788.775
1799.3509	20749.075
1802.53907	20685.675
1805.72514	20596.475
1808.90913	20561.075
1812.09102	20491.875
1815.27083	20430.875
1818.44856	20402.375
1821.6242	20385.975
1824.79776	20331.675
1827.96924	20339.175
1831.13864	20331.475
1834.30597	20334.275
1837.47122	20326.675
1840.6344	20332.575
1843.7955	20335.975
1846.95454	20313.875
1850.11151	20346.675
1853.26642	20314.375
1856.41926	20300.675
1859.57004	20333.175
1862.71876	20323.675
1865.86542	20268.475
1869.01003	20210.975
1872.15258	20225.775
1875.29308	20187.775
1878.43152	20160.075
1881.56792	20169.075
1884.70227	20158.675
1887.83457	20136.575
1890.96482	20093.275
1894.09304	20047.175
1897.21921	20068.375
1900.34335	20053.975
1903.46544	20024.875
1906.58551	20029.475
1909.70353	20000.775
1912.81953	19957.775
1915.93349	19865.875
1919.04543	19867.075
1922.15534	19758.075
1925.26322	19710.275
1928.36908	19643.275
1931.47292	19612.675
1934.57473	19514.775
1937.67453	19480.575
1940.77232	19399.775
1943.86808	19313.675
1946.96184	19270.275
1950.05358	19201.175
1953.14331	19160.475
1956.23103	19044.375
1959.31675	18969.875
1962.40046	18922.375
1965.48217	18862.475
1968.56188	18813.675
1971.63959	18787.175
1974.7153	18695.675
1977.78901	18651.475
1980.86073	18562.875
1983.93046	18541.275
1986.99819	18431.775
1990.06394	18402.975
1993.1277	18333.175
1996.18947	18282.875
1999.24925	18229.675
2002.30706	18181.375
2005.36288	18100.175
2008.41672	18077.775
2011.46859	18005.275
2014.51848	17973.475
2017.56639	17918.375
2020.61233	17874.575
2023.6563	17849.375
2026.6983	17779.175
2029.73833	17758.575
2032.7764	17717.775
2035.8125	17691.675
2038.84664	17650.375
2041.87881	17642.975
2044.90903	17611.575
2047.93729	17553.475
2050.96359	17565.675
2053.98794	17526.075
2057.01034	17522.275
2060.03078	17527.575
2063.04927	17485.875
2066.06582	17465.675
2069.08042	17458.375
2072.09307	17410.875
2075.10378	17430.875
2078.11255	17400.775
2081.11938	17378.975
2084.12426	17390.775
2087.12722	17362.975
2090.12824	17318.275
2093.12732	17333.275
2096.12447	17324.475
2099.11969	17354.475
2102.11299	17339.075
2105.10435	17338.875
2108.09379	17318.175
2111.08131	17348.575
2114.0669	17348.575
2117.05057	17396.275
2120.03233	17399.275
2123.01216	17390.475
2125.99008	17350.575
2128.96609	17418.975
2131.94018	17396.075
2134.91236	17386.475
2137.88263	17408.475
2140.851	17434.875
2143.81746	17413.175
2146.78201	17405.075
2149.74466	17394.375
2152.7054	17384.075
2155.66425	17365.775
2158.6212	17382.075
2161.57625	17373.675
2164.52941	17349.175
2167.48067	17322.575
2170.43004	17348.875
2173.37752	17326.275
2176.32311	17332.375
2179.26681	17336.675
2182.20863	17327.675
2185.14856	17344.775
2188.08661	17334.475
2191.02278	17366.675
2193.95707	17308.775
2196.88948	17319.375
2199.82001	17273.775
2202.74867	17261.175
2205.67545	17235.875
2208.60037	17249.175
2211.52341	17245.875
2214.44458	17241.275
2217.36388	17197.275
2220.28132	17146.175
2223.1969	17113.975
2226.11061	17128.275
2229.02246	17019.275
2231.93245	16988.075
2234.84058	16929.375
2237.74686	16928.475
2240.65128	16908.575
2243.55385	16899.875
2246.45456	16860.775
2249.35343	16817.375
2252.25044	16794.575
2255.14561	16756.275
2258.03893	16725.875
2260.93041	16683.975
2263.82004	16630.675
2266.70783	16605.375
2269.59378	16529.375
2272.4779	16502.475
2275.36017	16454.275
2278.24061	16417.475
2281.11922	16423.575
2283.996	16349.175
2286.87094	16338.175
2289.74405	16324.775
2292.61534	16307.175
2295.4848	16343.075
2298.35243	16327.975
2301.21824	16315.975
2304.08223	16340.375
2306.94439	16362.775
2309.80474	16357.975
2312.66327	16374.975
2315.51999	16369.675
2318.37489	16332.175
2321.22797	16337.475
2324.07925	16277.575
2326.92871	16275.175
2329.77637	16282.075
2332.62222	16222.775
2335.46626	16257.175
2338.3085	16247.975
2341.14893	16258.475
2343.98756	16259.275
2346.8244	16269.075
2349.65943	16281.075
2352.49267	16287.475
2355.32411	16280.275
2358.15376	16253.875
2360.98161	16254.075
2363.80768	16218.775
2366.63195	16222.575
2369.45444	16198.675
2372.27514	16139.375
2375.09405	16155.275
2377.91118	16117.875
2380.72652	16060.475
2383.54009	16029.275
2386.35187	15989.575
2389.16188	15940.975
2391.97011	15927.075
2394.77657	15880.875
2397.58125	15893.575
2400.38416	15870.275
2403.18529	15823.475
2405.98466	15830.375
2408.78226	15786.875
2411.57809	15749.375
2414.37216	15783.675
2417.16446	15751.075
2419.955	15725.875
2422.74378	15666.775
2425.5308	15661.275
2428.31606	15664.175
2431.09956	15661.575
2433.88131	15650.675
2436.6613	15675.775
2439.43954	15686.775
2442.21603	15671.375
2444.99077	15654.575
2447.76377	15662.875
2450.53501	15632.775
2453.30451	15650.775
2456.07226	15642.275
2458.83827	15635.075
2461.60254	15623.675
2464.36507	15615.075
2467.12586	15601.575
2469.88492	15629.875
2472.64224	15649.375
2475.39782	15677.875
2478.15167	15684.975
2480.90379	15671.875
2483.65417	15666.075
2486.40283	15696.675
2489.14976	15702.475
2491.89497	15742.475
2494.63845	15752.875
2497.3802	15729.875
2500.12024	15749.975
2502.85855	15741.775
2505.59514	15739.175
2508.33002	15697.075
2511.06318	15716.475
2513.79462	15674.975
2516.52435	15677.675
2519.25237	15679.775
2521.97867	15656.275
2524.70327	15647.575
2527.42616	15633.475
2530.14734	15696.975
2532.86681	15668.075
2535.58458	15674.475
2538.30065	15629.875
2541.01501	15645.375
2543.72768	15604.175
2546.43864	15619.475
2549.14791	15618.375
2551.85548	15601.375
2554.56136	15591.075
2557.26554	15546.875
2559.96803	15531.075
2562.66883	15528.875
2565.36794	15479.175
2568.06536	15532.375
2570.7611	15489.475
2573.45514	15489.775
2576.14751	15496.075
2578.83819	15476.575
2581.52719	15479.475
2584.21451	15468.075
2586.90015	15514.775
2589.58411	15522.975
2592.2664	15487.375
2594.94701	15481.675
2597.62594	15504.075
2600.30321	15471.475
2602.9788	15503.675
2605.65273	15477.175
2608.32498	15494.875
2610.99557	15509.675
2613.66449	15507.675
2616.33175	15518.775
2618.99734	15504.675
2621.66128	15536.075
2624.32355	15518.075
2626.98416	15510.375
2629.64311	15566.775
2632.30041	15556.575
2634.95605	15561.275
2637.61004	15541.575
2640.26238	15495.675
2642.91306	15469.575
2645.56209	15473.575
2648.20948	15500.475
2650.85521	15511.575
2653.4993	15508.775
2656.14175	15524.275
2658.78255	15513.775
2661.42171	15547.475
2664.05923	15565.075
2666.6951	15589.075
2669.32934	15573.175
2671.96194	15571.575
2674.59291	15595.275
2677.22224	15568.875
2679.84993	15578.475
2682.476	15574.975
2685.10043	15533.375
2687.72324	15504.575
2690.34441	15495.675
2692.96396	15500.575
2695.58188	15531.875
2698.19818	15496.775
2700.81285	15516.375
2703.4259	15543.075
2706.03733	15572.975
2708.64714	15496.475
2711.25533	15545.775
2713.86191	15502.875
2716.46687	15566.475
2719.07021	15573.275
2721.67194	15610.075
2724.27206	15593.875
2726.87057	15646.175
2729.46747	15656.375
2732.06276	15670.975
2734.65644	15661.875
2737.24852	15658.575
2739.83899	15643.975
2742.42786	15632.275
2745.01513	15588.375
2747.60079	15602.475
2750.18486	15634.975
2752.76733	15604.775
2755.3482	15594.575
2757.92747	15635.775
2760.50515	15607.275
2763.08123	15635.375
2765.65573	15651.875
2768.22863	15649.375
2770.79994	15635.475
2773.36967	15655.575
2775.9378	15638.075
2778.50435	15620.375
2781.06932	15638.675
2783.6327	15639.875
2786.1945	15653.275
2788.75471	15681.875
2791.31335	15632.675
2793.87041	15610.275
2796.42589	15586.075
2798.97979	15570.375
2801.53212	15550.375
2804.08288	15529.375
2806.63206	15473.075
2809.17967	15445.875
2811.72571	15411.275
2814.27018	15410.675
2816.81308	15383.575
2819.35442	15341.475
2821.89419	15358.275
2824.43239	15334.375
2826.96904	15327.675
2829.50412	15360.975
2832.03763	15291.075
2834.56959	15285.175
2837.1	15282.475
2839.62884	15236.175
2842.15613	15234.075
2844.68186	15314.275
2847.20604	15307.575
2849.72867	15305.875
2852.24974	15326.175
2854.76927	15328.275
2857.28724	15309.775
2859.80367	15311.675
2862.31855	15267.275
2864.83189	15245.075
2867.34368	15234.075
2869.85393	15241.975
2872.36264	15185.975
2874.8698	15181.975
2877.37543	15198.875
2879.87952	15167.375
2882.38207	15204.575
2884.88308	15241.175
2887.38256	15187.775
2889.88051	15199.375
2892.37692	15200.275
2894.8718	15238.475
2897.36515	15253.075
2899.85698	15279.475
2902.34727	15293.675
2904.83604	15323.675
2907.32328	15355.975
2909.809	15373.275
2912.29319	15397.275
2914.77587	15388.575
2917.25702	15390.275
2919.73665	15370.875
2922.21476	15343.675
2924.69136	15324.875
2927.16644	15318.175
2929.64	15306.275
2932.11205	15283.475
2934.58258	15238.775
2937.05161	15239.775
2939.51912	15244.875
2941.98513	15219.575
2944.44962	15168.275
2946.91261	15148.575
2949.37409	15130.375
2951.83407	15118.175
2954.29254	15094.875
2956.74951	15078.975
2959.20498	15054.775
2961.65895	15049.775
2964.11142	15064.075
2966.56239	14979.275
2969.01186	14969.975
2971.45984	14959.275
2973.90632	14967.675
2976.35131	14902.675
2978.7948	14872.375
2981.23681	14834.275
2983.67732	14835.375
2986.11635	14786.675
2988.55388	14734.775
2990.98993	14716.275
2993.4245	14659.775
2995.85758	14619.975
2998.28917	14547.775
3000.71928	14545.575
3003.14791	14506.075
3005.57506	14492.675
3008.00073	14434.175
3010.42493	14337.175
3012.84764	14383.175
3015.26888	14412.875
3017.68865	14320.375
3020.10694	14314.975
3022.52376	14304.275
3024.9391	14274.675
3027.35298	14274.475
3029.76539	14241.175
3032.17632	14214.475
3034.5858	14221.375
3036.9938	14214.475
3039.40034	14225.175
3041.80542	14222.875
3044.20903	14221.275
3046.61118	14193.475
3049.01187	14154.575
3051.4111	14156.975
3053.80888	14124.375
3056.20519	14099.075
3058.60005	14049.975
3060.99345	14045.575
3063.3854	13986.675
3065.7759	13924.075
3068.16494	13872.075
3070.55254	13823.475
3072.93868	13780.675
3075.32338	13762.175
3077.70662	13689.875
3080.08842	13703.575
3082.46878	13664.375
3084.84769	13644.475
3087.22515	13601.575
3089.60118	13619.075
3091.97576	13613.275
3094.3489	13586.375
3096.72061	13540.375
3099.09087	13570.875
3101.4597	13576.475
3103.82709	13565.075
3106.19305	13560.375
3108.55757	13515.075
3110.92066	13486.975
3113.28232	13486.875
3115.64255	13436.375
3118.00134	13423.275
3120.35871	13400.375
3122.71466	13362.975
3125.06917	13314.275
3127.42226	13263.975
