Data from AgNPs_FTO_APTES_UA_5uM_CRN_200uM_R6G_10uM_NaF_0.1M_Addition_RamanShift__21__16-24-21-789.txt Node

Date: Mon Feb 07 16:24:21 GMT 2022
User: TCL
Spectrometer: QEP01345
Trigger mode: 4
Integration Time (sec): 7.000000E0
Scans to average: 10
Electric dark correction enabled: true
Nonlinearity correction enabled: false
Boxcar width: 0
XAxis mode: Raman Shifts
Number of Pixels in Spectrum: 1044
>>>>>Begin Spectral Data<<<<<
46.04893	-0.9875
50.45542	-0.9875
54.85868	-0.7875
59.25871	-0.1875
63.6555	76.4125
68.04907	79.7125
72.43941	86.4125
76.82654	84.6125
81.21044	84.9125
85.59113	87.6125
89.96862	92.8125
94.34289	96.8125
98.71396	96.4125
103.08183	100.8125
107.4465	108.6125
111.80798	107.5125
116.16626	110.4125
120.52136	117.4125
124.87327	121.7125
129.222	132.0125
133.56755	136.7125
137.90993	151.3125
142.24913	170.8125
146.58517	192.6125
150.91804	225.5125
155.24774	279.1125
159.57429	348.1125
163.89768	443.7125
168.21792	596.0125
172.53501	814.9125
176.84895	1140.3125
181.15975	1602.2125
185.46741	2261.5125
189.77193	3104.5125
194.07331	4164.9125
198.37157	5359.4125
202.6667	6613.8125
206.9587	7855.0125
211.24758	9103.8125
215.53334	10323.0125
219.81599	11668.4125
224.09553	13124.8125
228.37195	14678.3125
232.64527	16406.6125
236.91549	18242.8125
241.18261	20057.8125
245.44663	21788.6125
249.70755	23337.4125
253.96539	24736.8125
258.22014	25893.6125
262.4718	26867.0125
266.72039	27614.1125
270.96589	28081.0125
275.20832	28284.7125
279.44768	28277.3125
283.68397	28133.1125
287.91719	28098.3125
292.14735	28192.6125
296.37445	28422.6125
300.59849	28559.5125
304.81948	28559.1125
309.03742	28252.6125
313.25231	27747.7125
317.46415	26846.2125
321.67296	25978.3125
325.87872	25234.3125
330.08145	24865.5125
334.28114	24801.0125
338.47781	24931.9125
342.67145	25204.4125
346.86207	25573.7125
351.04966	26047.7125
355.23424	26488.7125
359.4158	26837.6125
363.59435	27161.4125
367.76989	27302.2125
371.94243	27524.3125
376.11196	27645.1125
380.27849	27779.4125
384.44203	28003.9125
388.60257	28235.4125
392.76012	28538.8125
396.91468	28814.0125
401.06626	29252.8125
405.21485	29552.2125
409.36047	29382.2125
413.50311	28910.6125
417.64277	28567.1125
421.77947	28474.3125
425.9132	28593.4125
430.04396	28867.8125
434.17176	29144.9125
438.2966	29597.1125
442.41849	30246.1125
446.53742	31113.2125
450.6534	32216.2125
454.76644	32990.0125
458.87653	33263.0125
462.98368	33183.3125
467.08789	32876.2125
471.18916	32626.0125
475.2875	32634.5125
479.38291	32719.9125
483.4754	32642.9125
487.56496	32056.8125
491.6516	31155.6125
495.73531	30354.6125
499.81612	29857.2125
503.89401	29779.3125
507.96899	29750.2125
512.04106	29584.6125
516.11023	29333.0125
520.1765	29045.4125
524.23987	28775.8125
528.30034	28605.8125
532.35792	28390.8125
536.41261	28175.5125
540.46441	27993.6125
544.51333	28046.2125
548.55936	28506.4125
552.60252	29238.2125
556.64279	30096.7125
560.6802	30771.7125
564.71473	31198.5125
568.7464	31869.7125
572.7752	32695.6125
576.80114	33109.2125
580.82422	33204.5125
584.84444	33380.7125
588.86181	33860.2125
592.87633	34549.3125
596.888	34919.8125
600.89682	34815.4125
604.9028	35114.4125
608.90594	36900.3125
612.90624	38908.5125
616.90371	36479.7125
620.89834	31046.9125
624.89015	28688.5125
628.87913	28522.4125
632.86528	28839.4125
636.84862	28934.4125
640.82913	28609.4125
644.80683	27888.5125
648.78172	27237.6125
652.75379	26953.8125
656.72306	27083.7125
660.68952	27390.6125
664.65319	27268.2125
668.61405	26913.7125
672.57211	26812.4125
676.52738	26804.7125
680.47986	26896.3125
684.42955	26827.0125
688.37646	26706.0125
692.32058	26758.9125
696.26192	26962.3125
700.20048	27191.1125
704.13626	27377.4125
708.06928	27429.4125
711.99952	27272.6125
715.927	27234.6125
719.85171	27202.4125
723.77365	27159.8125
727.69284	26966.2125
731.60928	26784.1125
735.52295	26706.9125
739.43388	26745.0125
743.34206	26748.8125
747.24749	26838.8125
751.15017	27130.7125
755.05012	27570.1125
758.94733	28459.7125
762.8418	29918.7125
766.73354	32190.7125
770.62254	34156.2125
774.50882	34465.8125
778.39237	32822.6125
782.27321	30347.9125
786.15132	28292.6125
790.02671	27111.2125
793.89938	26546.8125
797.76935	26303.7125
801.6366	26239.5125
805.50115	26211.9125
809.36299	26094.7125
813.22213	26016.0125
817.07857	26021.9125
820.93231	26009.7125
824.78336	25883.1125
828.63172	25790.5125
832.47738	25723.0125
836.32036	25632.8125
840.16066	25641.2125
843.99827	25650.1125
847.8332	25615.4125
851.66546	25526.6125
855.49504	25460.7125
859.32195	25484.7125
863.1462	25458.1125
866.96777	25394.0125
870.78668	25275.8125
874.60293	25316.8125
878.41652	25306.1125
882.22745	25378.3125
886.03573	25415.2125
889.84136	25371.5125
893.64433	25318.0125
897.44466	25270.0125
901.24235	25158.2125
905.0374	25034.4125
908.8298	24951.0125
912.61957	25057.8125
916.40671	25347.2125
920.19121	25665.5125
923.97308	25874.7125
927.75233	25771.2125
931.52895	25629.1125
935.30295	25294.3125
939.07433	24868.8125
942.84309	24503.1125
946.60924	24305.9125
950.37278	24203.5125
954.13371	24197.4125
957.89203	24170.9125
961.64774	24162.2125
965.40086	24085.1125
969.15137	23975.7125
972.89929	23837.3125
976.64461	23665.3125
980.38733	23636.4125
984.12747	23647.4125
987.86502	23846.1125
991.59999	24036.1125
995.33237	24390.2125
999.06217	24947.8125
1002.78939	25558.6125
1006.51404	25966.2125
1010.23611	26226.1125
1013.95561	26413.2125
1017.67255	26508.7125
1021.38692	26254.6125
1025.09872	25905.8125
1028.80796	25762.8125
1032.51465	26015.8125
1036.21877	26366.3125
1039.92035	26450.6125
1043.61937	26315.0125
1047.31584	26080.9125
1051.00976	25825.2125
1054.70114	25737.5125
1058.38998	25902.8125
1062.07627	26138.6125
1065.76003	26456.0125
1069.44126	26644.4125
1073.11995	26870.7125
1076.79611	27064.5125
1080.46974	27213.5125
1084.14085	27359.9125
1087.80943	27544.6125
1091.47549	27810.8125
1095.13903	27894.1125
1098.80005	27688.5125
1102.45857	27204.1125
1106.11456	26785.4125
1109.76805	26626.7125
1113.41903	26786.8125
1117.06751	27066.8125
1120.71348	27418.3125
1124.35696	27800.4125
1127.99793	28155.5125
1131.63641	28365.0125
1135.2724	28121.0125
1138.90589	27848.5125
1142.5369	27811.3125
1146.16542	27988.9125
1149.79145	28289.8125
1153.415	28740.3125
1157.03607	29273.7125
1160.65467	30142.0125
1164.27079	31446.1125
1167.88443	33112.7125
1171.49561	35218.7125
1175.10432	37885.2125
1178.71056	41185.4125
1182.31434	44119.5125
1185.91565	45717.4125
1189.51451	45837.5125
1193.11091	45000.5125
1196.70485	43637.5125
1200.29634	41980.1125
1203.88538	40529.5125
1207.47197	39427.4125
1211.05612	38571.3125
1214.63782	37771.4125
1218.21708	36978.7125
1221.79391	36287.0125
1225.36829	35666.5125
1228.94024	34953.4125
1232.50976	34072.9125
1236.07685	33511.3125
1239.6415	33274.3125
1243.20374	33359.7125
1246.76355	33578.8125
1250.32093	33987.1125
1253.8759	34653.4125
1257.42845	35570.5125
1260.97859	36452.8125
1264.52631	37239.8125
1268.07163	38173.6125
1271.61453	39186.8125
1275.15503	40339.9125
1278.69312	41575.3125
1282.22882	42760.0125
1285.76211	44097.2125
1289.29301	45844.2125
1292.82151	48221.1125
1296.34761	51194.9125
1299.87133	54506.8125
1303.39266	57796.3125
1306.9116	61082.8125
1310.42815	63972.8125
1313.94233	65928.1125
1317.45412	66383.7125
1320.96354	66036.4125
1324.47058	65540.7125
1327.97525	64819.1125
1331.47754	64314.6125
1334.97747	64169.1125
1338.47502	64170.5125
1341.97022	63997.3125
1345.46305	63074.8125
1348.95352	61420.7125
1352.44163	59766.7125
1355.92738	59034.6125
1359.41078	59885.6125
1362.89183	61017.6125
1366.37053	59710.4125
1369.84688	55246.7125
1373.32088	50137.7125
1376.79254	46808.7125
1380.26186	45751.5125
1383.72883	46102.2125
1387.19347	46864.6125
1390.65578	47422.7125
1394.11575	48193.9125
1397.57339	49432.8125
1401.0287	50867.9125
1404.48168	51923.6125
1407.93234	52209.6125
1411.38068	51134.4125
1414.82669	48947.9125
1418.27039	46069.3125
1421.71177	43171.9125
1425.15083	40780.8125
1428.58758	39435.5125
1432.02203	39363.9125
1435.45416	40195.4125
1438.88399	41506.7125
1442.31151	42779.0125
1445.73673	43871.8125
1449.15965	45000.6125
1452.58027	46089.9125
1455.9986	46965.4125
1459.41463	47606.9125
1462.82837	48284.5125
1466.23982	48959.6125
1469.64898	49426.0125
1473.05586	49389.1125
1476.46045	48978.3125
1479.86276	48274.9125
1483.26279	47287.5125
1486.66054	46409.3125
1490.05602	46031.8125
1493.44922	45833.5125
1496.84016	45675.1125
1500.22882	45998.5125
1503.61521	46927.7125
1506.99934	48345.0125
1510.38121	49746.4125
1513.76081	50277.9125
1517.13816	49534.6125
1520.51324	48071.2125
1523.88607	46823.4125
1527.25665	46283.8125
1530.62498	46267.2125
1533.99105	46401.1125
1537.35488	46456.2125
1540.71647	46024.8125
1544.07581	45226.2125
1547.4329	44114.4125
1550.78776	43056.2125
1554.14038	42331.4125
1557.49077	41963.7125
1560.83892	41766.3125
1564.18484	41759.0125
1567.52853	41845.5125
1570.86999	42097.1125
1574.20922	42806.3125
1577.54624	43683.7125
1580.88103	44236.4125
1584.2136	44996.3125
1587.54395	46477.2125
1590.87208	48665.4125
1594.19801	51186.0125
1597.52172	53733.3125
1600.84321	54445.4125
1604.16251	52223.3125
1607.47959	48162.9125
1610.79447	43830.5125
1614.10715	39689.3125
1617.41763	36312.4125
1620.7259	33897.8125
1624.03199	32636.8125
1627.33587	32451.3125
1630.63757	33331.6125
1633.93707	35471.5125
1637.23439	39002.0125
1640.52951	44077.4125
1643.82246	49740.0125
1647.11321	54171.4125
1650.40179	55161.9125
1653.68819	51704.9125
1656.97241	45199.8125
1660.25446	38432.6125
1663.53433	33223.0125
1666.81203	29525.0125
1670.08756	27303.8125
1673.36092	25882.8125
1676.63211	24967.0125
1679.90115	24296.8125
1683.16801	23817.2125
1686.43272	23453.4125
1689.69527	23133.9125
1692.95567	22936.0125
1696.2139	22842.0125
1699.46999	22640.5125
1702.72392	22544.9125
1705.97571	22460.1125
1709.22535	22375.4125
1712.47284	22310.8125
1715.71819	22255.0125
1718.96139	22179.6125
1722.20246	22097.1125
1725.44139	21960.4125
1728.67818	21879.1125
1731.91284	21779.5125
1735.14537	21644.0125
1738.37576	21554.0125
1741.60403	21476.4125
1744.83017	21395.0125
1748.05418	21337.4125
1751.27607	21359.5125
1754.49584	21310.8125
1757.71349	21237.8125
1760.92903	21228.5125
1764.14244	21174.5125
1767.35375	21189.3125
1770.56294	21079.2125
1773.77002	21061.7125
1776.97499	20963.4125
1780.17785	20950.0125
1783.37861	20929.3125
1786.57727	20866.0125
1789.77382	20879.9125
1792.96828	20820.0125
1796.16064	20786.7125
1799.3509	20717.4125
1802.53907	20675.0125
1805.72514	20633.7125
1808.90913	20557.8125
1812.09102	20513.9125
1815.27083	20480.8125
1818.44856	20408.6125
1821.6242	20390.3125
1824.79776	20351.0125
1827.96924	20337.9125
1831.13864	20313.2125
1834.30597	20296.8125
1837.47122	20253.6125
1840.6344	20228.4125
1843.7955	20235.5125
1846.95454	20199.5125
1850.11151	20229.1125
1853.26642	20187.9125
1856.41926	20181.3125
1859.57004	20212.8125
1862.71876	20183.8125
1865.86542	20122.0125
1869.01003	20134.2125
1872.15258	20097.3125
1875.29308	20111.7125
1878.43152	20096.4125
1881.56792	20097.9125
1884.70227	20061.9125
1887.83457	20061.3125
1890.96482	20029.4125
1894.09304	19986.2125
1897.21921	19956.9125
1900.34335	19956.0125
1903.46544	19955.0125
1906.58551	19960.0125
1909.70353	19913.9125
1912.81953	19902.0125
1915.93349	19845.3125
1919.04543	19823.1125
1922.15534	19793.8125
1925.26322	19745.8125
1928.36908	19705.5125
1931.47292	19715.9125
1934.57473	19652.2125
1937.67453	19613.4125
1940.77232	19546.1125
1943.86808	19451.1125
1946.96184	19356.2125
1950.05358	19334.6125
1953.14331	19261.3125
1956.23103	19180.3125
1959.31675	19135.7125
1962.40046	19106.7125
1965.48217	19005.2125
1968.56188	18932.8125
1971.63959	18897.0125
1974.7153	18829.8125
1977.78901	18813.7125
1980.86073	18758.1125
1983.93046	18674.1125
1986.99819	18621.3125
1990.06394	18565.6125
1993.1277	18502.3125
1996.18947	18424.7125
1999.24925	18385.7125
2002.30706	18376.4125
2005.36288	18302.9125
2008.41672	18258.1125
2011.46859	18189.9125
2014.51848	18139.9125
2017.56639	18074.2125
2020.61233	18025.9125
2023.6563	17989.2125
2026.6983	17944.5125
2029.73833	17895.4125
2032.7764	17880.4125
2035.8125	17855.7125
2038.84664	17827.9125
2041.87881	17797.6125
2044.90903	17757.1125
2047.93729	17735.8125
2050.96359	17684.9125
2053.98794	17661.5125
2057.01034	17671.9125
2060.03078	17640.7125
2063.04927	17646.7125
2066.06582	17644.1125
2069.08042	17650.4125
2072.09307	17598.6125
2075.10378	17588.2125
2078.11255	17558.6125
2081.11938	17536.1125
2084.12426	17546.7125
2087.12722	17565.7125
2090.12824	17503.9125
2093.12732	17487.2125
2096.12447	17494.1125
2099.11969	17491.9125
2102.11299	17488.1125
2105.10435	17485.0125
2108.09379	17518.5125
2111.08131	17523.4125
2114.0669	17494.9125
2117.05057	17531.1125
2120.03233	17529.6125
2123.01216	17558.5125
2125.99008	17530.1125
2128.96609	17553.6125
2131.94018	17565.6125
2134.91236	17567.7125
2137.88263	17564.8125
2140.851	17597.5125
2143.81746	17604.4125
2146.78201	17582.9125
2149.74466	17581.1125
2152.7054	17576.2125
2155.66425	17548.5125
2158.6212	17560.1125
2161.57625	17516.1125
2164.52941	17538.9125
2167.48067	17524.3125
2170.43004	17506.9125
2173.37752	17540.0125
2176.32311	17539.8125
2179.26681	17554.1125
2182.20863	17545.0125
2185.14856	17530.5125
2188.08661	17543.1125
2191.02278	17522.0125
2193.95707	17511.2125
2196.88948	17506.8125
2199.82001	17477.0125
2202.74867	17436.4125
2205.67545	17429.6125
2208.60037	17399.4125
2211.52341	17375.8125
2214.44458	17363.6125
2217.36388	17328.1125
2220.28132	17261.7125
2223.1969	17243.9125
2226.11061	17247.2125
2229.02246	17262.4125
2231.93245	17156.1125
2234.84058	17131.8125
2237.74686	17102.2125
2240.65128	17084.5125
2243.55385	17045.8125
2246.45456	17081.5125
2249.35343	17018.5125
2252.25044	16980.6125
2255.14561	16920.8125
2258.03893	16893.8125
2260.93041	16821.9125
2263.82004	16805.4125
2266.70783	16764.3125
2269.59378	16760.8125
2272.4779	16657.2125
2275.36017	16646.1125
2278.24061	16594.0125
2281.11922	16582.6125
2283.996	16571.3125
2286.87094	16560.3125
2289.74405	16510.8125
2292.61534	16479.1125
2295.4848	16474.8125
2298.35243	16474.5125
2301.21824	16517.4125
2304.08223	16510.5125
2306.94439	16556.7125
2309.80474	16497.8125
2312.66327	16489.9125
2315.51999	16480.4125
2318.37489	16492.3125
2321.22797	16419.5125
2324.07925	16391.4125
2326.92871	16410.5125
2329.77637	16388.7125
2332.62222	16345.6125
2335.46626	16354.4125
2338.3085	16366.1125
2341.14893	16332.4125
2343.98756	16351.5125
2346.8244	16323.9125
2349.65943	16301.0125
2352.49267	16318.6125
2355.32411	16295.3125
2358.15376	16308.0125
2360.98161	16301.3125
2363.80768	16320.9125
2366.63195	16286.0125
2369.45444	16289.1125
2372.27514	16239.2125
2375.09405	16205.9125
2377.91118	16150.3125
2380.72652	16112.7125
2383.54009	16103.1125
2386.35187	16105.9125
2389.16188	16031.8125
2391.97011	15980.8125
2394.77657	15972.8125
2397.58125	15921.1125
2400.38416	15908.3125
2403.18529	15895.2125
2405.98466	15858.9125
2408.78226	15859.2125
2411.57809	15818.2125
2414.37216	15808.6125
2417.16446	15830.1125
2419.955	15796.1125
2422.74378	15772.1125
2425.5308	15736.8125
2428.31606	15754.9125
2431.09956	15710.7125
2433.88131	15697.0125
2436.6613	15719.1125
2439.43954	15716.6125
2442.21603	15716.1125
2444.99077	15680.6125
2447.76377	15679.7125
2450.53501	15662.9125
2453.30451	15673.4125
2456.07226	15614.2125
2458.83827	15639.1125
2461.60254	15611.6125
2464.36507	15637.3125
2467.12586	15658.5125
2469.88492	15620.2125
2472.64224	15630.5125
2475.39782	15642.7125
2478.15167	15628.2125
2480.90379	15617.5125
2483.65417	15652.4125
2486.40283	15647.1125
2489.14976	15658.4125
2491.89497	15662.9125
2494.63845	15700.9125
2497.3802	15693.7125
2500.12024	15683.7125
2502.85855	15656.2125
2505.59514	15651.5125
2508.33002	15629.4125
2511.06318	15648.0125
2513.79462	15594.8125
2516.52435	15626.8125
2519.25237	15605.5125
2521.97867	15564.9125
2524.70327	15563.2125
2527.42616	15561.5125
2530.14734	15557.4125
2532.86681	15544.7125
2535.58458	15542.9125
2538.30065	15539.8125
2541.01501	15528.0125
2543.72768	15484.7125
2546.43864	15441.6125
2549.14791	15479.2125
2551.85548	15425.6125
2554.56136	15384.7125
2557.26554	15388.4125
2559.96803	15365.9125
2562.66883	15347.6125
2565.36794	15339.9125
2568.06536	15339.4125
2570.7611	15348.2125
2573.45514	15320.5125
2576.14751	15308.5125
2578.83819	15309.7125
2581.52719	15301.5125
2584.21451	15281.3125
2586.90015	15303.2125
2589.58411	15315.9125
2592.2664	15279.5125
2594.94701	15274.7125
2597.62594	15269.8125
2600.30321	15248.8125
2602.9788	15228.9125
2605.65273	15252.1125
2608.32498	15251.9125
2610.99557	15246.9125
2613.66449	15298.8125
2616.33175	15250.1125
2618.99734	15249.0125
2621.66128	15240.8125
2624.32355	15232.6125
2626.98416	15220.6125
2629.64311	15229.3125
2632.30041	15224.0125
2634.95605	15227.4125
2637.61004	15193.9125
2640.26238	15209.0125
2642.91306	15165.1125
2645.56209	15154.2125
2648.20948	15211.5125
2650.85521	15189.5125
2653.4993	15183.8125
2656.14175	15196.7125
2658.78255	15236.6125
2661.42171	15228.3125
2664.05923	15196.4125
2666.6951	15212.1125
2669.32934	15223.8125
2671.96194	15223.0125
2674.59291	15234.0125
2677.22224	15227.7125
2679.84993	15199.4125
2682.476	15196.6125
2685.10043	15185.4125
2687.72324	15172.8125
2690.34441	15177.4125
2692.96396	15154.5125
2695.58188	15134.4125
2698.19818	15153.8125
2700.81285	15187.3125
2703.4259	15168.9125
2706.03733	15184.9125
2708.64714	15216.0125
2711.25533	15189.9125
2713.86191	15203.8125
2716.46687	15232.9125
2719.07021	15236.1125
2721.67194	15268.3125
2724.27206	15259.9125
2726.87057	15313.8125
2729.46747	15299.5125
2732.06276	15286.3125
2734.65644	15266.6125
2737.24852	15291.4125
2739.83899	15293.0125
2742.42786	15279.9125
2745.01513	15246.2125
2747.60079	15263.4125
2750.18486	15241.5125
2752.76733	15252.7125
2755.3482	15211.7125
2757.92747	15244.6125
2760.50515	15194.8125
2763.08123	15243.1125
2765.65573	15234.0125
2768.22863	15226.2125
2770.79994	15214.4125
2773.36967	15241.9125
2775.9378	15240.9125
2778.50435	15259.8125
2781.06932	15231.9125
2783.6327	15223.4125
2786.1945	15240.8125
2788.75471	15218.9125
2791.31335	15206.9125
2793.87041	15212.7125
2796.42589	15199.4125
2798.97979	15184.8125
2801.53212	15116.6125
2804.08288	15096.4125
2806.63206	15079.8125
2809.17967	15059.0125
2811.72571	15030.6125
2814.27018	15013.0125
2816.81308	14958.2125
2819.35442	14950.3125
2821.89419	14907.3125
2824.43239	14911.1125
2826.96904	14889.7125
2829.50412	14889.7125
2832.03763	14808.0125
2834.56959	14836.6125
2837.1	14840.8125
2839.62884	14832.9125
2842.15613	14868.0125
2844.68186	14910.8125
2847.20604	14901.7125
2849.72867	14920.9125
2852.24974	14909.0125
2854.76927	14903.8125
2857.28724	14879.5125
2859.80367	14865.4125
2862.31855	14832.0125
2864.83189	14818.8125
2867.34368	14784.0125
2869.85393	14805.7125
2872.36264	14763.3125
2874.8698	14818.0125
2877.37543	14797.7125
2879.87952	14821.3125
2882.38207	14774.5125
2884.88308	14769.1125
2887.38256	14778.2125
2889.88051	14836.0125
2892.37692	14811.7125
2894.8718	14828.2125
2897.36515	14820.8125
2899.85698	14848.7125
2902.34727	14873.0125
2904.83604	14890.1125
2907.32328	14897.2125
2909.809	14921.6125
2912.29319	14916.2125
2914.77587	14909.9125
2917.25702	14874.3125
2919.73665	14890.6125
2922.21476	14899.0125
2924.69136	14888.5125
2927.16644	14890.5125
2929.64	14877.5125
2932.11205	14863.7125
2934.58258	14794.5125
2937.05161	14839.9125
2939.51912	14793.2125
2941.98513	14780.8125
2944.44962	14748.1125
2946.91261	14675.4125
2949.37409	14734.8125
2951.83407	14679.0125
2954.29254	14677.4125
2956.74951	14657.2125
2959.20498	14646.9125
2961.65895	14606.2125
2964.11142	14593.6125
2966.56239	14566.7125
2969.01186	14556.8125
2971.45984	14531.9125
2973.90632	14512.7125
2976.35131	14467.0125
2978.7948	14467.6125
2981.23681	14426.2125
2983.67732	14395.7125
2986.11635	14347.0125
2988.55388	14330.8125
2990.98993	14264.7125
2993.4245	14214.5125
2995.85758	14174.4125
2998.28917	14174.9125
3000.71928	14155.9125
3003.14791	14101.4125
3005.57506	14088.1125
3008.00073	14027.3125
3010.42493	14039.0125
3012.84764	14012.4125
3015.26888	13995.0125
3017.68865	13943.8125
3020.10694	13924.6125
3022.52376	13890.0125
