Data from AgNPs_FTO_APTES_UA_5uM_CRN_500uM_R6G_10uM_NaF_0.1M_Addition_RamanShift__20__17-04-01-836.txt Node

Date: Mon Feb 07 17:04:01 GMT 2022
User: TCL
Spectrometer: QEP01345
Trigger mode: 4
Integration Time (sec): 7.000000E0
Scans to average: 10
Electric dark correction enabled: true
Nonlinearity correction enabled: false
Boxcar width: 0
XAxis mode: Raman Shifts
Number of Pixels in Spectrum: 1044
>>>>>Begin Spectral Data<<<<<
46.04893	-1.3625
50.45542	-1.8625
54.85868	0.0375
59.25871	-1.3625
63.6555	64.4375
68.04907	65.8375
72.43941	70.8375
76.82654	73.2375
81.21044	74.2375
85.59113	74.4375
89.96862	78.1375
94.34289	86.5375
98.71396	84.3375
103.08183	87.5375
107.4465	94.1375
111.80798	94.0375
116.16626	93.6375
120.52136	100.5375
124.87327	107.2375
129.222	111.5375
133.56755	118.8375
137.90993	127.9375
142.24913	145.8375
146.58517	167.9375
150.91804	192.6375
155.24774	234.2375
159.57429	291.3375
163.89768	372.4375
168.21792	498.0375
172.53501	682.1375
176.84895	955.6375
181.15975	1342.8375
185.46741	1876.5375
189.77193	2626.5375
194.07331	3486.9375
198.37157	4489.5375
202.6667	5548.3375
206.9587	6588.6375
211.24758	7624.1375
215.53334	8672.9375
219.81599	9773.0375
224.09553	10991.0375
228.37195	12313.3375
232.64527	13741.7375
236.91549	15262.1375
241.18261	16770.9375
245.44663	18221.6375
249.70755	19510.6375
253.96539	20669.1375
258.22014	21638.1375
262.4718	22409.9375
266.72039	23019.4375
270.96589	23391.6375
275.20832	23513.5375
279.44768	23456.7375
283.68397	23360.2375
287.91719	23288.8375
292.14735	23294.2375
296.37445	23392.0375
300.59849	23540.4375
304.81948	23552.5375
309.03742	23353.9375
313.25231	22960.2375
317.46415	22319.8375
321.67296	21616.7375
325.87872	21060.7375
330.08145	20748.0375
334.28114	20708.7375
338.47781	20817.8375
342.67145	21021.8375
346.86207	21320.0375
351.04966	21721.7375
355.23424	22118.3375
359.4158	22430.4375
363.59435	22667.1375
367.76989	22846.6375
371.94243	22992.6375
376.11196	23095.5375
380.27849	23211.7375
384.44203	23410.5375
388.60257	23661.7375
392.76012	23864.5375
396.91468	24084.1375
401.06626	24406.3375
405.21485	24645.4375
409.36047	24564.8375
413.50311	24212.0375
417.64277	24014.9375
421.77947	23967.7375
425.9132	24111.2375
430.04396	24305.2375
434.17176	24553.9375
438.2966	24871.6375
442.41849	25391.0375
446.53742	26147.9375
450.6534	27092.5375
454.76644	27717.7375
458.87653	27898.8375
462.98368	27757.6375
467.08789	27464.6375
471.18916	27194.7375
475.2875	27130.3375
479.38291	27238.5375
483.4754	27155.8375
487.56496	26764.6375
491.6516	26133.6375
495.73531	25484.3375
499.81612	25009.8375
503.89401	24984.7375
507.96899	24934.9375
512.04106	24846.1375
516.11023	24603.7375
520.1765	24339.5375
524.23987	24109.0375
528.30034	23907.7375
532.35792	23733.7375
536.41261	23514.2375
540.46441	23341.4375
544.51333	23388.8375
548.55936	23753.9375
552.60252	24354.0375
556.64279	25083.8375
560.6802	25720.7375
564.71473	26139.4375
568.7464	26753.9375
572.7752	27538.8375
576.80114	27995.9375
580.82422	28198.5375
584.84444	28361.9375
588.86181	28790.6375
592.87633	29379.8375
596.888	29493.9375
600.89682	29107.3375
604.9028	29265.6375
608.90594	30739.8375
612.90624	32347.8375
616.90371	30293.4375
620.89834	25824.6375
624.89015	23850.8375
628.87913	23687.0375
632.86528	23908.3375
636.84862	23997.1375
640.82913	23712.6375
644.80683	23183.6375
648.78172	22675.5375
652.75379	22484.2375
656.72306	22600.7375
660.68952	22897.0375
664.65319	22767.1375
668.61405	22468.6375
672.57211	22386.3375
676.52738	22449.9375
680.47986	22502.2375
684.42955	22450.0375
688.37646	22369.5375
692.32058	22357.7375
696.26192	22509.6375
700.20048	22731.1375
704.13626	22917.4375
708.06928	22950.9375
711.99952	22817.1375
715.927	22757.0375
719.85171	22812.8375
723.77365	22776.3375
727.69284	22601.3375
731.60928	22452.5375
735.52295	22390.8375
739.43388	22399.0375
743.34206	22389.7375
747.24749	22523.2375
751.15017	22711.7375
755.05012	23083.0375
758.94733	23773.9375
762.8418	24961.4375
766.73354	26751.8375
770.62254	28359.6375
774.50882	28619.9375
778.39237	27326.5375
782.27321	25319.3375
786.15132	23632.8375
790.02671	22723.5375
793.89938	22209.9375
797.76935	22001.6375
801.6366	21999.1375
805.50115	21981.9375
809.36299	21859.7375
813.22213	21757.9375
817.07857	21724.7375
820.93231	21690.5375
824.78336	21600.0375
828.63172	21465.5375
832.47738	21386.7375
836.32036	21341.4375
840.16066	21359.5375
843.99827	21353.0375
847.8332	21318.7375
851.66546	21251.0375
855.49504	21240.1375
859.32195	21261.7375
863.1462	21261.5375
866.96777	21204.8375
870.78668	21131.5375
874.60293	21148.2375
878.41652	21123.6375
882.22745	21224.9375
886.03573	21201.7375
889.84136	21225.9375
893.64433	21153.0375
897.44466	21091.2375
901.24235	20972.4375
905.0374	20899.3375
908.8298	20822.5375
912.61957	20835.5375
916.40671	21063.5375
920.19121	21356.8375
923.97308	21535.4375
927.75233	21471.9375
931.52895	21303.7375
935.30295	21040.2375
939.07433	20672.0375
942.84309	20321.1375
946.60924	20185.7375
950.37278	20106.3375
954.13371	20116.2375
957.89203	20086.4375
961.64774	20111.7375
965.40086	20038.0375
969.15137	19958.4375
972.89929	19809.9375
976.64461	19689.3375
980.38733	19630.3375
984.12747	19671.4375
987.86502	19787.6375
991.59999	19915.9375
995.33237	20246.2375
999.06217	20678.4375
1002.78939	21172.6375
1006.51404	21502.7375
1010.23611	21810.3375
1013.95561	21977.4375
1017.67255	22045.6375
1021.38692	21816.8375
1025.09872	21455.9375
1028.80796	21295.0375
1032.51465	21414.9375
1036.21877	21630.1375
1039.92035	21717.2375
1043.61937	21635.8375
1047.31584	21486.7375
1051.00976	21337.1375
1054.70114	21320.5375
1058.38998	21409.2375
1062.07627	21642.7375
1065.76003	21866.5375
1069.44126	22014.0375
1073.11995	22238.2375
1076.79611	22436.5375
1080.46974	22496.6375
1084.14085	22659.1375
1087.80943	22846.1375
1091.47549	23047.9375
1095.13903	23175.0375
1098.80005	22966.2375
1102.45857	22544.1375
1106.11456	22179.1375
1109.76805	22059.9375
1113.41903	22125.4375
1117.06751	22374.2375
1120.71348	22660.7375
1124.35696	22958.7375
1127.99793	23290.2375
1131.63641	23497.2375
1135.2724	23342.4375
1138.90589	23166.4375
1142.5369	23117.6375
1146.16542	23245.5375
1149.79145	23478.5375
1153.415	23819.7375
1157.03607	24258.2375
1160.65467	25067.6375
1164.27079	26175.6375
1167.88443	27659.0375
1171.49561	29377.8375
1175.10432	31552.9375
1178.71056	34250.6375
1182.31434	36724.5375
1185.91565	38065.2375
1189.51451	38021.9375
1193.11091	37263.2375
1196.70485	36039.2375
1200.29634	34722.4375
1203.88538	33635.4375
1207.47197	32897.3375
1211.05612	32202.6375
1214.63782	31584.1375
1218.21708	30842.9375
1221.79391	30263.0375
1225.36829	29733.4375
1228.94024	29134.2375
1232.50976	28429.8375
1236.07685	27897.5375
1239.6415	27650.9375
1243.20374	27614.4375
1246.76355	27789.1375
1250.32093	28164.4375
1253.8759	28695.8375
1257.42845	29466.0375
1260.97859	30235.3375
1264.52631	30992.8375
1268.07163	31779.3375
1271.61453	32652.8375
1275.15503	33609.9375
1278.69312	34623.5375
1282.22882	35713.8375
1285.76211	36891.4375
1289.29301	38386.3375
1292.82151	40415.2375
1296.34761	42905.2375
1299.87133	45684.7375
1303.39266	48520.3375
1306.9116	51235.1375
1310.42815	53628.8375
1313.94233	55139.0375
1317.45412	55476.8375
1320.96354	54973.4375
1324.47058	54348.7375
1327.97525	53732.2375
1331.47754	53298.5375
1334.97747	53199.8375
1338.47502	53102.8375
1341.97022	52812.2375
1345.46305	52009.5375
1348.95352	50721.9375
1352.44163	49532.8375
1355.92738	49198.6375
1359.41078	49991.6375
1362.89183	50947.1375
1366.37053	49944.5375
1369.84688	46256.3375
1373.32088	41817.4375
1376.79254	38836.7375
1380.26186	37886.2375
1383.72883	38182.1375
1387.19347	38708.2375
1390.65578	39072.4375
1394.11575	39604.3375
1397.57339	40594.9375
1401.0287	41819.4375
1404.48168	42808.8375
1407.93234	43110.1375
1411.38068	42253.1375
1414.82669	40515.0375
1418.27039	38125.0375
1421.71177	35820.6375
1425.15083	33824.6375
1428.58758	32735.0375
1432.02203	32688.0375
1435.45416	33422.1375
1438.88399	34586.6375
1442.31151	35683.9375
1445.73673	36570.1375
1449.15965	37414.1375
1452.58027	38203.7375
1455.9986	38744.4375
1459.41463	39107.1375
1462.82837	39581.0375
1466.23982	40184.1375
1469.64898	40614.7375
1473.05586	40727.9375
1476.46045	40397.3375
1479.86276	39895.6375
1483.26279	39095.2375
1486.66054	38462.7375
1490.05602	38178.5375
1493.44922	37996.2375
1496.84016	37810.6375
1500.22882	37973.8375
1503.61521	38633.2375
1506.99934	39601.7375
1510.38121	40723.7375
1513.76081	41072.0375
1517.13816	40526.7375
1520.51324	39360.0375
1523.88607	38395.1375
1527.25665	38029.0375
1530.62498	38147.8375
1533.99105	38303.3375
1537.35488	38355.2375
1540.71647	37916.3375
1544.07581	37200.8375
1547.4329	36286.9375
1550.78776	35379.7375
1554.14038	34729.7375
1557.49077	34310.3375
1560.83892	34105.6375
1564.18484	34083.3375
1567.52853	34078.2375
1570.86999	34338.1375
1574.20922	34979.4375
1577.54624	35729.6375
1580.88103	36127.1375
1584.2136	36739.6375
1587.54395	37975.3375
1590.87208	40016.6375
1594.19801	42311.5375
1597.52172	44557.9375
1600.84321	45313.7375
1604.16251	43520.3375
1607.47959	40042.9375
1610.79447	36154.4375
1614.10715	32621.6375
1617.41763	29676.3375
1620.7259	27639.3375
1624.03199	26546.4375
1627.33587	26413.3375
1630.63757	27193.9375
1633.93707	28961.8375
1637.23439	32051.4375
1640.52951	36385.4375
1643.82246	41402.0375
1647.11321	45302.9375
1650.40179	46064.9375
1653.68819	43011.9375
1656.97241	37419.5375
1660.25446	31685.5375
1663.53433	27243.0375
1666.81203	24233.1375
1670.08756	22359.9375
1673.36092	21189.3375
1676.63211	20416.5375
1679.90115	19903.3375
1683.16801	19463.8375
1686.43272	19173.7375
1689.69527	18962.5375
1692.95567	18758.2375
1696.2139	18646.5375
1699.46999	18502.9375
1702.72392	18418.4375
1705.97571	18367.2375
1709.22535	18298.4375
1712.47284	18217.4375
1715.71819	18176.8375
1718.96139	18134.8375
1722.20246	18071.3375
1725.44139	17968.3375
1728.67818	17868.9375
1731.91284	17764.0375
1735.14537	17661.6375
1738.37576	17573.4375
1741.60403	17546.4375
1744.83017	17459.9375
1748.05418	17445.2375
1751.27607	17410.1375
1754.49584	17359.2375
1757.71349	17393.0375
1760.92903	17327.6375
1764.14244	17317.5375
1767.35375	17304.1375
1770.56294	17215.1375
1773.77002	17134.9375
1776.97499	17134.2375
1780.17785	17091.8375
1783.37861	17091.7375
1786.57727	17045.9375
1789.77382	17007.6375
1792.96828	16993.7375
1796.16064	16930.5375
1799.3509	16889.9375
1802.53907	16853.0375
1805.72514	16821.2375
1808.90913	16754.2375
1812.09102	16723.3375
1815.27083	16690.4375
1818.44856	16643.6375
1821.6242	16616.7375
1824.79776	16587.1375
1827.96924	16555.1375
1831.13864	16549.5375
1834.30597	16540.9375
1837.47122	16520.8375
1840.6344	16500.9375
1843.7955	16511.5375
1846.95454	16499.0375
1850.11151	16484.3375
1853.26642	16466.9375
1856.41926	16454.5375
1859.57004	16445.6375
1862.71876	16444.3375
1865.86542	16421.9375
1869.01003	16436.0375
1872.15258	16408.9375
1875.29308	16389.1375
1878.43152	16370.8375
1881.56792	16379.5375
1884.70227	16371.5375
1887.83457	16363.6375
1890.96482	16287.4375
1894.09304	16270.5375
1897.21921	16316.1375
1900.34335	16254.1375
1903.46544	16246.3375
1906.58551	16250.5375
1909.70353	16214.4375
1912.81953	16182.1375
1915.93349	16154.0375
1919.04543	16099.6375
1922.15534	16084.3375
1925.26322	16065.1375
1928.36908	16034.7375
1931.47292	15995.9375
1934.57473	15964.1375
1937.67453	15944.0375
1940.77232	15845.3375
1943.86808	15784.3375
1946.96184	15738.2375
1950.05358	15676.7375
1953.14331	15628.4375
1956.23103	15579.7375
1959.31675	15505.9375
1962.40046	15466.7375
1965.48217	15464.1375
1968.56188	15383.7375
1971.63959	15305.2375
1974.7153	15280.8375
1977.78901	15220.1375
1980.86073	15223.4375
1983.93046	15171.4375
1986.99819	15114.4375
1990.06394	15047.6375
1993.1277	15028.3375
1996.18947	14948.4375
1999.24925	14939.4375
2002.30706	14892.3375
2005.36288	14847.4375
2008.41672	14816.6375
2011.46859	14776.7375
2014.51848	14685.0375
2017.56639	14677.0375
2020.61233	14638.9375
2023.6563	14589.1375
2026.6983	14521.9375
2029.73833	14496.6375
2032.7764	14490.3375
2035.8125	14464.7375
2038.84664	14474.1375
2041.87881	14416.4375
2044.90903	14374.5375
2047.93729	14375.7375
2050.96359	14340.9375
2053.98794	14318.3375
2057.01034	14294.1375
2060.03078	14306.1375
2063.04927	14293.4375
2066.06582	14299.2375
2069.08042	14294.4375
2072.09307	14284.8375
2075.10378	14247.0375
2078.11255	14207.9375
2081.11938	14208.2375
2084.12426	14199.0375
2087.12722	14184.7375
2090.12824	14198.8375
2093.12732	14166.9375
2096.12447	14191.7375
2099.11969	14169.4375
2102.11299	14155.5375
2105.10435	14172.6375
2108.09379	14163.2375
2111.08131	14161.9375
2114.0669	14186.1375
2117.05057	14195.0375
2120.03233	14219.6375
2123.01216	14226.5375
2125.99008	14231.7375
2128.96609	14225.2375
2131.94018	14206.5375
2134.91236	14236.4375
2137.88263	14252.3375
2140.851	14253.4375
2143.81746	14242.2375
2146.78201	14234.7375
2149.74466	14220.0375
2152.7054	14236.3375
2155.66425	14201.5375
2158.6212	14202.0375
2161.57625	14178.2375
2164.52941	14184.0375
2167.48067	14201.2375
2170.43004	14174.4375
2173.37752	14159.4375
2176.32311	14184.2375
2179.26681	14195.8375
2182.20863	14164.1375
2185.14856	14167.0375
2188.08661	14190.4375
2191.02278	14217.8375
2193.95707	14167.7375
2196.88948	14152.9375
2199.82001	14121.2375
2202.74867	14106.2375
2205.67545	14077.8375
2208.60037	14076.2375
2211.52341	14041.8375
2214.44458	14038.8375
2217.36388	13987.4375
2220.28132	13999.1375
2223.1969	13931.9375
2226.11061	13935.0375
2229.02246	13914.0375
2231.93245	13885.0375
2234.84058	13805.6375
2237.74686	13799.3375
2240.65128	13829.3375
2243.55385	13786.0375
2246.45456	13770.9375
2249.35343	13752.8375
2252.25044	13718.3375
2255.14561	13680.1375
2258.03893	13654.1375
2260.93041	13622.7375
2263.82004	13589.5375
2266.70783	13564.4375
2269.59378	13514.8375
2272.4779	13496.1375
2275.36017	13444.0375
2278.24061	13405.5375
2281.11922	13399.4375
2283.996	13404.2375
2286.87094	13368.2375
2289.74405	13321.5375
2292.61534	13295.2375
2295.4848	13314.8375
2298.35243	13308.2375
2301.21824	13322.1375
2304.08223	13333.6375
2306.94439	13363.4375
2309.80474	13307.9375
2312.66327	13297.4375
2315.51999	13301.9375
2318.37489	13286.5375
2321.22797	13257.3375
2324.07925	13262.0375
2326.92871	13236.5375
2329.77637	13233.4375
2332.62222	13199.5375
2335.46626	13206.6375
2338.3085	13192.6375
2341.14893	13153.6375
2343.98756	13170.6375
2346.8244	13182.3375
2349.65943	13159.9375
2352.49267	13165.4375
2355.32411	13146.3375
2358.15376	13158.0375
2360.98161	13156.9375
2363.80768	13160.0375
2366.63195	13120.6375
2369.45444	13100.5375
2372.27514	13104.4375
2375.09405	13048.6375
2377.91118	13058.3375
2380.72652	13010.1375
2383.54009	12976.2375
2386.35187	12987.3375
2389.16188	12915.5375
2391.97011	12890.8375
2394.77657	12913.4375
2397.58125	12829.5375
2400.38416	12840.2375
2403.18529	12808.9375
2405.98466	12798.1375
2408.78226	12765.6375
2411.57809	12778.8375
2414.37216	12740.2375
2417.16446	12733.4375
2419.955	12745.3375
2422.74378	12705.9375
2425.5308	12708.0375
2428.31606	12688.4375
2431.09956	12653.9375
2433.88131	12660.5375
2436.6613	12673.7375
2439.43954	12657.2375
2442.21603	12676.4375
2444.99077	12651.1375
2447.76377	12636.0375
2450.53501	12648.4375
2453.30451	12622.4375
2456.07226	12637.6375
2458.83827	12595.1375
2461.60254	12576.8375
2464.36507	12586.3375
2467.12586	12606.9375
2469.88492	12603.6375
2472.64224	12566.0375
2475.39782	12613.9375
2478.15167	12623.6375
2480.90379	12591.2375
2483.65417	12617.9375
2486.40283	12612.5375
2489.14976	12623.8375
2491.89497	12601.3375
2494.63845	12631.5375
2497.3802	12652.8375
2500.12024	12618.2375
2502.85855	12584.2375
2505.59514	12619.4375
2508.33002	12601.3375
2511.06318	12593.5375
2513.79462	12585.6375
2516.52435	12551.4375
2519.25237	12558.8375
2521.97867	12524.9375
2524.70327	12490.6375
2527.42616	12502.8375
2530.14734	12535.4375
2532.86681	12511.3375
2535.58458	12527.3375
2538.30065	12502.1375
2541.01501	12500.1375
2543.72768	12462.7375
2546.43864	12466.9375
2549.14791	12458.2375
2551.85548	12434.0375
2554.56136	12399.8375
2557.26554	12398.2375
2559.96803	12391.0375
2562.66883	12368.7375
2565.36794	12369.2375
2568.06536	12361.1375
2570.7611	12369.7375
2573.45514	12349.7375
2576.14751	12313.4375
2578.83819	12294.0375
2581.52719	12317.2375
2584.21451	12302.7375
2586.90015	12318.0375
2589.58411	12296.0375
2592.2664	12282.8375
2594.94701	12264.8375
2597.62594	12275.5375
2600.30321	12264.8375
2602.9788	12259.5375
2605.65273	12274.1375
2608.32498	12295.9375
2610.99557	12261.0375
2613.66449	12268.8375
2616.33175	12254.7375
2618.99734	12266.9375
2621.66128	12268.7375
2624.32355	12253.8375
2626.98416	12255.0375
2629.64311	12241.3375
2632.30041	12256.9375
2634.95605	12226.6375
2637.61004	12229.4375
2640.26238	12222.4375
2642.91306	12185.0375
2645.56209	12196.5375
2648.20948	12195.0375
2650.85521	12211.2375
2653.4993	12227.3375
2656.14175	12224.8375
2658.78255	12213.2375
2661.42171	12227.2375
2664.05923	12238.1375
2666.6951	12227.4375
2669.32934	12248.4375
2671.96194	12223.9375
2674.59291	12220.1375
2677.22224	12239.7375
2679.84993	12212.2375
2682.476	12206.4375
2685.10043	12203.6375
2687.72324	12170.5375
2690.34441	12193.1375
2692.96396	12152.8375
2695.58188	12185.8375
2698.19818	12160.5375
2700.81285	12187.2375
2703.4259	12189.5375
2706.03733	12207.1375
2708.64714	12211.0375
2711.25533	12233.7375
2713.86191	12205.5375
2716.46687	12275.7375
2719.07021	12208.0375
2721.67194	12256.1375
2724.27206	12264.1375
2726.87057	12279.3375
2729.46747	12280.1375
2732.06276	12305.7375
2734.65644	12261.3375
2737.24852	12300.0375
2739.83899	12250.3375
2742.42786	12267.0375
2745.01513	12249.5375
2747.60079	12241.1375
2750.18486	12235.2375
2752.76733	12235.1375
2755.3482	12223.1375
2757.92747	12219.7375
2760.50515	12209.3375
2763.08123	12233.5375
2765.65573	12213.8375
2768.22863	12220.2375
2770.79994	12199.0375
2773.36967	12224.2375
2775.9378	12223.0375
2778.50435	12228.7375
2781.06932	12198.7375
2783.6327	12218.4375
2786.1945	12211.5375
2788.75471	12242.3375
2791.31335	12197.0375
2793.87041	12216.8375
2796.42589	12175.7375
2798.97979	12171.4375
2801.53212	12142.4375
2804.08288	12111.8375
2806.63206	12080.1375
2809.17967	12071.0375
2811.72571	12057.9375
2814.27018	12061.9375
2816.81308	12018.1375
2819.35442	11993.3375
2821.89419	11947.8375
2824.43239	11976.7375
2826.96904	11969.4375
2829.50412	11945.1375
2832.03763	11917.5375
2834.56959	11900.6375
2837.1	11897.1375
2839.62884	11913.1375
2842.15613	11889.0375
2844.68186	11956.2375
2847.20604	11962.9375
2849.72867	12002.7375
2852.24974	11975.3375
2854.76927	11954.2375
2857.28724	11975.9375
2859.80367	11947.7375
2862.31855	11923.1375
2864.83189	11902.5375
2867.34368	11870.4375
2869.85393	11902.6375
2872.36264	11873.8375
2874.8698	11872.8375
2877.37543	11881.3375
2879.87952	11903.0375
2882.38207	11884.7375
2884.88308	11879.7375
2887.38256	11880.2375
2889.88051	11898.4375
2892.37692	11933.0375
2894.8718	11909.5375
2897.36515	11941.2375
2899.85698	11928.7375
2902.34727	11956.7375
2904.83604	11963.9375
2907.32328	11989.1375
2909.809	11957.7375
2912.29319	11957.0375
2914.77587	11993.5375
2917.25702	11962.0375
2919.73665	11966.3375
2922.21476	11964.2375
2924.69136	11971.3375
2927.16644	11990.5375
2929.64	11948.1375
2932.11205	11939.8375
2934.58258	11923.0375
2937.05161	11906.2375
2939.51912	11872.5375
2941.98513	11864.8375
2944.44962	11852.3375
2946.91261	11837.9375
2949.37409	11808.3375
2951.83407	11803.4375
2954.29254	11797.7375
2956.74951	11754.0375
2959.20498	11768.3375
2961.65895	11721.0375
2964.11142	11723.1375
2966.56239	11710.2375
2969.01186	11689.9375
2971.45984	11667.7375
2973.90632	11647.1375
2976.35131	11618.2375
2978.7948	11587.2375
2981.23681	11566.9375
2983.67732	11523.4375
2986.11635	11495.1375
2988.55388	11475.9375
2990.98993	11444.4375
2993.4245	11386.1375
2995.85758	11388.6375
2998.28917	11345.1375
3000.71928	11342.9375
3003.14791	11284.7375
3005.57506	11298.5375
3008.00073	11268.8375
3010.42493	11270.7375
3012.84764	11215.5375
3015.26888	11209.0375
3017.68865	11155.1375
3020.10694	11144.5375
3022.52376	11115.0375
3024.9391	11135.9375
