Data from AgNPs_FTO_APTES_UA_5uM_CRN_100uM_R6G_10uM_NaF_0.1M_Addition_RamanShift__6__14-43-16-871.txt Node

Date: Mon Feb 07 14:43:16 GMT 2022
User: TCL
Spectrometer: QEP01345
Trigger mode: 4
Integration Time (sec): 7.000000E0
Scans to average: 10
Electric dark correction enabled: true
Nonlinearity correction enabled: false
Boxcar width: 0
XAxis mode: Raman Shifts
Number of Pixels in Spectrum: 1044
>>>>>Begin Spectral Data<<<<<
46.04893	-0.1
50.45542	-2
54.85868	-1.4
59.25871	0.2
63.6555	70
68.04907	70.9
72.43941	78.6
76.82654	80.9
81.21044	82.5
85.59113	86.8
89.96862	90.5
94.34289	92.4
98.71396	92.6
103.08183	98.2
107.4465	99.2
111.80798	100.7
116.16626	106.7
120.52136	112.8
124.87327	119.8
129.222	125.8
133.56755	134.8
137.90993	150.2
142.24913	165.4
146.58517	186.3
150.91804	221.6
155.24774	270.9
159.57429	337.7
163.89768	440.6
168.21792	590.9
172.53501	808.9
176.84895	1133.5
181.15975	1599.3
185.46741	2244.2
189.77193	3088.1
194.07331	4148.9
198.37157	5357
202.6667	6613.1
206.9587	7853.9
211.24758	9083.4
215.53334	10270.4
219.81599	11561.2
224.09553	12957.6
228.37195	14495.1
232.64527	16166.7
236.91549	17883
241.18261	19669.6
245.44663	21326.3
249.70755	22915.8
253.96539	24308.5
258.22014	25451.3
262.4718	26444.3
266.72039	27092.1
270.96589	27479.5
275.20832	27609.4
279.44768	27531.3
283.68397	27437.5
287.91719	27309.6
292.14735	27265.5
296.37445	27301.1
300.59849	27394.1
304.81948	27514.3
309.03742	27382.8
313.25231	27039.2
317.46415	26442.7
321.67296	25766.1
325.87872	25230.5
330.08145	24940
334.28114	24829.1
338.47781	24906.4
342.67145	25109.3
346.86207	25368.4
351.04966	25717.7
355.23424	26098.2
359.4158	26415.1
363.59435	26684.8
367.76989	26882.7
371.94243	27066.1
376.11196	27056.2
380.27849	27143.2
384.44203	27240.2
388.60257	27425.2
392.76012	27776.1
396.91468	28183.4
401.06626	28630.9
405.21485	28945.1
409.36047	28873.1
413.50311	28585.1
417.64277	28514.1
421.77947	28696.8
425.9132	28907
430.04396	29071.7
434.17176	29218.3
438.2966	29335.1
442.41849	29766.3
446.53742	30509.9
450.6534	31337.7
454.76644	32030.3
458.87653	32276
462.98368	32170.4
467.08789	31953.9
471.18916	31676.2
475.2875	31483.4
479.38291	31539.7
483.4754	31539.8
487.56496	31149.9
491.6516	30464
495.73531	29683.8
499.81612	29219
503.89401	29176.8
507.96899	29265.2
512.04106	29276.1
516.11023	29016.1
520.1765	28551.7
524.23987	28020
528.30034	27623.7
532.35792	27366
536.41261	27126.6
540.46441	26943.8
544.51333	26985.2
548.55936	27380.3
552.60252	28064.4
556.64279	28841.7
560.6802	29485.8
564.71473	30053.9
568.7464	30841.1
572.7752	32166.2
576.80114	33584.7
580.82422	34800.9
584.84444	35983.2
588.86181	37301
592.87633	38240.6
596.888	37498.6
600.89682	35598.9
604.9028	34590
608.90594	35063.5
612.90624	35648
616.90371	33285.7
620.89834	29193.3
624.89015	27520.1
628.87913	27441.8
632.86528	27687.4
636.84862	27667.2
640.82913	27224.5
644.80683	26656.2
648.78172	26312.5
652.75379	26195.8
656.72306	26372.8
660.68952	26594.7
664.65319	26371.9
668.61405	26071.4
672.57211	25984.7
676.52738	26102.2
680.47986	26108.6
684.42955	25973.6
688.37646	25851.6
692.32058	26010.5
696.26192	26338.5
700.20048	26687.7
704.13626	26973.9
708.06928	27144.3
711.99952	27158.7
715.927	27116.9
719.85171	27074.8
723.77365	26882.4
727.69284	26476.6
731.60928	26088.9
735.52295	25923
739.43388	25875.8
743.34206	25904.6
747.24749	26109.7
751.15017	26451.8
755.05012	27016.5
758.94733	27869.6
762.8418	29124.2
766.73354	30841.5
770.62254	32066
774.50882	31894
778.39237	30299.3
782.27321	28506.8
786.15132	27082
790.02671	26241.2
793.89938	25776.4
797.76935	25546.1
801.6366	25529.2
805.50115	25491
809.36299	25413
813.22213	25240.3
817.07857	25182.5
820.93231	25132.3
824.78336	24949.2
828.63172	24723
832.47738	24524.5
836.32036	24469.6
840.16066	24487.8
843.99827	24529.8
847.8332	24495.2
851.66546	24480.6
855.49504	24516.3
859.32195	24485.9
863.1462	24418.9
866.96777	24402.7
870.78668	24294.6
874.60293	24260.1
878.41652	24234.5
882.22745	24267.1
886.03573	24347.1
889.84136	24342.9
893.64433	24287.5
897.44466	24208.9
901.24235	24130
905.0374	24084.9
908.8298	24113.6
912.61957	24239
916.40671	24586.6
920.19121	25048.9
923.97308	25346.4
927.75233	25111
931.52895	24623.2
935.30295	24151.3
939.07433	23675.1
942.84309	23337.5
946.60924	23170.5
950.37278	23081.8
954.13371	23067.9
957.89203	23141.9
961.64774	23193.7
965.40086	23157.7
969.15137	23056.5
972.89929	22865.9
976.64461	22699.6
980.38733	22594.8
984.12747	22543.6
987.86502	22652.4
991.59999	22751.5
995.33237	22848.3
999.06217	23152.2
1002.78939	23467
1006.51404	23831.4
1010.23611	24228.6
1013.95561	24549.2
1017.67255	24618.6
1021.38692	24380.3
1025.09872	24020
1028.80796	23733.3
1032.51465	23652.7
1036.21877	23732.5
1039.92035	23860.8
1043.61937	23954.6
1047.31584	24021.6
1051.00976	24095.7
1054.70114	24301.6
1058.38998	24453.9
1062.07627	24836.5
1065.76003	25276.4
1069.44126	25642.9
1073.11995	25989.7
1076.79611	26280.1
1080.46974	26340.5
1084.14085	26409.6
1087.80943	26645.3
1091.47549	26957.7
1095.13903	27139.9
1098.80005	26922.8
1102.45857	26248.5
1106.11456	25551.9
1109.76805	25200.6
1113.41903	25124
1117.06751	25242.5
1120.71348	25537.8
1124.35696	25776.2
1127.99793	26101.6
1131.63641	26357.8
1135.2724	26395.8
1138.90589	26412.7
1142.5369	26659.4
1146.16542	27076.5
1149.79145	27567.6
1153.415	28081.6
1157.03607	28756.7
1160.65467	29874.9
1164.27079	31572.9
1167.88443	33497.4
1171.49561	35275.9
1175.10432	37165.5
1178.71056	39441.6
1182.31434	41536.3
1185.91565	42534.5
1189.51451	42504.2
1193.11091	41780.4
1196.70485	40750.2
1200.29634	39560.3
1203.88538	38980.1
1207.47197	38995.3
1211.05612	39111.2
1214.63782	38435.3
1218.21708	36849.7
1221.79391	35099
1225.36829	33745
1228.94024	32815.3
1232.50976	32237.7
1236.07685	31798.3
1239.6415	31649.7
1243.20374	31744.6
1246.76355	31993.8
1250.32093	32477.6
1253.8759	33179.8
1257.42845	34057.9
1260.97859	34999.1
1264.52631	35940.1
1268.07163	36942
1271.61453	37970.8
1275.15503	39135.3
1278.69312	40647.4
1282.22882	42325.8
1285.76211	44373.7
1289.29301	46723.4
1292.82151	49699.4
1296.34761	53186.8
1299.87133	56891.9
1303.39266	60126
1306.9116	62376.2
1310.42815	63436.6
1313.94233	63628.4
1317.45412	63192.4
1320.96354	62961
1324.47058	63008.9
1327.97525	63289.2
1331.47754	63452.6
1334.97747	63195.4
1338.47502	62445.1
1341.97022	61455
1345.46305	60001.1
1348.95352	58480.1
1352.44163	57392.8
1355.92738	57057.2
1359.41078	57684
1362.89183	58274.5
1366.37053	57191.6
1369.84688	53625.7
1373.32088	48816.8
1376.79254	45434.1
1380.26186	44701.7
1383.72883	45537.3
1387.19347	46419.3
1390.65578	46481.4
1394.11575	46586.6
1397.57339	47284.3
1401.0287	48276.1
1404.48168	48991.2
1407.93234	48547.1
1411.38068	46922.5
1414.82669	44431.4
1418.27039	41651.5
1421.71177	39198.9
1425.15083	37230.9
1428.58758	36351.4
1432.02203	36613.1
1435.45416	37859.2
1438.88399	39474.8
1442.31151	40821.8
1445.73673	41780.1
1449.15965	42452.6
1452.58027	42901.7
1455.9986	43084.1
1459.41463	43355.6
1462.82837	43822.5
1466.23982	44403.8
1469.64898	44997.1
1473.05586	45239.4
1476.46045	45109.6
1479.86276	44569.5
1483.26279	43826.1
1486.66054	43282
1490.05602	43181.1
1493.44922	43322
1496.84016	43586.3
1500.22882	43967.6
1503.61521	44521.8
1506.99934	45232.3
1510.38121	45885.7
1513.76081	46205.9
1517.13816	46153.4
1520.51324	46061.7
1523.88607	46371.1
1527.25665	47022.1
1530.62498	47579.5
1533.99105	47540.5
1537.35488	46866.1
1540.71647	45497
1544.07581	43801.4
1547.4329	42023.7
1550.78776	40531.4
1554.14038	39533
1557.49077	38824
1560.83892	38433.2
1564.18484	38261.3
1567.52853	38380.6
1570.86999	38802.6
1574.20922	39954.1
1577.54624	41217.9
1580.88103	42231.3
1584.2136	43444
1587.54395	45204.5
1590.87208	47635.5
1594.19801	50149.7
1597.52172	51989.8
1600.84321	51747.2
1604.16251	48757.6
1607.47959	44349.4
1610.79447	40023
1614.10715	36304
1617.41763	33373.2
1620.7259	31359.2
1624.03199	30390.5
1627.33587	30458.1
1630.63757	31614.9
1633.93707	34113.4
1637.23439	38248.9
1640.52951	44262.1
1643.82246	51206.7
1647.11321	56546.4
1650.40179	57172.4
1653.68819	52536.9
1656.97241	44870.4
1660.25446	37377.5
1663.53433	31736.8
1666.81203	27954.8
1670.08756	25557.3
1673.36092	24062.3
1676.63211	23081.1
1679.90115	22456.3
1683.16801	21933.8
1686.43272	21570.7
1689.69527	21259.2
1692.95567	21058.2
1696.2139	20922.9
1699.46999	20780.1
1702.72392	20641.8
1705.97571	20529.1
1709.22535	20425.2
1712.47284	20385.6
1715.71819	20325.9
1718.96139	20249.2
1722.20246	20117.2
1725.44139	20014
1728.67818	19879.8
1731.91284	19713.3
1735.14537	19601.3
1738.37576	19489.5
1741.60403	19404.2
1744.83017	19338.2
1748.05418	19225.8
1751.27607	19183
1754.49584	19183.2
1757.71349	19174.4
1760.92903	19112.4
1764.14244	19111.5
1767.35375	19093.9
1770.56294	18984.2
1773.77002	18951.6
1776.97499	18889.9
1780.17785	18840.2
1783.37861	18805.6
1786.57727	18746.3
1789.77382	18683.3
1792.96828	18647.5
1796.16064	18618.8
1799.3509	18560.6
1802.53907	18521.9
1805.72514	18410.4
1808.90913	18359
1812.09102	18326.8
1815.27083	18239.5
1818.44856	18229.9
1821.6242	18155.4
1824.79776	18123.4
1827.96924	18132.4
1831.13864	18103.6
1834.30597	18104.5
1837.47122	18074.9
1840.6344	18047.5
1843.7955	18044.6
1846.95454	18030.2
1850.11151	18009.5
1853.26642	17985.7
1856.41926	18026.8
1859.57004	17976.5
1862.71876	17942.6
1865.86542	17894.4
1869.01003	17851.9
1872.15258	17834.8
1875.29308	17797.5
1878.43152	17780.2
1881.56792	17761.5
1884.70227	17731.5
1887.83457	17713.6
1890.96482	17665.5
1894.09304	17649.3
1897.21921	17614.6
1900.34335	17591.8
1903.46544	17569.9
1906.58551	17549.9
1909.70353	17505
1912.81953	17465.5
1915.93349	17392.4
1919.04543	17373.6
1922.15534	17340.8
1925.26322	17257.3
1928.36908	17229.1
1931.47292	17178.1
1934.57473	17141.4
1937.67453	17078.9
1940.77232	17033.3
1943.86808	16988.1
1946.96184	16941.6
1950.05358	16877
1953.14331	16837.9
1956.23103	16816.6
1959.31675	16746.9
1962.40046	16680
1965.48217	16611.5
1968.56188	16541.5
1971.63959	16518.4
1974.7153	16434.6
1977.78901	16368.1
1980.86073	16306.6
1983.93046	16246.3
1986.99819	16158.1
1990.06394	16154.1
1993.1277	16111
1996.18947	16063
1999.24925	15981.5
2002.30706	15970.1
2005.36288	15875
2008.41672	15849.9
2011.46859	15777.2
2014.51848	15728.1
2017.56639	15674.4
2020.61233	15651.5
2023.6563	15606
2026.6983	15557.1
2029.73833	15546.8
2032.7764	15468.8
2035.8125	15446.1
2038.84664	15376.7
2041.87881	15386.4
2044.90903	15340.6
2047.93729	15290.4
2050.96359	15272.9
2053.98794	15283.3
2057.01034	15252.1
2060.03078	15228.2
2063.04927	15207.9
2066.06582	15216.3
2069.08042	15203.9
2072.09307	15184.9
2075.10378	15174.1
2078.11255	15137.2
2081.11938	15151.1
2084.12426	15116.6
2087.12722	15125.3
2090.12824	15082.7
2093.12732	15067.9
2096.12447	15060.8
2099.11969	15049.9
2102.11299	15068.5
2105.10435	15076.7
2108.09379	15076
2111.08131	15065.2
2114.0669	15057.4
2117.05057	15064.1
2120.03233	15081.4
2123.01216	15061.4
2125.99008	15066
2128.96609	15088.6
2131.94018	15107
2134.91236	15087.9
2137.88263	15057.4
2140.851	15075.4
2143.81746	15106.1
2146.78201	15059.4
2149.74466	15056.5
2152.7054	15016.3
2155.66425	15013.7
2158.6212	14962.7
2161.57625	14989
2164.52941	14956.8
2167.48067	14949.8
2170.43004	14924.4
2173.37752	14941.6
2176.32311	14901.7
2179.26681	14902.5
2182.20863	14928.2
2185.14856	14919.4
2188.08661	14903.6
2191.02278	14910.1
2193.95707	14886.7
2196.88948	14887.2
2199.82001	14849.3
2202.74867	14797.5
2205.67545	14793.2
2208.60037	14768
2211.52341	14746.3
2214.44458	14726.9
2217.36388	14679.6
2220.28132	14645.1
2223.1969	14598.8
2226.11061	14592.8
2229.02246	14581.6
2231.93245	14540.2
2234.84058	14500.1
2237.74686	14449.7
2240.65128	14482.7
2243.55385	14428.8
2246.45456	14414.8
2249.35343	14349.1
2252.25044	14315.3
2255.14561	14310.7
2258.03893	14278.7
2260.93041	14224.8
2263.82004	14181.6
2266.70783	14134.3
2269.59378	14051.5
2272.4779	13997.5
2275.36017	13985.4
2278.24061	13953
2281.11922	13926.1
2283.996	13901.2
2286.87094	13892.9
2289.74405	13839
2292.61534	13837.5
2295.4848	13817.3
2298.35243	13775
2301.21824	13771.2
2304.08223	13798.5
2306.94439	13775.6
2309.80474	13766.9
2312.66327	13765.6
2315.51999	13760
2318.37489	13722.4
2321.22797	13693.7
2324.07925	13689
2326.92871	13653.5
2329.77637	13630.8
2332.62222	13596.9
2335.46626	13598.4
2338.3085	13568.6
2341.14893	13557.6
2343.98756	13551.9
2346.8244	13570.7
2349.65943	13515.2
2352.49267	13538.6
2355.32411	13533
2358.15376	13500.7
2360.98161	13475.1
2363.80768	13482.4
2366.63195	13519.6
2369.45444	13488
2372.27514	13428.2
2375.09405	13442.5
2377.91118	13401
2380.72652	13374.3
2383.54009	13319.5
2386.35187	13321.6
2389.16188	13274.3
2391.97011	13271.9
2394.77657	13209.7
2397.58125	13192.8
2400.38416	13167.7
2403.18529	13133.6
2405.98466	13123.5
2408.78226	13112.4
2411.57809	13112.4
2414.37216	13070.8
2417.16446	13059.5
2419.955	13065.8
2422.74378	13061.1
2425.5308	13030.1
2428.31606	13015.8
2431.09956	13006.7
2433.88131	12998.6
2436.6613	12987.1
2439.43954	12975.4
2442.21603	12974.5
2444.99077	12958.6
2447.76377	12963.3
2450.53501	12949.1
2453.30451	12912.8
2456.07226	12922.8
2458.83827	12924.2
2461.60254	12903.5
2464.36507	12884.2
2467.12586	12877.2
2469.88492	12880.4
2472.64224	12898.4
2475.39782	12876.6
2478.15167	12898.4
2480.90379	12855
2483.65417	12862.5
2486.40283	12885.2
2489.14976	12877.8
2491.89497	12838.3
2494.63845	12875.9
2497.3802	12877.9
2500.12024	12876.1
2502.85855	12855.8
2505.59514	12844.2
2508.33002	12824.1
2511.06318	12832.1
2513.79462	12806.1
2516.52435	12764.8
2519.25237	12793.1
2521.97867	12743.5
2524.70327	12759.7
2527.42616	12752.9
2530.14734	12765.3
2532.86681	12729.8
2535.58458	12725.5
2538.30065	12696.9
2541.01501	12688.9
2543.72768	12674.8
2546.43864	12675.9
2549.14791	12640.6
2551.85548	12643
2554.56136	12648.2
2557.26554	12630.4
2559.96803	12598.9
2562.66883	12597.3
2565.36794	12547.2
2568.06536	12556.2
2570.7611	12553
2573.45514	12524
2576.14751	12505.4
2578.83819	12487.6
2581.52719	12500.5
2584.21451	12492.6
2586.90015	12480.1
2589.58411	12464.6
2592.2664	12453.7
2594.94701	12447.3
2597.62594	12465
2600.30321	12440.2
2602.9788	12426.2
2605.65273	12401.3
2608.32498	12438.6
2610.99557	12389.9
2613.66449	12423.6
2616.33175	12416
2618.99734	12424.6
2621.66128	12395.3
2624.32355	12370.5
2626.98416	12367
2629.64311	12356.9
2632.30041	12346.6
2634.95605	12351.5
2637.61004	12341.4
2640.26238	12337.8
2642.91306	12312.8
2645.56209	12298.1
2648.20948	12339.4
2650.85521	12338.3
2653.4993	12349.5
2656.14175	12326.6
2658.78255	12343.1
2661.42171	12362.1
2664.05923	12367.5
2666.6951	12335.3
2669.32934	12406.8
2671.96194	12401.6
2674.59291	12380.4
2677.22224	12370.7
2679.84993	12374.6
2682.476	12349.5
2685.10043	12352.3
2687.72324	12331.3
2690.34441	12339.2
2692.96396	12308.6
2695.58188	12332.2
2698.19818	12301.4
2700.81285	12349.8
2703.4259	12369.8
2706.03733	12422.8
2708.64714	12378.7
2711.25533	12351.9
2713.86191	12358.4
2716.46687	12388.2
2719.07021	12392.8
2721.67194	12409.3
2724.27206	12415.1
2726.87057	12416.1
2729.46747	12411
2732.06276	12432.1
2734.65644	12432.4
2737.24852	12416.4
2739.83899	12415.7
2742.42786	12403
2745.01513	12371
2747.60079	12387.9
2750.18486	12388
2752.76733	12344.2
2755.3482	12347.5
2757.92747	12342
2760.50515	12328.4
2763.08123	12353
2765.65573	12355.9
2768.22863	12329
2770.79994	12330.6
2773.36967	12339.4
2775.9378	12357.4
2778.50435	12337.4
2781.06932	12318.9
2783.6327	12353.9
2786.1945	12366
2788.75471	12347.2
2791.31335	12316.6
2793.87041	12321.1
2796.42589	12260.9
2798.97979	12263.8
2801.53212	12226.8
2804.08288	12204.1
2806.63206	12190.2
2809.17967	12177.9
2811.72571	12125.5
2814.27018	12113.2
2816.81308	12080.3
2819.35442	12049
2821.89419	12030.5
2824.43239	12027.2
2826.96904	12039.2
2829.50412	12007.5
2832.03763	11978.2
2834.56959	11974.5
2837.1	11946.7
2839.62884	11981.1
2842.15613	12013
2844.68186	12028.2
2847.20604	12038.4
2849.72867	12043.2
2852.24974	12055.4
2854.76927	12049.3
2857.28724	12051.6
2859.80367	11994.4
2862.31855	11976.1
2864.83189	11948.5
2867.34368	11914.3
2869.85393	11910.4
2872.36264	11863.2
2874.8698	11872
2877.37543	11868.1
2879.87952	11840.4
2882.38207	11841.1
2884.88308	11850.8
2887.38256	11862.5
2889.88051	11856.7
2892.37692	11858.1
2894.8718	11852.5
2897.36515	11866.8
2899.85698	11871.7
2902.34727	11885.4
2904.83604	11896.8
2907.32328	11896.6
2909.809	11888
2912.29319	11919.5
2914.77587	11877.9
2917.25702	11901.3
2919.73665	11903.2
2922.21476	11888.7
2924.69136	11901.3
2927.16644	11893
2929.64	11885.1
2932.11205	11848.4
2934.58258	11855.1
2937.05161	11838.4
2939.51912	11838.7
2941.98513	11817.3
2944.44962	11777.8
2946.91261	11737
2949.37409	11717.5
2951.83407	11694.6
2954.29254	11682.3
2956.74951	11664.5
2959.20498	11688.4
2961.65895	11643.3
2964.11142	11629.9
2966.56239	11621.7
2969.01186	11608.3
2971.45984	11591.9
2973.90632	11569.9
2976.35131	11533.7
2978.7948	11529.2
2981.23681	11483.4
2983.67732	11470.3
2986.11635	11420.8
2988.55388	11385.7
2990.98993	11334.6
2993.4245	11325.6
2995.85758	11261.7
2998.28917	11217.1
3000.71928	11200.2
3003.14791	11157.4
3005.57506	11145.5
3008.00073	11108.3
3010.42493	11006.7
3012.84764	11083.2
3015.26888	11070.4
3017.68865	11015
3020.10694	10991.1
3022.52376	10968.4
3024.9391	10965.1
3027.35298	10937.7
3029.76539	10937.3
3032.17632	10914.8
3034.5858	10895.6
3036.9938	10903.6
3039.40034	10893.1
3041.80542	10895.6
3044.20903	10888.6
3046.61118	10855.6
3049.01187	10837
3051.4111	10811.9
3053.80888	10788.6
3056.20519	10744.8
3058.60005	10722.2
3060.99345	10710.1
3063.3854	10658
3065.7759	10624.5
3068.16494	10587.9
3070.55254	10533.4
3072.93868	10489
3075.32338	10466.7
3077.70662	10441.2
3080.08842	10422.2
3082.46878	10392.8
3084.84769	10357.3
3087.22515	10362.5
3089.60118	10349
3091.97576	10331.6
3094.3489	10324.9
3096.72061	10308.6
3099.09087	10316.5
3101.4597	10295.8
3103.82709	10273.7
3106.19305	10273.8
3108.55757	10284
3110.92066	10237
3113.28232	10215.2
3115.64255	10207.1
3118.00134	10155
3120.35871	10145.5
3122.71466	10123.6
3125.06917	10080.7
3127.42226	10056
3129.77393	10029.6
3132.12417	10015.6
3134.47299	10013
3136.82039	10031.6
3139.16636	10018.2
3141.51092	9980.2
3143.85406	9951.2
3146.19579	9957.3
3148.53609	9964.6
3150.87499	9975.5
3153.21246	9965
3155.54853	9987.6
3157.88318	9963.9
3160.21642	9959.2
3162.54826	9962.2
3164.87868	9953.6
3167.2077	9940.1
3169.5353	9954.7
3171.86151	9934.8
3174.18631	9927.9
3176.5097	9925.2
3178.83169	9909.2
3181.15228	9897
3183.47147	9871
3185.78926	9856
3188.10565	9820.4
3190.42065	9820.8
3192.73424	9818
3195.04645	9813.2
3197.35725	9768.2
3199.66667	9739.8
3201.97469	9758.6
3204.28132	9743.1
3206.58656	9755.6
3208.8904	9773.5
3211.19287	9731.5
3213.49394	9753.4
3215.79363	9734.1
3218.09193	9741
3220.38884	9736.5
3222.68438	9767.8
3224.97853	9721.9
3227.2713	9716.8
3229.56269	9671.2
3231.8527	9685.3
3234.14133	9685.5
3236.42858	9637.9
3238.71446	9633.2
3240.99896	9622.9
3243.28209	9624.1
3245.56384	9563.8
3247.84423	9563
3250.12324	9551.6
3252.40088	9533.8
3254.67715	9544.9
3256.95205	9492.5
3259.22558	9489.6
3261.49775	9488
3263.76855	9453.7
3266.03799	9425
3268.30606	9382.6
3270.57277	9370.9
3272.83812	9348.6
3275.10211	9307.2
3277.36474	9307.2
3279.62601	9297.2
3281.88593	9274
3284.14448	9309.7
3286.40168	9289.2
3288.65753	9308.9
3290.91202	9298.3
3293.16516	9267.6
3295.41695	9230.1
3297.66738	9151.8
3299.91647	9111.5
3302.16421	9071.3
3304.4106	9022.9
3306.65564	8933
3308.89933	8889.1
3311.14169	8820.9
3313.38269	8743.2
3315.62236	8668.8
3317.86068	8605.8
3320.09766	8521.7
3322.3333	8445.6
3324.5676	8423.1
3326.80056	8275.1
3329.03219	8233.4
3331.26248	2.4
3333.49143	-0.1
3335.71905	-0.3
