Data from AgNPs_FTO_APTES_UA_5uM_CRN_200uM_R6G_10uM_NaF_0.1M_Addition_RamanShift__27__16-31-21-797.txt Node

Date: Mon Feb 07 16:31:21 GMT 2022
User: TCL
Spectrometer: QEP01345
Trigger mode: 4
Integration Time (sec): 7.000000E0
Scans to average: 10
Electric dark correction enabled: true
Nonlinearity correction enabled: false
Boxcar width: 0
XAxis mode: Raman Shifts
Number of Pixels in Spectrum: 1044
>>>>>Begin Spectral Data<<<<<
46.04893	-1.575
50.45542	-1.275
54.85868	-0.375
59.25871	1.325
63.6555	81.625
68.04907	85.325
72.43941	86.925
76.82654	92.725
81.21044	94.125
85.59113	97.825
89.96862	101.625
94.34289	107.725
98.71396	107.125
103.08183	111.925
107.4465	117.125
111.80798	120.925
116.16626	120.825
120.52136	130.325
124.87327	137.325
129.222	143.525
133.56755	151.725
137.90993	172.025
142.24913	192.625
146.58517	217.025
150.91804	256.325
155.24774	310.525
159.57429	388.725
163.89768	511.925
168.21792	687.425
172.53501	940.525
176.84895	1318.625
181.15975	1861.225
185.46741	2599.525
189.77193	3593.125
194.07331	4836.725
198.37157	6239.625
202.6667	7700.425
206.9587	9157.625
211.24758	10679.325
215.53334	12191.625
219.81599	13834.025
224.09553	15683.225
228.37195	17776.725
232.64527	19963.125
236.91549	22209.225
241.18261	24358.225
245.44663	26196.625
249.70755	27816.425
253.96539	29234.025
258.22014	30423.025
262.4718	31471.825
266.72039	32257.825
270.96589	32751.325
275.20832	32870.625
279.44768	32687.825
283.68397	32420.525
287.91719	32296.525
292.14735	32489.125
296.37445	33075.525
300.59849	33854.625
304.81948	34632.625
309.03742	34980.825
313.25231	34549.825
317.46415	33027.725
321.67296	30908.325
325.87872	29146.625
330.08145	28334.225
334.28114	28243.625
338.47781	28614.425
342.67145	29184.025
346.86207	30175.325
351.04966	31538.725
355.23424	32968.725
359.4158	34121.225
363.59435	34639.925
367.76989	34784.825
371.94243	34829.525
376.11196	34731.225
380.27849	34649.625
384.44203	34519.825
388.60257	34344.625
392.76012	34254.625
396.91468	34524.425
401.06626	35213.825
405.21485	35786.225
409.36047	35269.325
413.50311	33806.025
417.64277	32469.425
421.77947	31806.925
425.9132	31620.625
430.04396	31711.425
434.17176	32046.825
438.2966	32548.125
442.41849	33366.225
446.53742	34474.525
450.6534	35587.025
454.76644	36375.025
458.87653	36516.325
462.98368	36302.525
467.08789	35949.025
471.18916	35501.925
475.2875	35168.325
479.38291	34910.325
483.4754	34499.825
487.56496	33758.225
491.6516	32912.025
495.73531	32265.625
499.81612	31921.125
503.89401	32080.225
507.96899	32266.725
512.04106	32464.025
516.11023	32646.525
520.1765	32720.925
524.23987	32550.125
528.30034	32124.825
532.35792	31666.025
536.41261	31212.225
540.46441	30761.525
544.51333	30689.125
548.55936	31022.925
552.60252	31846.725
556.64279	32892.125
560.6802	33657.325
564.71473	34254.725
568.7464	35584.225
572.7752	36468.625
576.80114	35911.225
580.82422	34880.025
584.84444	34453.725
588.86181	34680.325
592.87633	35169.025
596.888	35617.925
600.89682	36100.325
604.9028	38345.925
608.90594	45387.225
612.90624	55117.025
616.90371	52686.025
620.89834	38869.325
624.89015	32461.525
628.87913	31389.525
632.86528	31614.025
636.84862	31822.925
640.82913	31196.625
644.80683	29964.325
648.78172	29049.925
652.75379	28932.125
656.72306	29722.825
660.68952	30860.325
664.65319	30693.925
668.61405	29514.925
672.57211	28970.725
676.52738	28962.425
680.47986	28973.725
684.42955	28852.225
688.37646	28696.525
692.32058	28821.225
696.26192	29007.525
700.20048	29389.925
704.13626	29545.425
708.06928	29530.825
711.99952	29321.725
715.927	29205.325
719.85171	29250.625
723.77365	29303.325
727.69284	29046.925
731.60928	28795.225
735.52295	28703.325
739.43388	28791.325
743.34206	28810.325
747.24749	28982.525
751.15017	29219.325
755.05012	29796.725
758.94733	31099.725
762.8418	33954.925
766.73354	38649.825
770.62254	43447.725
774.50882	45543.425
778.39237	43373.625
782.27321	38019.725
786.15132	33229.825
790.02671	30401.725
793.89938	29133.225
797.76935	28537.525
801.6366	28319.125
805.50115	28228.725
809.36299	28074.525
813.22213	27988.325
817.07857	28029.425
820.93231	28088.225
824.78336	28050.625
828.63172	28083.625
832.47738	28125.725
836.32036	27996.625
840.16066	27872.425
843.99827	27776.125
847.8332	27692.225
851.66546	27589.125
855.49504	27549.825
859.32195	27513.825
863.1462	27403.025
866.96777	27284.225
870.78668	27222.625
874.60293	27222.825
878.41652	27308.225
882.22745	27485.625
886.03573	27522.525
889.84136	27439.625
893.64433	27349.025
897.44466	27248.325
901.24235	27199.825
905.0374	27091.925
908.8298	27002.525
912.61957	27038.625
916.40671	27266.425
920.19121	27563.425
923.97308	27738.825
927.75233	27944.625
931.52895	28002.125
935.30295	27746.225
939.07433	27055.125
942.84309	26421.025
946.60924	26072.725
950.37278	25835.325
954.13371	25762.025
957.89203	25719.425
961.64774	25650.325
965.40086	25594.025
969.15137	25496.225
972.89929	25339.825
976.64461	25213.725
980.38733	25204.225
984.12747	25275.225
987.86502	25398.125
991.59999	25662.825
995.33237	26027.725
999.06217	26637.925
1002.78939	27478.025
1006.51404	28107.725
1010.23611	28511.825
1013.95561	28843.325
1017.67255	28758.625
1021.38692	28349.625
1025.09872	27911.325
1028.80796	27733.225
1032.51465	28024.725
1036.21877	28361.325
1039.92035	28472.625
1043.61937	28399.825
1047.31584	28155.725
1051.00976	27903.225
1054.70114	27738.125
1058.38998	27801.825
1062.07627	28033.225
1065.76003	28251.325
1069.44126	28415.325
1073.11995	28615.025
1076.79611	28922.625
1080.46974	29296.225
1084.14085	29788.125
1087.80943	30464.825
1091.47549	30793.525
1095.13903	30541.725
1098.80005	29836.625
1102.45857	29111.725
1106.11456	28693.025
1109.76805	28790.925
1113.41903	29306.225
1117.06751	30115.525
1120.71348	31132.425
1124.35696	32199.625
1127.99793	33061.325
1131.63641	32969.925
1135.2724	31767.625
1138.90589	30645.025
1142.5369	30046.525
1146.16542	29756.325
1149.79145	29765.325
1153.415	30004.825
1157.03607	30419.225
1160.65467	31205.525
1164.27079	32463.225
1167.88443	34274.725
1171.49561	37041.025
1175.10432	41120.525
1178.71056	46508.425
1182.31434	50778.925
1185.91565	52324.425
1189.51451	51491.225
1193.11091	49211.925
1196.70485	46347.425
1200.29634	43946.025
1203.88538	41981.425
1207.47197	39889.325
1211.05612	38164.625
1214.63782	36992.725
1218.21708	36501.125
1221.79391	36116.225
1225.36829	35817.825
1228.94024	35320.725
1232.50976	34763.225
1236.07685	34401.825
1239.6415	34288.125
1243.20374	34498.325
1246.76355	34782.525
1250.32093	35315.925
1253.8759	36124.225
1257.42845	37170.025
1260.97859	38311.725
1264.52631	39301.125
1268.07163	40297.125
1271.61453	41383.125
1275.15503	42243.525
1278.69312	43061.425
1282.22882	43769.225
1285.76211	44869.525
1289.29301	46487.025
1292.82151	48542.225
1296.34761	51067.725
1299.87133	54316.925
1303.39266	58606.525
1306.9116	64195.725
1310.42815	70314.625
1313.94233	74004.025
1317.45412	73523.625
1320.96354	70668.325
1324.47058	67320.625
1327.97525	64296.025
1331.47754	62224.225
1334.97747	61481.825
1338.47502	61714.925
1341.97022	62312.025
1345.46305	62863.225
1348.95352	63236.525
1352.44163	64286.825
1355.92738	67226.325
1359.41078	73423.525
1362.89183	79716.925
1366.37053	77370.725
1369.84688	67041.125
1373.32088	56951.625
1376.79254	50746.325
1380.26186	48117.525
1383.72883	47356.725
1387.19347	47137.425
1390.65578	46999.325
1394.11575	47075.425
1397.57339	47796.825
1401.0287	48968.225
1404.48168	50066.925
1407.93234	50660.625
1411.38068	50328.525
1414.82669	48863.425
1418.27039	46549.325
1421.71177	44071.925
1425.15083	41916.525
1428.58758	40678.425
1432.02203	40602.825
1435.45416	41131.825
1438.88399	41901.725
1442.31151	42665.225
1445.73673	43398.025
1449.15965	44258.425
1452.58027	45089.125
1455.9986	45645.725
1459.41463	46212.625
1462.82837	46973.125
1466.23982	47860.025
1469.64898	48576.425
1473.05586	48759.525
1476.46045	48448.625
1479.86276	48144.825
1483.26279	47950.725
1486.66054	47945.225
1490.05602	48489.225
1493.44922	49351.025
1496.84016	50726.225
1500.22882	53386.825
1503.61521	57449.625
1506.99934	62910.125
1510.38121	68262.725
1513.76081	70713.125
1517.13816	68085.825
1520.51324	61755.125
1523.88607	55449.625
1527.25665	51309.225
1530.62498	49143.825
1533.99105	48110.625
1537.35488	47560.125
1540.71647	47096.925
1544.07581	46542.325
1547.4329	45899.925
1550.78776	45339.225
1554.14038	44899.225
1557.49077	44870.925
1560.83892	45238.825
1564.18484	45961.525
1567.52853	46726.525
1570.86999	47293.525
1574.20922	47870.725
1577.54624	48118.325
1580.88103	47143.725
1584.2136	45894.825
1587.54395	46036.025
1590.87208	47587.225
1594.19801	50495.125
1597.52172	53657.525
1600.84321	55011.925
1604.16251	52893.325
1607.47959	48849.925
1610.79447	44359.425
1614.10715	40123.225
1617.41763	36670.125
1620.7259	34362.325
1624.03199	33182.725
1627.33587	33051.525
1630.63757	33921.025
1633.93707	35922.225
1637.23439	39240.425
1640.52951	44103.725
1643.82246	50166.125
1647.11321	56231.025
1650.40179	59489.625
1653.68819	56914.925
1656.97241	49292.525
1660.25446	40920.425
1663.53433	34620.225
1666.81203	30737.025
1670.08756	28352.525
1673.36092	26920.625
1676.63211	25990.025
1679.90115	25372.525
1683.16801	24888.225
1686.43272	24501.225
1689.69527	24219.425
1692.95567	24117.825
1696.2139	23948.525
1699.46999	23841.725
1702.72392	23720.725
1705.97571	23670.025
1709.22535	23603.325
1712.47284	23582.825
1715.71819	23558.325
1718.96139	23521.925
1722.20246	23418.125
1725.44139	23316.725
1728.67818	23166.225
1731.91284	23031.925
1735.14537	22863.425
1738.37576	22762.025
1741.60403	22686.825
1744.83017	22570.125
1748.05418	22535.425
1751.27607	22522.725
1754.49584	22442.425
1757.71349	22391.025
1760.92903	22393.325
1764.14244	22332.625
1767.35375	22318.125
1770.56294	22212.625
1773.77002	22183.625
1776.97499	22112.525
1780.17785	22062.925
1783.37861	22001.425
1786.57727	21990.825
1789.77382	21959.825
1792.96828	21914.925
1796.16064	21904.425
1799.3509	21881.525
1802.53907	21809.725
1805.72514	21770.425
1808.90913	21687.925
1812.09102	21606.125
1815.27083	21568.325
1818.44856	21477.625
1821.6242	21428.725
1824.79776	21415.525
1827.96924	21361.225
1831.13864	21368.725
1834.30597	21354.025
1837.47122	21315.725
1840.6344	21286.925
1843.7955	21283.125
1846.95454	21264.725
1850.11151	21236.425
1853.26642	21198.325
1856.41926	21226.525
1859.57004	21243.425
1862.71876	21220.425
1865.86542	21168.525
1869.01003	21225.325
1872.15258	21155.925
1875.29308	21189.025
1878.43152	21163.525
1881.56792	21214.925
1884.70227	21181.925
1887.83457	21177.225
1890.96482	21139.025
1894.09304	21120.525
1897.21921	21134.425
1900.34335	21070.525
1903.46544	21077.325
1906.58551	21042.725
1909.70353	21047.725
1912.81953	21018.625
1915.93349	21003.525
1919.04543	20986.925
1922.15534	20943.525
1925.26322	20869.225
1928.36908	20848.225
1931.47292	20827.525
1934.57473	20782.525
1937.67453	20701.325
1940.77232	20631.625
1943.86808	20515.425
1946.96184	20420.825
1950.05358	20362.825
1953.14331	20296.725
1956.23103	20220.125
1959.31675	20157.025
1962.40046	20123.625
1965.48217	20054.525
1968.56188	19954.425
1971.63959	19902.425
1974.7153	19868.025
1977.78901	19806.725
1980.86073	19763.425
1983.93046	19686.725
1986.99819	19599.925
1990.06394	19541.925
1993.1277	19506.925
1996.18947	19397.925
1999.24925	19375.925
2002.30706	19292.925
2005.36288	19242.425
2008.41672	19210.125
2011.46859	19130.625
2014.51848	19094.125
2017.56639	19030.525
2020.61233	18961.425
2023.6563	18874.325
2026.6983	18842.325
2029.73833	18793.225
2032.7764	18736.525
2035.8125	18724.425
2038.84664	18716.025
2041.87881	18709.525
2044.90903	18647.825
2047.93729	18593.825
2050.96359	18569.925
2053.98794	18575.225
2057.01034	18544.125
2060.03078	18542.025
2063.04927	18534.725
2066.06582	18512.925
2069.08042	18504.025
2072.09307	18451.725
2075.10378	18425.225
2078.11255	18410.725
2081.11938	18413.725
2084.12426	18383.725
2087.12722	18361.825
2090.12824	18373.925
2093.12732	18349.625
2096.12447	18350.925
2099.11969	18348.125
2102.11299	18346.625
2105.10435	18293.425
2108.09379	18312.125
2111.08131	18336.225
2114.0669	18350.025
2117.05057	18363.325
2120.03233	18385.225
2123.01216	18408.125
2125.99008	18404.425
2128.96609	18406.825
2131.94018	18419.125
2134.91236	18418.925
2137.88263	18423.625
2140.851	18452.625
2143.81746	18442.125
2146.78201	18422.825
2149.74466	18419.125
2152.7054	18372.525
2155.66425	18354.925
2158.6212	18352.325
2161.57625	18326.925
2164.52941	18319.725
2167.48067	18329.925
2170.43004	18302.425
2173.37752	18318.025
2176.32311	18349.525
2179.26681	18369.525
2182.20863	18295.625
2185.14856	18327.625
2188.08661	18326.325
2191.02278	18324.725
2193.95707	18290.625
2196.88948	18236.925
2199.82001	18242.025
2202.74867	18218.625
2205.67545	18179.325
2208.60037	18199.625
2211.52341	18163.725
2214.44458	18131.225
2217.36388	18099.825
2220.28132	18071.025
2223.1969	17976.025
2226.11061	17980.925
2229.02246	17954.225
2231.93245	17905.125
2234.84058	17893.125
2237.74686	17845.025
2240.65128	17822.725
2243.55385	17791.625
2246.45456	17830.925
2249.35343	17796.225
2252.25044	17744.025
2255.14561	17704.425
2258.03893	17682.125
2260.93041	17646.125
2263.82004	17615.625
2266.70783	17605.225
2269.59378	17518.725
2272.4779	17490.125
2275.36017	17409.225
2278.24061	17375.625
2281.11922	17343.725
2283.996	17373.325
2286.87094	17337.825
2289.74405	17264.425
2292.61534	17221.025
2295.4848	17186.725
2298.35243	17228.725
2301.21824	17226.025
2304.08223	17245.025
2306.94439	17239.625
2309.80474	17216.325
2312.66327	17233.125
2315.51999	17224.825
2318.37489	17178.025
2321.22797	17157.125
2324.07925	17133.025
2326.92871	17127.025
2329.77637	17119.825
2332.62222	17116.625
2335.46626	17088.725
2338.3085	17111.125
2341.14893	17077.825
2343.98756	17081.525
2346.8244	17101.425
2349.65943	17066.425
2352.49267	17100.625
2355.32411	17091.925
2358.15376	17121.725
2360.98161	17112.625
2363.80768	17125.425
2366.63195	17114.025
2369.45444	17135.925
2372.27514	17080.525
2375.09405	17020.025
2377.91118	16957.725
2380.72652	16912.925
2383.54009	16858.525
2386.35187	16820.225
2389.16188	16771.825
2391.97011	16711.825
2394.77657	16650.625
2397.58125	16649.125
2400.38416	16590.825
2403.18529	16561.225
2405.98466	16540.225
2408.78226	16526.525
2411.57809	16497.525
2414.37216	16476.525
2417.16446	16452.325
2419.955	16456.225
2422.74378	16434.425
2425.5308	16393.525
2428.31606	16403.925
2431.09956	16385.525
2433.88131	16373.725
2436.6613	16382.925
2439.43954	16431.425
2442.21603	16387.225
2444.99077	16373.925
2447.76377	16366.125
2450.53501	16362.625
2453.30451	16354.325
2456.07226	16339.425
2458.83827	16320.025
2461.60254	16275.425
2464.36507	16307.625
2467.12586	16323.325
2469.88492	16301.425
2472.64224	16321.725
2475.39782	16281.725
2478.15167	16322.025
2480.90379	16331.025
2483.65417	16351.325
2486.40283	16397.425
2489.14976	16409.325
2491.89497	16425.025
2494.63845	16452.525
2497.3802	16402.125
2500.12024	16418.625
2502.85855	16384.925
2505.59514	16337.925
2508.33002	16331.425
2511.06318	16289.225
2513.79462	16266.125
2516.52435	16232.325
2519.25237	16194.825
2521.97867	16150.325
2524.70327	16103.825
2527.42616	16082.025
2530.14734	16095.725
2532.86681	16099.025
2535.58458	16095.625
2538.30065	16092.625
2541.01501	16091.325
2543.72768	16040.625
2546.43864	16014.925
2549.14791	16030.025
2551.85548	16025.925
2554.56136	15973.325
2557.26554	15969.325
2559.96803	15944.925
2562.66883	15899.125
2565.36794	15895.825
2568.06536	15914.025
2570.7611	15886.525
2573.45514	15856.625
2576.14751	15844.225
2578.83819	15814.925
2581.52719	15824.925
2584.21451	15798.925
2586.90015	15797.025
2589.58411	15780.525
2592.2664	15798.025
2594.94701	15765.225
2597.62594	15750.225
2600.30321	15723.625
2602.9788	15752.125
2605.65273	15740.925
2608.32498	15761.425
2610.99557	15747.225
2613.66449	15791.325
2616.33175	15722.525
2618.99734	15753.025
2621.66128	15689.025
2624.32355	15729.625
2626.98416	15712.125
2629.64311	15708.425
2632.30041	15693.225
2634.95605	15675.825
2637.61004	15631.925
2640.26238	15641.225
2642.91306	15613.825
2645.56209	15581.125
2648.20948	15617.425
2650.85521	15619.925
2653.4993	15569.525
2656.14175	15611.525
2658.78255	15653.625
2661.42171	15614.825
2664.05923	15605.725
2666.6951	15636.525
2669.32934	15659.325
2671.96194	15673.025
2674.59291	15664.825
2677.22224	15645.825
2679.84993	15659.325
2682.476	15604.825
2685.10043	15598.125
2687.72324	15616.325
2690.34441	15569.225
2692.96396	15578.725
2695.58188	15554.825
2698.19818	15592.725
2700.81285	15627.425
2703.4259	15607.525
2706.03733	15604.325
2708.64714	15609.125
2711.25533	15611.125
2713.86191	15623.925
2716.46687	15667.925
2719.07021	15657.225
2721.67194	15659.125
2724.27206	15670.125
2726.87057	15675.025
2729.46747	15717.525
2732.06276	15672.925
2734.65644	15688.825
2737.24852	15654.625
2739.83899	15628.525
2742.42786	15648.725
2745.01513	15610.725
2747.60079	15616.725
2750.18486	15569.725
2752.76733	15541.925
2755.3482	15543.025
2757.92747	15527.225
2760.50515	15522.125
2763.08123	15517.025
2765.65573	15515.125
2768.22863	15495.525
2770.79994	15503.525
2773.36967	15524.725
2775.9378	15525.525
2778.50435	15511.125
2781.06932	15492.925
2783.6327	15486.425
2786.1945	15522.625
2788.75471	15497.425
2791.31335	15503.425
2793.87041	15476.925
2796.42589	15434.125
2798.97979	15447.725
2801.53212	15413.325
2804.08288	15383.225
2806.63206	15337.825
2809.17967	15363.325
2811.72571	15316.225
2814.27018	15304.125
2816.81308	15247.925
2819.35442	15276.025
2821.89419	15227.225
2824.43239	15245.625
2826.96904	15239.725
2829.50412	15231.725
2832.03763	15177.025
2834.56959	15168.225
2837.1	15168.925
2839.62884	15162.225
2842.15613	15215.525
2844.68186	15261.225
2847.20604	15333.025
2849.72867	15313.525
2852.24974	15354.025
2854.76927	15307.425
2857.28724	15299.025
2859.80367	15283.325
2862.31855	15229.025
2864.83189	15218.325
2867.34368	15201.025
2869.85393	15215.125
2872.36264	15226.225
2874.8698	15212.725
2877.37543	15204.125
2879.87952	15205.325
2882.38207	15188.525
2884.88308	15172.625
2887.38256	15174.225
2889.88051	15181.325
2892.37692	15170.025
2894.8718	15179.025
2897.36515	15190.025
2899.85698	15155.625
2902.34727	15212.225
2904.83604	15183.325
2907.32328	15213.425
2909.809	15226.625
2912.29319	15252.425
2914.77587	15222.325
2917.25702	15197.725
2919.73665	15180.625
2922.21476	15177.825
2924.69136	15183.025
2927.16644	15184.525
2929.64	15158.525
2932.11205	15122.925
2934.58258	15068.025
2937.05161	15040.225
2939.51912	15011.725
2941.98513	15007.025
2944.44962	14923.325
2946.91261	14875.525
2949.37409	14871.125
2951.83407	14856.025
2954.29254	14830.325
2956.74951	14790.725
2959.20498	14824.925
2961.65895	14767.425
2964.11142	14749.025
2966.56239	14722.225
2969.01186	14708.025
2971.45984	14690.225
2973.90632	14654.025
2976.35131	14637.925
2978.7948	14615.725
2981.23681	14556.025
2983.67732	14546.925
2986.11635	14495.625
2988.55388	14430.425
2990.98993	14429.325
2993.4245	14387.825
2995.85758	14338.325
2998.28917	14303.225
3000.71928	14276.625
3003.14791	14276.125
3005.57506	14261.425
3008.00073	14196.625
3010.42493	14188.425
3012.84764	14145.125
3015.26888	14153.325
3017.68865	14108.225
3020.10694	14053.125
3022.52376	14008.225
3024.9391	14028.525
3027.35298	14012.125
3029.76539	13986.525
3032.17632	13975.825
3034.5858	13943.625
3036.9938	13933.625
3039.40034	13929.625
3041.80542	13923.525
3044.20903	13877.825
3046.61118	13869.325
3049.01187	13847.325
3051.4111	13826.225
3053.80888	13779.625
3056.20519	13758.925
3058.60005	13700.225
3060.99345	13676.725
3063.3854	13612.725
3065.7759	13562.325
3068.16494	13521.625
3070.55254	13440.025
3072.93868	13438.425
3075.32338	13385.325
3077.70662	13371.525
3080.08842	13292.925
3082.46878	13294.625
3084.84769	13278.425
3087.22515	13270.625
3089.60118	13238.525
3091.97576	13237.625
3094.3489	13210.425
3096.72061	13217.525
3099.09087	13245.025
3101.4597	13203.725
3103.82709	13164.025
3106.19305	13156.925
3108.55757	13139.725
3110.92066	13072.325
3113.28232	13089.125
3115.64255	13001.425
3118.00134	12990.125
3120.35871	12993.025
3122.71466	12959.825
3125.06917	12950.325
3127.42226	12890.525
