Data from AgNPs_FTO_APTES_UA_5uM_CRN_1000uM_R6G_10uM_NaF_0.1M_Addition_RamanShift__18__17-44-51-885.txt Node

Date: Mon Feb 07 17:44:51 GMT 2022
User: TCL
Spectrometer: QEP01345
Trigger mode: 4
Integration Time (sec): 7.000000E0
Scans to average: 10
Electric dark correction enabled: true
Nonlinearity correction enabled: false
Boxcar width: 0
XAxis mode: Raman Shifts
Number of Pixels in Spectrum: 1044
>>>>>Begin Spectral Data<<<<<
46.04893	-1.675
50.45542	-0.075
54.85868	-0.475
59.25871	-0.575
63.6555	46.325
68.04907	47.325
72.43941	50.125
76.82654	53.325
81.21044	56.825
85.59113	53.325
89.96862	59.125
94.34289	60.725
98.71396	59.225
103.08183	62.725
107.4465	67.625
111.80798	67.825
116.16626	70.325
120.52136	77.825
124.87327	79.725
129.222	83.225
133.56755	84.825
137.90993	91.425
142.24913	103.625
146.58517	119.925
150.91804	134.525
155.24774	161.425
159.57429	204.025
163.89768	262.425
168.21792	348.525
172.53501	477.325
176.84895	673.225
181.15975	944.125
185.46741	1334.525
189.77193	1839.525
194.07331	2454.725
198.37157	3174.325
202.6667	3920.225
206.9587	4639.025
211.24758	5371.625
215.53334	6137.725
219.81599	6906.325
224.09553	7786.025
228.37195	8732.025
232.64527	9732.725
236.91549	10797.025
241.18261	11836.525
245.44663	12871.725
249.70755	13762.225
253.96539	14525.925
258.22014	15204.025
262.4718	15741.125
266.72039	16097.425
270.96589	16349.125
275.20832	16408.325
279.44768	16338.525
283.68397	16227.025
287.91719	16167.025
292.14735	16147.225
296.37445	16190.425
300.59849	16275.925
304.81948	16311.425
309.03742	16229.625
313.25231	15981.325
317.46415	15638.625
321.67296	15153.425
325.87872	14775.925
330.08145	14579.125
334.28114	14516.925
338.47781	14573.825
342.67145	14718.825
346.86207	14929.325
351.04966	15170.825
355.23424	15427.225
359.4158	15631.525
363.59435	15784.825
367.76989	15865.525
371.94243	15969.825
376.11196	16041.725
380.27849	16084.825
384.44203	16228.525
388.60257	16354.525
392.76012	16542.425
396.91468	16711.225
401.06626	16938.825
405.21485	17102.825
409.36047	17017.025
413.50311	16792.125
417.64277	16641.525
421.77947	16620.225
425.9132	16727.325
430.04396	16886.925
434.17176	16998.425
438.2966	17196.125
442.41849	17552.525
446.53742	18080.325
450.6534	18728.225
454.76644	19145.225
458.87653	19273.925
462.98368	19125.225
467.08789	18889.125
471.18916	18671.025
475.2875	18589.925
479.38291	18617.325
483.4754	18554.825
487.56496	18339.625
491.6516	17898.125
495.73531	17497.425
499.81612	17185.325
503.89401	17121.025
507.96899	17093.725
512.04106	17015.025
516.11023	16863.125
520.1765	16663.625
524.23987	16497.525
528.30034	16368.625
532.35792	16292.125
536.41261	16112.225
540.46441	15975.725
544.51333	16005.925
548.55936	16204.125
552.60252	16591.125
556.64279	17144.625
560.6802	17566.725
564.71473	17904.325
568.7464	18302.125
572.7752	18922.025
576.80114	19327.725
580.82422	19568.425
584.84444	19820.225
588.86181	20277.225
592.87633	20728.425
596.888	20678.825
600.89682	20105.525
604.9028	20033.325
608.90594	20994.625
612.90624	22118.125
616.90371	20682.625
620.89834	17520.025
624.89015	16126.225
628.87913	16010.325
632.86528	16168.825
636.84862	16240.725
640.82913	16068.625
644.80683	15653.325
648.78172	15357.425
652.75379	15268.925
656.72306	15323.125
660.68952	15498.625
664.65319	15409.725
668.61405	15231.425
672.57211	15210.625
676.52738	15263.725
680.47986	15331.725
684.42955	15265.225
688.37646	15158.525
692.32058	15140.925
696.26192	15246.625
700.20048	15376.125
704.13626	15498.125
708.06928	15518.625
711.99952	15478.725
715.927	15459.125
719.85171	15472.625
723.77365	15469.725
727.69284	15322.225
731.60928	15188.825
735.52295	15164.625
739.43388	15160.325
743.34206	15144.825
747.24749	15184.725
751.15017	15289.525
755.05012	15548.525
758.94733	16029.325
762.8418	16832.625
766.73354	18047.425
770.62254	19306.025
774.50882	19509.825
778.39237	18607.925
782.27321	17194.225
786.15132	16062.625
790.02671	15359.725
793.89938	15006.325
797.76935	14859.025
801.6366	14835.525
805.50115	14787.525
809.36299	14709.525
813.22213	14590.425
817.07857	14539.125
820.93231	14497.325
824.78336	14426.625
828.63172	14336.025
832.47738	14277.125
836.32036	14243.025
840.16066	14224.525
843.99827	14226.425
847.8332	14176.625
851.66546	14145.625
855.49504	14128.225
859.32195	14176.325
863.1462	14168.425
866.96777	14139.925
870.78668	14099.925
874.60293	14097.125
878.41652	14109.125
882.22745	14163.525
886.03573	14161.525
889.84136	14185.825
893.64433	14120.825
897.44466	14086.825
901.24235	14015.825
905.0374	13895.825
908.8298	13850.425
912.61957	13856.525
916.40671	13997.425
920.19121	14181.625
923.97308	14333.125
927.75233	14282.725
931.52895	14139.325
935.30295	13935.325
939.07433	13673.325
942.84309	13452.625
946.60924	13344.725
950.37278	13251.925
954.13371	13264.225
957.89203	13271.325
961.64774	13243.625
965.40086	13216.725
969.15137	13169.225
972.89929	13068.425
976.64461	12993.025
980.38733	12941.025
984.12747	12918.125
987.86502	12968.825
991.59999	13064.925
995.33237	13212.325
999.06217	13460.225
1002.78939	13781.525
1006.51404	14023.525
1010.23611	14214.225
1013.95561	14397.925
1017.67255	14433.825
1021.38692	14282.125
1025.09872	13987.925
1028.80796	13829.325
1032.51465	13837.925
1036.21877	13914.925
1039.92035	13971.925
1043.61937	13987.425
1047.31584	13952.725
1051.00976	13900.125
1054.70114	13916.625
1058.38998	13979.325
1062.07627	14136.725
1065.76003	14257.725
1069.44126	14403.125
1073.11995	14584.825
1076.79611	14708.825
1080.46974	14751.725
1084.14085	14828.325
1087.80943	14977.425
1091.47549	15114.425
1095.13903	15162.425
1098.80005	15054.225
1102.45857	14773.125
1106.11456	14469.425
1109.76805	14321.325
1113.41903	14335.925
1117.06751	14477.525
1120.71348	14709.025
1124.35696	14918.525
1127.99793	15211.725
1131.63641	15346.225
1135.2724	15311.425
1138.90589	15154.225
1142.5369	15164.525
1146.16542	15234.025
1149.79145	15408.425
1153.415	15644.025
1157.03607	15972.125
1160.65467	16438.725
1164.27079	17257.425
1167.88443	18227.325
1171.49561	19431.925
1175.10432	20916.725
1178.71056	22749.125
1182.31434	24434.525
1185.91565	25270.525
1189.51451	25137.225
1193.11091	24531.425
1196.70485	23571.225
1200.29634	22649.625
1203.88538	21889.425
1207.47197	21407.225
1211.05612	20978.925
1214.63782	20524.525
1218.21708	20076.625
1221.79391	19725.425
1225.36829	19436.025
1228.94024	19023.825
1232.50976	18535.125
1236.07685	18098.625
1239.6415	17862.725
1243.20374	17809.325
1246.76355	17946.425
1250.32093	18121.625
1253.8759	18519.325
1257.42845	19026.925
1260.97859	19526.025
1264.52631	20082.125
1268.07163	20641.025
1271.61453	21229.725
1275.15503	21840.125
1278.69312	22549.225
1282.22882	23248.125
1285.76211	24181.025
1289.29301	25324.525
1292.82151	26775.925
1296.34761	28495.525
1299.87133	30423.425
1303.39266	32248.225
1306.9116	33990.225
1310.42815	35422.625
1313.94233	36389.425
1317.45412	36535.425
1320.96354	36122.225
1324.47058	35563.225
1327.97525	35026.525
1331.47754	34614.125
1334.97747	34322.925
1338.47502	34124.525
1341.97022	33753.025
1345.46305	33176.525
1348.95352	32547.325
1352.44163	32129.725
1355.92738	32302.425
1359.41078	33013.725
1362.89183	33677.425
1366.37053	33214.825
1369.84688	30815.725
1373.32088	27634.325
1376.79254	25481.025
1380.26186	24775.525
1383.72883	24952.525
1387.19347	25146.025
1390.65578	25278.325
1394.11575	25546.025
1397.57339	26066.125
1401.0287	26775.025
1404.48168	27253.225
1407.93234	27207.325
1411.38068	26579.025
1414.82669	25353.625
1418.27039	23912.325
1421.71177	22553.925
1425.15083	21359.025
1428.58758	20739.025
1432.02203	20821.925
1435.45416	21357.825
1438.88399	22122.625
1442.31151	22817.925
1445.73673	23372.125
1449.15965	23903.425
1452.58027	24271.725
1455.9986	24459.025
1459.41463	24655.425
1462.82837	24977.525
1466.23982	25262.425
1469.64898	25554.825
1473.05586	25671.925
1476.46045	25535.425
1479.86276	25212.425
1483.26279	24783.025
1486.66054	24478.025
1490.05602	24367.625
1493.44922	24403.125
1496.84016	24408.025
1500.22882	24672.125
1503.61521	25214.325
1506.99934	25995.925
1510.38121	26692.925
1513.76081	26989.425
1517.13816	26554.825
1520.51324	25701.325
1523.88607	25006.725
1527.25665	24778.425
1530.62498	24805.025
1533.99105	24887.225
1537.35488	24746.525
1540.71647	24338.725
1544.07581	23737.225
1547.4329	22993.825
1550.78776	22372.025
1554.14038	21911.225
1557.49077	21648.425
1560.83892	21487.825
1564.18484	21462.625
1567.52853	21557.525
1570.86999	21775.825
1574.20922	22285.425
1577.54624	22786.725
1580.88103	23058.725
1584.2136	23391.525
1587.54395	24040.825
1590.87208	25186.425
1594.19801	26671.325
1597.52172	28133.725
1600.84321	28564.325
1604.16251	27379.725
1607.47959	25122.125
1610.79447	22589.625
1614.10715	20296.325
1617.41763	18444.825
1620.7259	17203.425
1624.03199	16555.725
1627.33587	16482.225
1630.63757	17014.525
1633.93707	18233.325
1637.23439	20277.125
1640.52951	23255.225
1643.82246	26870.025
1647.11321	29758.925
1650.40179	30317.725
1653.68819	28080.225
1656.97241	24139.525
1660.25446	20192.925
1663.53433	17189.625
1666.81203	15249.825
1670.08756	14006.225
1673.36092	13294.825
1676.63211	12818.925
1679.90115	12423.725
1683.16801	12174.025
1686.43272	12000.225
1689.69527	11835.425
1692.95567	11708.725
1696.2139	11624.725
1699.46999	11516.125
1702.72392	11432.825
1705.97571	11406.625
1709.22535	11362.725
1712.47284	11322.825
1715.71819	11284.925
1718.96139	11261.525
1722.20246	11215.725
1725.44139	11137.325
1728.67818	11062.425
1731.91284	10992.025
1735.14537	10930.625
1738.37576	10871.125
1741.60403	10817.325
1744.83017	10794.625
1748.05418	10759.225
1751.27607	10760.825
1754.49584	10738.325
1757.71349	10733.025
1760.92903	10699.125
1764.14244	10681.725
1767.35375	10650.525
1770.56294	10614.625
1773.77002	10585.725
1776.97499	10544.425
1780.17785	10513.325
1783.37861	10512.525
1786.57727	10481.025
1789.77382	10430.825
1792.96828	10407.725
1796.16064	10376.625
1799.3509	10355.825
1802.53907	10311.125
1805.72514	10293.025
1808.90913	10222.725
1812.09102	10195.325
1815.27083	10198.025
1818.44856	10148.325
1821.6242	10139.125
1824.79776	10121.325
1827.96924	10102.125
1831.13864	10097.025
1834.30597	10059.525
1837.47122	10045.625
1840.6344	10033.225
1843.7955	10057.725
1846.95454	10018.525
1850.11151	10014.525
1853.26642	10001.325
1856.41926	9995.125
1859.57004	9974.825
1862.71876	9983.125
1865.86542	9957.825
1869.01003	9953.825
1872.15258	9941.825
1875.29308	9946.425
1878.43152	9912.925
1881.56792	9913.825
1884.70227	9897.525
1887.83457	9889.025
1890.96482	9871.425
1894.09304	9863.925
1897.21921	9861.325
1900.34335	9841.325
1903.46544	9815.425
1906.58551	9817.225
1909.70353	9793.225
1912.81953	9752.225
1915.93349	9740.925
1919.04543	9712.625
1922.15534	9700.225
1925.26322	9667.125
1928.36908	9650.625
1931.47292	9621.025
1934.57473	9616.125
1937.67453	9595.525
1940.77232	9537.225
1943.86808	9507.425
1946.96184	9452.025
1950.05358	9457.925
1953.14331	9401.825
1956.23103	9368.725
1959.31675	9347.325
1962.40046	9339.425
1965.48217	9280.225
1968.56188	9278.825
1971.63959	9207.025
1974.7153	9194.025
1977.78901	9157.525
1980.86073	9128.825
1983.93046	9086.425
1986.99819	9056.925
1990.06394	9045.525
1993.1277	9010.225
1996.18947	8984.025
1999.24925	8957.325
2002.30706	8920.725
2005.36288	8884.025
2008.41672	8870.025
2011.46859	8861.325
2014.51848	8822.325
2017.56639	8800.525
2020.61233	8761.825
2023.6563	8729.525
2026.6983	8717.525
2029.73833	8691.325
2032.7764	8671.425
2035.8125	8668.825
2038.84664	8630.525
2041.87881	8629.125
2044.90903	8595.425
2047.93729	8610.625
2050.96359	8580.125
2053.98794	8559.025
2057.01034	8545.525
2060.03078	8539.725
2063.04927	8542.825
2066.06582	8546.725
2069.08042	8537.625
2072.09307	8508.925
2075.10378	8511.525
2078.11255	8485.025
2081.11938	8498.525
2084.12426	8466.425
2087.12722	8454.425
2090.12824	8459.925
2093.12732	8469.625
2096.12447	8466.825
2099.11969	8447.225
2102.11299	8436.125
2105.10435	8438.425
2108.09379	8429.925
2111.08131	8463.225
2114.0669	8453.325
2117.05057	8448.825
2120.03233	8448.925
2123.01216	8429.925
2125.99008	8458.525
2128.96609	8454.125
2131.94018	8443.925
2134.91236	8455.325
2137.88263	8478.425
2140.851	8446.525
2143.81746	8474.225
2146.78201	8478.925
2149.74466	8441.125
2152.7054	8437.525
2155.66425	8412.325
2158.6212	8422.925
2161.57625	8398.025
2164.52941	8406.325
2167.48067	8388.225
2170.43004	8413.025
2173.37752	8393.725
2176.32311	8401.325
2179.26681	8379.925
2182.20863	8386.825
2185.14856	8383.825
2188.08661	8379.825
2191.02278	8400.125
2193.95707	8364.725
2196.88948	8354.025
2199.82001	8322.425
2202.74867	8306.725
2205.67545	8305.225
2208.60037	8294.425
2211.52341	8283.825
2214.44458	8285.525
2217.36388	8326.825
2220.28132	8326.625
2223.1969	8201.925
2226.11061	8182.225
2229.02246	8173.125
2231.93245	8168.125
2234.84058	8158.725
2237.74686	8118.225
2240.65128	8085.325
2243.55385	8107.325
2246.45456	8088.825
2249.35343	8076.725
2252.25044	8058.525
2255.14561	8022.825
2258.03893	8026.425
2260.93041	7961.625
2263.82004	7959.825
2266.70783	7928.925
2269.59378	7937.625
2272.4779	7909.325
2275.36017	7869.325
2278.24061	7873.525
2281.11922	7839.425
2283.996	7833.625
2286.87094	7815.625
2289.74405	7806.025
2292.61534	7779.125
2295.4848	7764.625
2298.35243	7764.325
2301.21824	7769.725
2304.08223	7758.025
2306.94439	7787.425
2309.80474	7778.225
2312.66327	7763.725
2315.51999	7765.825
2318.37489	7741.425
2321.22797	7721.825
2324.07925	7698.425
2326.92871	7694.625
2329.77637	7692.725
2332.62222	7684.425
2335.46626	7679.125
2338.3085	7658.525
2341.14893	7660.325
2343.98756	7655.525
2346.8244	7662.625
2349.65943	7630.225
2352.49267	7625.425
2355.32411	7633.425
2358.15376	7638.425
2360.98161	7623.925
2363.80768	7629.325
2366.63195	7642.425
2369.45444	7635.325
2372.27514	7607.425
2375.09405	7585.425
2377.91118	7562.925
2380.72652	7542.925
2383.54009	7520.425
2386.35187	7520.425
2389.16188	7488.125
2391.97011	7476.825
2394.77657	7470.825
2397.58125	7435.025
2400.38416	7436.725
2403.18529	7413.525
2405.98466	7398.625
2408.78226	7392.825
2411.57809	7393.825
2414.37216	7386.125
2417.16446	7367.825
2419.955	7359.025
2422.74378	7357.725
2425.5308	7350.925
2428.31606	7330.625
2431.09956	7312.125
2433.88131	7320.125
2436.6613	7271.425
2439.43954	7302.525
2442.21603	7303.625
2444.99077	7303.225
2447.76377	7303.825
2450.53501	7287.125
2453.30451	7275.825
2456.07226	7288.725
2458.83827	7267.025
2461.60254	7256.825
2464.36507	7269.425
2467.12586	7267.525
2469.88492	7268.225
2472.64224	7266.525
2475.39782	7249.325
2478.15167	7261.025
2480.90379	7268.725
2483.65417	7257.725
2486.40283	7265.525
2489.14976	7241.925
2491.89497	7268.625
2494.63845	7266.025
2497.3802	7257.125
2500.12024	7265.425
2502.85855	7245.225
2505.59514	7248.925
2508.33002	7220.125
2511.06318	7212.125
2513.79462	7221.225
2516.52435	7198.325
2519.25237	7200.325
2521.97867	7187.925
2524.70327	7198.825
2527.42616	7177.425
2530.14734	7169.925
2532.86681	7181.025
2535.58458	7168.725
2538.30065	7138.425
2541.01501	7152.725
2543.72768	7145.225
2546.43864	7120.925
2549.14791	7112.925
2551.85548	7116.325
2554.56136	7102.025
2557.26554	7092.525
2559.96803	7084.625
2562.66883	7066.425
2565.36794	7076.025
2568.06536	7061.225
2570.7611	7062.525
2573.45514	7033.025
2576.14751	7030.025
2578.83819	7028.125
2581.52719	7028.825
2584.21451	7019.025
2586.90015	7016.825
2589.58411	7020.025
2592.2664	6997.525
2594.94701	7004.925
2597.62594	6997.625
2600.30321	6988.725
2602.9788	6989.825
2605.65273	6983.025
2608.32498	6994.125
2610.99557	6990.225
2613.66449	6992.025
2616.33175	6970.925
2618.99734	6962.825
2621.66128	6958.125
2624.32355	6952.125
2626.98416	6959.925
2629.64311	6940.725
2632.30041	6941.325
2634.95605	6947.025
2637.61004	6934.525
2640.26238	6933.825
2642.91306	6890.725
2645.56209	6913.325
2648.20948	6913.525
2650.85521	6921.925
2653.4993	6912.325
2656.14175	6926.625
2658.78255	6944.525
2661.42171	6925.825
2664.05923	6925.325
2666.6951	6926.325
2669.32934	6949.725
2671.96194	6935.125
2674.59291	6916.425
2677.22224	6920.425
2679.84993	6927.225
2682.476	6912.325
2685.10043	6914.125
2687.72324	6896.725
2690.34441	6908.025
2692.96396	6900.725
2695.58188	6901.025
2698.19818	6883.825
2700.81285	6899.325
2703.4259	6874.725
2706.03733	6905.625
2708.64714	6908.025
2711.25533	6902.925
2713.86191	6936.725
2716.46687	6924.925
2719.07021	6922.425
2721.67194	6934.425
2724.27206	6945.725
2726.87057	6936.525
2729.46747	6930.725
2732.06276	6943.025
2734.65644	6931.125
2737.24852	6921.325
2739.83899	6931.425
2742.42786	6924.725
2745.01513	6911.925
2747.60079	6904.425
2750.18486	6898.325
2752.76733	6892.625
2755.3482	6901.025
2757.92747	6901.725
2760.50515	6891.425
2763.08123	6873.425
2765.65573	6862.125
2768.22863	6866.925
2770.79994	6874.325
2773.36967	6893.225
2775.9378	6868.625
2778.50435	6888.625
2781.06932	6860.625
2783.6327	6873.425
2786.1945	6859.325
2788.75471	6878.325
2791.31335	6867.125
2793.87041	6848.025
2796.42589	6831.425
2798.97979	6845.025
2801.53212	6833.525
2804.08288	6825.225
2806.63206	6803.525
2809.17967	6784.825
2811.72571	6754.925
2814.27018	6758.125
2816.81308	6756.025
2819.35442	6741.125
2821.89419	6732.625
2824.43239	6711.125
2826.96904	6727.425
2829.50412	6734.625
2832.03763	6699.325
2834.56959	6700.625
2837.1	6685.125
2839.62884	6712.825
2842.15613	6699.125
2844.68186	6734.425
2847.20604	6753.525
2849.72867	6786.925
2852.24974	6764.725
2854.76927	6761.125
2857.28724	6745.325
2859.80367	6745.525
2862.31855	6735.325
2864.83189	6744.425
2867.34368	6707.825
2869.85393	6702.125
2872.36264	6693.625
2874.8698	6705.125
2877.37543	6690.125
2879.87952	6708.525
2882.38207	6681.625
2884.88308	6705.525
2887.38256	6680.025
2889.88051	6696.425
2892.37692	6697.525
2894.8718	6710.725
2897.36515	6719.325
2899.85698	6712.825
2902.34727	6724.125
2904.83604	6719.925
2907.32328	6757.625
2909.809	6750.125
2912.29319	6732.825
2914.77587	6750.125
2917.25702	6746.225
2919.73665	6755.625
2922.21476	6746.425
2924.69136	6749.325
2927.16644	6745.525
2929.64	6744.225
2932.11205	6722.925
2934.58258	6723.825
2937.05161	6720.725
2939.51912	6703.925
2941.98513	6701.525
2944.44962	6679.225
2946.91261	6652.725
2949.37409	6643.225
2951.83407	6649.025
2954.29254	6609.825
2956.74951	6604.725
2959.20498	6599.525
2961.65895	6574.325
2964.11142	6574.625
2966.56239	6550.125
2969.01186	6547.325
2971.45984	6517.125
2973.90632	6517.325
2976.35131	6496.325
2978.7948	6459.425
2981.23681	6457.525
2983.67732	6439.525
2986.11635	6419.325
2988.55388	6393.725
2990.98993	6390.625
2993.4245	6353.825
2995.85758	6352.925
2998.28917	6321.925
3000.71928	6294.325
3003.14791	6313.625
3005.57506	6284.425
3008.00073	6257.825
3010.42493	6229.925
3012.84764	6236.325
3015.26888	6250.525
3017.68865	6229.925
3020.10694	6224.625
3022.52376	6189.825
3024.9391	6175.225
3027.35298	6179.225
3029.76539	6168.425
3032.17632	6160.025
3034.5858	6149.825
3036.9938	6138.225
3039.40034	6137.025
3041.80542	6156.225
3044.20903	6122.925
3046.61118	6111.825
3049.01187	6102.625
3051.4111	6113.125
3053.80888	6102.925
3056.20519	6085.825
3058.60005	6071.825
3060.99345	6046.225
3063.3854	6040.225
3065.7759	6016.525
3068.16494	6001.325
3070.55254	5967.825
3072.93868	5947.625
3075.32338	5950.125
3077.70662	5940.725
3080.08842	5928.825
3082.46878	5911.025
3084.84769	5899.825
3087.22515	5880.425
3089.60118	5878.025
3091.97576	5890.025
3094.3489	5900.525
3096.72061	5867.325
3099.09087	5867.525
3101.4597	5877.025
3103.82709	5881.525
3106.19305	5872.125
3108.55757	5870.025
3110.92066	5843.625
3113.28232	5837.725
3115.64255	5832.125
3118.00134	5791.825
3120.35871	5794.425
3122.71466	5786.925
3125.06917	5772.425
3127.42226	5764.325
3129.77393	5749.425
3132.12417	5732.725
3134.47299	5756.425
3136.82039	5752.525
3139.16636	5749.725
3141.51092	5743.825
3143.85406	5730.225
3146.19579	5715.025
3148.53609	5729.125
3150.87499	5746.625
3153.21246	5743.225
3155.54853	5747.125
3157.88318	5754.825
3160.21642	5787.125
3162.54826	5757.525
3164.87868	5753.025
3167.2077	5774.025
3169.5353	5760.725
3171.86151	5755.325
3174.18631	5756.525
3176.5097	5753.525
3178.83169	5743.425
3181.15228	5740.625
3183.47147	5727.825
