Data from AgNPs_FTO_APTES_UA_5uM_CRN_2uM_R6G_10uM_NaF_0.1M_Addition_RamanShift__34__11-36-36-657.txt Node

Date: Mon Feb 07 11:36:36 GMT 2022
User: TCL
Spectrometer: QEP01345
Trigger mode: 4
Integration Time (sec): 7.000000E0
Scans to average: 10
Electric dark correction enabled: true
Nonlinearity correction enabled: false
Boxcar width: 0
XAxis mode: Raman Shifts
Number of Pixels in Spectrum: 1044
>>>>>Begin Spectral Data<<<<<
46.04893	-0.575
50.45542	-2.075
54.85868	-0.575
59.25871	0.525
63.6555	79.425
68.04907	84.725
72.43941	87.825
76.82654	94.525
81.21044	96.225
85.59113	102.025
89.96862	104.825
94.34289	100.325
98.71396	113.525
103.08183	110.225
107.4465	116.925
111.80798	115.825
116.16626	123.825
120.52136	128.325
124.87327	134.025
129.222	137.525
133.56755	150.025
137.90993	162.625
142.24913	174.025
146.58517	196.325
150.91804	224.625
155.24774	275.225
159.57429	334.925
163.89768	429.525
168.21792	574.525
172.53501	781.825
176.84895	1093.325
181.15975	1539.425
185.46741	2170.625
189.77193	2995.625
194.07331	3997.825
198.37157	5140.825
202.6667	6367.425
206.9587	7571.825
211.24758	8778.125
215.53334	9984.825
219.81599	11308.925
224.09553	12780.525
228.37195	14392.925
232.64527	16169.925
236.91549	17966.925
241.18261	19675.225
245.44663	21246.125
249.70755	22616.625
253.96539	23809.225
258.22014	24880.625
262.4718	25731.325
266.72039	26382.725
270.96589	26695.125
275.20832	26731.525
279.44768	26510.425
283.68397	26196.925
287.91719	25939.625
292.14735	25760.525
296.37445	25909.725
300.59849	26151.825
304.81948	26634.625
309.03742	26901.125
313.25231	26826.925
317.46415	26232.925
321.67296	25280.525
325.87872	24479.125
330.08145	24063.425
334.28114	24068.025
338.47781	24255.625
342.67145	24563.725
346.86207	25023.825
351.04966	25715.525
355.23424	26456.325
359.4158	27141.925
363.59435	27582.725
367.76989	27786.325
371.94243	27930.225
376.11196	27996.225
380.27849	28080.925
384.44203	28093.525
388.60257	28134.225
392.76012	28203.125
396.91468	28563.825
401.06626	29066.325
405.21485	29517.025
409.36047	29403.325
413.50311	28773.125
417.64277	28257.725
421.77947	28093.125
425.9132	28089.525
430.04396	28224.025
434.17176	28508.125
438.2966	28899.725
442.41849	29739.325
446.53742	30920.125
450.6534	32252.625
454.76644	33164.325
458.87653	33277.625
462.98368	32688.125
467.08789	31833.925
471.18916	31050.625
475.2875	30336.525
479.38291	29832.125
483.4754	29467.925
487.56496	29082.525
491.6516	28658.125
495.73531	28246.225
499.81612	28110.025
503.89401	28174.325
507.96899	28224.425
512.04106	28190.725
516.11023	28088.225
520.1765	27985.225
524.23987	27926.125
528.30034	27909.125
532.35792	27659.925
536.41261	27173.725
540.46441	26627.425
544.51333	26388.425
548.55936	26637.225
552.60252	27218.025
556.64279	28000.525
560.6802	28544.725
564.71473	28934.325
568.7464	29622.925
572.7752	30418.825
576.80114	30661.725
580.82422	30868.625
584.84444	31515.425
588.86181	32604.025
592.87633	34186.025
596.888	35244.325
600.89682	35044.925
604.9028	35549.925
608.90594	39068.325
612.90624	43584.825
616.90371	41116.925
620.89834	32866.325
624.89015	29156.425
628.87913	28746.225
632.86528	28688.225
636.84862	28341.425
640.82913	27644.025
644.80683	26634.525
648.78172	25949.525
652.75379	25962.225
656.72306	26535.225
660.68952	27315.925
664.65319	27173.825
668.61405	26474.125
672.57211	26193.025
676.52738	26144.925
680.47986	26044.525
684.42955	25766.425
688.37646	25706.925
692.32058	25897.625
696.26192	26294.725
700.20048	26739.725
704.13626	26998.525
708.06928	26791.325
711.99952	26516.825
715.927	26513.825
719.85171	26686.825
723.77365	26626.625
727.69284	26202.025
731.60928	25891.025
735.52295	25838.925
739.43388	25941.025
743.34206	26066.025
747.24749	26215.125
751.15017	26466.925
755.05012	26905.625
758.94733	27747.225
762.8418	29405.425
766.73354	32251.725
770.62254	35034.425
774.50882	36013.725
778.39237	34547.925
782.27321	31610.225
786.15132	28886.625
790.02671	27232.325
793.89938	26513.725
797.76935	26250.725
801.6366	26246.425
805.50115	26129.725
809.36299	25960.225
813.22213	25829.725
817.07857	25696.825
820.93231	25648.925
824.78336	25592.725
828.63172	25649.125
832.47738	25767.225
836.32036	25883.825
840.16066	25958.525
843.99827	26067.725
847.8332	25950.025
851.66546	25728.725
855.49504	25655.325
859.32195	25607.825
863.1462	25486.725
866.96777	25342.825
870.78668	25307.625
874.60293	25309.825
878.41652	25289.725
882.22745	25475.825
886.03573	25568.125
889.84136	25513.225
893.64433	25342.025
897.44466	25199.725
901.24235	25134.625
905.0374	25033.925
908.8298	24988.225
912.61957	25010.325
916.40671	25250.325
920.19121	25606.025
923.97308	26037.925
927.75233	26322.125
931.52895	26357.125
935.30295	26062.425
939.07433	25440.125
942.84309	24935.625
946.60924	24732.825
950.37278	24698.325
954.13371	24555.125
957.89203	24387.525
961.64774	24307.025
965.40086	24238.025
969.15137	24199.725
972.89929	24057.125
976.64461	24058.325
980.38733	24211.525
984.12747	24391.125
987.86502	24773.325
991.59999	25186.225
995.33237	25810.225
999.06217	26802.225
1002.78939	27941.625
1006.51404	28576.325
1010.23611	28820.725
1013.95561	29067.725
1017.67255	29012.025
1021.38692	28452.225
1025.09872	27972.925
1028.80796	28237.525
1032.51465	29336.825
1036.21877	30431.125
1039.92035	30544.825
1043.61937	29942.325
1047.31584	28939.725
1051.00976	27961.725
1054.70114	27416.925
1058.38998	27207.425
1062.07627	27195.725
1065.76003	27188.925
1069.44126	27278.525
1073.11995	27626.325
1076.79611	27972.025
1080.46974	28333.025
1084.14085	28794.625
1087.80943	29267.825
1091.47549	29584.125
1095.13903	29438.425
1098.80005	28861.025
1102.45857	28172.225
1106.11456	27826.325
1109.76805	27804.525
1113.41903	27978.725
1117.06751	28317.725
1120.71348	28770.925
1124.35696	29256.025
1127.99793	29710.625
1131.63641	29806.725
1135.2724	29359.625
1138.90589	28891.725
1142.5369	28624.125
1146.16542	28569.325
1149.79145	28667.425
1153.415	28825.825
1157.03607	29243.625
1160.65467	29922.925
1164.27079	31125.125
1167.88443	32984.725
1171.49561	35383.225
1175.10432	38734.025
1178.71056	43001.725
1182.31434	46799.025
1185.91565	48498.125
1189.51451	47691.525
1193.11091	45236.025
1196.70485	42495.825
1200.29634	40222.225
1203.88538	38674.225
1207.47197	37392.625
1211.05612	36409.725
1214.63782	35801.425
1218.21708	35656.825
1221.79391	35868.325
1225.36829	36077.825
1228.94024	35723.425
1232.50976	34757.625
1236.07685	33771.325
1239.6415	33288.825
1243.20374	33136.125
1246.76355	33337.025
1250.32093	33947.925
1253.8759	34825.025
1257.42845	35962.725
1260.97859	37175.025
1264.52631	38319.925
1268.07163	39432.625
1271.61453	40667.125
1275.15503	42010.725
1278.69312	43376.825
1282.22882	44695.325
1285.76211	46195.725
1289.29301	47738.225
1292.82151	49590.125
1296.34761	52012.425
1299.87133	55222.725
1303.39266	59209.625
1306.9116	64133.825
1310.42815	69033.525
1313.94233	72079.725
1317.45412	71929.625
1320.96354	69123.025
1324.47058	65501.125
1327.97525	62153.725
1331.47754	59881.225
1334.97747	58666.125
1338.47502	57918.525
1341.97022	56980.325
1345.46305	55889.225
1348.95352	55472.325
1352.44163	56665.225
1355.92738	59794.025
1359.41078	64936.525
1362.89183	69697.825
1366.37053	69277.425
1369.84688	62551.425
1373.32088	54017.425
1376.79254	48377.025
1380.26186	46123.925
1383.72883	45695.525
1387.19347	45269.125
1390.65578	44412.725
1394.11575	44025.325
1397.57339	44619.625
1401.0287	45920.325
1404.48168	47051.925
1407.93234	47452.725
1411.38068	47001.125
1414.82669	45658.025
1418.27039	43739.625
1421.71177	41713.525
1425.15083	40004.925
1428.58758	39163.825
1432.02203	39495.225
1435.45416	40581.525
1438.88399	41679.025
1442.31151	42520.225
1445.73673	43251.725
1449.15965	43809.025
1452.58027	43898.325
1455.9986	43496.025
1459.41463	43345.825
1462.82837	43841.125
1466.23982	44948.525
1469.64898	46099.625
1473.05586	46819.825
1476.46045	47147.225
1479.86276	47346.125
1483.26279	47166.025
1486.66054	47046.625
1490.05602	47141.425
1493.44922	47383.525
1496.84016	47630.125
1500.22882	48266.325
1503.61521	49748.425
1506.99934	51863.625
1510.38121	54092.225
1513.76081	55217.625
1517.13816	54035.425
1520.51324	51098.325
1523.88607	48156.725
1527.25665	46306.425
1530.62498	45527.525
1533.99105	45123.325
1537.35488	44713.125
1540.71647	44102.025
1544.07581	43317.525
1547.4329	42375.925
1550.78776	41429.425
1554.14038	40622.925
1557.49077	40080.925
1560.83892	39850.825
1564.18484	39936.025
1567.52853	40225.225
1570.86999	40774.325
1574.20922	41435.825
1577.54624	41863.125
1580.88103	41639.225
1584.2136	41539.325
1587.54395	42798.425
1590.87208	45594.125
1594.19801	49609.725
1597.52172	53700.325
1600.84321	55379.225
1604.16251	52942.225
1607.47959	47779.825
1610.79447	42119.325
1614.10715	37409.225
1617.41763	34114.125
1620.7259	32326.425
1624.03199	31600.425
1627.33587	31886.125
1630.63757	33066.725
1633.93707	35489.025
1637.23439	39228.525
1640.52951	44638.825
1643.82246	51159.725
1647.11321	56681.625
1650.40179	57784.325
1653.68819	53218.925
1656.97241	45228.325
1660.25446	37595.525
1663.53433	32357.425
1666.81203	29158.225
1670.08756	27289.325
1673.36092	26103.925
1676.63211	25353.925
1679.90115	24909.325
1683.16801	24531.025
1686.43272	24241.625
1689.69527	24037.225
1692.95567	23882.825
1696.2139	23796.025
1699.46999	23732.625
1702.72392	23673.525
1705.97571	23568.525
1709.22535	23565.925
1712.47284	23520.825
1715.71819	23512.725
1718.96139	23496.425
1722.20246	23408.225
1725.44139	23348.225
1728.67818	23170.625
1731.91284	23039.325
1735.14537	22893.425
1738.37576	22807.925
1741.60403	22714.925
1744.83017	22655.725
1748.05418	22585.225
1751.27607	22510.825
1754.49584	22524.925
1757.71349	22508.225
1760.92903	22511.425
1764.14244	22485.425
1767.35375	22489.425
1770.56294	22412.725
1773.77002	22383.525
1776.97499	22317.725
1780.17785	22283.825
1783.37861	22225.425
1786.57727	22210.225
1789.77382	22157.625
1792.96828	22181.725
1796.16064	22175.625
1799.3509	22146.125
1802.53907	22072.525
1805.72514	22021.425
1808.90913	21959.125
1812.09102	21891.225
1815.27083	21841.625
1818.44856	21836.125
1821.6242	21730.825
1824.79776	21749.825
1827.96924	21677.925
1831.13864	21671.025
1834.30597	21672.725
1837.47122	21619.525
1840.6344	21610.425
1843.7955	21628.825
1846.95454	21637.825
1850.11151	21623.325
1853.26642	21589.925
1856.41926	21614.425
1859.57004	21637.225
1862.71876	21638.025
1865.86542	21643.525
1869.01003	21584.625
1872.15258	21612.425
1875.29308	21602.125
1878.43152	21637.725
1881.56792	21609.125
1884.70227	21621.525
1887.83457	21631.025
1890.96482	21599.425
1894.09304	21603.225
1897.21921	21633.225
1900.34335	21566.225
1903.46544	21613.125
1906.58551	21624.525
1909.70353	21615.425
1912.81953	21579.925
1915.93349	21535.725
1919.04543	21502.625
1922.15534	21443.725
1925.26322	21405.625
1928.36908	21378.425
1931.47292	21317.525
1934.57473	21259.125
1937.67453	21163.425
1940.77232	21079.925
1943.86808	21024.125
1946.96184	20978.425
1950.05358	20903.225
1953.14331	20862.625
1956.23103	20782.825
1959.31675	20690.925
1962.40046	20643.425
1965.48217	20563.625
1968.56188	20539.625
1971.63959	20486.125
1974.7153	20395.725
1977.78901	20332.025
1980.86073	20306.425
1983.93046	20253.225
1986.99819	20171.525
1990.06394	20133.025
1993.1277	20097.725
1996.18947	20002.625
1999.24925	19938.425
2002.30706	19872.125
2005.36288	19855.125
2008.41672	19798.625
2011.46859	19780.025
2014.51848	19691.525
2017.56639	19661.025
2020.61233	19634.425
2023.6563	19580.725
2026.6983	19579.725
2029.73833	19537.625
2032.7764	19467.925
2035.8125	19447.225
2038.84664	19444.325
2041.87881	19453.625
2044.90903	19430.425
2047.93729	19356.625
2050.96359	19378.725
2053.98794	19334.225
2057.01034	19342.925
2060.03078	19316.925
2063.04927	19303.225
2066.06582	19317.925
2069.08042	19296.025
2072.09307	19285.825
2075.10378	19230.425
2078.11255	19225.925
2081.11938	19203.425
2084.12426	19182.925
2087.12722	19176.225
2090.12824	19170.925
2093.12732	19163.125
2096.12447	19183.125
2099.11969	19219.825
2102.11299	19212.925
2105.10435	19212.825
2108.09379	19215.725
2111.08131	19222.425
2114.0669	19182.425
2117.05057	19185.125
2120.03233	19267.225
2123.01216	19239.625
2125.99008	19295.325
2128.96609	19283.925
2131.94018	19310.025
2134.91236	19288.625
2137.88263	19324.625
2140.851	19348.525
2143.81746	19422.625
2146.78201	19387.425
2149.74466	19372.525
2152.7054	19348.925
2155.66425	19301.025
2158.6212	19322.425
2161.57625	19311.225
2164.52941	19319.825
2167.48067	19304.425
2170.43004	19322.425
2173.37752	19309.125
2176.32311	19328.025
2179.26681	19321.825
2182.20863	19320.925
2185.14856	19308.425
2188.08661	19355.125
2191.02278	19369.825
2193.95707	19352.025
2196.88948	19384.625
2199.82001	19393.125
2202.74867	19326.125
2205.67545	19317.025
2208.60037	19324.525
2211.52341	19331.225
2214.44458	19278.025
2217.36388	19254.325
2220.28132	19239.225
2223.1969	19167.725
2226.11061	19194.825
2229.02246	19163.825
2231.93245	19144.725
2234.84058	19081.025
2237.74686	19043.525
2240.65128	19036.525
2243.55385	18985.025
2246.45456	18973.725
2249.35343	18960.325
2252.25044	18961.925
2255.14561	18887.525
2258.03893	18867.125
2260.93041	18806.325
2263.82004	18800.025
2266.70783	18745.525
2269.59378	18665.425
2272.4779	18626.725
2275.36017	18625.025
2278.24061	18545.325
2281.11922	18528.125
2283.996	18521.925
2286.87094	18511.425
2289.74405	18530.925
2292.61534	18476.425
2295.4848	18464.725
2298.35243	18503.825
2301.21824	18476.425
2304.08223	18506.625
2306.94439	18524.525
2309.80474	18549.625
2312.66327	18599.125
2315.51999	18551.225
2318.37489	18527.025
2321.22797	18527.025
2324.07925	18501.325
2326.92871	18489.425
2329.77637	18470.725
2332.62222	18457.225
2335.46626	18444.525
2338.3085	18466.425
2341.14893	18474.925
2343.98756	18496.725
2346.8244	18538.725
2349.65943	18521.225
2352.49267	18503.625
2355.32411	18493.525
2358.15376	18511.325
2360.98161	18450.925
2363.80768	18418.825
2366.63195	18427.325
2369.45444	18432.225
2372.27514	18362.125
2375.09405	18379.225
2377.91118	18295.825
2380.72652	18266.925
2383.54009	18204.825
2386.35187	18213.625
2389.16188	18146.125
2391.97011	18126.125
2394.77657	18091.625
2397.58125	18063.225
2400.38416	18036.025
2403.18529	18017.125
2405.98466	17975.425
2408.78226	17921.625
2411.57809	17894.325
2414.37216	17938.125
2417.16446	17872.725
2419.955	17842.525
2422.74378	17828.025
2425.5308	17770.625
2428.31606	17795.425
2431.09956	17838.125
2433.88131	17798.525
2436.6613	17831.825
2439.43954	17826.425
2442.21603	17799.725
2444.99077	17768.425
2447.76377	17767.125
2450.53501	17758.325
2453.30451	17783.625
2456.07226	17749.325
2458.83827	17785.625
2461.60254	17774.125
2464.36507	17756.225
2467.12586	17745.025
2469.88492	17746.425
2472.64224	17779.625
2475.39782	17858.625
2478.15167	17837.725
2480.90379	17839.525
2483.65417	17860.525
2486.40283	17898.225
2489.14976	17891.525
2491.89497	17895.525
2494.63845	17892.425
2497.3802	17905.025
2500.12024	17927.525
2502.85855	17895.625
2505.59514	17873.025
2508.33002	17851.325
2511.06318	17844.025
2513.79462	17793.725
2516.52435	17747.425
2519.25237	17731.525
2521.97867	17723.725
2524.70327	17721.025
2527.42616	17680.925
2530.14734	17686.725
2532.86681	17696.925
2535.58458	17732.325
2538.30065	17679.525
2541.01501	17724.125
2543.72768	17668.925
2546.43864	17652.425
2549.14791	17642.325
2551.85548	17635.025
2554.56136	17608.525
2557.26554	17613.825
2559.96803	17594.225
2562.66883	17581.125
2565.36794	17542.325
2568.06536	17550.125
2570.7611	17533.125
2573.45514	17541.325
2576.14751	17543.425
2578.83819	17523.925
2581.52719	17569.725
2584.21451	17546.325
2586.90015	17553.425
2589.58411	17540.025
2592.2664	17544.325
2594.94701	17510.925
2597.62594	17507.525
2600.30321	17453.925
2602.9788	17476.025
2605.65273	17439.825
2608.32498	17463.725
2610.99557	17461.625
2613.66449	17469.025
2616.33175	17450.025
2618.99734	17479.325
2621.66128	17467.425
2624.32355	17469.325
2626.98416	17469.125
2629.64311	17460.825
2632.30041	17484.025
2634.95605	17463.525
2637.61004	17445.625
2640.26238	17405.225
2642.91306	17388.525
2645.56209	17378.125
2648.20948	17405.525
2650.85521	17386.525
2653.4993	17366.225
2656.14175	17341.825
2658.78255	17369.925
2661.42171	17382.025
2664.05923	17427.725
2666.6951	17447.225
2669.32934	17462.025
2671.96194	17456.225
2674.59291	17461.125
2677.22224	17452.925
2679.84993	17466.825
2682.476	17428.125
2685.10043	17419.825
2687.72324	17416.925
2690.34441	17390.125
2692.96396	17382.925
2695.58188	17391.925
2698.19818	17361.025
2700.81285	17369.825
2703.4259	17350.725
2706.03733	17408.125
2708.64714	17410.625
2711.25533	17414.825
2713.86191	17394.225
2716.46687	17416.925
2719.07021	17447.425
2721.67194	17483.925
2724.27206	17480.125
2726.87057	17485.425
2729.46747	17508.725
2732.06276	17488.125
2734.65644	17486.125
2737.24852	17499.725
2739.83899	17463.425
2742.42786	17458.025
2745.01513	17437.525
2747.60079	17410.425
2750.18486	17393.125
2752.76733	17411.325
2755.3482	17383.325
2757.92747	17390.625
2760.50515	17364.725
2763.08123	17383.425
2765.65573	17379.125
2768.22863	17372.825
2770.79994	17342.825
2773.36967	17395.325
2775.9378	17385.725
2778.50435	17364.725
2781.06932	17363.325
2783.6327	17362.325
2786.1945	17378.325
2788.75471	17364.825
2791.31335	17375.425
2793.87041	17353.025
2796.42589	17280.225
2798.97979	17274.125
2801.53212	17256.525
2804.08288	17214.525
2806.63206	17158.925
2809.17967	17132.725
2811.72571	17128.125
2814.27018	17104.025
2816.81308	17104.125
2819.35442	17067.725
2821.89419	17032.225
2824.43239	17067.425
2826.96904	17084.625
2829.50412	17075.125
2832.03763	16982.125
2834.56959	16997.925
2837.1	17018.125
2839.62884	16994.925
2842.15613	17016.325
2844.68186	17102.625
2847.20604	17091.025
2849.72867	17099.425
2852.24974	17126.225
2854.76927	17103.525
2857.28724	17136.225
2859.80367	17076.125
2862.31855	17055.125
2864.83189	17051.425
2867.34368	17037.425
2869.85393	17024.225
2872.36264	16967.925
2874.8698	16960.725
2877.37543	16965.225
2879.87952	17023.925
2882.38207	16994.225
2884.88308	16976.225
2887.38256	17012.425
2889.88051	16990.825
2892.37692	17001.025
2894.8718	17033.125
2897.36515	17020.925
2899.85698	17054.625
2902.34727	17112.125
2904.83604	17083.625
2907.32328	17160.725
2909.809	17136.625
2912.29319	17182.825
2914.77587	17186.425
2917.25702	17177.025
2919.73665	17150.025
2922.21476	17133.025
2924.69136	17132.725
2927.16644	17145.925
2929.64	17071.725
2932.11205	17087.825
2934.58258	17029.225
2937.05161	17048.925
2939.51912	17028.025
2941.98513	16974.625
2944.44962	16945.525
2946.91261	16905.325
2949.37409	16861.925
2951.83407	16857.425
2954.29254	16846.525
2956.74951	16826.225
2959.20498	16815.525
2961.65895	16781.825
2964.11142	16782.625
2966.56239	16718.325
2969.01186	16740.325
2971.45984	16719.425
2973.90632	16704.725
2976.35131	16646.225
2978.7948	16640.025
2981.23681	16546.025
2983.67732	16561.925
2986.11635	16511.325
2988.55388	16461.825
2990.98993	16430.525
2993.4245	16377.225
2995.85758	16334.725
2998.28917	16313.925
3000.71928	16303.825
3003.14791	16261.525
3005.57506	16272.825
3008.00073	16187.125
3010.42493	16209.025
3012.84764	16201.225
3015.26888	16220.725
3017.68865	16171.225
3020.10694	16143.725
3022.52376	16109.225
3024.9391	16072.825
3027.35298	16050.825
3029.76539	16058.525
3032.17632	15991.925
3034.5858	16010.025
3036.9938	16028.025
3039.40034	16015.125
3041.80542	16020.725
3044.20903	16002.625
3046.61118	16012.625
3049.01187	15939.725
3051.4111	15945.125
3053.80888	15925.225
3056.20519	15914.225
3058.60005	15852.825
3060.99345	15830.425
3063.3854	15815.525
3065.7759	15735.625
3068.16494	15725.025
3070.55254	15664.325
3072.93868	15655.325
3075.32338	15602.525
3077.70662	15577.225
3080.08842	15553.625
3082.46878	15528.125
3084.84769	15461.225
3087.22515	15470.125
3089.60118	15488.825
3091.97576	15438.725
3094.3489	15463.825
3096.72061	15458.325
3099.09087	15438.625
3101.4597	15424.725
3103.82709	15444.925
3106.19305	15427.525
3108.55757	15407.725
3110.92066	15362.125
3113.28232	15352.825
3115.64255	15322.925
3118.00134	15305.925
3120.35871	15267.625
3122.71466	15253.625
3125.06917	15220.725
3127.42226	15154.125
