Data from AgNPs_FTO_APTES_UA_5uM_CRN_500uM_R6G_10uM_NaF_0.1M_Addition_RamanShift__35__17-21-31-857.txt Node

Date: Mon Feb 07 17:21:31 GMT 2022
User: TCL
Spectrometer: QEP01345
Trigger mode: 4
Integration Time (sec): 7.000000E0
Scans to average: 10
Electric dark correction enabled: true
Nonlinearity correction enabled: false
Boxcar width: 0
XAxis mode: Raman Shifts
Number of Pixels in Spectrum: 1044
>>>>>Begin Spectral Data<<<<<
46.04893	-1.4125
50.45542	-0.5125
54.85868	-0.4125
59.25871	-1.2125
63.6555	33.1875
68.04907	35.5875
72.43941	39.0875
76.82654	41.5875
81.21044	41.7875
85.59113	39.2875
89.96862	43.1875
94.34289	42.4875
98.71396	43.1875
103.08183	44.7875
107.4465	47.6875
111.80798	49.6875
116.16626	52.5875
120.52136	51.7875
124.87327	57.5875
129.222	58.4875
133.56755	61.3875
137.90993	68.8875
142.24913	72.6875
146.58517	82.4875
150.91804	94.0875
155.24774	121.3875
159.57429	150.2875
163.89768	190.5875
168.21792	256.3875
172.53501	352.4875
176.84895	489.6875
181.15975	695.0875
185.46741	971.5875
189.77193	1345.0875
194.07331	1808.8875
198.37157	2316.1875
202.6667	2859.9875
206.9587	3403.0875
211.24758	3938.6875
215.53334	4496.5875
219.81599	5063.3875
224.09553	5692.0875
228.37195	6406.9875
232.64527	7116.8875
236.91549	7893.4875
241.18261	8698.0875
245.44663	9421.1875
249.70755	10106.0875
253.96539	10680.6875
258.22014	11166.8875
262.4718	11615.8875
266.72039	11893.0875
270.96589	12054.4875
275.20832	12065.7875
279.44768	11982.5875
283.68397	11854.4875
287.91719	11775.1875
292.14735	11690.3875
296.37445	11633.8875
300.59849	11680.3875
304.81948	11727.5875
309.03742	11733.7875
313.25231	11628.1875
317.46415	11476.2875
321.67296	11255.0875
325.87872	11071.0875
330.08145	10991.8875
334.28114	11017.0875
338.47781	11091.3875
342.67145	11170.3875
346.86207	11342.1875
351.04966	11499.0875
355.23424	11680.3875
359.4158	11844.3875
363.59435	11999.4875
367.76989	12071.8875
371.94243	12176.0875
376.11196	12243.3875
380.27849	12324.6875
384.44203	12432.1875
388.60257	12522.6875
392.76012	12627.5875
396.91468	12758.3875
401.06626	12961.9875
405.21485	13101.4875
409.36047	13101.6875
413.50311	13008.5875
417.64277	13016.9875
421.77947	13179.1875
425.9132	13392.6875
430.04396	13615.8875
434.17176	13755.7875
438.2966	13804.4875
442.41849	13973.7875
446.53742	14402.8875
450.6534	14900.5875
454.76644	15188.4875
458.87653	15188.9875
462.98368	14893.6875
467.08789	14594.2875
471.18916	14348.4875
475.2875	14252.5875
479.38291	14177.7875
483.4754	14130.5875
487.56496	14044.7875
491.6516	13810.6875
495.73531	13489.7875
499.81612	13259.1875
503.89401	13140.2875
507.96899	13084.1875
512.04106	12982.2875
516.11023	12898.6875
520.1765	12791.5875
524.23987	12736.5875
528.30034	12690.8875
532.35792	12674.3875
536.41261	12553.8875
540.46441	12371.5875
544.51333	12340.2875
548.55936	12435.4875
552.60252	12701.8875
556.64279	13105.1875
560.6802	13433.3875
564.71473	13609.3875
568.7464	13853.4875
572.7752	14269.8875
576.80114	14525.3875
580.82422	14686.8875
584.84444	15043.0875
588.86181	15731.1875
592.87633	16524.8875
596.888	16746.5875
600.89682	16213.2875
604.9028	15877.6875
608.90594	16333.9875
612.90624	17075.5875
616.90371	16107.1875
620.89834	13785.0875
624.89015	12741.3875
628.87913	12595.4875
632.86528	12642.7875
636.84862	12599.8875
640.82913	12415.0875
644.80683	12139.8875
648.78172	11993.5875
652.75379	11984.2875
656.72306	12114.7875
660.68952	12247.6875
664.65319	12150.5875
668.61405	11962.8875
672.57211	11917.9875
676.52738	11987.7875
680.47986	12000.9875
684.42955	11945.0875
688.37646	11946.4875
692.32058	12059.8875
696.26192	12291.8875
700.20048	12564.1875
704.13626	12817.3875
708.06928	12864.9875
711.99952	12767.2875
715.927	12633.2875
719.85171	12560.3875
723.77365	12470.9875
727.69284	12300.3875
731.60928	12155.6875
735.52295	12105.0875
739.43388	12155.4875
743.34206	12173.1875
747.24749	12203.4875
751.15017	12255.3875
755.05012	12423.9875
758.94733	12725.1875
762.8418	13260.7875
766.73354	14034.2875
770.62254	14799.0875
774.50882	14970.6875
778.39237	14424.9875
782.27321	13490.4875
786.15132	12729.1875
790.02671	12252.4875
793.89938	12045.3875
797.76935	11945.6875
801.6366	11909.0875
805.50115	11903.7875
809.36299	11850.9875
813.22213	11819.4875
817.07857	11800.1875
820.93231	11755.3875
824.78336	11697.7875
828.63172	11667.5875
832.47738	11681.6875
836.32036	11651.4875
840.16066	11713.0875
843.99827	11696.9875
847.8332	11672.9875
851.66546	11611.0875
855.49504	11627.7875
859.32195	11628.3875
863.1462	11580.7875
866.96777	11544.6875
870.78668	11531.7875
874.60293	11540.4875
878.41652	11551.3875
882.22745	11596.7875
886.03573	11592.5875
889.84136	11607.0875
893.64433	11550.2875
897.44466	11512.2875
901.24235	11457.3875
905.0374	11438.2875
908.8298	11397.4875
912.61957	11417.8875
916.40671	11536.2875
920.19121	11653.0875
923.97308	11798.9875
927.75233	11814.3875
931.52895	11757.8875
935.30295	11546.9875
939.07433	11373.3875
942.84309	11216.2875
946.60924	11147.7875
950.37278	11125.6875
954.13371	11091.7875
957.89203	11085.8875
961.64774	11037.8875
965.40086	11030.2875
969.15137	11013.3875
972.89929	10941.9875
976.64461	10946.0875
980.38733	10915.9875
984.12747	10940.3875
987.86502	10998.8875
991.59999	11115.3875
995.33237	11251.6875
999.06217	11493.4875
1002.78939	11803.5875
1006.51404	12007.9875
1010.23611	12128.7875
1013.95561	12195.2875
1017.67255	12251.8875
1021.38692	12079.5875
1025.09872	11838.8875
1028.80796	11767.3875
1032.51465	11875.2875
1036.21877	12053.3875
1039.92035	12158.1875
1043.61937	12092.3875
1047.31584	11982.6875
1051.00976	11860.4875
1054.70114	11750.5875
1058.38998	11761.4875
1062.07627	11836.9875
1065.76003	11894.0875
1069.44126	11979.1875
1073.11995	12057.9875
1076.79611	12197.0875
1080.46974	12263.5875
1084.14085	12369.6875
1087.80943	12517.0875
1091.47549	12620.4875
1095.13903	12662.5875
1098.80005	12512.7875
1102.45857	12303.9875
1106.11456	12146.1875
1109.76805	12116.5875
1113.41903	12150.7875
1117.06751	12286.1875
1120.71348	12393.6875
1124.35696	12570.6875
1127.99793	12747.7875
1131.63641	12820.1875
1135.2724	12722.0875
1138.90589	12625.5875
1142.5369	12629.3875
1146.16542	12747.0875
1149.79145	12852.9875
1153.415	13042.0875
1157.03607	13213.3875
1160.65467	13752.3875
1164.27079	14236.5875
1167.88443	14980.5875
1171.49561	15816.3875
1175.10432	16893.0875
1178.71056	18298.3875
1182.31434	19478.8875
1185.91565	19919.1875
1189.51451	19531.8875
1193.11091	18849.7875
1196.70485	18130.4875
1200.29634	17548.7875
1203.88538	17164.3875
1207.47197	16912.2875
1211.05612	16614.5875
1214.63782	16349.8875
1218.21708	16067.3875
1221.79391	15924.3875
1225.36829	15823.0875
1228.94024	15624.0875
1232.50976	15276.9875
1236.07685	14986.3875
1239.6415	14822.5875
1243.20374	14860.4875
1246.76355	15046.9875
1250.32093	15363.4875
1253.8759	15676.5875
1257.42845	16131.7875
1260.97859	16548.1875
1264.52631	16888.2875
1268.07163	17261.7875
1271.61453	17636.9875
1275.15503	17986.2875
1278.69312	18403.2875
1282.22882	18851.1875
1285.76211	19533.4875
1289.29301	20419.3875
1292.82151	21443.2875
1296.34761	22753.9875
1299.87133	24143.0875
1303.39266	25609.8875
1306.9116	26944.4875
1310.42815	28143.0875
1313.94233	28857.9875
1317.45412	28813.9875
1320.96354	28235.0875
1324.47058	27590.1875
1327.97525	26950.7875
1331.47754	26176.4875
1334.97747	25767.4875
1338.47502	25331.2875
1341.97022	24822.0875
1345.46305	24166.6875
1348.95352	23787.6875
1352.44163	23916.5875
1355.92738	24712.5875
1359.41078	26091.8875
1362.89183	27244.3875
1366.37053	27042.8875
1369.84688	24973.7875
1373.32088	22200.4875
1376.79254	20440.4875
1380.26186	19997.3875
1383.72883	20361.6875
1387.19347	20630.3875
1390.65578	20549.1875
1394.11575	20439.6875
1397.57339	20674.9875
1401.0287	21112.7875
1404.48168	21460.4875
1407.93234	21469.0875
1411.38068	20942.6875
1414.82669	20090.7875
1418.27039	19073.9875
1421.71177	18066.1875
1425.15083	17248.2875
1428.58758	16840.2875
1432.02203	16994.7875
1435.45416	17508.0875
1438.88399	18138.2875
1442.31151	18608.9875
1445.73673	19025.0875
1449.15965	19294.8875
1452.58027	19248.1875
1455.9986	19103.3875
1459.41463	19066.4875
1462.82837	19183.1875
1466.23982	19518.6875
1469.64898	19842.4875
1473.05586	20093.4875
1476.46045	20188.3875
1479.86276	20114.2875
1483.26279	19958.4875
1486.66054	19716.6875
1490.05602	19650.8875
1493.44922	19628.4875
1496.84016	19525.6875
1500.22882	19540.2875
1503.61521	19706.0875
1506.99934	20068.6875
1510.38121	20492.1875
1513.76081	20646.5875
1517.13816	20297.0875
1520.51324	19752.2875
1523.88607	19376.0875
1527.25665	19308.5875
1530.62498	19421.2875
1533.99105	19512.4875
1537.35488	19395.9875
1540.71647	19047.2875
1544.07581	18588.1875
1547.4329	18046.6875
1550.78776	17515.0875
1554.14038	17133.7875
1557.49077	16874.2875
1560.83892	16712.8875
1564.18484	16715.2875
1567.52853	16840.0875
1570.86999	17059.1875
1574.20922	17450.2875
1577.54624	17823.6875
1580.88103	18008.9875
1584.2136	18307.6875
1587.54395	19008.7875
1590.87208	20105.2875
1594.19801	21526.6875
1597.52172	22843.7875
1600.84321	23283.8875
1604.16251	22240.2875
1607.47959	20206.8875
1610.79447	17999.7875
1614.10715	16189.3875
1617.41763	14938.0875
1620.7259	14270.4875
1624.03199	14038.8875
1627.33587	14214.8875
1630.63757	14823.5875
1633.93707	15951.8875
1637.23439	17726.8875
1640.52951	20230.5875
1643.82246	23309.2875
1647.11321	25713.3875
1650.40179	26119.3875
1653.68819	24273.0875
1656.97241	21018.9875
1660.25446	17937.3875
1663.53433	15722.3875
1666.81203	14228.8875
1670.08756	13201.9875
1673.36092	12436.7875
1676.63211	11892.5875
1679.90115	11510.7875
1683.16801	11295.8875
1686.43272	11204.3875
1689.69527	11286.2875
1692.95567	11687.5875
1696.2139	12356.1875
1699.46999	13054.1875
1702.72392	13081.8875
1705.97571	12378.7875
1709.22535	11548.8875
1712.47284	10942.5875
1715.71819	10623.7875
1718.96139	10450.1875
1722.20246	10325.2875
1725.44139	10240.9875
1728.67818	10136.5875
1731.91284	10111.5875
1735.14537	10047.2875
1738.37576	10070.4875
1741.60403	10064.8875
1744.83017	10144.1875
1748.05418	10221.2875
1751.27607	10453.9875
1754.49584	10824.2875
1757.71349	11289.8875
1760.92903	11547.7875
1764.14244	11489.9875
1767.35375	11418.3875
1770.56294	11441.1875
1773.77002	11178.3875
1776.97499	10689.6875
1780.17785	10244.9875
1783.37861	9954.4875
1786.57727	9788.1875
1789.77382	9692.3875
1792.96828	9611.3875
1796.16064	9568.7875
1799.3509	9525.1875
1802.53907	9460.6875
1805.72514	9428.7875
1808.90913	9382.9875
1812.09102	9354.2875
1815.27083	9313.1875
1818.44856	9294.7875
1821.6242	9265.4875
1824.79776	9259.0875
1827.96924	9222.1875
1831.13864	9184.2875
1834.30597	9200.5875
1837.47122	9182.8875
1840.6344	9186.0875
1843.7955	9168.4875
1846.95454	9174.0875
1850.11151	9145.4875
1853.26642	9140.9875
1856.41926	9115.9875
1859.57004	9131.1875
1862.71876	9120.0875
1865.86542	9083.4875
1869.01003	9094.1875
1872.15258	9095.8875
1875.29308	9102.1875
1878.43152	9054.8875
1881.56792	9076.1875
1884.70227	9067.5875
1887.83457	9064.9875
1890.96482	9049.2875
1894.09304	9026.4875
1897.21921	9038.7875
1900.34335	9029.2875
1903.46544	9035.8875
1906.58551	9009.2875
1909.70353	8993.0875
1912.81953	8978.0875
1915.93349	8979.9875
1919.04543	8942.7875
1922.15534	8924.6875
1925.26322	8911.3875
1928.36908	8887.3875
1931.47292	8893.2875
1934.57473	8874.8875
1937.67453	8833.4875
1940.77232	8811.0875
1943.86808	8785.5875
1946.96184	8742.5875
1950.05358	8734.8875
1953.14331	8687.2875
1956.23103	8664.7875
1959.31675	8620.2875
1962.40046	8597.8875
1965.48217	8584.0875
1968.56188	8533.2875
1971.63959	8533.8875
1974.7153	8498.8875
1977.78901	8486.2875
1980.86073	8467.1875
1983.93046	8437.0875
1986.99819	8406.7875
1990.06394	8383.2875
1993.1277	8352.9875
1996.18947	8309.9875
1999.24925	8325.5875
2002.30706	8288.0875
2005.36288	8259.1875
2008.41672	8228.5875
2011.46859	8219.8875
2014.51848	8205.5875
2017.56639	8170.0875
2020.61233	8143.1875
2023.6563	8110.6875
2026.6983	8074.4875
2029.73833	8106.5875
2032.7764	8057.5875
2035.8125	8060.4875
2038.84664	8069.3875
2041.87881	8037.0875
2044.90903	8002.6875
2047.93729	8002.5875
2050.96359	8000.8875
2053.98794	8018.6875
2057.01034	8001.7875
2060.03078	7970.6875
2063.04927	7982.3875
2066.06582	7960.9875
2069.08042	7972.9875
2072.09307	7966.0875
2075.10378	7951.2875
2078.11255	7935.4875
2081.11938	7926.1875
2084.12426	7921.9875
2087.12722	7923.0875
2090.12824	7914.3875
2093.12732	7924.3875
2096.12447	7915.4875
2099.11969	7892.3875
2102.11299	7905.4875
2105.10435	7896.4875
2108.09379	7910.2875
2111.08131	7905.3875
2114.0669	7896.2875
2117.05057	7910.9875
2120.03233	7907.9875
2123.01216	7919.3875
2125.99008	7954.4875
2128.96609	7902.8875
2131.94018	7939.5875
2134.91236	7948.6875
2137.88263	7940.1875
2140.851	7944.1875
2143.81746	7946.5875
2146.78201	7931.4875
2149.74466	7911.9875
2152.7054	7935.3875
2155.66425	7912.4875
2158.6212	7895.4875
2161.57625	7886.9875
2164.52941	7908.6875
2167.48067	7911.5875
2170.43004	7894.1875
2173.37752	7889.1875
2176.32311	7908.1875
2179.26681	7915.7875
2182.20863	7912.9875
2185.14856	7917.6875
2188.08661	7918.2875
2191.02278	7917.1875
2193.95707	7898.4875
2196.88948	7891.8875
2199.82001	7879.5875
2202.74867	7879.1875
2205.67545	7852.7875
2208.60037	7843.0875
2211.52341	7828.3875
2214.44458	7819.0875
2217.36388	7805.2875
2220.28132	7788.9875
2223.1969	7768.9875
2226.11061	7766.2875
2229.02246	7753.1875
2231.93245	7740.5875
2234.84058	7715.8875
2237.74686	7718.8875
2240.65128	7719.8875
2243.55385	7696.6875
2246.45456	7682.7875
2249.35343	7684.9875
2252.25044	7668.3875
2255.14561	7649.5875
2258.03893	7698.5875
2260.93041	7843.5875
2263.82004	7705.4875
2266.70783	7634.9875
2269.59378	7582.2875
2272.4779	7532.0875
2275.36017	7500.8875
2278.24061	7497.6875
2281.11922	7482.7875
2283.996	7463.5875
2286.87094	7469.7875
2289.74405	7441.7875
2292.61534	7453.5875
2295.4848	7437.6875
2298.35243	7447.8875
2301.21824	7457.8875
2304.08223	7476.2875
2306.94439	7486.4875
2309.80474	7464.5875
2312.66327	7465.1875
2315.51999	7451.6875
2318.37489	7443.3875
2321.22797	7428.3875
2324.07925	7451.6875
2326.92871	7410.3875
2329.77637	7425.6875
2332.62222	7413.0875
2335.46626	7442.6875
2338.3085	7415.2875
2341.14893	7419.2875
2343.98756	7416.8875
2346.8244	7408.9875
2349.65943	7370.4875
2352.49267	7363.6875
2355.32411	7343.2875
2358.15376	7353.5875
2360.98161	7349.1875
2363.80768	7324.5875
2366.63195	7313.8875
2369.45444	7319.7875
2372.27514	7295.8875
2375.09405	7279.1875
2377.91118	7247.0875
2380.72652	7253.5875
2383.54009	7230.2875
2386.35187	7239.8875
2389.16188	7233.2875
2391.97011	7205.0875
2394.77657	7184.8875
2397.58125	7166.9875
2400.38416	7182.2875
2403.18529	7139.4875
2405.98466	7150.1875
2408.78226	7165.7875
2411.57809	7163.8875
2414.37216	7140.6875
2417.16446	7137.2875
2419.955	7123.5875
2422.74378	7101.1875
2425.5308	7103.0875
2428.31606	7073.6875
2431.09956	7066.2875
2433.88131	7075.2875
2436.6613	7080.0875
2439.43954	7091.5875
2442.21603	7064.4875
2444.99077	7055.6875
2447.76377	7049.9875
2450.53501	7038.5875
2453.30451	7030.8875
2456.07226	7035.5875
2458.83827	7050.2875
2461.60254	7026.5875
2464.36507	7038.4875
2467.12586	7024.0875
2469.88492	7024.4875
2472.64224	7043.4875
2475.39782	7151.8875
2478.15167	7220.9875
2480.90379	7094.8875
2483.65417	7060.4875
2486.40283	7061.1875
2489.14976	7060.0875
2491.89497	7070.8875
2494.63845	7183.2875
2497.3802	7247.8875
2500.12024	7127.8875
2502.85855	7066.9875
2505.59514	7071.5875
2508.33002	7024.8875
2511.06318	7015.7875
2513.79462	7004.3875
2516.52435	7007.4875
2519.25237	6997.2875
2521.97867	6965.1875
2524.70327	6979.5875
2527.42616	6975.9875
2530.14734	6979.4875
2532.86681	6971.0875
2535.58458	6957.0875
2538.30065	6961.1875
2541.01501	6948.4875
2543.72768	6937.7875
2546.43864	6930.9875
2549.14791	6928.6875
2551.85548	6932.8875
2554.56136	6904.5875
2557.26554	6901.5875
2559.96803	6894.3875
2562.66883	6894.0875
2565.36794	6880.7875
2568.06536	6855.8875
2570.7611	6885.0875
2573.45514	6858.1875
2576.14751	6857.1875
2578.83819	6853.9875
2581.52719	6849.1875
2584.21451	6840.6875
2586.90015	6839.4875
2589.58411	6838.5875
2592.2664	6849.0875
2594.94701	6825.3875
2597.62594	6805.1875
2600.30321	6794.9875
2602.9788	6812.0875
2605.65273	6822.1875
2608.32498	6808.7875
2610.99557	6821.9875
2613.66449	6818.3875
2616.33175	6813.2875
2618.99734	6798.9875
2621.66128	6792.7875
2624.32355	6789.4875
2626.98416	6798.2875
2629.64311	6770.5875
2632.30041	6784.8875
2634.95605	6787.1875
2637.61004	6754.4875
2640.26238	6757.5875
2642.91306	6746.8875
2645.56209	6748.0875
2648.20948	6807.9875
2650.85521	6790.8875
2653.4993	6754.2875
2656.14175	6756.3875
2658.78255	6769.5875
2661.42171	6764.7875
2664.05923	6769.1875
2666.6951	6772.8875
2669.32934	6773.2875
2671.96194	6758.1875
2674.59291	6770.4875
2677.22224	6757.5875
2679.84993	6772.6875
2682.476	6753.9875
2685.10043	6755.5875
2687.72324	6749.3875
2690.34441	6752.0875
2692.96396	6754.0875
2695.58188	6752.8875
2698.19818	6764.6875
2700.81285	6810.2875
2703.4259	7086.6875
2706.03733	7755.3875
2708.64714	7323.9875
2711.25533	7049.3875
2713.86191	6974.0875
2716.46687	6935.7875
2719.07021	6862.2875
2721.67194	6839.7875
2724.27206	6793.2875
2726.87057	6815.5875
2729.46747	6808.8875
2732.06276	6835.7875
2734.65644	6805.6875
2737.24852	6813.5875
2739.83899	6780.8875
2742.42786	6792.0875
2745.01513	6773.6875
2747.60079	6773.0875
2750.18486	6783.0875
2752.76733	6783.4875
2755.3482	6773.1875
2757.92747	6782.2875
2760.50515	6756.3875
2763.08123	6772.9875
2765.65573	6753.4875
2768.22863	6753.7875
2770.79994	6742.5875
2773.36967	6759.9875
2775.9378	6749.3875
2778.50435	6766.2875
2781.06932	6747.4875
2783.6327	6746.0875
2786.1945	6739.5875
2788.75471	6746.0875
2791.31335	6748.8875
2793.87041	6734.9875
2796.42589	6714.5875
2798.97979	6711.6875
2801.53212	6696.0875
2804.08288	6688.0875
2806.63206	6656.1875
2809.17967	6681.3875
2811.72571	6657.4875
2814.27018	6648.7875
2816.81308	6636.4875
2819.35442	6632.3875
2821.89419	6609.2875
2824.43239	6617.2875
2826.96904	6612.5875
2829.50412	6599.2875
2832.03763	6586.0875
2834.56959	6565.1875
2837.1	6589.5875
2839.62884	6591.6875
2842.15613	6613.6875
2844.68186	6634.1875
2847.20604	6683.0875
2849.72867	6664.8875
2852.24974	6670.6875
2854.76927	6810.5875
2857.28724	6957.3875
2859.80367	6806.9875
2862.31855	6736.8875
2864.83189	6687.5875
2867.34368	6667.8875
2869.85393	6640.4875
2872.36264	6623.1875
2874.8698	6599.7875
2877.37543	6599.6875
2879.87952	6594.2875
2882.38207	6586.7875
2884.88308	6606.0875
2887.38256	6612.3875
2889.88051	6588.9875
2892.37692	6589.8875
2894.8718	6613.6875
2897.36515	6587.7875
2899.85698	6595.4875
2902.34727	6625.6875
2904.83604	6620.7875
2907.32328	6642.6875
2909.809	6632.8875
2912.29319	6627.8875
2914.77587	6621.2875
2917.25702	6612.2875
2919.73665	6592.3875
2922.21476	6602.7875
2924.69136	6613.7875
2927.16644	6597.1875
2929.64	6614.2875
2932.11205	6606.7875
2934.58258	6575.2875
2937.05161	6590.3875
2939.51912	6559.9875
2941.98513	6568.2875
2944.44962	6538.3875
2946.91261	6515.8875
2949.37409	6500.5875
2951.83407	6501.8875
2954.29254	6525.0875
2956.74951	6493.4875
2959.20498	6497.2875
2961.65895	6510.0875
2964.11142	6488.5875
2966.56239	6472.6875
2969.01186	6474.8875
2971.45984	6447.8875
2973.90632	6446.8875
2976.35131	6430.3875
2978.7948	6406.4875
2981.23681	6387.9875
2983.67732	6381.7875
2986.11635	6366.8875
2988.55388	6364.6875
2990.98993	6323.9875
2993.4245	6303.9875
2995.85758	6293.9875
2998.28917	6291.0875
3000.71928	6287.9875
3003.14791	6269.7875
3005.57506	6249.2875
3008.00073	6225.9875
3010.42493	6227.6875
3012.84764	6228.5875
3015.26888	6218.6875
3017.68865	6198.9875
3020.10694	6175.3875
3022.52376	6176.0875
3024.9391	6176.6875
3027.35298	6155.7875
3029.76539	6158.3875
3032.17632	6141.9875
3034.5858	6138.7875
3036.9938	6147.0875
3039.40034	6135.9875
3041.80542	6127.9875
3044.20903	6126.8875
3046.61118	6127.5875
3049.01187	6108.6875
3051.4111	6100.2875
3053.80888	6080.1875
3056.20519	6069.4875
3058.60005	6066.9875
3060.99345	6067.4875
3063.3854	6039.1875
3065.7759	6029.3875
3068.16494	6015.8875
3070.55254	5963.8875
3072.93868	5971.9875
3075.32338	5959.5875
3077.70662	5952.4875
