Data from AgNPs_FTO_APTES_UA_5uM_CRN_200uM_R6G_10uM_NaF_0.1M_Addition_RamanShift__14__16-16-11-779.txt Node

Date: Mon Feb 07 16:16:11 GMT 2022
User: TCL
Spectrometer: QEP01345
Trigger mode: 4
Integration Time (sec): 7.000000E0
Scans to average: 10
Electric dark correction enabled: true
Nonlinearity correction enabled: false
Boxcar width: 0
XAxis mode: Raman Shifts
Number of Pixels in Spectrum: 1044
>>>>>Begin Spectral Data<<<<<
46.04893	-1.8
50.45542	0.5
54.85868	-0.3
59.25871	-0.8
63.6555	60.9
68.04907	67.5
72.43941	69.6
76.82654	71.1
81.21044	71.2
85.59113	72.4
89.96862	78.1
94.34289	81.4
98.71396	82.5
103.08183	86.1
107.4465	88.6
111.80798	92.7
116.16626	95
120.52136	96.9
124.87327	104.2
129.222	109
133.56755	116.1
137.90993	126.7
142.24913	142.2
146.58517	154.5
150.91804	183.4
155.24774	226.2
159.57429	278.4
163.89768	357.6
168.21792	477.4
172.53501	654
176.84895	908.5
181.15975	1298.5
185.46741	1806.9
189.77193	2516.3
194.07331	3391.4
198.37157	4373.7
202.6667	5434.6
206.9587	6478.5
211.24758	7470.4
215.53334	8510.2
219.81599	9569.8
224.09553	10713.1
228.37195	11986.4
232.64527	13385
236.91549	14870.1
241.18261	16374.3
245.44663	17824.5
249.70755	19133.1
253.96539	20334.7
258.22014	21301.2
262.4718	22062.7
266.72039	22580.5
270.96589	22938.2
275.20832	23047.9
279.44768	22969.9
283.68397	22942
287.91719	22881.2
292.14735	22861.8
296.37445	22951.2
300.59849	22995.9
304.81948	22979
309.03742	22808.5
313.25231	22473
317.46415	22014.8
321.67296	21421.2
325.87872	20930.7
330.08145	20732.5
334.28114	20726.2
338.47781	20853.7
342.67145	21038.9
346.86207	21295.9
351.04966	21474.4
355.23424	21718.2
359.4158	21892.5
363.59435	22028.6
367.76989	22176.5
371.94243	22286.9
376.11196	22381.1
380.27849	22396.9
384.44203	22518.8
388.60257	22668.5
392.76012	22897.2
396.91468	23193
401.06626	23516.9
405.21485	23752.2
409.36047	23757.8
413.50311	23523
417.64277	23256.6
421.77947	23155
425.9132	23153.7
430.04396	23243.7
434.17176	23383.6
438.2966	23569
442.41849	23848.6
446.53742	24182.2
450.6534	24647.3
454.76644	24927.8
458.87653	25112.5
462.98368	25185.4
467.08789	25199.8
471.18916	25167.5
475.2875	25060.9
479.38291	25013.9
483.4754	24938.9
487.56496	24745.9
491.6516	24507.5
495.73531	24244.3
499.81612	24075.8
503.89401	24108.6
507.96899	24196.7
512.04106	24182.5
516.11023	24184.3
520.1765	24051.2
524.23987	23992.1
528.30034	23804.4
532.35792	23615.5
536.41261	23481.8
540.46441	23376.1
544.51333	23407.4
548.55936	23705.1
552.60252	24157.1
556.64279	24573.8
560.6802	24878.3
564.71473	25089.7
568.7464	25404.9
572.7752	25918.7
576.80114	26523.5
580.82422	27031
584.84444	27288.9
588.86181	27171.1
592.87633	26858.9
596.888	26700
600.89682	26727.3
604.9028	27073.4
608.90594	28227.1
612.90624	29539.1
616.90371	28258.6
620.89834	25225
624.89015	23953.3
628.87913	23781.6
632.86528	24005.7
636.84862	24165.9
640.82913	23988.1
644.80683	23680.3
648.78172	23375.7
652.75379	23270.6
656.72306	23362.9
660.68952	23576.8
664.65319	23581.8
668.61405	23443.1
672.57211	23416
676.52738	23438.3
680.47986	23417.9
684.42955	23406.3
688.37646	23368.9
692.32058	23363.4
696.26192	23502.8
700.20048	23616.8
704.13626	23788.4
708.06928	23899.1
711.99952	23928.5
715.927	23829.9
719.85171	23739.5
723.77365	23653.6
727.69284	23461.9
731.60928	23257.6
735.52295	23127.3
739.43388	23093.7
743.34206	23096.2
747.24749	23164.5
751.15017	23295.4
755.05012	23580.1
758.94733	24075.6
762.8418	24962.7
766.73354	26376.7
770.62254	27660.8
774.50882	27901.1
778.39237	26953.3
782.27321	25581.5
786.15132	24350.2
790.02671	23598.6
793.89938	23171
797.76935	22989.2
801.6366	22842.8
805.50115	22751.4
809.36299	22678.1
813.22213	22657.6
817.07857	22692.4
820.93231	22684.7
824.78336	22665.8
828.63172	22706.1
832.47738	22630.6
836.32036	22587.9
840.16066	22525.9
843.99827	22521.9
847.8332	22511.5
851.66546	22537.3
855.49504	22531.6
859.32195	22545.5
863.1462	22509.6
866.96777	22464.4
870.78668	22469.9
874.60293	22473.9
878.41652	22511.9
882.22745	22537.7
886.03573	22560.8
889.84136	22558.2
893.64433	22552
897.44466	22484.8
901.24235	22490.6
905.0374	22448.2
908.8298	22449.3
912.61957	22542.3
916.40671	22723.5
920.19121	22976.5
923.97308	23048.7
927.75233	22931.9
931.52895	22761
935.30295	22548.7
939.07433	22265.6
942.84309	22040.2
946.60924	21862.4
950.37278	21726.4
954.13371	21664.2
957.89203	21614.6
961.64774	21606.8
965.40086	21562.9
969.15137	21543.6
972.89929	21420.4
976.64461	21408.9
980.38733	21365.9
984.12747	21322.8
987.86502	21436.9
991.59999	21443.1
995.33237	21498.8
999.06217	21609.1
1002.78939	21781.4
1006.51404	21888.1
1010.23611	22048.4
1013.95561	22194.9
1017.67255	22271.7
1021.38692	22242.3
1025.09872	22075.9
1028.80796	21955.7
1032.51465	21939.3
1036.21877	21964.9
1039.92035	22036.9
1043.61937	22152.5
1047.31584	22251.9
1051.00976	22402.1
1054.70114	22477.7
1058.38998	22672.3
1062.07627	22913
1065.76003	23200.9
1069.44126	23393.6
1073.11995	23610.7
1076.79611	23754.4
1080.46974	23798.7
1084.14085	23837
1087.80943	23890.4
1091.47549	24007.9
1095.13903	24093.3
1098.80005	24065.1
1102.45857	23725.7
1106.11456	23297.2
1109.76805	23033.5
1113.41903	22929.2
1117.06751	22968.4
1120.71348	23134.5
1124.35696	23334.1
1127.99793	23618.7
1131.63641	23819.2
1135.2724	23642.9
1138.90589	23477.6
1142.5369	23422
1146.16542	23446.2
1149.79145	23583.6
1153.415	23776.7
1157.03607	24003.1
1160.65467	24403.9
1164.27079	24951.8
1167.88443	25621.9
1171.49561	26458.4
1175.10432	27522.2
1178.71056	28899.7
1182.31434	30276.8
1185.91565	31177.8
1189.51451	31607.9
1193.11091	31620.9
1196.70485	31003.9
1200.29634	30140.7
1203.88538	29242.8
1207.47197	28496.6
1211.05612	27973.6
1214.63782	27466.3
1218.21708	26980.5
1221.79391	26443.6
1225.36829	25935.1
1228.94024	25616.6
1232.50976	25488.8
1236.07685	25384.9
1239.6415	25412.4
1243.20374	25460.6
1246.76355	25604.8
1250.32093	25791.2
1253.8759	26078.5
1257.42845	26536.5
1260.97859	27047
1264.52631	27532.6
1268.07163	27978.3
1271.61453	28410.6
1275.15503	28768.1
1278.69312	29232.7
1282.22882	29631.3
1285.76211	30130.8
1289.29301	30741.2
1292.82151	31509.9
1296.34761	32455.7
1299.87133	33504.1
1303.39266	34516.7
1306.9116	35536.1
1310.42815	36452.3
1313.94233	36861.3
1317.45412	36880.6
1320.96354	36860.3
1324.47058	36775.4
1327.97525	36774
1331.47754	36840
1334.97747	37114
1338.47502	37587
1341.97022	38208.2
1345.46305	38873.2
1348.95352	39235.8
1352.44163	39066.9
1355.92738	38761.8
1359.41078	38649.1
1362.89183	38690.9
1366.37053	37826.5
1369.84688	35590.3
1373.32088	33209
1376.79254	31467
1380.26186	30568.5
1383.72883	30221.1
1387.19347	30056.6
1390.65578	29933.4
1394.11575	29711.9
1397.57339	29474.7
1401.0287	29353.7
1404.48168	29150
1407.93234	28847.5
1411.38068	28481.2
1414.82669	27837.8
1418.27039	27059.7
1421.71177	26308.1
1425.15083	25629.4
1428.58758	25237.5
1432.02203	25145.6
1435.45416	25313.4
1438.88399	25628.1
1442.31151	25884.5
1445.73673	26124.5
1449.15965	26507.4
1452.58027	26881.1
1455.9986	27170.4
1459.41463	27541
1462.82837	27908.4
1466.23982	28275.3
1469.64898	28635.9
1473.05586	28953.5
1476.46045	29073.4
1479.86276	29136.6
1483.26279	29168
1486.66054	29227
1490.05602	29476.4
1493.44922	29944.8
1496.84016	30688.8
1500.22882	31809
1503.61521	33268.6
1506.99934	34749.3
1510.38121	35764.1
1513.76081	35911.2
1517.13816	35212.1
1520.51324	34237.1
1523.88607	33381.2
1527.25665	32797.8
1530.62498	32384.4
1533.99105	31981.4
1537.35488	31539.3
1540.71647	30864.8
1544.07581	30130.7
1547.4329	29464.5
1550.78776	28889.6
1554.14038	28522.1
1557.49077	28418.2
1560.83892	28397.3
1564.18484	28577
1567.52853	28735.6
1570.86999	28927.5
1574.20922	29228.6
1577.54624	29349.4
1580.88103	29116.1
1584.2136	28772.8
1587.54395	28588.8
1590.87208	28769.3
1594.19801	29350.2
1597.52172	30060.5
1600.84321	30245.3
1604.16251	29640.2
1607.47959	28646.3
1610.79447	27547.7
1614.10715	26339.7
1617.41763	25070.5
1620.7259	24116.1
1624.03199	23412.3
1627.33587	23159.9
1630.63757	23280
1633.93707	23775.1
1637.23439	24752.2
1640.52951	26406.4
1643.82246	28535.2
1647.11321	30760.6
1650.40179	32135
1653.68819	32000.6
1656.97241	30095.7
1660.25446	27472.5
1663.53433	24968.5
1666.81203	23023.9
1670.08756	21626.6
1673.36092	20760.2
1676.63211	20189.2
1679.90115	19795.5
1683.16801	19462.4
1686.43272	19215.9
1689.69527	19055.7
1692.95567	18964.1
1696.2139	18879.6
1699.46999	18784.9
1702.72392	18669.2
1705.97571	18671.7
1709.22535	18597
1712.47284	18541.7
1715.71819	18537.7
1718.96139	18517.5
1722.20246	18436.9
1725.44139	18369.9
1728.67818	18261.7
1731.91284	18220.4
1735.14537	18105.3
1738.37576	18040.9
1741.60403	17966.4
1744.83017	17857.1
1748.05418	17846.7
1751.27607	17867.2
1754.49584	17860.5
1757.71349	17848.5
1760.92903	17812.4
1764.14244	17772.2
1767.35375	17786.8
1770.56294	17703.9
1773.77002	17650
1776.97499	17599.7
1780.17785	17558.3
1783.37861	17559.6
1786.57727	17521.9
1789.77382	17460
1792.96828	17435.4
1796.16064	17394.9
1799.3509	17377.6
1802.53907	17307.1
1805.72514	17254.7
1808.90913	17208.8
1812.09102	17174.8
1815.27083	17081.4
1818.44856	17052.5
1821.6242	17046.8
1824.79776	17000.5
1827.96924	16992.1
1831.13864	16960.6
1834.30597	16951.4
1837.47122	16896.3
1840.6344	16881.2
1843.7955	16867.7
1846.95454	16858.2
1850.11151	16844.5
1853.26642	16789.4
1856.41926	16779.5
1859.57004	16777.3
1862.71876	16755.3
1865.86542	16728.2
1869.01003	16687.8
1872.15258	16644
1875.29308	16638.2
1878.43152	16637.1
1881.56792	16605.6
1884.70227	16549.3
1887.83457	16519
1890.96482	16490
1894.09304	16455.6
1897.21921	16442.1
1900.34335	16395.6
1903.46544	16382.8
1906.58551	16352.1
1909.70353	16325.7
1912.81953	16280.7
1915.93349	16235.2
1919.04543	16241.7
1922.15534	16204
1925.26322	16166.9
1928.36908	16097.9
1931.47292	16117.1
1934.57473	16092.1
1937.67453	16040
1940.77232	15974.6
1943.86808	15919
1946.96184	15854.2
1950.05358	15825.6
1953.14331	15747.3
1956.23103	15716.6
1959.31675	15674.3
1962.40046	15608.5
1965.48217	15553
1968.56188	15523.7
1971.63959	15431.9
1974.7153	15400.5
1977.78901	15357.8
1980.86073	15293.9
1983.93046	15254.1
1986.99819	15228.4
1990.06394	15160.5
1993.1277	15105
1996.18947	15029.7
1999.24925	14995.6
2002.30706	14954.5
2005.36288	14895.9
2008.41672	14896.1
2011.46859	14792.3
2014.51848	14755.8
2017.56639	14708.6
2020.61233	14662.6
2023.6563	14586.4
2026.6983	14577.2
2029.73833	14528.8
2032.7764	14462
2035.8125	14447.3
2038.84664	14392.9
2041.87881	14363.4
2044.90903	14308.5
2047.93729	14292.6
2050.96359	14289.2
2053.98794	14243.2
2057.01034	14231.9
2060.03078	14227.1
2063.04927	14194.1
2066.06582	14216.7
2069.08042	14201.1
2072.09307	14184.3
2075.10378	14151.7
2078.11255	14114.1
2081.11938	14144.1
2084.12426	14125.7
2087.12722	14089.9
2090.12824	14076.9
2093.12732	14102.3
2096.12447	14100
2099.11969	14073.2
2102.11299	14057.8
2105.10435	14055.3
2108.09379	14044.3
2111.08131	14061.3
2114.0669	14058.5
2117.05057	14098.6
2120.03233	14095.9
2123.01216	14091.6
2125.99008	14093
2128.96609	14101.3
2131.94018	14103.7
2134.91236	14099.1
2137.88263	14118
2140.851	14149.3
2143.81746	14138.2
2146.78201	14109.2
2149.74466	14112
2152.7054	14103.9
2155.66425	14062.5
2158.6212	14062.4
2161.57625	14024.3
2164.52941	14034.5
2167.48067	14008
2170.43004	14000.4
2173.37752	14039.6
2176.32311	14023.1
2179.26681	14012.5
2182.20863	14012.3
2185.14856	14015.6
2188.08661	13997.8
2191.02278	13996.1
2193.95707	13967.3
2196.88948	13902.4
2199.82001	13902.2
2202.74867	13886.8
2205.67545	13862
2208.60037	13838.8
2211.52341	13835.8
2214.44458	13777.3
2217.36388	13750.2
2220.28132	13713.6
2223.1969	13679.8
2226.11061	13640.8
2229.02246	13654.9
2231.93245	13581.5
2234.84058	13549.9
2237.74686	13506.4
2240.65128	13491.4
2243.55385	13501.5
2246.45456	13516.4
2249.35343	13475.1
2252.25044	13452.8
2255.14561	13397.8
2258.03893	13352.9
2260.93041	13308.9
2263.82004	13288.3
2266.70783	13278.4
2269.59378	13222.1
2272.4779	13192.9
2275.36017	13157.7
2278.24061	13125.7
2281.11922	13078.1
2283.996	13089
2286.87094	13067
2289.74405	13017.6
2292.61534	12995.4
2295.4848	12980.8
2298.35243	12965.2
2301.21824	12980.4
2304.08223	12987.4
2306.94439	12963.1
2309.80474	12919.2
2312.66327	12899
2315.51999	12911.8
2318.37489	12857.1
2321.22797	12795.4
2324.07925	12817.4
2326.92871	12821.6
2329.77637	12796.9
2332.62222	12730.7
2335.46626	12758.9
2338.3085	12697
2341.14893	12666.2
2343.98756	12668.7
2346.8244	12660.9
2349.65943	12645.6
2352.49267	12612.7
2355.32411	12619.1
2358.15376	12612.1
2360.98161	12574.3
2363.80768	12591.5
2366.63195	12591.5
2369.45444	12565.8
2372.27514	12529.6
2375.09405	12498.6
2377.91118	12476.9
2380.72652	12468
2383.54009	12455.6
2386.35187	12419.8
2389.16188	12385.8
2391.97011	12326.3
2394.77657	12272.5
2397.58125	12254.1
2400.38416	12226.5
2403.18529	12213.1
2405.98466	12222.4
2408.78226	12189.8
2411.57809	12175.9
2414.37216	12158
2417.16446	12182
2419.955	12135.4
2422.74378	12118.3
2425.5308	12106.9
2428.31606	12096.8
2431.09956	12074.9
2433.88131	12048.2
2436.6613	12062
2439.43954	12064.5
2442.21603	12036.3
2444.99077	11987.5
2447.76377	11975.9
2450.53501	11987.7
2453.30451	11944.9
2456.07226	11938.3
2458.83827	11906.3
2461.60254	11869.3
2464.36507	11888.4
2467.12586	11884.3
2469.88492	11876.5
2472.64224	11867.2
2475.39782	11834.4
2478.15167	11836.4
2480.90379	11789
2483.65417	11820.7
2486.40283	11789.7
2489.14976	11792.1
2491.89497	11781.2
2494.63845	11804.7
2497.3802	11777.8
2500.12024	11739.7
2502.85855	11716.2
2505.59514	11719.3
2508.33002	11689.5
2511.06318	11686.3
2513.79462	11656
2516.52435	11647.9
2519.25237	11634.5
2521.97867	11594.2
2524.70327	11601
2527.42616	11571.4
2530.14734	11567.7
2532.86681	11552.9
2535.58458	11564.4
2538.30065	11489.1
2541.01501	11509.3
2543.72768	11483.7
2546.43864	11465.9
2549.14791	11415.2
2551.85548	11419.9
2554.56136	11348.7
2557.26554	11346.9
2559.96803	11314.6
2562.66883	11316.7
2565.36794	11277.9
2568.06536	11267.8
2570.7611	11242.7
2573.45514	11233.3
2576.14751	11193.2
2578.83819	11194.2
2581.52719	11152.1
2584.21451	11122.9
2586.90015	11135.3
2589.58411	11088.8
2592.2664	11078.8
2594.94701	11057
2597.62594	11034.4
2600.30321	11009
2602.9788	11001.3
2605.65273	10983.3
2608.32498	10997.3
2610.99557	10989.6
2613.66449	10970.4
2616.33175	10914.6
2618.99734	10901.7
2621.66128	10871.1
2624.32355	10855
2626.98416	10850.4
2629.64311	10812.6
2632.30041	10823.1
2634.95605	10816.8
2637.61004	10777.9
2640.26238	10785.4
2642.91306	10741.9
2645.56209	10734.4
2648.20948	10745.1
2650.85521	10745.7
2653.4993	10718.1
2656.14175	10744.5
2658.78255	10757.3
2661.42171	10729.3
2664.05923	10695.2
2666.6951	10709.4
2669.32934	10725.5
2671.96194	10712.6
2674.59291	10701.1
2677.22224	10695.7
2679.84993	10684.4
2682.476	10649.6
2685.10043	10660.7
2687.72324	10654.1
2690.34441	10636.4
2692.96396	10649
2695.58188	10617.1
2698.19818	10638.9
2700.81285	10662.4
2703.4259	10637.2
2706.03733	10634.6
2708.64714	10662.5
2711.25533	10647.7
2713.86191	10630.1
2716.46687	10665.9
2719.07021	10626.3
2721.67194	10634.8
2724.27206	10619.9
2726.87057	10618.2
2729.46747	10653.6
2732.06276	10619.2
2734.65644	10584.8
2737.24852	10616.6
2739.83899	10576.2
2742.42786	10547.3
2745.01513	10541.7
2747.60079	10517.8
2750.18486	10500.2
2752.76733	10498.7
2755.3482	10472.4
2757.92747	10440
2760.50515	10452.2
2763.08123	10441.8
2765.65573	10431.6
2768.22863	10395.7
2770.79994	10380.9
2773.36967	10380
2775.9378	10394.7
2778.50435	10370.8
2781.06932	10354.6
2783.6327	10330.8
2786.1945	10333.5
2788.75471	10313.4
2791.31335	10308.2
2793.87041	10291.8
2796.42589	10258.4
2798.97979	10273.1
2801.53212	10224.2
2804.08288	10173.8
2806.63206	10166.6
2809.17967	10159.2
2811.72571	10127
2814.27018	10106.3
2816.81308	10082.9
2819.35442	10052.6
2821.89419	9997.4
2824.43239	10039.9
2826.96904	10011.8
2829.50412	9977.1
2832.03763	9976.6
2834.56959	9948.3
2837.1	9951.5
2839.62884	9981.7
2842.15613	9984.2
2844.68186	10026.7
2847.20604	10040.3
2849.72867	10046.3
2852.24974	10020.6
2854.76927	10013.8
2857.28724	10008.5
2859.80367	9968
2862.31855	9942.3
2864.83189	9901.6
2867.34368	9893.1
2869.85393	9877.4
2872.36264	9909.9
2874.8698	9900.3
2877.37543	9863.2
2879.87952	9871
2882.38207	9865.8
2884.88308	9829.3
2887.38256	9859
2889.88051	9849.9
2892.37692	9832.9
2894.8718	9841.7
2897.36515	9836
2899.85698	9813.5
2902.34727	9817
2904.83604	9830
2907.32328	9842.1
2909.809	9818.7
2912.29319	9819.8
2914.77587	9813.1
2917.25702	9789.1
2919.73665	9806.8
2922.21476	9805.2
2924.69136	9757.2
2927.16644	9804.5
2929.64	9778.2
2932.11205	9772
2934.58258	9723.3
2937.05161	9751.9
2939.51912	9731.3
2941.98513	9713.5
2944.44962	9684.4
2946.91261	9634.7
2949.37409	9627.5
2951.83407	9618.1
2954.29254	9600.4
2956.74951	9599.3
2959.20498	9595
2961.65895	9588.4
2964.11142	9572.7
2966.56239	9533.9
2969.01186	9547.9
2971.45984	9523.9
2973.90632	9532.1
2976.35131	9486.7
2978.7948	9466.6
2981.23681	9465.6
2983.67732	9442.2
2986.11635	9391.5
2988.55388	9399.9
2990.98993	9358.6
2993.4245	9341.8
2995.85758	9318.3
2998.28917	9289.4
3000.71928	9287.4
3003.14791	9272.8
3005.57506	9241.1
3008.00073	9210.8
3010.42493	9225.4
3012.84764	9185.1
3015.26888	9187.3
3017.68865	9136.8
3020.10694	9102.7
3022.52376	9115.1
3024.9391	9077.3
3027.35298	9099.5
3029.76539	9084.8
3032.17632	9067.5
3034.5858	9057.3
3036.9938	9038.9
3039.40034	9034.8
3041.80542	9015.7
3044.20903	9004.5
3046.61118	9001.7
3049.01187	8959.2
3051.4111	8970.2
3053.80888	8960.8
3056.20519	8916.6
3058.60005	8900.2
3060.99345	8874.4
3063.3854	8835.4
3065.7759	8822.7
3068.16494	8784.7
3070.55254	8757.5
3072.93868	8751.9
3075.32338	8733.8
3077.70662	8726.1
3080.08842	8689.3
3082.46878	8661.2
3084.84769	8658.2
3087.22515	8671.5
3089.60118	8650.7
3091.97576	8653.5
3094.3489	8642.7
3096.72061	8664.9
3099.09087	8665.4
3101.4597	8654
3103.82709	8639.7
3106.19305	8641.4
3108.55757	8643.2
3110.92066	8611.2
3113.28232	8590.7
3115.64255	8555.4
3118.00134	8523.8
3120.35871	8543.1
3122.71466	8521.5
3125.06917	8491.6
3127.42226	8466.7
3129.77393	8470.3
3132.12417	8453
3134.47299	8471.2
3136.82039	8449.8
3139.16636	8447.4
3141.51092	8448.3
3143.85406	8468
3146.19579	8462.6
3148.53609	8457.8
3150.87499	8459.1
3153.21246	8455.2
3155.54853	8468.4
3157.88318	8468.6
3160.21642	8483.9
3162.54826	8487.3
3164.87868	8465.9
3167.2077	8480.4
3169.5353	8458.8
3171.86151	8451.5
3174.18631	8475.8
3176.5097	8453.4
3178.83169	8428.6
3181.15228	8442.4
3183.47147	8396.1
3185.78926	8387.4
3188.10565	8384.2
3190.42065	8395.9
3192.73424	8384.6
3195.04645	8337.7
3197.35725	8360.5
3199.66667	8342.6
3201.97469	8358.8
3204.28132	8325.3
3206.58656	8336.1
3208.8904	8338.3
3211.19287	8344.1
3213.49394	8356.7
3215.79363	8379.1
3218.09193	8372.3
3220.38884	8340.9
3222.68438	8340.4
3224.97853	8344.8
3227.2713	8336.8
3229.56269	8304.7
3231.8527	8305.2
3234.14133	8259.5
3236.42858	8245.6
3238.71446	8221.1
3240.99896	8236.1
3243.28209	8223
3245.56384	8204.2
3247.84423	8187.6
3250.12324	8180.3
3252.40088	8175.5
3254.67715	8171.2
3256.95205	8164.2
3259.22558	8144.6
3261.49775	8146.7
3263.76855	8118.7
3266.03799	8086
3268.30606	8085.5
3270.57277	8086.2
3272.83812	8059.4
3275.10211	8052.4
3277.36474	8032.8
3279.62601	8037.4
3281.88593	8008.5
3284.14448	8017.6
3286.40168	8007.3
3288.65753	7995.4
3290.91202	7982.7
3293.16516	7969.3
3295.41695	7945.7
3297.66738	7917.6
3299.91647	7846.4
3302.16421	7781.4
3304.4106	7763.7
3306.65564	7696.7
3308.89933	7663.3
3311.14169	7608.3
3313.38269	7534
3315.62236	7490.5
3317.86068	7437.4
3320.09766	7376.1
3322.3333	7339.8
3324.5676	7318.9
3326.80056	7176.4
3329.03219	7131.2
3331.26248	3.1
3333.49143	-0.4
3335.71905	-0.7
