Data from AgNPs_FTO_APTES_UA_5uM_CRN_50uM_R6G_10uM_NaF_0.1M_Addition_RamanShift__33__14-21-06-846.txt Node

Date: Mon Feb 07 14:21:06 GMT 2022
User: TCL
Spectrometer: QEP01345
Trigger mode: 4
Integration Time (sec): 7.000000E0
Scans to average: 10
Electric dark correction enabled: true
Nonlinearity correction enabled: false
Boxcar width: 0
XAxis mode: Raman Shifts
Number of Pixels in Spectrum: 1044
>>>>>Begin Spectral Data<<<<<
46.04893	0.2375
50.45542	-1.7625
54.85868	-0.0625
59.25871	0.1375
63.6555	63.2375
68.04907	63.8375
72.43941	67.9375
76.82654	73.7375
81.21044	76.0375
85.59113	79.1375
89.96862	83.1375
94.34289	81.4375
98.71396	81.7375
103.08183	88.3375
107.4465	91.8375
111.80798	91.7375
116.16626	92.1375
120.52136	102.4375
124.87327	104.6375
129.222	112.8375
133.56755	120.6375
137.90993	127.2375
142.24913	144.2375
146.58517	161.3375
150.91804	183.8375
155.24774	217.7375
159.57429	278.0375
163.89768	358.5375
168.21792	477.6375
172.53501	653.4375
176.84895	906.9375
181.15975	1286.3375
185.46741	1796.6375
189.77193	2480.1375
194.07331	3326.2375
198.37157	4289.1375
202.6667	5307.1375
206.9587	6320.7375
211.24758	7296.9375
215.53334	8316.8375
219.81599	9423.0375
224.09553	10603.3375
228.37195	11927.8375
232.64527	13375.4375
236.91549	14851.9375
241.18261	16333.5375
245.44663	17639.1375
249.70755	18810.6375
253.96539	19817.8375
258.22014	20750.6375
262.4718	21539.9375
266.72039	22136.9375
270.96589	22447.3375
275.20832	22553.1375
279.44768	22357.8375
283.68397	22121.1375
287.91719	21916.7375
292.14735	21835.6375
296.37445	21887.8375
300.59849	22085.6375
304.81948	22408.2375
309.03742	22525.7375
313.25231	22305.8375
317.46415	21749.1375
321.67296	20933.1375
325.87872	20289.0375
330.08145	19968.4375
334.28114	19925.3375
338.47781	20087.0375
342.67145	20307.2375
346.86207	20735.0375
351.04966	21316.3375
355.23424	21940.0375
359.4158	22488.7375
363.59435	22797.8375
367.76989	22967.2375
371.94243	23113.3375
376.11196	23193.9375
380.27849	23236.0375
384.44203	23305.9375
388.60257	23308.4375
392.76012	23477.1375
396.91468	23790.3375
401.06626	24180.7375
405.21485	24490.6375
409.36047	24340.8375
413.50311	23810.7375
417.64277	23274.8375
421.77947	23088.7375
425.9132	23009.7375
430.04396	23096.2375
434.17176	23323.8375
438.2966	23694.8375
442.41849	24273.5375
446.53742	25142.7375
450.6534	26055.5375
454.76644	26721.2375
458.87653	26886.0375
462.98368	26654.6375
467.08789	26204.3375
471.18916	25842.2375
475.2875	25504.2375
479.38291	25323.1375
483.4754	25125.3375
487.56496	24771.7375
491.6516	24314.6375
495.73531	23896.3375
499.81612	23600.8375
503.89401	23576.7375
507.96899	23640.6375
512.04106	23639.8375
516.11023	23590.0375
520.1765	23549.6375
524.23987	23417.5375
528.30034	23244.4375
532.35792	23108.1375
536.41261	22761.0375
540.46441	22460.4375
544.51333	22352.4375
548.55936	22577.2375
552.60252	23037.7375
556.64279	23622.0375
560.6802	24070.2375
564.71473	24383.9375
568.7464	24994.5375
572.7752	25596.6375
576.80114	25729.1375
580.82422	25673.5375
584.84444	25921.5375
588.86181	26418.8375
592.87633	27221.7375
596.888	27885.0375
600.89682	27930.9375
604.9028	28621.5375
608.90594	31376.1375
612.90624	34965.0375
616.90371	33243.2375
620.89834	26811.8375
624.89015	23957.8375
628.87913	23568.2375
632.86528	23724.8375
636.84862	23685.4375
640.82913	23237.4375
644.80683	22514.5375
648.78172	21934.2375
652.75379	21850.0375
656.72306	22193.1375
660.68952	22700.8375
664.65319	22575.2375
668.61405	22073.1375
672.57211	21853.2375
676.52738	21852.5375
680.47986	21839.4375
684.42955	21668.5375
688.37646	21612.9375
692.32058	21730.0375
696.26192	21934.3375
700.20048	22184.4375
704.13626	22339.2375
708.06928	22275.1375
711.99952	22129.2375
715.927	22093.6375
719.85171	22194.9375
723.77365	22147.4375
727.69284	21882.9375
731.60928	21708.7375
735.52295	21693.4375
739.43388	21703.1375
743.34206	21768.5375
747.24749	21874.4375
751.15017	22025.6375
755.05012	22382.5375
758.94733	23102.1375
762.8418	24436.6375
766.73354	26606.4375
770.62254	28846.3375
774.50882	29682.6375
778.39237	28532.1375
782.27321	26038.7375
786.15132	23854.3375
790.02671	22553.7375
793.89938	21985.1375
797.76935	21761.3375
801.6366	21702.9375
805.50115	21611.0375
809.36299	21536.8375
813.22213	21450.8375
817.07857	21417.3375
820.93231	21422.8375
824.78336	21370.7375
828.63172	21346.4375
832.47738	21342.1375
836.32036	21392.9375
840.16066	21445.3375
843.99827	21436.8375
847.8332	21401.4375
851.66546	21269.6375
855.49504	21214.4375
859.32195	21171.4375
863.1462	21094.7375
866.96777	21027.7375
870.78668	20959.6375
874.60293	20957.8375
878.41652	20957.1375
882.22745	21075.2375
886.03573	21152.4375
889.84136	21167.2375
893.64433	21033.5375
897.44466	20925.4375
901.24235	20837.7375
905.0374	20819.2375
908.8298	20775.2375
912.61957	20806.9375
916.40671	21001.6375
920.19121	21284.5375
923.97308	21521.7375
927.75233	21608.6375
931.52895	21567.9375
935.30295	21331.8375
939.07433	20905.0375
942.84309	20594.9375
946.60924	20429.6375
950.37278	20346.4375
954.13371	20273.2375
957.89203	20201.0375
961.64774	20123.8375
965.40086	20112.4375
969.15137	19998.1375
972.89929	19947.3375
976.64461	19928.5375
980.38733	19924.4375
984.12747	20010.9375
987.86502	20210.0375
991.59999	20462.6375
995.33237	20837.5375
999.06217	21394.3375
1002.78939	22071.7375
1006.51404	22464.9375
1010.23611	22588.0375
1013.95561	22790.8375
1017.67255	22771.5375
1021.38692	22434.0375
1025.09872	22158.6375
1028.80796	22192.0375
1032.51465	22729.3375
1036.21877	23236.8375
1039.92035	23401.9375
1043.61937	23149.5375
1047.31584	22684.9375
1051.00976	22246.7375
1054.70114	22027.0375
1058.38998	21983.5375
1062.07627	22077.9375
1065.76003	22174.9375
1069.44126	22239.9375
1073.11995	22419.5375
1076.79611	22653.1375
1080.46974	22845.3375
1084.14085	23144.1375
1087.80943	23485.2375
1091.47549	23738.6375
1095.13903	23678.4375
1098.80005	23347.9375
1102.45857	22913.0375
1106.11456	22636.3375
1109.76805	22621.1375
1113.41903	22769.6375
1117.06751	23004.2375
1120.71348	23421.4375
1124.35696	23807.4375
1127.99793	24198.1375
1131.63641	24283.6375
1135.2724	23881.2375
1138.90589	23518.4375
1142.5369	23303.0375
1146.16542	23280.9375
1149.79145	23411.6375
1153.415	23663.6375
1157.03607	23985.6375
1160.65467	24602.5375
1164.27079	25547.5375
1167.88443	26843.9375
1171.49561	28684.2375
1175.10432	31119.6375
1178.71056	34256.3375
1182.31434	36861.1375
1185.91565	37923.6375
1189.51451	37343.7375
1193.11091	35798.6375
1196.70485	34007.7375
1200.29634	32457.4375
1203.88538	31399.0375
1207.47197	30548.1375
1211.05612	29789.0375
1214.63782	29236.6375
1218.21708	28849.4375
1221.79391	28742.3375
1225.36829	28706.9375
1228.94024	28414.8375
1232.50976	27889.1375
1236.07685	27331.0375
1239.6415	27108.5375
1243.20374	27116.2375
1246.76355	27358.0375
1250.32093	27767.8375
1253.8759	28313.6375
1257.42845	29055.5375
1260.97859	29786.9375
1264.52631	30469.4375
1268.07163	31232.7375
1271.61453	32021.4375
1275.15503	32922.0375
1278.69312	33840.8375
1282.22882	34676.2375
1285.76211	35621.4375
1289.29301	36848.3375
1292.82151	38522.3375
1296.34761	40503.9375
1299.87133	42989.1375
1303.39266	45802.7375
1306.9116	49033.6375
1310.42815	52236.4375
1313.94233	54234.2375
1317.45412	54165.9375
1320.96354	52783.3375
1324.47058	50883.7375
1327.97525	49158.7375
1331.47754	47818.3375
1334.97747	47076.4375
1338.47502	46603.9375
1341.97022	46043.6375
1345.46305	45408.2375
1348.95352	45049.9375
1352.44163	45504.9375
1355.92738	47232.1375
1359.41078	50437.5375
1362.89183	53664.0375
1366.37053	53159.5375
1369.84688	48065.6375
1373.32088	42008.1375
1376.79254	37975.0375
1380.26186	36518.9375
1383.72883	36541.8375
1387.19347	36593.3375
1390.65578	36230.6375
1394.11575	36133.2375
1397.57339	36658.9375
1401.0287	37660.1375
1404.48168	38492.4375
1407.93234	38664.6375
1411.38068	37989.4375
1414.82669	36663.6375
1418.27039	34981.1375
1421.71177	33265.4375
1425.15083	31832.2375
1428.58758	31062.4375
1432.02203	31167.6375
1435.45416	31958.3375
1438.88399	32842.8375
1442.31151	33606.8375
1445.73673	34329.3375
1449.15965	34944.1375
1452.58027	35303.0375
1455.9986	35376.5375
1459.41463	35493.0375
1462.82837	35890.8375
1466.23982	36587.7375
1469.64898	37206.3375
1473.05586	37535.3375
1476.46045	37613.3375
1479.86276	37556.6375
1483.26279	37289.9375
1486.66054	37077.4375
1490.05602	37095.2375
1493.44922	37291.2375
1496.84016	37550.2375
1500.22882	38319.8375
1503.61521	39675.4375
1506.99934	41583.4375
1510.38121	43505.6375
1513.76081	44387.2375
1517.13816	43417.9375
1520.51324	41034.4375
1523.88607	38677.2375
1527.25665	37180.8375
1530.62498	36658.9375
1533.99105	36377.2375
1537.35488	36231.5375
1540.71647	35805.5375
1544.07581	35229.2375
1547.4329	34461.3375
1550.78776	33730.6375
1554.14038	33168.6375
1557.49077	32907.2375
1560.83892	32843.6375
1564.18484	32956.1375
1567.52853	33278.2375
1570.86999	33728.7375
1574.20922	34298.2375
1577.54624	34818.8375
1580.88103	34749.5375
1584.2136	34637.8375
1587.54395	35413.0375
1590.87208	37110.5375
1594.19801	39488.5375
1597.52172	41844.0375
1600.84321	42659.8375
1604.16251	40813.9375
1607.47959	37296.9375
1610.79447	33573.5375
1614.10715	30406.7375
1617.41763	28117.2375
1620.7259	26686.8375
1624.03199	26067.4375
1627.33587	26122.9375
1630.63757	26948.6375
1633.93707	28648.5375
1637.23439	31321.7375
1640.52951	35126.6375
1643.82246	39721.6375
1647.11321	43747.7375
1650.40179	44979.0375
1653.68819	42162.0375
1656.97241	36483.4375
1660.25446	30821.8375
1663.53433	26639.2375
1666.81203	24092.8375
1670.08756	22538.8375
1673.36092	21548.7375
1676.63211	20929.8375
1679.90115	20486.2375
1683.16801	20199.7375
1686.43272	19981.6375
1689.69527	19774.8375
1692.95567	19643.2375
1696.2139	19567.2375
1699.46999	19495.4375
1702.72392	19426.6375
1705.97571	19389.7375
1709.22535	19336.2375
1712.47284	19317.2375
1715.71819	19326.1375
1718.96139	19258.6375
1722.20246	19199.9375
1725.44139	19113.3375
1728.67818	19034.9375
1731.91284	18866.7375
1735.14537	18809.3375
1738.37576	18692.1375
1741.60403	18656.4375
1744.83017	18597.0375
1748.05418	18552.2375
1751.27607	18535.3375
1754.49584	18515.2375
1757.71349	18519.2375
1760.92903	18496.6375
1764.14244	18461.7375
1767.35375	18477.0375
1770.56294	18417.7375
1773.77002	18369.3375
1776.97499	18353.9375
1780.17785	18281.4375
1783.37861	18251.1375
1786.57727	18245.8375
1789.77382	18227.6375
1792.96828	18191.8375
1796.16064	18169.2375
1799.3509	18146.7375
1802.53907	18119.1375
1805.72514	18009.3375
1808.90913	17999.4375
1812.09102	17934.7375
1815.27083	17878.4375
1818.44856	17849.4375
1821.6242	17830.1375
1824.79776	17815.6375
1827.96924	17800.2375
1831.13864	17766.7375
1834.30597	17771.7375
1837.47122	17745.9375
1840.6344	17735.9375
1843.7955	17715.6375
1846.95454	17715.7375
1850.11151	17709.5375
1853.26642	17680.4375
1856.41926	17699.7375
1859.57004	17695.0375
1862.71876	17694.9375
1865.86542	17652.3375
1869.01003	17633.1375
1872.15258	17619.2375
1875.29308	17648.3375
1878.43152	17617.2375
1881.56792	17605.6375
1884.70227	17587.8375
1887.83457	17609.1375
1890.96482	17598.4375
1894.09304	17575.5375
1897.21921	17586.9375
1900.34335	17569.3375
1903.46544	17580.9375
1906.58551	17583.3375
1909.70353	17572.1375
1912.81953	17534.2375
1915.93349	17554.1375
1919.04543	17494.2375
1922.15534	17464.4375
1925.26322	17424.0375
1928.36908	17387.0375
1931.47292	17340.7375
1934.57473	17301.9375
1937.67453	17246.9375
1940.77232	17215.8375
1943.86808	17173.7375
1946.96184	17095.4375
1950.05358	17056.7375
1953.14331	17047.4375
1956.23103	16958.8375
1959.31675	16910.9375
1962.40046	16872.6375
1965.48217	16839.2375
1968.56188	16771.7375
1971.63959	16737.5375
1974.7153	16684.8375
1977.78901	16642.6375
1980.86073	16554.9375
1983.93046	16531.9375
1986.99819	16490.1375
1990.06394	16424.8375
1993.1277	16372.0375
1996.18947	16362.2375
1999.24925	16328.4375
2002.30706	16226.6375
2005.36288	16181.6375
2008.41672	16194.7375
2011.46859	16118.9375
2014.51848	16082.4375
2017.56639	16025.2375
2020.61233	16030.2375
2023.6563	15983.2375
2026.6983	15917.6375
2029.73833	15888.2375
2032.7764	15867.2375
2035.8125	15849.8375
2038.84664	15791.2375
2041.87881	15794.6375
2044.90903	15800.3375
2047.93729	15766.0375
2050.96359	15762.1375
2053.98794	15734.0375
2057.01034	15711.4375
2060.03078	15698.7375
2063.04927	15676.5375
2066.06582	15689.9375
2069.08042	15652.1375
2072.09307	15646.7375
2075.10378	15607.4375
2078.11255	15613.5375
2081.11938	15615.6375
2084.12426	15601.6375
2087.12722	15594.6375
2090.12824	15570.7375
2093.12732	15553.9375
2096.12447	15582.6375
2099.11969	15569.6375
2102.11299	15590.7375
2105.10435	15583.7375
2108.09379	15573.6375
2111.08131	15582.2375
2114.0669	15586.9375
2117.05057	15620.9375
2120.03233	15626.3375
2123.01216	15637.7375
2125.99008	15678.1375
2128.96609	15653.2375
2131.94018	15662.8375
2134.91236	15691.1375
2137.88263	15665.4375
2140.851	15689.6375
2143.81746	15732.4375
2146.78201	15704.6375
2149.74466	15726.9375
2152.7054	15689.4375
2155.66425	15679.3375
2158.6212	15676.7375
2161.57625	15653.8375
2164.52941	15681.9375
2167.48067	15655.8375
2170.43004	15647.4375
2173.37752	15647.0375
2176.32311	15663.1375
2179.26681	15678.7375
2182.20863	15677.3375
2185.14856	15657.3375
2188.08661	15674.0375
2191.02278	15703.5375
2193.95707	15675.1375
2196.88948	15665.8375
2199.82001	15613.0375
2202.74867	15635.1375
2205.67545	15650.5375
2208.60037	15625.3375
2211.52341	15590.1375
2214.44458	15603.6375
2217.36388	15579.8375
2220.28132	15549.4375
2223.1969	15481.7375
2226.11061	15506.3375
2229.02246	15455.9375
2231.93245	15410.2375
2234.84058	15385.3375
2237.74686	15333.7375
2240.65128	15346.1375
2243.55385	15331.5375
2246.45456	15299.3375
2249.35343	15308.1375
2252.25044	15259.5375
2255.14561	15240.7375
2258.03893	15215.3375
2260.93041	15192.7375
2263.82004	15165.7375
2266.70783	15139.8375
2269.59378	15062.3375
2272.4779	15043.9375
2275.36017	14994.6375
2278.24061	14977.1375
2281.11922	14964.8375
2283.996	14931.8375
2286.87094	14924.2375
2289.74405	14890.7375
2292.61534	14864.7375
2295.4848	14871.7375
2298.35243	14884.4375
2301.21824	14898.5375
2304.08223	14864.2375
2306.94439	14890.0375
2309.80474	14917.2375
2312.66327	14898.4375
2315.51999	14907.7375
2318.37489	14918.4375
2321.22797	14839.0375
2324.07925	14857.7375
2326.92871	14837.6375
2329.77637	14784.4375
2332.62222	14790.1375
2335.46626	14790.2375
2338.3085	14761.5375
2341.14893	14770.7375
2343.98756	14780.2375
2346.8244	14782.5375
2349.65943	14767.4375
2352.49267	14768.0375
2355.32411	14782.8375
2358.15376	14773.0375
2360.98161	14755.2375
2363.80768	14772.1375
2366.63195	14776.1375
2369.45444	14748.8375
2372.27514	14715.7375
2375.09405	14690.0375
2377.91118	14665.0375
2380.72652	14605.3375
2383.54009	14605.9375
2386.35187	14597.3375
2389.16188	14540.2375
2391.97011	14529.1375
2394.77657	14457.9375
2397.58125	14448.2375
2400.38416	14421.9375
2403.18529	14396.1375
2405.98466	14368.7375
2408.78226	14327.4375
2411.57809	14342.0375
2414.37216	14326.6375
2417.16446	14338.5375
2419.955	14307.2375
2422.74378	14281.5375
2425.5308	14260.3375
2428.31606	14232.2375
2431.09956	14255.6375
2433.88131	14234.8375
2436.6613	14247.6375
2439.43954	14234.1375
2442.21603	14230.1375
2444.99077	14235.0375
2447.76377	14237.3375
2450.53501	14213.1375
2453.30451	14233.0375
2456.07226	14223.9375
2458.83827	14223.5375
2461.60254	14220.1375
2464.36507	14199.4375
2467.12586	14172.8375
2469.88492	14189.8375
2472.64224	14222.7375
2475.39782	14225.6375
2478.15167	14250.3375
2480.90379	14213.0375
2483.65417	14223.0375
2486.40283	14243.5375
2489.14976	14283.1375
2491.89497	14281.5375
2494.63845	14302.9375
2497.3802	14284.8375
2500.12024	14274.3375
2502.85855	14263.9375
2505.59514	14241.2375
2508.33002	14211.3375
2511.06318	14191.3375
2513.79462	14150.5375
2516.52435	14129.5375
2519.25237	14119.7375
2521.97867	14128.0375
2524.70327	14119.2375
2527.42616	14111.9375
2530.14734	14117.6375
2532.86681	14078.1375
2535.58458	14115.3375
2538.30065	14075.6375
2541.01501	14083.6375
2543.72768	14057.8375
2546.43864	14055.0375
2549.14791	14059.4375
2551.85548	14050.6375
2554.56136	14043.8375
2557.26554	14018.4375
2559.96803	13992.4375
2562.66883	13984.4375
2565.36794	13965.6375
2568.06536	13936.6375
2570.7611	13953.1375
2573.45514	13916.0375
2576.14751	13892.1375
2578.83819	13866.0375
2581.52719	13908.9375
2584.21451	13902.0375
2586.90015	13903.0375
2589.58411	13913.2375
2592.2664	13910.8375
2594.94701	13858.2375
2597.62594	13874.6375
2600.30321	13821.2375
2602.9788	13879.5375
2605.65273	13851.0375
2608.32498	13854.7375
2610.99557	13842.1375
2613.66449	13878.9375
2616.33175	13853.2375
2618.99734	13828.0375
2621.66128	13828.3375
2624.32355	13814.5375
2626.98416	13817.3375
2629.64311	13823.3375
2632.30041	13835.1375
2634.95605	13812.0375
2637.61004	13773.1375
2640.26238	13788.1375
2642.91306	13776.9375
2645.56209	13776.8375
2648.20948	13774.9375
2650.85521	13757.1375
2653.4993	13776.6375
2656.14175	13748.5375
2658.78255	13787.0375
2661.42171	13765.1375
2664.05923	13793.9375
2666.6951	13794.6375
2669.32934	13831.8375
2671.96194	13834.0375
2674.59291	13848.2375
2677.22224	13822.7375
2679.84993	13824.9375
2682.476	13803.0375
2685.10043	13773.5375
2687.72324	13757.7375
2690.34441	13771.3375
2692.96396	13748.2375
2695.58188	13788.5375
2698.19818	13769.2375
2700.81285	13819.6375
2703.4259	13789.0375
2706.03733	13856.9375
2708.64714	13810.4375
2711.25533	13813.3375
2713.86191	13814.3375
2716.46687	13829.6375
2719.07021	13852.1375
2721.67194	13896.8375
2724.27206	13856.7375
2726.87057	13905.0375
2729.46747	13909.9375
2732.06276	13909.1375
2734.65644	13916.3375
2737.24852	13866.1375
2739.83899	13865.7375
2742.42786	13864.2375
2745.01513	13849.7375
2747.60079	13829.1375
2750.18486	13813.3375
2752.76733	13778.1375
2755.3482	13783.6375
2757.92747	13803.9375
2760.50515	13783.7375
2763.08123	13796.9375
2765.65573	13807.3375
2768.22863	13850.5375
2770.79994	13806.1375
2773.36967	13816.3375
2775.9378	13801.0375
2778.50435	13778.3375
2781.06932	13782.8375
2783.6327	13800.0375
2786.1945	13791.1375
2788.75471	13798.7375
2791.31335	13760.4375
2793.87041	13739.7375
2796.42589	13715.7375
2798.97979	13723.0375
2801.53212	13686.7375
2804.08288	13644.6375
2806.63206	13587.7375
2809.17967	13590.9375
2811.72571	13548.5375
2814.27018	13550.1375
2816.81308	13556.5375
2819.35442	13494.7375
2821.89419	13511.9375
2824.43239	13518.0375
2826.96904	13508.4375
2829.50412	13500.2375
2832.03763	13472.6375
2834.56959	13477.5375
2837.1	13475.4375
2839.62884	13461.3375
2842.15613	13484.0375
2844.68186	13548.7375
2847.20604	13571.3375
2849.72867	13609.1375
2852.24974	13609.0375
2854.76927	13618.8375
2857.28724	13582.9375
2859.80367	13563.5375
2862.31855	13550.8375
2864.83189	13524.4375
2867.34368	13503.1375
2869.85393	13504.6375
2872.36264	13510.7375
2874.8698	13482.1375
2877.37543	13460.6375
2879.87952	13485.9375
2882.38207	13480.4375
2884.88308	13463.8375
2887.38256	13477.9375
2889.88051	13480.1375
2892.37692	13485.9375
2894.8718	13468.9375
2897.36515	13510.6375
2899.85698	13519.7375
2902.34727	13525.5375
2904.83604	13536.6375
2907.32328	13562.5375
2909.809	13549.0375
2912.29319	13624.6375
2914.77587	13594.4375
2917.25702	13580.9375
2919.73665	13569.4375
2922.21476	13598.1375
2924.69136	13555.7375
2927.16644	13545.8375
2929.64	13544.1375
2932.11205	13504.3375
2934.58258	13484.6375
2937.05161	13488.7375
2939.51912	13483.6375
2941.98513	13456.5375
2944.44962	13416.9375
2946.91261	13358.1375
2949.37409	13351.3375
2951.83407	13329.6375
2954.29254	13321.1375
2956.74951	13288.5375
2959.20498	13300.7375
2961.65895	13241.5375
2964.11142	13244.8375
2966.56239	13243.6375
2969.01186	13244.5375
2971.45984	13225.4375
2973.90632	13246.1375
2976.35131	13164.9375
2978.7948	13185.6375
2981.23681	13127.7375
2983.67732	13098.6375
2986.11635	13063.7375
2988.55388	13050.3375
2990.98993	13030.4375
2993.4245	12969.3375
2995.85758	12926.7375
2998.28917	12912.4375
3000.71928	12896.6375
3003.14791	12878.4375
3005.57506	12896.4375
3008.00073	12808.1375
3010.42493	12706.2375
3012.84764	12802.9375
3015.26888	12794.6375
3017.68865	12775.8375
3020.10694	12718.1375
3022.52376	12718.0375
3024.9391	12689.2375
