Data from AgNPs_FTO_APTES_UA_5uM_CRN_2uM_R6G_10uM_NaF_0.1M_Addition_RamanShift__18__11-17-56-634.txt Node

Date: Mon Feb 07 11:17:56 GMT 2022
User: TCL
Spectrometer: QEP01345
Trigger mode: 4
Integration Time (sec): 7.000000E0
Scans to average: 10
Electric dark correction enabled: true
Nonlinearity correction enabled: false
Boxcar width: 0
XAxis mode: Raman Shifts
Number of Pixels in Spectrum: 1044
>>>>>Begin Spectral Data<<<<<
46.04893	-1.125
50.45542	-1.525
54.85868	-0.725
59.25871	0.075
63.6555	97.575
68.04907	100.375
72.43941	106.275
76.82654	109.375
81.21044	111.075
85.59113	117.875
89.96862	127.875
94.34289	122.275
98.71396	129.275
103.08183	133.275
107.4465	136.175
111.80798	141.475
116.16626	145.475
120.52136	148.675
124.87327	162.175
129.222	173.575
133.56755	179.675
137.90993	200.275
142.24913	215.775
146.58517	246.375
150.91804	288.175
155.24774	347.875
159.57429	435.275
163.89768	560.675
168.21792	747.375
172.53501	1030.575
176.84895	1426.575
181.15975	2012.375
185.46741	2824.675
189.77193	3887.675
194.07331	5188.475
198.37157	6654.175
202.6667	8218.375
206.9587	9764.375
211.24758	11275.575
215.53334	12819.775
219.81599	14497.875
224.09553	16361.875
228.37195	18448.275
232.64527	20688.475
236.91549	23032.775
241.18261	25300.475
245.44663	27395.275
249.70755	29233.275
253.96539	30801.675
258.22014	32167.175
262.4718	33324.075
266.72039	34165.375
270.96589	34645.175
275.20832	34820.975
279.44768	34689.275
283.68397	34447.275
287.91719	34426.375
292.14735	34380.175
296.37445	34502.975
300.59849	34708.375
304.81948	34895.175
309.03742	34856.175
313.25231	34401.475
317.46415	33414.275
321.67296	32097.675
325.87872	30960.475
330.08145	30346.275
334.28114	30126.875
338.47781	30255.975
342.67145	30646.475
346.86207	31168.575
351.04966	31873.775
355.23424	32658.375
359.4158	33281.475
363.59435	33737.875
367.76989	33934.975
371.94243	34145.575
376.11196	34230.875
380.27849	34341.175
384.44203	34452.375
388.60257	34658.675
392.76012	35105.475
396.91468	35511.275
401.06626	36157.875
405.21485	36642.575
409.36047	36426.575
413.50311	35716.975
417.64277	35282.475
421.77947	35248.075
425.9132	35423.775
430.04396	35610.575
434.17176	35726.875
438.2966	35917.875
442.41849	36456.275
446.53742	37398.675
450.6534	38639.875
454.76644	39593.075
458.87653	39920.675
462.98368	39720.475
467.08789	39202.375
471.18916	38538.475
475.2875	38052.475
479.38291	37849.975
483.4754	37758.675
487.56496	37388.375
491.6516	36783.575
495.73531	36148.975
499.81612	35777.575
503.89401	35890.075
507.96899	36021.775
512.04106	35844.475
516.11023	35422.675
520.1765	34857.175
524.23987	34279.775
528.30034	33778.375
532.35792	33265.275
536.41261	32691.875
540.46441	32223.175
544.51333	32239.275
548.55936	32844.175
552.60252	33913.475
556.64279	35040.775
560.6802	35822.775
564.71473	36373.675
568.7464	37233.975
572.7752	38630.775
576.80114	39840.975
580.82422	40879.575
584.84444	41852.175
588.86181	42578.075
592.87633	43140.475
596.888	43183.275
600.89682	42697.175
604.9028	43757.975
608.90594	47908.975
612.90624	51990.775
616.90371	48103.975
620.89834	38754.675
624.89015	34685.675
628.87913	34381.475
632.86528	34497.375
636.84862	34280.475
640.82913	33485.075
644.80683	32157.775
648.78172	31199.475
652.75379	31022.075
656.72306	31413.575
660.68952	32110.075
664.65319	31913.375
668.61405	31197.775
672.57211	30943.875
676.52738	30990.575
680.47986	30893.875
684.42955	30617.075
688.37646	30464.175
692.32058	30656.175
696.26192	31171.375
700.20048	31724.175
704.13626	32069.975
708.06928	32036.675
711.99952	31747.775
715.927	31635.175
719.85171	31765.675
723.77365	31669.075
727.69284	31050.275
731.60928	30568.875
735.52295	30381.475
739.43388	30410.275
743.34206	30526.275
747.24749	30773.175
751.15017	31196.075
755.05012	31987.975
758.94733	33292.975
762.8418	35604.375
766.73354	39185.775
770.62254	42536.675
774.50882	43058.475
778.39237	40358.975
782.27321	36567.775
786.15132	33588.575
790.02671	31767.775
793.89938	30906.575
797.76935	30637.375
801.6366	30543.175
805.50115	30495.275
809.36299	30230.975
813.22213	29852.875
817.07857	29658.075
820.93231	29452.975
824.78336	29320.775
828.63172	29135.875
832.47738	29027.975
836.32036	29069.475
840.16066	29228.075
843.99827	29415.975
847.8332	29306.875
851.66546	29073.375
855.49504	29036.775
859.32195	29019.875
863.1462	28839.575
866.96777	28667.175
870.78668	28609.375
874.60293	28518.675
878.41652	28544.675
882.22745	28610.275
886.03573	28775.875
889.84136	28739.975
893.64433	28629.575
897.44466	28512.875
901.24235	28367.775
905.0374	28201.875
908.8298	28119.075
912.61957	28150.875
916.40671	28561.175
920.19121	29209.475
923.97308	29800.475
927.75233	29974.975
931.52895	29725.875
935.30295	29149.675
939.07433	28303.475
942.84309	27614.675
946.60924	27346.075
950.37278	27297.175
954.13371	27230.575
957.89203	27131.375
961.64774	27075.175
965.40086	27031.875
969.15137	26976.375
972.89929	26805.975
976.64461	26658.975
980.38733	26642.175
984.12747	26783.675
987.86502	27104.175
991.59999	27527.175
995.33237	28235.675
999.06217	29481.175
1002.78939	30836.975
1006.51404	31665.675
1010.23611	32145.975
1013.95561	32465.775
1017.67255	32486.675
1021.38692	31974.375
1025.09872	31390.375
1028.80796	31625.675
1032.51465	32780.475
1036.21877	34039.675
1039.92035	34148.775
1043.61937	33534.475
1047.31584	32427.975
1051.00976	31364.375
1054.70114	30770.975
1058.38998	30813.475
1062.07627	31062.075
1065.76003	31377.875
1069.44126	31760.875
1073.11995	32284.875
1076.79611	32899.975
1080.46974	33198.875
1084.14085	33599.475
1087.80943	34173.875
1091.47549	34686.875
1095.13903	34708.075
1098.80005	34223.375
1102.45857	33043.775
1106.11456	32045.675
1109.76805	31643.275
1113.41903	31556.875
1117.06751	31837.375
1120.71348	32273.975
1124.35696	32720.675
1127.99793	33300.975
1131.63641	33624.975
1135.2724	33515.175
1138.90589	33255.075
1142.5369	33253.575
1146.16542	33304.175
1149.79145	33621.275
1153.415	34124.875
1157.03607	34932.575
1160.65467	36274.775
1164.27079	38467.275
1167.88443	41285.675
1171.49561	44774.075
1175.10432	49064.375
1178.71056	54494.075
1182.31434	59575.375
1185.91565	62376.275
1189.51451	62452.175
1193.11091	60146.275
1196.70485	56890.975
1200.29634	53613.875
1203.88538	51230.875
1207.47197	49694.175
1211.05612	48645.175
1214.63782	47589.375
1218.21708	46518.275
1221.79391	45714.275
1225.36829	45166.475
1228.94024	44389.375
1232.50976	43284.475
1236.07685	42341.475
1239.6415	41760.775
1243.20374	41477.175
1246.76355	41666.175
1250.32093	42494.975
1253.8759	43758.275
1257.42845	45453.975
1260.97859	47281.775
1264.52631	49095.075
1268.07163	50988.775
1271.61453	53114.775
1275.15503	55400.075
1278.69312	57723.175
1282.22882	59779.675
1285.76211	61833.775
1289.29301	64137.275
1292.82151	66979.375
1296.34761	70784.475
1299.87133	75691.275
1303.39266	81305.975
1306.9116	87431.975
1310.42815	92735.575
1313.94233	95920.675
1317.45412	95859.475
1320.96354	93976.775
1324.47058	92002.175
1327.97525	90487.175
1331.47754	89351.275
1334.97747	88627.675
1338.47502	87691.675
1341.97022	86563.975
1345.46305	84682.975
1348.95352	82344.275
1352.44163	80700.775
1355.92738	81005.775
1359.41078	84009.675
1362.89183	87282.475
1366.37053	85946.475
1369.84688	78960.175
1373.32088	70047.875
1376.79254	63688.575
1380.26186	61201.475
1383.72883	61070.875
1387.19347	61232.175
1390.65578	60732.775
1394.11575	60665.675
1397.57339	61691.475
1401.0287	63483.975
1404.48168	65099.675
1407.93234	65437.075
1411.38068	64178.375
1414.82669	61385.575
1418.27039	57999.675
1421.71177	54542.375
1425.15083	51809.675
1428.58758	50476.875
1432.02203	50757.775
1435.45416	52309.075
1438.88399	54318.275
1442.31151	56105.875
1445.73673	57380.275
1449.15965	58513.875
1452.58027	59140.875
1455.9986	59533.075
1459.41463	59992.375
1462.82837	61051.975
1466.23982	62325.075
1469.64898	63585.875
1473.05586	64101.075
1476.46045	63901.775
1479.86276	63148.775
1483.26279	62127.375
1486.66054	61452.975
1490.05602	61362.875
1493.44922	61595.075
1496.84016	62082.475
1500.22882	63197.375
1503.61521	65079.275
1506.99934	67711.075
1510.38121	69925.675
1513.76081	70732.775
1517.13816	69340.575
1520.51324	66788.775
1523.88607	64425.175
1527.25665	63079.175
1530.62498	62530.375
1533.99105	62290.475
1537.35488	61769.075
1540.71647	60848.075
1544.07581	59273.175
1547.4329	57554.875
1550.78776	55991.775
1554.14038	54806.775
1557.49077	54152.475
1560.83892	53809.275
1564.18484	53723.275
1567.52853	53765.175
1570.86999	54110.275
1574.20922	55010.875
1577.54624	55928.075
1580.88103	56399.775
1584.2136	57111.375
1587.54395	59276.475
1590.87208	63266.475
1594.19801	68239.975
1597.52172	72910.675
1600.84321	74100.475
1604.16251	70007.675
1607.47959	63037.075
1610.79447	55973.275
1614.10715	49759.575
1617.41763	44723.175
1620.7259	41385.775
1624.03199	39714.775
1627.33587	39675.975
1630.63757	41373.775
1633.93707	45123.475
1637.23439	51145.075
1640.52951	59404.875
1643.82246	68684.575
1647.11321	75509.575
1650.40179	76364.975
1653.68819	69842.975
1656.97241	59139.075
1660.25446	48502.575
1663.53433	40535.975
1666.81203	35380.475
1670.08756	32199.475
1673.36092	30154.475
1676.63211	28873.075
1679.90115	28007.775
1683.16801	27351.175
1686.43272	26839.575
1689.69527	26440.875
1692.95567	26144.175
1696.2139	25971.975
1699.46999	25807.875
1702.72392	25664.475
1705.97571	25546.375
1709.22535	25444.575
1712.47284	25353.775
1715.71819	25299.975
1718.96139	25184.775
1722.20246	25073.375
1725.44139	24921.075
1728.67818	24724.475
1731.91284	24519.975
1735.14537	24352.375
1738.37576	24203.375
1741.60403	24072.875
1744.83017	23952.775
1748.05418	23901.075
1751.27607	23836.075
1754.49584	23749.975
1757.71349	23752.775
1760.92903	23688.875
1764.14244	23648.275
1767.35375	23636.675
1770.56294	23588.175
1773.77002	23491.175
1776.97499	23437.975
1780.17785	23380.875
1783.37861	23322.475
1786.57727	23240.775
1789.77382	23182.075
1792.96828	23161.975
1796.16064	23116.275
1799.3509	23060.475
1802.53907	23017.075
1805.72514	22909.475
1808.90913	22868.775
1812.09102	22825.775
1815.27083	22809.775
1818.44856	22738.675
1821.6242	22688.475
1824.79776	22683.675
1827.96924	22674.675
1831.13864	22674.275
1834.30597	22673.975
1837.47122	22710.775
1840.6344	22714.275
1843.7955	22777.175
1846.95454	22805.275
1850.11151	22775.975
1853.26642	22768.575
1856.41926	22798.375
1859.57004	22792.775
1862.71876	22757.675
1865.86542	22732.875
1869.01003	22688.075
1872.15258	22694.975
1875.29308	22665.575
1878.43152	22662.275
1881.56792	22706.675
1884.70227	22704.275
1887.83457	22679.375
1890.96482	22667.675
1894.09304	22671.975
1897.21921	22675.475
1900.34335	22602.575
1903.46544	22597.275
1906.58551	22571.775
1909.70353	22547.075
1912.81953	22480.575
1915.93349	22430.975
1919.04543	22345.675
1922.15534	22253.775
1925.26322	22157.875
1928.36908	22135.675
1931.47292	21999.575
1934.57473	21939.075
1937.67453	21861.375
1940.77232	21751.075
1943.86808	21614.375
1946.96184	21576.675
1950.05358	21505.575
1953.14331	21419.475
1956.23103	21316.375
1959.31675	21265.375
1962.40046	21151.075
1965.48217	21097.875
1968.56188	21060.575
1971.63959	21007.775
1974.7153	20874.475
1977.78901	20814.675
1980.86073	20747.575
1983.93046	20700.175
1986.99819	20616.675
1990.06394	20576.175
1993.1277	20552.975
1996.18947	20437.575
1999.24925	20378.475
2002.30706	20314.775
2005.36288	20244.175
2008.41672	20185.675
2011.46859	20133.075
2014.51848	20077.175
2017.56639	20021.975
2020.61233	19995.175
2023.6563	19941.475
2026.6983	19905.675
2029.73833	19901.175
2032.7764	19850.975
2035.8125	19784.475
2038.84664	19774.475
2041.87881	19759.975
2044.90903	19753.575
2047.93729	19742.675
2050.96359	19713.975
2053.98794	19673.175
2057.01034	19659.675
2060.03078	19627.575
2063.04927	19623.875
2066.06582	19638.775
2069.08042	19603.175
2072.09307	19582.175
2075.10378	19535.675
2078.11255	19515.775
2081.11938	19498.075
2084.12426	19469.575
2087.12722	19463.075
2090.12824	19430.475
2093.12732	19392.575
2096.12447	19435.175
2099.11969	19428.875
2102.11299	19461.675
2105.10435	19454.175
2108.09379	19433.475
2111.08131	19446.275
2114.0669	19449.775
2117.05057	19473.075
2120.03233	19478.575
2123.01216	19463.275
2125.99008	19514.875
2128.96609	19552.475
2131.94018	19563.975
2134.91236	19530.275
2137.88263	19537.475
2140.851	19537.275
2143.81746	19558.175
2146.78201	19551.775
2149.74466	19551.175
2152.7054	19520.875
2155.66425	19507.675
2158.6212	19508.975
2161.57625	19496.575
2164.52941	19499.075
2167.48067	19446.575
2170.43004	19487.275
2173.37752	19469.775
2176.32311	19458.175
2179.26681	19459.675
2182.20863	19451.775
2185.14856	19452.675
2188.08661	19517.575
2191.02278	19520.475
2193.95707	19494.775
2196.88948	19519.875
2199.82001	19461.175
2202.74867	19428.675
2205.67545	19443.575
2208.60037	19419.775
2211.52341	19420.875
2214.44458	19419.275
2217.36388	19394.175
2220.28132	19326.075
2223.1969	19313.675
2226.11061	19288.775
2229.02246	19274.775
2231.93245	19236.375
2234.84058	19140.575
2237.74686	19149.875
2240.65128	19069.375
2243.55385	19050.675
2246.45456	19049.775
2249.35343	19019.075
2252.25044	18965.275
2255.14561	18891.075
2258.03893	18906.675
2260.93041	18858.675
2263.82004	18799.075
2266.70783	18769.375
2269.59378	18703.175
2272.4779	18650.075
2275.36017	18572.475
2278.24061	18529.075
2281.11922	18527.175
2283.996	18505.375
2286.87094	18476.775
2289.74405	18468.475
2292.61534	18459.775
2295.4848	18459.975
2298.35243	18470.675
2301.21824	18491.875
2304.08223	18492.375
2306.94439	18526.075
2309.80474	18545.675
2312.66327	18571.675
2315.51999	18534.275
2318.37489	18525.375
2321.22797	18524.475
2324.07925	18548.175
2326.92871	18516.375
2329.77637	18474.575
2332.62222	18478.375
2335.46626	18495.975
2338.3085	18511.175
2341.14893	18534.775
2343.98756	18564.575
2346.8244	18590.675
2349.65943	18614.375
2352.49267	18599.375
2355.32411	18641.875
2358.15376	18596.875
2360.98161	18554.175
2363.80768	18535.275
2366.63195	18546.475
2369.45444	18491.275
2372.27514	18449.275
2375.09405	18423.375
2377.91118	18365.975
2380.72652	18300.875
2383.54009	18247.775
2386.35187	18236.875
2389.16188	18157.575
2391.97011	18172.075
2394.77657	18112.775
2397.58125	18086.875
2400.38416	18056.675
2403.18529	18037.675
2405.98466	18023.575
2408.78226	17967.475
2411.57809	17955.575
2414.37216	17918.375
2417.16446	17919.275
2419.955	17913.475
2422.74378	17865.175
2425.5308	17824.375
2428.31606	17832.775
2431.09956	17846.975
2433.88131	17810.075
2436.6613	17876.575
2439.43954	17847.675
2442.21603	17847.375
2444.99077	17826.975
2447.76377	17827.775
2450.53501	17808.675
2453.30451	17814.975
2456.07226	17812.175
2458.83827	17861.275
2461.60254	17851.975
2464.36507	17862.275
2467.12586	17842.075
2469.88492	17807.175
2472.64224	17875.575
2475.39782	17955.075
2478.15167	17963.575
2480.90379	17939.575
2483.65417	17975.475
2486.40283	17993.975
2489.14976	18051.975
2491.89497	18023.675
2494.63845	18052.775
2497.3802	18051.375
2500.12024	18102.475
2502.85855	18026.475
2505.59514	18025.875
2508.33002	17992.575
2511.06318	17990.975
2513.79462	17968.775
2516.52435	17925.075
2519.25237	17933.575
2521.97867	17925.875
2524.70327	17921.075
2527.42616	17900.775
2530.14734	17918.375
2532.86681	17939.875
2535.58458	17972.975
2538.30065	17918.075
2541.01501	17928.175
2543.72768	17925.875
2546.43864	17923.175
2549.14791	17881.275
2551.85548	17898.875
2554.56136	17822.075
2557.26554	17835.075
2559.96803	17805.475
2562.66883	17843.775
2565.36794	17802.275
2568.06536	17837.075
2570.7611	17811.475
2573.45514	17818.275
2576.14751	17778.175
2578.83819	17816.275
2581.52719	17812.675
2584.21451	17807.775
2586.90015	17832.075
2589.58411	17814.775
2592.2664	17808.275
2594.94701	17852.475
2597.62594	17828.475
2600.30321	17800.675
2602.9788	17835.975
2605.65273	17845.675
2608.32498	17845.775
2610.99557	17885.375
2613.66449	17883.275
2616.33175	17885.875
2618.99734	17920.275
2621.66128	17907.475
2624.32355	17929.275
2626.98416	17877.675
2629.64311	17917.075
2632.30041	17955.975
2634.95605	17952.575
2637.61004	17934.675
2640.26238	17886.875
2642.91306	17876.375
2645.56209	17859.875
2648.20948	17880.475
2650.85521	17846.575
2653.4993	17884.875
2656.14175	17842.175
2658.78255	17889.175
2661.42171	17878.775
2664.05923	17951.075
2666.6951	17936.375
2669.32934	17970.675
2671.96194	17943.875
2674.59291	17991.275
2677.22224	17976.675
2679.84993	18001.575
2682.476	17942.975
2685.10043	17911.575
2687.72324	17873.475
2690.34441	17837.375
2692.96396	17860.675
2695.58188	17863.575
2698.19818	17800.575
2700.81285	17881.875
2703.4259	17826.675
2706.03733	17863.775
2708.64714	17869.175
2711.25533	17878.175
2713.86191	17880.075
2716.46687	17894.775
2719.07021	17905.875
2721.67194	17919.175
2724.27206	17939.875
2726.87057	17985.775
2729.46747	17977.075
2732.06276	17985.875
2734.65644	17984.975
2737.24852	17977.475
2739.83899	17977.775
2742.42786	17973.375
2745.01513	17970.975
2747.60079	17962.175
2750.18486	17986.575
2752.76733	17957.975
2755.3482	17946.575
2757.92747	17957.575
2760.50515	17923.475
2763.08123	17926.675
2765.65573	17948.575
2768.22863	17920.975
2770.79994	17907.675
2773.36967	17949.875
2775.9378	17926.075
2778.50435	17980.475
2781.06932	17973.675
2783.6327	17990.375
2786.1945	18002.575
2788.75471	17997.975
2791.31335	17967.175
2793.87041	17939.475
2796.42589	17925.675
2798.97979	17908.775
2801.53212	17873.275
2804.08288	17834.175
2806.63206	17789.975
2809.17967	17763.775
2811.72571	17731.175
2814.27018	17741.475
2816.81308	17719.475
2819.35442	17692.775
2821.89419	17660.175
2824.43239	17657.575
2826.96904	17619.675
2829.50412	17626.075
2832.03763	17565.875
2834.56959	17584.075
2837.1	17553.475
2839.62884	17561.875
2842.15613	17563.275
2844.68186	17626.375
2847.20604	17600.875
2849.72867	17602.075
2852.24974	17581.075
2854.76927	17615.175
2857.28724	17629.375
2859.80367	17608.175
2862.31855	17543.475
2864.83189	17555.375
2867.34368	17512.575
2869.85393	17482.275
2872.36264	17464.975
2874.8698	17478.375
2877.37543	17484.175
2879.87952	17510.175
2882.38207	17482.275
2884.88308	17499.275
2887.38256	17502.675
2889.88051	17520.275
2892.37692	17528.675
2894.8718	17522.175
2897.36515	17550.975
2899.85698	17544.075
2902.34727	17637.775
2904.83604	17634.275
2907.32328	17700.075
2909.809	17713.175
2912.29319	17707.875
2914.77587	17746.475
2917.25702	17724.375
2919.73665	17691.575
2922.21476	17706.475
2924.69136	17666.975
2927.16644	17682.175
2929.64	17605.175
2932.11205	17580.775
2934.58258	17541.975
2937.05161	17531.875
2939.51912	17521.575
2941.98513	17526.675
2944.44962	17461.975
2946.91261	17380.875
2949.37409	17442.675
2951.83407	17376.575
2954.29254	17364.475
2956.74951	17353.475
2959.20498	17335.875
2961.65895	17310.275
2964.11142	17256.575
2966.56239	17208.575
2969.01186	17193.575
2971.45984	17160.775
2973.90632	17141.975
2976.35131	17090.175
2978.7948	17015.575
2981.23681	17005.075
2983.67732	16984.175
2986.11635	16956.575
2988.55388	16901.775
2990.98993	16808.375
2993.4245	16781.375
2995.85758	16707.875
2998.28917	16711.475
3000.71928	16690.775
3003.14791	16630.875
3005.57506	16666.475
3008.00073	16572.375
3010.42493	16563.175
3012.84764	16523.075
3015.26888	16543.875
3017.68865	16484.775
3020.10694	16452.575
3022.52376	16417.475
3024.9391	16362.875
3027.35298	16361.575
3029.76539	16348.475
3032.17632	16325.375
3034.5858	16309.175
3036.9938	16271.975
3039.40034	16308.475
3041.80542	16308.475
3044.20903	16253.275
3046.61118	16261.775
3049.01187	16258.675
3051.4111	16238.375
3053.80888	16226.075
3056.20519	16167.575
3058.60005	16105.175
3060.99345	16097.475
3063.3854	16059.575
3065.7759	15992.975
3068.16494	15934.475
3070.55254	15856.975
3072.93868	15843.475
3075.32338	15775.775
3077.70662	15756.675
3080.08842	15695.375
3082.46878	15688.075
3084.84769	15620.475
3087.22515	15621.475
3089.60118	15604.575
3091.97576	15608.475
3094.3489	15605.675
3096.72061	15611.175
3099.09087	15590.675
3101.4597	15574.475
3103.82709	15578.275
3106.19305	15529.675
3108.55757	15522.575
3110.92066	15477.975
3113.28232	15478.975
3115.64255	15434.375
3118.00134	15378.275
3120.35871	15391.475
3122.71466	15315.875
3125.06917	15282.275
3127.42226	15249.075
