Data from AgNPs_FTO_APTES_UA_5uM_CRN_1uM_R6G_10uM_NaF_0.1M_Addition_RamanShift__10__10-28-56-577.txt Node

Date: Mon Feb 07 10:28:56 GMT 2022
User: TCL
Spectrometer: QEP01345
Trigger mode: 4
Integration Time (sec): 7.000000E0
Scans to average: 10
Electric dark correction enabled: true
Nonlinearity correction enabled: false
Boxcar width: 0
XAxis mode: Raman Shifts
Number of Pixels in Spectrum: 1044
>>>>>Begin Spectral Data<<<<<
46.04893	-0.725
50.45542	-1.025
54.85868	-0.825
59.25871	1.075
63.6555	86.475
68.04907	88.175
72.43941	94.475
76.82654	96.075
81.21044	102.975
85.59113	104.975
89.96862	105.875
94.34289	111.375
98.71396	113.575
103.08183	115.575
107.4465	117.675
111.80798	123.075
116.16626	130.075
120.52136	136.575
124.87327	140.475
129.222	150.575
133.56755	163.875
137.90993	181.475
142.24913	191.475
146.58517	227.875
150.91804	265.175
155.24774	324.475
159.57429	408.275
163.89768	536.375
168.21792	720.575
172.53501	981.675
176.84895	1379.575
181.15975	1932.175
185.46741	2713.475
189.77193	3751.375
194.07331	5016.575
198.37157	6464.475
202.6667	7968.075
206.9587	9490.775
211.24758	10965.875
215.53334	12481.075
219.81599	14086.475
224.09553	15825.575
228.37195	17749.875
232.64527	19857.675
236.91549	22019.375
241.18261	24238.175
245.44663	26234.175
249.70755	28059.575
253.96539	29603.375
258.22014	30911.875
262.4718	31969.575
266.72039	32652.175
270.96589	33017.675
275.20832	33010.775
279.44768	32797.475
283.68397	32486.175
287.91719	32258.675
292.14735	32110.175
296.37445	32123.375
300.59849	32157.875
304.81948	32346.875
309.03742	32416.475
313.25231	32285.275
317.46415	31837.275
321.67296	31072.375
325.87872	30431.375
330.08145	30020.475
334.28114	29940.575
338.47781	30040.175
342.67145	30327.675
346.86207	30756.375
351.04966	31292.475
355.23424	31962.375
359.4158	32533.775
363.59435	33030.075
367.76989	33322.075
371.94243	33446.375
376.11196	33443.675
380.27849	33372.675
384.44203	33346.475
388.60257	33627.975
392.76012	34022.675
396.91468	34646.475
401.06626	35353.975
405.21485	35787.575
409.36047	35635.475
413.50311	35317.575
417.64277	35463.575
421.77947	35901.175
425.9132	36013.275
430.04396	36023.975
434.17176	36090.875
438.2966	35980.675
442.41849	36165.875
446.53742	36840.475
450.6534	37763.975
454.76644	38415.275
458.87653	38615.175
462.98368	38407.175
467.08789	37970.675
471.18916	37324.375
475.2875	36702.875
479.38291	36498.575
483.4754	36510.775
487.56496	36368.975
491.6516	35953.275
495.73531	35388.375
499.81612	35036.675
503.89401	35079.275
507.96899	35350.475
512.04106	35360.475
516.11023	34940.275
520.1765	34227.375
524.23987	33590.575
528.30034	33065.675
532.35792	32594.975
536.41261	32161.475
540.46441	31727.175
544.51333	31703.275
548.55936	32097.875
552.60252	32863.075
556.64279	33794.075
560.6802	34586.275
564.71473	35158.175
568.7464	36186.675
572.7752	37859.175
576.80114	39948.175
580.82422	42294.975
584.84444	45001.675
588.86181	48572.575
592.87633	51389.475
596.888	50311.475
600.89682	45686.775
604.9028	42924.375
608.90594	44144.475
612.90624	46137.875
616.90371	43099.675
620.89834	36525.775
624.89015	33616.475
628.87913	33474.075
632.86528	33937.175
636.84862	33863.875
640.82913	32994.775
644.80683	31907.675
648.78172	31307.175
652.75379	31389.175
656.72306	31848.875
660.68952	32252.175
664.65319	31931.675
668.61405	31343.175
672.57211	31208.575
676.52738	31419.275
680.47986	31383.475
684.42955	31038.375
688.37646	30807.075
692.32058	31149.875
696.26192	31786.475
700.20048	32440.875
704.13626	32838.875
708.06928	33017.775
711.99952	33029.275
715.927	33053.575
719.85171	33155.775
723.77365	32822.075
727.69284	32015.575
731.60928	31256.075
735.52295	30961.875
739.43388	30874.375
743.34206	31055.575
747.24749	31355.475
751.15017	31862.575
755.05012	32608.075
758.94733	33658.175
762.8418	35427.775
766.73354	37778.175
770.62254	39883.375
774.50882	39829.275
778.39237	37816.975
782.27321	35292.675
786.15132	33281.975
790.02671	31957.775
793.89938	31278.275
797.76935	31034.075
801.6366	30920.875
805.50115	30891.575
809.36299	30724.775
813.22213	30577.075
817.07857	30368.975
820.93231	30132.975
824.78336	29876.675
828.63172	29608.075
832.47738	29444.575
836.32036	29405.075
840.16066	29442.875
843.99827	29498.875
847.8332	29439.175
851.66546	29529.575
855.49504	29581.675
859.32195	29632.975
863.1462	29512.775
866.96777	29450.575
870.78668	29364.775
874.60293	29382.575
878.41652	29361.075
882.22745	29435.675
886.03573	29573.975
889.84136	29523.975
893.64433	29431.175
897.44466	29335.575
901.24235	29299.075
905.0374	29281.475
908.8298	29193.375
912.61957	29288.275
916.40671	29608.875
920.19121	30213.275
923.97308	30847.475
927.75233	31022.675
931.52895	30554.175
935.30295	29754.475
939.07433	28863.775
942.84309	28300.675
946.60924	28019.775
950.37278	27965.975
954.13371	28007.475
957.89203	28015.075
961.64774	28028.475
965.40086	28079.075
969.15137	28065.675
972.89929	27864.675
976.64461	27703.875
980.38733	27628.175
984.12747	27593.075
987.86502	27659.075
991.59999	27859.575
995.33237	28072.375
999.06217	28545.275
1002.78939	29166.075
1006.51404	29937.475
1010.23611	30625.275
1013.95561	31150.475
1017.67255	31208.075
1021.38692	30727.275
1025.09872	30099.475
1028.80796	29587.175
1032.51465	29518.175
1036.21877	29641.175
1039.92035	29922.475
1043.61937	30011.275
1047.31584	29989.975
1051.00976	29965.975
1054.70114	30038.275
1058.38998	30238.675
1062.07627	30619.575
1065.76003	31191.075
1069.44126	31759.975
1073.11995	32566.675
1076.79611	33331.375
1080.46974	33581.875
1084.14085	33828.875
1087.80943	34351.875
1091.47549	34933.775
1095.13903	35154.175
1098.80005	34514.775
1102.45857	33303.675
1106.11456	32194.075
1109.76805	31563.475
1113.41903	31322.175
1117.06751	31356.575
1120.71348	31694.375
1124.35696	32016.875
1127.99793	32443.975
1131.63641	32778.775
1135.2724	32907.475
1138.90589	32937.875
1142.5369	33180.575
1146.16542	33642.975
1149.79145	34055.475
1153.415	34538.475
1157.03607	35293.775
1160.65467	36748.875
1164.27079	39185.075
1167.88443	41775.375
1171.49561	44056.975
1175.10432	46464.175
1178.71056	49785.175
1182.31434	52876.475
1185.91565	54347.975
1189.51451	53717.075
1193.11091	52270.475
1196.70485	50473.275
1200.29634	48725.075
1203.88538	47961.475
1207.47197	48122.375
1211.05612	48526.875
1214.63782	47921.975
1218.21708	46083.375
1221.79391	43819.475
1225.36829	42049.275
1228.94024	41000.675
1232.50976	40245.475
1236.07685	39508.075
1239.6415	39060.875
1243.20374	38961.375
1246.76355	39319.575
1250.32093	40050.875
1253.8759	41105.875
1257.42845	42467.575
1260.97859	43983.075
1264.52631	45626.775
1268.07163	47293.775
1271.61453	48965.775
1275.15503	50758.075
1278.69312	52766.175
1282.22882	55163.875
1285.76211	58066.075
1289.29301	61389.275
1292.82151	65025.875
1296.34761	69258.075
1299.87133	74224.675
1303.39266	79009.175
1306.9116	82699.575
1310.42815	84584.375
1313.94233	84632.075
1317.45412	83201.775
1320.96354	81447.375
1324.47058	80730.775
1327.97525	80862.775
1331.47754	81027.675
1334.97747	80229.875
1338.47502	78580.875
1341.97022	76332.675
1345.46305	74072.575
1348.95352	72329.775
1352.44163	71836.975
1355.92738	73191.775
1359.41078	76487.275
1362.89183	79603.275
1366.37053	79625.775
1369.84688	74452.075
1373.32088	65937.075
1376.79254	59301.575
1380.26186	56999.975
1383.72883	57350.775
1387.19347	57677.175
1390.65578	56959.475
1394.11575	56551.575
1397.57339	57450.175
1401.0287	59276.875
1404.48168	60772.675
1407.93234	60748.575
1411.38068	58833.675
1414.82669	55669.475
1418.27039	52263.975
1421.71177	49331.875
1425.15083	47186.775
1428.58758	46476.475
1432.02203	47327.675
1435.45416	49426.875
1438.88399	51536.575
1442.31151	52896.075
1445.73673	53546.175
1449.15965	53823.975
1452.58027	53705.375
1455.9986	53397.375
1459.41463	53578.875
1462.82837	54479.475
1466.23982	55771.375
1469.64898	56953.975
1473.05586	57590.375
1476.46045	57493.775
1479.86276	56932.875
1483.26279	56240.775
1486.66054	55902.375
1490.05602	56124.275
1493.44922	56789.675
1496.84016	57576.275
1500.22882	58363.675
1503.61521	59439.575
1506.99934	60595.375
1510.38121	61621.875
1513.76081	61968.775
1517.13816	61507.475
1520.51324	60957.075
1523.88607	60989.875
1527.25665	61541.475
1530.62498	61996.675
1533.99105	61552.675
1537.35488	60064.875
1540.71647	57867.275
1544.07581	55296.475
1547.4329	52832.175
1550.78776	50825.475
1554.14038	49403.875
1557.49077	48578.075
1560.83892	48071.675
1564.18484	47824.175
1567.52853	47752.875
1570.86999	48263.775
1574.20922	49490.475
1577.54624	50736.475
1580.88103	51713.275
1584.2136	53144.075
1587.54395	56198.675
1590.87208	60685.275
1594.19801	65675.375
1597.52172	69383.075
1600.84321	69168.475
1604.16251	64043.475
1607.47959	56691.475
1610.79447	49961.975
1614.10715	44539.975
1617.41763	40520.375
1620.7259	38021.175
1624.03199	36910.075
1627.33587	37128.775
1630.63757	38723.875
1633.93707	42191.375
1637.23439	48213.475
1640.52951	57218.575
1643.82246	68505.675
1647.11321	77787.275
1650.40179	79260.975
1653.68819	71383.875
1656.97241	58961.875
1660.25446	47686.075
1663.53433	39714.575
1666.81203	34792.875
1670.08756	31829.275
1673.36092	29980.375
1676.63211	28840.975
1679.90115	28085.675
1683.16801	27513.575
1686.43272	26996.575
1689.69527	26690.475
1692.95567	26429.075
1696.2139	26266.975
1699.46999	26122.675
1702.72392	25972.875
1705.97571	25895.175
1709.22535	25733.175
1712.47284	25668.175
1715.71819	25611.475
1718.96139	25517.575
1722.20246	25421.975
1725.44139	25249.775
1728.67818	25087.075
1731.91284	24867.275
1735.14537	24693.175
1738.37576	24535.275
1741.60403	24425.975
1744.83017	24290.475
1748.05418	24265.675
1751.27607	24156.475
1754.49584	24070.775
1757.71349	24041.375
1760.92903	23998.575
1764.14244	23983.575
1767.35375	24006.975
1770.56294	23872.775
1773.77002	23807.575
1776.97499	23778.075
1780.17785	23724.575
1783.37861	23654.075
1786.57727	23607.075
1789.77382	23548.175
1792.96828	23528.775
1796.16064	23470.675
1799.3509	23390.175
1802.53907	23311.175
1805.72514	23243.775
1808.90913	23156.475
1812.09102	23113.075
1815.27083	23074.875
1818.44856	23046.675
1821.6242	23010.875
1824.79776	22947.475
1827.96924	22917.275
1831.13864	22946.175
1834.30597	22931.275
1837.47122	22930.475
1840.6344	22884.275
1843.7955	22923.375
1846.95454	22927.275
1850.11151	22915.175
1853.26642	22866.575
1856.41926	22873.575
1859.57004	22850.175
1862.71876	22803.275
1865.86542	22759.775
1869.01003	22706.775
1872.15258	22669.475
1875.29308	22648.475
1878.43152	22574.275
1881.56792	22569.175
1884.70227	22576.775
1887.83457	22543.475
1890.96482	22491.875
1894.09304	22458.975
1897.21921	22464.575
1900.34335	22374.275
1903.46544	22317.975
1906.58551	22318.775
1909.70353	22229.775
1912.81953	22204.975
1915.93349	22142.375
1919.04543	22121.175
1922.15534	22032.575
1925.26322	21978.375
1928.36908	21924.075
1931.47292	21836.075
1934.57473	21748.175
1937.67453	21707.275
1940.77232	21628.475
1943.86808	21524.975
1946.96184	21483.175
1950.05358	21449.575
1953.14331	21417.975
1956.23103	21341.575
1959.31675	21251.375
1962.40046	21181.275
1965.48217	21151.475
1968.56188	21054.575
1971.63959	20978.575
1974.7153	20861.975
1977.78901	20776.875
1980.86073	20738.775
1983.93046	20650.275
1986.99819	20598.175
1990.06394	20547.375
1993.1277	20490.175
1996.18947	20427.675
1999.24925	20354.375
2002.30706	20264.375
2005.36288	20206.275
2008.41672	20130.075
2011.46859	20096.175
2014.51848	20032.175
2017.56639	19974.075
2020.61233	19888.675
2023.6563	19857.275
2026.6983	19844.175
2029.73833	19789.575
2032.7764	19767.475
2035.8125	19707.675
2038.84664	19619.275
2041.87881	19618.275
2044.90903	19549.375
2047.93729	19510.775
2050.96359	19505.475
2053.98794	19469.175
2057.01034	19484.775
2060.03078	19457.375
2063.04927	19436.775
2066.06582	19450.175
2069.08042	19387.775
2072.09307	19356.575
2075.10378	19338.675
2078.11255	19300.275
2081.11938	19331.875
2084.12426	19293.275
2087.12722	19335.875
2090.12824	19285.475
2093.12732	19276.975
2096.12447	19268.875
2099.11969	19265.575
2102.11299	19292.275
2105.10435	19260.475
2108.09379	19263.375
2111.08131	19276.475
2114.0669	19257.675
2117.05057	19246.075
2120.03233	19255.875
2123.01216	19293.775
2125.99008	19294.475
2128.96609	19313.775
2131.94018	19327.275
2134.91236	19292.375
2137.88263	19312.375
2140.851	19269.075
2143.81746	19234.075
2146.78201	19234.975
2149.74466	19225.975
2152.7054	19262.975
2155.66425	19238.975
2158.6212	19212.575
2161.57625	19153.975
2164.52941	19184.175
2167.48067	19145.475
2170.43004	19189.875
2173.37752	19160.575
2176.32311	19123.075
2179.26681	19133.275
2182.20863	19185.375
2185.14856	19164.575
2188.08661	19140.075
2191.02278	19143.875
2193.95707	19100.975
2196.88948	19060.075
2199.82001	19032.575
2202.74867	18995.975
2205.67545	18964.475
2208.60037	18956.075
2211.52341	18926.575
2214.44458	18876.175
2217.36388	18865.075
2220.28132	18784.575
2223.1969	18776.575
2226.11061	18757.075
2229.02246	18738.175
2231.93245	18710.575
2234.84058	18690.975
2237.74686	18714.175
2240.65128	18710.075
2243.55385	18652.175
2246.45456	18598.775
2249.35343	18539.575
2252.25044	18445.975
2255.14561	18395.375
2258.03893	18357.575
2260.93041	18304.875
2263.82004	18264.075
2266.70783	18217.775
2269.59378	18158.475
2272.4779	18093.275
2275.36017	18018.675
2278.24061	17995.675
2281.11922	17964.575
2283.996	17960.775
2286.87094	17929.575
2289.74405	17947.275
2292.61534	17878.575
2295.4848	17832.575
2298.35243	17860.275
2301.21824	17816.475
2304.08223	17821.675
2306.94439	17818.875
2309.80474	17834.075
2312.66327	17816.075
2315.51999	17785.975
2318.37489	17734.775
2321.22797	17720.775
2324.07925	17715.575
2326.92871	17692.975
2329.77637	17669.875
2332.62222	17586.375
2335.46626	17602.875
2338.3085	17582.375
2341.14893	17596.975
2343.98756	17593.575
2346.8244	17615.475
2349.65943	17602.975
2352.49267	17571.575
2355.32411	17626.575
2358.15376	17603.675
2360.98161	17568.975
2363.80768	17552.075
2366.63195	17540.875
2369.45444	17528.975
2372.27514	17501.875
2375.09405	17476.375
2377.91118	17440.575
2380.72652	17412.775
2383.54009	17338.375
2386.35187	17336.475
2389.16188	17237.675
2391.97011	17230.875
2394.77657	17232.475
2397.58125	17163.375
2400.38416	17144.975
2403.18529	17140.675
2405.98466	17107.875
2408.78226	17052.375
2411.57809	17060.775
2414.37216	17056.175
2417.16446	17067.975
2419.955	16997.775
2422.74378	16999.775
2425.5308	16942.675
2428.31606	16998.075
2431.09956	16968.775
2433.88131	16944.975
2436.6613	16972.475
2439.43954	16964.275
2442.21603	16932.075
2444.99077	16924.175
2447.76377	16940.975
2450.53501	16931.275
2453.30451	16891.375
2456.07226	16899.375
2458.83827	16837.475
2461.60254	16847.375
2464.36507	16846.175
2467.12586	16844.975
2469.88492	16848.275
2472.64224	16866.375
2475.39782	16893.575
2478.15167	16888.875
2480.90379	16852.975
2483.65417	16859.475
2486.40283	16861.575
2489.14976	16883.275
2491.89497	16854.875
2494.63845	16889.675
2497.3802	16839.275
2500.12024	16858.375
2502.85855	16820.875
2505.59514	16799.975
2508.33002	16792.875
2511.06318	16768.475
2513.79462	16726.875
2516.52435	16737.675
2519.25237	16741.775
2521.97867	16723.875
2524.70327	16714.375
2527.42616	16694.675
2530.14734	16721.075
2532.86681	16660.175
2535.58458	16708.075
2538.30065	16668.975
2541.01501	16675.075
2543.72768	16681.175
2546.43864	16649.575
2549.14791	16638.575
2551.85548	16612.875
2554.56136	16588.475
2557.26554	16572.175
2559.96803	16550.475
2562.66883	16548.675
2565.36794	16551.475
2568.06536	16546.275
2570.7611	16499.875
2573.45514	16503.475
2576.14751	16468.075
2578.83819	16467.375
2581.52719	16464.975
2584.21451	16421.575
2586.90015	16433.075
2589.58411	16443.275
2592.2664	16389.775
2594.94701	16348.575
2597.62594	16375.875
2600.30321	16381.975
2602.9788	16368.275
2605.65273	16382.375
2608.32498	16408.075
2610.99557	16412.275
2613.66449	16416.375
2616.33175	16391.275
2618.99734	16375.575
2621.66128	16351.575
2624.32355	16307.875
2626.98416	16299.075
2629.64311	16293.575
2632.30041	16281.875
2634.95605	16243.675
2637.61004	16254.775
2640.26238	16260.675
2642.91306	16259.875
2645.56209	16239.975
2648.20948	16257.375
2650.85521	16279.275
2653.4993	16312.275
2656.14175	16312.975
2658.78255	16315.875
2661.42171	16310.475
2664.05923	16341.075
2666.6951	16327.175
2669.32934	16371.275
2671.96194	16353.675
2674.59291	16361.475
2677.22224	16354.675
2679.84993	16368.375
2682.476	16369.575
2685.10043	16345.675
2687.72324	16317.775
2690.34441	16311.675
2692.96396	16337.575
2695.58188	16298.875
2698.19818	16283.875
2700.81285	16290.575
2703.4259	16312.275
2706.03733	16326.175
2708.64714	16310.875
2711.25533	16314.975
2713.86191	16319.975
2716.46687	16346.675
2719.07021	16377.575
2721.67194	16386.575
2724.27206	16381.775
2726.87057	16408.975
2729.46747	16419.175
2732.06276	16443.275
2734.65644	16462.775
2737.24852	16439.675
2739.83899	16422.175
2742.42786	16421.475
2745.01513	16394.275
2747.60079	16354.775
2750.18486	16361.275
2752.76733	16316.475
2755.3482	16301.675
2757.92747	16309.175
2760.50515	16292.175
2763.08123	16295.275
2765.65573	16299.975
2768.22863	16300.075
2770.79994	16270.675
2773.36967	16324.775
2775.9378	16292.975
2778.50435	16322.275
2781.06932	16286.275
2783.6327	16343.775
2786.1945	16289.475
2788.75471	16292.475
2791.31335	16272.875
2793.87041	16270.475
2796.42589	16218.375
2798.97979	16213.875
2801.53212	16201.075
2804.08288	16137.875
2806.63206	16086.075
2809.17967	16084.475
2811.72571	16083.275
2814.27018	16023.075
2816.81308	16003.075
2819.35442	15966.675
2821.89419	15931.475
2824.43239	15927.675
2826.96904	15936.275
2829.50412	15949.075
2832.03763	15887.175
2834.56959	15871.475
2837.1	15814.775
2839.62884	15849.675
2842.15613	15831.875
2844.68186	15880.675
2847.20604	15885.775
2849.72867	15902.075
2852.24974	15885.775
2854.76927	15893.275
2857.28724	15863.175
2859.80367	15850.275
2862.31855	15793.175
2864.83189	15776.275
2867.34368	15759.175
2869.85393	15723.475
2872.36264	15697.575
2874.8698	15674.375
2877.37543	15695.475
2879.87952	15698.075
2882.38207	15651.275
2884.88308	15668.975
2887.38256	15658.775
2889.88051	15681.075
2892.37692	15701.575
2894.8718	15680.675
2897.36515	15706.475
2899.85698	15711.875
2902.34727	15751.275
2904.83604	15761.575
2907.32328	15769.875
2909.809	15771.475
2912.29319	15763.975
2914.77587	15761.475
2917.25702	15745.175
2919.73665	15732.775
2922.21476	15758.175
2924.69136	15701.175
2927.16644	15715.075
2929.64	15695.275
2932.11205	15671.175
2934.58258	15649.875
2937.05161	15635.475
2939.51912	15659.475
2941.98513	15656.875
2944.44962	15588.475
2946.91261	15528.375
2949.37409	15527.975
2951.83407	15478.675
2954.29254	15471.675
2956.74951	15452.375
2959.20498	15401.975
2961.65895	15397.475
2964.11142	15418.275
2966.56239	15359.975
2969.01186	15321.575
2971.45984	15303.675
2973.90632	15327.075
2976.35131	15294.775
2978.7948	15227.775
2981.23681	15182.475
2983.67732	15145.375
2986.11635	15131.575
2988.55388	15065.475
2990.98993	15020.075
2993.4245	14948.475
2995.85758	14918.775
2998.28917	14861.975
3000.71928	14816.075
3003.14791	14782.575
3005.57506	14767.775
3008.00073	14730.075
3010.42493	14707.075
3012.84764	14696.175
3015.26888	14667.575
3017.68865	14635.775
3020.10694	14577.675
3022.52376	14524.375
3024.9391	14522.175
3027.35298	14526.575
3029.76539	14515.375
3032.17632	14495.775
3034.5858	14466.375
3036.9938	14417.875
3039.40034	14435.175
3041.80542	14411.875
3044.20903	14403.575
3046.61118	14408.975
3049.01187	14357.775
3051.4111	14358.175
3053.80888	14297.875
3056.20519	14286.075
3058.60005	14236.275
3060.99345	14188.475
3063.3854	14126.675
3065.7759	14057.075
3068.16494	14005.075
3070.55254	13949.875
3072.93868	13928.375
3075.32338	13885.975
3077.70662	13812.475
3080.08842	13770.675
3082.46878	13734.275
3084.84769	13734.775
3087.22515	13726.275
3089.60118	13743.475
3091.97576	13734.775
3094.3489	13682.675
3096.72061	13684.375
3099.09087	13673.375
3101.4597	13658.175
3103.82709	13632.175
3106.19305	13622.775
3108.55757	13573.775
3110.92066	13575.375
3113.28232	13563.975
3115.64255	13477.775
3118.00134	13459.375
3120.35871	13429.775
3122.71466	13409.075
3125.06917	13347.875
3127.42226	13332.175
