Data from AgNPs_FTO_APTES_UA_5uM_CRN_0uM_R6G_10uM_NaF_0.1M_Addition_RamanShift__1__09-39-56-519.txt Node

Date: Mon Feb 07 09:39:56 GMT 2022
User: TCL
Spectrometer: QEP01345
Trigger mode: 4
Integration Time (sec): 7.000000E0
Scans to average: 10
Electric dark correction enabled: true
Nonlinearity correction enabled: false
Boxcar width: 0
XAxis mode: Raman Shifts
Number of Pixels in Spectrum: 1044
>>>>>Begin Spectral Data<<<<<
46.04893	-1.425
50.45542	-0.925
54.85868	-0.425
59.25871	1.075
63.6555	64.575
68.04907	65.875
72.43941	72.475
76.82654	71.875
81.21044	75.775
85.59113	80.775
89.96862	82.775
94.34289	85.075
98.71396	84.275
103.08183	90.075
107.4465	90.675
111.80798	96.975
116.16626	96.375
120.52136	105.275
124.87327	107.775
129.222	118.475
133.56755	124.875
137.90993	138.575
142.24913	148.075
146.58517	176.975
150.91804	201.775
155.24774	248.575
159.57429	314.975
163.89768	410.175
168.21792	543.575
172.53501	748.875
176.84895	1044.275
181.15975	1480.375
185.46741	2079.675
189.77193	2865.275
194.07331	3852.375
198.37157	4999.275
202.6667	6192.775
206.9587	7376.975
211.24758	8570.375
215.53334	9763.375
219.81599	11065.175
224.09553	12507.975
228.37195	14134.575
232.64527	15878.875
236.91549	17691.875
241.18261	19566.175
245.44663	21188.075
249.70755	22620.975
253.96539	23823.075
258.22014	24796.175
262.4718	25523.275
266.72039	25961.475
270.96589	26189.075
275.20832	26064.675
279.44768	25746.775
283.68397	25458.875
287.91719	25184.775
292.14735	25036.775
296.37445	24902.575
300.59849	24954.375
304.81948	25172.975
309.03742	25411.675
313.25231	25412.175
317.46415	24814.975
321.67296	23635.375
325.87872	22451.075
330.08145	21707.775
334.28114	21380.475
338.47781	21479.875
342.67145	21684.175
346.86207	22065.775
351.04966	22571.675
355.23424	23126.275
359.4158	23543.475
363.59435	23856.175
367.76989	23969.975
371.94243	23811.675
376.11196	23613.975
380.27849	23367.475
384.44203	23193.175
388.60257	23110.675
392.76012	23364.075
396.91468	23810.375
401.06626	24468.975
405.21485	24903.675
409.36047	24772.975
413.50311	24196.075
417.64277	23789.275
421.77947	23596.575
425.9132	23534.775
430.04396	23484.775
434.17176	23381.075
438.2966	23244.775
442.41849	23245.975
446.53742	23497.675
450.6534	24011.475
454.76644	24360.775
458.87653	24540.875
462.98368	24526.875
467.08789	24368.275
471.18916	24123.775
475.2875	23855.775
479.38291	23778.375
483.4754	23928.075
487.56496	24037.075
491.6516	24051.575
495.73531	23978.175
499.81612	23943.775
503.89401	24003.275
507.96899	23920.175
512.04106	23629.175
516.11023	23223.875
520.1765	22699.575
524.23987	22269.875
528.30034	21901.975
532.35792	21622.375
536.41261	21205.775
540.46441	20885.075
544.51333	20854.975
548.55936	21180.175
552.60252	21942.475
556.64279	22698.275
560.6802	22950.975
564.71473	23074.675
568.7464	23612.975
572.7752	24625.175
576.80114	25811.775
580.82422	27225.675
584.84444	28920.475
588.86181	30275.875
592.87633	30513.675
596.888	29592.175
600.89682	28137.675
604.9028	28189.675
608.90594	30964.375
612.90624	34625.275
616.90371	32757.975
620.89834	25741.975
624.89015	22143.675
628.87913	21651.175
632.86528	22241.975
636.84862	22728.975
640.82913	22320.575
644.80683	21320.775
648.78172	20619.275
652.75379	20416.875
656.72306	20728.375
660.68952	21261.975
664.65319	21280.875
668.61405	20865.475
672.57211	20669.375
676.52738	20639.875
680.47986	20561.275
684.42955	20318.675
688.37646	20101.075
692.32058	20176.075
696.26192	20552.075
700.20048	20909.575
704.13626	21247.775
708.06928	21505.375
711.99952	21544.875
715.927	21414.875
719.85171	21302.775
723.77365	21086.375
727.69284	20640.775
731.60928	20171.875
735.52295	19865.075
739.43388	19788.675
743.34206	19783.675
747.24749	20011.975
751.15017	20383.675
755.05012	20958.275
758.94733	21904.575
762.8418	23665.875
766.73354	26589.475
770.62254	29434.275
774.50882	29625.075
778.39237	27492.875
782.27321	24765.975
786.15132	22544.475
790.02671	21042.475
793.89938	20215.275
797.76935	19828.875
801.6366	19661.075
805.50115	19564.275
809.36299	19428.275
813.22213	19319.075
817.07857	19257.575
820.93231	19139.575
824.78336	19048.175
828.63172	18955.575
832.47738	18878.975
836.32036	18861.275
840.16066	18822.475
843.99827	18799.075
847.8332	18801.575
851.66546	18811.075
855.49504	18851.875
859.32195	18860.575
863.1462	18778.875
866.96777	18723.375
870.78668	18662.275
874.60293	18643.675
878.41652	18619.675
882.22745	18658.375
886.03573	18727.175
889.84136	18821.475
893.64433	18807.475
897.44466	18862.875
901.24235	18904.975
905.0374	18907.975
908.8298	18876.375
912.61957	18822.575
916.40671	19023.775
920.19121	19419.975
923.97308	19900.475
927.75233	20198.075
931.52895	20017.975
935.30295	19538.175
939.07433	18783.375
942.84309	18147.975
946.60924	17804.275
950.37278	17597.975
954.13371	17562.375
957.89203	17517.275
961.64774	17532.975
965.40086	17511.375
969.15137	17536.675
972.89929	17455.475
976.64461	17338.275
980.38733	17202.075
984.12747	17142.575
987.86502	17178.975
991.59999	17224.775
995.33237	17303.875
999.06217	17504.175
1002.78939	17742.075
1006.51404	18023.375
1010.23611	18334.275
1013.95561	18622.275
1017.67255	18787.775
1021.38692	18659.275
1025.09872	18348.575
1028.80796	18053.575
1032.51465	17996.475
1036.21877	18168.475
1039.92035	18409.975
1043.61937	18629.375
1047.31584	18788.775
1051.00976	18890.075
1054.70114	19079.775
1058.38998	19192.975
1062.07627	19347.675
1065.76003	19595.775
1069.44126	20077.175
1073.11995	20940.575
1076.79611	21829.875
1080.46974	22058.075
1084.14085	22025.975
1087.80943	22241.975
1091.47549	22633.075
1095.13903	22906.075
1098.80005	22630.775
1102.45857	21585.775
1106.11456	20284.775
1109.76805	19440.775
1113.41903	19074.475
1117.06751	19071.975
1120.71348	19332.075
1124.35696	19770.175
1127.99793	20263.975
1131.63641	20658.175
1135.2724	20677.675
1138.90589	20495.975
1142.5369	20333.475
1146.16542	20356.275
1149.79145	20448.975
1153.415	20601.775
1157.03607	20976.175
1160.65467	21687.475
1164.27079	22896.375
1167.88443	24448.975
1171.49561	26305.575
1175.10432	28723.375
1178.71056	31681.475
1182.31434	34095.775
1185.91565	35280.275
1189.51451	35341.275
1193.11091	34287.675
1196.70485	32487.575
1200.29634	30513.975
1203.88538	28961.775
1207.47197	27977.775
1211.05612	27201.375
1214.63782	26517.075
1218.21708	25674.275
1221.79391	24742.575
1225.36829	24048.875
1228.94024	23620.775
1232.50976	23338.675
1236.07685	23093.175
1239.6415	23031.475
1243.20374	22966.275
1246.76355	23056.775
1250.32093	23283.675
1253.8759	23749.075
1257.42845	24716.675
1260.97859	25863.375
1264.52631	27005.375
1268.07163	28130.175
1271.61453	29222.575
1275.15503	30376.575
1278.69312	31574.875
1282.22882	32920.575
1285.76211	34554.975
1289.29301	36257.375
1292.82151	37931.775
1296.34761	39695.075
1299.87133	41990.275
1303.39266	44500.475
1306.9116	47013.675
1310.42815	49132.075
1313.94233	50183.075
1317.45412	49991.975
1320.96354	49421.775
1324.47058	49235.075
1327.97525	49310.875
1331.47754	49087.875
1334.97747	48263.575
1338.47502	46896.575
1341.97022	45412.675
1345.46305	44143.575
1348.95352	43073.275
1352.44163	42489.575
1355.92738	42864.575
1359.41078	44850.675
1362.89183	47886.775
1366.37053	49345.175
1369.84688	47114.975
1373.32088	42217.675
1376.79254	37408.475
1380.26186	34341.075
1383.72883	32887.575
1387.19347	32103.075
1390.65578	31350.775
1394.11575	30763.575
1397.57339	30696.875
1401.0287	31033.775
1404.48168	31356.475
1407.93234	31085.475
1411.38068	30202.075
1414.82669	28870.275
1418.27039	27426.375
1421.71177	26122.475
1425.15083	25041.875
1428.58758	24480.975
1432.02203	24497.275
1435.45416	25006.775
1438.88399	25753.375
1442.31151	26329.175
1445.73673	26890.875
1449.15965	27438.775
1452.58027	27806.575
1455.9986	27845.775
1459.41463	28025.575
1462.82837	28490.375
1466.23982	29345.575
1469.64898	30151.975
1473.05586	30668.875
1476.46045	30932.775
1479.86276	31177.675
1483.26279	31549.475
1486.66054	32164.775
1490.05602	33063.675
1493.44922	34354.175
1496.84016	36119.075
1500.22882	38377.475
1503.61521	41201.075
1506.99934	44208.475
1510.38121	46882.175
1513.76081	47920.875
1517.13816	46872.175
1520.51324	44437.075
1523.88607	41871.575
1527.25665	39733.075
1530.62498	38098.875
1533.99105	36651.175
1537.35488	35194.275
1540.71647	33589.475
1544.07581	31855.175
1547.4329	30327.175
1550.78776	29150.975
1554.14038	28460.875
1557.49077	28333.975
1560.83892	28630.175
1564.18484	29208.075
1567.52853	29738.175
1570.86999	30154.375
1574.20922	30517.775
1577.54624	30710.275
1580.88103	30210.075
1584.2136	29579.475
1587.54395	29872.875
1590.87208	31218.775
1594.19801	33200.375
1597.52172	34877.175
1600.84321	34931.375
1604.16251	32722.775
1607.47959	29668.175
1610.79447	26807.175
1614.10715	24357.775
1617.41763	22390.175
1620.7259	21010.075
1624.03199	20289.675
1627.33587	20180.275
1630.63757	20706.775
1633.93707	22105.375
1637.23439	24553.175
1640.52951	28463.875
1643.82246	33936.575
1647.11321	39818.275
1650.40179	43489.075
1653.68819	42755.475
1656.97241	37637.175
1660.25446	30878.575
1663.53433	25096.475
1666.81203	21177.175
1670.08756	18815.575
1673.36092	17454.675
1676.63211	16603.475
1679.90115	16031.275
1683.16801	15641.075
1686.43272	15316.775
1689.69527	15073.775
1692.95567	14885.775
1696.2139	14797.875
1699.46999	14653.075
1702.72392	14581.975
1705.97571	14485.275
1709.22535	14412.575
1712.47284	14382.475
1715.71819	14301.675
1718.96139	14232.675
1722.20246	14162.575
1725.44139	14080.675
1728.67818	13928.975
1731.91284	13792.875
1735.14537	13719.375
1738.37576	13645.475
1741.60403	13583.575
1744.83017	13485.675
1748.05418	13476.075
1751.27607	13363.675
1754.49584	13369.075
1757.71349	13309.275
1760.92903	13286.575
1764.14244	13275.575
1767.35375	13263.575
1770.56294	13225.875
1773.77002	13182.675
1776.97499	13164.975
1780.17785	13106.775
1783.37861	13076.575
1786.57727	13037.475
1789.77382	12959.575
1792.96828	12940.275
1796.16064	12886.075
1799.3509	12848.075
1802.53907	12795.075
1805.72514	12719.575
1808.90913	12709.375
1812.09102	12621.275
1815.27083	12577.975
1818.44856	12563.575
1821.6242	12484.975
1824.79776	12471.075
1827.96924	12423.975
1831.13864	12395.675
1834.30597	12386.275
1837.47122	12367.175
1840.6344	12355.975
1843.7955	12331.275
1846.95454	12349.475
1850.11151	12373.275
1853.26642	12317.575
1856.41926	12281.475
1859.57004	12297.575
1862.71876	12262.975
1865.86542	12249.475
1869.01003	12202.075
1872.15258	12172.375
1875.29308	12159.975
1878.43152	12086.275
1881.56792	12111.275
1884.70227	12075.175
1887.83457	12074.875
1890.96482	12065.175
1894.09304	12038.575
1897.21921	12010.875
1900.34335	11942.975
1903.46544	11952.575
1906.58551	11944.075
1909.70353	11908.775
1912.81953	11883.775
1915.93349	11872.275
1919.04543	11828.175
1922.15534	11805.675
1925.26322	11775.375
1928.36908	11745.675
1931.47292	11698.975
1934.57473	11667.975
1937.67453	11631.075
1940.77232	11568.475
1943.86808	11531.675
1946.96184	11500.375
1950.05358	11453.375
1953.14331	11467.375
1956.23103	11417.475
1959.31675	11403.475
1962.40046	11345.475
1965.48217	11276.475
1968.56188	11248.375
1971.63959	11211.475
1974.7153	11159.475
1977.78901	11130.475
1980.86073	11072.475
1983.93046	11034.775
1986.99819	10981.975
1990.06394	10938.175
1993.1277	10934.375
1996.18947	10882.875
1999.24925	10840.475
2002.30706	10828.075
2005.36288	10760.375
2008.41672	10732.675
2011.46859	10664.075
2014.51848	10657.275
2017.56639	10624.875
2020.61233	10592.775
2023.6563	10582.475
2026.6983	10519.475
2029.73833	10517.175
2032.7764	10482.775
2035.8125	10467.475
2038.84664	10418.075
2041.87881	10418.075
2044.90903	10405.975
2047.93729	10413.775
2050.96359	10376.675
2053.98794	10376.275
2057.01034	10384.175
2060.03078	10396.775
2063.04927	10390.375
2066.06582	10395.575
2069.08042	10388.275
2072.09307	10393.775
2075.10378	10390.975
2078.11255	10367.275
2081.11938	10390.275
2084.12426	10391.875
2087.12722	10388.175
2090.12824	10365.475
2093.12732	10364.875
2096.12447	10352.575
2099.11969	10362.175
2102.11299	10350.575
2105.10435	10342.275
2108.09379	10322.675
2111.08131	10293.875
2114.0669	10272.275
2117.05057	10282.475
2120.03233	10278.875
2123.01216	10240.075
2125.99008	10271.275
2128.96609	10263.575
2131.94018	10262.775
2134.91236	10217.575
2137.88263	10209.275
2140.851	10190.775
2143.81746	10200.475
2146.78201	10189.075
2149.74466	10152.075
2152.7054	10150.475
2155.66425	10140.175
2158.6212	10126.275
2161.57625	10096.375
2164.52941	10085.275
2167.48067	10054.875
2170.43004	10037.975
2173.37752	10029.475
2176.32311	10017.775
2179.26681	10026.675
2182.20863	10021.275
2185.14856	10027.875
2188.08661	10003.475
2191.02278	10007.775
2193.95707	9988.075
2196.88948	9964.875
2199.82001	9947.075
2202.74867	9916.375
2205.67545	9886.275
2208.60037	9901.475
2211.52341	9868.375
2214.44458	9862.275
2217.36388	9840.975
2220.28132	9798.075
2223.1969	9775.775
2226.11061	9770.375
2229.02246	9765.275
2231.93245	9759.675
2234.84058	9722.575
2237.74686	9702.775
2240.65128	9701.575
2243.55385	9650.575
2246.45456	9648.875
2249.35343	9623.375
2252.25044	9609.475
2255.14561	9586.875
2258.03893	9567.075
2260.93041	9549.475
2263.82004	9529.675
2266.70783	9489.875
2269.59378	9464.675
2272.4779	9470.275
2275.36017	9421.275
2278.24061	9399.075
2281.11922	9351.075
2283.996	9355.575
2286.87094	9358.175
2289.74405	9312.475
2292.61534	9284.175
2295.4848	9254.775
2298.35243	9238.575
2301.21824	9232.175
2304.08223	9258.275
2306.94439	9224.175
2309.80474	9228.775
2312.66327	9206.475
2315.51999	9198.175
2318.37489	9175.575
2321.22797	9165.875
2324.07925	9168.875
2326.92871	9113.975
2329.77637	9105.975
2332.62222	9127.675
2335.46626	9120.475
2338.3085	9079.475
2341.14893	9074.775
2343.98756	9084.475
2346.8244	9078.375
2349.65943	9096.575
2352.49267	9079.075
2355.32411	9112.475
2358.15376	9107.375
2360.98161	9111.675
2363.80768	9124.775
2366.63195	9108.175
2369.45444	9093.275
2372.27514	9105.575
2375.09405	9068.275
2377.91118	9082.475
2380.72652	9025.375
2383.54009	9008.075
2386.35187	8972.675
2389.16188	8919.875
2391.97011	8892.875
2394.77657	8872.075
2397.58125	8844.775
2400.38416	8810.075
2403.18529	8810.975
2405.98466	8766.875
2408.78226	8757.875
2411.57809	8732.275
2414.37216	8721.975
2417.16446	8744.075
2419.955	8715.075
2422.74378	8732.975
2425.5308	8697.675
2428.31606	8690.475
2431.09956	8722.375
2433.88131	8687.675
2436.6613	8698.575
2439.43954	8697.475
2442.21603	8687.975
2444.99077	8690.475
2447.76377	8685.575
2450.53501	8678.675
2453.30451	8677.575
2456.07226	8663.275
2458.83827	8656.375
2461.60254	8659.375
2464.36507	8669.475
2467.12586	8644.475
2469.88492	8629.875
2472.64224	8654.675
2475.39782	8645.275
2478.15167	8636.675
2480.90379	8651.475
2483.65417	8659.175
2486.40283	8657.875
2489.14976	8641.275
2491.89497	8632.175
2494.63845	8620.175
2497.3802	8618.375
2500.12024	8635.575
2502.85855	8609.275
2505.59514	8576.075
2508.33002	8533.075
2511.06318	8517.975
2513.79462	8492.475
2516.52435	8516.475
2519.25237	8485.675
2521.97867	8473.575
2524.70327	8468.575
2527.42616	8427.275
2530.14734	8425.375
2532.86681	8415.775
2535.58458	8386.175
2538.30065	8389.275
2541.01501	8374.175
2543.72768	8382.275
2546.43864	8350.775
2549.14791	8345.275
2551.85548	8356.775
2554.56136	8338.075
2557.26554	8321.475
2559.96803	8321.375
2562.66883	8306.975
2565.36794	8296.275
2568.06536	8283.175
2570.7611	8259.075
2573.45514	8267.175
2576.14751	8267.275
2578.83819	8240.275
2581.52719	8218.475
2584.21451	8210.875
2586.90015	8205.575
2589.58411	8175.975
2592.2664	8165.575
2594.94701	8154.675
2597.62594	8162.475
2600.30321	8131.775
2602.9788	8116.975
2605.65273	8127.075
2608.32498	8129.075
2610.99557	8139.775
2613.66449	8123.375
2616.33175	8112.575
2618.99734	8091.375
2621.66128	8100.075
2624.32355	8090.675
2626.98416	8057.675
2629.64311	8024.875
2632.30041	8019.075
2634.95605	8027.775
2637.61004	8034.275
2640.26238	8010.875
2642.91306	8010.775
2645.56209	8019.675
2648.20948	7990.875
2650.85521	8001.675
2653.4993	8015.575
2656.14175	7986.875
2658.78255	7979.775
2661.42171	7994.975
2664.05923	7993.675
2666.6951	7993.175
2669.32934	8003.175
2671.96194	7992.575
2674.59291	7998.375
2677.22224	8006.775
2679.84993	8031.075
2682.476	8007.575
2685.10043	8000.475
2687.72324	7998.875
2690.34441	7956.075
2692.96396	7977.375
2695.58188	7960.675
2698.19818	7943.775
2700.81285	7953.675
2703.4259	7930.175
2706.03733	7917.975
2708.64714	7924.275
2711.25533	7951.775
2713.86191	7935.875
2716.46687	7940.375
2719.07021	7965.475
2721.67194	7968.175
2724.27206	7972.675
2726.87057	7978.075
2729.46747	7964.375
2732.06276	7956.775
2734.65644	7950.575
2737.24852	7951.775
2739.83899	7938.375
2742.42786	7960.075
2745.01513	7901.975
2747.60079	7916.475
2750.18486	7894.075
2752.76733	7895.075
2755.3482	7881.075
2757.92747	7900.975
2760.50515	7866.875
2763.08123	7853.675
2765.65573	7842.475
2768.22863	7815.775
2770.79994	7823.175
2773.36967	7839.475
2775.9378	7840.475
2778.50435	7810.775
2781.06932	7824.675
2783.6327	7809.575
2786.1945	7829.475
2788.75471	7822.275
2791.31335	7816.975
2793.87041	7802.275
2796.42589	7774.275
2798.97979	7784.575
2801.53212	7777.475
2804.08288	7754.475
2806.63206	7743.775
2809.17967	7710.075
2811.72571	7701.975
2814.27018	7695.475
2816.81308	7704.375
2819.35442	7679.975
2821.89419	7681.275
2824.43239	7673.975
2826.96904	7648.575
2829.50412	7689.575
2832.03763	7684.775
2834.56959	7669.275
2837.1	7663.575
2839.62884	7659.975
2842.15613	7633.175
2844.68186	7667.975
2847.20604	7698.775
2849.72867	7710.375
2852.24974	7696.275
2854.76927	7692.575
2857.28724	7700.275
2859.80367	7688.175
2862.31855	7674.275
2864.83189	7686.975
2867.34368	7682.575
2869.85393	7666.275
2872.36264	7639.075
2874.8698	7636.375
2877.37543	7636.275
2879.87952	7644.675
2882.38207	7644.675
2884.88308	7651.275
2887.38256	7669.575
2889.88051	7656.975
2892.37692	7693.575
2894.8718	7687.075
2897.36515	7676.475
2899.85698	7679.075
2902.34727	7714.075
2904.83604	7707.775
2907.32328	7716.975
2909.809	7693.575
2912.29319	7705.975
2914.77587	7695.575
2917.25702	7704.075
2919.73665	7697.575
2922.21476	7688.175
2924.69136	7709.475
2927.16644	7714.375
2929.64	7694.575
2932.11205	7675.375
2934.58258	7646.675
2937.05161	7651.075
2939.51912	7630.875
2941.98513	7586.075
2944.44962	7582.975
2946.91261	7542.175
2949.37409	7544.575
2951.83407	7522.375
2954.29254	7474.275
2956.74951	7467.175
2959.20498	7473.675
2961.65895	7465.075
2964.11142	7433.575
2966.56239	7433.975
2969.01186	7442.275
2971.45984	7384.275
2973.90632	7391.575
2976.35131	7372.775
2978.7948	7367.075
2981.23681	7340.975
2983.67732	7311.075
2986.11635	7303.175
2988.55388	7265.175
2990.98993	7250.375
2993.4245	7210.075
2995.85758	7226.475
2998.28917	7172.475
3000.71928	7151.775
3003.14791	7135.975
3005.57506	7112.975
3008.00073	7083.375
3010.42493	7098.075
3012.84764	7102.175
3015.26888	7101.375
3017.68865	7038.575
3020.10694	7019.275
3022.52376	6998.475
3024.9391	6993.075
3027.35298	6986.175
3029.76539	6985.675
3032.17632	7005.975
3034.5858	6986.975
3036.9938	6975.075
3039.40034	6964.975
3041.80542	6955.675
3044.20903	6938.675
3046.61118	6929.775
3049.01187	6913.975
3051.4111	6898.375
3053.80888	6897.875
3056.20519	6880.875
3058.60005	6868.875
3060.99345	6853.675
3063.3854	6835.675
3065.7759	6801.675
3068.16494	6802.775
3070.55254	6743.975
3072.93868	6740.275
3075.32338	6726.575
3077.70662	6681.375
3080.08842	6654.575
3082.46878	6649.175
3084.84769	6643.175
3087.22515	6639.875
3089.60118	6620.175
3091.97576	6644.175
3094.3489	6630.475
3096.72061	6640.975
3099.09087	6628.075
3101.4597	6596.175
3103.82709	6620.375
3106.19305	6609.375
3108.55757	6604.375
3110.92066	6579.975
3113.28232	6566.575
3115.64255	6544.175
3118.00134	6529.275
3120.35871	6529.275
3122.71466	6523.575
3125.06917	6535.075
3127.42226	6511.275
3129.77393	6525.775
3132.12417	6492.975
3134.47299	6484.275
3136.82039	6480.775
3139.16636	6483.175
3141.51092	6486.175
3143.85406	6496.375
3146.19579	6489.175
3148.53609	6483.475
3150.87499	6513.175
3153.21246	6493.475
3155.54853	6508.175
3157.88318	6484.175
3160.21642	6517.775
3162.54826	6503.175
3164.87868	6499.175
3167.2077	6484.675
3169.5353	6494.575
