Data from AgNPs_FTO_APTES_UA_5uM_CRN_50uM_R6G_10uM_NaF_0.1M_Addition_RamanShift__30__14-17-36-842.txt Node

Date: Mon Feb 07 14:17:36 GMT 2022
User: TCL
Spectrometer: QEP01345
Trigger mode: 4
Integration Time (sec): 7.000000E0
Scans to average: 10
Electric dark correction enabled: true
Nonlinearity correction enabled: false
Boxcar width: 0
XAxis mode: Raman Shifts
Number of Pixels in Spectrum: 1044
>>>>>Begin Spectral Data<<<<<
46.04893	0.225
50.45542	-0.275
54.85868	0.025
59.25871	0.525
63.6555	43.625
68.04907	44.525
72.43941	49.925
76.82654	50.025
81.21044	54.825
85.59113	54.225
89.96862	55.925
94.34289	56.725
98.71396	62.425
103.08183	62.425
107.4465	62.825
111.80798	64.425
116.16626	65.825
120.52136	71.725
124.87327	72.125
129.222	78.125
133.56755	81.425
137.90993	88.825
142.24913	91.025
146.58517	107.425
150.91804	122.925
155.24774	143.025
159.57429	178.925
163.89768	234.625
168.21792	310.025
172.53501	421.525
176.84895	576.125
181.15975	811.425
185.46741	1136.725
189.77193	1559.425
194.07331	2092.525
198.37157	2694.825
202.6667	3309.125
206.9587	3952.325
211.24758	4583.225
215.53334	5237.225
219.81599	5985.025
224.09553	6845.125
228.37195	7772.525
232.64527	8814.225
236.91549	9822.125
241.18261	10768.625
245.44663	11485.625
249.70755	12039.925
253.96539	12540.925
258.22014	12957.225
262.4718	13366.925
266.72039	13728.225
270.96589	13975.225
275.20832	14033.825
279.44768	13987.125
283.68397	13911.725
287.91719	13861.725
292.14735	13976.025
296.37445	14315.925
300.59849	14823.425
304.81948	15447.525
309.03742	15853.025
313.25231	15804.225
317.46415	14950.825
321.67296	13655.325
325.87872	12552.325
330.08145	12025.125
334.28114	11922.025
338.47781	12154.025
342.67145	12523.825
346.86207	13112.425
351.04966	13964.625
355.23424	14958.525
359.4158	15650.725
363.59435	15969.325
367.76989	15940.725
371.94243	15872.225
376.11196	15696.325
380.27849	15564.525
384.44203	15331.225
388.60257	15047.025
392.76012	14983.225
396.91468	15130.625
401.06626	15555.525
405.21485	15994.925
409.36047	15656.725
413.50311	14734.625
417.64277	13815.325
421.77947	13300.125
425.9132	13078.125
430.04396	13049.125
434.17176	13072.225
438.2966	13204.525
442.41849	13474.025
446.53742	13851.025
450.6534	14244.125
454.76644	14489.725
458.87653	14542.125
462.98368	14434.025
467.08789	14253.325
471.18916	13972.125
475.2875	13624.925
479.38291	13359.525
483.4754	13117.525
487.56496	12928.125
491.6516	12744.025
495.73531	12756.225
499.81612	12828.725
503.89401	12983.425
507.96899	13173.025
512.04106	13365.225
516.11023	13573.125
520.1765	13716.625
524.23987	13615.725
528.30034	13299.625
532.35792	12944.325
536.41261	12658.825
540.46441	12335.525
544.51333	12244.125
548.55936	12414.325
552.60252	12780.025
556.64279	13229.325
560.6802	13447.125
564.71473	13639.125
568.7464	14289.425
572.7752	14774.225
576.80114	14368.725
580.82422	13755.125
584.84444	13504.725
588.86181	13314.025
592.87633	13232.125
596.888	13302.425
600.89682	13825.525
604.9028	15637.425
608.90594	20546.925
612.90624	27318.425
616.90371	26502.425
620.89834	17768.125
624.89015	13530.625
628.87913	12756.425
632.86528	12881.525
636.84862	13154.525
640.82913	12969.225
644.80683	12323.025
648.78172	11860.825
652.75379	11894.225
656.72306	12511.925
660.68952	13270.425
664.65319	13139.125
668.61405	12414.425
672.57211	11999.325
676.52738	11976.425
680.47986	11942.825
684.42955	11841.625
688.37646	11777.525
692.32058	11813.325
696.26192	11962.225
700.20048	12140.425
704.13626	12290.525
708.06928	12309.225
711.99952	12200.625
715.927	12128.025
719.85171	12156.825
723.77365	12127.125
727.69284	11965.125
731.60928	11800.025
735.52295	11726.525
739.43388	11748.825
743.34206	11804.525
747.24749	11876.625
751.15017	12001.025
755.05012	12315.025
758.94733	13054.225
762.8418	14724.325
766.73354	17676.925
770.62254	20793.525
774.50882	22330.525
778.39237	21170.225
782.27321	17968.425
786.15132	14860.525
790.02671	13069.125
793.89938	12268.225
797.76935	11909.125
801.6366	11740.325
805.50115	11652.525
809.36299	11557.925
813.22213	11515.225
817.07857	11511.725
820.93231	11533.225
824.78336	11530.225
828.63172	11616.025
832.47738	11613.825
836.32036	11567.825
840.16066	11486.825
843.99827	11421.225
847.8332	11375.825
851.66546	11323.425
855.49504	11344.625
859.32195	11294.825
863.1462	11224.525
866.96777	11153.525
870.78668	11138.925
874.60293	11156.925
878.41652	11199.325
882.22745	11261.625
886.03573	11340.825
889.84136	11298.325
893.64433	11236.425
897.44466	11218.925
901.24235	11208.125
905.0374	11183.725
908.8298	11146.325
912.61957	11131.225
916.40671	11241.025
920.19121	11393.725
923.97308	11512.725
927.75233	11554.525
931.52895	11655.025
935.30295	11505.625
939.07433	11116.225
942.84309	10784.225
946.60924	10584.225
950.37278	10451.125
954.13371	10404.825
957.89203	10345.025
961.64774	10314.525
965.40086	10311.225
969.15137	10265.525
972.89929	10233.425
976.64461	10203.225
980.38733	10201.025
984.12747	10191.925
987.86502	10242.025
991.59999	10291.925
995.33237	10408.225
999.06217	10606.325
1002.78939	10891.125
1006.51404	11115.725
1010.23611	11407.725
1013.95561	11630.325
1017.67255	11569.225
1021.38692	11401.325
1025.09872	11219.025
1028.80796	11066.625
1032.51465	11082.625
1036.21877	11229.825
1039.92035	11365.925
1043.61937	11439.425
1047.31584	11465.425
1051.00976	11475.125
1054.70114	11463.525
1058.38998	11515.525
1062.07627	11646.925
1065.76003	11756.625
1069.44126	11884.125
1073.11995	11962.925
1076.79611	12111.925
1080.46974	12285.925
1084.14085	12650.925
1087.80943	13075.225
1091.47549	13298.125
1095.13903	13078.925
1098.80005	12606.425
1102.45857	12128.925
1106.11456	11846.925
1109.76805	11831.725
1113.41903	12074.125
1117.06751	12551.625
1120.71348	13164.425
1124.35696	13819.325
1127.99793	14397.125
1131.63641	14368.125
1135.2724	13605.325
1138.90589	12866.525
1142.5369	12415.525
1146.16542	12140.325
1149.79145	11993.225
1153.415	12018.825
1157.03607	12183.125
1160.65467	12513.725
1164.27079	13028.725
1167.88443	13828.725
1171.49561	15130.425
1175.10432	17277.025
1178.71056	20091.225
1182.31434	22011.825
1185.91565	22246.725
1189.51451	21506.225
1193.11091	20015.425
1196.70485	18341.225
1200.29634	17086.525
1203.88538	16220.025
1207.47197	15138.425
1211.05612	14171.125
1214.63782	13610.425
1218.21708	13390.125
1221.79391	13347.525
1225.36829	13429.425
1228.94024	13559.925
1232.50976	13645.625
1236.07685	13759.225
1239.6415	13757.525
1243.20374	13786.825
1246.76355	13874.925
1250.32093	14061.225
1253.8759	14424.925
1257.42845	14843.025
1260.97859	15368.925
1264.52631	15849.225
1268.07163	16390.525
1271.61453	16829.725
1275.15503	17170.925
1278.69312	17313.825
1282.22882	17368.025
1285.76211	17701.025
1289.29301	18304.525
1292.82151	18941.225
1296.34761	19642.025
1299.87133	20664.925
1303.39266	22411.225
1306.9116	25190.425
1310.42815	28419.425
1313.94233	30469.125
1317.45412	30048.425
1320.96354	27994.425
1324.47058	25637.225
1327.97525	23632.125
1331.47754	22382.925
1334.97747	21937.425
1338.47502	21986.825
1341.97022	22443.125
1345.46305	23207.925
1348.95352	24460.625
1352.44163	26184.325
1355.92738	28824.725
1359.41078	33207.525
1362.89183	37734.625
1366.37053	36966.025
1369.84688	31018.025
1373.32088	25074.125
1376.79254	21387.025
1380.26186	19549.125
1383.72883	18670.925
1387.19347	18081.525
1390.65578	17347.625
1394.11575	16745.725
1397.57339	16409.325
1401.0287	16397.925
1404.48168	16547.725
1407.93234	16725.525
1411.38068	16830.125
1414.82669	16728.525
1418.27039	16395.525
1421.71177	15930.425
1425.15083	15506.325
1428.58758	15174.725
1432.02203	15162.825
1435.45416	15300.925
1438.88399	15382.625
1442.31151	15430.325
1445.73673	15551.425
1449.15965	15713.925
1452.58027	15735.025
1455.9986	15665.225
1459.41463	15675.125
1462.82837	15880.125
1466.23982	16232.725
1469.64898	16589.325
1473.05586	16874.225
1476.46045	17084.925
1479.86276	17417.925
1483.26279	17870.125
1486.66054	18376.425
1490.05602	19051.625
1493.44922	20044.725
1496.84016	21546.325
1500.22882	23915.625
1503.61521	27172.725
1506.99934	30837.825
1510.38121	34395.425
1513.76081	36363.625
1517.13816	34926.525
1520.51324	30621.125
1523.88607	26094.825
1527.25665	22848.325
1530.62498	20981.925
1533.99105	19805.525
1537.35488	19066.225
1540.71647	18554.425
1544.07581	18279.325
1547.4329	18091.625
1550.78776	17905.925
1554.14038	17895.925
1557.49077	18112.925
1560.83892	18521.525
1564.18484	19216.425
1567.52853	19932.425
1570.86999	20387.825
1574.20922	20710.725
1577.54624	20564.325
1580.88103	19432.925
1584.2136	17925.625
1587.54395	17105.225
1590.87208	17224.925
1594.19801	18094.525
1597.52172	19306.325
1600.84321	19809.825
1604.16251	19032.425
1607.47959	17738.125
1610.79447	16417.325
1614.10715	15128.225
1617.41763	14082.125
1620.7259	13405.025
1624.03199	13033.225
1627.33587	12997.425
1630.63757	13269.025
1633.93707	13883.925
1637.23439	14973.525
1640.52951	16524.725
1643.82246	18734.325
1647.11321	21512.425
1650.40179	23835.125
1653.68819	23616.025
1656.97241	20579.725
1660.25446	16820.025
1663.53433	14102.225
1666.81203	12418.525
1670.08756	11460.325
1673.36092	10872.625
1676.63211	10510.325
1679.90115	10253.125
1683.16801	10064.125
1686.43272	9925.025
1689.69527	9814.625
1692.95567	9727.525
1696.2139	9695.125
1699.46999	9680.025
1702.72392	9651.825
1705.97571	9579.725
1709.22535	9570.825
1712.47284	9547.925
1715.71819	9570.025
1718.96139	9562.925
1722.20246	9549.725
1725.44139	9490.725
1728.67818	9428.325
1731.91284	9343.625
1735.14537	9245.825
1738.37576	9163.525
1741.60403	9138.125
1744.83017	9090.725
1748.05418	9093.225
1751.27607	9053.225
1754.49584	9019.525
1757.71349	9045.725
1760.92903	9016.425
1764.14244	9000.125
1767.35375	8995.225
1770.56294	8923.225
1773.77002	8896.325
1776.97499	8856.025
1780.17785	8835.825
1783.37861	8810.025
1786.57727	8762.825
1789.77382	8754.825
1792.96828	8735.525
1796.16064	8743.225
1799.3509	8719.625
1802.53907	8703.525
1805.72514	8646.325
1808.90913	8616.225
1812.09102	8610.525
1815.27083	8563.325
1818.44856	8556.725
1821.6242	8539.025
1824.79776	8515.925
1827.96924	8509.525
1831.13864	8498.225
1834.30597	8487.325
1837.47122	8489.725
1840.6344	8474.525
1843.7955	8450.225
1846.95454	8459.325
1850.11151	8444.925
1853.26642	8429.425
1856.41926	8457.425
1859.57004	8435.925
1862.71876	8445.225
1865.86542	8456.125
1869.01003	8432.325
1872.15258	8446.125
1875.29308	8436.525
1878.43152	8442.525
1881.56792	8438.225
1884.70227	8450.225
1887.83457	8437.325
1890.96482	8452.025
1894.09304	8450.525
1897.21921	8428.525
1900.34335	8444.125
1903.46544	8448.425
1906.58551	8464.125
1909.70353	8458.125
1912.81953	8439.925
1915.93349	8466.125
1919.04543	8445.925
1922.15534	8427.925
1925.26322	8403.425
1928.36908	8370.725
1931.47292	8318.425
1934.57473	8284.125
1937.67453	8240.825
1940.77232	8198.425
1943.86808	8157.325
1946.96184	8114.325
1950.05358	8088.025
1953.14331	8050.025
1956.23103	8020.725
1959.31675	7995.725
1962.40046	7941.925
1965.48217	7956.725
1968.56188	7905.525
1971.63959	7895.425
1974.7153	7869.225
1977.78901	7855.225
1980.86073	7816.025
1983.93046	7762.825
1986.99819	7744.825
1990.06394	7717.225
1993.1277	7704.225
1996.18947	7665.425
1999.24925	7654.325
2002.30706	7620.125
2005.36288	7581.825
2008.41672	7572.425
2011.46859	7543.325
2014.51848	7537.225
2017.56639	7497.025
2020.61233	7490.125
2023.6563	7467.525
2026.6983	7419.125
2029.73833	7390.425
2032.7764	7391.125
2035.8125	7356.425
2038.84664	7342.225
2041.87881	7331.625
2044.90903	7326.325
2047.93729	7302.825
2050.96359	7292.625
2053.98794	7282.225
2057.01034	7285.825
2060.03078	7263.325
2063.04927	7240.725
2066.06582	7229.925
2069.08042	7238.725
2072.09307	7224.425
2075.10378	7216.825
2078.11255	7214.825
2081.11938	7207.225
2084.12426	7210.425
2087.12722	7198.525
2090.12824	7192.325
2093.12732	7185.225
2096.12447	7179.225
2099.11969	7153.225
2102.11299	7186.725
2105.10435	7176.225
2108.09379	7166.625
2111.08131	7193.825
2114.0669	7188.625
2117.05057	7177.825
2120.03233	7211.225
2123.01216	7196.525
2125.99008	7198.925
2128.96609	7208.725
2131.94018	7207.025
2134.91236	7218.725
2137.88263	7231.525
2140.851	7222.525
2143.81746	7202.225
2146.78201	7205.925
2149.74466	7205.925
2152.7054	7201.425
2155.66425	7178.125
2158.6212	7161.325
2161.57625	7153.925
2164.52941	7170.325
2167.48067	7155.425
2170.43004	7166.625
2173.37752	7149.525
2176.32311	7149.625
2179.26681	7158.925
2182.20863	7157.425
2185.14856	7144.225
2188.08661	7137.825
2191.02278	7128.525
2193.95707	7116.925
2196.88948	7104.525
2199.82001	7096.525
2202.74867	7094.725
2205.67545	7080.825
2208.60037	7067.825
2211.52341	7068.425
2214.44458	7050.125
2217.36388	7054.325
2220.28132	7023.025
2223.1969	7004.325
2226.11061	7003.825
2229.02246	6970.325
2231.93245	6952.125
2234.84058	6929.025
2237.74686	6934.925
2240.65128	6915.625
2243.55385	6899.525
2246.45456	6889.525
2249.35343	6875.425
2252.25044	6873.525
2255.14561	6875.125
2258.03893	6880.425
2260.93041	6881.325
2263.82004	6869.325
2266.70783	6859.225
2269.59378	6840.225
2272.4779	6780.325
2275.36017	6784.225
2278.24061	6773.325
2281.11922	6774.025
2283.996	6757.925
2286.87094	6731.025
2289.74405	6717.625
2292.61534	6685.625
2295.4848	6687.825
2298.35243	6680.125
2301.21824	6645.925
2304.08223	6643.025
2306.94439	6633.325
2309.80474	6657.125
2312.66327	6660.025
2315.51999	6642.225
2318.37489	6631.025
2321.22797	6636.725
2324.07925	6609.625
2326.92871	6612.125
2329.77637	6614.125
2332.62222	6579.525
2335.46626	6587.825
2338.3085	6561.325
2341.14893	6564.225
2343.98756	6580.325
2346.8244	6591.525
2349.65943	6590.225
2352.49267	6593.025
2355.32411	6611.625
2358.15376	6608.325
2360.98161	6622.725
2363.80768	6631.325
2366.63195	6651.925
2369.45444	6643.325
2372.27514	6632.825
2375.09405	6636.925
2377.91118	6606.025
2380.72652	6597.725
2383.54009	6542.025
2386.35187	6521.725
2389.16188	6477.325
2391.97011	6451.925
2394.77657	6425.625
2397.58125	6424.725
2400.38416	6405.425
2403.18529	6390.725
2405.98466	6376.825
2408.78226	6332.725
2411.57809	6335.925
2414.37216	6342.825
2417.16446	6330.025
2419.955	6322.925
2422.74378	6315.925
2425.5308	6305.625
2428.31606	6309.325
2431.09956	6316.825
2433.88131	6288.225
2436.6613	6315.225
2439.43954	6314.525
2442.21603	6295.225
2444.99077	6296.725
2447.76377	6310.925
2450.53501	6299.825
2453.30451	6311.625
2456.07226	6303.825
2458.83827	6277.925
2461.60254	6290.225
2464.36507	6282.725
2467.12586	6266.725
2469.88492	6281.625
2472.64224	6296.825
2475.39782	6293.025
2478.15167	6312.725
2480.90379	6301.025
2483.65417	6321.425
2486.40283	6314.925
2489.14976	6342.825
2491.89497	6341.025
2494.63845	6368.025
2497.3802	6374.325
2500.12024	6353.425
2502.85855	6321.325
2505.59514	6302.025
2508.33002	6273.525
2511.06318	6242.925
2513.79462	6223.325
2516.52435	6189.625
2519.25237	6174.425
2521.97867	6176.425
2524.70327	6148.225
2527.42616	6125.925
2530.14734	6128.325
2532.86681	6107.325
2535.58458	6129.925
2538.30065	6105.925
2541.01501	6112.525
2543.72768	6103.125
2546.43864	6101.525
2549.14791	6099.825
2551.85548	6102.625
2554.56136	6088.025
2557.26554	6079.225
2559.96803	6072.025
2562.66883	6071.225
2565.36794	6054.725
2568.06536	6042.625
2570.7611	6033.825
2573.45514	6018.125
2576.14751	6006.825
2578.83819	5990.325
2581.52719	5983.725
2584.21451	5987.225
2586.90015	6004.425
2589.58411	5971.225
2592.2664	5968.925
2594.94701	5949.725
2597.62594	5949.525
2600.30321	5931.325
2602.9788	5956.525
2605.65273	5941.925
2608.32498	5929.925
2610.99557	5938.925
2613.66449	5929.425
2616.33175	5915.325
2618.99734	5933.325
2621.66128	5922.525
2624.32355	5914.025
2626.98416	5904.325
2629.64311	5880.925
2632.30041	5897.625
2634.95605	5874.725
2637.61004	5853.825
2640.26238	5859.725
2642.91306	5848.225
2645.56209	5813.125
2648.20948	5840.625
2650.85521	5834.325
2653.4993	5839.625
2656.14175	5844.225
2658.78255	5835.325
2661.42171	5832.725
2664.05923	5842.825
2666.6951	5866.725
2669.32934	5869.825
2671.96194	5874.125
2674.59291	5867.125
2677.22224	5886.325
2679.84993	5890.225
2682.476	5880.725
2685.10043	5877.925
2687.72324	5853.125
2690.34441	5842.725
2692.96396	5846.325
2695.58188	5869.325
2698.19818	5865.525
2700.81285	5854.525
2703.4259	5884.725
2706.03733	5935.525
2708.64714	5888.225
2711.25533	5897.225
2713.86191	5888.325
2716.46687	5890.225
2719.07021	5894.025
2721.67194	5894.425
2724.27206	5888.825
2726.87057	5890.625
2729.46747	5888.925
2732.06276	5889.825
2734.65644	5896.625
2737.24852	5869.525
2739.83899	5859.625
2742.42786	5860.725
2745.01513	5841.525
2747.60079	5822.325
2750.18486	5822.225
2752.76733	5810.825
2755.3482	5796.925
2757.92747	5814.325
2760.50515	5802.525
2763.08123	5790.625
2765.65573	5789.025
2768.22863	5758.225
2770.79994	5768.425
2773.36967	5760.125
2775.9378	5756.425
2778.50435	5742.225
2781.06932	5734.325
2783.6327	5751.325
2786.1945	5759.525
2788.75471	5758.325
2791.31335	5741.125
2793.87041	5721.925
2796.42589	5723.825
2798.97979	5718.625
2801.53212	5716.625
2804.08288	5706.825
2806.63206	5697.325
2809.17967	5687.625
2811.72571	5684.025
2814.27018	5700.125
2816.81308	5705.925
2819.35442	5702.825
2821.89419	5681.125
2824.43239	5717.125
2826.96904	5718.625
2829.50412	5723.625
2832.03763	5717.125
2834.56959	5707.325
2837.1	5728.625
2839.62884	5754.525
2842.15613	5765.125
2844.68186	5832.625
2847.20604	5921.725
2849.72867	5937.925
2852.24974	5981.825
2854.76927	5986.725
2857.28724	5985.625
2859.80367	5948.025
2862.31855	5937.725
2864.83189	5913.325
2867.34368	5889.925
2869.85393	5889.725
2872.36264	5896.525
2874.8698	5892.025
2877.37543	5880.925
2879.87952	5868.725
2882.38207	5871.425
2884.88308	5860.425
2887.38256	5836.825
2889.88051	5843.725
2892.37692	5853.125
2894.8718	5833.125
2897.36515	5852.525
2899.85698	5844.225
2902.34727	5869.525
2904.83604	5847.925
2907.32328	5862.025
2909.809	5853.925
2912.29319	5868.725
2914.77587	5862.925
2917.25702	5870.425
2919.73665	5859.925
2922.21476	5843.325
2924.69136	5837.125
2927.16644	5842.125
2929.64	5840.125
2932.11205	5797.325
2934.58258	5778.425
2937.05161	5764.925
2939.51912	5744.325
2941.98513	5713.325
2944.44962	5683.825
2946.91261	5616.525
2949.37409	5598.025
2951.83407	5583.325
2954.29254	5576.325
2956.74951	5566.825
2959.20498	5537.625
2961.65895	5502.625
2964.11142	5519.225
2966.56239	5514.725
2969.01186	5474.225
2971.45984	5471.225
2973.90632	5463.025
2976.35131	5436.925
2978.7948	5437.225
2981.23681	5418.825
2983.67732	5390.825
2986.11635	5373.425
2988.55388	5362.225
2990.98993	5349.125
2993.4245	5325.425
2995.85758	5331.225
2998.28917	5304.725
3000.71928	5302.225
3003.14791	5292.825
3005.57506	5292.525
3008.00073	5259.225
3010.42493	5184.425
3012.84764	5264.025
3015.26888	5246.725
3017.68865	5238.825
3020.10694	5221.025
3022.52376	5217.125
3024.9391	5205.325
3027.35298	5200.725
3029.76539	5201.225
3032.17632	5189.525
3034.5858	5170.325
3036.9938	5143.325
3039.40034	5161.425
3041.80542	5147.725
3044.20903	5134.725
3046.61118	5154.125
3049.01187	5114.125
3051.4111	5103.825
3053.80888	5117.625
3056.20519	5105.725
3058.60005	5099.125
3060.99345	5080.325
3063.3854	5062.425
3065.7759	5051.025
3068.16494	5046.125
3070.55254	5039.925
3072.93868	5028.725
3075.32338	4993.025
3077.70662	4980.425
3080.08842	4951.325
3082.46878	4948.025
3084.84769	4945.025
3087.22515	4936.025
3089.60118	4932.425
3091.97576	4921.325
3094.3489	4915.825
3096.72061	4907.225
3099.09087	4913.725
3101.4597	4903.625
3103.82709	4905.225
3106.19305	4899.825
3108.55757	4882.725
3110.92066	4880.825
3113.28232	4888.825
3115.64255	4886.225
3118.00134	4865.325
3120.35871	4857.525
3122.71466	4848.525
3125.06917	4842.025
3127.42226	4829.625
3129.77393	4838.525
3132.12417	4815.625
3134.47299	4836.825
3136.82039	4831.425
3139.16636	4822.225
3141.51092	4808.525
3143.85406	4828.525
3146.19579	4816.725
3148.53609	4831.525
3150.87499	4842.625
3153.21246	4838.825
3155.54853	4843.425
3157.88318	4858.125
3160.21642	4861.325
3162.54826	4850.725
3164.87868	4863.725
3167.2077	4842.225
3169.5353	4866.825
3171.86151	4849.425
3174.18631	4841.925
3176.5097	4842.525
3178.83169	4856.625
3181.15228	4859.925
3183.47147	4817.025
3185.78926	4826.025
3188.10565	4819.625
3190.42065	4828.325
