Data from AgNPs_FTO_APTES_UA_5uM_CRN_1000uM_R6G_10uM_NaF_0.1M_Addition_RamanShift__6__17-30-51-868.txt Node

Date: Mon Feb 07 17:30:51 GMT 2022
User: TCL
Spectrometer: QEP01345
Trigger mode: 4
Integration Time (sec): 7.000000E0
Scans to average: 10
Electric dark correction enabled: true
Nonlinearity correction enabled: false
Boxcar width: 0
XAxis mode: Raman Shifts
Number of Pixels in Spectrum: 1044
>>>>>Begin Spectral Data<<<<<
46.04893	-1.3875
50.45542	-1.5875
54.85868	0.3125
59.25871	-0.6875
63.6555	64.1125
68.04907	66.1125
72.43941	69.1125
76.82654	70.3125
81.21044	71.7125
85.59113	72.7125
89.96862	78.8125
94.34289	79.7125
98.71396	80.3125
103.08183	85.0125
107.4465	85.2125
111.80798	89.0125
116.16626	93.0125
120.52136	98.1125
124.87327	102.3125
129.222	109.7125
133.56755	111.8125
137.90993	124.5125
142.24913	139.4125
146.58517	158.3125
150.91804	183.9125
155.24774	228.7125
159.57429	291.4125
163.89768	364.7125
168.21792	497.8125
172.53501	676.4125
176.84895	947.0125
181.15975	1334.8125
185.46741	1882.8125
189.77193	2609.4125
194.07331	3488.1125
198.37157	4491.9125
202.6667	5558.5125
206.9587	6599.4125
211.24758	7630.5125
215.53334	8677.8125
219.81599	9788.0125
224.09553	10954.8125
228.37195	12276.8125
232.64527	13675.3125
236.91549	15152.2125
241.18261	16634.5125
245.44663	18070.3125
249.70755	19389.9125
253.96539	20563.5125
258.22014	21492.4125
262.4718	22309.2125
266.72039	22888.1125
270.96589	23155.1125
275.20832	23249.2125
279.44768	23168.0125
283.68397	22974.2125
287.91719	22843.3125
292.14735	22741.3125
296.37445	22739.3125
300.59849	22790.2125
304.81948	22877.1125
309.03742	22846.4125
313.25231	22556.1125
317.46415	22177.7125
321.67296	21717.9125
325.87872	21298.0125
330.08145	21056.0125
334.28114	20987.9125
338.47781	21038.1125
342.67145	21242.5125
346.86207	21539.8125
351.04966	21834.0125
355.23424	22152.8125
359.4158	22425.5125
363.59435	22618.2125
367.76989	22776.9125
371.94243	22901.0125
376.11196	22991.8125
380.27849	23065.9125
384.44203	23169.8125
388.60257	23394.4125
392.76012	23637.9125
396.91468	23949.6125
401.06626	24244.4125
405.21485	24416.6125
409.36047	24328.3125
413.50311	24073.3125
417.64277	23949.2125
421.77947	24019.2125
425.9132	24204.6125
430.04396	24387.2125
434.17176	24566.6125
438.2966	24778.6125
442.41849	25178.8125
446.53742	25869.2125
450.6534	26665.8125
454.76644	27189.9125
458.87653	27361.9125
462.98368	27216.0125
467.08789	26955.2125
471.18916	26680.5125
475.2875	26459.7125
479.38291	26464.8125
483.4754	26453.4125
487.56496	26127.6125
491.6516	25662.5125
495.73531	25029.0125
499.81612	24598.3125
503.89401	24524.7125
507.96899	24531.1125
512.04106	24458.5125
516.11023	24226.6125
520.1765	23961.0125
524.23987	23724.6125
528.30034	23534.5125
532.35792	23373.0125
536.41261	23202.2125
540.46441	22955.4125
544.51333	22948.7125
548.55936	23221.7125
552.60252	23759.2125
556.64279	24457.8125
560.6802	25061.8125
564.71473	25474.4125
568.7464	25991.8125
572.7752	26893.4125
576.80114	27805.3125
580.82422	28463.5125
584.84444	29250.6125
588.86181	30378.5125
592.87633	31378.6125
596.888	31120.6125
600.89682	29693.1125
604.9028	28781.6125
608.90594	29417.2125
612.90624	30408.1125
616.90371	28604.7125
620.89834	24901.6125
624.89015	23282.0125
628.87913	23154.3125
632.86528	23314.4125
636.84862	23332.9125
640.82913	23011.6125
644.80683	22592.7125
648.78172	22283.9125
652.75379	22197.9125
656.72306	22367.5125
660.68952	22560.4125
664.65319	22386.0125
668.61405	22091.8125
672.57211	22040.7125
676.52738	22111.9125
680.47986	22190.0125
684.42955	22099.4125
688.37646	22011.0125
692.32058	22083.2125
696.26192	22266.5125
700.20048	22504.6125
704.13626	22697.2125
708.06928	22761.4125
711.99952	22754.1125
715.927	22766.0125
719.85171	22750.3125
723.77365	22638.6125
727.69284	22395.5125
731.60928	22162.6125
735.52295	22061.8125
739.43388	22052.8125
743.34206	22079.0125
747.24749	22169.0125
751.15017	22388.1125
755.05012	22820.5125
758.94733	23410.8125
762.8418	24383.1125
766.73354	25855.4125
770.62254	27098.8125
774.50882	27231.4125
778.39237	26075.1125
782.27321	24455.3125
786.15132	23138.5125
790.02671	22350.9125
793.89938	21906.7125
797.76935	21795.1125
801.6366	21697.5125
805.50115	21677.6125
809.36299	21566.6125
813.22213	21427.5125
817.07857	21412.5125
820.93231	21366.3125
824.78336	21227.4125
828.63172	21043.3125
832.47738	20944.2125
836.32036	20947.9125
840.16066	20882.8125
843.99827	20915.0125
847.8332	20872.0125
851.66546	20870.8125
855.49504	20895.1125
859.32195	20877.6125
863.1462	20820.9125
866.96777	20786.4125
870.78668	20712.5125
874.60293	20745.8125
878.41652	20776.4125
882.22745	20856.3125
886.03573	20852.7125
889.84136	20850.1125
893.64433	20785.0125
897.44466	20733.1125
901.24235	20658.6125
905.0374	20575.3125
908.8298	20532.5125
912.61957	20592.4125
916.40671	20815.3125
920.19121	21133.8125
923.97308	21343.9125
927.75233	21239.1125
931.52895	20967.2125
935.30295	20579.3125
939.07433	20218.7125
942.84309	19912.9125
946.60924	19763.4125
950.37278	19688.6125
954.13371	19699.1125
957.89203	19713.5125
961.64774	19732.8125
965.40086	19669.1125
969.15137	19603.9125
972.89929	19474.9125
976.64461	19340.8125
980.38733	19244.9125
984.12747	19222.8125
987.86502	19269.5125
991.59999	19379.6125
995.33237	19482.9125
999.06217	19725.5125
1002.78939	20059.6125
1006.51404	20354.0125
1010.23611	20681.4125
1013.95561	20952.0125
1017.67255	21048.1125
1021.38692	20870.9125
1025.09872	20518.2125
1028.80796	20175.0125
1032.51465	20072.1125
1036.21877	20102.6125
1039.92035	20223.1125
1043.61937	20290.2125
1047.31584	20327.5125
1051.00976	20401.7125
1054.70114	20462.5125
1058.38998	20582.2125
1062.07627	20807.8125
1065.76003	21060.2125
1069.44126	21263.6125
1073.11995	21518.2125
1076.79611	21725.9125
1080.46974	21821.7125
1084.14085	21885.2125
1087.80943	22093.6125
1091.47549	22272.7125
1095.13903	22405.1125
1098.80005	22183.9125
1102.45857	21728.2125
1106.11456	21300.1125
1109.76805	21066.4125
1113.41903	21083.0125
1117.06751	21255.6125
1120.71348	21476.8125
1124.35696	21764.1125
1127.99793	22105.8125
1131.63641	22345.6125
1135.2724	22234.8125
1138.90589	22121.9125
1142.5369	22215.8125
1146.16542	22497.0125
1149.79145	22840.6125
1153.415	23214.6125
1157.03607	23641.5125
1160.65467	24445.2125
1164.27079	25625.5125
1167.88443	27053.9125
1171.49561	28510.3125
1175.10432	30281.2125
1178.71056	32394.0125
1182.31434	34290.1125
1185.91565	35086.4125
1189.51451	34719.6125
1193.11091	33906.3125
1196.70485	32860.1125
1200.29634	31842.5125
1203.88538	31259.3125
1207.47197	30998.6125
1211.05612	30745.6125
1214.63782	30141.8125
1218.21708	29249.6125
1221.79391	28320.0125
1225.36829	27693.5125
1228.94024	27189.7125
1232.50976	26702.0125
1236.07685	26226.1125
1239.6415	25869.2125
1243.20374	25827.8125
1246.76355	25989.6125
1250.32093	26296.1125
1253.8759	26765.2125
1257.42845	27426.7125
1260.97859	28133.5125
1264.52631	28886.1125
1268.07163	29573.5125
1271.61453	30340.9125
1275.15503	31203.1125
1278.69312	32245.7125
1282.22882	33469.5125
1285.76211	34948.3125
1289.29301	36799.6125
1292.82151	39017.6125
1296.34761	41625.1125
1299.87133	44402.1125
1303.39266	46925.8125
1306.9116	48901.0125
1310.42815	50296.9125
1313.94233	51065.5125
1317.45412	50792.1125
1320.96354	49995.7125
1324.47058	49407.2125
1327.97525	48803.9125
1331.47754	48375.7125
1334.97747	47960.6125
1338.47502	47281.3125
1341.97022	46465.9125
1345.46305	45632.2125
1348.95352	44842.7125
1352.44163	44500.7125
1355.92738	45080.1125
1359.41078	46322.8125
1362.89183	47458.4125
1366.37053	46793.0125
1369.84688	43567.9125
1373.32088	39159.0125
1376.79254	36173.8125
1380.26186	35417.5125
1383.72883	35768.8125
1387.19347	36223.7125
1390.65578	36279.8125
1394.11575	36513.2125
1397.57339	37116.9125
1401.0287	37914.9125
1404.48168	38424.5125
1407.93234	38145.6125
1411.38068	36990.6125
1414.82669	35260.9125
1418.27039	33323.3125
1421.71177	31534.5125
1425.15083	30015.7125
1428.58758	29320.1125
1432.02203	29504.2125
1435.45416	30398.2125
1438.88399	31516.3125
1442.31151	32353.8125
1445.73673	32945.0125
1449.15965	33378.2125
1452.58027	33686.7125
1455.9986	33774.7125
1459.41463	33908.0125
1462.82837	34310.9125
1466.23982	34740.3125
1469.64898	35200.0125
1473.05586	35402.4125
1476.46045	35359.1125
1479.86276	34977.6125
1483.26279	34430.2125
1486.66054	34071.9125
1490.05602	34008.0125
1493.44922	34165.0125
1496.84016	34385.6125
1500.22882	34724.4125
1503.61521	35340.6125
1506.99934	36151.6125
1510.38121	36847.6125
1513.76081	37129.4125
1517.13816	36718.8125
1520.51324	36082.7125
1523.88607	35831.2125
1527.25665	35995.9125
1530.62498	36310.9125
1533.99105	36295.2125
1537.35488	35939.7125
1540.71647	35026.0125
1544.07581	33869.1125
1547.4329	32663.2125
1550.78776	31628.0125
1554.14038	30807.5125
1557.49077	30305.7125
1560.83892	30007.0125
1564.18484	29984.0125
1567.52853	30124.6125
1570.86999	30568.6125
1574.20922	31419.2125
1577.54624	32285.8125
1580.88103	32832.4125
1584.2136	33436.5125
1587.54395	34616.3125
1590.87208	36310.4125
1594.19801	38337.6125
1597.52172	40052.5125
1600.84321	40345.3125
1604.16251	38335.9125
1607.47959	34953.4125
1610.79447	31503.8125
1614.10715	28482.2125
1617.41763	26193.7125
1620.7259	24700.5125
1624.03199	23989.2125
1627.33587	24080.1125
1630.63757	24993.0125
1633.93707	26883.0125
1637.23439	29954.7125
1640.52951	34506.0125
1643.82246	39796.0125
1647.11321	44012.0125
1650.40179	44500.9125
1653.68819	40802.7125
1656.97241	34751.2125
1660.25446	29000.2125
1663.53433	24822.5125
1666.81203	22062.1125
1670.08756	20401.8125
1673.36092	19370.9125
1676.63211	18731.8125
1679.90115	18246.4125
1683.16801	17904.4125
1686.43272	17610.4125
1689.69527	17417.5125
1692.95567	17251.4125
1696.2139	17116.2125
1699.46999	17004.7125
1702.72392	16939.5125
1705.97571	16875.7125
1709.22535	16827.5125
1712.47284	16756.6125
1715.71819	16684.7125
1718.96139	16635.8125
1722.20246	16567.7125
1725.44139	16487.6125
1728.67818	16374.5125
1731.91284	16256.4125
1735.14537	16154.9125
1738.37576	16066.6125
1741.60403	16026.9125
1744.83017	15947.7125
1748.05418	15896.2125
1751.27607	15906.2125
1754.49584	15863.1125
1757.71349	15825.2125
1760.92903	15790.8125
1764.14244	15792.6125
1767.35375	15761.3125
1770.56294	15722.6125
1773.77002	15675.4125
1776.97499	15622.6125
1780.17785	15569.9125
1783.37861	15566.8125
1786.57727	15527.2125
1789.77382	15443.2125
1792.96828	15420.5125
1796.16064	15393.6125
1799.3509	15307.9125
1802.53907	15293.4125
1805.72514	15231.9125
1808.90913	15165.4125
1812.09102	15143.3125
1815.27083	15084.9125
1818.44856	15052.1125
1821.6242	15042.6125
1824.79776	14994.0125
1827.96924	14972.5125
1831.13864	14962.0125
1834.30597	14929.3125
1837.47122	14914.6125
1840.6344	14882.6125
1843.7955	14875.5125
1846.95454	14845.6125
1850.11151	14876.0125
1853.26642	14802.4125
1856.41926	14789.3125
1859.57004	14772.0125
1862.71876	14795.6125
1865.86542	14779.6125
1869.01003	14717.2125
1872.15258	14717.7125
1875.29308	14704.2125
1878.43152	14669.9125
1881.56792	14653.3125
1884.70227	14629.3125
1887.83457	14613.4125
1890.96482	14581.4125
1894.09304	14563.2125
1897.21921	14537.9125
1900.34335	14502.9125
1903.46544	14482.1125
1906.58551	14456.1125
1909.70353	14439.2125
1912.81953	14378.2125
1915.93349	14351.5125
1919.04543	14325.6125
1922.15534	14312.6125
1925.26322	14244.6125
1928.36908	14242.9125
1931.47292	14192.9125
1934.57473	14170.7125
1937.67453	14146.9125
1940.77232	14069.8125
1943.86808	14038.1125
1946.96184	13952.5125
1950.05358	13909.3125
1953.14331	13874.3125
1956.23103	13809.3125
1959.31675	13764.0125
1962.40046	13748.6125
1965.48217	13688.7125
1968.56188	13653.5125
1971.63959	13590.8125
1974.7153	13538.4125
1977.78901	13496.4125
1980.86073	13467.9125
1983.93046	13399.6125
1986.99819	13374.0125
1990.06394	13315.4125
1993.1277	13303.5125
1996.18947	13226.0125
1999.24925	13185.9125
2002.30706	13148.9125
2005.36288	13080.6125
2008.41672	13052.3125
2011.46859	13027.8125
2014.51848	12957.7125
2017.56639	12955.1125
2020.61233	12914.4125
2023.6563	12865.0125
2026.6983	12799.6125
2029.73833	12762.9125
2032.7764	12734.7125
2035.8125	12722.1125
2038.84664	12706.2125
2041.87881	12643.4125
2044.90903	12658.7125
2047.93729	12617.6125
2050.96359	12599.8125
2053.98794	12563.3125
2057.01034	12572.8125
2060.03078	12548.1125
2063.04927	12527.4125
2066.06582	12527.5125
2069.08042	12522.2125
2072.09307	12513.5125
2075.10378	12479.7125
2078.11255	12463.8125
2081.11938	12464.9125
2084.12426	12460.7125
2087.12722	12434.7125
2090.12824	12408.1125
2093.12732	12407.9125
2096.12447	12392.1125
2099.11969	12404.3125
2102.11299	12355.2125
2105.10435	12367.9125
2108.09379	12361.2125
2111.08131	12372.0125
2114.0669	12374.0125
2117.05057	12408.6125
2120.03233	12384.8125
2123.01216	12399.0125
2125.99008	12424.7125
2128.96609	12372.5125
2131.94018	12358.4125
2134.91236	12370.9125
2137.88263	12395.5125
2140.851	12395.7125
2143.81746	12388.1125
2146.78201	12376.1125
2149.74466	12373.6125
2152.7054	12333.0125
2155.66425	12314.9125
2158.6212	12303.9125
2161.57625	12273.3125
2164.52941	12286.8125
2167.48067	12258.7125
2170.43004	12271.6125
2173.37752	12255.4125
2176.32311	12277.7125
2179.26681	12259.9125
2182.20863	12221.9125
2185.14856	12238.1125
2188.08661	12258.0125
2191.02278	12269.0125
2193.95707	12215.1125
2196.88948	12184.3125
2199.82001	12154.2125
2202.74867	12147.0125
2205.67545	12084.8125
2208.60037	12095.5125
2211.52341	12047.0125
2214.44458	12065.2125
2217.36388	12015.7125
2220.28132	11996.1125
2223.1969	11959.6125
2226.11061	11918.9125
2229.02246	11919.4125
2231.93245	11893.2125
2234.84058	11860.4125
2237.74686	11858.9125
2240.65128	11844.9125
2243.55385	11776.2125
2246.45456	11802.1125
2249.35343	11786.4125
2252.25044	11736.2125
2255.14561	11688.5125
2258.03893	11655.3125
2260.93041	11635.5125
2263.82004	11606.9125
2266.70783	11572.4125
2269.59378	11520.4125
2272.4779	11482.0125
2275.36017	11447.4125
2278.24061	11430.8125
2281.11922	11408.0125
2283.996	11390.4125
2286.87094	11350.7125
2289.74405	11314.9125
2292.61534	11283.0125
2295.4848	11294.4125
2298.35243	11304.6125
2301.21824	11289.6125
2304.08223	11284.0125
2306.94439	11297.8125
2309.80474	11262.1125
2312.66327	11234.9125
2315.51999	11222.5125
2318.37489	11224.3125
2321.22797	11185.5125
2324.07925	11144.8125
2326.92871	11158.8125
2329.77637	11115.7125
2332.62222	11139.0125
2335.46626	11117.0125
2338.3085	11096.4125
2341.14893	11090.6125
2343.98756	11075.4125
2346.8244	11074.5125
2349.65943	11045.3125
2352.49267	11053.7125
2355.32411	11026.0125
2358.15376	11025.4125
2360.98161	11030.1125
2363.80768	11014.9125
2366.63195	11016.5125
2369.45444	10995.1125
2372.27514	10994.2125
2375.09405	10932.8125
2377.91118	10936.6125
2380.72652	10890.9125
2383.54009	10901.3125
2386.35187	10869.4125
2389.16188	10835.3125
2391.97011	10806.6125
2394.77657	10765.9125
2397.58125	10753.1125
2400.38416	10729.7125
2403.18529	10701.2125
2405.98466	10713.6125
2408.78226	10681.3125
2411.57809	10659.0125
2414.37216	10652.4125
2417.16446	10637.2125
2419.955	10626.1125
2422.74378	10612.1125
2425.5308	10591.8125
2428.31606	10583.5125
2431.09956	10537.4125
2433.88131	10528.7125
2436.6613	10536.8125
2439.43954	10528.5125
2442.21603	10537.4125
2444.99077	10521.5125
2447.76377	10504.3125
2450.53501	10499.3125
2453.30451	10493.1125
2456.07226	10493.8125
2458.83827	10479.9125
2461.60254	10451.7125
2464.36507	10438.3125
2467.12586	10454.3125
2469.88492	10451.2125
2472.64224	10446.7125
2475.39782	10434.1125
2478.15167	10449.7125
2480.90379	10441.9125
2483.65417	10426.9125
2486.40283	10416.5125
2489.14976	10415.7125
2491.89497	10412.2125
2494.63845	10417.3125
2497.3802	10390.6125
2500.12024	10415.1125
2502.85855	10392.2125
2505.59514	10378.5125
2508.33002	10353.3125
2511.06318	10370.7125
2513.79462	10348.8125
2516.52435	10357.7125
2519.25237	10311.8125
2521.97867	10293.3125
2524.70327	10302.0125
2527.42616	10269.5125
2530.14734	10253.4125
2532.86681	10268.3125
2535.58458	10238.6125
2538.30065	10233.9125
2541.01501	10241.6125
2543.72768	10219.0125
2546.43864	10200.1125
2549.14791	10188.8125
2551.85548	10180.0125
2554.56136	10164.5125
2557.26554	10154.1125
2559.96803	10122.9125
2562.66883	10115.1125
2565.36794	10081.1125
2568.06536	10104.6125
2570.7611	10091.5125
2573.45514	10067.1125
2576.14751	10048.5125
2578.83819	10057.7125
2581.52719	10057.1125
2584.21451	10027.4125
2586.90015	10013.8125
2589.58411	10006.0125
2592.2664	10002.9125
2594.94701	9991.2125
2597.62594	9976.6125
2600.30321	9959.0125
2602.9788	9966.3125
2605.65273	9948.1125
2608.32498	10002.1125
2610.99557	9977.0125
2613.66449	9958.4125
2616.33175	9958.8125
2618.99734	9929.0125
2621.66128	9903.7125
2624.32355	9908.3125
2626.98416	9884.8125
2629.64311	9876.5125
2632.30041	9856.6125
2634.95605	9856.2125
2637.61004	9839.8125
2640.26238	9832.4125
2642.91306	9803.2125
2645.56209	9811.6125
2648.20948	9844.4125
2650.85521	9840.5125
2653.4993	9812.6125
2656.14175	9815.8125
2658.78255	9856.9125
2661.42171	9836.6125
2664.05923	9843.0125
2666.6951	9847.0125
2669.32934	9870.0125
2671.96194	9835.1125
2674.59291	9847.2125
2677.22224	9828.4125
2679.84993	9827.1125
2682.476	9818.7125
2685.10043	9796.7125
2687.72324	9799.0125
2690.34441	9813.7125
2692.96396	9791.1125
2695.58188	9802.8125
2698.19818	9807.9125
2700.81285	9797.5125
2703.4259	9788.3125
2706.03733	9780.7125
2708.64714	9786.6125
2711.25533	9806.6125
2713.86191	9805.3125
2716.46687	9830.9125
2719.07021	9807.6125
2721.67194	9835.0125
2724.27206	9799.0125
2726.87057	9844.9125
2729.46747	9816.1125
2732.06276	9840.5125
2734.65644	9809.2125
2737.24852	9823.7125
2739.83899	9819.1125
2742.42786	9833.0125
2745.01513	9798.8125
2747.60079	9784.4125
2750.18486	9790.5125
2752.76733	9772.0125
2755.3482	9765.6125
2757.92747	9755.8125
2760.50515	9733.2125
2763.08123	9738.0125
2765.65573	9726.7125
2768.22863	9706.6125
2770.79994	9695.3125
2773.36967	9714.0125
2775.9378	9726.1125
2778.50435	9708.0125
2781.06932	9695.6125
2783.6327	9697.8125
2786.1945	9681.2125
2788.75471	9683.0125
2791.31335	9657.6125
2793.87041	9673.2125
2796.42589	9614.4125
2798.97979	9618.9125
2801.53212	9581.7125
2804.08288	9580.1125
2806.63206	9577.7125
2809.17967	9553.0125
2811.72571	9550.9125
2814.27018	9528.3125
2816.81308	9474.2125
2819.35442	9470.2125
2821.89419	9435.8125
2824.43239	9455.1125
2826.96904	9446.0125
2829.50412	9458.7125
2832.03763	9410.7125
2834.56959	9425.4125
2837.1	9394.0125
2839.62884	9432.9125
2842.15613	9441.3125
2844.68186	9477.3125
2847.20604	9516.1125
2849.72867	9523.3125
2852.24974	9537.7125
2854.76927	9527.8125
2857.28724	9510.9125
2859.80367	9502.2125
2862.31855	9457.7125
2864.83189	9435.1125
2867.34368	9402.3125
2869.85393	9412.7125
2872.36264	9413.0125
2874.8698	9408.4125
2877.37543	9391.0125
2879.87952	9384.2125
2882.38207	9356.7125
2884.88308	9364.6125
2887.38256	9371.8125
2889.88051	9373.9125
2892.37692	9361.7125
2894.8718	9378.5125
2897.36515	9381.5125
2899.85698	9369.6125
2902.34727	9410.7125
2904.83604	9405.3125
2907.32328	9417.0125
2909.809	9410.1125
2912.29319	9402.4125
2914.77587	9377.3125
2917.25702	9403.1125
2919.73665	9400.5125
2922.21476	9399.3125
2924.69136	9381.1125
2927.16644	9373.7125
2929.64	9351.0125
2932.11205	9359.7125
2934.58258	9346.9125
2937.05161	9308.5125
2939.51912	9309.5125
2941.98513	9277.2125
2944.44962	9248.4125
2946.91261	9218.2125
2949.37409	9203.8125
2951.83407	9204.7125
2954.29254	9181.6125
2956.74951	9164.6125
2959.20498	9176.3125
2961.65895	9138.5125
2964.11142	9125.2125
2966.56239	9097.2125
2969.01186	9081.7125
2971.45984	9056.8125
2973.90632	9034.0125
2976.35131	9012.5125
2978.7948	8982.9125
2981.23681	8960.5125
2983.67732	8936.1125
2986.11635	8929.8125
2988.55388	8874.8125
2990.98993	8857.7125
2993.4245	8830.3125
2995.85758	8790.0125
2998.28917	8760.8125
3000.71928	8764.9125
3003.14791	8722.7125
3005.57506	8717.4125
3008.00073	8694.0125
3010.42493	8657.5125
3012.84764	8656.9125
3015.26888	8636.4125
3017.68865	8609.1125
3020.10694	8601.5125
3022.52376	8560.6125
3024.9391	8552.3125
3027.35298	8540.3125
3029.76539	8519.9125
3032.17632	8517.4125
3034.5858	8483.1125
3036.9938	8499.6125
3039.40034	8492.4125
3041.80542	8485.5125
3044.20903	8479.6125
