Data from AgNPs_FTO_APTES_UA_5uM_CRN_10uM_R6G_10uM_NaF_0.1M_Addition_RamanShift__18__12-44-16-735.txt Node

Date: Mon Feb 07 12:44:16 GMT 2022
User: TCL
Spectrometer: QEP01345
Trigger mode: 4
Integration Time (sec): 7.000000E0
Scans to average: 10
Electric dark correction enabled: true
Nonlinearity correction enabled: false
Boxcar width: 0
XAxis mode: Raman Shifts
Number of Pixels in Spectrum: 1044
>>>>>Begin Spectral Data<<<<<
46.04893	-0.5
50.45542	-0.9
54.85868	0.1
59.25871	-0.4
63.6555	83.4
68.04907	86
72.43941	92.9
76.82654	94.4
81.21044	98.8
85.59113	103.8
89.96862	107.1
94.34289	109.4
98.71396	117.7
103.08183	116
107.4465	122
111.80798	123.7
116.16626	129.7
120.52136	134.8
124.87327	146.8
129.222	152.2
133.56755	164.3
137.90993	178.6
142.24913	193.2
146.58517	222.5
150.91804	259.7
155.24774	314.6
159.57429	391.7
163.89768	512.8
168.21792	689.4
172.53501	935.3
176.84895	1301.4
181.15975	1836.6
185.46741	2581.5
189.77193	3567.5
194.07331	4734.8
198.37157	6089.8
202.6667	7485.1
206.9587	8881.2
211.24758	10266.8
215.53334	11636.1
219.81599	13120.4
224.09553	14763.3
228.37195	16567.4
232.64527	18580.5
236.91549	20615.5
241.18261	22664.7
245.44663	24572.8
249.70755	26247.8
253.96539	27727
258.22014	29011.7
262.4718	30123.9
266.72039	30889
270.96589	31387.8
275.20832	31606.6
279.44768	31562.8
283.68397	31558
287.91719	31493.8
292.14735	31561.2
296.37445	31705.5
300.59849	31866.2
304.81948	31870.9
309.03742	31627.1
313.25231	31055
317.46415	30132.2
321.67296	29064.1
325.87872	28162.3
330.08145	27668
334.28114	27490.2
338.47781	27629.4
342.67145	27926
346.86207	28293.6
351.04966	28870.4
355.23424	29416.8
359.4158	29867.5
363.59435	30190.9
367.76989	30367.3
371.94243	30466
376.11196	30557.6
380.27849	30681.5
384.44203	30853.5
388.60257	31076.2
392.76012	31465.5
396.91468	31950.5
401.06626	32443.6
405.21485	32830.1
409.36047	32600.2
413.50311	32008.7
417.64277	31645.6
421.77947	31608.1
425.9132	31783.4
430.04396	31967.2
434.17176	32214.2
438.2966	32493.6
442.41849	32985.4
446.53742	33922.1
450.6534	34989.7
454.76644	35811.4
458.87653	36221.2
462.98368	36235.3
467.08789	35939.9
471.18916	35595.6
475.2875	35304.8
479.38291	35445.6
483.4754	35381.5
487.56496	34874.1
491.6516	34051
495.73531	33207.8
499.81612	32705.7
503.89401	32676.8
507.96899	32795
512.04106	32613.9
516.11023	32239
520.1765	31786.5
524.23987	31223.4
528.30034	30782
532.35792	30405.8
536.41261	30036.9
540.46441	29753.2
544.51333	29879.2
548.55936	30440.8
552.60252	31400.4
556.64279	32346.6
560.6802	33052.9
564.71473	33591
568.7464	34403.4
572.7752	35414.4
576.80114	36407.5
580.82422	37107.3
584.84444	37701.5
588.86181	38078.3
592.87633	38482.5
596.888	38588.2
600.89682	38395.6
604.9028	39156.8
608.90594	41691.1
612.90624	44146.8
616.90371	40833.3
620.89834	34078
624.89015	31267.3
628.87913	31182.5
632.86528	31440.4
636.84862	31209.7
640.82913	30557.2
644.80683	29616.7
648.78172	28779.3
652.75379	28530.6
656.72306	28641.9
660.68952	29111
664.65319	29007.1
668.61405	28434.4
672.57211	28257.5
676.52738	28294
680.47986	28296.5
684.42955	28110.9
688.37646	28031.4
692.32058	28160.5
696.26192	28483.1
700.20048	28908.7
704.13626	29141.6
708.06928	29153.1
711.99952	28928.5
715.927	28851.5
719.85171	28927.1
723.77365	28774.1
727.69284	28397.6
731.60928	28073.1
735.52295	27895.6
739.43388	27889.1
743.34206	27906
747.24749	28139.9
751.15017	28476.3
755.05012	29151.6
758.94733	30251.7
762.8418	32141.5
766.73354	34857.9
770.62254	37337.3
774.50882	37451.1
778.39237	35224.4
782.27321	32265.5
786.15132	30045.3
790.02671	28724.5
793.89938	28026.4
797.76935	27776.6
801.6366	27735.5
805.50115	27682.4
809.36299	27464.4
813.22213	27252.8
817.07857	27141
820.93231	27033.2
824.78336	26853.8
828.63172	26619.9
832.47738	26538.5
836.32036	26528.4
840.16066	26643.1
843.99827	26777.6
847.8332	26666.9
851.66546	26538.6
855.49504	26418.8
859.32195	26445.6
863.1462	26299.4
866.96777	26160.2
870.78668	26049.3
874.60293	26018.4
878.41652	25961.6
882.22745	26052.7
886.03573	26148.4
889.84136	26143.3
893.64433	26014.5
897.44466	25943.7
901.24235	25842.1
905.0374	25668.2
908.8298	25651.5
912.61957	25734.4
916.40671	26118.1
920.19121	26698.2
923.97308	27070.5
927.75233	26999.4
931.52895	26704.5
935.30295	26210.1
939.07433	25606.2
942.84309	25098.7
946.60924	24879
950.37278	24784.3
954.13371	24756.8
957.89203	24717.7
961.64774	24664.1
965.40086	24664.8
969.15137	24553.4
972.89929	24360.7
976.64461	24229.2
980.38733	24200.2
984.12747	24264.3
987.86502	24495.8
991.59999	24854.5
995.33237	25411.1
999.06217	26290.7
1002.78939	27317
1006.51404	27876
1010.23611	28183.7
1013.95561	28450.1
1017.67255	28521.2
1021.38692	28117.3
1025.09872	27745
1028.80796	27861.1
1032.51465	28676.5
1036.21877	29533.7
1039.92035	29681.2
1043.61937	29253.6
1047.31584	28457.2
1051.00976	27740.5
1054.70114	27449.2
1058.38998	27583.1
1062.07627	27932.9
1065.76003	28182.1
1069.44126	28492.6
1073.11995	28819.6
1076.79611	29148.6
1080.46974	29347.1
1084.14085	29593.1
1087.80943	29989.1
1091.47549	30375.7
1095.13903	30551.4
1098.80005	30223.4
1102.45857	29382.6
1106.11456	28637.5
1109.76805	28287.3
1113.41903	28357.5
1117.06751	28520.7
1120.71348	28808.9
1124.35696	29137.1
1127.99793	29526.5
1131.63641	29785.4
1135.2724	29804.8
1138.90589	29721.3
1142.5369	29740.5
1146.16542	29962.6
1149.79145	30393.4
1153.415	30932.5
1157.03607	31757.1
1160.65467	32963
1164.27079	34792.8
1167.88443	37201.5
1171.49561	40099.5
1175.10432	43568.3
1178.71056	47876.5
1182.31434	51868.1
1185.91565	54180.4
1189.51451	54451.1
1193.11091	53141.2
1196.70485	50826.8
1200.29634	48265.6
1203.88538	46272.5
1207.47197	45098.2
1211.05612	44266.7
1214.63782	43342.2
1218.21708	42197.2
1221.79391	41196.3
1225.36829	40497.4
1228.94024	39738.9
1232.50976	38741.5
1236.07685	38003.3
1239.6415	37603.6
1243.20374	37506.6
1246.76355	37748.2
1250.32093	38410.6
1253.8759	39479.6
1257.42845	40814.9
1260.97859	42213.5
1264.52631	43590.3
1268.07163	45092
1271.61453	46764.4
1275.15503	48539.6
1278.69312	50468.3
1282.22882	52416.3
1285.76211	54185
1289.29301	56337
1292.82151	59129.4
1296.34761	62762.3
1299.87133	67094.1
1303.39266	71556.8
1306.9116	76085.1
1310.42815	79900.1
1313.94233	82199.9
1317.45412	82459.5
1320.96354	81633.7
1324.47058	80779.8
1327.97525	80149.8
1331.47754	79625.1
1334.97747	79236.1
1338.47502	78814.8
1341.97022	78168.8
1345.46305	76654.7
1348.95352	74463.6
1352.44163	72188.8
1355.92738	71102.3
1359.41078	71953.8
1362.89183	73113.7
1366.37053	71554.8
1369.84688	66282.3
1373.32088	60000.6
1376.79254	55687.8
1380.26186	54199
1383.72883	54645.9
1387.19347	55341.5
1390.65578	55582.6
1394.11575	56066.9
1397.57339	57114
1401.0287	58573.3
1404.48168	59627.8
1407.93234	59518.5
1411.38068	57947.4
1414.82669	55139
1418.27039	51773.8
1421.71177	48583.3
1425.15083	46168.9
1428.58758	44930.9
1432.02203	44992.4
1435.45416	46310.8
1438.88399	48200.1
1442.31151	49862.7
1445.73673	51248.7
1449.15965	52514.5
1452.58027	53514.3
1455.9986	54195.8
1459.41463	54822.8
1462.82837	55719.2
1466.23982	56564.9
1469.64898	57280.1
1473.05586	57321.3
1476.46045	56782.6
1479.86276	55773.3
1483.26279	54641.9
1486.66054	53799.1
1490.05602	53506.8
1493.44922	53495.8
1496.84016	53722.4
1500.22882	54408.9
1503.61521	55753.3
1506.99934	57437
1510.38121	58999.5
1513.76081	59662.5
1517.13816	59031.2
1520.51324	57649
1523.88607	56396.6
1527.25665	55898.5
1530.62498	55875.7
1533.99105	55953.6
1537.35488	55731.1
1540.71647	54856.1
1544.07581	53412.2
1547.4329	51730.9
1550.78776	50366.3
1554.14038	49388
1557.49077	48933.6
1560.83892	48585.3
1564.18484	48411.6
1567.52853	48422.3
1570.86999	48648.5
1574.20922	49607.4
1577.54624	50805.8
1580.88103	51621.7
1584.2136	52643.6
1587.54395	54645.2
1590.87208	57698.5
1594.19801	61242.4
1597.52172	64363
1600.84321	64888.1
1604.16251	61421
1607.47959	55861.1
1610.79447	50276.5
1614.10715	45159.8
1617.41763	40963.5
1620.7259	37949
1624.03199	36321
1627.33587	36296.2
1630.63757	37652.4
1633.93707	40924.3
1637.23439	46015.1
1640.52951	52824.8
1643.82246	60230
1647.11321	65528.1
1650.40179	65815
1653.68819	60620.8
1656.97241	51918.9
1660.25446	43129
1663.53433	36463
1666.81203	31998.1
1670.08756	29130.1
1673.36092	27369.2
1676.63211	26177
1679.90115	25380.8
1683.16801	24728.1
1686.43272	24271
1689.69527	23955.7
1692.95567	23697.3
1696.2139	23476.6
1699.46999	23326.6
1702.72392	23138
1705.97571	23055.1
1709.22535	22959.4
1712.47284	22895.2
1715.71819	22807.6
1718.96139	22707.6
1722.20246	22598.2
1725.44139	22459.4
1728.67818	22296
1731.91284	22136.5
1735.14537	21955.1
1738.37576	21809.1
1741.60403	21725
1744.83017	21675.1
1748.05418	21574.9
1751.27607	21498.9
1754.49584	21437.8
1757.71349	21426.5
1760.92903	21356.6
1764.14244	21330.8
1767.35375	21330.8
1770.56294	21284.7
1773.77002	21191.3
1776.97499	21107.2
1780.17785	21044.9
1783.37861	21025.6
1786.57727	21008.2
1789.77382	20939.1
1792.96828	20913.4
1796.16064	20869.1
1799.3509	20816.1
1802.53907	20741.3
1805.72514	20689
1808.90913	20636.2
1812.09102	20557
1815.27083	20523.3
1818.44856	20475.3
1821.6242	20417.8
1824.79776	20428.8
1827.96924	20376.4
1831.13864	20382.5
1834.30597	20394.8
1837.47122	20437.5
1840.6344	20436.5
1843.7955	20416.5
1846.95454	20490.6
1850.11151	20486.7
1853.26642	20452.3
1856.41926	20470.8
1859.57004	20455
1862.71876	20405.3
1865.86542	20378.1
1869.01003	20345.5
1872.15258	20326.8
1875.29308	20317.3
1878.43152	20305
1881.56792	20320.1
1884.70227	20271.6
1887.83457	20291
1890.96482	20261.6
1894.09304	20249.4
1897.21921	20193.6
1900.34335	20173.7
1903.46544	20163.7
1906.58551	20168.3
1909.70353	20113.1
1912.81953	20087.7
1915.93349	20014.7
1919.04543	20000.6
1922.15534	19911.9
1925.26322	19854.8
1928.36908	19747
1931.47292	19701.2
1934.57473	19616.2
1937.67453	19535.8
1940.77232	19476.2
1943.86808	19404.4
1946.96184	19363.6
1950.05358	19262.7
1953.14331	19208
1956.23103	19155.8
1959.31675	19066.2
1962.40046	18991.3
1965.48217	18945.8
1968.56188	18894.3
1971.63959	18818.1
1974.7153	18780
1977.78901	18710.9
1980.86073	18633
1983.93046	18553.2
1986.99819	18504
1990.06394	18436.8
1993.1277	18399.9
1996.18947	18333.8
1999.24925	18303.8
2002.30706	18224.2
2005.36288	18166
2008.41672	18096.2
2011.46859	18055.6
2014.51848	18004.8
2017.56639	17959.9
2020.61233	17923
2023.6563	17850
2026.6983	17812.1
2029.73833	17802.3
2032.7764	17752.8
2035.8125	17727.4
2038.84664	17726.2
2041.87881	17680.9
2044.90903	17633.9
2047.93729	17628.3
2050.96359	17610.1
2053.98794	17581.7
2057.01034	17569.5
2060.03078	17546.1
2063.04927	17526.3
2066.06582	17560.9
2069.08042	17542
2072.09307	17509.2
2075.10378	17469.4
2078.11255	17452.5
2081.11938	17447.1
2084.12426	17411.2
2087.12722	17407.9
2090.12824	17400.8
2093.12732	17362.4
2096.12447	17377.7
2099.11969	17394.9
2102.11299	17386.7
2105.10435	17391.8
2108.09379	17368.4
2111.08131	17379.4
2114.0669	17405
2117.05057	17406.3
2120.03233	17405.3
2123.01216	17426.6
2125.99008	17435.1
2128.96609	17461.9
2131.94018	17426.7
2134.91236	17432
2137.88263	17452.8
2140.851	17459.8
2143.81746	17468.8
2146.78201	17461.8
2149.74466	17411.3
2152.7054	17433.7
2155.66425	17410.1
2158.6212	17425.1
2161.57625	17392.9
2164.52941	17398.9
2167.48067	17383.3
2170.43004	17402.8
2173.37752	17381.9
2176.32311	17370.7
2179.26681	17369.4
2182.20863	17369.7
2185.14856	17396.5
2188.08661	17421.3
2191.02278	17410.6
2193.95707	17397.8
2196.88948	17329.8
2199.82001	17355.2
2202.74867	17325
2205.67545	17312.8
2208.60037	17302.5
2211.52341	17283.3
2214.44458	17289.1
2217.36388	17253.7
2220.28132	17218.3
2223.1969	17179.9
2226.11061	17188.8
2229.02246	17113.2
2231.93245	17080.7
2234.84058	17028.1
2237.74686	16973.6
2240.65128	16938.5
2243.55385	16938.1
2246.45456	16922.6
2249.35343	16876.9
2252.25044	16822.8
2255.14561	16800.1
2258.03893	16812.1
2260.93041	16716
2263.82004	16684.2
2266.70783	16662.1
2269.59378	16620.3
2272.4779	16559.1
2275.36017	16523.1
2278.24061	16497.8
2281.11922	16446.3
2283.996	16453.1
2286.87094	16426.2
2289.74405	16426.5
2292.61534	16391.2
2295.4848	16378.3
2298.35243	16398.4
2301.21824	16408
2304.08223	16434.4
2306.94439	16450
2309.80474	16412
2312.66327	16439.5
2315.51999	16442.3
2318.37489	16430.7
2321.22797	16405.2
2324.07925	16373.8
2326.92871	16382.2
2329.77637	16359.5
2332.62222	16325.9
2335.46626	16331.1
2338.3085	16351.1
2341.14893	16358.7
2343.98756	16421.3
2346.8244	16427
2349.65943	16424.6
2352.49267	16434
2355.32411	16413.9
2358.15376	16394.3
2360.98161	16383.1
2363.80768	16369.1
2366.63195	16337.5
2369.45444	16316.8
2372.27514	16282.7
2375.09405	16270.5
2377.91118	16229
2380.72652	16166.7
2383.54009	16126.4
2386.35187	16130.4
2389.16188	16064
2391.97011	16082.9
2394.77657	16043.3
2397.58125	16008.3
2400.38416	15976
2403.18529	15942.3
2405.98466	15948.8
2408.78226	15915.2
2411.57809	15857.1
2414.37216	15860.2
2417.16446	15863
2419.955	15827.8
2422.74378	15813
2425.5308	15756
2428.31606	15760.2
2431.09956	15797
2433.88131	15770.5
2436.6613	15796.6
2439.43954	15781.6
2442.21603	15758.3
2444.99077	15765
2447.76377	15776.3
2450.53501	15757.6
2453.30451	15762.6
2456.07226	15743.2
2458.83827	15764.6
2461.60254	15738.1
2464.36507	15754.5
2467.12586	15765.8
2469.88492	15783.7
2472.64224	15790.6
2475.39782	15814.7
2478.15167	15849
2480.90379	15838.6
2483.65417	15846.9
2486.40283	15877.7
2489.14976	15913.1
2491.89497	15889.6
2494.63845	15894.3
2497.3802	15915.7
2500.12024	15920.1
2502.85855	15923.2
2505.59514	15914.3
2508.33002	15900.3
2511.06318	15882.3
2513.79462	15873.2
2516.52435	15835.5
2519.25237	15896.8
2521.97867	15844.9
2524.70327	15873.5
2527.42616	15856.5
2530.14734	15829.4
2532.86681	15867.3
2535.58458	15868.6
2538.30065	15837.5
2541.01501	15847.7
2543.72768	15840
2546.43864	15838.2
2549.14791	15804.5
2551.85548	15802.7
2554.56136	15761
2557.26554	15749
2559.96803	15774.2
2562.66883	15728.2
2565.36794	15718.9
2568.06536	15739.2
2570.7611	15719.8
2573.45514	15702.4
2576.14751	15702.1
2578.83819	15715.3
2581.52719	15700.5
2584.21451	15706
2586.90015	15722.9
2589.58411	15740.7
2592.2664	15766.1
2594.94701	15738.4
2597.62594	15753.1
2600.30321	15739.2
2602.9788	15746.2
2605.65273	15741.7
2608.32498	15778.9
2610.99557	15753.6
2613.66449	15778.1
2616.33175	15761.2
2618.99734	15806.1
2621.66128	15802.2
2624.32355	15794.8
2626.98416	15819
2629.64311	15845.4
2632.30041	15854.3
2634.95605	15798.6
2637.61004	15827.3
2640.26238	15802.9
2642.91306	15780.8
2645.56209	15736.5
2648.20948	15747.8
2650.85521	15803.8
2653.4993	15781.1
2656.14175	15757.9
2658.78255	15791.2
2661.42171	15820.9
2664.05923	15847.5
2666.6951	15837.4
2669.32934	15828.6
2671.96194	15871.2
2674.59291	15856.1
2677.22224	15874.1
2679.84993	15860.6
2682.476	15861.8
2685.10043	15836.7
2687.72324	15790.2
2690.34441	15786.3
2692.96396	15747.6
2695.58188	15774.8
2698.19818	15744.9
2700.81285	15767.7
2703.4259	15780.6
2706.03733	15810.9
2708.64714	15784.8
2711.25533	15807.3
2713.86191	15789.3
2716.46687	15842.1
2719.07021	15858.7
2721.67194	15895
2724.27206	15901.4
2726.87057	15922.6
2729.46747	15920.6
2732.06276	15929.6
2734.65644	15940.1
2737.24852	15934.4
2739.83899	15930.9
2742.42786	15944.2
2745.01513	15886.9
2747.60079	15887.4
2750.18486	15863.8
2752.76733	15890.9
2755.3482	15880.7
2757.92747	15890.6
2760.50515	15897.4
2763.08123	15903.1
2765.65573	15909.8
2768.22863	15923.6
2770.79994	15905.9
2773.36967	15883.1
2775.9378	15920
2778.50435	15961.2
2781.06932	15945.7
2783.6327	15941.6
2786.1945	15942
2788.75471	15963.9
2791.31335	15916
2793.87041	15926.7
2796.42589	15850.2
2798.97979	15856.6
2801.53212	15820.5
2804.08288	15812.7
2806.63206	15745.2
2809.17967	15750.4
2811.72571	15684.3
2814.27018	15691.9
2816.81308	15680.7
2819.35442	15640
2821.89419	15577.4
2824.43239	15619.6
2826.96904	15656.9
2829.50412	15630.6
2832.03763	15593.4
2834.56959	15551.6
2837.1	15530.6
2839.62884	15521.7
2842.15613	15544.2
2844.68186	15578.8
2847.20604	15624.2
2849.72867	15601.8
2852.24974	15589.9
2854.76927	15587
2857.28724	15594
2859.80367	15571.6
2862.31855	15520.5
2864.83189	15531.5
2867.34368	15506
2869.85393	15480.3
2872.36264	15465.5
2874.8698	15474.6
2877.37543	15467.6
2879.87952	15466.7
2882.38207	15499.7
2884.88308	15464.2
2887.38256	15482.5
2889.88051	15486.9
2892.37692	15529.3
2894.8718	15519
2897.36515	15549.6
2899.85698	15554.9
2902.34727	15586.2
2904.83604	15630.1
2907.32328	15706.1
2909.809	15673.9
2912.29319	15688.7
2914.77587	15706.7
2917.25702	15689.5
2919.73665	15681.8
2922.21476	15667.7
2924.69136	15680.9
2927.16644	15648.2
2929.64	15595.4
2932.11205	15588.5
2934.58258	15515.7
2937.05161	15510.1
2939.51912	15552.8
2941.98513	15537
2944.44962	15477.9
2946.91261	15421
2949.37409	15443
2951.83407	15411.2
2954.29254	15397.6
2956.74951	15384.8
2959.20498	15348.7
2961.65895	15321
2964.11142	15308.2
2966.56239	15291
2969.01186	15292.5
2971.45984	15232
2973.90632	15234
2976.35131	15182.1
2978.7948	15170.4
2981.23681	15114.3
2983.67732	15057
2986.11635	15027.9
2988.55388	15016.5
2990.98993	14973.2
2993.4245	14891.5
2995.85758	14881
2998.28917	14804.7
3000.71928	14823.8
3003.14791	14785.5
3005.57506	14793.6
3008.00073	14711.8
3010.42493	14588
3012.84764	14649.4
3015.26888	14642.9
3017.68865	14621.5
3020.10694	14591.5
3022.52376	14558.3
3024.9391	14574.3
3027.35298	14519.1
3029.76539	14535.2
3032.17632	14490
3034.5858	14467.5
3036.9938	14482.5
3039.40034	14502.3
3041.80542	14459.2
3044.20903	14449.9
3046.61118	14447.5
3049.01187	14400
3051.4111	14417.7
3053.80888	14407.8
3056.20519	14356.7
3058.60005	14348.9
3060.99345	14284.5
3063.3854	14240.6
3065.7759	14190.1
3068.16494	14144.7
3070.55254	14114.4
3072.93868	14080.5
3075.32338	14042.1
3077.70662	14003.9
3080.08842	13969.4
3082.46878	13919.8
3084.84769	13888.4
3087.22515	13888.9
3089.60118	13882.7
3091.97576	13891.2
3094.3489	13873.8
3096.72061	13837.9
3099.09087	13842.9
3101.4597	13840.5
3103.82709	13855.3
3106.19305	13831.8
3108.55757	13802.1
3110.92066	13733.5
3113.28232	13732.2
3115.64255	13723.7
3118.00134	13666.7
3120.35871	13660
3122.71466	13620.5
3125.06917	13577.9
3127.42226	13541.8
3129.77393	13541.6
3132.12417	13501
3134.47299	13501.9
3136.82039	13500.5
3139.16636	13485.3
3141.51092	13468
3143.85406	13459.2
3146.19579	13485.2
3148.53609	13456.9
3150.87499	13465.8
3153.21246	13452.1
3155.54853	13507.3
3157.88318	13466.3
3160.21642	13493.9
3162.54826	13486.8
3164.87868	13476
3167.2077	13493.2
3169.5353	13488
3171.86151	13481.9
3174.18631	13441.9
3176.5097	13499.1
3178.83169	13451
3181.15228	13469.9
3183.47147	13418.4
3185.78926	13422.1
3188.10565	13397.3
3190.42065	13364.3
3192.73424	13385.6
3195.04645	13380.2
3197.35725	13344.5
3199.66667	13313.9
3201.97469	13341.6
3204.28132	13352.5
3206.58656	13386.2
3208.8904	13333.2
3211.19287	13338.5
3213.49394	13344.1
3215.79363	13355.5
3218.09193	13378
3220.38884	13364.1
3222.68438	13370.5
3224.97853	13348
3227.2713	13335.6
3229.56269	13334.8
3231.8527	13310.3
3234.14133	13300.1
3236.42858	13274.5
3238.71446	13242.2
3240.99896	13223.7
3243.28209	13218.2
3245.56384	13171.7
3247.84423	13192.9
3250.12324	13174
3252.40088	13128.2
3254.67715	13132.7
3256.95205	13110.4
3259.22558	13106.1
3261.49775	13098.8
3263.76855	13069.6
3266.03799	13041.3
3268.30606	13025.9
3270.57277	12951.6
3272.83812	12988.2
3275.10211	12955.1
3277.36474	12918.1
3279.62601	12927
3281.88593	12905.8
3284.14448	12952.1
3286.40168	12924.2
3288.65753	12931.1
3290.91202	12904.8
3293.16516	12886.3
3295.41695	12858.7
3297.66738	12777.8
3299.91647	12746.5
3302.16421	12641.2
3304.4106	12547.9
3306.65564	12478.5
3308.89933	12365.3
3311.14169	12306.5
3313.38269	12197.7
3315.62236	12132.9
3317.86068	12045.4
3320.09766	11953.9
3322.3333	11875.2
3324.5676	11803.9
3326.80056	11592.2
3329.03219	11513.9
3331.26248	3.3
3333.49143	-1.9
3335.71905	-0.3
