Data from AgNPs_FTO_APTES_UA_5uM_CRN_20uM_R6G_10uM_NaF_0.1M_Addition_RamanShift__7__13-11-06-766.txt Node

Date: Mon Feb 07 13:11:06 GMT 2022
User: TCL
Spectrometer: QEP01345
Trigger mode: 4
Integration Time (sec): 7.000000E0
Scans to average: 10
Electric dark correction enabled: true
Nonlinearity correction enabled: false
Boxcar width: 0
XAxis mode: Raman Shifts
Number of Pixels in Spectrum: 1044
>>>>>Begin Spectral Data<<<<<
46.04893	-1.2875
50.45542	-1.5875
54.85868	-0.8875
59.25871	-0.3875
63.6555	88.0125
68.04907	91.4125
72.43941	97.8125
76.82654	98.1125
81.21044	103.4125
85.59113	106.6125
89.96862	112.8125
94.34289	111.7125
98.71396	114.6125
103.08183	122.0125
107.4465	121.9125
111.80798	126.4125
116.16626	131.4125
120.52136	138.2125
124.87327	145.8125
129.222	159.9125
133.56755	170.3125
137.90993	188.0125
142.24913	203.9125
146.58517	236.2125
150.91804	279.4125
155.24774	344.7125
159.57429	434.3125
163.89768	566.1125
168.21792	760.8125
172.53501	1049.7125
176.84895	1457.9125
181.15975	2070.1125
185.46741	2894.4125
189.77193	3979.1125
194.07331	5320.5125
198.37157	6837.2125
202.6667	8426.7125
206.9587	10003.0125
211.24758	11527.3125
215.53334	13104.4125
219.81599	14746.6125
224.09553	16553.5125
228.37195	18585.7125
232.64527	20703.4125
236.91549	22957.7125
241.18261	25182.3125
245.44663	27279.2125
249.70755	29189.0125
253.96539	30794.8125
258.22014	32237.5125
262.4718	33390.2125
266.72039	34160.9125
270.96589	34584.6125
275.20832	34679.5125
279.44768	34527.1125
283.68397	34315.9125
287.91719	34089.6125
292.14735	34031.4125
296.37445	34072.9125
300.59849	34225.7125
304.81948	34382.6125
309.03742	34365.1125
313.25231	34129.0125
317.46415	33501.5125
321.67296	32714.5125
325.87872	31999.8125
330.08145	31574.5125
334.28114	31427.0125
338.47781	31577.9125
342.67145	31884.6125
346.86207	32295.8125
351.04966	32837.3125
355.23424	33319.5125
359.4158	33785.5125
363.59435	34153.7125
367.76989	34371.7125
371.94243	34491.5125
376.11196	34533.3125
380.27849	34601.8125
384.44203	34684.9125
388.60257	34990.5125
392.76012	35444.5125
396.91468	36048.4125
401.06626	36702.9125
405.21485	36998.0125
409.36047	36815.3125
413.50311	36468.0125
417.64277	36409.1125
421.77947	36670.9125
425.9132	36972.9125
430.04396	37121.0125
434.17176	37284.4125
438.2966	37459.3125
442.41849	37982.4125
446.53742	39051.2125
450.6534	40245.2125
454.76644	41073.4125
458.87653	41319.8125
462.98368	41123.5125
467.08789	40583.6125
471.18916	39917.5125
475.2875	39479.0125
479.38291	39361.9125
483.4754	39300.4125
487.56496	38916.8125
491.6516	38095.2125
495.73531	37109.3125
499.81612	36461.4125
503.89401	36487.4125
507.96899	36632.0125
512.04106	36643.7125
516.11023	36245.6125
520.1765	35624.5125
524.23987	34980.8125
528.30034	34450.4125
532.35792	34056.3125
536.41261	33650.9125
540.46441	33316.9125
544.51333	33303.9125
548.55936	33823.2125
552.60252	34706.2125
556.64279	35683.7125
560.6802	36698.2125
564.71473	37442.4125
568.7464	38586.3125
572.7752	40421.8125
576.80114	42538.7125
580.82422	44545.6125
584.84444	46687.3125
588.86181	49475.5125
592.87633	51786.1125
596.888	50906.6125
600.89682	47191.0125
604.9028	44778.7125
608.90594	45464.1125
612.90624	46561.7125
616.90371	43151.2125
620.89834	36986.0125
624.89015	34417.3125
628.87913	34310.3125
632.86528	34691.3125
636.84862	34515.9125
640.82913	33634.7125
644.80683	32731.8125
648.78172	32213.5125
652.75379	32153.3125
656.72306	32484.8125
660.68952	32818.9125
664.65319	32538.5125
668.61405	31966.4125
672.57211	31872.9125
676.52738	32012.9125
680.47986	31973.2125
684.42955	31724.4125
688.37646	31566.5125
692.32058	31840.2125
696.26192	32341.8125
700.20048	32956.4125
704.13626	33373.0125
708.06928	33551.6125
711.99952	33594.0125
715.927	33584.5125
719.85171	33640.9125
723.77365	33299.8125
727.69284	32638.1125
731.60928	32010.7125
735.52295	31752.1125
739.43388	31694.1125
743.34206	31806.3125
747.24749	32116.8125
751.15017	32579.4125
755.05012	33397.3125
758.94733	34572.9125
762.8418	36360.1125
766.73354	38794.7125
770.62254	40620.9125
774.50882	40347.6125
778.39237	38118.0125
782.27321	35550.9125
786.15132	33596.6125
790.02671	32383.4125
793.89938	31674.4125
797.76935	31391.0125
801.6366	31321.6125
805.50115	31280.0125
809.36299	31179.3125
813.22213	30928.6125
817.07857	30775.9125
820.93231	30670.6125
824.78336	30395.1125
828.63172	30106.6125
832.47738	29859.6125
836.32036	29826.9125
840.16066	29882.2125
843.99827	29934.5125
847.8332	29938.8125
851.66546	29917.2125
855.49504	29919.4125
859.32195	29911.6125
863.1462	29759.9125
866.96777	29615.0125
870.78668	29564.3125
874.60293	29532.8125
878.41652	29491.7125
882.22745	29590.8125
886.03573	29654.2125
889.84136	29648.0125
893.64433	29547.2125
897.44466	29479.9125
901.24235	29389.1125
905.0374	29305.6125
908.8298	29314.8125
912.61957	29473.8125
916.40671	29965.8125
920.19121	30688.0125
923.97308	31204.5125
927.75233	31017.7125
931.52895	30399.6125
935.30295	29591.7125
939.07433	28853.9125
942.84309	28354.9125
946.60924	28109.4125
950.37278	28065.6125
954.13371	28082.3125
957.89203	28088.0125
961.64774	28181.8125
965.40086	28206.3125
969.15137	28143.1125
972.89929	27905.4125
976.64461	27652.0125
980.38733	27541.5125
984.12747	27506.7125
987.86502	27654.5125
991.59999	27814.7125
995.33237	28085.3125
999.06217	28565.1125
1002.78939	29294.2125
1006.51404	29952.0125
1010.23611	30602.7125
1013.95561	31049.9125
1017.67255	31124.1125
1021.38692	30673.6125
1025.09872	30005.1125
1028.80796	29594.8125
1032.51465	29571.4125
1036.21877	29762.6125
1039.92035	29938.9125
1043.61937	30081.8125
1047.31584	30046.8125
1051.00976	29951.2125
1054.70114	30085.8125
1058.38998	30356.3125
1062.07627	30769.7125
1065.76003	31283.8125
1069.44126	31910.8125
1073.11995	32530.0125
1076.79611	33004.6125
1080.46974	33165.7125
1084.14085	33359.8125
1087.80943	33759.4125
1091.47549	34272.3125
1095.13903	34515.3125
1098.80005	34080.2125
1102.45857	32905.1125
1106.11456	31963.3125
1109.76805	31481.3125
1113.41903	31407.8125
1117.06751	31559.9125
1120.71348	31890.9125
1124.35696	32243.0125
1127.99793	32670.9125
1131.63641	33015.0125
1135.2724	33157.7125
1138.90589	33245.3125
1142.5369	33617.1125
1146.16542	34156.3125
1149.79145	34881.7125
1153.415	35583.5125
1157.03607	36514.5125
1160.65467	38224.6125
1164.27079	40756.4125
1167.88443	43530.2125
1171.49561	46100.9125
1175.10432	48846.6125
1178.71056	52291.6125
1182.31434	55551.3125
1185.91565	56937.2125
1189.51451	56419.2125
1193.11091	55029.3125
1196.70485	53267.8125
1200.29634	51505.3125
1203.88538	50620.7125
1207.47197	50859.9125
1211.05612	51177.9125
1214.63782	50348.3125
1218.21708	48379.8125
1221.79391	45994.2125
1225.36829	44180.4125
1228.94024	43002.0125
1232.50976	42112.2125
1236.07685	41305.2125
1239.6415	40909.4125
1243.20374	40921.9125
1246.76355	41285.1125
1250.32093	42097.2125
1253.8759	43122.8125
1257.42845	44518.7125
1260.97859	45956.3125
1264.52631	47488.8125
1268.07163	49111.8125
1271.61453	50830.8125
1275.15503	52638.1125
1278.69312	54828.5125
1282.22882	57427.8125
1285.76211	60582.4125
1289.29301	64183.6125
1292.82151	68392.8125
1296.34761	73477.1125
1299.87133	78916.2125
1303.39266	83905.4125
1306.9116	87422.9125
1310.42815	89291.8125
1313.94233	89594.1125
1317.45412	88602.9125
1320.96354	87433.8125
1324.47058	86925.8125
1327.97525	86969.6125
1331.47754	86783.6125
1334.97747	86290.3125
1338.47502	84796.1125
1341.97022	82795.8125
1345.46305	80447.9125
1348.95352	78381.8125
1352.44163	77087.4125
1355.92738	77758.5125
1359.41078	80062.2125
1362.89183	81803.6125
1366.37053	80786.0125
1369.84688	75398.7125
1373.32088	67401.5125
1376.79254	61689.5125
1380.26186	60292.3125
1383.72883	61448.1125
1387.19347	62551.5125
1390.65578	62374.9125
1394.11575	62497.4125
1397.57339	63517.7125
1401.0287	65154.5125
1404.48168	66304.4125
1407.93234	65840.9125
1411.38068	63512.7125
1414.82669	60104.3125
1418.27039	56244.7125
1421.71177	52772.2125
1425.15083	50202.3125
1428.58758	49011.0125
1432.02203	49675.7125
1435.45416	51732.6125
1438.88399	54145.6125
1442.31151	56004.8125
1445.73673	57139.2125
1449.15965	57874.2125
1452.58027	58173.8125
1455.9986	58110.6125
1459.41463	58253.8125
1462.82837	58955.9125
1466.23982	59934.1125
1469.64898	60953.1125
1473.05586	61437.9125
1476.46045	61355.3125
1479.86276	60629.5125
1483.26279	59715.5125
1486.66054	59133.5125
1490.05602	59138.7125
1493.44922	59520.6125
1496.84016	59961.7125
1500.22882	60436.3125
1503.61521	61048.7125
1506.99934	61872.6125
1510.38121	62666.3125
1513.76081	62941.1125
1517.13816	62758.1125
1520.51324	62675.1125
1523.88607	63160.2125
1527.25665	64186.1125
1530.62498	64961.9125
1533.99105	64883.3125
1537.35488	63663.0125
1540.71647	61393.0125
1544.07581	58681.5125
1547.4329	56040.5125
1550.78776	53863.6125
1554.14038	52391.4125
1557.49077	51486.6125
1560.83892	50969.9125
1564.18484	50578.0125
1567.52853	50594.9125
1570.86999	51309.3125
1574.20922	52948.3125
1577.54624	54797.8125
1580.88103	56252.5125
1584.2136	58029.8125
1587.54395	61147.2125
1590.87208	65251.5125
1594.19801	69580.3125
1597.52172	72721.3125
1600.84321	72342.2125
1604.16251	67318.5125
1607.47959	60039.6125
1610.79447	53216.9125
1614.10715	47570.0125
1617.41763	43291.3125
1620.7259	40560.6125
1624.03199	39384.9125
1627.33587	39671.6125
1630.63757	41586.5125
1633.93707	45614.4125
1637.23439	52140.6125
1640.52951	61520.0125
1643.82246	72539.1125
1647.11321	81039.0125
1650.40179	81866.5125
1653.68819	73992.1125
1656.97241	61666.5125
1660.25446	50131.0125
1663.53433	41631.0125
1666.81203	36205.4125
1670.08756	32904.4125
1673.36092	30784.2125
1676.63211	29484.9125
1679.90115	28503.5125
1683.16801	27853.3125
1686.43272	27359.5125
1689.69527	26938.0125
1692.95567	26671.6125
1696.2139	26413.3125
1699.46999	26272.0125
1702.72392	26101.6125
1705.97571	25945.7125
1709.22535	25835.7125
1712.47284	25761.2125
1715.71819	25726.8125
1718.96139	25573.9125
1722.20246	25481.0125
1725.44139	25312.3125
1728.67818	25114.5125
1731.91284	24885.9125
1735.14537	24715.7125
1738.37576	24538.7125
1741.60403	24428.2125
1744.83017	24321.2125
1748.05418	24217.5125
1751.27607	24132.1125
1754.49584	24104.0125
1757.71349	24103.0125
1760.92903	24058.2125
1764.14244	24008.0125
1767.35375	23976.9125
1770.56294	23915.9125
1773.77002	23839.8125
1776.97499	23745.0125
1780.17785	23656.6125
1783.37861	23599.3125
1786.57727	23566.0125
1789.77382	23533.0125
1792.96828	23473.4125
1796.16064	23404.2125
1799.3509	23311.0125
1802.53907	23279.7125
1805.72514	23185.6125
1808.90913	23098.1125
1812.09102	23020.4125
1815.27083	22978.8125
1818.44856	22955.8125
1821.6242	22916.7125
1824.79776	22877.1125
1827.96924	22860.6125
1831.13864	22852.3125
1834.30597	22860.8125
1837.47122	22864.5125
1840.6344	22844.9125
1843.7955	22823.2125
1846.95454	22868.4125
1850.11151	22849.9125
1853.26642	22782.1125
1856.41926	22770.7125
1859.57004	22724.3125
1862.71876	22714.2125
1865.86542	22676.6125
1869.01003	22599.3125
1872.15258	22528.4125
1875.29308	22533.5125
1878.43152	22466.0125
1881.56792	22457.0125
1884.70227	22409.1125
1887.83457	22357.4125
1890.96482	22353.4125
1894.09304	22297.4125
1897.21921	22295.1125
1900.34335	22282.4125
1903.46544	22273.0125
1906.58551	22227.0125
1909.70353	22160.4125
1912.81953	22073.3125
1915.93349	22034.3125
1919.04543	21985.6125
1922.15534	21920.6125
1925.26322	21847.3125
1928.36908	21788.4125
1931.47292	21741.4125
1934.57473	21657.3125
1937.67453	21580.9125
1940.77232	21522.3125
1943.86808	21468.6125
1946.96184	21405.0125
1950.05358	21376.4125
1953.14331	21325.0125
1956.23103	21255.9125
1959.31675	21142.3125
1962.40046	21091.7125
1965.48217	21031.3125
1968.56188	20907.7125
1971.63959	20856.8125
1974.7153	20770.3125
1977.78901	20719.8125
1980.86073	20664.5125
1983.93046	20560.3125
1986.99819	20494.7125
1990.06394	20452.5125
1993.1277	20448.2125
1996.18947	20358.6125
1999.24925	20273.0125
2002.30706	20211.7125
2005.36288	20112.4125
2008.41672	20088.3125
2011.46859	19983.8125
2014.51848	19948.5125
2017.56639	19902.5125
2020.61233	19835.6125
2023.6563	19813.2125
2026.6983	19726.8125
2029.73833	19665.3125
2032.7764	19637.8125
2035.8125	19558.6125
2038.84664	19528.7125
2041.87881	19496.2125
2044.90903	19504.2125
2047.93729	19416.0125
2050.96359	19409.4125
2053.98794	19392.6125
2057.01034	19373.1125
2060.03078	19372.2125
2063.04927	19314.5125
2066.06582	19297.6125
2069.08042	19327.2125
2072.09307	19283.3125
2075.10378	19245.6125
2078.11255	19240.6125
2081.11938	19213.7125
2084.12426	19197.0125
2087.12722	19212.9125
2090.12824	19204.0125
2093.12732	19144.7125
2096.12447	19176.1125
2099.11969	19156.7125
2102.11299	19167.9125
2105.10435	19159.9125
2108.09379	19170.7125
2111.08131	19164.5125
2114.0669	19148.7125
2117.05057	19198.1125
2120.03233	19181.1125
2123.01216	19199.2125
2125.99008	19190.5125
2128.96609	19195.5125
2131.94018	19169.8125
2134.91236	19205.3125
2137.88263	19199.7125
2140.851	19185.0125
2143.81746	19174.4125
2146.78201	19150.4125
2149.74466	19144.5125
2152.7054	19084.7125
2155.66425	19073.7125
2158.6212	19087.8125
2161.57625	19089.5125
2164.52941	19096.7125
2167.48067	19053.4125
2170.43004	19040.6125
2173.37752	19005.2125
2176.32311	19038.3125
2179.26681	18996.4125
2182.20863	19014.6125
2185.14856	19050.8125
2188.08661	19016.4125
2191.02278	19039.8125
2193.95707	19035.4125
2196.88948	18992.0125
2199.82001	18962.3125
2202.74867	18883.6125
2205.67545	18880.7125
2208.60037	18881.4125
2211.52341	18809.5125
2214.44458	18798.2125
2217.36388	18743.1125
2220.28132	18687.8125
2223.1969	18703.4125
2226.11061	18659.4125
2229.02246	18589.8125
2231.93245	18618.7125
2234.84058	18563.8125
2237.74686	18567.5125
2240.65128	18543.1125
2243.55385	18506.9125
2246.45456	18483.5125
2249.35343	18407.0125
2252.25044	18359.4125
2255.14561	18287.9125
2258.03893	18261.0125
2260.93041	18189.7125
2263.82004	18100.1125
2266.70783	18050.7125
2269.59378	18019.4125
2272.4779	17994.8125
2275.36017	17921.0125
2278.24061	17891.0125
2281.11922	17856.9125
2283.996	17808.7125
2286.87094	17801.8125
2289.74405	17781.8125
2292.61534	17753.8125
2295.4848	17726.2125
2298.35243	17730.0125
2301.21824	17722.5125
2304.08223	17743.4125
2306.94439	17721.7125
2309.80474	17716.6125
2312.66327	17721.8125
2315.51999	17678.5125
2318.37489	17649.1125
2321.22797	17613.2125
2324.07925	17580.6125
2326.92871	17563.8125
2329.77637	17542.7125
2332.62222	17499.0125
2335.46626	17509.2125
2338.3085	17501.7125
2341.14893	17499.0125
2343.98756	17522.2125
2346.8244	17505.4125
2349.65943	17477.8125
2352.49267	17470.3125
2355.32411	17493.0125
2358.15376	17491.1125
2360.98161	17465.6125
2363.80768	17470.3125
2366.63195	17445.8125
2369.45444	17437.6125
2372.27514	17405.3125
2375.09405	17375.0125
2377.91118	17307.6125
2380.72652	17275.5125
2383.54009	17223.0125
2386.35187	17248.8125
2389.16188	17198.1125
2391.97011	17150.8125
2394.77657	17124.2125
2397.58125	17095.6125
2400.38416	17063.1125
2403.18529	17028.4125
2405.98466	17044.4125
2408.78226	17023.3125
2411.57809	17005.3125
2414.37216	17015.6125
2417.16446	16989.9125
2419.955	16957.6125
2422.74378	16905.1125
2425.5308	16869.6125
2428.31606	16877.6125
2431.09956	16909.0125
2433.88131	16862.3125
2436.6613	16864.1125
2439.43954	16807.0125
2442.21603	16849.0125
2444.99077	16814.3125
2447.76377	16825.6125
2450.53501	16804.7125
2453.30451	16837.1125
2456.07226	16796.4125
2458.83827	16836.6125
2461.60254	16792.3125
2464.36507	16783.2125
2467.12586	16762.4125
2469.88492	16773.2125
2472.64224	16809.5125
2475.39782	16837.1125
2478.15167	16852.3125
2480.90379	16824.8125
2483.65417	16811.4125
2486.40283	16803.3125
2489.14976	16839.8125
2491.89497	16826.4125
2494.63845	16842.2125
2497.3802	16824.3125
2500.12024	16808.2125
2502.85855	16814.4125
2505.59514	16798.4125
2508.33002	16804.7125
2511.06318	16785.3125
2513.79462	16761.1125
2516.52435	16736.9125
2519.25237	16741.3125
2521.97867	16718.4125
2524.70327	16713.2125
2527.42616	16707.2125
2530.14734	16749.4125
2532.86681	16715.0125
2535.58458	16719.0125
2538.30065	16730.7125
2541.01501	16688.2125
2543.72768	16695.3125
2546.43864	16670.7125
2549.14791	16645.1125
2551.85548	16659.6125
2554.56136	16639.1125
2557.26554	16604.1125
2559.96803	16627.3125
2562.66883	16604.9125
2565.36794	16530.8125
2568.06536	16560.5125
2570.7611	16540.7125
2573.45514	16558.2125
2576.14751	16526.7125
2578.83819	16513.5125
2581.52719	16497.9125
2584.21451	16538.3125
2586.90015	16507.1125
2589.58411	16477.6125
2592.2664	16528.6125
2594.94701	16475.6125
2597.62594	16537.7125
2600.30321	16486.8125
2602.9788	16462.8125
2605.65273	16476.6125
2608.32498	16499.1125
2610.99557	16521.3125
2613.66449	16557.0125
2616.33175	16514.1125
2618.99734	16498.1125
2621.66128	16487.8125
2624.32355	16475.7125
2626.98416	16427.4125
2629.64311	16448.2125
2632.30041	16470.1125
2634.95605	16446.1125
2637.61004	16434.5125
2640.26238	16430.2125
2642.91306	16426.1125
2645.56209	16413.5125
2648.20948	16425.3125
2650.85521	16457.7125
2653.4993	16450.5125
2656.14175	16495.1125
2658.78255	16487.5125
2661.42171	16537.7125
2664.05923	16526.4125
2666.6951	16517.6125
2669.32934	16556.7125
2671.96194	16537.0125
2674.59291	16557.7125
2677.22224	16609.8125
2679.84993	16560.1125
2682.476	16526.8125
2685.10043	16543.9125
2687.72324	16514.7125
2690.34441	16513.3125
2692.96396	16496.8125
2695.58188	16502.6125
2698.19818	16519.8125
2700.81285	16540.4125
2703.4259	16558.1125
2706.03733	16604.8125
2708.64714	16555.5125
2711.25533	16577.1125
2713.86191	16527.3125
2716.46687	16606.8125
2719.07021	16580.6125
2721.67194	16603.8125
2724.27206	16628.3125
2726.87057	16679.4125
2729.46747	16677.3125
2732.06276	16702.0125
2734.65644	16695.6125
2737.24852	16691.9125
2739.83899	16649.8125
2742.42786	16691.0125
2745.01513	16670.0125
2747.60079	16667.6125
2750.18486	16682.6125
2752.76733	16618.6125
2755.3482	16629.1125
2757.92747	16656.0125
2760.50515	16642.4125
2763.08123	16650.7125
2765.65573	16670.0125
2768.22863	16638.6125
2770.79994	16608.8125
2773.36967	16638.9125
2775.9378	16633.8125
2778.50435	16630.5125
2781.06932	16641.9125
2783.6327	16624.7125
2786.1945	16657.6125
2788.75471	16638.2125
2791.31335	16591.6125
2793.87041	16588.3125
2796.42589	16560.7125
2798.97979	16567.8125
2801.53212	16543.8125
2804.08288	16496.4125
2806.63206	16463.1125
2809.17967	16426.8125
2811.72571	16384.1125
2814.27018	16349.8125
2816.81308	16347.2125
2819.35442	16315.6125
2821.89419	16288.1125
2824.43239	16306.9125
2826.96904	16272.1125
2829.50412	16269.3125
2832.03763	16236.4125
2834.56959	16237.5125
2837.1	16202.3125
2839.62884	16190.5125
2842.15613	16215.4125
2844.68186	16247.0125
2847.20604	16236.4125
2849.72867	16246.9125
2852.24974	16242.7125
2854.76927	16269.5125
2857.28724	16225.1125
2859.80367	16224.7125
2862.31855	16191.4125
2864.83189	16159.2125
2867.34368	16130.0125
2869.85393	16106.8125
2872.36264	16065.4125
2874.8698	16024.1125
2877.37543	16005.4125
2879.87952	15999.0125
2882.38207	16035.0125
2884.88308	16038.6125
2887.38256	16010.5125
2889.88051	16010.0125
2892.37692	16035.2125
2894.8718	16058.2125
2897.36515	16048.4125
2899.85698	16096.2125
2902.34727	16119.0125
2904.83604	16109.9125
2907.32328	16160.6125
2909.809	16131.4125
2912.29319	16136.4125
2914.77587	16135.7125
2917.25702	16136.0125
2919.73665	16153.5125
2922.21476	16161.9125
2924.69136	16127.4125
2927.16644	16157.6125
2929.64	16080.9125
2932.11205	16083.7125
2934.58258	16047.9125
2937.05161	16061.1125
2939.51912	16070.6125
2941.98513	16018.4125
2944.44962	15997.8125
2946.91261	15911.6125
2949.37409	15938.3125
2951.83407	15905.7125
2954.29254	15878.9125
2956.74951	15876.3125
2959.20498	15874.6125
2961.65895	15831.7125
2964.11142	15823.7125
2966.56239	15808.8125
2969.01186	15796.4125
2971.45984	15757.9125
2973.90632	15765.0125
2976.35131	15717.3125
2978.7948	15671.9125
2981.23681	15592.6125
2983.67732	15584.9125
2986.11635	15518.4125
2988.55388	15498.6125
2990.98993	15444.6125
2993.4245	15383.1125
2995.85758	15313.4125
2998.28917	15287.9125
3000.71928	15293.3125
3003.14791	15217.1125
3005.57506	15210.0125
3008.00073	15146.9125
3010.42493	15027.9125
3012.84764	15079.1125
3015.26888	15058.9125
3017.68865	15035.3125
3020.10694	14980.9125
3022.52376	14968.4125
