Data from AgNPs_FTO_APTES_UA_5uM_CRN_200uM_R6G_10uM_NaF_0.1M_Addition_RamanShift__9__16-10-21-772.txt Node

Date: Mon Feb 07 16:10:21 GMT 2022
User: TCL
Spectrometer: QEP01345
Trigger mode: 4
Integration Time (sec): 7.000000E0
Scans to average: 10
Electric dark correction enabled: true
Nonlinearity correction enabled: false
Boxcar width: 0
XAxis mode: Raman Shifts
Number of Pixels in Spectrum: 1044
>>>>>Begin Spectral Data<<<<<
46.04893	-2.025
50.45542	-0.325
54.85868	0.275
59.25871	-1.525
63.6555	75.875
68.04907	78.275
72.43941	81.175
76.82654	82.475
81.21044	86.375
85.59113	84.075
89.96862	90.875
94.34289	97.875
98.71396	100.975
103.08183	102.775
107.4465	108.775
111.80798	109.875
116.16626	111.875
120.52136	122.175
124.87327	124.975
129.222	133.075
133.56755	139.575
137.90993	152.275
142.24913	170.975
146.58517	196.975
150.91804	231.875
155.24774	283.475
159.57429	356.775
163.89768	460.375
168.21792	615.375
172.53501	843.475
176.84895	1176.275
181.15975	1665.075
185.46741	2334.675
189.77193	3228.075
194.07331	4323.575
198.37157	5577.275
202.6667	6895.475
206.9587	8205.375
211.24758	9458.575
215.53334	10739.775
219.81599	12090.575
224.09553	13562.475
228.37195	15206.775
232.64527	16996.875
236.91549	18804.275
241.18261	20686.475
245.44663	22443.675
249.70755	24022.875
253.96539	25421.775
258.22014	26552.575
262.4718	27480.875
266.72039	28194.675
270.96589	28639.775
275.20832	28782.275
279.44768	28814.875
283.68397	28726.375
287.91719	28665.375
292.14735	28803.175
296.37445	29022.175
300.59849	29274.475
304.81948	29460.875
309.03742	29340.475
313.25231	28900.075
317.46415	28150.975
321.67296	27183.275
325.87872	26346.475
330.08145	25860.175
334.28114	25782.075
338.47781	25929.075
342.67145	26140.575
346.86207	26434.475
351.04966	26757.675
355.23424	27032.475
359.4158	27308.175
363.59435	27472.075
367.76989	27621.875
371.94243	27732.175
376.11196	27784.175
380.27849	27806.275
384.44203	27894.675
388.60257	28133.375
392.76012	28462.775
396.91468	28824.675
401.06626	29351.375
405.21485	29591.775
409.36047	29418.775
413.50311	28941.975
417.64277	28658.575
421.77947	28507.275
425.9132	28587.575
430.04396	28741.175
434.17176	28852.175
438.2966	29138.075
442.41849	29537.075
446.53742	30259.275
450.6534	31037.075
454.76644	31636.675
458.87653	31963.575
462.98368	32087.975
467.08789	32037.575
471.18916	31972.275
475.2875	31987.175
479.38291	32110.875
483.4754	32024.775
487.56496	31469.575
491.6516	30642.575
495.73531	29797.975
499.81612	29328.775
503.89401	29253.575
507.96899	29381.675
512.04106	29440.375
516.11023	29323.175
520.1765	29049.975
524.23987	28722.975
528.30034	28320.175
532.35792	28015.775
536.41261	27738.375
540.46441	27548.675
544.51333	27696.575
548.55936	28124.075
552.60252	28889.375
556.64279	29700.075
560.6802	30375.675
564.71473	30854.275
568.7464	31744.775
572.7752	33017.575
576.80114	34261.375
580.82422	35069.375
584.84444	35373.475
588.86181	35651.775
592.87633	35777.375
596.888	35262.475
600.89682	34414.775
604.9028	34289.975
608.90594	35531.775
612.90624	37064.275
616.90371	34781.375
620.89834	29910.475
624.89015	27817.975
628.87913	27655.075
632.86528	28010.775
636.84862	28121.675
640.82913	27832.475
644.80683	27219.775
648.78172	26722.175
652.75379	26552.475
656.72306	26675.875
660.68952	27052.575
664.65319	26903.775
668.61405	26597.775
672.57211	26493.475
676.52738	26545.875
680.47986	26600.775
684.42955	26536.975
688.37646	26445.275
692.32058	26515.075
696.26192	26677.975
700.20048	26920.475
704.13626	27153.475
708.06928	27352.575
711.99952	27355.975
715.927	27262.175
719.85171	27154.175
723.77365	26952.475
727.69284	26629.875
731.60928	26312.975
735.52295	26149.675
739.43388	26094.075
743.34206	26067.275
747.24749	26185.875
751.15017	26539.875
755.05012	27096.575
758.94733	27964.475
762.8418	29461.275
766.73354	31610.375
770.62254	33458.075
774.50882	33557.675
778.39237	31892.775
782.27321	29678.275
786.15132	27855.075
790.02671	26746.275
793.89938	26106.675
797.76935	25822.175
801.6366	25742.075
805.50115	25630.475
809.36299	25534.175
813.22213	25432.375
817.07857	25489.575
820.93231	25521.575
824.78336	25359.375
828.63172	25184.875
832.47738	25043.775
836.32036	24958.075
840.16066	24883.975
843.99827	24849.075
847.8332	24865.375
851.66546	24855.975
855.49504	24878.275
859.32195	24860.775
863.1462	24802.175
866.96777	24762.075
870.78668	24659.975
874.60293	24659.475
878.41652	24642.675
882.22745	24697.575
886.03573	24708.375
889.84136	24753.375
893.64433	24697.675
897.44466	24642.975
901.24235	24577.575
905.0374	24566.275
908.8298	24508.775
912.61957	24686.575
916.40671	25061.775
920.19121	25492.675
923.97308	25687.875
927.75233	25437.975
931.52895	25006.175
935.30295	24587.275
939.07433	24125.675
942.84309	23768.975
946.60924	23483.475
950.37278	23308.975
954.13371	23371.875
957.89203	23348.675
961.64774	23398.975
965.40086	23387.875
969.15137	23279.475
972.89929	23086.975
976.64461	22941.475
980.38733	22817.975
984.12747	22813.075
987.86502	22900.375
991.59999	22948.975
995.33237	23035.875
999.06217	23252.875
1002.78939	23518.975
1006.51404	23797.975
1010.23611	24124.675
1013.95561	24420.475
1017.67255	24490.975
1021.38692	24421.975
1025.09872	24102.975
1028.80796	23846.675
1032.51465	23742.275
1036.21877	23784.675
1039.92035	23845.475
1043.61937	24032.775
1047.31584	24189.975
1051.00976	24351.975
1054.70114	24508.675
1058.38998	24819.975
1062.07627	25278.775
1065.76003	25746.075
1069.44126	26088.575
1073.11995	26392.575
1076.79611	26636.075
1080.46974	26691.375
1084.14085	26678.575
1087.80943	26864.475
1091.47549	27057.075
1095.13903	27236.775
1098.80005	27010.275
1102.45857	26375.575
1106.11456	25788.775
1109.76805	25374.875
1113.41903	25316.575
1117.06751	25501.975
1120.71348	25775.575
1124.35696	26172.075
1127.99793	26615.075
1131.63641	26875.975
1135.2724	26720.475
1138.90589	26546.975
1142.5369	26628.875
1146.16542	26917.475
1149.79145	27345.075
1153.415	27879.775
1157.03607	28432.975
1160.65467	29353.375
1164.27079	30575.275
1167.88443	32193.075
1171.49561	34001.275
1175.10432	36212.075
1178.71056	38919.975
1182.31434	41275.875
1185.91565	42650.775
1189.51451	42945.175
1193.11091	42412.975
1196.70485	41139.075
1200.29634	39505.175
1203.88538	38354.075
1207.47197	37660.175
1211.05612	37327.575
1214.63782	36656.175
1218.21708	35441.775
1221.79391	33883.575
1225.36829	32693.575
1228.94024	31960.975
1232.50976	31452.675
1236.07685	31167.275
1239.6415	31044.575
1243.20374	31122.175
1246.76355	31457.375
1250.32093	31831.675
1253.8759	32374.675
1257.42845	33137.575
1260.97859	34084.175
1264.52631	35021.275
1268.07163	35921.575
1271.61453	36813.175
1275.15503	37897.975
1278.69312	39097.775
1282.22882	40415.575
1285.76211	42006.675
1289.29301	44036.075
1292.82151	46584.175
1296.34761	49522.175
1299.87133	52587.975
1303.39266	55182.875
1306.9116	57172.075
1310.42815	58517.475
1313.94233	59180.275
1317.45412	59153.375
1320.96354	59063.375
1324.47058	59138.475
1327.97525	59057.375
1331.47754	58987.075
1334.97747	58845.275
1338.47502	58526.975
1341.97022	58172.775
1345.46305	57850.475
1348.95352	57203.475
1352.44163	56249.375
1355.92738	55612.075
1359.41078	55822.175
1362.89183	56313.475
1366.37053	54988.975
1369.84688	51215.275
1373.32088	46830.675
1376.79254	43956.675
1380.26186	43068.575
1383.72883	43498.475
1387.19347	44058.975
1390.65578	44291.275
1394.11575	44271.675
1397.57339	44397.875
1401.0287	44478.475
1404.48168	44278.375
1407.93234	43517.875
1411.38068	41912.575
1414.82669	39754.875
1418.27039	37530.075
1421.71177	35612.975
1425.15083	34159.975
1428.58758	33475.875
1432.02203	33675.075
1435.45416	34556.475
1438.88399	35658.375
1442.31151	36648.275
1445.73673	37416.675
1449.15965	38140.875
1452.58027	38953.275
1455.9986	39591.575
1459.41463	39980.475
1462.82837	40394.175
1466.23982	40703.175
1469.64898	41018.275
1473.05586	41101.775
1476.46045	40869.775
1479.86276	40409.675
1483.26279	39891.075
1486.66054	39621.775
1490.05602	39824.675
1493.44922	40333.575
1496.84016	41225.575
1500.22882	42646.475
1503.61521	44602.675
1506.99934	46720.875
1510.38121	48276.075
1513.76081	48794.675
1517.13816	48079.475
1520.51324	46936.475
1523.88607	46223.475
1527.25665	46052.275
1530.62498	46006.075
1533.99105	45722.875
1537.35488	44972.075
1540.71647	43672.675
1544.07581	42035.775
1547.4329	40410.575
1550.78776	39117.375
1554.14038	38301.775
1557.49077	37854.975
1560.83892	37650.275
1564.18484	37737.675
1567.52853	38008.175
1570.86999	38563.075
1574.20922	39675.175
1577.54624	40820.675
1580.88103	41345.375
1584.2136	41722.375
1587.54395	42342.875
1590.87208	43405.575
1594.19801	44633.875
1597.52172	45808.775
1600.84321	45588.175
1604.16251	43419.575
1607.47959	40406.475
1610.79447	37329.675
1614.10715	34435.375
1617.41763	31933.675
1620.7259	30104.575
1624.03199	29065.575
1627.33587	28982.275
1630.63757	29771.075
1633.93707	31640.275
1637.23439	34886.475
1640.52951	39556.475
1643.82246	45014.675
1647.11321	49552.875
1650.40179	50848.175
1653.68819	47998.875
1656.97241	42153.275
1660.25446	35887.875
1663.53433	30742.775
1666.81203	27160.475
1670.08756	24874.875
1673.36092	23434.175
1676.63211	22473.975
1679.90115	21856.475
1683.16801	21359.975
1686.43272	20997.975
1689.69527	20699.675
1692.95567	20487.775
1696.2139	20376.175
1699.46999	20237.975
1702.72392	20082.675
1705.97571	20001.075
1709.22535	19909.775
1712.47284	19853.675
1715.71819	19853.775
1718.96139	19705.175
1722.20246	19608.575
1725.44139	19491.475
1728.67818	19376.275
1731.91284	19287.875
1735.14537	19104.575
1738.37576	19015.275
1741.60403	18929.675
1744.83017	18824.475
1748.05418	18792.975
1751.27607	18766.375
1754.49584	18734.475
1757.71349	18691.475
1760.92903	18657.475
1764.14244	18655.575
1767.35375	18603.975
1770.56294	18540.575
1773.77002	18469.975
1776.97499	18397.275
1780.17785	18367.375
1783.37861	18296.475
1786.57727	18274.775
1789.77382	18210.275
1792.96828	18160.175
1796.16064	18161.275
1799.3509	18059.175
1802.53907	18004.475
1805.72514	17963.375
1808.90913	17903.075
1812.09102	17848.875
1815.27083	17749.575
1818.44856	17745.775
1821.6242	17674.175
1824.79776	17675.075
1827.96924	17635.575
1831.13864	17603.475
1834.30597	17595.475
1837.47122	17552.475
1840.6344	17513.475
1843.7955	17508.475
1846.95454	17486.075
1850.11151	17460.075
1853.26642	17411.575
1856.41926	17417.375
1859.57004	17365.675
1862.71876	17337.675
1865.86542	17327.575
1869.01003	17332.375
1872.15258	17258.975
1875.29308	17271.075
1878.43152	17211.175
1881.56792	17188.375
1884.70227	17127.975
1887.83457	17099.075
1890.96482	17020.275
1894.09304	17014.075
1897.21921	16985.875
1900.34335	16928.475
1903.46544	16889.475
1906.58551	16876.375
1909.70353	16869.975
1912.81953	16823.875
1915.93349	16800.575
1919.04543	16755.475
1922.15534	16713.975
1925.26322	16679.575
1928.36908	16612.975
1931.47292	16607.475
1934.57473	16570.275
1937.67453	16543.875
1940.77232	16464.175
1943.86808	16382.775
1946.96184	16311.975
1950.05358	16268.575
1953.14331	16199.975
1956.23103	16142.975
1959.31675	16105.375
1962.40046	16053.575
1965.48217	15997.475
1968.56188	15927.775
1971.63959	15832.675
1974.7153	15820.775
1977.78901	15769.875
1980.86073	15682.675
1983.93046	15668.675
1986.99819	15585.075
1990.06394	15527.475
1993.1277	15484.375
1996.18947	15429.675
1999.24925	15340.675
2002.30706	15337.175
2005.36288	15270.175
2008.41672	15217.075
2011.46859	15169.575
2014.51848	15094.875
2017.56639	15071.475
2020.61233	14993.575
2023.6563	14933.575
2026.6983	14903.475
2029.73833	14888.675
2032.7764	14819.275
2035.8125	14752.275
2038.84664	14741.175
2041.87881	14728.375
2044.90903	14681.775
2047.93729	14635.575
2050.96359	14586.075
2053.98794	14603.975
2057.01034	14572.175
2060.03078	14572.075
2063.04927	14575.075
2066.06582	14534.775
2069.08042	14532.175
2072.09307	14525.675
2075.10378	14470.375
2078.11255	14435.775
2081.11938	14465.375
2084.12426	14438.675
2087.12722	14406.675
2090.12824	14391.975
2093.12732	14394.875
2096.12447	14392.975
2099.11969	14375.675
2102.11299	14366.975
2105.10435	14359.275
2108.09379	14343.875
2111.08131	14367.775
2114.0669	14375.975
2117.05057	14358.575
2120.03233	14382.675
2123.01216	14370.975
2125.99008	14402.475
2128.96609	14353.875
2131.94018	14342.875
2134.91236	14370.975
2137.88263	14360.775
2140.851	14355.075
2143.81746	14355.475
2146.78201	14346.075
2149.74466	14319.975
2152.7054	14327.875
2155.66425	14304.175
2158.6212	14289.375
2161.57625	14239.675
2164.52941	14229.975
2167.48067	14241.975
2170.43004	14234.575
2173.37752	14241.275
2176.32311	14205.475
2179.26681	14219.275
2182.20863	14189.975
2185.14856	14207.875
2188.08661	14195.275
2191.02278	14179.275
2193.95707	14146.875
2196.88948	14096.575
2199.82001	14051.475
2202.74867	14048.375
2205.67545	14037.475
2208.60037	14019.175
2211.52341	13986.275
2214.44458	13951.975
2217.36388	13914.875
2220.28132	13878.775
2223.1969	13824.875
2226.11061	13828.375
2229.02246	13811.875
2231.93245	13788.575
2234.84058	13721.775
2237.74686	13702.475
2240.65128	13685.875
2243.55385	13646.675
2246.45456	13649.875
2249.35343	13628.475
2252.25044	13591.175
2255.14561	13544.775
2258.03893	13477.075
2260.93041	13445.375
2263.82004	13405.375
2266.70783	13364.175
2269.59378	13316.975
2272.4779	13291.475
2275.36017	13237.675
2278.24061	13210.475
2281.11922	13176.675
2283.996	13149.575
2286.87094	13134.475
2289.74405	13111.075
2292.61534	13069.975
2295.4848	13068.975
2298.35243	13032.175
2301.21824	13047.975
2304.08223	13079.375
2306.94439	13060.875
2309.80474	13022.975
2312.66327	13014.275
2315.51999	12967.875
2318.37489	12956.175
2321.22797	12927.475
2324.07925	12891.975
2326.92871	12898.775
2329.77637	12865.875
2332.62222	12859.875
2335.46626	12826.875
2338.3085	12795.775
2341.14893	12805.375
2343.98756	12790.375
2346.8244	12767.575
2349.65943	12766.175
2352.49267	12758.975
2355.32411	12759.475
2358.15376	12730.175
2360.98161	12758.175
2363.80768	12762.175
2366.63195	12738.275
2369.45444	12746.075
2372.27514	12710.775
2375.09405	12655.875
2377.91118	12653.775
2380.72652	12625.075
2383.54009	12585.275
2386.35187	12561.775
2389.16188	12508.075
2391.97011	12450.175
2394.77657	12440.175
2397.58125	12397.075
2400.38416	12367.275
2403.18529	12336.175
2405.98466	12336.775
2408.78226	12333.375
2411.57809	12315.275
2414.37216	12308.875
2417.16446	12305.075
2419.955	12273.475
2422.74378	12287.475
2425.5308	12228.475
2428.31606	12225.375
2431.09956	12208.975
2433.88131	12178.675
2436.6613	12212.675
2439.43954	12217.275
2442.21603	12195.675
2444.99077	12153.175
2447.76377	12154.275
2450.53501	12133.475
2453.30451	12147.575
2456.07226	12124.775
2458.83827	12101.975
2461.60254	12054.475
2464.36507	12074.575
2467.12586	12064.075
2469.88492	12056.575
2472.64224	12054.975
2475.39782	12060.875
2478.15167	12045.275
2480.90379	12004.075
2483.65417	12034.775
2486.40283	12026.175
2489.14976	12040.675
2491.89497	12043.375
2494.63845	12052.175
2497.3802	12058.575
2500.12024	12018.575
2502.85855	12016.175
2505.59514	11983.575
2508.33002	11973.775
2511.06318	11951.075
2513.79462	11977.875
2516.52435	11947.375
2519.25237	11924.975
2521.97867	11872.675
2524.70327	11875.375
2527.42616	11838.875
2530.14734	11851.075
2532.86681	11859.375
2535.58458	11850.775
2538.30065	11830.075
2541.01501	11818.575
2543.72768	11778.975
2546.43864	11766.675
2549.14791	11743.975
2551.85548	11719.975
2554.56136	11720.575
2557.26554	11693.775
2559.96803	11686.175
2562.66883	11636.575
2565.36794	11619.575
2568.06536	11624.175
2570.7611	11611.575
2573.45514	11583.475
2576.14751	11574.575
2578.83819	11567.775
2581.52719	11567.175
2584.21451	11521.075
2586.90015	11531.975
2589.58411	11521.675
2592.2664	11502.375
2594.94701	11483.875
2597.62594	11465.875
2600.30321	11456.275
2602.9788	11437.375
2605.65273	11430.875
2608.32498	11456.675
2610.99557	11429.575
2613.66449	11451.475
2616.33175	11418.575
2618.99734	11428.175
2621.66128	11394.175
2624.32355	11390.875
2626.98416	11379.075
2629.64311	11340.175
2632.30041	11320.375
2634.95605	11316.875
2637.61004	11304.475
2640.26238	11328.075
2642.91306	11291.075
2645.56209	11283.275
2648.20948	11294.375
2650.85521	11299.975
2653.4993	11296.275
2656.14175	11299.875
2658.78255	11320.875
2661.42171	11270.075
2664.05923	11266.775
2666.6951	11260.675
2669.32934	11321.275
2671.96194	11299.175
2674.59291	11293.975
2677.22224	11291.775
2679.84993	11266.875
2682.476	11256.075
2685.10043	11293.775
2687.72324	11246.075
2690.34441	11238.275
2692.96396	11234.875
2695.58188	11264.275
2698.19818	11253.275
2700.81285	11241.375
2703.4259	11252.475
2706.03733	11256.575
2708.64714	11242.875
2711.25533	11219.275
2713.86191	11254.475
2716.46687	11272.675
2719.07021	11265.575
2721.67194	11273.875
2724.27206	11270.675
2726.87057	11292.875
2729.46747	11286.275
2732.06276	11279.475
2734.65644	11256.175
2737.24852	11245.275
2739.83899	11250.375
2742.42786	11281.175
2745.01513	11218.475
2747.60079	11210.675
2750.18486	11191.275
2752.76733	11170.275
2755.3482	11169.675
2757.92747	11175.675
2760.50515	11126.775
2763.08123	11157.275
2765.65573	11138.475
2768.22863	11103.075
2770.79994	11118.475
2773.36967	11127.775
2775.9378	11135.075
2778.50435	11117.975
2781.06932	11113.075
2783.6327	11090.975
2786.1945	11084.875
2788.75471	11068.875
2791.31335	11069.475
2793.87041	11064.575
2796.42589	11042.675
2798.97979	11059.475
2801.53212	10989.575
2804.08288	10947.175
2806.63206	10966.775
2809.17967	10949.475
2811.72571	10933.875
2814.27018	10915.975
2816.81308	10853.875
2819.35442	10852.075
2821.89419	10793.475
2824.43239	10822.675
2826.96904	10816.275
2829.50412	10787.075
2832.03763	10742.575
2834.56959	10756.075
2837.1	10745.875
2839.62884	10799.275
2842.15613	10826.375
2844.68186	10875.475
2847.20604	10887.275
2849.72867	10896.475
2852.24974	10904.975
2854.76927	10899.475
2857.28724	10884.375
2859.80367	10836.475
2862.31855	10814.875
2864.83189	10783.475
2867.34368	10767.575
2869.85393	10754.975
2872.36264	10743.775
2874.8698	10763.075
2877.37543	10737.075
2879.87952	10703.575
2882.38207	10715.375
2884.88308	10717.875
2887.38256	10678.775
2889.88051	10685.075
2892.37692	10680.975
2894.8718	10678.875
2897.36515	10696.975
2899.85698	10707.075
2902.34727	10714.575
2904.83604	10733.775
2907.32328	10775.075
2909.809	10754.475
2912.29319	10722.675
2914.77587	10709.975
2917.25702	10709.075
2919.73665	10702.775
2922.21476	10728.575
2924.69136	10706.975
2927.16644	10716.275
2929.64	10672.775
2932.11205	10677.175
2934.58258	10629.575
2937.05161	10618.975
2939.51912	10613.575
2941.98513	10580.075
2944.44962	10560.375
2946.91261	10502.875
2949.37409	10486.975
2951.83407	10502.375
2954.29254	10453.775
2956.74951	10441.675
2959.20498	10447.475
2961.65895	10406.275
2964.11142	10393.675
2966.56239	10379.575
2969.01186	10400.375
2971.45984	10367.775
2973.90632	10344.475
2976.35131	10320.575
2978.7948	10282.775
2981.23681	10256.875
2983.67732	10238.075
2986.11635	10199.675
2988.55388	10173.775
2990.98993	10118.475
2993.4245	10093.775
2995.85758	10036.975
2998.28917	10034.275
3000.71928	10039.475
3003.14791	9976.275
3005.57506	9973.675
3008.00073	9918.275
3010.42493	9923.875
3012.84764	9884.675
3015.26888	9896.575
3017.68865	9826.775
3020.10694	9788.575
3022.52376	9803.075
3024.9391	9786.075
3027.35298	9768.775
3029.76539	9766.275
3032.17632	9764.675
3034.5858	9710.775
3036.9938	9713.975
3039.40034	9722.675
3041.80542	9715.875
3044.20903	9694.475
3046.61118	9684.275
3049.01187	9667.975
3051.4111	9642.875
3053.80888	9611.375
3056.20519	9583.475
3058.60005	9538.975
3060.99345	9542.475
3063.3854	9511.275
3065.7759	9465.375
3068.16494	9410.675
3070.55254	9384.475
3072.93868	9357.075
3075.32338	9338.975
3077.70662	9308.175
3080.08842	9269.275
3082.46878	9247.675
3084.84769	9244.575
3087.22515	9235.175
3089.60118	9218.475
3091.97576	9199.175
3094.3489	9213.975
3096.72061	9226.175
3099.09087	9204.575
3101.4597	9191.875
3103.82709	9179.275
3106.19305	9151.775
3108.55757	9179.175
3110.92066	9138.175
3113.28232	9128.075
3115.64255	9056.575
3118.00134	9062.575
3120.35871	9044.675
3122.71466	9048.575
3125.06917	9018.675
3127.42226	8961.875
3129.77393	8963.875
3132.12417	8957.975
3134.47299	8962.175
