Data from AgNPs_FTO_APTES_UA_5uM_CRN_20uM_R6G_10uM_NaF_0.1M_Addition_RamanShift__5__13-08-46-758.txt Node

Date: Mon Feb 07 13:08:46 GMT 2022
User: TCL
Spectrometer: QEP01345
Trigger mode: 4
Integration Time (sec): 7.000000E0
Scans to average: 10
Electric dark correction enabled: true
Nonlinearity correction enabled: false
Boxcar width: 0
XAxis mode: Raman Shifts
Number of Pixels in Spectrum: 1044
>>>>>Begin Spectral Data<<<<<
46.04893	-0.0875
50.45542	-2.0875
54.85868	-0.6875
59.25871	-0.3875
63.6555	86.4125
68.04907	89.3125
72.43941	93.7125
76.82654	98.1125
81.21044	101.9125
85.59113	103.3125
89.96862	108.5125
94.34289	110.3125
98.71396	114.2125
103.08183	115.7125
107.4465	118.7125
111.80798	124.5125
116.16626	133.1125
120.52136	136.3125
124.87327	143.3125
129.222	151.8125
133.56755	165.5125
137.90993	180.4125
142.24913	198.3125
146.58517	230.6125
150.91804	262.3125
155.24774	324.9125
159.57429	409.9125
163.89768	533.6125
168.21792	716.8125
172.53501	981.0125
176.84895	1370.3125
181.15975	1934.5125
185.46741	2692.3125
189.77193	3715.3125
194.07331	4951.3125
198.37157	6373.4125
202.6667	7860.4125
206.9587	9304.6125
211.24758	10748.6125
215.53334	12226.0125
219.81599	13772.9125
224.09553	15527.5125
228.37195	17402.6125
232.64527	19454.9125
236.91549	21531.7125
241.18261	23664.9125
245.44663	25606.6125
249.70755	27312.6125
253.96539	28832.4125
258.22014	30095.7125
262.4718	31190.9125
266.72039	31920.5125
270.96589	32333.0125
275.20832	32448.0125
279.44768	32320.5125
283.68397	32091.4125
287.91719	31918.0125
292.14735	31937.3125
296.37445	31971.2125
300.59849	32188.5125
304.81948	32363.6125
309.03742	32301.2125
313.25231	32017.4125
317.46415	31425.2125
321.67296	30576.3125
325.87872	29874.5125
330.08145	29466.4125
334.28114	29350.5125
338.47781	29449.6125
342.67145	29722.8125
346.86207	30143.3125
351.04966	30697.0125
355.23424	31266.7125
359.4158	31815.6125
363.59435	32247.8125
367.76989	32461.1125
371.94243	32655.5125
376.11196	32751.5125
380.27849	32875.4125
384.44203	32991.4125
388.60257	33301.2125
392.76012	33744.8125
396.91468	34230.6125
401.06626	34852.9125
405.21485	35199.1125
409.36047	35048.8125
413.50311	34713.5125
417.64277	34627.2125
421.77947	34828.2125
425.9132	35010.8125
430.04396	35224.1125
434.17176	35361.4125
438.2966	35561.2125
442.41849	36169.5125
446.53742	37398.8125
450.6534	38861.2125
454.76644	39773.6125
458.87653	40042.9125
462.98368	39642.5125
467.08789	38933.8125
471.18916	38171.6125
475.2875	37592.2125
479.38291	37366.4125
483.4754	37277.8125
487.56496	36950.9125
491.6516	36142.7125
495.73531	35286.9125
499.81612	34727.0125
503.89401	34732.0125
507.96899	34880.0125
512.04106	34756.2125
516.11023	34301.1125
520.1765	33735.9125
524.23987	33221.2125
528.30034	32792.6125
532.35792	32494.6125
536.41261	32021.5125
540.46441	31621.2125
544.51333	31550.9125
548.55936	32043.8125
552.60252	32956.2125
556.64279	34103.4125
560.6802	35019.4125
564.71473	35651.2125
568.7464	36595.3125
572.7752	38092.8125
576.80114	39689.7125
580.82422	41243.6125
584.84444	43106.0125
588.86181	45385.0125
592.87633	46998.2125
596.888	46226.5125
600.89682	43275.4125
604.9028	41978.5125
608.90594	43855.4125
612.90624	45939.7125
616.90371	42664.5125
620.89834	35914.9125
624.89015	32901.5125
628.87913	32653.1125
632.86528	32710.8125
636.84862	32443.7125
640.82913	31674.4125
644.80683	30797.5125
648.78172	30278.6125
652.75379	30275.9125
656.72306	30626.8125
660.68952	31033.2125
664.65319	30739.0125
668.61405	30089.7125
672.57211	29988.3125
676.52738	30138.9125
680.47986	30127.1125
684.42955	29856.2125
688.37646	29680.2125
692.32058	29926.0125
696.26192	30566.9125
700.20048	31136.6125
704.13626	31496.9125
708.06928	31498.7125
711.99952	31372.0125
715.927	31443.4125
719.85171	31662.5125
723.77365	31523.4125
727.69284	30898.8125
731.60928	30356.8125
735.52295	30138.1125
739.43388	30146.7125
743.34206	30269.4125
747.24749	30527.3125
751.15017	30930.7125
755.05012	31675.2125
758.94733	32808.8125
762.8418	34575.3125
766.73354	37086.8125
770.62254	39057.9125
774.50882	38966.3125
778.39237	36810.0125
782.27321	34130.7125
786.15132	32093.1125
790.02671	30835.2125
793.89938	30251.6125
797.76935	30011.6125
801.6366	29993.9125
805.50115	29939.3125
809.36299	29784.0125
813.22213	29522.7125
817.07857	29337.6125
820.93231	29199.8125
824.78336	28922.0125
828.63172	28699.6125
832.47738	28559.2125
836.32036	28604.8125
840.16066	28774.9125
843.99827	28951.5125
847.8332	28888.3125
851.66546	28704.8125
855.49504	28664.1125
859.32195	28619.9125
863.1462	28465.6125
866.96777	28317.6125
870.78668	28202.9125
874.60293	28168.1125
878.41652	28151.8125
882.22745	28249.5125
886.03573	28379.4125
889.84136	28358.2125
893.64433	28197.2125
897.44466	28081.6125
901.24235	27971.3125
905.0374	27911.3125
908.8298	27887.4125
912.61957	28034.2125
916.40671	28426.9125
920.19121	29075.2125
923.97308	29597.9125
927.75233	29599.5125
931.52895	29147.1125
935.30295	28470.8125
939.07433	27878.3125
942.84309	27393.2125
946.60924	27223.5125
950.37278	27176.1125
954.13371	27134.2125
957.89203	27071.8125
961.64774	27092.9125
965.40086	27106.1125
969.15137	27037.1125
972.89929	26848.2125
976.64461	26684.9125
980.38733	26647.1125
984.12747	26725.8125
987.86502	26968.9125
991.59999	27287.1125
995.33237	27795.3125
999.06217	28688.5125
1002.78939	29727.5125
1006.51404	30522.2125
1010.23611	31013.9125
1013.95561	31407.8125
1017.67255	31397.2125
1021.38692	30942.1125
1025.09872	30336.2125
1028.80796	30303.9125
1032.51465	31114.4125
1036.21877	32041.6125
1039.92035	32385.7125
1043.61937	32009.1125
1047.31584	31322.7125
1051.00976	30500.5125
1054.70114	30032.7125
1058.38998	30056.2125
1062.07627	30245.1125
1065.76003	30524.2125
1069.44126	30907.2125
1073.11995	31429.5125
1076.79611	31895.6125
1080.46974	32162.2125
1084.14085	32431.3125
1087.80943	32812.1125
1091.47549	33257.3125
1095.13903	33396.8125
1098.80005	32889.3125
1102.45857	31979.9125
1106.11456	31179.5125
1109.76805	30813.6125
1113.41903	30844.4125
1117.06751	31016.6125
1120.71348	31308.1125
1124.35696	31598.5125
1127.99793	32038.7125
1131.63641	32335.4125
1135.2724	32427.7125
1138.90589	32455.0125
1142.5369	32746.2125
1146.16542	33193.6125
1149.79145	33734.2125
1153.415	34360.0125
1157.03607	35252.0125
1160.65467	36975.9125
1164.27079	39616.1125
1167.88443	42394.4125
1171.49561	45218.1125
1175.10432	48442.8125
1178.71056	52567.4125
1182.31434	56479.9125
1185.91565	58168.3125
1189.51451	57448.8125
1193.11091	55483.2125
1196.70485	53289.1125
1200.29634	51331.5125
1203.88538	50243.5125
1207.47197	50061.6125
1211.05612	49789.2125
1214.63782	48766.6125
1218.21708	47037.4125
1221.79391	45250.4125
1225.36829	43984.4125
1228.94024	42919.4125
1232.50976	41744.1125
1236.07685	40757.8125
1239.6415	40303.6125
1243.20374	40347.8125
1246.76355	40832.9125
1250.32093	41669.4125
1253.8759	42820.3125
1257.42845	44254.5125
1260.97859	45723.7125
1264.52631	47250.0125
1268.07163	49032.2125
1271.61453	50812.7125
1275.15503	52839.0125
1278.69312	55080.2125
1282.22882	57380.4125
1285.76211	60156.3125
1289.29301	63393.9125
1292.82151	67419.4125
1296.34761	72409.5125
1299.87133	78236.3125
1303.39266	84073.1125
1306.9116	88724.2125
1310.42815	91668.5125
1313.94233	92543.1125
1317.45412	91273.2125
1320.96354	89404.9125
1324.47058	87922.1125
1327.97525	87004.2125
1331.47754	86294.2125
1334.97747	85496.2125
1338.47502	83985.2125
1341.97022	81690.9125
1345.46305	78951.8125
1348.95352	76739.0125
1352.44163	76103.5125
1355.92738	77886.5125
1359.41078	81432.3125
1362.89183	83834.7125
1366.37053	82599.2125
1369.84688	76091.3125
1373.32088	67264.4125
1376.79254	61098.9125
1380.26186	59512.4125
1383.72883	60495.7125
1387.19347	61361.2125
1390.65578	61096.4125
1394.11575	61148.4125
1397.57339	62425.7125
1401.0287	64296.7125
1404.48168	65709.0125
1407.93234	65823.8125
1411.38068	63863.2125
1414.82669	60842.6125
1418.27039	57234.0125
1421.71177	53668.9125
1425.15083	50833.0125
1428.58758	49557.8125
1432.02203	50069.7125
1435.45416	52157.8125
1438.88399	54654.4125
1442.31151	56540.2125
1445.73673	57734.5125
1449.15965	58318.1125
1452.58027	58617.5125
1455.9986	58242.7125
1459.41463	58191.3125
1462.82837	58849.4125
1466.23982	59976.2125
1469.64898	61318.1125
1473.05586	62019.4125
1476.46045	62066.1125
1479.86276	61432.8125
1483.26279	60314.2125
1486.66054	59562.3125
1490.05602	59459.7125
1493.44922	59518.7125
1496.84016	59595.1125
1500.22882	59843.5125
1503.61521	60398.4125
1506.99934	61231.3125
1510.38121	62172.5125
1513.76081	62523.9125
1517.13816	61865.3125
1520.51324	61045.5125
1523.88607	60805.0125
1527.25665	61328.3125
1530.62498	62125.9125
1533.99105	62314.1125
1537.35488	61652.7125
1540.71647	60020.7125
1544.07581	57843.6125
1547.4329	55514.7125
1550.78776	53509.6125
1554.14038	52034.7125
1557.49077	51154.8125
1560.83892	50511.5125
1564.18484	50108.8125
1567.52853	50134.7125
1570.86999	50698.5125
1574.20922	52105.5125
1577.54624	53785.2125
1580.88103	55099.3125
1584.2136	56848.7125
1587.54395	60236.8125
1590.87208	64959.7125
1594.19801	70029.9125
1597.52172	74014.0125
1600.84321	74100.3125
1604.16251	69129.1125
1607.47959	61383.7125
1610.79447	53788.3125
1614.10715	47498.6125
1617.41763	43002.5125
1620.7259	40206.6125
1624.03199	39015.5125
1627.33587	39402.4125
1630.63757	41413.0125
1633.93707	45373.9125
1637.23439	51637.7125
1640.52951	60586.9125
1643.82246	70914.8125
1647.11321	78674.8125
1650.40179	78894.4125
1653.68819	70818.2125
1656.97241	58761.6125
1660.25446	47748.6125
1663.53433	39980.2125
1666.81203	35099.5125
1670.08756	32027.7125
1673.36092	30147.5125
1676.63211	28961.9125
1679.90115	28123.3125
1683.16801	27508.8125
1686.43272	27025.8125
1689.69527	26688.2125
1692.95567	26452.1125
1696.2139	26228.0125
1699.46999	26069.6125
1702.72392	25880.5125
1705.97571	25803.7125
1709.22535	25672.8125
1712.47284	25633.0125
1715.71819	25610.6125
1718.96139	25507.4125
1722.20246	25325.5125
1725.44139	25228.4125
1728.67818	25037.7125
1731.91284	24832.6125
1735.14537	24658.8125
1738.37576	24531.5125
1741.60403	24392.6125
1744.83017	24280.4125
1748.05418	24204.3125
1751.27607	24137.9125
1754.49584	24107.0125
1757.71349	24083.6125
1760.92903	24094.1125
1764.14244	24021.6125
1767.35375	24007.3125
1770.56294	23945.4125
1773.77002	23921.0125
1776.97499	23836.3125
1780.17785	23746.5125
1783.37861	23711.2125
1786.57727	23718.4125
1789.77382	23621.8125
1792.96828	23609.3125
1796.16064	23569.3125
1799.3509	23485.9125
1802.53907	23409.4125
1805.72514	23367.6125
1808.90913	23288.9125
1812.09102	23228.4125
1815.27083	23169.3125
1818.44856	23153.6125
1821.6242	23143.4125
1824.79776	23100.8125
1827.96924	23084.1125
1831.13864	23074.6125
1834.30597	23109.7125
1837.47122	23065.5125
1840.6344	23102.0125
1843.7955	23091.1125
1846.95454	23093.0125
1850.11151	23087.6125
1853.26642	23032.9125
1856.41926	23068.8125
1859.57004	23023.6125
1862.71876	23014.0125
1865.86542	22975.9125
1869.01003	22917.8125
1872.15258	22888.0125
1875.29308	22874.7125
1878.43152	22859.1125
1881.56792	22835.7125
1884.70227	22825.9125
1887.83457	22793.2125
1890.96482	22784.5125
1894.09304	22771.4125
1897.21921	22770.1125
1900.34335	22725.9125
1903.46544	22701.8125
1906.58551	22667.4125
1909.70353	22660.0125
1912.81953	22584.4125
1915.93349	22530.2125
1919.04543	22495.4125
1922.15534	22406.8125
1925.26322	22352.0125
1928.36908	22276.7125
1931.47292	22280.5125
1934.57473	22172.1125
1937.67453	22104.2125
1940.77232	22030.8125
1943.86808	22000.5125
1946.96184	21947.7125
1950.05358	21863.7125
1953.14331	21802.0125
1956.23103	21723.3125
1959.31675	21668.6125
1962.40046	21597.4125
1965.48217	21555.9125
1968.56188	21466.2125
1971.63959	21410.8125
1974.7153	21348.8125
1977.78901	21329.2125
1980.86073	21181.5125
1983.93046	21105.9125
1986.99819	21088.6125
1990.06394	21021.3125
1993.1277	20985.9125
1996.18947	20903.4125
1999.24925	20899.4125
2002.30706	20808.7125
2005.36288	20745.7125
2008.41672	20701.6125
2011.46859	20624.4125
2014.51848	20572.8125
2017.56639	20529.9125
2020.61233	20487.2125
2023.6563	20468.3125
2026.6983	20403.7125
2029.73833	20396.7125
2032.7764	20288.2125
2035.8125	20329.8125
2038.84664	20259.1125
2041.87881	20243.7125
2044.90903	20191.8125
2047.93729	20185.4125
2050.96359	20171.9125
2053.98794	20141.6125
2057.01034	20149.1125
2060.03078	20121.1125
2063.04927	20095.2125
2066.06582	20112.2125
2069.08042	20094.3125
2072.09307	20058.8125
2075.10378	20017.6125
2078.11255	20027.1125
2081.11938	20009.5125
2084.12426	19963.3125
2087.12722	20006.6125
2090.12824	19967.5125
2093.12732	19926.1125
2096.12447	19948.6125
2099.11969	19971.0125
2102.11299	19989.9125
2105.10435	19960.0125
2108.09379	19974.7125
2111.08131	20011.8125
2114.0669	20000.8125
2117.05057	20046.4125
2120.03233	20001.4125
2123.01216	20022.1125
2125.99008	20061.6125
2128.96609	20064.0125
2131.94018	20065.4125
2134.91236	20071.2125
2137.88263	20108.5125
2140.851	20074.3125
2143.81746	20098.3125
2146.78201	20090.6125
2149.74466	20048.2125
2152.7054	20032.4125
2155.66425	20024.0125
2158.6212	20065.4125
2161.57625	19989.2125
2164.52941	19986.3125
2167.48067	20022.4125
2170.43004	20000.6125
2173.37752	20021.8125
2176.32311	19990.7125
2179.26681	20004.6125
2182.20863	20033.5125
2185.14856	20069.5125
2188.08661	20060.1125
2191.02278	20055.4125
2193.95707	20029.8125
2196.88948	20044.2125
2199.82001	20024.1125
2202.74867	20004.4125
2205.67545	19985.5125
2208.60037	19967.2125
2211.52341	19953.1125
2214.44458	19932.1125
2217.36388	19908.4125
2220.28132	19867.0125
2223.1969	19837.2125
2226.11061	19835.9125
2229.02246	19775.3125
2231.93245	19765.8125
2234.84058	19725.7125
2237.74686	19694.9125
2240.65128	19679.6125
2243.55385	19647.9125
2246.45456	19616.7125
2249.35343	19573.2125
2252.25044	19536.9125
2255.14561	19463.7125
2258.03893	19423.5125
2260.93041	19398.6125
2263.82004	19328.1125
2266.70783	19290.9125
2269.59378	19216.9125
2272.4779	19178.4125
2275.36017	19155.9125
2278.24061	19120.7125
2281.11922	19091.7125
2283.996	19061.9125
2286.87094	19050.6125
2289.74405	19026.2125
2292.61534	19032.8125
2295.4848	19046.9125
2298.35243	19038.8125
2301.21824	19081.9125
2304.08223	19079.2125
2306.94439	19089.3125
2309.80474	19093.1125
2312.66327	19090.5125
2315.51999	19118.8125
2318.37489	19057.8125
2321.22797	19057.3125
2324.07925	19032.5125
2326.92871	19015.0125
2329.77637	19008.4125
2332.62222	18976.5125
2335.46626	18983.6125
2338.3085	19006.9125
2341.14893	18997.6125
2343.98756	19030.4125
2346.8244	19037.0125
2349.65943	19011.0125
2352.49267	19015.2125
2355.32411	19041.7125
2358.15376	19009.3125
2360.98161	18957.0125
2363.80768	18970.6125
2366.63195	18944.6125
2369.45444	18910.8125
2372.27514	18880.3125
2375.09405	18861.5125
2377.91118	18802.2125
2380.72652	18782.9125
2383.54009	18726.4125
2386.35187	18755.3125
2389.16188	18671.0125
2391.97011	18651.9125
2394.77657	18650.5125
2397.58125	18635.8125
2400.38416	18615.2125
2403.18529	18608.3125
2405.98466	18578.9125
2408.78226	18540.5125
2411.57809	18502.8125
2414.37216	18478.8125
2417.16446	18492.1125
2419.955	18474.6125
2422.74378	18434.2125
2425.5308	18423.1125
2428.31606	18383.9125
2431.09956	18423.3125
2433.88131	18420.2125
2436.6613	18416.1125
2439.43954	18419.4125
2442.21603	18418.2125
2444.99077	18406.9125
2447.76377	18414.1125
2450.53501	18380.9125
2453.30451	18424.9125
2456.07226	18405.3125
2458.83827	18421.9125
2461.60254	18417.8125
2464.36507	18425.8125
2467.12586	18430.9125
2469.88492	18439.4125
2472.64224	18470.5125
2475.39782	18489.2125
2478.15167	18555.4125
2480.90379	18495.4125
2483.65417	18498.2125
2486.40283	18561.5125
2489.14976	18535.0125
2491.89497	18537.5125
2494.63845	18573.2125
2497.3802	18598.1125
2500.12024	18592.7125
2502.85855	18565.3125
2505.59514	18557.4125
2508.33002	18563.9125
2511.06318	18565.8125
2513.79462	18541.0125
2516.52435	18527.5125
2519.25237	18551.6125
2521.97867	18517.5125
2524.70327	18513.8125
2527.42616	18531.2125
2530.14734	18562.4125
2532.86681	18523.9125
2535.58458	18544.1125
2538.30065	18532.1125
2541.01501	18542.3125
2543.72768	18493.8125
2546.43864	18517.8125
2549.14791	18503.3125
2551.85548	18508.7125
2554.56136	18503.3125
2557.26554	18452.3125
2559.96803	18465.7125
2562.66883	18493.2125
2565.36794	18447.6125
2568.06536	18465.5125
2570.7611	18462.7125
2573.45514	18487.9125
2576.14751	18457.6125
2578.83819	18453.2125
2581.52719	18457.0125
2584.21451	18482.7125
2586.90015	18479.9125
2589.58411	18479.3125
2592.2664	18493.5125
2594.94701	18496.6125
2597.62594	18496.9125
2600.30321	18491.2125
2602.9788	18508.1125
2605.65273	18509.1125
2608.32498	18530.1125
2610.99557	18529.7125
2613.66449	18549.1125
2616.33175	18546.6125
2618.99734	18545.0125
2621.66128	18559.8125
2624.32355	18538.3125
2626.98416	18547.1125
2629.64311	18546.8125
2632.30041	18544.5125
2634.95605	18524.9125
2637.61004	18520.3125
2640.26238	18502.2125
2642.91306	18526.0125
2645.56209	18493.1125
2648.20948	18518.2125
2650.85521	18532.4125
2653.4993	18539.7125
2656.14175	18555.5125
2658.78255	18602.1125
2661.42171	18574.2125
2664.05923	18615.7125
2666.6951	18621.4125
2669.32934	18634.4125
2671.96194	18668.3125
2674.59291	18681.8125
2677.22224	18688.3125
2679.84993	18656.0125
2682.476	18625.9125
2685.10043	18630.6125
2687.72324	18631.1125
2690.34441	18627.0125
2692.96396	18602.2125
2695.58188	18635.5125
2698.19818	18598.8125
2700.81285	18630.6125
2703.4259	18672.2125
2706.03733	18695.3125
2708.64714	18703.7125
2711.25533	18680.4125
2713.86191	18672.2125
2716.46687	18725.0125
2719.07021	18743.2125
2721.67194	18792.3125
2724.27206	18806.6125
2726.87057	18832.6125
2729.46747	18851.2125
2732.06276	18838.9125
2734.65644	18868.7125
2737.24852	18871.5125
2739.83899	18850.6125
2742.42786	18871.8125
2745.01513	18871.4125
2747.60079	18864.1125
2750.18486	18838.8125
2752.76733	18857.3125
2755.3482	18863.1125
2757.92747	18888.8125
2760.50515	18891.0125
2763.08123	18907.6125
2765.65573	18882.4125
2768.22863	18906.2125
2770.79994	18863.5125
2773.36967	18901.6125
2775.9378	18908.0125
2778.50435	18913.5125
2781.06932	18876.4125
2783.6327	18928.2125
2786.1945	18953.9125
2788.75471	18978.2125
2791.31335	18965.5125
2793.87041	18929.6125
2796.42589	18831.0125
2798.97979	18890.2125
2801.53212	18857.2125
2804.08288	18823.4125
2806.63206	18751.3125
2809.17967	18753.9125
2811.72571	18709.9125
2814.27018	18686.2125
2816.81308	18657.6125
2819.35442	18630.4125
2821.89419	18582.8125
2824.43239	18637.1125
2826.96904	18618.6125
2829.50412	18650.0125
2832.03763	18563.3125
2834.56959	18608.8125
2837.1	18547.7125
2839.62884	18538.7125
2842.15613	18542.3125
2844.68186	18620.9125
2847.20604	18586.3125
2849.72867	18639.9125
2852.24974	18647.9125
2854.76927	18633.2125
2857.28724	18608.9125
2859.80367	18611.3125
2862.31855	18605.4125
2864.83189	18541.0125
2867.34368	18535.3125
2869.85393	18510.3125
2872.36264	18504.1125
2874.8698	18460.2125
2877.37543	18470.8125
2879.87952	18476.1125
2882.38207	18474.2125
2884.88308	18488.5125
2887.38256	18517.4125
2889.88051	18529.8125
2892.37692	18532.0125
2894.8718	18577.9125
2897.36515	18594.0125
2899.85698	18588.3125
2902.34727	18645.2125
2904.83604	18659.9125
2907.32328	18725.8125
2909.809	18696.0125
2912.29319	18728.3125
2914.77587	18742.4125
2917.25702	18732.0125
2919.73665	18714.7125
2922.21476	18721.3125
2924.69136	18703.8125
2927.16644	18698.9125
2929.64	18657.5125
2932.11205	18651.9125
2934.58258	18566.1125
2937.05161	18598.5125
2939.51912	18622.0125
2941.98513	18608.7125
2944.44962	18613.1125
2946.91261	18540.8125
2949.37409	18546.6125
2951.83407	18523.0125
2954.29254	18512.2125
2956.74951	18457.9125
2959.20498	18480.6125
2961.65895	18454.6125
2964.11142	18430.0125
2966.56239	18411.6125
2969.01186	18417.4125
2971.45984	18373.0125
2973.90632	18393.3125
2976.35131	18345.5125
2978.7948	18271.1125
2981.23681	18225.7125
2983.67732	18198.0125
2986.11635	18148.3125
2988.55388	18116.7125
2990.98993	18090.9125
2993.4245	18036.1125
2995.85758	17978.8125
2998.28917	17913.4125
3000.71928	17920.0125
3003.14791	17874.3125
3005.57506	17860.5125
3008.00073	17801.7125
3010.42493	17671.3125
3012.84764	17767.2125
3015.26888	17737.8125
3017.68865	17696.9125
3020.10694	17650.4125
3022.52376	17602.5125
