Data from AgNPs_FTO_APTES_UA_5uM_CRN_5uM_R6G_10uM_NaF_0.1M_Addition_RamanShift__29__12-18-36-705.txt Node

Date: Mon Feb 07 12:18:36 GMT 2022
User: TCL
Spectrometer: QEP01345
Trigger mode: 4
Integration Time (sec): 7.000000E0
Scans to average: 10
Electric dark correction enabled: true
Nonlinearity correction enabled: false
Boxcar width: 0
XAxis mode: Raman Shifts
Number of Pixels in Spectrum: 1044
>>>>>Begin Spectral Data<<<<<
46.04893	-0.525
50.45542	-1.025
54.85868	-2.125
59.25871	2.075
63.6555	54.375
68.04907	60.075
72.43941	63.675
76.82654	64.875
81.21044	70.075
85.59113	73.175
89.96862	80.375
94.34289	75.775
98.71396	80.975
103.08183	84.675
107.4465	85.775
111.80798	85.575
116.16626	88.775
120.52136	93.875
124.87327	98.675
129.222	101.275
133.56755	107.175
137.90993	116.675
142.24913	126.975
146.58517	141.875
150.91804	166.375
155.24774	196.275
159.57429	245.775
163.89768	312.475
168.21792	416.375
172.53501	564.975
176.84895	773.875
181.15975	1089.675
185.46741	1531.575
189.77193	2094.975
194.07331	2808.775
198.37157	3602.775
202.6667	4452.875
206.9587	5285.875
211.24758	6127.875
215.53334	7014.975
219.81599	8052.575
224.09553	9201.575
228.37195	10496.575
232.64527	11889.375
236.91549	13280.975
241.18261	14484.575
245.44663	15470.275
249.70755	16191.175
253.96539	16816.075
258.22014	17372.175
262.4718	17909.175
266.72039	18327.475
270.96589	18625.075
275.20832	18732.375
279.44768	18647.975
283.68397	18540.375
287.91719	18537.575
292.14735	18692.675
296.37445	19112.275
300.59849	19801.675
304.81948	20700.775
309.03742	21392.975
313.25231	21311.975
317.46415	20167.875
321.67296	18348.875
325.87872	16778.975
330.08145	16016.475
334.28114	15903.675
338.47781	16159.875
342.67145	16685.275
346.86207	17463.875
351.04966	18640.375
355.23424	19996.375
359.4158	20974.775
363.59435	21402.275
367.76989	21328.475
371.94243	21088.075
376.11196	20823.275
380.27849	20569.975
384.44203	20237.475
388.60257	19905.275
392.76012	19761.375
396.91468	20017.775
401.06626	20645.575
405.21485	21134.675
409.36047	20773.475
413.50311	19505.175
417.64277	18318.775
421.77947	17674.275
425.9132	17448.475
430.04396	17406.675
434.17176	17455.175
438.2966	17618.975
442.41849	17956.275
446.53742	18472.975
450.6534	19036.675
454.76644	19390.775
458.87653	19451.875
462.98368	19277.375
467.08789	18969.975
471.18916	18552.775
475.2875	17995.875
479.38291	17576.975
483.4754	17277.275
487.56496	16982.975
491.6516	16828.975
495.73531	16787.775
499.81612	16928.975
503.89401	17170.775
507.96899	17401.875
512.04106	17610.175
516.11023	17799.975
520.1765	17921.475
524.23987	17739.975
528.30034	17309.175
532.35792	16866.175
536.41261	16376.075
540.46441	15926.875
544.51333	15757.975
548.55936	16006.075
552.60252	16559.975
556.64279	17194.575
560.6802	17513.175
564.71473	17830.075
568.7464	18704.375
572.7752	19449.775
576.80114	19038.475
580.82422	18421.975
584.84444	18124.275
588.86181	17867.775
592.87633	17707.975
596.888	17785.675
600.89682	18543.875
604.9028	21013.975
608.90594	27706.875
612.90624	36714.175
616.90371	35383.575
620.89834	23466.375
624.89015	17765.575
628.87913	16675.375
632.86528	16850.375
636.84862	17175.175
640.82913	16877.875
644.80683	15930.275
648.78172	15275.075
652.75379	15302.575
656.72306	16147.375
660.68952	17239.975
664.65319	17094.175
668.61405	16082.675
672.57211	15481.575
676.52738	15412.775
680.47986	15353.975
684.42955	15179.775
688.37646	15076.375
692.32058	15165.575
696.26192	15361.475
700.20048	15643.875
704.13626	15938.875
708.06928	15975.375
711.99952	15807.275
715.927	15666.075
719.85171	15663.875
723.77365	15577.075
727.69284	15333.275
731.60928	15078.075
735.52295	15004.875
739.43388	15050.775
743.34206	15178.875
747.24749	15327.175
751.15017	15539.575
755.05012	16058.675
758.94733	17055.575
762.8418	19462.575
766.73354	23618.175
770.62254	27888.275
774.50882	29586.775
778.39237	27768.075
782.27321	23552.275
786.15132	19374.675
790.02671	16947.875
793.89938	15820.275
797.76935	15346.375
801.6366	15114.775
805.50115	14943.375
809.36299	14842.575
813.22213	14706.975
817.07857	14666.375
820.93231	14654.775
824.78336	14695.675
828.63172	14825.775
832.47738	14878.575
836.32036	14836.775
840.16066	14725.875
843.99827	14614.975
847.8332	14533.875
851.66546	14498.875
855.49504	14459.375
859.32195	14435.675
863.1462	14314.075
866.96777	14232.175
870.78668	14204.775
874.60293	14236.675
878.41652	14265.175
882.22745	14374.375
886.03573	14469.675
889.84136	14421.475
893.64433	14329.675
897.44466	14242.375
901.24235	14307.075
905.0374	14260.475
908.8298	14189.875
912.61957	14228.475
916.40671	14375.975
920.19121	14620.875
923.97308	14869.675
927.75233	14976.675
931.52895	15032.775
935.30295	14748.775
939.07433	14160.675
942.84309	13706.475
946.60924	13448.475
950.37278	13299.075
954.13371	13186.175
957.89203	13131.475
961.64774	13084.875
965.40086	13050.975
969.15137	12998.475
972.89929	12946.675
976.64461	12910.175
980.38733	12950.375
984.12747	12960.275
987.86502	13018.375
991.59999	13133.175
995.33237	13358.675
999.06217	13705.775
1002.78939	14190.675
1006.51404	14689.075
1010.23611	15175.375
1013.95561	15436.975
1017.67255	15310.275
1021.38692	14983.675
1025.09872	14645.275
1028.80796	14507.675
1032.51465	14641.875
1036.21877	14927.775
1039.92035	15119.575
1043.61937	15205.175
1047.31584	15064.175
1051.00976	14960.475
1054.70114	14901.475
1058.38998	14938.675
1062.07627	15101.375
1065.76003	15284.975
1069.44126	15509.475
1073.11995	15687.875
1076.79611	15906.375
1080.46974	16170.575
1084.14085	16624.275
1087.80943	17193.175
1091.47549	17504.575
1095.13903	17219.275
1098.80005	16500.575
1102.45857	15781.675
1106.11456	15298.675
1109.76805	15266.475
1113.41903	15557.375
1117.06751	16140.375
1120.71348	16971.775
1124.35696	17881.075
1127.99793	18688.075
1131.63641	18686.175
1135.2724	17701.875
1138.90589	16702.575
1142.5369	16156.675
1146.16542	15772.275
1149.79145	15597.975
1153.415	15612.175
1157.03607	15862.475
1160.65467	16340.775
1164.27079	17120.375
1167.88443	18313.375
1171.49561	20216.775
1175.10432	23325.375
1178.71056	27292.275
1182.31434	30085.075
1185.91565	30619.375
1189.51451	29762.975
1193.11091	27802.275
1196.70485	25348.875
1200.29634	23440.775
1203.88538	22077.475
1207.47197	20398.675
1211.05612	19015.775
1214.63782	18234.475
1218.21708	17915.675
1221.79391	17970.075
1225.36829	18188.575
1228.94024	18407.575
1232.50976	18582.875
1236.07685	18668.675
1239.6415	18633.575
1243.20374	18540.075
1246.76355	18536.575
1250.32093	18795.175
1253.8759	19314.475
1257.42845	20053.775
1260.97859	20858.375
1264.52631	21639.175
1268.07163	22407.875
1271.61453	23164.875
1275.15503	23758.375
1278.69312	24134.075
1282.22882	24402.675
1285.76211	25053.075
1289.29301	26007.775
1292.82151	26995.275
1296.34761	27973.275
1299.87133	29494.575
1303.39266	32018.775
1306.9116	35997.075
1310.42815	40697.975
1313.94233	43774.975
1317.45412	43457.775
1320.96354	40762.275
1324.47058	37542.075
1327.97525	34761.475
1331.47754	32935.075
1334.97747	32101.275
1338.47502	32033.675
1341.97022	32497.575
1345.46305	33350.375
1348.95352	34710.375
1352.44163	36759.475
1355.92738	40105.375
1359.41078	45912.575
1362.89183	51996.075
1366.37053	51047.475
1369.84688	43139.175
1373.32088	35111.475
1376.79254	30078.575
1380.26186	27578.275
1383.72883	26317.175
1387.19347	25332.275
1390.65578	24318.475
1394.11575	23475.675
1397.57339	23142.475
1401.0287	23243.175
1404.48168	23600.275
1407.93234	23995.375
1411.38068	24116.375
1414.82669	23890.875
1418.27039	23259.575
1421.71177	22413.775
1425.15083	21677.375
1428.58758	21238.675
1432.02203	21145.875
1435.45416	21315.675
1438.88399	21423.775
1442.31151	21520.675
1445.73673	21707.675
1449.15965	21953.875
1452.58027	21964.575
1455.9986	21773.775
1459.41463	21814.675
1462.82837	22083.675
1466.23982	22567.575
1469.64898	23139.175
1473.05586	23570.775
1476.46045	23834.275
1479.86276	24283.775
1483.26279	24881.575
1486.66054	25650.875
1490.05602	26682.175
1493.44922	28023.575
1496.84016	30096.575
1500.22882	33294.875
1503.61521	37533.075
1506.99934	42427.075
1510.38121	47111.775
1513.76081	49712.275
1517.13816	47907.075
1520.51324	42423.675
1523.88607	36459.075
1527.25665	32113.475
1530.62498	29479.375
1533.99105	27810.375
1537.35488	26751.475
1540.71647	25964.275
1544.07581	25415.475
1547.4329	25024.575
1550.78776	24708.475
1554.14038	24530.175
1557.49077	24805.675
1560.83892	25434.475
1564.18484	26305.075
1567.52853	27252.175
1570.86999	27819.675
1574.20922	28140.375
1577.54624	27906.075
1580.88103	26425.875
1584.2136	24510.775
1587.54395	23701.175
1590.87208	24229.175
1594.19801	25816.275
1597.52172	27773.275
1600.84321	28395.475
1604.16251	27022.475
1607.47959	24820.875
1610.79447	22615.575
1614.10715	20586.975
1617.41763	18945.775
1620.7259	17888.275
1624.03199	17431.575
1627.33587	17455.575
1630.63757	18014.875
1633.93707	19183.675
1637.23439	20972.375
1640.52951	23550.275
1643.82246	26745.975
1647.11321	30452.875
1650.40179	33256.475
1653.68819	32605.175
1656.97241	28077.975
1660.25446	22731.975
1663.53433	18747.075
1666.81203	16288.075
1670.08756	14874.075
1673.36092	14047.275
1676.63211	13527.575
1679.90115	13161.675
1683.16801	12925.675
1686.43272	12718.375
1689.69527	12582.875
1692.95567	12441.875
1696.2139	12392.875
1699.46999	12320.875
1702.72392	12268.075
1705.97571	12254.275
1709.22535	12214.475
1712.47284	12209.575
1715.71819	12237.775
1718.96139	12229.575
1722.20246	12210.175
1725.44139	12145.875
1728.67818	12039.675
1731.91284	11927.875
1735.14537	11795.875
1738.37576	11716.375
1741.60403	11637.975
1744.83017	11560.075
1748.05418	11523.775
1751.27607	11524.175
1754.49584	11467.675
1757.71349	11444.375
1760.92903	11421.675
1764.14244	11394.175
1767.35375	11394.975
1770.56294	11343.475
1773.77002	11284.975
1776.97499	11217.275
1780.17785	11192.975
1783.37861	11173.875
1786.57727	11143.875
1789.77382	11121.575
1792.96828	11120.275
1796.16064	11090.075
1799.3509	11041.575
1802.53907	11054.775
1805.72514	11000.775
1808.90913	10978.575
1812.09102	10942.375
1815.27083	10893.575
1818.44856	10853.675
1821.6242	10843.075
1824.79776	10842.375
1827.96924	10803.775
1831.13864	10828.375
1834.30597	10786.975
1837.47122	10775.275
1840.6344	10807.575
1843.7955	10781.375
1846.95454	10794.075
1850.11151	10784.275
1853.26642	10777.875
1856.41926	10788.675
1859.57004	10809.275
1862.71876	10820.275
1865.86542	10817.975
1869.01003	10830.975
1872.15258	10809.975
1875.29308	10863.775
1878.43152	10888.375
1881.56792	10918.275
1884.70227	10940.875
1887.83457	10961.175
1890.96482	10959.375
1894.09304	10976.875
1897.21921	10951.975
1900.34335	10996.975
1903.46544	11018.675
1906.58551	11008.475
1909.70353	11034.475
1912.81953	11036.175
1915.93349	11017.075
1919.04543	11009.575
1922.15534	11018.175
1925.26322	10968.975
1928.36908	10914.375
1931.47292	10838.075
1934.57473	10752.475
1937.67453	10656.175
1940.77232	10578.375
1943.86808	10490.275
1946.96184	10420.475
1950.05358	10351.575
1953.14331	10293.775
1956.23103	10230.975
1959.31675	10150.375
1962.40046	10146.575
1965.48217	10112.275
1968.56188	10120.375
1971.63959	10077.475
1974.7153	9998.075
1977.78901	9987.675
1980.86073	9913.675
1983.93046	9893.475
1986.99819	9846.375
1990.06394	9789.675
1993.1277	9787.175
1996.18947	9753.475
1999.24925	9700.675
2002.30706	9707.175
2005.36288	9654.675
2008.41672	9621.975
2011.46859	9575.975
2014.51848	9563.975
2017.56639	9538.675
2020.61233	9485.775
2023.6563	9469.375
2026.6983	9431.675
2029.73833	9396.375
2032.7764	9367.875
2035.8125	9352.875
2038.84664	9315.075
2041.87881	9308.975
2044.90903	9293.375
2047.93729	9277.975
2050.96359	9260.375
2053.98794	9260.475
2057.01034	9203.075
2060.03078	9245.575
2063.04927	9202.475
2066.06582	9212.975
2069.08042	9188.975
2072.09307	9165.175
2075.10378	9159.775
2078.11255	9131.675
2081.11938	9153.675
2084.12426	9137.975
2087.12722	9130.375
2090.12824	9098.875
2093.12732	9111.875
2096.12447	9105.175
2099.11969	9115.475
2102.11299	9097.375
2105.10435	9094.175
2108.09379	9102.975
2111.08131	9098.975
2114.0669	9111.075
2117.05057	9120.375
2120.03233	9098.875
2123.01216	9115.275
2125.99008	9138.375
2128.96609	9132.975
2131.94018	9142.875
2134.91236	9122.175
2137.88263	9118.075
2140.851	9130.475
2143.81746	9110.375
2146.78201	9119.275
2149.74466	9097.675
2152.7054	9106.075
2155.66425	9094.175
2158.6212	9063.475
2161.57625	9055.375
2164.52941	9052.875
2167.48067	9051.275
2170.43004	9042.475
2173.37752	9046.475
2176.32311	9034.075
2179.26681	9042.875
2182.20863	9017.875
2185.14856	9016.875
2188.08661	9060.675
2191.02278	9020.975
2193.95707	9023.775
2196.88948	9010.975
2199.82001	8991.875
2202.74867	8984.075
2205.67545	8973.875
2208.60037	8953.375
2211.52341	8949.975
2214.44458	8943.675
2217.36388	8918.075
2220.28132	8885.475
2223.1969	8864.075
2226.11061	8841.575
2229.02246	8809.375
2231.93245	8805.475
2234.84058	8776.675
2237.74686	8756.175
2240.65128	8761.375
2243.55385	8758.775
2246.45456	8729.275
2249.35343	8727.875
2252.25044	8723.775
2255.14561	8710.475
2258.03893	8710.675
2260.93041	8709.175
2263.82004	8690.675
2266.70783	8666.575
2269.59378	8650.375
2272.4779	8610.575
2275.36017	8575.775
2278.24061	8579.675
2281.11922	8554.775
2283.996	8533.475
2286.87094	8514.175
2289.74405	8495.175
2292.61534	8488.475
2295.4848	8438.675
2298.35243	8445.275
2301.21824	8434.775
2304.08223	8447.875
2306.94439	8439.275
2309.80474	8452.075
2312.66327	8445.975
2315.51999	8422.375
2318.37489	8423.675
2321.22797	8415.275
2324.07925	8392.875
2326.92871	8401.575
2329.77637	8388.475
2332.62222	8358.475
2335.46626	8335.975
2338.3085	8361.075
2341.14893	8352.375
2343.98756	8367.075
2346.8244	8397.375
2349.65943	8391.275
2352.49267	8413.475
2355.32411	8439.075
2358.15376	8433.075
2360.98161	8425.975
2363.80768	8435.175
2366.63195	8458.675
2369.45444	8477.375
2372.27514	8455.075
2375.09405	8450.175
2377.91118	8411.775
2380.72652	8365.175
2383.54009	8309.575
2386.35187	8299.775
2389.16188	8234.575
2391.97011	8217.875
2394.77657	8203.275
2397.58125	8185.475
2400.38416	8154.675
2403.18529	8126.975
2405.98466	8079.675
2408.78226	8066.375
2411.57809	8066.875
2414.37216	8053.075
2417.16446	8059.175
2419.955	8044.275
2422.74378	8038.675
2425.5308	8030.875
2428.31606	8015.775
2431.09956	8003.375
2433.88131	8005.575
2436.6613	8031.175
2439.43954	8008.875
2442.21603	8003.375
2444.99077	8014.575
2447.76377	8008.775
2450.53501	8015.275
2453.30451	8006.675
2456.07226	8025.475
2458.83827	8005.075
2461.60254	8028.675
2464.36507	7999.875
2467.12586	7986.575
2469.88492	7987.775
2472.64224	8021.875
2475.39782	8027.275
2478.15167	8034.175
2480.90379	8036.775
2483.65417	8066.275
2486.40283	8093.875
2489.14976	8107.675
2491.89497	8105.575
2494.63845	8149.575
2497.3802	8144.575
2500.12024	8143.275
2502.85855	8109.875
2505.59514	8066.175
2508.33002	8064.675
2511.06318	8017.475
2513.79462	7982.575
2516.52435	7947.475
2519.25237	7922.975
2521.97867	7898.575
2524.70327	7860.975
2527.42616	7855.975
2530.14734	7889.475
2532.86681	7854.375
2535.58458	7834.975
2538.30065	7842.375
2541.01501	7837.475
2543.72768	7841.475
2546.43864	7830.875
2549.14791	7811.075
2551.85548	7831.875
2554.56136	7802.175
2557.26554	7793.175
2559.96803	7789.675
2562.66883	7771.375
2565.36794	7761.475
2568.06536	7749.275
2570.7611	7728.775
2573.45514	7732.875
2576.14751	7718.175
2578.83819	7697.275
2581.52719	7695.675
2584.21451	7699.975
2586.90015	7683.875
2589.58411	7697.475
2592.2664	7677.875
2594.94701	7658.775
2597.62594	7670.375
2600.30321	7656.175
2602.9788	7674.775
2605.65273	7642.675
2608.32498	7688.975
2610.99557	7676.675
2613.66449	7673.575
2616.33175	7672.175
2618.99734	7673.575
2621.66128	7666.475
2624.32355	7657.975
2626.98416	7640.475
2629.64311	7631.275
2632.30041	7631.175
2634.95605	7612.375
2637.61004	7609.675
2640.26238	7589.475
2642.91306	7566.775
2645.56209	7558.875
2648.20948	7551.375
2650.85521	7552.675
2653.4993	7554.475
2656.14175	7548.075
2658.78255	7568.075
2661.42171	7576.875
2664.05923	7580.975
2666.6951	7590.575
2669.32934	7608.375
2671.96194	7608.175
2674.59291	7627.875
2677.22224	7617.975
2679.84993	7648.575
2682.476	7626.575
2685.10043	7617.475
2687.72324	7592.675
2690.34441	7598.075
2692.96396	7578.675
2695.58188	7616.875
2698.19818	7564.275
2700.81285	7588.675
2703.4259	7602.775
2706.03733	7613.075
2708.64714	7596.475
2711.25533	7589.175
2713.86191	7603.275
2716.46687	7601.375
2719.07021	7611.875
2721.67194	7632.075
2724.27206	7623.375
2726.87057	7609.375
2729.46747	7616.075
2732.06276	7619.975
2734.65644	7605.575
2737.24852	7583.175
2739.83899	7579.275
2742.42786	7567.575
2745.01513	7554.975
2747.60079	7552.675
2750.18486	7549.175
2752.76733	7558.875
2755.3482	7498.075
2757.92747	7519.875
2760.50515	7501.975
2763.08123	7501.975
2765.65573	7476.575
2768.22863	7477.775
2770.79994	7447.575
2773.36967	7474.875
2775.9378	7441.175
2778.50435	7438.675
2781.06932	7447.175
2783.6327	7451.675
2786.1945	7468.975
2788.75471	7432.875
2791.31335	7432.675
2793.87041	7427.675
2796.42589	7412.775
2798.97979	7426.675
2801.53212	7424.675
2804.08288	7399.175
2806.63206	7388.175
2809.17967	7377.575
2811.72571	7377.775
2814.27018	7388.575
2816.81308	7382.175
2819.35442	7396.175
2821.89419	7389.575
2824.43239	7429.075
2826.96904	7418.075
2829.50412	7436.775
2832.03763	7435.275
2834.56959	7440.375
2837.1	7435.575
2839.62884	7429.675
2842.15613	7466.375
2844.68186	7532.175
2847.20604	7597.475
2849.72867	7629.275
2852.24974	7650.875
2854.76927	7651.475
2857.28724	7655.975
2859.80367	7643.075
2862.31855	7597.675
2864.83189	7605.175
2867.34368	7570.275
2869.85393	7579.175
2872.36264	7580.475
2874.8698	7566.275
2877.37543	7553.275
2879.87952	7545.575
2882.38207	7565.475
2884.88308	7536.975
2887.38256	7521.275
2889.88051	7502.975
2892.37692	7526.175
2894.8718	7511.575
2897.36515	7523.675
2899.85698	7516.375
2902.34727	7536.675
2904.83604	7538.575
2907.32328	7561.175
2909.809	7551.875
2912.29319	7562.275
2914.77587	7547.375
2917.25702	7539.675
2919.73665	7543.275
2922.21476	7539.375
2924.69136	7532.875
2927.16644	7504.075
2929.64	7511.475
2932.11205	7468.775
2934.58258	7440.075
2937.05161	7398.975
2939.51912	7378.075
2941.98513	7349.875
2944.44962	7317.475
2946.91261	7253.375
2949.37409	7239.275
2951.83407	7208.375
2954.29254	7192.575
2956.74951	7157.975
2959.20498	7153.875
2961.65895	7132.775
2964.11142	7132.575
2966.56239	7085.475
2969.01186	7105.075
2971.45984	7069.575
2973.90632	7051.675
2976.35131	7028.175
2978.7948	7003.975
2981.23681	6979.075
2983.67732	6975.375
2986.11635	6941.775
2988.55388	6936.275
2990.98993	6915.975
2993.4245	6881.675
2995.85758	6868.775
2998.28917	6840.375
3000.71928	6824.475
3003.14791	6817.575
3005.57506	6816.475
3008.00073	6801.875
3010.42493	6708.375
3012.84764	6787.875
3015.26888	6782.175
3017.68865	6761.275
3020.10694	6753.275
3022.52376	6714.475
3024.9391	6737.075
3027.35298	6702.775
3029.76539	6681.975
3032.17632	6680.175
3034.5858	6671.475
3036.9938	6645.575
3039.40034	6630.475
3041.80542	6649.675
3044.20903	6613.375
3046.61118	6605.875
3049.01187	6569.575
3051.4111	6594.075
3053.80888	6583.875
3056.20519	6549.775
3058.60005	6533.475
3060.99345	6530.575
3063.3854	6501.875
3065.7759	6482.175
3068.16494	6456.775
3070.55254	6426.975
3072.93868	6393.475
3075.32338	6383.475
3077.70662	6370.875
3080.08842	6348.175
3082.46878	6329.675
3084.84769	6316.675
3087.22515	6298.175
3089.60118	6292.375
3091.97576	6301.575
3094.3489	6259.375
3096.72061	6257.575
3099.09087	6279.975
3101.4597	6243.675
3103.82709	6240.575
3106.19305	6239.375
3108.55757	6222.075
3110.92066	6203.975
3113.28232	6197.375
3115.64255	6190.275
3118.00134	6179.675
3120.35871	6177.075
3122.71466	6160.975
3125.06917	6150.675
3127.42226	6108.875
3129.77393	6137.475
3132.12417	6129.275
3134.47299	6122.075
3136.82039	6098.975
3139.16636	6108.975
3141.51092	6113.175
3143.85406	6118.275
3146.19579	6109.875
3148.53609	6114.875
3150.87499	6105.075
3153.21246	6130.075
3155.54853	6142.375
3157.88318	6117.475
3160.21642	6139.175
3162.54826	6125.975
3164.87868	6139.975
3167.2077	6122.475
3169.5353	6117.675
3171.86151	6116.775
3174.18631	6109.075
3176.5097	6116.475
3178.83169	6116.375
