Data from AgNPs_FTO_APTES_UA_5uM_CRN_20uM_R6G_10uM_NaF_0.1M_Addition_RamanShift__19__13-25-06-781.txt Node

Date: Mon Feb 07 13:25:06 GMT 2022
User: TCL
Spectrometer: QEP01345
Trigger mode: 4
Integration Time (sec): 7.000000E0
Scans to average: 10
Electric dark correction enabled: true
Nonlinearity correction enabled: false
Boxcar width: 0
XAxis mode: Raman Shifts
Number of Pixels in Spectrum: 1044
>>>>>Begin Spectral Data<<<<<
46.04893	-0.5375
50.45542	-1.6375
54.85868	-0.4375
59.25871	-0.2375
63.6555	75.4625
68.04907	79.8625
72.43941	86.9625
76.82654	84.8625
81.21044	89.7625
85.59113	96.3625
89.96862	98.8625
94.34289	95.0625
98.71396	103.7625
103.08183	106.5625
107.4465	108.5625
111.80798	112.9625
116.16626	116.6625
120.52136	125.6625
124.87327	133.5625
129.222	139.9625
133.56755	148.3625
137.90993	165.8625
142.24913	181.8625
146.58517	208.3625
150.91804	244.2625
155.24774	297.7625
159.57429	374.0625
163.89768	485.7625
168.21792	652.5625
172.53501	893.9625
176.84895	1249.0625
181.15975	1758.8625
185.46741	2456.9625
189.77193	3387.9625
194.07331	4514.5625
198.37157	5811.1625
202.6667	7161.0625
206.9587	8471.8625
211.24758	9832.1625
215.53334	11141.6625
219.81599	12548.5625
224.09553	14131.7625
228.37195	15842.4625
232.64527	17734.6625
236.91549	19724.9625
241.18261	21666.6625
245.44663	23519.1625
249.70755	25144.7625
253.96539	26528.2625
258.22014	27747.5625
262.4718	28831.0625
266.72039	29590.3625
270.96589	30068.5625
275.20832	30284.2625
279.44768	30301.7625
283.68397	30285.1625
287.91719	30269.0625
292.14735	30355.2625
296.37445	30519.8625
300.59849	30691.5625
304.81948	30738.7625
309.03742	30480.8625
313.25231	29882.4625
317.46415	29000.6625
321.67296	27959.7625
325.87872	27106.0625
330.08145	26650.0625
334.28114	26473.3625
338.47781	26599.0625
342.67145	26846.4625
346.86207	27181.1625
351.04966	27659.1625
355.23424	28154.2625
359.4158	28561.2625
363.59435	28802.9625
367.76989	28965.1625
371.94243	29058.6625
376.11196	29182.5625
380.27849	29308.4625
384.44203	29508.0625
388.60257	29788.3625
392.76012	30156.9625
396.91468	30608.4625
401.06626	31109.7625
405.21485	31402.1625
409.36047	31204.3625
413.50311	30720.3625
417.64277	30409.1625
421.77947	30427.8625
425.9132	30595.8625
430.04396	30822.5625
434.17176	31051.6625
438.2966	31301.7625
442.41849	31937.2625
446.53742	32840.7625
450.6534	33985.4625
454.76644	34816.0625
458.87653	35164.9625
462.98368	35193.4625
467.08789	34833.4625
471.18916	34477.0625
475.2875	34331.8625
479.38291	34450.1625
483.4754	34359.3625
487.56496	33844.7625
491.6516	32924.0625
495.73531	32007.5625
499.81612	31424.4625
503.89401	31363.0625
507.96899	31418.3625
512.04106	31259.3625
516.11023	30841.3625
520.1765	30340.4625
524.23987	29800.0625
528.30034	29422.7625
532.35792	29110.0625
536.41261	28767.4625
540.46441	28531.4625
544.51333	28633.6625
548.55936	29269.5625
552.60252	30150.4625
556.64279	31222.1625
560.6802	31958.4625
564.71473	32520.5625
568.7464	33301.5625
572.7752	34417.1625
576.80114	35363.6625
580.82422	36092.5625
584.84444	36711.9625
588.86181	37204.4625
592.87633	37649.4625
596.888	37827.2625
600.89682	37472.8625
604.9028	37937.0625
608.90594	40089.5625
612.90624	41931.2625
616.90371	38595.9625
620.89834	32365.7625
624.89015	29842.1625
628.87913	29799.0625
632.86528	30073.6625
636.84862	29883.4625
640.82913	29271.1625
644.80683	28310.0625
648.78172	27523.2625
652.75379	27191.3625
656.72306	27351.1625
660.68952	27707.8625
664.65319	27561.8625
668.61405	27104.3625
672.57211	26927.3625
676.52738	26957.0625
680.47986	26942.9625
684.42955	26807.2625
688.37646	26746.9625
692.32058	26881.5625
696.26192	27169.5625
700.20048	27558.4625
704.13626	27794.6625
708.06928	27847.9625
711.99952	27662.1625
715.927	27581.9625
719.85171	27635.0625
723.77365	27535.3625
727.69284	27166.6625
731.60928	26846.4625
735.52295	26654.3625
739.43388	26678.2625
743.34206	26760.8625
747.24749	26899.3625
751.15017	27248.9625
755.05012	27938.2625
758.94733	29008.0625
762.8418	30810.3625
766.73354	33430.2625
770.62254	35690.8625
774.50882	35619.0625
778.39237	33398.2625
782.27321	30672.8625
786.15132	28575.0625
790.02671	27297.9625
793.89938	26698.6625
797.76935	26447.0625
801.6366	26460.1625
805.50115	26432.0625
809.36299	26236.5625
813.22213	26059.6625
817.07857	25932.7625
820.93231	25845.2625
824.78336	25614.7625
828.63172	25424.0625
832.47738	25308.5625
836.32036	25295.7625
840.16066	25402.5625
843.99827	25549.7625
847.8332	25475.6625
851.66546	25290.3625
855.49504	25215.0625
859.32195	25184.7625
863.1462	25042.9625
866.96777	24919.6625
870.78668	24822.0625
874.60293	24782.5625
878.41652	24768.7625
882.22745	24836.2625
886.03573	24948.6625
889.84136	24912.3625
893.64433	24824.7625
897.44466	24696.8625
901.24235	24604.8625
905.0374	24506.0625
908.8298	24467.0625
912.61957	24574.0625
916.40671	24960.7625
920.19121	25477.7625
923.97308	25889.9625
927.75233	25825.1625
931.52895	25435.6625
935.30295	25026.2625
939.07433	24375.0625
942.84309	23891.7625
946.60924	23696.3625
950.37278	23613.3625
954.13371	23602.0625
957.89203	23566.9625
961.64774	23549.6625
965.40086	23513.5625
969.15137	23423.6625
972.89929	23206.7625
976.64461	23024.3625
980.38733	22920.2625
984.12747	23030.3625
987.86502	23259.0625
991.59999	23539.5625
995.33237	24097.6625
999.06217	24956.2625
1002.78939	25953.2625
1006.51404	26534.7625
1010.23611	26790.3625
1013.95561	27006.2625
1017.67255	27055.0625
1021.38692	26728.7625
1025.09872	26359.0625
1028.80796	26446.3625
1032.51465	27206.7625
1036.21877	28025.7625
1039.92035	28187.7625
1043.61937	27761.5625
1047.31584	27035.8625
1051.00976	26340.7625
1054.70114	26073.4625
1058.38998	26266.2625
1062.07627	26592.6625
1065.76003	26862.5625
1069.44126	27164.0625
1073.11995	27448.3625
1076.79611	27795.5625
1080.46974	27915.5625
1084.14085	28139.4625
1087.80943	28484.9625
1091.47549	28845.0625
1095.13903	29011.3625
1098.80005	28686.6625
1102.45857	27963.2625
1106.11456	27262.9625
1109.76805	26922.3625
1113.41903	26910.1625
1117.06751	27103.9625
1120.71348	27388.3625
1124.35696	27696.1625
1127.99793	28010.3625
1131.63641	28317.0625
1135.2724	28316.3625
1138.90589	28319.8625
1142.5369	28391.7625
1146.16542	28666.4625
1149.79145	29113.2625
1153.415	29706.9625
1157.03607	30519.2625
1160.65467	31786.8625
1164.27079	33552.9625
1167.88443	35930.6625
1171.49561	38727.9625
1175.10432	42166.2625
1178.71056	46307.6625
1182.31434	50122.7625
1185.91565	52177.9625
1189.51451	52276.2625
1193.11091	50899.6625
1196.70485	48798.1625
1200.29634	46414.7625
1203.88538	44631.0625
1207.47197	43634.8625
1211.05612	42918.7625
1214.63782	42122.8625
1218.21708	40993.4625
1221.79391	39966.7625
1225.36829	39164.3625
1228.94024	38313.3625
1232.50976	37280.6625
1236.07685	36461.1625
1239.6415	36092.5625
1243.20374	35968.7625
1246.76355	36267.0625
1250.32093	36873.9625
1253.8759	37868.8625
1257.42845	39201.0625
1260.97859	40506.3625
1264.52631	41763.5625
1268.07163	43159.8625
1271.61453	44713.5625
1275.15503	46554.8625
1278.69312	48501.8625
1282.22882	50493.8625
1285.76211	52392.8625
1289.29301	54629.4625
1292.82151	57591.9625
1296.34761	61397.3625
1299.87133	65825.6625
1303.39266	70287.0625
1306.9116	74561.4625
1310.42815	78003.1625
1313.94233	80159.0625
1317.45412	80514.9625
1320.96354	79793.8625
1324.47058	79013.6625
1327.97525	78407.5625
1331.47754	77777.9625
1334.97747	77338.0625
1338.47502	76831.1625
1341.97022	75991.1625
1345.46305	74404.0625
1348.95352	72057.4625
1352.44163	69785.1625
1355.92738	68751.7625
1359.41078	69576.5625
1362.89183	70510.3625
1366.37053	68940.8625
1369.84688	64052.9625
1373.32088	58044.8625
1376.79254	53788.3625
1380.26186	52599.0625
1383.72883	53202.8625
1387.19347	54047.7625
1390.65578	54367.1625
1394.11575	54931.2625
1397.57339	56106.5625
1401.0287	57655.9625
1404.48168	58704.7625
1407.93234	58597.7625
1411.38068	56926.6625
1414.82669	54019.4625
1418.27039	50635.5625
1421.71177	47298.5625
1425.15083	44673.4625
1428.58758	43351.9625
1432.02203	43487.7625
1435.45416	44862.6625
1438.88399	46719.5625
1442.31151	48528.2625
1445.73673	49921.7625
1449.15965	51194.9625
1452.58027	52264.5625
1455.9986	52911.2625
1459.41463	53506.1625
1462.82837	54347.0625
1466.23982	55119.6625
1469.64898	55796.5625
1473.05586	55843.3625
1476.46045	55322.0625
1479.86276	54333.5625
1483.26279	53154.5625
1486.66054	52268.4625
1490.05602	51850.4625
1493.44922	51777.0625
1496.84016	51791.6625
1500.22882	52268.3625
1503.61521	53334.8625
1506.99934	54670.7625
1510.38121	56026.7625
1513.76081	56612.7625
1517.13816	56131.9625
1520.51324	55079.2625
1523.88607	54239.1625
1527.25665	53937.8625
1530.62498	54100.9625
1533.99105	54328.3625
1537.35488	54116.5625
1540.71647	53274.2625
1544.07581	51761.1625
1547.4329	50008.1625
1550.78776	48548.6625
1554.14038	47514.7625
1557.49077	46967.5625
1560.83892	46611.0625
1564.18484	46421.6625
1567.52853	46402.3625
1570.86999	46634.0625
1574.20922	47700.2625
1577.54624	48807.1625
1580.88103	49754.0625
1584.2136	50982.1625
1587.54395	53077.1625
1590.87208	56156.5625
1594.19801	59774.1625
1597.52172	63023.5625
1600.84321	63650.8625
1604.16251	60116.4625
1607.47959	54429.6625
1610.79447	48638.7625
1614.10715	43485.6625
1617.41763	39309.9625
1620.7259	36379.6625
1624.03199	34860.4625
1627.33587	34756.4625
1630.63757	36142.2625
1633.93707	39367.9625
1637.23439	44456.6625
1640.52951	51336.5625
1643.82246	58889.3625
1647.11321	64369.2625
1650.40179	64801.3625
1653.68819	59506.8625
1656.97241	50748.0625
1660.25446	42032.2625
1663.53433	35274.4625
1666.81203	30813.3625
1670.08756	27955.4625
1673.36092	26150.8625
1676.63211	24964.9625
1679.90115	24174.2625
1683.16801	23594.2625
1686.43272	23155.3625
1689.69527	22803.2625
1692.95567	22550.8625
1696.2139	22344.1625
1699.46999	22228.8625
1702.72392	22062.8625
1705.97571	21973.8625
1709.22535	21851.7625
1712.47284	21755.2625
1715.71819	21704.0625
1718.96139	21573.2625
1722.20246	21488.2625
1725.44139	21354.8625
1728.67818	21206.0625
1731.91284	21017.7625
1735.14537	20855.1625
1738.37576	20740.0625
1741.60403	20639.4625
1744.83017	20523.7625
1748.05418	20449.8625
1751.27607	20422.3625
1754.49584	20364.6625
1757.71349	20392.9625
1760.92903	20345.1625
1764.14244	20280.3625
1767.35375	20301.7625
1770.56294	20213.5625
1773.77002	20147.9625
1776.97499	20101.1625
1780.17785	20052.4625
1783.37861	19989.8625
1786.57727	19955.0625
1789.77382	19901.4625
1792.96828	19881.6625
1796.16064	19826.5625
1799.3509	19757.2625
1802.53907	19726.8625
1805.72514	19664.4625
1808.90913	19607.0625
1812.09102	19520.9625
1815.27083	19501.0625
1818.44856	19461.6625
1821.6242	19438.3625
1824.79776	19386.0625
1827.96924	19370.5625
1831.13864	19368.5625
1834.30597	19376.7625
1837.47122	19410.4625
1840.6344	19381.8625
1843.7955	19389.0625
1846.95454	19368.7625
1850.11151	19393.6625
1853.26642	19353.7625
1856.41926	19344.9625
1859.57004	19390.4625
1862.71876	19344.8625
1865.86542	19322.6625
1869.01003	19315.7625
1872.15258	19275.4625
1875.29308	19242.7625
1878.43152	19231.5625
1881.56792	19234.4625
1884.70227	19220.6625
1887.83457	19202.6625
1890.96482	19169.9625
1894.09304	19158.2625
1897.21921	19159.6625
1900.34335	19132.1625
1903.46544	19119.0625
1906.58551	19102.1625
1909.70353	19103.1625
1912.81953	19055.5625
1915.93349	19018.9625
1919.04543	18932.8625
1922.15534	18890.9625
1925.26322	18831.7625
1928.36908	18754.2625
1931.47292	18742.2625
1934.57473	18684.4625
1937.67453	18582.7625
1940.77232	18517.9625
1943.86808	18435.7625
1946.96184	18383.4625
1950.05358	18363.3625
1953.14331	18281.9625
1956.23103	18176.9625
1959.31675	18130.6625
1962.40046	18059.9625
1965.48217	18016.3625
1968.56188	17943.4625
1971.63959	17898.9625
1974.7153	17820.6625
1977.78901	17787.4625
1980.86073	17719.7625
1983.93046	17612.8625
1986.99819	17600.7625
1990.06394	17532.4625
1993.1277	17472.0625
1996.18947	17451.8625
1999.24925	17370.0625
2002.30706	17313.3625
2005.36288	17262.0625
2008.41672	17253.7625
2011.46859	17191.3625
2014.51848	17131.4625
2017.56639	17105.7625
2020.61233	17057.4625
2023.6563	17016.8625
2026.6983	16996.4625
2029.73833	16948.4625
2032.7764	16896.1625
2035.8125	16884.7625
2038.84664	16841.7625
2041.87881	16828.8625
2044.90903	16806.4625
2047.93729	16791.6625
2050.96359	16765.6625
2053.98794	16755.6625
2057.01034	16760.4625
2060.03078	16737.8625
2063.04927	16711.3625
2066.06582	16697.0625
2069.08042	16686.8625
2072.09307	16676.7625
2075.10378	16625.6625
2078.11255	16623.1625
2081.11938	16612.2625
2084.12426	16581.9625
2087.12722	16542.2625
2090.12824	16554.0625
2093.12732	16535.5625
2096.12447	16559.0625
2099.11969	16517.2625
2102.11299	16520.6625
2105.10435	16549.9625
2108.09379	16542.2625
2111.08131	16541.0625
2114.0669	16580.3625
2117.05057	16597.5625
2120.03233	16573.6625
2123.01216	16568.3625
2125.99008	16591.8625
2128.96609	16601.6625
2131.94018	16561.3625
2134.91236	16604.2625
2137.88263	16616.4625
2140.851	16638.2625
2143.81746	16643.1625
2146.78201	16612.3625
2149.74466	16603.4625
2152.7054	16606.4625
2155.66425	16593.7625
2158.6212	16602.2625
2161.57625	16581.3625
2164.52941	16574.9625
2167.48067	16567.0625
2170.43004	16528.5625
2173.37752	16555.2625
2176.32311	16552.7625
2179.26681	16548.5625
2182.20863	16546.8625
2185.14856	16575.6625
2188.08661	16595.3625
2191.02278	16601.7625
2193.95707	16552.2625
2196.88948	16531.4625
2199.82001	16497.2625
2202.74867	16497.9625
2205.67545	16514.1625
2208.60037	16460.9625
2211.52341	16483.3625
2214.44458	16474.1625
2217.36388	16438.5625
2220.28132	16417.5625
2223.1969	16393.1625
2226.11061	16343.6625
2229.02246	16286.6625
2231.93245	16264.7625
2234.84058	16224.3625
2237.74686	16212.0625
2240.65128	16175.4625
2243.55385	16138.1625
2246.45456	16117.6625
2249.35343	16096.4625
2252.25044	16019.6625
2255.14561	16024.5625
2258.03893	15994.1625
2260.93041	15955.5625
2263.82004	15922.7625
2266.70783	15891.5625
2269.59378	15817.7625
2272.4779	15762.2625
2275.36017	15740.7625
2278.24061	15719.1625
2281.11922	15679.1625
2283.996	15676.8625
2286.87094	15676.0625
2289.74405	15653.1625
2292.61534	15630.4625
2295.4848	15624.4625
2298.35243	15620.0625
2301.21824	15640.1625
2304.08223	15619.2625
2306.94439	15664.3625
2309.80474	15674.7625
2312.66327	15710.6625
2315.51999	15669.4625
2318.37489	15663.1625
2321.22797	15641.3625
2324.07925	15647.9625
2326.92871	15610.1625
2329.77637	15600.3625
2332.62222	15602.7625
2335.46626	15577.7625
2338.3085	15590.6625
2341.14893	15599.4625
2343.98756	15636.4625
2346.8244	15644.1625
2349.65943	15658.7625
2352.49267	15629.6625
2355.32411	15659.3625
2358.15376	15629.9625
2360.98161	15622.0625
2363.80768	15599.5625
2366.63195	15594.2625
2369.45444	15548.1625
2372.27514	15526.2625
2375.09405	15495.0625
2377.91118	15475.3625
2380.72652	15400.1625
2383.54009	15384.8625
2386.35187	15356.8625
2389.16188	15308.2625
2391.97011	15303.1625
2394.77657	15276.0625
2397.58125	15268.9625
2400.38416	15256.6625
2403.18529	15199.1625
2405.98466	15185.7625
2408.78226	15152.5625
2411.57809	15136.2625
2414.37216	15150.2625
2417.16446	15121.4625
2419.955	15120.5625
2422.74378	15081.6625
2425.5308	15028.4625
2428.31606	15044.5625
2431.09956	15032.1625
2433.88131	15045.1625
2436.6613	15039.8625
2439.43954	15054.1625
2442.21603	15054.9625
2444.99077	15041.4625
2447.76377	15047.0625
2450.53501	15024.2625
2453.30451	15018.3625
2456.07226	15013.5625
2458.83827	15013.5625
2461.60254	15007.0625
2464.36507	15020.6625
2467.12586	15033.2625
2469.88492	15058.2625
2472.64224	15048.3625
2475.39782	15091.3625
2478.15167	15110.1625
2480.90379	15071.2625
2483.65417	15093.6625
2486.40283	15113.4625
2489.14976	15177.4625
2491.89497	15152.5625
2494.63845	15166.0625
2497.3802	15192.9625
2500.12024	15193.8625
2502.85855	15179.2625
2505.59514	15148.4625
2508.33002	15135.3625
2511.06318	15137.2625
2513.79462	15127.5625
2516.52435	15119.8625
2519.25237	15160.1625
2521.97867	15114.0625
2524.70327	15104.2625
2527.42616	15114.2625
2530.14734	15118.1625
2532.86681	15127.1625
2535.58458	15115.9625
2538.30065	15116.9625
2541.01501	15081.8625
2543.72768	15071.1625
2546.43864	15083.6625
2549.14791	15062.3625
2551.85548	15088.6625
2554.56136	15094.0625
2557.26554	15005.8625
2559.96803	15029.0625
2562.66883	15002.7625
2565.36794	14993.9625
2568.06536	15005.9625
2570.7611	14984.5625
2573.45514	15016.6625
2576.14751	14989.2625
2578.83819	14993.2625
2581.52719	14995.4625
2584.21451	15018.2625
2586.90015	15018.4625
2589.58411	15006.2625
2592.2664	15006.2625
2594.94701	15019.4625
2597.62594	15020.8625
2600.30321	15011.9625
2602.9788	15016.9625
2605.65273	15004.4625
2608.32498	15034.3625
2610.99557	15025.5625
2613.66449	15048.6625
2616.33175	15032.5625
2618.99734	15101.7625
2621.66128	15099.7625
2624.32355	15104.8625
2626.98416	15075.7625
2629.64311	15117.0625
2632.30041	15136.4625
2634.95605	15122.7625
2637.61004	15081.0625
2640.26238	15091.2625
2642.91306	15071.6625
2645.56209	15043.2625
2648.20948	15076.0625
2650.85521	15077.6625
2653.4993	15117.6625
2656.14175	15072.8625
2658.78255	15110.8625
2661.42171	15131.1625
2664.05923	15140.8625
2666.6951	15113.9625
2669.32934	15165.8625
2671.96194	15140.2625
2674.59291	15151.6625
2677.22224	15156.5625
2679.84993	15148.2625
2682.476	15124.9625
2685.10043	15090.2625
2687.72324	15083.2625
2690.34441	15081.8625
2692.96396	15059.3625
2695.58188	15051.1625
2698.19818	15075.2625
2700.81285	15077.3625
2703.4259	15109.1625
2706.03733	15129.5625
2708.64714	15101.1625
2711.25533	15100.2625
2713.86191	15123.2625
2716.46687	15123.4625
2719.07021	15151.9625
2721.67194	15163.8625
2724.27206	15164.3625
2726.87057	15226.9625
2729.46747	15218.0625
2732.06276	15262.8625
2734.65644	15252.4625
2737.24852	15226.6625
2739.83899	15206.1625
2742.42786	15248.3625
2745.01513	15203.1625
2747.60079	15213.7625
2750.18486	15207.1625
2752.76733	15208.3625
2755.3482	15173.6625
2757.92747	15233.4625
2760.50515	15227.8625
2763.08123	15225.0625
2765.65573	15228.3625
2768.22863	15239.8625
2770.79994	15236.5625
2773.36967	15254.7625
2775.9378	15239.0625
2778.50435	15265.2625
2781.06932	15239.0625
2783.6327	15244.1625
2786.1945	15269.4625
2788.75471	15274.4625
2791.31335	15230.6625
2793.87041	15217.9625
2796.42589	15219.7625
2798.97979	15197.5625
2801.53212	15207.1625
2804.08288	15148.3625
2806.63206	15095.7625
2809.17967	15095.9625
2811.72571	15062.2625
2814.27018	15042.8625
2816.81308	15005.6625
2819.35442	14994.1625
2821.89419	14948.6625
2824.43239	14996.0625
2826.96904	14996.6625
2829.50412	14976.6625
2832.03763	14936.9625
2834.56959	14911.9625
2837.1	14891.2625
2839.62884	14909.1625
2842.15613	14904.4625
2844.68186	14959.3625
2847.20604	14963.9625
2849.72867	14966.3625
2852.24974	14958.1625
2854.76927	14957.2625
2857.28724	14974.6625
2859.80367	14957.9625
2862.31855	14931.8625
2864.83189	14911.2625
2867.34368	14890.0625
2869.85393	14886.2625
2872.36264	14873.6625
2874.8698	14830.0625
2877.37543	14811.6625
2879.87952	14844.6625
2882.38207	14842.1625
2884.88308	14851.9625
2887.38256	14856.7625
2889.88051	14863.8625
2892.37692	14899.4625
2894.8718	14868.2625
2897.36515	14910.0625
2899.85698	14949.7625
2902.34727	14952.8625
2904.83604	15012.7625
2907.32328	15032.7625
2909.809	15043.0625
2912.29319	15048.9625
2914.77587	15024.5625
2917.25702	15048.0625
2919.73665	15036.3625
2922.21476	15016.0625
2924.69136	15038.8625
2927.16644	15019.7625
2929.64	14968.5625
2932.11205	14954.1625
2934.58258	14902.0625
2937.05161	14925.9625
2939.51912	14933.8625
2941.98513	14919.0625
2944.44962	14878.4625
2946.91261	14844.6625
2949.37409	14842.2625
2951.83407	14786.5625
2954.29254	14765.6625
2956.74951	14746.6625
2959.20498	14738.8625
2961.65895	14714.4625
2964.11142	14719.2625
2966.56239	14654.3625
2969.01186	14669.7625
2971.45984	14644.9625
2973.90632	14639.3625
2976.35131	14605.1625
2978.7948	14588.8625
2981.23681	14523.8625
2983.67732	14528.1625
2986.11635	14445.2625
2988.55388	14434.4625
2990.98993	14409.5625
2993.4245	14340.8625
2995.85758	14306.6625
2998.28917	14242.5625
3000.71928	14224.5625
3003.14791	14183.3625
3005.57506	14175.9625
3008.00073	14117.7625
3010.42493	14025.9625
3012.84764	14059.6625
3015.26888	14061.6625
3017.68865	14028.2625
3020.10694	13978.2625
3022.52376	13970.9625
