Data from AgNPs_FTO_APTES_UA_5uM_CRN_50uM_R6G_10uM_NaF_0.1M_Addition_RamanShift__4__13-47-16-807.txt Node

Date: Mon Feb 07 13:47:16 GMT 2022
User: TCL
Spectrometer: QEP01345
Trigger mode: 4
Integration Time (sec): 7.000000E0
Scans to average: 10
Electric dark correction enabled: true
Nonlinearity correction enabled: false
Boxcar width: 0
XAxis mode: Raman Shifts
Number of Pixels in Spectrum: 1044
>>>>>Begin Spectral Data<<<<<
46.04893	-0.675
50.45542	-0.475
54.85868	-1.275
59.25871	0.825
63.6555	81.325
68.04907	82.525
72.43941	86.725
76.82654	90.625
81.21044	90.325
85.59113	96.225
89.96862	102.325
94.34289	100.025
98.71396	107.425
103.08183	108.725
107.4465	112.725
111.80798	116.025
116.16626	116.025
120.52136	126.925
124.87327	131.025
129.222	141.325
133.56755	150.125
137.90993	167.325
142.24913	180.825
146.58517	210.725
150.91804	242.625
155.24774	292.425
159.57429	373.325
163.89768	484.425
168.21792	650.425
172.53501	888.025
176.84895	1238.225
181.15975	1756.425
185.46741	2457.225
189.77193	3386.525
194.07331	4506.525
198.37157	5792.825
202.6667	7148.025
206.9587	8524.625
211.24758	9838.025
215.53334	11157.725
219.81599	12626.125
224.09553	14150.825
228.37195	15914.425
232.64527	17743.125
236.91549	19679.825
241.18261	21583.825
245.44663	23397.625
249.70755	24950.925
253.96539	26334.725
258.22014	27559.525
262.4718	28586.925
266.72039	29332.825
270.96589	29696.225
275.20832	29798.825
279.44768	29703.225
283.68397	29470.425
287.91719	29332.125
292.14735	29259.525
296.37445	29350.225
300.59849	29497.525
304.81948	29618.125
309.03742	29526.225
313.25231	29259.125
317.46415	28589.525
321.67296	27898.425
325.87872	27310.525
330.08145	26894.725
334.28114	26855.625
338.47781	26901.025
342.67145	27153.825
346.86207	27527.925
351.04966	28007.025
355.23424	28556.025
359.4158	29024.125
363.59435	29375.125
367.76989	29577.425
371.94243	29712.325
376.11196	29804.825
380.27849	29947.325
384.44203	30052.625
388.60257	30312.225
392.76012	30704.625
396.91468	31182.525
401.06626	31692.725
405.21485	32006.125
409.36047	31884.925
413.50311	31559.825
417.64277	31456.625
421.77947	31602.625
425.9132	31729.125
430.04396	31945.625
434.17176	32135.225
438.2966	32356.625
442.41849	33004.725
446.53742	34042.725
450.6534	35317.325
454.76644	36209.225
458.87653	36448.825
462.98368	36183.325
467.08789	35625.925
471.18916	34976.925
475.2875	34527.025
479.38291	34492.925
483.4754	34384.125
487.56496	34042.225
491.6516	33280.025
495.73531	32388.125
499.81612	31761.925
503.89401	31732.425
507.96899	31746.025
512.04106	31634.525
516.11023	31238.725
520.1765	30751.325
524.23987	30354.625
528.30034	29973.625
532.35792	29740.425
536.41261	29344.325
540.46441	28998.625
544.51333	28982.425
548.55936	29385.925
552.60252	30206.025
556.64279	31188.625
560.6802	32005.825
564.71473	32673.025
568.7464	33500.225
572.7752	34917.225
576.80114	36191.825
580.82422	37394.825
584.84444	38842.825
588.86181	40628.625
592.87633	41908.125
596.888	41380.325
600.89682	39274.325
604.9028	38318.725
608.90594	39825.725
612.90624	41544.425
616.90371	38624.325
620.89834	32686.125
624.89015	30086.925
628.87913	29839.025
632.86528	29986.525
636.84862	29728.125
640.82913	29116.125
644.80683	28343.825
648.78172	27830.025
652.75379	27777.225
656.72306	28078.625
660.68952	28403.825
664.65319	28215.525
668.61405	27666.925
672.57211	27578.625
676.52738	27674.225
680.47986	27682.925
684.42955	27430.525
688.37646	27293.725
692.32058	27521.225
696.26192	27985.325
700.20048	28479.625
704.13626	28780.325
708.06928	28785.225
711.99952	28701.725
715.927	28746.425
719.85171	28947.625
723.77365	28804.825
727.69284	28279.425
731.60928	27860.125
735.52295	27675.525
739.43388	27665.025
743.34206	27752.325
747.24749	27993.225
751.15017	28352.925
755.05012	29036.825
758.94733	30026.225
762.8418	31612.425
766.73354	33832.225
770.62254	35589.825
774.50882	35501.625
778.39237	33623.525
782.27321	31142.225
786.15132	29315.625
790.02671	28215.025
793.89938	27681.625
797.76935	27468.925
801.6366	27478.325
805.50115	27416.025
809.36299	27275.425
813.22213	27099.225
817.07857	26959.325
820.93231	26815.725
824.78336	26600.125
828.63172	26409.325
832.47738	26293.225
836.32036	26313.425
840.16066	26428.825
843.99827	26587.225
847.8332	26495.225
851.66546	26383.725
855.49504	26324.225
859.32195	26327.925
863.1462	26199.625
866.96777	26076.925
870.78668	25928.825
874.60293	25930.025
878.41652	25920.525
882.22745	25966.325
886.03573	26036.825
889.84136	26016.925
893.64433	25914.325
897.44466	25775.325
901.24235	25704.225
905.0374	25686.125
908.8298	25634.725
912.61957	25731.725
916.40671	26106.725
920.19121	26687.625
923.97308	27109.525
927.75233	27071.125
931.52895	26737.025
935.30295	26109.825
939.07433	25532.625
942.84309	25163.825
946.60924	25009.125
950.37278	24943.225
954.13371	24900.625
957.89203	24850.725
961.64774	24897.325
965.40086	24877.425
969.15137	24785.725
972.89929	24620.625
976.64461	24439.025
980.38733	24437.425
984.12747	24508.925
987.86502	24669.725
991.59999	24934.925
995.33237	25390.025
999.06217	26130.925
1002.78939	26978.825
1006.51404	27622.825
1010.23611	28038.925
1013.95561	28363.625
1017.67255	28326.025
1021.38692	27929.125
1025.09872	27464.625
1028.80796	27473.225
1032.51465	28066.525
1036.21877	28841.125
1039.92035	29086.925
1043.61937	28926.025
1047.31584	28328.225
1051.00976	27695.125
1054.70114	27376.525
1058.38998	27345.825
1062.07627	27539.725
1065.76003	27779.525
1069.44126	28100.525
1073.11995	28530.325
1076.79611	28897.325
1080.46974	29037.825
1084.14085	29251.125
1087.80943	29654.225
1091.47549	30014.625
1095.13903	30097.725
1098.80005	29689.625
1102.45857	28971.425
1106.11456	28311.225
1109.76805	28022.625
1113.41903	28053.925
1117.06751	28259.725
1120.71348	28494.825
1124.35696	28797.725
1127.99793	29174.925
1131.63641	29452.425
1135.2724	29429.125
1138.90589	29497.125
1142.5369	29686.425
1146.16542	30112.525
1149.79145	30649.125
1153.415	31176.925
1157.03607	32031.625
1160.65467	33521.725
1164.27079	35716.125
1167.88443	38155.525
1171.49561	40556.825
1175.10432	43345.425
1178.71056	46916.125
1182.31434	50212.725
1185.91565	51655.725
1189.51451	51020.125
1193.11091	49460.825
1196.70485	47678.825
1200.29634	46035.125
1203.88538	45178.525
1207.47197	45045.825
1211.05612	44685.925
1214.63782	43711.325
1218.21708	42174.525
1221.79391	40657.625
1225.36829	39564.925
1228.94024	38588.725
1232.50976	37551.425
1236.07685	36791.625
1239.6415	36423.025
1243.20374	36451.925
1246.76355	36902.825
1250.32093	37653.025
1253.8759	38587.025
1257.42845	39797.925
1260.97859	40961.125
1264.52631	42290.925
1268.07163	43651.125
1271.61453	45184.325
1275.15503	46848.025
1278.69312	48794.825
1282.22882	50819.825
1285.76211	53223.725
1289.29301	56060.225
1292.82151	59567.125
1296.34761	63980.925
1299.87133	69002.225
1303.39266	73860.825
1306.9116	77812.525
1310.42815	80259.625
1313.94233	81132.025
1317.45412	80305.525
1320.96354	78952.125
1324.47058	77815.025
1327.97525	77041.925
1331.47754	76402.325
1334.97747	75739.225
1338.47502	74560.925
1341.97022	72547.825
1345.46305	70239.625
1348.95352	68213.625
1352.44163	67573.025
1355.92738	68794.225
1359.41078	71544.625
1362.89183	73481.625
1366.37053	72417.725
1369.84688	66968.325
1373.32088	59494.025
1376.79254	54330.025
1380.26186	53063.825
1383.72883	53980.725
1387.19347	54781.925
1390.65578	54652.325
1394.11575	54798.125
1397.57339	56004.325
1401.0287	57724.825
1404.48168	59039.125
1407.93234	58986.525
1411.38068	57291.325
1414.82669	54442.125
1418.27039	51166.225
1421.71177	47857.025
1425.15083	45239.025
1428.58758	44060.125
1432.02203	44418.325
1435.45416	46124.925
1438.88399	48245.825
1442.31151	49955.025
1445.73673	51135.225
1449.15965	51905.425
1452.58027	52239.525
1455.9986	52173.325
1459.41463	52168.825
1462.82837	52701.225
1466.23982	53713.525
1469.64898	54663.725
1473.05586	55255.625
1476.46045	55297.325
1479.86276	54745.225
1483.26279	53845.725
1486.66054	53165.025
1490.05602	52999.925
1493.44922	53079.525
1496.84016	53085.925
1500.22882	53219.725
1503.61521	53662.325
1506.99934	54521.025
1510.38121	55379.925
1513.76081	55611.125
1517.13816	55149.725
1520.51324	54383.925
1523.88607	54077.425
1527.25665	54547.825
1530.62498	55217.625
1533.99105	55457.925
1537.35488	54876.125
1540.71647	53492.925
1544.07581	51655.125
1547.4329	49572.025
1550.78776	47857.425
1554.14038	46581.325
1557.49077	45766.125
1560.83892	45219.425
1564.18484	44901.025
1567.52853	45003.125
1570.86999	45515.725
1574.20922	46820.325
1577.54624	48241.325
1580.88103	49449.625
1584.2136	51005.925
1587.54395	53748.225
1590.87208	57693.825
1594.19801	61838.625
1597.52172	65119.825
1600.84321	65212.425
1604.16251	61064.125
1607.47959	54498.725
1610.79447	47977.325
1614.10715	42623.725
1617.41763	38707.825
1620.7259	36324.725
1624.03199	35332.825
1627.33587	35654.925
1630.63757	37342.125
1633.93707	40688.925
1637.23439	46063.625
1640.52951	53677.825
1643.82246	62459.125
1647.11321	69095.425
1650.40179	69510.025
1653.68819	62898.425
1656.97241	52648.025
1660.25446	43192.325
1663.53433	36259.725
1666.81203	31838.225
1670.08756	29124.025
1673.36092	27469.825
1676.63211	26380.325
1679.90115	25646.625
1683.16801	25082.625
1686.43272	24699.325
1689.69527	24375.325
1692.95567	24142.925
1696.2139	23955.925
1699.46999	23817.125
1702.72392	23691.425
1705.97571	23580.825
1709.22535	23509.925
1712.47284	23411.925
1715.71819	23373.625
1718.96139	23276.225
1722.20246	23140.425
1725.44139	23044.025
1728.67818	22897.725
1731.91284	22717.725
1735.14537	22582.125
1738.37576	22425.025
1741.60403	22345.225
1744.83017	22232.625
1748.05418	22166.725
1751.27607	22136.825
1754.49584	22139.625
1757.71349	22076.125
1760.92903	22046.525
1764.14244	22039.725
1767.35375	22021.625
1770.56294	21989.925
1773.77002	21921.025
1776.97499	21838.225
1780.17785	21788.925
1783.37861	21727.225
1786.57727	21716.325
1789.77382	21676.725
1792.96828	21672.925
1796.16064	21604.825
1799.3509	21544.325
1802.53907	21488.825
1805.72514	21390.725
1808.90913	21386.225
1812.09102	21300.225
1815.27083	21254.025
1818.44856	21218.425
1821.6242	21186.825
1824.79776	21180.125
1827.96924	21172.525
1831.13864	21130.725
1834.30597	21137.725
1837.47122	21133.425
1840.6344	21113.625
1843.7955	21102.825
1846.95454	21101.525
1850.11151	21110.325
1853.26642	21056.425
1856.41926	21065.125
1859.57004	21081.325
1862.71876	21055.025
1865.86542	20998.125
1869.01003	20980.525
1872.15258	20937.025
1875.29308	20934.525
1878.43152	20884.825
1881.56792	20932.225
1884.70227	20914.225
1887.83457	20890.025
1890.96482	20852.325
1894.09304	20824.025
1897.21921	20792.125
1900.34335	20802.325
1903.46544	20775.225
1906.58551	20765.325
1909.70353	20710.425
1912.81953	20711.425
1915.93349	20672.025
1919.04543	20626.525
1922.15534	20552.625
1925.26322	20502.425
1928.36908	20471.725
1931.47292	20410.525
1934.57473	20360.425
1937.67453	20307.225
1940.77232	20249.525
1943.86808	20238.625
1946.96184	20144.525
1950.05358	20086.925
1953.14331	20045.325
1956.23103	19962.825
1959.31675	19904.925
1962.40046	19842.125
1965.48217	19818.825
1968.56188	19744.425
1971.63959	19666.825
1974.7153	19607.025
1977.78901	19554.725
1980.86073	19503.825
1983.93046	19425.925
1986.99819	19373.325
1990.06394	19295.225
1993.1277	19280.925
1996.18947	19240.425
1999.24925	19173.325
2002.30706	19128.125
2005.36288	19066.325
2008.41672	18998.725
2011.46859	18962.925
2014.51848	18917.125
2017.56639	18891.025
2020.61233	18846.125
2023.6563	18778.825
2026.6983	18732.125
2029.73833	18709.225
2032.7764	18704.125
2035.8125	18670.525
2038.84664	18588.525
2041.87881	18587.625
2044.90903	18578.825
2047.93729	18528.825
2050.96359	18503.925
2053.98794	18522.025
2057.01034	18494.025
2060.03078	18487.225
2063.04927	18453.725
2066.06582	18443.825
2069.08042	18423.025
2072.09307	18400.025
2075.10378	18398.225
2078.11255	18372.625
2081.11938	18365.425
2084.12426	18353.125
2087.12722	18352.125
2090.12824	18314.225
2093.12732	18327.825
2096.12447	18305.225
2099.11969	18317.225
2102.11299	18333.425
2105.10435	18333.125
2108.09379	18348.725
2111.08131	18314.525
2114.0669	18355.925
2117.05057	18378.525
2120.03233	18403.525
2123.01216	18395.325
2125.99008	18400.825
2128.96609	18409.925
2131.94018	18421.525
2134.91236	18442.525
2137.88263	18456.425
2140.851	18474.425
2143.81746	18452.925
2146.78201	18448.325
2149.74466	18423.625
2152.7054	18438.125
2155.66425	18410.025
2158.6212	18403.325
2161.57625	18391.825
2164.52941	18398.625
2167.48067	18390.225
2170.43004	18410.725
2173.37752	18351.225
2176.32311	18367.925
2179.26681	18394.925
2182.20863	18384.825
2185.14856	18416.625
2188.08661	18415.825
2191.02278	18445.325
2193.95707	18420.925
2196.88948	18407.825
2199.82001	18346.125
2202.74867	18383.825
2205.67545	18354.025
2208.60037	18306.725
2211.52341	18319.025
2214.44458	18304.325
2217.36388	18299.725
2220.28132	18305.725
2223.1969	18216.025
2226.11061	18201.125
2229.02246	18181.325
2231.93245	18137.625
2234.84058	18078.325
2237.74686	18068.325
2240.65128	18078.525
2243.55385	18021.625
2246.45456	17985.825
2249.35343	17962.925
2252.25044	17892.125
2255.14561	17922.225
2258.03893	17837.525
2260.93041	17806.625
2263.82004	17783.725
2266.70783	17706.225
2269.59378	17630.225
2272.4779	17623.025
2275.36017	17588.625
2278.24061	17548.125
2281.11922	17534.225
2283.996	17517.125
2286.87094	17498.225
2289.74405	17489.325
2292.61534	17497.425
2295.4848	17478.325
2298.35243	17472.725
2301.21824	17515.425
2304.08223	17514.325
2306.94439	17532.025
2309.80474	17585.225
2312.66327	17548.525
2315.51999	17506.625
2318.37489	17503.525
2321.22797	17502.325
2324.07925	17501.025
2326.92871	17472.025
2329.77637	17454.925
2332.62222	17415.625
2335.46626	17445.225
2338.3085	17424.125
2341.14893	17423.125
2343.98756	17425.425
2346.8244	17469.225
2349.65943	17456.625
2352.49267	17439.125
2355.32411	17445.825
2358.15376	17424.325
2360.98161	17389.825
2363.80768	17377.025
2366.63195	17390.325
2369.45444	17352.225
2372.27514	17325.325
2375.09405	17316.325
2377.91118	17275.025
2380.72652	17205.125
2383.54009	17189.125
2386.35187	17187.325
2389.16188	17127.525
2391.97011	17149.425
2394.77657	17118.025
2397.58125	17077.925
2400.38416	17069.125
2403.18529	17032.025
2405.98466	17024.825
2408.78226	16968.125
2411.57809	16988.725
2414.37216	16956.625
2417.16446	16957.725
2419.955	16938.125
2422.74378	16924.125
2425.5308	16889.025
2428.31606	16913.825
2431.09956	16885.825
2433.88131	16877.625
2436.6613	16940.025
2439.43954	16926.225
2442.21603	16919.825
2444.99077	16889.225
2447.76377	16898.725
2450.53501	16882.025
2453.30451	16894.325
2456.07226	16861.025
2458.83827	16878.325
2461.60254	16892.225
2464.36507	16901.425
2467.12586	16879.725
2469.88492	16924.525
2472.64224	16952.425
2475.39782	16971.825
2478.15167	16963.425
2480.90379	16980.525
2483.65417	16998.825
2486.40283	16979.925
2489.14976	17003.525
2491.89497	17023.325
2494.63845	17042.925
2497.3802	17047.725
2500.12024	17037.325
2502.85855	17024.325
2505.59514	17010.325
2508.33002	17036.225
2511.06318	17013.925
2513.79462	16993.225
2516.52435	16974.725
2519.25237	16987.825
2521.97867	16976.025
2524.70327	16972.825
2527.42616	16957.725
2530.14734	16968.625
2532.86681	16975.625
2535.58458	16978.225
2538.30065	16970.125
2541.01501	16975.225
2543.72768	16971.425
2546.43864	16945.825
2549.14791	16939.125
2551.85548	16969.425
2554.56136	16947.925
2557.26554	16923.925
2559.96803	16923.425
2562.66883	16934.825
2565.36794	16925.325
2568.06536	16888.225
2570.7611	16903.025
2573.45514	16910.725
2576.14751	16892.825
2578.83819	16882.925
2581.52719	16895.725
2584.21451	16914.825
2586.90015	16907.225
2589.58411	16918.125
2592.2664	16929.725
2594.94701	16908.525
2597.62594	16937.125
2600.30321	16907.925
2602.9788	16897.525
2605.65273	16925.725
2608.32498	16971.225
2610.99557	16941.525
2613.66449	16952.325
2616.33175	16943.025
2618.99734	16962.125
2621.66128	16984.925
2624.32355	16976.725
2626.98416	16946.025
2629.64311	16941.525
2632.30041	16967.225
2634.95605	16932.125
2637.61004	16922.225
2640.26238	16932.425
2642.91306	16923.125
2645.56209	16910.325
2648.20948	16927.725
2650.85521	16943.925
2653.4993	16986.025
2656.14175	16937.125
2658.78255	17021.525
2661.42171	16999.325
2664.05923	17037.625
2666.6951	17056.825
2669.32934	17085.725
2671.96194	17058.225
2674.59291	17098.525
2677.22224	17081.825
2679.84993	17073.425
2682.476	17042.325
2685.10043	17051.825
2687.72324	17039.725
2690.34441	17019.825
2692.96396	17041.725
2695.58188	17067.425
2698.19818	17039.325
2700.81285	17046.825
2703.4259	17110.325
2706.03733	17147.025
2708.64714	17096.125
2711.25533	17090.725
2713.86191	17123.625
2716.46687	17139.825
2719.07021	17186.725
2721.67194	17212.325
2724.27206	17203.125
2726.87057	17255.525
2729.46747	17309.325
2732.06276	17294.425
2734.65644	17252.125
2737.24852	17285.825
2739.83899	17259.725
2742.42786	17269.525
2745.01513	17248.925
2747.60079	17274.925
2750.18486	17258.825
2752.76733	17268.425
2755.3482	17215.125
2757.92747	17262.925
2760.50515	17267.425
2763.08123	17242.525
2765.65573	17286.925
2768.22863	17302.225
2770.79994	17254.025
2773.36967	17283.425
2775.9378	17300.025
2778.50435	17298.125
2781.06932	17304.625
2783.6327	17351.325
2786.1945	17361.225
2788.75471	17356.225
2791.31335	17324.325
2793.87041	17311.925
2796.42589	17264.125
2798.97979	17278.525
2801.53212	17253.925
2804.08288	17228.725
2806.63206	17176.725
2809.17967	17139.025
2811.72571	17141.325
2814.27018	17104.425
2816.81308	17068.025
2819.35442	17051.425
2821.89419	17053.725
2824.43239	17072.025
2826.96904	17030.225
2829.50412	17028.825
2832.03763	17022.925
2834.56959	16997.025
2837.1	16985.725
2839.62884	17030.425
2842.15613	16985.025
2844.68186	17030.925
2847.20604	17077.325
2849.72867	17071.225
2852.24974	17084.325
2854.76927	17115.725
2857.28724	17112.725
2859.80367	17057.625
2862.31855	17064.625
2864.83189	17025.025
2867.34368	17003.025
2869.85393	16974.125
2872.36264	16970.325
2874.8698	16937.625
2877.37543	16942.425
2879.87952	16941.925
2882.38207	16965.525
2884.88308	16953.325
2887.38256	16974.125
2889.88051	16954.525
2892.37692	16990.125
2894.8718	17005.825
2897.36515	17052.525
2899.85698	17017.425
2902.34727	17087.325
2904.83604	17085.825
2907.32328	17164.525
2909.809	17119.625
2912.29319	17157.725
2914.77587	17136.325
2917.25702	17168.425
2919.73665	17115.025
2922.21476	17149.325
2924.69136	17116.625
2927.16644	17127.625
2929.64	17094.225
2932.11205	17089.625
2934.58258	17053.525
2937.05161	17047.025
2939.51912	17049.525
2941.98513	17062.325
2944.44962	16998.625
2946.91261	16987.425
2949.37409	16979.725
2951.83407	16963.225
2954.29254	16966.725
2956.74951	16924.725
2959.20498	16945.725
2961.65895	16892.925
2964.11142	16900.625
2966.56239	16860.825
2969.01186	16873.825
2971.45984	16823.025
2973.90632	16860.225
2976.35131	16805.125
2978.7948	16776.825
2981.23681	16714.525
2983.67732	16691.825
2986.11635	16651.925
2988.55388	16597.025
2990.98993	16604.925
2993.4245	16530.425
2995.85758	16459.625
2998.28917	16427.225
3000.71928	16417.025
3003.14791	16384.525
3005.57506	16363.025
3008.00073	16314.125
3010.42493	16219.425
3012.84764	16304.425
3015.26888	16247.425
3017.68865	16215.625
3020.10694	16203.925
3022.52376	16152.325
3024.9391	16147.325
3027.35298	16138.025
3029.76539	16124.425
3032.17632	16139.525
3034.5858	16097.725
3036.9938	16102.125
3039.40034	16125.225
3041.80542	16103.925
3044.20903	16113.125
3046.61118	16052.025
3049.01187	16031.325
3051.4111	16063.125
3053.80888	15996.825
3056.20519	15992.325
3058.60005	15901.425
3060.99345	15910.825
3063.3854	15881.525
3065.7759	15808.825
3068.16494	15729.925
3070.55254	15712.225
3072.93868	15661.625
3075.32338	15644.025
3077.70662	15584.825
3080.08842	15551.925
3082.46878	15522.225
3084.84769	15534.025
3087.22515	15505.325
3089.60118	15502.425
3091.97576	15510.725
3094.3489	15499.425
3096.72061	15477.625
3099.09087	15494.325
3101.4597	15457.325
3103.82709	15470.325
3106.19305	15465.025
3108.55757	15426.525
3110.92066	15386.825
3113.28232	15378.125
3115.64255	15369.425
3118.00134	15340.025
3120.35871	15305.125
3122.71466	15261.025
3125.06917	15250.825
3127.42226	15216.125
