Data from AgNPs_FTO_APTES_UA_5uM_CRN_500uM_R6G_10uM_NaF_0.1M_Addition_RamanShift__36__17-22-41-859.txt Node

Date: Mon Feb 07 17:22:41 GMT 2022
User: TCL
Spectrometer: QEP01345
Trigger mode: 4
Integration Time (sec): 7.000000E0
Scans to average: 10
Electric dark correction enabled: true
Nonlinearity correction enabled: false
Boxcar width: 0
XAxis mode: Raman Shifts
Number of Pixels in Spectrum: 1044
>>>>>Begin Spectral Data<<<<<
46.04893	-1.275
50.45542	0.025
54.85868	0.625
59.25871	-0.275
63.6555	13.025
68.04907	13.125
72.43941	14.825
76.82654	12.025
81.21044	12.325
85.59113	12.625
89.96862	14.325
94.34289	16.025
98.71396	14.925
103.08183	15.325
107.4465	17.525
111.80798	17.825
116.16626	17.425
120.52136	19.025
124.87327	19.525
129.222	21.025
133.56755	20.225
137.90993	25.225
142.24913	26.525
146.58517	28.125
150.91804	32.925
155.24774	41.725
159.57429	55.425
163.89768	68.425
168.21792	93.725
172.53501	127.325
176.84895	177.425
181.15975	249.925
185.46741	348.525
189.77193	485.325
194.07331	658.525
198.37157	844.625
202.6667	1037.325
206.9587	1233.825
211.24758	1435.825
215.53334	1629.525
219.81599	1827.125
224.09553	2068.425
228.37195	2317.125
232.64527	2566.425
236.91549	2876.225
241.18261	3145.625
245.44663	3410.325
249.70755	3666.225
253.96539	3900.225
258.22014	4067.025
262.4718	4210.325
266.72039	4314.525
270.96589	4398.925
275.20832	4395.525
279.44768	4365.425
283.68397	4320.625
287.91719	4278.625
292.14735	4239.225
296.37445	4243.225
300.59849	4254.725
304.81948	4267.725
309.03742	4260.525
313.25231	4245.425
317.46415	4174.125
321.67296	4094.225
325.87872	4043.325
330.08145	3999.825
334.28114	4000.625
338.47781	4028.525
342.67145	4053.525
346.86207	4105.325
351.04966	4183.225
355.23424	4258.525
359.4158	4305.525
363.59435	4367.625
367.76989	4401.625
371.94243	4430.125
376.11196	4464.025
380.27849	4488.525
384.44203	4516.025
388.60257	4572.425
392.76012	4625.825
396.91468	4692.625
401.06626	4783.825
405.21485	4863.525
409.36047	4937.025
413.50311	4989.025
417.64277	5143.925
421.77947	5438.025
425.9132	5749.625
430.04396	6009.825
434.17176	6061.025
438.2966	5866.025
442.41849	5677.825
446.53742	5637.925
450.6534	5712.325
454.76644	5730.125
458.87653	5678.225
462.98368	5522.225
467.08789	5380.625
471.18916	5292.825
475.2875	5271.225
479.38291	5296.525
483.4754	5355.925
487.56496	5399.225
491.6516	5377.625
495.73531	5258.725
499.81612	5132.925
503.89401	5031.325
507.96899	4956.725
512.04106	4903.625
516.11023	4834.325
520.1765	4785.725
524.23987	4744.825
528.30034	4721.125
532.35792	4705.825
536.41261	4643.125
540.46441	4603.025
544.51333	4560.725
548.55936	4617.125
552.60252	4693.025
556.64279	4824.425
560.6802	4931.525
564.71473	4998.225
568.7464	5085.025
572.7752	5221.625
576.80114	5326.325
580.82422	5401.025
584.84444	5552.325
588.86181	5797.525
592.87633	6088.625
596.888	6193.525
600.89682	6004.625
604.9028	5875.725
608.90594	5987.425
612.90624	6198.925
616.90371	5810.225
620.89834	5018.725
624.89015	4620.425
628.87913	4544.125
632.86528	4567.425
636.84862	4559.225
640.82913	4490.125
644.80683	4425.325
648.78172	4362.825
652.75379	4336.025
656.72306	4398.425
660.68952	4423.325
664.65319	4385.525
668.61405	4328.725
672.57211	4334.925
676.52738	4351.925
680.47986	4394.825
684.42955	4412.825
688.37646	4462.425
692.32058	4606.225
696.26192	4828.425
700.20048	5147.225
704.13626	5426.725
708.06928	5561.125
711.99952	5439.125
715.927	5202.825
719.85171	5001.625
723.77365	4838.725
727.69284	4702.825
731.60928	4607.425
735.52295	4587.325
739.43388	4575.025
743.34206	4555.825
747.24749	4530.225
751.15017	4516.425
755.05012	4556.825
758.94733	4648.825
762.8418	4833.425
766.73354	5096.425
770.62254	5354.125
774.50882	5397.425
778.39237	5203.225
782.27321	4890.825
786.15132	4623.925
790.02671	4470.625
793.89938	4393.325
797.76935	4377.125
801.6366	4365.125
805.50115	4367.325
809.36299	4353.625
813.22213	4330.925
817.07857	4340.025
820.93231	4320.225
824.78336	4294.325
828.63172	4292.625
832.47738	4262.425
836.32036	4268.825
840.16066	4265.625
843.99827	4256.225
847.8332	4235.525
851.66546	4235.425
855.49504	4236.225
859.32195	4233.125
863.1462	4213.325
866.96777	4195.725
870.78668	4189.725
874.60293	4186.825
878.41652	4188.525
882.22745	4215.025
886.03573	4217.525
889.84136	4212.125
893.64433	4195.325
897.44466	4189.225
901.24235	4170.125
905.0374	4178.325
908.8298	4148.325
912.61957	4168.325
916.40671	4208.725
920.19121	4242.825
923.97308	4281.325
927.75233	4259.025
931.52895	4229.325
935.30295	4160.225
939.07433	4112.925
942.84309	4038.725
946.60924	4017.125
950.37278	4000.725
954.13371	3984.625
957.89203	3984.125
961.64774	3986.325
965.40086	3966.025
969.15137	3962.525
972.89929	3925.725
976.64461	3900.625
980.38733	3896.225
984.12747	3900.725
987.86502	3926.325
991.59999	3961.225
995.33237	3974.325
999.06217	4045.025
1002.78939	4118.025
1006.51404	4172.825
1010.23611	4238.125
1013.95561	4271.025
1017.67255	4255.525
1021.38692	4217.925
1025.09872	4159.925
1028.80796	4113.925
1032.51465	4106.425
1036.21877	4141.325
1039.92035	4168.025
1043.61937	4175.925
1047.31584	4161.125
1051.00976	4151.925
1054.70114	4137.625
1058.38998	4158.825
1062.07627	4199.825
1065.76003	4247.225
1069.44126	4278.625
1073.11995	4334.225
1076.79611	4369.125
1080.46974	4402.825
1084.14085	4440.225
1087.80943	4488.725
1091.47549	4552.025
1095.13903	4564.825
1098.80005	4534.625
1102.45857	4465.025
1106.11456	4413.825
1109.76805	4394.325
1113.41903	4408.625
1117.06751	4441.925
1120.71348	4489.325
1124.35696	4541.525
1127.99793	4580.725
1131.63641	4602.425
1135.2724	4554.025
1138.90589	4517.425
1142.5369	4517.125
1146.16542	4543.925
1149.79145	4586.325
1153.415	4641.725
1157.03607	4699.225
1160.65467	4837.225
1164.27079	5040.625
1167.88443	5298.025
1171.49561	5543.725
1175.10432	5906.625
1178.71056	6340.425
1182.31434	6716.325
1185.91565	6816.925
1189.51451	6726.725
1193.11091	6503.725
1196.70485	6298.825
1200.29634	6104.925
1203.88538	6006.525
1207.47197	5943.525
1211.05612	5888.925
1214.63782	5790.725
1218.21708	5686.725
1221.79391	5615.025
1225.36829	5599.425
1228.94024	5570.325
1232.50976	5513.025
1236.07685	5478.025
1239.6415	5475.725
1243.20374	5601.225
1246.76355	5765.025
1250.32093	5968.125
1253.8759	6189.225
1257.42845	6401.225
1260.97859	6583.625
1264.52631	6723.925
1268.07163	6798.325
1271.61453	6803.025
1275.15503	6820.325
1278.69312	6821.925
1282.22882	6866.925
1285.76211	7023.425
1289.29301	7246.725
1292.82151	7559.725
1296.34761	7931.525
1299.87133	8364.425
1303.39266	8757.825
1306.9116	9146.825
1310.42815	9436.525
1313.94233	9626.325
1317.45412	9620.425
1320.96354	9456.525
1324.47058	9416.725
1327.97525	9424.825
1331.47754	8916.025
1334.97747	8682.225
1338.47502	8508.525
1341.97022	8335.325
1345.46305	8129.625
1348.95352	8029.025
1352.44163	8071.325
1355.92738	8338.025
1359.41078	8784.425
1362.89183	9143.025
1366.37053	9102.725
1369.84688	8460.925
1373.32088	7650.825
1376.79254	7149.025
1380.26186	7240.225
1383.72883	7645.725
1387.19347	8060.525
1390.65578	8043.125
1394.11575	7725.925
1397.57339	7464.525
1401.0287	7372.625
1404.48168	7320.525
1407.93234	7203.625
1411.38068	7003.125
1414.82669	6649.625
1418.27039	6307.425
1421.71177	6004.925
1425.15083	5727.325
1428.58758	5616.925
1432.02203	5656.825
1435.45416	5810.625
1438.88399	6018.125
1442.31151	6176.125
1445.73673	6455.325
1449.15965	6607.525
1452.58027	6381.025
1455.9986	6314.625
1459.41463	6276.125
1462.82837	6333.925
1466.23982	6438.225
1469.64898	6522.925
1473.05586	6594.925
1476.46045	6625.325
1479.86276	6585.125
1483.26279	6545.725
1486.66054	6490.325
1490.05602	6474.025
1493.44922	6519.525
1496.84016	6505.725
1500.22882	6535.025
1503.61521	6618.625
1506.99934	6781.225
1510.38121	6928.725
1513.76081	6974.225
1517.13816	6861.025
1520.51324	6696.025
1523.88607	6603.625
1527.25665	6572.325
1530.62498	6620.225
1533.99105	6625.725
1537.35488	6568.825
1540.71647	6431.225
1544.07581	6235.225
1547.4329	6050.925
1550.78776	5885.925
1554.14038	5780.325
1557.49077	5712.825
1560.83892	5662.825
1564.18484	5666.925
1567.52853	5719.425
1570.86999	5807.025
1574.20922	5978.025
1577.54624	6111.625
1580.88103	6202.225
1584.2136	6323.925
1587.54395	6520.825
1590.87208	6890.025
1594.19801	7390.125
1597.52172	7824.325
1600.84321	7958.025
1604.16251	7585.625
1607.47959	6929.725
1610.79447	6247.425
1614.10715	5694.725
1617.41763	5354.625
1620.7259	5197.325
1624.03199	5205.125
1627.33587	5358.125
1630.63757	5703.325
1633.93707	6214.425
1637.23439	6972.225
1640.52951	8007.225
1643.82246	9246.425
1647.11321	10325.625
1650.40179	10780.725
1653.68819	10604.725
1656.97241	9709.625
1660.25446	8675.825
1663.53433	7907.625
1666.81203	7200.825
1670.08756	6521.925
1673.36092	5873.025
1676.63211	5335.125
1679.90115	4995.825
1683.16801	4863.025
1686.43272	4866.925
1689.69527	5161.525
1692.95567	5971.425
1696.2139	7327.825
1699.46999	8670.425
1702.72392	8765.325
1705.97571	7548.925
1709.22535	6063.925
1712.47284	4998.725
1715.71819	4436.225
1718.96139	4127.925
1722.20246	3952.925
1725.44139	3856.425
1728.67818	3784.525
1731.91284	3762.325
1735.14537	3778.825
1738.37576	3827.125
1741.60403	3923.225
1744.83017	4054.425
1748.05418	4285.525
1751.27607	4698.925
1754.49584	5399.225
1757.71349	6234.825
1760.92903	6701.225
1764.14244	6628.325
1767.35375	6539.325
1770.56294	6556.125
1773.77002	6152.925
1776.97499	5298.925
1780.17785	4526.425
1783.37861	4016.525
1786.57727	3732.525
1789.77382	3562.125
1792.96828	3441.725
1796.16064	3371.325
1799.3509	3308.025
1802.53907	3261.525
1805.72514	3240.325
1808.90913	3204.725
1812.09102	3191.225
1815.27083	3150.325
1818.44856	3116.525
1821.6242	3105.925
1824.79776	3095.025
1827.96924	3070.225
1831.13864	3066.425
1834.30597	3059.125
1837.47122	3046.125
1840.6344	3046.525
1843.7955	3041.325
1846.95454	3036.725
1850.11151	3031.825
1853.26642	3024.525
1856.41926	3012.525
1859.57004	3015.325
1862.71876	3013.625
1865.86542	3001.925
1869.01003	3001.825
1872.15258	2995.625
1875.29308	3002.325
1878.43152	2986.525
1881.56792	2977.525
1884.70227	2975.925
1887.83457	2973.725
1890.96482	2967.125
1894.09304	2968.525
1897.21921	2964.425
1900.34335	2951.625
1903.46544	2959.925
1906.58551	2965.725
1909.70353	2959.925
1912.81953	2937.325
1915.93349	2927.125
1919.04543	2934.325
1922.15534	2922.325
1925.26322	2912.825
1928.36908	2913.525
1931.47292	2891.525
1934.57473	2897.425
1937.67453	2901.525
1940.77232	2885.525
1943.86808	2875.025
1946.96184	2866.725
1950.05358	2865.025
1953.14331	2846.125
1956.23103	2820.425
1959.31675	2827.325
1962.40046	2814.125
1965.48217	2806.125
1968.56188	2794.325
1971.63959	2786.225
1974.7153	2777.125
1977.78901	2774.525
1980.86073	2752.925
1983.93046	2750.425
1986.99819	2734.225
1990.06394	2726.425
1993.1277	2727.825
1996.18947	2706.325
1999.24925	2709.525
2002.30706	2710.525
2005.36288	2700.225
2008.41672	2675.925
2011.46859	2691.325
2014.51848	2663.225
2017.56639	2661.225
2020.61233	2650.625
2023.6563	2644.825
2026.6983	2629.025
2029.73833	2625.525
2032.7764	2619.525
2035.8125	2621.025
2038.84664	2606.925
2041.87881	2605.825
2044.90903	2593.325
2047.93729	2594.625
2050.96359	2616.525
2053.98794	2677.525
2057.01034	2632.525
2060.03078	2605.025
2063.04927	2588.925
2066.06582	2585.925
2069.08042	2575.425
2072.09307	2584.925
2075.10378	2571.925
2078.11255	2574.025
2081.11938	2571.625
2084.12426	2569.125
2087.12722	2569.925
2090.12824	2566.125
2093.12732	2566.125
2096.12447	2568.125
2099.11969	2562.325
2102.11299	2559.225
2105.10435	2554.625
2108.09379	2555.925
2111.08131	2570.525
2114.0669	2557.925
2117.05057	2557.025
2120.03233	2554.125
2123.01216	2562.025
2125.99008	2573.425
2128.96609	2564.125
2131.94018	2573.825
2134.91236	2562.125
2137.88263	2560.925
2140.851	2565.525
2143.81746	2559.325
2146.78201	2554.425
2149.74466	2546.925
2152.7054	2552.225
2155.66425	2536.825
2158.6212	2539.325
2161.57625	2543.025
2164.52941	2536.425
2167.48067	2533.725
2170.43004	2530.025
2173.37752	2533.225
2176.32311	2535.025
2179.26681	2517.725
2182.20863	2523.425
2185.14856	2528.325
2188.08661	2522.125
2191.02278	2532.725
2193.95707	2527.425
2196.88948	2522.325
2199.82001	2514.625
2202.74867	2510.225
2205.67545	2513.925
2208.60037	2507.525
2211.52341	2499.525
2214.44458	2491.825
2217.36388	2492.825
2220.28132	2478.525
2223.1969	2480.225
2226.11061	2472.725
2229.02246	2463.125
2231.93245	2473.025
2234.84058	2469.925
2237.74686	2452.625
2240.65128	2471.925
2243.55385	2449.125
2246.45456	2446.325
2249.35343	2451.525
2252.25044	2441.725
2255.14561	2459.325
2258.03893	2609.325
2260.93041	2872.025
2263.82004	2655.825
2266.70783	2522.025
2269.59378	2473.525
2272.4779	2423.825
2275.36017	2395.425
2278.24061	2379.225
2281.11922	2387.225
2283.996	2375.525
2286.87094	2377.425
2289.74405	2373.125
2292.61534	2369.425
2295.4848	2363.525
2298.35243	2379.025
2301.21824	2377.425
2304.08223	2380.625
2306.94439	2380.425
2309.80474	2382.025
2312.66327	2391.225
2315.51999	2388.925
2318.37489	2400.325
2321.22797	2395.525
2324.07925	2399.625
2326.92871	2406.525
2329.77637	2411.225
2332.62222	2418.525
2335.46626	2433.425
2338.3085	2439.225
2341.14893	2430.025
2343.98756	2430.025
2346.8244	2421.525
2349.65943	2400.025
2352.49267	2387.925
2355.32411	2366.025
2358.15376	2368.525
2360.98161	2349.525
2363.80768	2355.825
2366.63195	2325.525
2369.45444	2325.025
2372.27514	2317.925
2375.09405	2308.625
2377.91118	2306.625
2380.72652	2301.125
2383.54009	2303.525
2386.35187	2281.525
2389.16188	2276.025
2391.97011	2273.125
2394.77657	2276.325
2397.58125	2276.625
2400.38416	2279.925
2403.18529	2281.225
2405.98466	2291.925
2408.78226	2305.025
2411.57809	2302.125
2414.37216	2299.525
2417.16446	2303.425
2419.955	2279.225
2422.74378	2274.425
2425.5308	2254.025
2428.31606	2248.725
2431.09956	2237.225
2433.88131	2239.125
2436.6613	2229.425
2439.43954	2228.325
2442.21603	2219.125
2444.99077	2212.225
2447.76377	2224.125
2450.53501	2219.025
2453.30451	2211.525
2456.07226	2223.725
2458.83827	2213.525
2461.60254	2220.025
2464.36507	2217.325
2467.12586	2220.925
2469.88492	2210.825
2472.64224	2252.325
2475.39782	2436.425
2478.15167	2540.225
2480.90379	2358.225
2483.65417	2287.925
2486.40283	2270.925
2489.14976	2250.325
2491.89497	2270.425
2494.63845	2516.025
2497.3802	2583.925
2500.12024	2371.425
2502.85855	2306.025
2505.59514	2265.025
2508.33002	2232.725
2511.06318	2201.525
2513.79462	2205.625
2516.52435	2194.325
2519.25237	2192.925
2521.97867	2182.125
2524.70327	2194.225
2527.42616	2189.625
2530.14734	2187.725
2532.86681	2186.725
2535.58458	2174.225
2538.30065	2177.525
2541.01501	2182.525
2543.72768	2161.725
2546.43864	2170.325
2549.14791	2161.725
2551.85548	2163.325
2554.56136	2157.525
2557.26554	2154.225
2559.96803	2141.725
2562.66883	2152.525
2565.36794	2139.925
2568.06536	2143.125
2570.7611	2150.525
2573.45514	2132.525
2576.14751	2126.425
2578.83819	2138.125
2581.52719	2125.725
2584.21451	2133.625
2586.90015	2137.625
2589.58411	2140.225
2592.2664	2126.825
2594.94701	2129.925
2597.62594	2124.425
2600.30321	2119.525
2602.9788	2134.825
2605.65273	2118.525
2608.32498	2113.825
2610.99557	2111.125
2613.66449	2114.625
2616.33175	2112.525
2618.99734	2112.725
2621.66128	2109.825
2624.32355	2127.225
2626.98416	2103.925
2629.64311	2103.625
2632.30041	2105.125
2634.95605	2094.125
2637.61004	2091.325
2640.26238	2095.325
2642.91306	2090.425
2645.56209	2118.525
2648.20948	2180.225
2650.85521	2139.425
2653.4993	2120.825
2656.14175	2106.725
2658.78255	2117.425
2661.42171	2099.625
2664.05923	2102.325
2666.6951	2110.625
2669.32934	2103.625
2671.96194	2103.925
2674.59291	2108.825
2677.22224	2104.725
2679.84993	2100.625
2682.476	2102.025
2685.10043	2099.725
2687.72324	2088.225
2690.34441	2107.125
2692.96396	2088.725
2695.58188	2117.225
2698.19818	2115.325
2700.81285	2180.225
2703.4259	2692.825
2706.03733	3852.325
2708.64714	3110.425
2711.25533	2605.425
2713.86191	2453.025
2716.46687	2365.225
2719.07021	2261.725
2721.67194	2166.025
2724.27206	2125.325
2726.87057	2102.525
2729.46747	2104.625
2732.06276	2111.225
2734.65644	2104.025
2737.24852	2104.925
2739.83899	2093.225
2742.42786	2103.525
2745.01513	2102.425
2747.60079	2105.025
2750.18486	2104.425
2752.76733	2101.925
2755.3482	2085.625
2757.92747	2094.725
2760.50515	2092.625
2763.08123	2090.325
2765.65573	2080.825
2768.22863	2073.925
2770.79994	2066.825
2773.36967	2069.125
2775.9378	2076.825
2778.50435	2083.725
2781.06932	2074.925
2783.6327	2074.825
2786.1945	2065.025
2788.75471	2082.925
2791.31335	2078.825
2793.87041	2074.225
2796.42589	2070.025
2798.97979	2065.025
2801.53212	2057.325
2804.08288	2069.925
2806.63206	2063.425
2809.17967	2058.425
2811.72571	2050.325
2814.27018	2043.225
2816.81308	2033.525
2819.35442	2024.825
2821.89419	2028.025
2824.43239	2030.525
2826.96904	2033.525
2829.50412	2036.325
2832.03763	2027.825
2834.56959	2016.925
2837.1	2031.025
2839.62884	2024.425
2842.15613	2031.025
2844.68186	2035.725
2847.20604	2050.425
2849.72867	2061.125
2852.24974	2083.925
2854.76927	2315.625
2857.28724	2606.825
2859.80367	2336.825
2862.31855	2216.325
2864.83189	2194.125
2867.34368	2154.525
2869.85393	2101.825
2872.36264	2066.125
2874.8698	2052.925
2877.37543	2031.025
2879.87952	2031.125
2882.38207	2030.025
2884.88308	2026.425
2887.38256	2027.225
2889.88051	2030.325
2892.37692	2023.225
2894.8718	2030.325
2897.36515	2024.725
2899.85698	2025.225
2902.34727	2021.725
2904.83604	2028.725
2907.32328	2028.825
2909.809	2037.625
2912.29319	2021.525
2914.77587	2039.025
2917.25702	2029.925
2919.73665	2015.725
2922.21476	2015.925
2924.69136	2013.225
2927.16644	2019.525
2929.64	2020.325
2932.11205	2010.225
2934.58258	2000.725
2937.05161	2006.625
2939.51912	2003.225
2941.98513	2003.725
2944.44962	1986.625
2946.91261	1981.225
2949.37409	1986.125
2951.83407	1982.325
2954.29254	1982.625
2956.74951	1983.525
2959.20498	1975.425
2961.65895	1972.525
2964.11142	1963.025
2966.56239	1963.925
2969.01186	1956.525
2971.45984	1947.425
2973.90632	1955.825
2976.35131	1958.825
2978.7948	1945.425
2981.23681	1939.825
2983.67732	1935.525
2986.11635	1942.625
2988.55388	1925.025
2990.98993	1919.625
2993.4245	1912.125
2995.85758	1907.025
2998.28917	1904.025
3000.71928	1904.325
3003.14791	1897.925
3005.57506	1895.925
3008.00073	1890.025
3010.42493	1879.125
3012.84764	1872.725
3015.26888	1880.425
3017.68865	1885.325
3020.10694	1875.625
3022.52376	1871.725
3024.9391	1874.925
3027.35298	1856.625
3029.76539	1858.725
3032.17632	1864.625
3034.5858	1851.525
3036.9938	1861.225
3039.40034	1842.225
3041.80542	1848.425
3044.20903	1841.525
3046.61118	1843.725
3049.01187	1845.425
3051.4111	1833.325
3053.80888	1839.225
3056.20519	1829.525
3058.60005	1821.925
3060.99345	1822.525
3063.3854	1815.625
3065.7759	1817.225
3068.16494	1809.625
3070.55254	1805.425
3072.93868	1805.325
3075.32338	1797.725
3077.70662	1789.125
3080.08842	1785.925
3082.46878	1782.025
3084.84769	1771.125
3087.22515	1770.225
3089.60118	1775.025
3091.97576	1775.325
3094.3489	1779.225
3096.72061	1773.425
3099.09087	1778.025
3101.4597	1768.325
3103.82709	1773.025
3106.19305	1754.225
3108.55757	1768.625
3110.92066	1759.025
3113.28232	1753.725
3115.64255	1747.425
3118.00134	1746.225
3120.35871	1752.425
3122.71466	1740.025
3125.06917	1737.825
3127.42226	1735.625
3129.77393	1734.925
3132.12417	1721.425
3134.47299	1722.325
3136.82039	1731.325
3139.16636	1733.625
3141.51092	1725.225
3143.85406	1719.425
3146.19579	1718.725
3148.53609	1711.525
3150.87499	1722.625
3153.21246	1710.925
3155.54853	1728.725
3157.88318	1719.425
3160.21642	1729.925
3162.54826	1723.625
3164.87868	1723.825
3167.2077	1717.825
3169.5353	1727.825
3171.86151	1722.425
3174.18631	1721.625
3176.5097	1710.325
3178.83169	1716.425
3181.15228	1711.425
3183.47147	1717.225
3185.78926	1703.025
3188.10565	1708.125
3190.42065	1708.825
3192.73424	1699.425
3195.04645	1698.925
3197.35725	1698.225
3199.66667	1692.825
3201.97469	1691.625
3204.28132	1700.225
3206.58656	1694.025
3208.8904	1700.425
3211.19287	1695.325
3213.49394	1701.825
3215.79363	1714.725
3218.09193	1732.425
3220.38884	1966.625
3222.68438	2217.725
3224.97853	1958.725
3227.2713	1856.925
3229.56269	1806.425
3231.8527	1784.525
3234.14133	1763.925
3236.42858	1737.125
