Data from AgNPs_FTO_APTES_UA_5uM_CRN_0uM_R6G_10uM_NaF_0.1M_Addition_RamanShift__23__10-05-36-550.txt Node

Date: Mon Feb 07 10:05:36 GMT 2022
User: TCL
Spectrometer: QEP01345
Trigger mode: 4
Integration Time (sec): 7.000000E0
Scans to average: 10
Electric dark correction enabled: true
Nonlinearity correction enabled: false
Boxcar width: 0
XAxis mode: Raman Shifts
Number of Pixels in Spectrum: 1044
>>>>>Begin Spectral Data<<<<<
46.04893	0.3125
50.45542	-1.0875
54.85868	0.4125
59.25871	-0.4875
63.6555	86.4125
68.04907	85.8125
72.43941	91.1125
76.82654	99.3125
81.21044	97.5125
85.59113	100.3125
89.96862	111.1125
94.34289	107.4125
98.71396	112.5125
103.08183	116.9125
107.4465	120.8125
111.80798	121.7125
116.16626	127.8125
120.52136	134.1125
124.87327	143.1125
129.222	151.7125
133.56755	161.8125
137.90993	177.8125
142.24913	199.0125
146.58517	230.1125
150.91804	273.4125
155.24774	325.8125
159.57429	416.1125
163.89768	543.1125
168.21792	730.2125
172.53501	996.6125
176.84895	1394.5125
181.15975	1967.1125
185.46741	2748.3125
189.77193	3780.9125
194.07331	5053.0125
198.37157	6496.6125
202.6667	7983.2125
206.9587	9511.2125
211.24758	11007.0125
215.53334	12532.3125
219.81599	14233.9125
224.09553	16142.8125
228.37195	18291.1125
232.64527	20634.3125
236.91549	23040.3125
241.18261	25289.9125
245.44663	27225.2125
249.70755	28902.1125
253.96539	30460.9125
258.22014	31834.0125
262.4718	33029.7125
266.72039	33884.0125
270.96589	34448.4125
275.20832	34673.3125
279.44768	34664.3125
283.68397	34621.8125
287.91719	34739.1125
292.14735	34880.6125
296.37445	35081.5125
300.59849	35281.5125
304.81948	35717.9125
309.03742	36058.1125
313.25231	35554.8125
317.46415	33931.0125
321.67296	31554.8125
325.87872	29535.4125
330.08145	28398.1125
334.28114	28195.5125
338.47781	28493.5125
342.67145	28989.5125
346.86207	29762.1125
351.04966	30909.8125
355.23424	32191.6125
359.4158	33155.9125
363.59435	33659.9125
367.76989	33723.2125
371.94243	33682.0125
376.11196	33557.1125
380.27849	33370.3125
384.44203	33157.5125
388.60257	32971.3125
392.76012	33099.3125
396.91468	33579.5125
401.06626	34467.8125
405.21485	35189.3125
409.36047	34902.3125
413.50311	33795.2125
417.64277	32839.5125
421.77947	32525.1125
425.9132	32581.7125
430.04396	32626.8125
434.17176	32571.2125
438.2966	32420.2125
442.41849	32615.4125
446.53742	33231.0125
450.6534	34118.3125
454.76644	34831.2125
458.87653	35102.6125
462.98368	35078.7125
467.08789	34810.8125
471.18916	34410.2125
475.2875	34002.9125
479.38291	33890.3125
483.4754	33908.6125
487.56496	33794.8125
491.6516	33541.9125
495.73531	33283.7125
499.81612	33291.9125
503.89401	33620.0125
507.96899	33701.7125
512.04106	33445.8125
516.11023	32855.1125
520.1765	32106.6125
524.23987	31273.3125
528.30034	30522.6125
532.35792	29792.7125
536.41261	29145.3125
540.46441	28567.6125
544.51333	28532.8125
548.55936	29128.9125
552.60252	30319.5125
556.64279	31525.9125
560.6802	32126.0125
564.71473	32623.8125
568.7464	34067.1125
572.7752	35853.6125
576.80114	36522.0125
580.82422	36736.3125
584.84444	37037.1125
588.86181	36492.8125
592.87633	35449.5125
596.888	35029.6125
600.89682	35649.0125
604.9028	38689.7125
608.90594	46347.4125
612.90624	55266.2125
616.90371	51975.2125
620.89834	38041.1125
624.89015	31209.2125
628.87913	30061.7125
632.86528	30285.9125
636.84862	30466.7125
640.82913	29870.3125
644.80683	28433.2125
648.78172	27204.7125
652.75379	26961.9125
656.72306	27707.9125
660.68952	28943.9125
664.65319	29093.5125
668.61405	28278.0125
672.57211	27795.8125
676.52738	27696.4125
680.47986	27547.8125
684.42955	27137.6125
688.37646	26805.0125
692.32058	26902.2125
696.26192	27181.8125
700.20048	27725.2125
704.13626	28190.3125
708.06928	28509.0125
711.99952	28256.4125
715.927	27892.1125
719.85171	27752.7125
723.77365	27555.6125
727.69284	27054.6125
731.60928	26524.5125
735.52295	26358.2125
739.43388	26403.8125
743.34206	26576.8125
747.24749	26906.0125
751.15017	27421.0125
755.05012	28253.2125
758.94733	29918.2125
762.8418	33125.9125
766.73354	38688.1125
770.62254	44111.9125
774.50882	45366.9125
778.39237	41719.6125
782.27321	36193.2125
786.15132	31643.2125
790.02671	28792.0125
793.89938	27355.8125
797.76935	26688.4125
801.6366	26448.1125
805.50115	26278.2125
809.36299	26055.2125
813.22213	25745.8125
817.07857	25621.4125
820.93231	25550.7125
824.78336	25521.4125
828.63172	25556.1125
832.47738	25557.2125
836.32036	25544.6125
840.16066	25554.4125
843.99827	25612.1125
847.8332	25597.7125
851.66546	25489.1125
855.49504	25415.2125
859.32195	25297.6125
863.1462	25092.5125
866.96777	24830.9125
870.78668	24619.7125
874.60293	24576.4125
878.41652	24472.1125
882.22745	24516.5125
886.03573	24642.2125
889.84136	24630.9125
893.64433	24502.3125
897.44466	24382.8125
901.24235	24351.0125
905.0374	24196.9125
908.8298	24096.8125
912.61957	24107.8125
916.40671	24531.0125
920.19121	25308.8125
923.97308	26084.9125
927.75233	26453.1125
931.52895	26278.6125
935.30295	25537.0125
939.07433	24492.2125
942.84309	23646.2125
946.60924	23257.2125
950.37278	23122.4125
954.13371	22890.5125
957.89203	22740.5125
961.64774	22631.2125
965.40086	22538.8125
969.15137	22440.8125
972.89929	22315.6125
976.64461	22264.6125
980.38733	22221.9125
984.12747	22297.0125
987.86502	22514.5125
991.59999	22869.1125
995.33237	23466.7125
999.06217	24608.0125
1002.78939	26013.5125
1006.51404	27122.0125
1010.23611	27695.1125
1013.95561	27940.0125
1017.67255	27898.4125
1021.38692	27493.6125
1025.09872	27321.7125
1028.80796	27914.2125
1032.51465	29496.3125
1036.21877	30854.9125
1039.92035	30927.8125
1043.61937	30052.7125
1047.31584	28629.9125
1051.00976	27225.3125
1054.70114	26469.5125
1058.38998	26324.6125
1062.07627	26479.9125
1065.76003	26792.9125
1069.44126	27428.1125
1073.11995	28394.7125
1076.79611	29186.4125
1080.46974	29372.2125
1084.14085	29516.6125
1087.80943	30130.6125
1091.47549	30683.6125
1095.13903	30634.4125
1098.80005	29751.7125
1102.45857	28259.4125
1106.11456	26785.2125
1109.76805	26085.0125
1113.41903	26033.9125
1117.06751	26349.4125
1120.71348	27004.6125
1124.35696	27730.2125
1127.99793	28656.8125
1131.63641	29189.0125
1135.2724	28800.3125
1138.90589	28058.7125
1142.5369	27539.7125
1146.16542	27200.0125
1149.79145	27155.9125
1153.415	27304.5125
1157.03607	27865.6125
1160.65467	28767.8125
1164.27079	30356.6125
1167.88443	32778.0125
1171.49561	36360.5125
1175.10432	41495.0125
1178.71056	47719.1125
1182.31434	52866.9125
1185.91565	55473.6125
1189.51451	55483.5125
1193.11091	53016.6125
1196.70485	49144.7125
1200.29634	45322.2125
1203.88538	42244.0125
1207.47197	39600.0125
1211.05612	37406.3125
1214.63782	35980.9125
1218.21708	35423.7125
1221.79391	35431.7125
1225.36829	35435.2125
1228.94024	34835.8125
1232.50976	33841.7125
1236.07685	33066.2125
1239.6415	32807.4125
1243.20374	32769.9125
1246.76355	33043.3125
1250.32093	33690.4125
1253.8759	34949.8125
1257.42845	36710.6125
1260.97859	38518.4125
1264.52631	40091.7125
1268.07163	41643.2125
1271.61453	43388.9125
1275.15503	45377.3125
1278.69312	47130.5125
1282.22882	48422.2125
1285.76211	49670.1125
1289.29301	51248.8125
1292.82151	53401.6125
1296.34761	56318.0125
1299.87133	60428.2125
1303.39266	65823.6125
1306.9116	72412.6125
1310.42815	79132.4125
1313.94233	83376.8125
1317.45412	83455.5125
1320.96354	81271.5125
1324.47058	78817.6125
1327.97525	76779.3125
1331.47754	75436.2125
1334.97747	74231.7125
1338.47502	73227.1125
1341.97022	72537.7125
1345.46305	71506.0125
1348.95352	69635.1125
1352.44163	68066.2125
1355.92738	68760.8125
1359.41078	73193.0125
1362.89183	79250.5125
1366.37053	79656.7125
1369.84688	72487.2125
1373.32088	63146.5125
1376.79254	55697.4125
1380.26186	51284.6125
1383.72883	49268.8125
1387.19347	48301.4125
1390.65578	47831.4125
1394.11575	47788.8125
1397.57339	48445.2125
1401.0287	49673.1125
1404.48168	50810.1125
1407.93234	51262.6125
1411.38068	50653.5125
1414.82669	48802.2125
1418.27039	45898.2125
1421.71177	42845.6125
1425.15083	40346.4125
1428.58758	38711.8125
1432.02203	38234.2125
1435.45416	38781.3125
1438.88399	39683.9125
1442.31151	40621.3125
1445.73673	41669.6125
1449.15965	42804.2125
1452.58027	43748.9125
1455.9986	44311.5125
1459.41463	44920.4125
1462.82837	45890.9125
1466.23982	47235.1125
1469.64898	48552.3125
1473.05586	49282.5125
1476.46045	49505.3125
1479.86276	49662.9125
1483.26279	49699.3125
1486.66054	50045.0125
1490.05602	50921.4125
1493.44922	52192.6125
1496.84016	53954.8125
1500.22882	56707.2125
1503.61521	60670.4125
1506.99934	65696.1125
1510.38121	70933.6125
1513.76081	74024.9125
1517.13816	72823.6125
1520.51324	67960.2125
1523.88607	62372.0125
1527.25665	57996.0125
1530.62498	54776.6125
1533.99105	52704.4125
1537.35488	51246.3125
1540.71647	50103.5125
1544.07581	48957.4125
1547.4329	47604.9125
1550.78776	46442.0125
1554.14038	45749.1125
1557.49077	45747.4125
1560.83892	46392.1125
1564.18484	47101.6125
1567.52853	47663.8125
1570.86999	47770.0125
1574.20922	47932.0125
1577.54624	48023.1125
1580.88103	46865.9125
1584.2136	45394.0125
1587.54395	45599.8125
1590.87208	47993.3125
1594.19801	52132.1125
1597.52172	56925.8125
1600.84321	58854.1125
1604.16251	55883.6125
1607.47959	50234.6125
1610.79447	44350.6125
1614.10715	39190.9125
1617.41763	35060.7125
1620.7259	32286.0125
1624.03199	30915.3125
1627.33587	30782.3125
1630.63757	31801.1125
1633.93707	34130.9125
1637.23439	37750.3125
1640.52951	42838.1125
1643.82246	49286.5125
1647.11321	55946.7125
1650.40179	60157.6125
1653.68819	58816.3125
1656.97241	51531.4125
1660.25446	42034.4125
1663.53433	34199.8125
1666.81203	29037.5125
1670.08756	25882.4125
1673.36092	24053.9125
1676.63211	22865.1125
1679.90115	22069.0125
1683.16801	21474.1125
1686.43272	20999.1125
1689.69527	20730.4125
1692.95567	20457.2125
1696.2139	20292.2125
1699.46999	20174.3125
1702.72392	20061.4125
1705.97571	19998.7125
1709.22535	19920.4125
1712.47284	19817.6125
1715.71819	19766.1125
1718.96139	19686.8125
1722.20246	19550.8125
1725.44139	19404.8125
1728.67818	19258.9125
1731.91284	19054.3125
1735.14537	18918.4125
1738.37576	18798.9125
1741.60403	18715.3125
1744.83017	18615.4125
1748.05418	18520.3125
1751.27607	18471.5125
1754.49584	18438.5125
1757.71349	18359.7125
1760.92903	18356.4125
1764.14244	18342.8125
1767.35375	18321.7125
1770.56294	18235.9125
1773.77002	18202.8125
1776.97499	18160.4125
1780.17785	18075.3125
1783.37861	18042.2125
1786.57727	17997.4125
1789.77382	17945.7125
1792.96828	17937.9125
1796.16064	17894.5125
1799.3509	17889.4125
1802.53907	17813.9125
1805.72514	17773.3125
1808.90913	17651.6125
1812.09102	17610.1125
1815.27083	17584.5125
1818.44856	17526.8125
1821.6242	17480.4125
1824.79776	17474.3125
1827.96924	17420.6125
1831.13864	17429.7125
1834.30597	17434.8125
1837.47122	17426.4125
1840.6344	17451.1125
1843.7955	17419.5125
1846.95454	17431.2125
1850.11151	17424.4125
1853.26642	17382.1125
1856.41926	17398.4125
1859.57004	17378.3125
1862.71876	17403.8125
1865.86542	17352.4125
1869.01003	17361.3125
1872.15258	17328.0125
1875.29308	17282.4125
1878.43152	17259.5125
1881.56792	17231.8125
1884.70227	17221.0125
1887.83457	17264.4125
1890.96482	17279.5125
1894.09304	17254.8125
1897.21921	17249.6125
1900.34335	17220.5125
1903.46544	17249.4125
1906.58551	17230.1125
1909.70353	17193.3125
1912.81953	17200.3125
1915.93349	17164.4125
1919.04543	17155.7125
1922.15534	17092.4125
1925.26322	17038.3125
1928.36908	16982.2125
1931.47292	16939.8125
1934.57473	16848.5125
1937.67453	16782.3125
1940.77232	16708.9125
1943.86808	16606.4125
1946.96184	16564.5125
1950.05358	16497.6125
1953.14331	16467.3125
1956.23103	16456.1125
1959.31675	16367.0125
1962.40046	16325.5125
1965.48217	16259.2125
1968.56188	16229.3125
1971.63959	16187.2125
1974.7153	16148.9125
1977.78901	16097.8125
1980.86073	16048.7125
1983.93046	15963.5125
1986.99819	15905.4125
1990.06394	15888.6125
1993.1277	15807.5125
1996.18947	15737.3125
1999.24925	15678.0125
2002.30706	15615.0125
2005.36288	15586.8125
2008.41672	15562.1125
2011.46859	15476.5125
2014.51848	15428.4125
2017.56639	15406.9125
2020.61233	15381.0125
2023.6563	15316.8125
2026.6983	15283.4125
2029.73833	15271.8125
2032.7764	15279.2125
2035.8125	15260.9125
2038.84664	15236.0125
2041.87881	15212.5125
2044.90903	15209.6125
2047.93729	15159.7125
2050.96359	15136.4125
2053.98794	15121.7125
2057.01034	15132.6125
2060.03078	15111.2125
2063.04927	15078.3125
2066.06582	15047.2125
2069.08042	15036.7125
2072.09307	14989.4125
2075.10378	15010.6125
2078.11255	14935.2125
2081.11938	14965.8125
2084.12426	14901.7125
2087.12722	14875.0125
2090.12824	14907.0125
2093.12732	14891.4125
2096.12447	14867.1125
2099.11969	14853.5125
2102.11299	14850.1125
2105.10435	14873.5125
2108.09379	14859.4125
2111.08131	14848.8125
2114.0669	14876.5125
2117.05057	14883.0125
2120.03233	14889.0125
2123.01216	14899.8125
2125.99008	14899.3125
2128.96609	14935.7125
2131.94018	14948.9125
2134.91236	14940.4125
2137.88263	14941.5125
2140.851	14969.1125
2143.81746	15002.8125
2146.78201	14955.9125
2149.74466	14937.0125
2152.7054	14950.0125
2155.66425	14932.4125
2158.6212	14910.5125
2161.57625	14905.1125
2164.52941	14909.4125
2167.48067	14875.6125
2170.43004	14909.9125
2173.37752	14849.6125
2176.32311	14835.8125
2179.26681	14846.0125
2182.20863	14873.5125
2185.14856	14889.5125
2188.08661	14860.0125
2191.02278	14853.1125
2193.95707	14863.2125
2196.88948	14872.6125
2199.82001	14851.2125
2202.74867	14803.2125
2205.67545	14851.8125
2208.60037	14864.5125
2211.52341	14853.8125
2214.44458	14901.1125
2217.36388	14856.8125
2220.28132	14821.1125
2223.1969	14818.1125
2226.11061	14783.7125
2229.02246	14768.3125
2231.93245	14749.3125
2234.84058	14695.5125
2237.74686	14614.8125
2240.65128	14591.0125
2243.55385	14590.6125
2246.45456	14562.8125
2249.35343	14520.1125
2252.25044	14488.0125
2255.14561	14450.5125
2258.03893	14478.5125
2260.93041	14437.6125
2263.82004	14438.8125
2266.70783	14402.6125
2269.59378	14350.2125
2272.4779	14319.2125
2275.36017	14255.3125
2278.24061	14254.9125
2281.11922	14208.8125
2283.996	14213.7125
2286.87094	14216.4125
2289.74405	14189.9125
2292.61534	14171.9125
2295.4848	14159.0125
2298.35243	14159.4125
2301.21824	14165.6125
2304.08223	14192.7125
2306.94439	14215.7125
2309.80474	14271.2125
2312.66327	14271.1125
2315.51999	14274.6125
2318.37489	14294.1125
2321.22797	14303.0125
2324.07925	14312.7125
2326.92871	14293.4125
2329.77637	14290.1125
2332.62222	14295.5125
2335.46626	14304.5125
2338.3085	14356.4125
2341.14893	14395.4125
2343.98756	14443.5125
2346.8244	14459.4125
2349.65943	14476.6125
2352.49267	14506.3125
2355.32411	14517.2125
2358.15376	14496.2125
2360.98161	14491.6125
2363.80768	14470.4125
2366.63195	14459.4125
2369.45444	14405.7125
2372.27514	14358.9125
2375.09405	14308.2125
2377.91118	14245.0125
2380.72652	14157.3125
2383.54009	14122.3125
2386.35187	14124.9125
2389.16188	14081.2125
2391.97011	14078.6125
2394.77657	14045.1125
2397.58125	13991.0125
2400.38416	13992.2125
2403.18529	13926.8125
2405.98466	13894.3125
2408.78226	13798.8125
2411.57809	13776.3125
2414.37216	13752.0125
2417.16446	13747.2125
2419.955	13729.1125
2422.74378	13677.4125
2425.5308	13654.6125
2428.31606	13647.3125
2431.09956	13666.8125
2433.88131	13652.3125
2436.6613	13686.9125
2439.43954	13668.3125
2442.21603	13675.9125
2444.99077	13681.9125
2447.76377	13673.8125
2450.53501	13655.8125
2453.30451	13654.3125
2456.07226	13665.1125
2458.83827	13672.1125
2461.60254	13688.7125
2464.36507	13683.1125
2467.12586	13705.3125
2469.88492	13682.6125
2472.64224	13716.5125
2475.39782	13719.8125
2478.15167	13790.4125
2480.90379	13746.2125
2483.65417	13804.6125
2486.40283	13820.1125
2489.14976	13877.2125
2491.89497	13898.0125
2494.63845	13922.1125
2497.3802	13941.8125
2500.12024	13956.3125
2502.85855	13897.5125
2505.59514	13876.0125
2508.33002	13817.9125
2511.06318	13819.0125
2513.79462	13808.7125
2516.52435	13778.5125
2519.25237	13759.7125
2521.97867	13755.9125
2524.70327	13726.2125
2527.42616	13718.6125
2530.14734	13697.6125
2532.86681	13695.8125
2535.58458	13742.1125
2538.30065	13720.8125
2541.01501	13697.4125
2543.72768	13683.0125
2546.43864	13661.5125
2549.14791	13643.2125
2551.85548	13668.8125
2554.56136	13643.5125
2557.26554	13618.2125
2559.96803	13646.3125
2562.66883	13644.8125
2565.36794	13653.6125
2568.06536	13622.8125
2570.7611	13588.9125
2573.45514	13600.9125
2576.14751	13579.6125
2578.83819	13580.5125
2581.52719	13618.2125
2584.21451	13605.4125
2586.90015	13620.5125
2589.58411	13637.3125
2592.2664	13654.3125
2594.94701	13618.9125
2597.62594	13657.3125
2600.30321	13642.4125
2602.9788	13624.6125
2605.65273	13626.2125
2608.32498	13688.8125
2610.99557	13653.2125
2613.66449	13686.1125
2616.33175	13686.2125
2618.99734	13744.4125
2621.66128	13757.2125
2624.32355	13750.8125
2626.98416	13756.7125
2629.64311	13773.6125
2632.30041	13757.8125
2634.95605	13767.8125
2637.61004	13743.1125
2640.26238	13707.8125
2642.91306	13673.1125
2645.56209	13673.3125
2648.20948	13632.9125
2650.85521	13607.7125
2653.4993	13601.3125
2656.14175	13609.1125
2658.78255	13596.1125
2661.42171	13609.9125
2664.05923	13666.3125
2666.6951	13660.2125
2669.32934	13703.2125
2671.96194	13713.6125
2674.59291	13691.2125
2677.22224	13691.7125
2679.84993	13694.0125
2682.476	13669.6125
2685.10043	13641.6125
2687.72324	13574.2125
2690.34441	13570.3125
2692.96396	13554.1125
2695.58188	13538.7125
2698.19818	13514.7125
2700.81285	13533.9125
2703.4259	13511.8125
2706.03733	13532.5125
2708.64714	13513.3125
2711.25533	13504.7125
2713.86191	13502.2125
2716.46687	13536.4125
2719.07021	13507.1125
2721.67194	13548.0125
2724.27206	13533.0125
2726.87057	13568.7125
2729.46747	13584.3125
2732.06276	13585.9125
2734.65644	13558.7125
2737.24852	13543.3125
2739.83899	13529.1125
2742.42786	13523.9125
2745.01513	13501.8125
2747.60079	13516.0125
2750.18486	13494.3125
2752.76733	13504.1125
2755.3482	13484.2125
2757.92747	13458.7125
2760.50515	13450.9125
2763.08123	13443.4125
2765.65573	13436.8125
2768.22863	13444.2125
2770.79994	13429.6125
2773.36967	13442.9125
2775.9378	13500.5125
2778.50435	13486.4125
2781.06932	13484.6125
2783.6327	13490.1125
2786.1945	13511.2125
2788.75471	13494.0125
2791.31335	13540.9125
2793.87041	13481.7125
2796.42589	13465.8125
2798.97979	13482.7125
2801.53212	13434.9125
2804.08288	13425.5125
2806.63206	13390.4125
2809.17967	13386.9125
2811.72571	13376.2125
2814.27018	13367.0125
2816.81308	13392.5125
2819.35442	13369.3125
2821.89419	13372.4125
2824.43239	13408.3125
2826.96904	13383.2125
2829.50412	13385.5125
2832.03763	13363.0125
2834.56959	13362.5125
2837.1	13380.2125
2839.62884	13372.8125
2842.15613	13401.5125
2844.68186	13434.5125
2847.20604	13451.3125
2849.72867	13480.1125
2852.24974	13477.8125
2854.76927	13471.9125
2857.28724	13475.1125
2859.80367	13438.8125
2862.31855	13461.0125
2864.83189	13445.1125
2867.34368	13445.2125
2869.85393	13410.9125
2872.36264	13420.6125
2874.8698	13409.6125
2877.37543	13422.0125
2879.87952	13410.5125
2882.38207	13421.3125
2884.88308	13408.3125
2887.38256	13431.8125
2889.88051	13420.1125
2892.37692	13456.4125
2894.8718	13426.6125
2897.36515	13448.3125
2899.85698	13499.4125
2902.34727	13522.9125
2904.83604	13535.0125
2907.32328	13598.2125
2909.809	13574.8125
2912.29319	13601.1125
2914.77587	13589.3125
2917.25702	13596.3125
2919.73665	13568.4125
2922.21476	13546.5125
2924.69136	13512.5125
2927.16644	13463.8125
2929.64	13463.7125
2932.11205	13396.2125
2934.58258	13354.2125
2937.05161	13356.3125
2939.51912	13332.2125
2941.98513	13309.2125
2944.44962	13266.7125
2946.91261	13193.7125
2949.37409	13197.4125
2951.83407	13169.4125
2954.29254	13119.0125
2956.74951	13110.1125
2959.20498	13081.8125
2961.65895	13064.6125
2964.11142	13011.8125
2966.56239	13030.0125
2969.01186	13022.1125
2971.45984	12953.1125
2973.90632	12937.0125
2976.35131	12887.0125
2978.7948	12856.5125
2981.23681	12853.9125
2983.67732	12826.8125
2986.11635	12746.8125
2988.55388	12747.6125
2990.98993	12703.4125
2993.4245	12688.6125
2995.85758	12648.2125
2998.28917	12595.6125
3000.71928	12542.9125
3003.14791	12493.9125
3005.57506	12520.2125
3008.00073	12471.2125
3010.42493	12463.5125
3012.84764	12431.4125
3015.26888	12408.8125
3017.68865	12391.7125
3020.10694	12335.2125
3022.52376	12305.2125
