Data from AgNPs_FTO_APTES_UA_5uM_CRN_10uM_R6G_10uM_NaF_0.1M_Addition_RamanShift__28__12-55-56-748.txt Node

Date: Mon Feb 07 12:55:56 GMT 2022
User: TCL
Spectrometer: QEP01345
Trigger mode: 4
Integration Time (sec): 7.000000E0
Scans to average: 10
Electric dark correction enabled: true
Nonlinearity correction enabled: false
Boxcar width: 0
XAxis mode: Raman Shifts
Number of Pixels in Spectrum: 1044
>>>>>Begin Spectral Data<<<<<
46.04893	-0.3375
50.45542	-1.8375
54.85868	-0.4375
59.25871	-0.1375
63.6555	77.6625
68.04907	80.3625
72.43941	88.1625
76.82654	85.6625
81.21044	86.5625
85.59113	91.6625
89.96862	96.7625
94.34289	99.8625
98.71396	103.8625
103.08183	108.6625
107.4465	111.0625
111.80798	114.7625
116.16626	119.7625
120.52136	126.0625
124.87327	131.6625
129.222	135.9625
133.56755	152.6625
137.90993	163.4625
142.24913	179.0625
146.58517	210.5625
150.91804	244.4625
155.24774	290.5625
159.57429	367.1625
163.89768	482.3625
168.21792	644.8625
172.53501	883.1625
176.84895	1225.9625
181.15975	1729.1625
185.46741	2432.9625
189.77193	3331.2625
194.07331	4445.9625
198.37157	5719.6625
202.6667	7054.1625
206.9587	8371.9625
211.24758	9685.2625
215.53334	11058.4625
219.81599	12567.0625
224.09553	14284.9625
228.37195	16190.4625
232.64527	18256.9625
236.91549	20315.7625
241.18261	22266.2625
245.44663	23912.7625
249.70755	25293.7625
253.96539	26496.2625
258.22014	27559.3625
262.4718	28487.1625
266.72039	29280.3625
270.96589	29788.6625
275.20832	29995.6625
279.44768	29932.3625
283.68397	29819.2625
287.91719	29786.8625
292.14735	29966.8625
296.37445	30442.8625
300.59849	31093.8625
304.81948	31774.1625
309.03742	32183.1625
313.25231	31818.4625
317.46415	30450.9625
321.67296	28354.6625
325.87872	26570.5625
330.08145	25725.6625
334.28114	25558.4625
338.47781	25831.9625
342.67145	26461.7625
346.86207	27356.0625
351.04966	28644.5625
355.23424	30109.2625
359.4158	31200.1625
363.59435	31663.0625
367.76989	31767.0625
371.94243	31677.7625
376.11196	31520.1625
380.27849	31349.6625
384.44203	31125.5625
388.60257	30916.0625
392.76012	30890.3625
396.91468	31271.1625
401.06626	32029.9625
405.21485	32643.6625
409.36047	32120.5625
413.50311	30742.1625
417.64277	29465.1625
421.77947	28831.3625
425.9132	28697.7625
430.04396	28761.4625
434.17176	28977.4625
438.2966	29351.5625
442.41849	29985.3625
446.53742	30887.9625
450.6534	31944.0625
454.76644	32650.1625
458.87653	32864.7625
462.98368	32670.2625
467.08789	32294.1625
471.18916	31725.3625
475.2875	31196.2625
479.38291	30802.0625
483.4754	30410.6625
487.56496	29887.6625
491.6516	29315.4625
495.73531	28850.8625
499.81612	28647.1625
503.89401	28868.5625
507.96899	29052.0625
512.04106	29154.9625
516.11023	29237.7625
520.1765	29191.2625
524.23987	28915.7625
528.30034	28322.9625
532.35792	27846.2625
536.41261	27287.6625
540.46441	26800.7625
544.51333	26666.5625
548.55936	27137.7625
552.60252	28069.1625
556.64279	29098.0625
560.6802	29737.7625
564.71473	30279.4625
568.7464	31371.4625
572.7752	32460.6625
576.80114	32206.5625
580.82422	31551.9625
584.84444	31302.2625
588.86181	31292.5625
592.87633	31479.2625
596.888	31795.5625
600.89682	32500.9625
604.9028	35096.6625
608.90594	42443.4625
612.90624	51917.0625
616.90371	49334.4625
620.89834	35621.2625
624.89015	29242.7625
628.87913	28233.0625
632.86528	28396.3625
636.84862	28504.9625
640.82913	27834.3625
644.80683	26473.4625
648.78172	25557.1625
652.75379	25484.6625
656.72306	26292.4625
660.68952	27481.5625
664.65319	27398.8625
668.61405	26283.8625
672.57211	25627.8625
676.52738	25597.2625
680.47986	25605.0625
684.42955	25396.1625
688.37646	25328.3625
692.32058	25416.0625
696.26192	25723.2625
700.20048	26100.9625
704.13626	26411.0625
708.06928	26437.3625
711.99952	26213.2625
715.927	26079.2625
719.85171	26070.8625
723.77365	26027.9625
727.69284	25630.2625
731.60928	25298.2625
735.52295	25178.6625
739.43388	25210.7625
743.34206	25350.9625
747.24749	25525.8625
751.15017	25889.6625
755.05012	26562.5625
758.94733	27907.6625
762.8418	30816.3625
766.73354	35769.2625
770.62254	40644.3625
774.50882	42367.5625
778.39237	39657.6625
782.27321	34468.3625
786.15132	29859.6625
790.02671	27133.3625
793.89938	25868.4625
797.76935	25310.2625
801.6366	25086.8625
805.50115	24901.2625
809.36299	24726.1625
813.22213	24599.8625
817.07857	24558.3625
820.93231	24529.0625
824.78336	24558.1625
828.63172	24591.2625
832.47738	24586.7625
836.32036	24567.2625
840.16066	24527.7625
843.99827	24440.0625
847.8332	24346.2625
851.66546	24251.0625
855.49504	24161.5625
859.32195	24093.0625
863.1462	23889.9625
866.96777	23799.9625
870.78668	23728.3625
874.60293	23724.7625
878.41652	23760.7625
882.22745	23901.3625
886.03573	24008.0625
889.84136	23958.5625
893.64433	23769.2625
897.44466	23692.9625
901.24235	23677.6625
905.0374	23603.0625
908.8298	23592.9625
912.61957	23623.0625
916.40671	23890.4625
920.19121	24328.7625
923.97308	24656.3625
927.75233	24797.0625
931.52895	24823.9625
935.30295	24434.1625
939.07433	23663.0625
942.84309	23010.5625
946.60924	22660.8625
950.37278	22503.0625
954.13371	22347.8625
957.89203	22249.9625
961.64774	22204.4625
965.40086	22163.1625
969.15137	22095.9625
972.89929	21984.6625
976.64461	21903.9625
980.38733	21894.4625
984.12747	21973.8625
987.86502	22168.5625
991.59999	22463.3625
995.33237	22874.5625
999.06217	23646.1625
1002.78939	24595.2625
1006.51404	25386.8625
1010.23611	25930.7625
1013.95561	26309.7625
1017.67255	26207.9625
1021.38692	25762.6625
1025.09872	25344.7625
1028.80796	25287.2625
1032.51465	25777.7625
1036.21877	26355.5625
1039.92035	26538.9625
1043.61937	26289.3625
1047.31584	25809.6625
1051.00976	25224.6625
1054.70114	24967.5625
1058.38998	25003.6625
1062.07627	25274.4625
1065.76003	25481.9625
1069.44126	25726.8625
1073.11995	26008.0625
1076.79611	26268.1625
1080.46974	26582.9625
1084.14085	27096.9625
1087.80943	27758.9625
1091.47549	28167.2625
1095.13903	27911.5625
1098.80005	27133.1625
1102.45857	26249.4625
1106.11456	25662.8625
1109.76805	25584.8625
1113.41903	25946.1625
1117.06751	26587.9625
1120.71348	27512.3625
1124.35696	28422.3625
1127.99793	29261.1625
1131.63641	29362.1625
1135.2724	28396.9625
1138.90589	27462.4625
1142.5369	26840.1625
1146.16542	26580.1625
1149.79145	26561.6625
1153.415	26795.5625
1157.03607	27289.8625
1160.65467	28138.5625
1164.27079	29464.2625
1167.88443	31390.7625
1171.49561	34254.2625
1175.10432	38592.3625
1178.71056	44052.9625
1182.31434	48411.7625
1185.91565	50175.1625
1189.51451	49758.5625
1193.11091	47455.3625
1196.70485	44174.4625
1200.29634	41247.3625
1203.88538	38933.4625
1207.47197	36769.1625
1211.05612	34890.3625
1214.63782	33740.6625
1218.21708	33200.0625
1221.79391	33112.2625
1225.36829	33206.0625
1228.94024	33116.8625
1232.50976	32800.1625
1236.07685	32576.2625
1239.6415	32417.1625
1243.20374	32291.5625
1246.76355	32390.3625
1250.32093	32867.5625
1253.8759	33857.5625
1257.42845	35088.8625
1260.97859	36346.8625
1264.52631	37516.6625
1268.07163	38688.4625
1271.61453	39983.7625
1275.15503	41170.8625
1278.69312	42116.2625
1282.22882	43025.7625
1285.76211	44072.9625
1289.29301	45612.0625
1292.82151	47356.4625
1296.34761	49531.7625
1299.87133	52423.1625
1303.39266	56445.4625
1306.9116	61931.8625
1310.42815	68262.9625
1313.94233	72721.0625
1317.45412	73179.0625
1320.96354	70844.7625
1324.47058	67516.0625
1327.97525	64368.4625
1331.47754	62154.8625
1334.97747	61078.9625
1338.47502	60910.2625
1341.97022	61319.1625
1345.46305	61509.3625
1348.95352	61696.0625
1352.44163	62462.3625
1355.92738	65053.5625
1359.41078	70885.7625
1362.89183	77351.4625
1366.37053	75957.1625
1369.84688	66310.5625
1373.32088	56151.4625
1376.79254	49623.3625
1380.26186	46823.6625
1383.72883	45854.8625
1387.19347	45298.8625
1390.65578	44650.1625
1394.11575	44371.1625
1397.57339	44854.0625
1401.0287	45886.8625
1404.48168	46888.0625
1407.93234	47539.1625
1411.38068	47357.3625
1414.82669	46088.9625
1418.27039	44029.5625
1421.71177	41783.9625
1425.15083	39870.0625
1428.58758	38687.3625
1432.02203	38437.8625
1435.45416	38983.7625
1438.88399	39665.3625
1442.31151	40270.2625
1445.73673	41006.5625
1449.15965	41813.9625
1452.58027	42358.0625
1455.9986	42618.3625
1459.41463	42974.8625
1462.82837	43657.0625
1466.23982	44533.2625
1469.64898	45356.0625
1473.05586	45676.4625
1476.46045	45705.3625
1479.86276	45656.8625
1483.26279	45755.8625
1486.66054	46130.7625
1490.05602	46804.4625
1493.44922	47765.6625
1496.84016	49318.8625
1500.22882	51906.4625
1503.61521	55705.8625
1506.99934	60592.9625
1510.38121	65713.6625
1513.76081	68891.0625
1517.13816	67448.5625
1520.51324	62034.1625
1523.88607	55920.0625
1527.25665	51514.9625
1530.62498	48934.2625
1533.99105	47343.8625
1537.35488	46348.0625
1540.71647	45586.8625
1544.07581	44800.9625
1547.4329	43904.2625
1550.78776	43211.2625
1554.14038	42818.2625
1557.49077	42942.1625
1560.83892	43467.1625
1564.18484	44206.8625
1567.52853	44756.9625
1570.86999	45173.4625
1574.20922	45603.9625
1577.54624	45763.6625
1580.88103	44727.4625
1584.2136	43454.1625
1587.54395	43483.3625
1590.87208	45321.3625
1594.19801	48474.0625
1597.52172	51761.6625
1600.84321	52884.6625
1604.16251	50428.3625
1607.47959	46264.8625
1610.79447	41834.2625
1614.10715	37777.4625
1617.41763	34438.9625
1620.7259	32184.4625
1624.03199	30991.7625
1627.33587	30949.1625
1630.63757	31981.4625
1633.93707	34215.7625
1637.23439	37727.0625
1640.52951	42460.1625
1643.82246	47988.1625
1647.11321	53396.9625
1650.40179	56359.3625
1653.68819	53984.9625
1656.97241	46730.5625
1660.25446	38417.7625
1663.53433	32169.6625
1666.81203	28187.6625
1670.08756	25799.3625
1673.36092	24340.8625
1676.63211	23432.0625
1679.90115	22821.5625
1683.16801	22336.5625
1686.43272	21964.1625
1689.69527	21706.4625
1692.95567	21534.2625
1696.2139	21376.2625
1699.46999	21282.9625
1702.72392	21172.8625
1705.97571	21136.1625
1709.22535	21073.2625
1712.47284	21041.0625
1715.71819	21040.8625
1718.96139	20971.1625
1722.20246	20913.6625
1725.44139	20810.6625
1728.67818	20652.9625
1731.91284	20490.0625
1735.14537	20347.5625
1738.37576	20236.8625
1741.60403	20121.4625
1744.83017	20032.4625
1748.05418	20008.4625
1751.27607	19909.2625
1754.49584	19900.6625
1757.71349	19852.0625
1760.92903	19811.9625
1764.14244	19802.2625
1767.35375	19767.5625
1770.56294	19720.1625
1773.77002	19671.7625
1776.97499	19622.2625
1780.17785	19571.9625
1783.37861	19507.4625
1786.57727	19525.0625
1789.77382	19463.4625
1792.96828	19432.3625
1796.16064	19430.6625
1799.3509	19379.3625
1802.53907	19337.6625
1805.72514	19271.1625
1808.90913	19217.3625
1812.09102	19128.1625
1815.27083	19125.2625
1818.44856	19064.1625
1821.6242	19030.6625
1824.79776	19011.8625
1827.96924	18992.5625
1831.13864	18976.7625
1834.30597	18988.8625
1837.47122	19001.3625
1840.6344	18955.2625
1843.7955	18949.5625
1846.95454	18973.7625
1850.11151	18958.9625
1853.26642	18975.5625
1856.41926	18975.2625
1859.57004	19006.3625
1862.71876	18994.0625
1865.86542	19005.5625
1869.01003	19003.3625
1872.15258	19018.6625
1875.29308	19046.3625
1878.43152	19062.3625
1881.56792	19089.5625
1884.70227	19100.9625
1887.83457	19138.5625
1890.96482	19119.4625
1894.09304	19152.2625
1897.21921	19153.6625
1900.34335	19156.9625
1903.46544	19186.1625
1906.58551	19200.2625
1909.70353	19227.8625
1912.81953	19205.6625
1915.93349	19180.5625
1919.04543	19187.5625
1922.15534	19137.2625
1925.26322	19059.8625
1928.36908	18972.3625
1931.47292	18886.9625
1934.57473	18760.3625
1937.67453	18641.2625
1940.77232	18519.1625
1943.86808	18438.9625
1946.96184	18337.2625
1950.05358	18276.9625
1953.14331	18157.8625
1956.23103	18085.4625
1959.31675	18013.4625
1962.40046	17938.2625
1965.48217	17883.3625
1968.56188	17842.0625
1971.63959	17812.8625
1974.7153	17736.5625
1977.78901	17676.5625
1980.86073	17599.6625
1983.93046	17560.0625
1986.99819	17467.4625
1990.06394	17404.2625
1993.1277	17357.8625
1996.18947	17288.2625
1999.24925	17265.5625
2002.30706	17219.8625
2005.36288	17149.3625
2008.41672	17136.9625
2011.46859	17066.8625
2014.51848	17014.4625
2017.56639	16952.3625
2020.61233	16900.1625
2023.6563	16885.5625
2026.6983	16825.0625
2029.73833	16773.9625
2032.7764	16752.3625
2035.8125	16684.4625
2038.84664	16676.2625
2041.87881	16659.9625
2044.90903	16608.6625
2047.93729	16602.1625
2050.96359	16588.5625
2053.98794	16537.3625
2057.01034	16544.1625
2060.03078	16499.6625
2063.04927	16505.2625
2066.06582	16504.1625
2069.08042	16482.9625
2072.09307	16447.0625
2075.10378	16443.2625
2078.11255	16414.0625
2081.11938	16404.7625
2084.12426	16414.7625
2087.12722	16374.6625
2090.12824	16368.9625
2093.12732	16329.8625
2096.12447	16323.1625
2099.11969	16340.4625
2102.11299	16369.0625
2105.10435	16327.9625
2108.09379	16308.0625
2111.08131	16371.6625
2114.0669	16367.1625
2117.05057	16362.5625
2120.03233	16369.9625
2123.01216	16370.4625
2125.99008	16391.4625
2128.96609	16395.0625
2131.94018	16406.8625
2134.91236	16419.8625
2137.88263	16436.7625
2140.851	16430.0625
2143.81746	16445.8625
2146.78201	16414.3625
2149.74466	16416.7625
2152.7054	16383.4625
2155.66425	16409.9625
2158.6212	16366.7625
2161.57625	16352.4625
2164.52941	16331.4625
2167.48067	16345.4625
2170.43004	16343.1625
2173.37752	16342.8625
2176.32311	16335.6625
2179.26681	16335.6625
2182.20863	16341.4625
2185.14856	16359.4625
2188.08661	16351.1625
2191.02278	16363.7625
2193.95707	16356.2625
2196.88948	16308.0625
2199.82001	16258.5625
2202.74867	16286.9625
2205.67545	16285.0625
2208.60037	16279.0625
2211.52341	16275.2625
2214.44458	16278.9625
2217.36388	16221.9625
2220.28132	16198.2625
2223.1969	16154.3625
2226.11061	16097.4625
2229.02246	16093.5625
2231.93245	16058.3625
2234.84058	15999.2625
2237.74686	15981.4625
2240.65128	15969.0625
2243.55385	15915.7625
2246.45456	15905.7625
2249.35343	15902.4625
2252.25044	15893.8625
2255.14561	15854.5625
2258.03893	15836.7625
2260.93041	15830.9625
2263.82004	15795.3625
2266.70783	15761.4625
2269.59378	15724.1625
2272.4779	15672.1625
2275.36017	15639.6625
2278.24061	15629.1625
2281.11922	15570.4625
2283.996	15563.0625
2286.87094	15554.1625
2289.74405	15485.6625
2292.61534	15467.5625
2295.4848	15439.2625
2298.35243	15431.5625
2301.21824	15470.1625
2304.08223	15453.9625
2306.94439	15459.0625
2309.80474	15468.7625
2312.66327	15503.8625
2315.51999	15490.3625
2318.37489	15484.6625
2321.22797	15472.7625
2324.07925	15438.4625
2326.92871	15445.7625
2329.77637	15432.7625
2332.62222	15402.6625
2335.46626	15405.7625
2338.3085	15401.2625
2341.14893	15423.7625
2343.98756	15458.8625
2346.8244	15455.0625
2349.65943	15446.3625
2352.49267	15469.6625
2355.32411	15496.6625
2358.15376	15505.5625
2360.98161	15492.6625
2363.80768	15517.0625
2366.63195	15504.9625
2369.45444	15454.0625
2372.27514	15451.3625
2375.09405	15441.5625
2377.91118	15369.6625
2380.72652	15297.7625
2383.54009	15289.0625
2386.35187	15205.0625
2389.16188	15158.0625
2391.97011	15114.1625
2394.77657	15102.9625
2397.58125	15085.9625
2400.38416	15035.3625
2403.18529	15000.8625
2405.98466	14982.9625
2408.78226	14953.3625
2411.57809	14901.4625
2414.37216	14905.1625
2417.16446	14889.3625
2419.955	14866.8625
2422.74378	14836.5625
2425.5308	14807.3625
2428.31606	14781.1625
2431.09956	14808.4625
2433.88131	14817.7625
2436.6613	14801.1625
2439.43954	14827.5625
2442.21603	14821.9625
2444.99077	14835.3625
2447.76377	14825.0625
2450.53501	14801.4625
2453.30451	14801.8625
2456.07226	14811.4625
2458.83827	14814.1625
2461.60254	14808.8625
2464.36507	14779.5625
2467.12586	14805.8625
2469.88492	14801.0625
2472.64224	14821.3625
2475.39782	14832.8625
2478.15167	14862.5625
2480.90379	14851.2625
2483.65417	14895.9625
2486.40283	14915.0625
2489.14976	14942.9625
2491.89497	14939.0625
2494.63845	14997.9625
2497.3802	14992.4625
2500.12024	14986.7625
2502.85855	14991.0625
2505.59514	14930.7625
2508.33002	14902.5625
2511.06318	14888.6625
2513.79462	14847.8625
2516.52435	14807.4625
2519.25237	14770.3625
2521.97867	14758.2625
2524.70327	14737.0625
2527.42616	14700.1625
2530.14734	14743.4625
2532.86681	14705.4625
2535.58458	14733.6625
2538.30065	14710.5625
2541.01501	14707.4625
2543.72768	14691.7625
2546.43864	14723.8625
2549.14791	14666.7625
2551.85548	14692.5625
2554.56136	14658.4625
2557.26554	14647.8625
2559.96803	14630.7625
2562.66883	14641.6625
2565.36794	14581.5625
2568.06536	14532.4625
2570.7611	14541.3625
2573.45514	14557.3625
2576.14751	14528.9625
2578.83819	14499.7625
2581.52719	14517.5625
2584.21451	14522.8625
2586.90015	14535.3625
2589.58411	14557.6625
2592.2664	14556.5625
2594.94701	14550.2625
2597.62594	14568.2625
2600.30321	14549.1625
2602.9788	14550.1625
2605.65273	14531.8625
2608.32498	14570.0625
2610.99557	14552.4625
2613.66449	14571.1625
2616.33175	14542.7625
2618.99734	14545.2625
2621.66128	14567.6625
2624.32355	14565.6625
2626.98416	14586.9625
2629.64311	14571.1625
2632.30041	14575.4625
2634.95605	14552.3625
2637.61004	14531.3625
2640.26238	14522.9625
2642.91306	14481.5625
2645.56209	14469.1625
2648.20948	14474.6625
2650.85521	14455.1625
2653.4993	14450.7625
2656.14175	14466.7625
2658.78255	14483.7625
2661.42171	14467.2625
2664.05923	14503.7625
2666.6951	14494.6625
2669.32934	14543.6625
2671.96194	14564.8625
2674.59291	14570.5625
2677.22224	14588.0625
2679.84993	14591.5625
2682.476	14555.3625
2685.10043	14560.5625
2687.72324	14519.1625
2690.34441	14508.7625
2692.96396	14489.9625
2695.58188	14496.0625
2698.19818	14449.0625
2700.81285	14485.2625
2703.4259	14501.0625
2706.03733	14549.3625
2708.64714	14527.8625
2711.25533	14496.7625
2713.86191	14512.6625
2716.46687	14539.7625
2719.07021	14545.8625
2721.67194	14581.7625
2724.27206	14563.9625
2726.87057	14585.8625
2729.46747	14592.2625
2732.06276	14580.6625
2734.65644	14556.3625
2737.24852	14567.6625
2739.83899	14559.7625
2742.42786	14572.3625
2745.01513	14517.7625
2747.60079	14500.0625
2750.18486	14489.7625
2752.76733	14524.7625
2755.3482	14486.1625
2757.92747	14510.1625
2760.50515	14495.3625
2763.08123	14484.4625
2765.65573	14504.1625
2768.22863	14466.5625
2770.79994	14478.9625
2773.36967	14460.1625
2775.9378	14467.4625
2778.50435	14468.0625
2781.06932	14467.2625
2783.6327	14474.9625
2786.1945	14476.0625
2788.75471	14509.6625
2791.31335	14447.9625
2793.87041	14438.7625
2796.42589	14393.6625
2798.97979	14382.4625
2801.53212	14377.0625
2804.08288	14370.2625
2806.63206	14333.5625
2809.17967	14282.3625
2811.72571	14264.1625
2814.27018	14297.1625
2816.81308	14261.3625
2819.35442	14245.1625
2821.89419	14240.9625
2824.43239	14288.2625
2826.96904	14283.6625
2829.50412	14281.3625
2832.03763	14252.1625
2834.56959	14231.1625
2837.1	14233.5625
2839.62884	14226.5625
2842.15613	14232.8625
2844.68186	14298.8625
2847.20604	14316.7625
2849.72867	14351.0625
2852.24974	14321.7625
2854.76927	14344.6625
2857.28724	14304.9625
2859.80367	14327.5625
2862.31855	14246.1625
2864.83189	14239.8625
2867.34368	14261.7625
2869.85393	14244.4625
2872.36264	14225.6625
2874.8698	14206.6625
2877.37543	14222.2625
2879.87952	14236.3625
2882.38207	14167.2625
2884.88308	14187.0625
2887.38256	14183.1625
2889.88051	14199.9625
2892.37692	14172.1625
2894.8718	14202.4625
2897.36515	14217.1625
2899.85698	14202.4625
2902.34727	14240.0625
2904.83604	14277.4625
2907.32328	14289.2625
2909.809	14295.1625
2912.29319	14310.9625
2914.77587	14307.6625
2917.25702	14300.5625
2919.73665	14312.1625
2922.21476	14281.0625
2924.69136	14305.3625
2927.16644	14258.1625
2929.64	14200.3625
2932.11205	14165.4625
2934.58258	14127.7625
2937.05161	14108.5625
2939.51912	14103.0625
2941.98513	14085.1625
2944.44962	14023.6625
2946.91261	13962.9625
2949.37409	13985.0625
2951.83407	13926.4625
2954.29254	13948.8625
2956.74951	13874.2625
2959.20498	13867.9625
2961.65895	13869.3625
2964.11142	13834.2625
2966.56239	13811.0625
2969.01186	13788.8625
2971.45984	13759.8625
2973.90632	13768.8625
2976.35131	13707.9625
2978.7948	13683.0625
2981.23681	13615.7625
2983.67732	13651.9625
2986.11635	13542.5625
2988.55388	13540.8625
2990.98993	13521.6625
2993.4245	13477.6625
2995.85758	13436.0625
2998.28917	13408.9625
3000.71928	13426.4625
3003.14791	13361.3625
3005.57506	13346.9625
3008.00073	13330.0625
3010.42493	13196.8625
3012.84764	13259.9625
3015.26888	13260.6625
3017.68865	13232.5625
3020.10694	13178.5625
3022.52376	13170.5625
