Data from AgNPs_FTO_APTES_UA_5uM_CRN_10uM_R6G_10uM_NaF_0.1M_Addition_RamanShift__19__12-45-26-735.txt Node

Date: Mon Feb 07 12:45:26 GMT 2022
User: TCL
Spectrometer: QEP01345
Trigger mode: 4
Integration Time (sec): 7.000000E0
Scans to average: 10
Electric dark correction enabled: true
Nonlinearity correction enabled: false
Boxcar width: 0
XAxis mode: Raman Shifts
Number of Pixels in Spectrum: 1044
>>>>>Begin Spectral Data<<<<<
46.04893	-1.175
50.45542	-1.075
54.85868	-0.775
59.25871	0.125
63.6555	84.825
68.04907	84.925
72.43941	94.125
76.82654	96.325
81.21044	98.825
85.59113	101.125
89.96862	106.525
94.34289	104.525
98.71396	114.525
103.08183	116.325
107.4465	120.025
111.80798	122.425
116.16626	126.925
120.52136	136.125
124.87327	139.325
129.222	151.525
133.56755	160.825
137.90993	175.625
142.24913	191.125
146.58517	218.825
150.91804	253.125
155.24774	304.425
159.57429	386.725
163.89768	502.025
168.21792	673.625
172.53501	919.425
176.84895	1277.125
181.15975	1800.225
185.46741	2527.325
189.77193	3480.225
194.07331	4623.625
198.37157	5939.825
202.6667	7320.225
206.9587	8690.225
211.24758	10037.925
215.53334	11367.325
219.81599	12809.825
224.09553	14422.425
228.37195	16203.825
232.64527	18126.425
236.91549	20120.125
241.18261	22121.225
245.44663	24012.625
249.70755	25643.825
253.96539	27097.325
258.22014	28347.525
262.4718	29406.525
266.72039	30171.025
270.96589	30664.925
275.20832	30863.925
279.44768	30840.025
283.68397	30809.025
287.91719	30779.125
292.14735	30838.225
296.37445	30971.025
300.59849	31129.225
304.81948	31142.725
309.03742	30987.625
313.25231	30405.025
317.46415	29476.525
321.67296	28424.425
325.87872	27526.725
330.08145	27052.725
334.28114	26921.325
338.47781	27014.425
342.67145	27327.625
346.86207	27694.325
351.04966	28189.225
355.23424	28767.725
359.4158	29151.825
363.59435	29482.625
367.76989	29636.325
371.94243	29757.725
376.11196	29841.325
380.27849	29977.525
384.44203	30109.725
388.60257	30397.025
392.76012	30809.625
396.91468	31221.125
401.06626	31756.425
405.21485	32060.425
409.36047	31849.225
413.50311	31288.225
417.64277	30961.325
421.77947	30934.325
425.9132	31065.725
430.04396	31319.625
434.17176	31517.325
438.2966	31768.125
442.41849	32361.825
446.53742	33241.725
450.6534	34315.025
454.76644	35177.125
458.87653	35585.825
462.98368	35577.325
467.08789	35282.725
471.18916	34859.625
475.2875	34675.125
479.38291	34740.425
483.4754	34683.225
487.56496	34194.925
491.6516	33356.025
495.73531	32489.825
499.81612	32006.825
503.89401	31953.425
507.96899	32070.925
512.04106	31903.525
516.11023	31542.625
520.1765	30996.025
524.23987	30503.525
528.30034	30072.625
532.35792	29677.525
536.41261	29315.025
540.46441	29073.325
544.51333	29180.925
548.55936	29764.125
552.60252	30693.825
556.64279	31655.325
560.6802	32353.325
564.71473	32906.325
568.7464	33675.725
572.7752	34708.625
576.80114	35731.525
580.82422	36464.725
584.84444	36999.725
588.86181	37431.325
592.87633	37897.225
596.888	38043.525
600.89682	37800.525
604.9028	38496.825
608.90594	40995.525
612.90624	43198.625
616.90371	39953.625
620.89834	33340.625
624.89015	30618.725
628.87913	30528.225
632.86528	30768.925
636.84862	30548.525
640.82913	29916.025
644.80683	28912.625
648.78172	28091.425
652.75379	27816.025
656.72306	28012.925
660.68952	28430.125
664.65319	28298.125
668.61405	27761.225
672.57211	27564.325
676.52738	27624.925
680.47986	27561.225
684.42955	27408.525
688.37646	27338.325
692.32058	27481.925
696.26192	27795.925
700.20048	28164.625
704.13626	28443.725
708.06928	28475.525
711.99952	28268.425
715.927	28163.225
719.85171	28198.925
723.77365	28079.625
727.69284	27720.425
731.60928	27370.225
735.52295	27205.325
739.43388	27196.825
743.34206	27226.725
747.24749	27437.125
751.15017	27772.225
755.05012	28485.125
758.94733	29577.625
762.8418	31458.825
766.73354	34113.925
770.62254	36541.025
774.50882	36652.325
778.39237	34421.025
782.27321	31525.225
786.15132	29286.925
790.02671	27994.625
793.89938	27342.725
797.76935	27093.825
801.6366	27073.025
805.50115	27015.525
809.36299	26780.525
813.22213	26576.625
817.07857	26492.025
820.93231	26408.025
824.78336	26177.425
828.63172	25995.325
832.47738	25884.225
836.32036	25851.225
840.16066	26040.025
843.99827	26156.825
847.8332	26075.725
851.66546	25882.325
855.49504	25795.325
859.32195	25742.825
863.1462	25617.625
866.96777	25527.725
870.78668	25425.425
874.60293	25360.225
878.41652	25315.925
882.22745	25426.325
886.03573	25509.325
889.84136	25475.025
893.64433	25373.025
897.44466	25251.325
901.24235	25179.725
905.0374	25008.725
908.8298	24982.525
912.61957	25123.325
916.40671	25470.225
920.19121	26026.625
923.97308	26439.525
927.75233	26412.525
931.52895	26096.125
935.30295	25622.425
939.07433	24981.325
942.84309	24487.725
946.60924	24247.525
950.37278	24169.625
954.13371	24113.025
957.89203	24085.925
961.64774	24066.025
965.40086	24009.325
969.15137	23914.925
972.89929	23721.425
976.64461	23608.225
980.38733	23554.025
984.12747	23643.025
987.86502	23880.125
991.59999	24230.225
995.33237	24789.725
999.06217	25712.125
1002.78939	26757.025
1006.51404	27378.725
1010.23611	27615.425
1013.95561	27865.525
1017.67255	27888.325
1021.38692	27541.125
1025.09872	27168.925
1028.80796	27321.025
1032.51465	28193.625
1036.21877	29079.125
1039.92035	29209.025
1043.61937	28715.925
1047.31584	27952.825
1051.00976	27154.225
1054.70114	26837.025
1058.38998	26967.225
1062.07627	27269.025
1065.76003	27542.925
1069.44126	27779.525
1073.11995	28169.925
1076.79611	28513.525
1080.46974	28671.125
1084.14085	28935.125
1087.80943	29285.325
1091.47549	29722.325
1095.13903	29861.525
1098.80005	29517.625
1102.45857	28739.125
1106.11456	27992.925
1109.76805	27650.325
1113.41903	27679.525
1117.06751	27878.425
1120.71348	28166.725
1124.35696	28498.625
1127.99793	28842.525
1131.63641	29118.125
1135.2724	29123.325
1138.90589	29071.025
1142.5369	29116.525
1146.16542	29370.625
1149.79145	29754.825
1153.415	30331.225
1157.03607	31147.825
1160.65467	32412.425
1164.27079	34197.125
1167.88443	36631.125
1171.49561	39479.625
1175.10432	43005.125
1178.71056	47310.225
1182.31434	51321.325
1185.91565	53587.825
1189.51451	53811.125
1193.11091	52512.625
1196.70485	50186.925
1200.29634	47633.825
1203.88538	45700.425
1207.47197	44477.725
1211.05612	43713.025
1214.63782	42820.525
1218.21708	41657.625
1221.79391	40676.825
1225.36829	40012.225
1228.94024	39176.025
1232.50976	38216.525
1236.07685	37385.425
1239.6415	36937.125
1243.20374	36857.325
1246.76355	37101.525
1250.32093	37826.625
1253.8759	38825.725
1257.42845	40171.025
1260.97859	41618.925
1264.52631	43043.625
1268.07163	44489.525
1271.61453	46158.925
1275.15503	48020.125
1278.69312	50022.825
1282.22882	51877.525
1285.76211	53746.225
1289.29301	55889.825
1292.82151	58643.025
1296.34761	62308.125
1299.87133	66716.925
1303.39266	71268.425
1306.9116	75757.725
1310.42815	79655.625
1313.94233	81923.525
1317.45412	82185.725
1320.96354	81447.725
1324.47058	80497.825
1327.97525	79751.325
1331.47754	79248.125
1334.97747	78834.325
1338.47502	78322.725
1341.97022	77632.225
1345.46305	76134.825
1348.95352	73860.225
1352.44163	71553.925
1355.92738	70496.625
1359.41078	71338.225
1362.89183	72573.225
1366.37053	70949.225
1369.84688	65719.725
1373.32088	59422.525
1376.79254	55147.825
1380.26186	53762.325
1383.72883	54205.425
1387.19347	54922.425
1390.65578	55180.925
1394.11575	55590.225
1397.57339	56707.525
1401.0287	58252.525
1404.48168	59428.825
1407.93234	59352.525
1411.38068	57685.125
1414.82669	54877.425
1418.27039	51452.625
1421.71177	48259.125
1425.15083	45774.625
1428.58758	44502.225
1432.02203	44656.925
1435.45416	45857.825
1438.88399	47789.225
1442.31151	49507.725
1445.73673	50890.125
1449.15965	52147.925
1452.58027	53202.625
1455.9986	53824.625
1459.41463	54514.425
1462.82837	55374.925
1466.23982	56256.425
1469.64898	56895.425
1473.05586	56939.425
1476.46045	56520.325
1479.86276	55434.225
1483.26279	54269.225
1486.66054	53421.525
1490.05602	53062.725
1493.44922	53028.225
1496.84016	53120.725
1500.22882	53776.425
1503.61521	54988.325
1506.99934	56596.925
1510.38121	58042.225
1513.76081	58770.325
1517.13816	58103.625
1520.51324	56841.525
1523.88607	55731.625
1527.25665	55236.625
1530.62498	55274.725
1533.99105	55355.625
1537.35488	55167.825
1540.71647	54346.725
1544.07581	52966.825
1547.4329	51258.925
1550.78776	49798.125
1554.14038	48829.625
1557.49077	48312.325
1560.83892	47931.125
1564.18484	47819.125
1567.52853	47741.025
1570.86999	48018.725
1574.20922	49012.925
1577.54624	50120.125
1580.88103	51041.525
1584.2136	52067.225
1587.54395	54186.125
1590.87208	57264.225
1594.19801	60926.125
1597.52172	64179.025
1600.84321	64675.825
1604.16251	61165.125
1607.47959	55535.625
1610.79447	49832.125
1614.10715	44655.925
1617.41763	40381.625
1620.7259	37391.925
1624.03199	35815.225
1627.33587	35738.425
1630.63757	37193.325
1633.93707	40432.625
1637.23439	45617.725
1640.52951	52544.125
1643.82246	59997.525
1647.11321	65297.125
1650.40179	65575.925
1653.68819	60258.125
1656.97241	51472.525
1660.25446	42612.725
1663.53433	35896.025
1666.81203	31400.025
1670.08756	28569.325
1673.36092	26819.525
1676.63211	25671.825
1679.90115	24821.725
1683.16801	24231.725
1686.43272	23784.525
1689.69527	23406.125
1692.95567	23175.725
1696.2139	22955.025
1699.46999	22792.125
1702.72392	22628.425
1705.97571	22536.725
1709.22535	22455.425
1712.47284	22375.525
1715.71819	22305.825
1718.96139	22187.125
1722.20246	22077.525
1725.44139	21950.825
1728.67818	21749.125
1731.91284	21601.525
1735.14537	21459.725
1738.37576	21324.625
1741.60403	21236.725
1744.83017	21157.625
1748.05418	21051.225
1751.27607	21011.425
1754.49584	20962.425
1757.71349	20905.325
1760.92903	20902.325
1764.14244	20847.425
1767.35375	20835.425
1770.56294	20753.425
1773.77002	20665.325
1776.97499	20617.325
1780.17785	20596.225
1783.37861	20534.725
1786.57727	20500.625
1789.77382	20474.825
1792.96828	20391.925
1796.16064	20384.125
1799.3509	20334.225
1802.53907	20295.225
1805.72514	20214.425
1808.90913	20156.825
1812.09102	20078.925
1815.27083	20056.425
1818.44856	20003.925
1821.6242	19952.425
1824.79776	19935.125
1827.96924	19900.625
1831.13864	19916.325
1834.30597	19940.825
1837.47122	19961.125
1840.6344	19962.725
1843.7955	19983.325
1846.95454	19981.125
1850.11151	19947.825
1853.26642	19974.425
1856.41926	19953.125
1859.57004	19947.625
1862.71876	19949.025
1865.86542	19945.925
1869.01003	19872.725
1872.15258	19838.725
1875.29308	19838.125
1878.43152	19808.125
1881.56792	19831.725
1884.70227	19818.325
1887.83457	19848.025
1890.96482	19776.725
1894.09304	19798.525
1897.21921	19781.025
1900.34335	19744.925
1903.46544	19750.425
1906.58551	19707.525
1909.70353	19690.925
1912.81953	19625.925
1915.93349	19585.125
1919.04543	19545.325
1922.15534	19452.825
1925.26322	19385.825
1928.36908	19299.325
1931.47292	19260.525
1934.57473	19164.825
1937.67453	19097.925
1940.77232	19028.825
1943.86808	18954.425
1946.96184	18909.025
1950.05358	18840.925
1953.14331	18745.925
1956.23103	18689.425
1959.31675	18630.225
1962.40046	18534.225
1965.48217	18511.025
1968.56188	18452.625
1971.63959	18384.625
1974.7153	18342.525
1977.78901	18269.225
1980.86073	18180.625
1983.93046	18129.925
1986.99819	18053.525
1990.06394	18012.525
1993.1277	17981.425
1996.18947	17927.525
1999.24925	17863.525
2002.30706	17830.025
2005.36288	17751.525
2008.41672	17678.825
2011.46859	17629.225
2014.51848	17574.025
2017.56639	17521.925
2020.61233	17520.225
2023.6563	17458.525
2026.6983	17410.125
2029.73833	17399.525
2032.7764	17362.425
2035.8125	17322.525
2038.84664	17296.025
2041.87881	17262.425
2044.90903	17264.225
2047.93729	17205.025
2050.96359	17213.225
2053.98794	17202.225
2057.01034	17181.325
2060.03078	17172.925
2063.04927	17140.425
2066.06582	17185.825
2069.08042	17140.225
2072.09307	17121.125
2075.10378	17076.325
2078.11255	17057.425
2081.11938	17067.925
2084.12426	16990.925
2087.12722	16976.325
2090.12824	16982.925
2093.12732	16982.625
2096.12447	17004.125
2099.11969	16982.525
2102.11299	16986.625
2105.10435	16970.525
2108.09379	16967.825
2111.08131	17006.425
2114.0669	16968.425
2117.05057	17008.325
2120.03233	17049.925
2123.01216	17036.425
2125.99008	17017.125
2128.96609	17045.125
2131.94018	17046.825
2134.91236	17032.225
2137.88263	17049.825
2140.851	17053.125
2143.81746	17075.225
2146.78201	17046.225
2149.74466	17058.025
2152.7054	17025.125
2155.66425	17037.525
2158.6212	17028.325
2161.57625	17014.425
2164.52941	16996.425
2167.48067	16986.925
2170.43004	17018.725
2173.37752	16963.025
2176.32311	16966.525
2179.26681	16993.425
2182.20863	17005.225
2185.14856	16986.425
2188.08661	16983.425
2191.02278	17007.925
2193.95707	16995.125
2196.88948	16960.625
2199.82001	16961.725
2202.74867	16935.925
2205.67545	16931.925
2208.60037	16912.025
2211.52341	16932.225
2214.44458	16899.725
2217.36388	16841.925
2220.28132	16863.025
2223.1969	16823.525
2226.11061	16783.125
2229.02246	16734.525
2231.93245	16701.225
2234.84058	16666.825
2237.74686	16613.325
2240.65128	16573.525
2243.55385	16545.125
2246.45456	16555.825
2249.35343	16497.725
2252.25044	16466.325
2255.14561	16450.225
2258.03893	16428.325
2260.93041	16379.425
2263.82004	16347.425
2266.70783	16275.625
2269.59378	16272.025
2272.4779	16157.525
2275.36017	16147.025
2278.24061	16148.225
2281.11922	16112.925
2283.996	16098.825
2286.87094	16079.125
2289.74405	16016.725
2292.61534	16036.725
2295.4848	16030.725
2298.35243	15996.325
2301.21824	16030.925
2304.08223	16019.925
2306.94439	16042.425
2309.80474	16066.125
2312.66327	16107.425
2315.51999	16071.825
2318.37489	16075.925
2321.22797	16036.725
2324.07925	16063.825
2326.92871	16017.625
2329.77637	16021.125
2332.62222	15992.225
2335.46626	16015.625
2338.3085	16025.925
2341.14893	16033.125
2343.98756	16053.125
2346.8244	16068.725
2349.65943	16077.025
2352.49267	16073.625
2355.32411	16095.125
2358.15376	16075.825
2360.98161	16034.125
2363.80768	16043.225
2366.63195	16019.225
2369.45444	15968.625
2372.27514	15975.825
2375.09405	15899.325
2377.91118	15882.525
2380.72652	15828.925
2383.54009	15803.025
2386.35187	15773.125
2389.16188	15735.925
2391.97011	15698.625
2394.77657	15681.325
2397.58125	15688.625
2400.38416	15682.125
2403.18529	15651.425
2405.98466	15626.525
2408.78226	15573.825
2411.57809	15549.225
2414.37216	15538.925
2417.16446	15511.925
2419.955	15499.025
2422.74378	15470.025
2425.5308	15441.025
2428.31606	15442.925
2431.09956	15430.325
2433.88131	15431.825
2436.6613	15456.525
2439.43954	15440.425
2442.21603	15416.625
2444.99077	15408.625
2447.76377	15454.025
2450.53501	15456.925
2453.30451	15425.125
2456.07226	15419.625
2458.83827	15433.925
2461.60254	15440.825
2464.36507	15442.525
2467.12586	15440.025
2469.88492	15464.225
2472.64224	15480.125
2475.39782	15509.025
2478.15167	15540.925
2480.90379	15477.725
2483.65417	15517.925
2486.40283	15551.125
2489.14976	15594.025
2491.89497	15591.025
2494.63845	15616.925
2497.3802	15582.825
2500.12024	15610.225
2502.85855	15615.825
2505.59514	15582.425
2508.33002	15572.925
2511.06318	15554.625
2513.79462	15558.325
2516.52435	15538.825
2519.25237	15538.425
2521.97867	15550.625
2524.70327	15514.825
2527.42616	15556.025
2530.14734	15532.525
2532.86681	15559.725
2535.58458	15554.225
2538.30065	15571.825
2541.01501	15559.525
2543.72768	15490.825
2546.43864	15532.725
2549.14791	15497.825
2551.85548	15504.725
2554.56136	15490.925
2557.26554	15454.725
2559.96803	15466.925
2562.66883	15454.025
2565.36794	15431.125
2568.06536	15410.925
2570.7611	15409.525
2573.45514	15418.225
2576.14751	15415.125
2578.83819	15402.625
2581.52719	15381.325
2584.21451	15433.325
2586.90015	15476.125
2589.58411	15440.425
2592.2664	15470.825
2594.94701	15448.825
2597.62594	15450.325
2600.30321	15435.625
2602.9788	15463.225
2605.65273	15462.025
2608.32498	15486.325
2610.99557	15484.525
2613.66449	15488.025
2616.33175	15501.725
2618.99734	15501.625
2621.66128	15508.625
2624.32355	15524.425
2626.98416	15523.725
2629.64311	15546.725
2632.30041	15587.025
2634.95605	15562.025
2637.61004	15550.725
2640.26238	15554.125
2642.91306	15490.425
2645.56209	15468.125
2648.20948	15522.525
2650.85521	15509.125
2653.4993	15504.725
2656.14175	15508.525
2658.78255	15544.925
2661.42171	15548.125
2664.05923	15596.125
2666.6951	15575.325
2669.32934	15578.725
2671.96194	15579.525
2674.59291	15584.925
2677.22224	15597.225
2679.84993	15587.225
2682.476	15570.425
2685.10043	15556.625
2687.72324	15550.325
2690.34441	15489.125
2692.96396	15496.725
2695.58188	15494.225
2698.19818	15495.025
2700.81285	15510.025
2703.4259	15509.625
2706.03733	15533.525
2708.64714	15527.425
2711.25533	15525.525
2713.86191	15523.825
2716.46687	15543.925
2719.07021	15570.625
2721.67194	15622.125
2724.27206	15603.725
2726.87057	15649.925
2729.46747	15655.125
2732.06276	15666.425
2734.65644	15639.025
2737.24852	15650.125
2739.83899	15648.325
2742.42786	15671.525
2745.01513	15652.525
2747.60079	15648.525
2750.18486	15647.625
2752.76733	15623.725
2755.3482	15612.125
2757.92747	15625.225
2760.50515	15622.125
2763.08123	15613.125
2765.65573	15683.325
2768.22863	15659.525
2770.79994	15645.325
2773.36967	15687.225
2775.9378	15654.125
2778.50435	15677.325
2781.06932	15680.125
2783.6327	15695.925
2786.1945	15689.225
2788.75471	15700.925
2791.31335	15660.725
2793.87041	15622.325
2796.42589	15622.925
2798.97979	15603.625
2801.53212	15571.925
2804.08288	15558.025
2806.63206	15519.325
2809.17967	15496.325
2811.72571	15437.525
2814.27018	15450.625
2816.81308	15434.925
2819.35442	15403.125
2821.89419	15361.625
2824.43239	15372.625
2826.96904	15382.925
2829.50412	15381.625
2832.03763	15344.625
2834.56959	15325.025
2837.1	15304.225
2839.62884	15301.125
2842.15613	15301.425
2844.68186	15359.625
2847.20604	15373.225
2849.72867	15358.725
2852.24974	15336.925
2854.76927	15359.125
2857.28724	15338.225
2859.80367	15325.925
2862.31855	15324.425
2864.83189	15274.725
2867.34368	15283.325
2869.85393	15303.025
2872.36264	15245.325
2874.8698	15230.525
2877.37543	15231.925
2879.87952	15225.425
2882.38207	15261.325
2884.88308	15274.125
2887.38256	15246.725
2889.88051	15245.225
2892.37692	15266.525
2894.8718	15298.825
2897.36515	15316.225
2899.85698	15331.725
2902.34727	15391.125
2904.83604	15408.225
2907.32328	15450.325
2909.809	15456.825
2912.29319	15462.025
2914.77587	15482.225
2917.25702	15473.025
2919.73665	15467.125
2922.21476	15449.025
2924.69136	15445.125
2927.16644	15417.825
2929.64	15357.025
2932.11205	15352.625
2934.58258	15308.325
2937.05161	15320.325
2939.51912	15314.725
2941.98513	15311.925
2944.44962	15276.125
2946.91261	15225.825
2949.37409	15223.325
2951.83407	15205.725
2954.29254	15164.125
2956.74951	15146.725
2959.20498	15159.325
2961.65895	15126.625
2964.11142	15106.025
2966.56239	15070.025
2969.01186	15061.125
2971.45984	15015.025
2973.90632	15028.625
2976.35131	14968.125
2978.7948	14937.925
2981.23681	14902.825
2983.67732	14893.125
2986.11635	14829.225
2988.55388	14807.725
2990.98993	14773.325
2993.4245	14712.425
2995.85758	14651.325
2998.28917	14599.525
3000.71928	14631.825
3003.14791	14605.125
3005.57506	14554.725
3008.00073	14520.725
3010.42493	14421.025
3012.84764	14437.125
3015.26888	14474.225
3017.68865	14418.425
3020.10694	14385.925
3022.52376	14371.325
3024.9391	14337.025
3027.35298	14309.925
3029.76539	14353.425
3032.17632	14299.425
3034.5858	14277.525
3036.9938	14290.525
3039.40034	14289.125
3041.80542	14303.025
3044.20903	14250.425
3046.61118	14250.125
3049.01187	14196.025
3051.4111	14234.525
3053.80888	14208.225
3056.20519	14196.925
3058.60005	14155.025
3060.99345	14130.325
3063.3854	14063.125
3065.7759	13984.425
3068.16494	13948.325
3070.55254	13900.225
3072.93868	13882.025
3075.32338	13815.025
3077.70662	13786.425
3080.08842	13753.725
3082.46878	13733.725
3084.84769	13737.125
3087.22515	13696.725
3089.60118	13711.525
3091.97576	13705.225
3094.3489	13704.825
3096.72061	13687.625
3099.09087	13683.725
3101.4597	13668.625
3103.82709	13674.525
3106.19305	13653.425
3108.55757	13588.225
3110.92066	13576.625
3113.28232	13573.425
3115.64255	13527.125
3118.00134	13502.225
3120.35871	13471.125
3122.71466	13435.825
3125.06917	13440.025
3127.42226	13369.425
