Data from AgNPs_FTO_APTES_UA_5uM_CRN_10uM_R6G_10uM_NaF_0.1M_Addition_RamanShift__9__12-33-46-723.txt Node

Date: Mon Feb 07 12:33:46 GMT 2022
User: TCL
Spectrometer: QEP01345
Trigger mode: 4
Integration Time (sec): 7.000000E0
Scans to average: 10
Electric dark correction enabled: true
Nonlinearity correction enabled: false
Boxcar width: 0
XAxis mode: Raman Shifts
Number of Pixels in Spectrum: 1044
>>>>>Begin Spectral Data<<<<<
46.04893	-0.1875
50.45542	-1.1875
54.85868	-1.9875
59.25871	0.6125
63.6555	94.0125
68.04907	96.4125
72.43941	102.5125
76.82654	103.8125
81.21044	107.3125
85.59113	109.0125
89.96862	119.0125
94.34289	118.4125
98.71396	122.3125
103.08183	123.0125
107.4465	132.6125
111.80798	132.8125
116.16626	138.5125
120.52136	148.1125
124.87327	151.5125
129.222	161.3125
133.56755	179.1125
137.90993	189.1125
142.24913	210.5125
146.58517	242.4125
150.91804	282.6125
155.24774	345.5125
159.57429	437.0125
163.89768	567.2125
168.21792	761.1125
172.53501	1035.9125
176.84895	1456.5125
181.15975	2053.4125
185.46741	2868.3125
189.77193	3962.7125
194.07331	5283.8125
198.37157	6790.8125
202.6667	8367.8125
206.9587	9943.9125
211.24758	11462.3125
215.53334	13009.1125
219.81599	14640.0125
224.09553	16486.7125
228.37195	18438.5125
232.64527	20595.5125
236.91549	22803.9125
241.18261	25047.3125
245.44663	27111.8125
249.70755	29010.8125
253.96539	30666.1125
258.22014	32074.5125
262.4718	33182.5125
266.72039	33924.3125
270.96589	34397.6125
275.20832	34511.9125
279.44768	34361.4125
283.68397	34138.4125
287.91719	33967.2125
292.14735	33912.2125
296.37445	33956.2125
300.59849	34072.5125
304.81948	34205.8125
309.03742	34229.6125
313.25231	33973.6125
317.46415	33335.1125
321.67296	32508.7125
325.87872	31781.9125
330.08145	31416.3125
334.28114	31285.4125
338.47781	31381.6125
342.67145	31723.4125
346.86207	32101.9125
351.04966	32609.6125
355.23424	33135.6125
359.4158	33589.3125
363.59435	33997.8125
367.76989	34217.2125
371.94243	34309.7125
376.11196	34334.9125
380.27849	34399.2125
384.44203	34443.0125
388.60257	34654.5125
392.76012	35156.9125
396.91468	35711.6125
401.06626	36445.3125
405.21485	36790.2125
409.36047	36640.9125
413.50311	36225.4125
417.64277	36102.6125
421.77947	36392.2125
425.9132	36640.2125
430.04396	36852.3125
434.17176	37049.3125
438.2966	37121.1125
442.41849	37642.0125
446.53742	38587.6125
450.6534	39694.4125
454.76644	40420.3125
458.87653	40703.2125
462.98368	40541.0125
467.08789	40122.7125
471.18916	39481.7125
475.2875	39032.5125
479.38291	38897.2125
483.4754	38826.3125
487.56496	38454.9125
491.6516	37662.8125
495.73531	36772.0125
499.81612	36193.4125
503.89401	36191.5125
507.96899	36462.8125
512.04106	36465.9125
516.11023	36156.7125
520.1765	35624.4125
524.23987	34951.6125
528.30034	34372.7125
532.35792	33919.3125
536.41261	33541.4125
540.46441	33214.3125
544.51333	33206.8125
548.55936	33730.3125
552.60252	34544.6125
556.64279	35509.2125
560.6802	36403.5125
564.71473	37125.1125
568.7464	38219.3125
572.7752	40030.7125
576.80114	42145.5125
580.82422	44046.0125
584.84444	46081.0125
588.86181	48760.4125
592.87633	50810.2125
596.888	50106.7125
600.89682	46846.3125
604.9028	44655.2125
608.90594	45290.7125
612.90624	46418.0125
616.90371	42995.1125
620.89834	36941.1125
624.89015	34443.3125
628.87913	34335.2125
632.86528	34698.0125
636.84862	34544.4125
640.82913	33753.7125
644.80683	32791.4125
648.78172	32279.8125
652.75379	32225.4125
656.72306	32536.9125
660.68952	32857.5125
664.65319	32590.7125
668.61405	32081.9125
672.57211	31994.4125
676.52738	32142.8125
680.47986	32087.7125
684.42955	31835.1125
688.37646	31648.6125
692.32058	31881.3125
696.26192	32425.5125
700.20048	32972.1125
704.13626	33409.8125
708.06928	33569.8125
711.99952	33629.1125
715.927	33574.3125
719.85171	33601.5125
723.77365	33259.7125
727.69284	32589.9125
731.60928	32006.9125
735.52295	31690.6125
739.43388	31652.6125
743.34206	31666.9125
747.24749	32002.6125
751.15017	32522.3125
755.05012	33321.2125
758.94733	34480.4125
762.8418	36233.7125
766.73354	38632.1125
770.62254	40552.6125
774.50882	40360.3125
778.39237	38132.6125
782.27321	35541.2125
786.15132	33589.5125
790.02671	32386.9125
793.89938	31672.4125
797.76935	31386.6125
801.6366	31278.5125
805.50115	31225.9125
809.36299	31099.5125
813.22213	30876.5125
817.07857	30744.2125
820.93231	30615.4125
824.78336	30384.6125
828.63172	30086.6125
832.47738	29831.6125
836.32036	29816.9125
840.16066	29888.1125
843.99827	29922.5125
847.8332	29851.2125
851.66546	29910.5125
855.49504	29989.8125
859.32195	29913.3125
863.1462	29805.7125
866.96777	29716.3125
870.78668	29636.3125
874.60293	29604.1125
878.41652	29587.9125
882.22745	29650.9125
886.03573	29694.2125
889.84136	29706.8125
893.64433	29648.9125
897.44466	29539.4125
901.24235	29464.5125
905.0374	29410.2125
908.8298	29395.8125
912.61957	29524.1125
916.40671	29991.3125
920.19121	30690.9125
923.97308	31186.3125
927.75233	31030.2125
931.52895	30380.9125
935.30295	29645.4125
939.07433	28939.4125
942.84309	28434.6125
946.60924	28172.4125
950.37278	28087.0125
954.13371	28137.6125
957.89203	28158.1125
961.64774	28228.4125
965.40086	28220.5125
969.15137	28180.5125
972.89929	27929.8125
976.64461	27726.5125
980.38733	27645.0125
984.12747	27619.8125
987.86502	27750.6125
991.59999	27935.0125
995.33237	28142.2125
999.06217	28584.7125
1002.78939	29228.6125
1006.51404	29882.9125
1010.23611	30559.1125
1013.95561	30951.8125
1017.67255	31054.1125
1021.38692	30651.9125
1025.09872	29991.4125
1028.80796	29549.3125
1032.51465	29490.0125
1036.21877	29646.5125
1039.92035	29847.1125
1043.61937	29909.1125
1047.31584	29955.3125
1051.00976	29948.2125
1054.70114	30095.2125
1058.38998	30398.6125
1062.07627	30826.7125
1065.76003	31396.9125
1069.44126	31943.4125
1073.11995	32632.5125
1076.79611	33071.7125
1080.46974	33192.6125
1084.14085	33392.6125
1087.80943	33814.6125
1091.47549	34335.2125
1095.13903	34592.7125
1098.80005	34087.0125
1102.45857	32976.0125
1106.11456	31969.9125
1109.76805	31452.1125
1113.41903	31382.8125
1117.06751	31563.3125
1120.71348	31862.0125
1124.35696	32201.4125
1127.99793	32582.1125
1131.63641	32935.0125
1135.2724	33077.9125
1138.90589	33187.4125
1142.5369	33481.7125
1146.16542	33996.5125
1149.79145	34615.7125
1153.415	35332.8125
1157.03607	36286.0125
1160.65467	37807.9125
1164.27079	40208.6125
1167.88443	42840.2125
1171.49561	45332.4125
1175.10432	48023.3125
1178.71056	51393.4125
1182.31434	54617.3125
1185.91565	56013.4125
1189.51451	55657.4125
1193.11091	54404.2125
1196.70485	52702.6125
1200.29634	50875.7125
1203.88538	49916.6125
1207.47197	50025.0125
1211.05612	50313.4125
1214.63782	49603.6125
1218.21708	47690.4125
1221.79391	45374.2125
1225.36829	43554.5125
1228.94024	42447.4125
1232.50976	41544.4125
1236.07685	40909.2125
1239.6415	40540.8125
1243.20374	40510.5125
1246.76355	40838.5125
1250.32093	41655.9125
1253.8759	42606.7125
1257.42845	43881.9125
1260.97859	45459.6125
1264.52631	47025.7125
1268.07163	48613.6125
1271.61453	50206.7125
1275.15503	51999.3125
1278.69312	54101.9125
1282.22882	56521.1125
1285.76211	59442.9125
1289.29301	62792.7125
1292.82151	66707.0125
1296.34761	71311.9125
1299.87133	76429.1125
1303.39266	81058.4125
1306.9116	84454.8125
1310.42815	86223.5125
1313.94233	86466.4125
1317.45412	85566.3125
1320.96354	84644.7125
1324.47058	84351.2125
1327.97525	84560.4125
1331.47754	84705.0125
1334.97747	84317.1125
1338.47502	83205.7125
1341.97022	81547.0125
1345.46305	79567.7125
1348.95352	77634.6125
1352.44163	76324.1125
1355.92738	76373.0125
1359.41078	78097.1125
1362.89183	79733.3125
1366.37053	78792.6125
1369.84688	73585.6125
1373.32088	66102.4125
1376.79254	60635.3125
1380.26186	59081.7125
1383.72883	60071.6125
1387.19347	60958.5125
1390.65578	60783.0125
1394.11575	60713.7125
1397.57339	61581.7125
1401.0287	63088.9125
1404.48168	64114.0125
1407.93234	63810.7125
1411.38068	61740.2125
1414.82669	58493.3125
1418.27039	55008.5125
1421.71177	51698.2125
1425.15083	49259.9125
1428.58758	48285.5125
1432.02203	48980.8125
1435.45416	50822.4125
1438.88399	53046.6125
1442.31151	54803.9125
1445.73673	55784.4125
1449.15965	56528.1125
1452.58027	56827.2125
1455.9986	56876.4125
1459.41463	57116.6125
1462.82837	57897.9125
1466.23982	58815.2125
1469.64898	59816.2125
1473.05586	60332.8125
1476.46045	60140.6125
1479.86276	59429.0125
1483.26279	58588.9125
1486.66054	58200.8125
1490.05602	58364.4125
1493.44922	58771.6125
1496.84016	59323.6125
1500.22882	59940.0125
1503.61521	60738.5125
1506.99934	61629.2125
1510.38121	62493.6125
1513.76081	62745.5125
1517.13816	62430.9125
1520.51324	62285.3125
1523.88607	62617.5125
1527.25665	63492.2125
1530.62498	64158.0125
1533.99105	63994.7125
1537.35488	62704.3125
1540.71647	60616.6125
1544.07581	57902.2125
1547.4329	55335.2125
1550.78776	53258.6125
1554.14038	51850.4125
1557.49077	50996.0125
1560.83892	50580.8125
1564.18484	50214.3125
1567.52853	50207.5125
1570.86999	50827.5125
1574.20922	52326.0125
1577.54624	53992.9125
1580.88103	55279.9125
1584.2136	56957.5125
1587.54395	59756.7125
1590.87208	63599.1125
1594.19801	67679.4125
1597.52172	70714.5125
1600.84321	70307.3125
1604.16251	65583.3125
1607.47959	58874.9125
1610.79447	52533.3125
1614.10715	47175.8125
1617.41763	43012.5125
1620.7259	40220.1125
1624.03199	38935.8125
1627.33587	39231.6125
1630.63757	40911.6125
1633.93707	44712.7125
1637.23439	50975.4125
1640.52951	59984.7125
1643.82246	70525.3125
1647.11321	78625.4125
1650.40179	79526.1125
1653.68819	72285.6125
1656.97241	60628.2125
1660.25446	49581.1125
1663.53433	41385.1125
1666.81203	36057.2125
1670.08756	32658.9125
1673.36092	30603.5125
1676.63211	29343.4125
1679.90115	28475.6125
1683.16801	27769.0125
1686.43272	27262.9125
1689.69527	26890.6125
1692.95567	26606.2125
1696.2139	26358.0125
1699.46999	26179.4125
1702.72392	26008.8125
1705.97571	25945.3125
1709.22535	25815.7125
1712.47284	25716.8125
1715.71819	25614.9125
1718.96139	25537.3125
1722.20246	25354.0125
1725.44139	25224.7125
1728.67818	25063.6125
1731.91284	24826.4125
1735.14537	24647.3125
1738.37576	24492.8125
1741.60403	24358.1125
1744.83017	24276.4125
1748.05418	24142.4125
1751.27607	24057.3125
1754.49584	24001.9125
1757.71349	23984.6125
1760.92903	23964.1125
1764.14244	23935.7125
1767.35375	23892.6125
1770.56294	23787.2125
1773.77002	23749.2125
1776.97499	23655.2125
1780.17785	23579.3125
1783.37861	23520.8125
1786.57727	23471.5125
1789.77382	23423.0125
1792.96828	23373.2125
1796.16064	23303.2125
1799.3509	23238.4125
1802.53907	23193.6125
1805.72514	23112.8125
1808.90913	23014.5125
1812.09102	22996.5125
1815.27083	22930.6125
1818.44856	22847.9125
1821.6242	22804.0125
1824.79776	22791.0125
1827.96924	22789.8125
1831.13864	22802.0125
1834.30597	22798.1125
1837.47122	22818.7125
1840.6344	22758.5125
1843.7955	22771.5125
1846.95454	22823.0125
1850.11151	22759.7125
1853.26642	22717.9125
1856.41926	22712.9125
1859.57004	22697.0125
1862.71876	22621.1125
1865.86542	22560.4125
1869.01003	22519.4125
1872.15258	22454.9125
1875.29308	22434.2125
1878.43152	22384.7125
1881.56792	22378.1125
1884.70227	22353.7125
1887.83457	22297.3125
1890.96482	22239.8125
1894.09304	22208.9125
1897.21921	22200.5125
1900.34335	22160.6125
1903.46544	22117.1125
1906.58551	22096.9125
1909.70353	22050.2125
1912.81953	21961.7125
1915.93349	21918.2125
1919.04543	21852.2125
1922.15534	21818.1125
1925.26322	21723.3125
1928.36908	21641.7125
1931.47292	21619.9125
1934.57473	21542.1125
1937.67453	21462.5125
1940.77232	21390.3125
1943.86808	21330.8125
1946.96184	21305.4125
1950.05358	21219.7125
1953.14331	21158.8125
1956.23103	21102.4125
1959.31675	21024.6125
1962.40046	20960.9125
1965.48217	20867.0125
1968.56188	20816.9125
1971.63959	20741.8125
1974.7153	20651.5125
1977.78901	20584.9125
1980.86073	20459.3125
1983.93046	20373.0125
1986.99819	20320.7125
1990.06394	20282.4125
1993.1277	20292.2125
1996.18947	20172.3125
1999.24925	20147.3125
2002.30706	20070.1125
2005.36288	19976.2125
2008.41672	19919.3125
2011.46859	19859.2125
2014.51848	19802.6125
2017.56639	19723.3125
2020.61233	19641.1125
2023.6563	19600.9125
2026.6983	19536.0125
2029.73833	19502.5125
2032.7764	19480.0125
2035.8125	19381.5125
2038.84664	19376.5125
2041.87881	19371.3125
2044.90903	19311.1125
2047.93729	19251.6125
2050.96359	19218.2125
2053.98794	19184.0125
2057.01034	19194.0125
2060.03078	19162.4125
2063.04927	19168.3125
2066.06582	19199.6125
2069.08042	19175.1125
2072.09307	19137.7125
2075.10378	19084.7125
2078.11255	19086.0125
2081.11938	19046.5125
2084.12426	19008.3125
2087.12722	19032.6125
2090.12824	19015.7125
2093.12732	18996.6125
2096.12447	19002.1125
2099.11969	19012.1125
2102.11299	18990.9125
2105.10435	18985.3125
2108.09379	18984.8125
2111.08131	18967.3125
2114.0669	18996.5125
2117.05057	18993.1125
2120.03233	18994.6125
2123.01216	19004.5125
2125.99008	19024.8125
2128.96609	19037.8125
2131.94018	19034.2125
2134.91236	19003.7125
2137.88263	19026.9125
2140.851	19001.6125
2143.81746	19002.1125
2146.78201	18946.5125
2149.74466	18902.4125
2152.7054	18910.3125
2155.66425	18904.0125
2158.6212	18867.5125
2161.57625	18872.7125
2164.52941	18861.3125
2167.48067	18843.2125
2170.43004	18880.3125
2173.37752	18826.6125
2176.32311	18850.0125
2179.26681	18801.5125
2182.20863	18851.7125
2185.14856	18842.5125
2188.08661	18820.9125
2191.02278	18858.8125
2193.95707	18749.1125
2196.88948	18743.6125
2199.82001	18700.6125
2202.74867	18680.0125
2205.67545	18652.7125
2208.60037	18628.0125
2211.52341	18589.1125
2214.44458	18578.7125
2217.36388	18531.7125
2220.28132	18477.2125
2223.1969	18451.8125
2226.11061	18408.7125
2229.02246	18370.0125
2231.93245	18368.8125
2234.84058	18326.2125
2237.74686	18330.5125
2240.65128	18310.0125
2243.55385	18260.8125
2246.45456	18220.5125
2249.35343	18176.8125
2252.25044	18114.6125
2255.14561	18057.8125
2258.03893	18035.6125
2260.93041	17937.0125
2263.82004	17910.2125
2266.70783	17863.8125
2269.59378	17792.1125
2272.4779	17706.3125
2275.36017	17704.9125
2278.24061	17664.1125
2281.11922	17618.5125
2283.996	17611.4125
2286.87094	17543.4125
2289.74405	17537.5125
2292.61534	17495.9125
2295.4848	17476.8125
2298.35243	17457.3125
2301.21824	17494.6125
2304.08223	17443.6125
2306.94439	17427.3125
2309.80474	17433.3125
2312.66327	17435.9125
2315.51999	17387.2125
2318.37489	17367.3125
2321.22797	17385.7125
2324.07925	17335.6125
2326.92871	17287.4125
2329.77637	17266.0125
2332.62222	17228.9125
2335.46626	17201.2125
2338.3085	17215.9125
2341.14893	17190.3125
2343.98756	17217.3125
2346.8244	17195.8125
2349.65943	17189.2125
2352.49267	17172.3125
2355.32411	17216.5125
2358.15376	17241.0125
2360.98161	17207.0125
2363.80768	17179.0125
2366.63195	17199.1125
2369.45444	17135.4125
2372.27514	17123.0125
2375.09405	17101.9125
2377.91118	17039.6125
2380.72652	16996.1125
2383.54009	16987.4125
2386.35187	16959.6125
2389.16188	16886.6125
2391.97011	16831.4125
2394.77657	16847.4125
2397.58125	16805.2125
2400.38416	16776.4125
2403.18529	16759.7125
2405.98466	16736.6125
2408.78226	16721.4125
2411.57809	16679.3125
2414.37216	16692.2125
2417.16446	16677.2125
2419.955	16630.8125
2422.74378	16645.2125
2425.5308	16594.2125
2428.31606	16598.5125
2431.09956	16588.1125
2433.88131	16576.0125
2436.6613	16569.3125
2439.43954	16561.3125
2442.21603	16551.5125
2444.99077	16538.4125
2447.76377	16579.0125
2450.53501	16541.2125
2453.30451	16544.4125
2456.07226	16489.0125
2458.83827	16510.7125
2461.60254	16509.6125
2464.36507	16508.0125
2467.12586	16483.4125
2469.88492	16507.3125
2472.64224	16496.0125
2475.39782	16494.2125
2478.15167	16540.5125
2480.90379	16481.3125
2483.65417	16528.4125
2486.40283	16493.1125
2489.14976	16500.8125
2491.89497	16516.1125
2494.63845	16544.4125
2497.3802	16524.2125
2500.12024	16509.0125
2502.85855	16508.7125
2505.59514	16478.8125
2508.33002	16462.7125
2511.06318	16452.6125
2513.79462	16438.8125
2516.52435	16463.5125
2519.25237	16452.3125
2521.97867	16432.0125
2524.70327	16441.5125
2527.42616	16381.3125
2530.14734	16406.4125
2532.86681	16385.3125
2535.58458	16403.4125
2538.30065	16354.2125
2541.01501	16360.8125
2543.72768	16343.4125
2546.43864	16325.8125
2549.14791	16310.1125
2551.85548	16318.7125
2554.56136	16294.1125
2557.26554	16259.1125
2559.96803	16246.5125
2562.66883	16257.0125
2565.36794	16232.2125
2568.06536	16233.1125
2570.7611	16240.5125
2573.45514	16193.1125
2576.14751	16191.9125
2578.83819	16138.9125
2581.52719	16181.2125
2584.21451	16182.3125
2586.90015	16158.8125
2589.58411	16174.6125
2592.2664	16179.3125
2594.94701	16127.4125
2597.62594	16143.9125
2600.30321	16096.9125
2602.9788	16133.1125
2605.65273	16131.9125
2608.32498	16180.5125
2610.99557	16150.8125
2613.66449	16102.6125
2616.33175	16142.7125
2618.99734	16160.6125
2621.66128	16103.6125
2624.32355	16108.0125
2626.98416	16116.7125
2629.64311	16068.8125
2632.30041	16095.6125
2634.95605	16046.4125
2637.61004	16064.2125
2640.26238	16071.6125
2642.91306	16076.3125
2645.56209	16032.3125
2648.20948	16059.8125
2650.85521	16089.3125
2653.4993	16117.1125
2656.14175	16088.7125
2658.78255	16095.7125
2661.42171	16138.8125
2664.05923	16134.2125
2666.6951	16128.9125
2669.32934	16150.9125
2671.96194	16140.8125
2674.59291	16178.0125
2677.22224	16190.7125
2679.84993	16200.5125
2682.476	16171.7125
2685.10043	16207.1125
2687.72324	16140.2125
2690.34441	16135.4125
2692.96396	16129.5125
2695.58188	16146.6125
2698.19818	16112.7125
2700.81285	16178.6125
2703.4259	16124.5125
2706.03733	16177.9125
2708.64714	16141.8125
2711.25533	16173.4125
2713.86191	16156.0125
2716.46687	16162.5125
2719.07021	16208.6125
2721.67194	16227.9125
2724.27206	16252.6125
2726.87057	16272.1125
2729.46747	16294.3125
2732.06276	16295.0125
2734.65644	16300.1125
2737.24852	16288.5125
2739.83899	16296.8125
2742.42786	16300.9125
2745.01513	16275.5125
2747.60079	16245.3125
2750.18486	16238.1125
2752.76733	16243.2125
2755.3482	16231.9125
2757.92747	16231.1125
2760.50515	16213.6125
2763.08123	16232.7125
2765.65573	16215.9125
2768.22863	16230.8125
2770.79994	16198.6125
2773.36967	16220.8125
2775.9378	16181.9125
2778.50435	16210.0125
2781.06932	16222.2125
2783.6327	16192.9125
2786.1945	16233.6125
2788.75471	16230.8125
2791.31335	16183.7125
2793.87041	16200.2125
2796.42589	16124.6125
2798.97979	16169.7125
2801.53212	16117.3125
2804.08288	16085.0125
2806.63206	16008.6125
2809.17967	16013.9125
2811.72571	15963.1125
2814.27018	15971.7125
2816.81308	15928.0125
2819.35442	15870.4125
2821.89419	15856.9125
2824.43239	15842.9125
2826.96904	15836.6125
2829.50412	15862.9125
2832.03763	15798.9125
2834.56959	15780.3125
2837.1	15744.2125
2839.62884	15768.1125
2842.15613	15762.5125
2844.68186	15794.4125
2847.20604	15815.4125
2849.72867	15805.2125
2852.24974	15804.3125
2854.76927	15799.0125
2857.28724	15793.0125
2859.80367	15749.0125
2862.31855	15718.9125
2864.83189	15672.9125
2867.34368	15648.1125
2869.85393	15638.6125
2872.36264	15613.7125
2874.8698	15609.4125
2877.37543	15594.3125
2879.87952	15575.9125
2882.38207	15573.9125
2884.88308	15553.9125
2887.38256	15570.1125
2889.88051	15580.1125
2892.37692	15574.7125
2894.8718	15614.8125
2897.36515	15649.2125
2899.85698	15630.1125
2902.34727	15660.4125
2904.83604	15694.6125
2907.32328	15692.8125
2909.809	15654.8125
2912.29319	15679.7125
2914.77587	15710.2125
2917.25702	15676.6125
2919.73665	15667.1125
2922.21476	15689.8125
2924.69136	15684.3125
2927.16644	15630.9125
2929.64	15624.3125
2932.11205	15598.1125
2934.58258	15557.1125
2937.05161	15568.9125
2939.51912	15555.3125
2941.98513	15571.0125
2944.44962	15531.3125
2946.91261	15470.8125
2949.37409	15474.0125
2951.83407	15418.4125
2954.29254	15416.0125
2956.74951	15414.4125
2959.20498	15369.7125
2961.65895	15342.8125
2964.11142	15361.1125
2966.56239	15339.4125
2969.01186	15328.3125
2971.45984	15253.6125
2973.90632	15288.5125
2976.35131	15247.7125
2978.7948	15194.1125
2981.23681	15143.2125
2983.67732	15101.9125
2986.11635	15051.1125
2988.55388	15029.6125
2990.98993	14993.3125
2993.4245	14932.1125
2995.85758	14851.5125
2998.28917	14802.5125
3000.71928	14806.6125
3003.14791	14774.4125
3005.57506	14714.7125
3008.00073	14701.1125
3010.42493	14572.4125
3012.84764	14617.6125
3015.26888	14615.5125
3017.68865	14560.3125
3020.10694	14521.6125
3022.52376	14511.2125
