Data from AgNPs_FTO_APTES_UA_5uM_CRN_10uM_R6G_10uM_NaF_0.1M_Addition_RamanShift__30__12-58-16-751.txt Node

Date: Mon Feb 07 12:58:16 GMT 2022
User: TCL
Spectrometer: QEP01345
Trigger mode: 4
Integration Time (sec): 7.000000E0
Scans to average: 10
Electric dark correction enabled: true
Nonlinearity correction enabled: false
Boxcar width: 0
XAxis mode: Raman Shifts
Number of Pixels in Spectrum: 1044
>>>>>Begin Spectral Data<<<<<
46.04893	0.525
50.45542	-0.775
54.85868	0.025
59.25871	-0.875
63.6555	53.725
68.04907	51.725
72.43941	57.625
76.82654	62.725
81.21044	62.125
85.59113	64.625
89.96862	70.925
94.34289	69.425
98.71396	72.925
103.08183	77.825
107.4465	75.625
111.80798	76.525
116.16626	83.725
120.52136	87.525
124.87327	92.125
129.222	93.225
133.56755	98.925
137.90993	108.425
142.24913	115.225
146.58517	134.125
150.91804	151.125
155.24774	177.925
159.57429	227.625
163.89768	291.625
168.21792	387.825
172.53501	526.225
176.84895	725.525
181.15975	1020.725
185.46741	1428.225
189.77193	1968.025
194.07331	2618.725
198.37157	3376.025
202.6667	4150.625
206.9587	4943.625
211.24758	5726.625
215.53334	6553.925
219.81599	7495.325
224.09553	8558.425
228.37195	9788.625
232.64527	11065.525
236.91549	12347.825
241.18261	13493.025
245.44663	14408.925
249.70755	15078.025
253.96539	15682.325
258.22014	16200.825
262.4718	16713.725
266.72039	17080.525
270.96589	17382.125
275.20832	17465.325
279.44768	17463.525
283.68397	17433.925
287.91719	17331.325
292.14735	17457.025
296.37445	17875.325
300.59849	18487.225
304.81948	19310.525
309.03742	19891.625
313.25231	19822.825
317.46415	18770.625
321.67296	17100.425
325.87872	15686.925
330.08145	14960.125
334.28114	14860.725
338.47781	15131.725
342.67145	15590.925
346.86207	16305.725
351.04966	17420.125
355.23424	18628.225
359.4158	19520.825
363.59435	19912.825
367.76989	19861.425
371.94243	19662.125
376.11196	19418.225
380.27849	19223.425
384.44203	18903.525
388.60257	18545.325
392.76012	18455.725
396.91468	18653.325
401.06626	19288.025
405.21485	19766.225
409.36047	19358.525
413.50311	18211.125
417.64277	17095.025
421.77947	16488.625
425.9132	16239.725
430.04396	16219.725
434.17176	16242.225
438.2966	16358.725
442.41849	16717.225
446.53742	17242.325
450.6534	17772.525
454.76644	18065.325
458.87653	18132.125
462.98368	17981.825
467.08789	17660.525
471.18916	17284.325
475.2875	16821.425
479.38291	16450.025
483.4754	16156.125
487.56496	15866.025
491.6516	15759.025
495.73531	15686.725
499.81612	15817.625
503.89401	16009.225
507.96899	16230.325
512.04106	16448.125
516.11023	16666.425
520.1765	16782.425
524.23987	16592.525
528.30034	16225.925
532.35792	15782.625
536.41261	15373.925
540.46441	14965.625
544.51333	14831.125
548.55936	15038.125
552.60252	15576.525
556.64279	16145.425
560.6802	16427.025
564.71473	16706.725
568.7464	17546.625
572.7752	18154.425
576.80114	17715.025
580.82422	17093.425
584.84444	16826.925
588.86181	16574.625
592.87633	16467.325
596.888	16533.525
600.89682	17213.225
604.9028	19491.725
608.90594	25674.325
612.90624	34151.825
616.90371	32910.125
620.89834	21891.825
624.89015	16606.625
628.87913	15593.325
632.86528	15752.425
636.84862	16070.925
640.82913	15797.725
644.80683	14891.125
648.78172	14299.425
652.75379	14363.625
656.72306	15126.025
660.68952	16120.525
664.65319	15988.925
668.61405	14994.825
672.57211	14482.625
676.52738	14423.325
680.47986	14429.525
684.42955	14269.025
688.37646	14138.525
692.32058	14249.325
696.26192	14401.725
700.20048	14655.625
704.13626	14903.225
708.06928	14941.125
711.99952	14783.725
715.927	14658.925
719.85171	14699.325
723.77365	14616.025
727.69284	14370.025
731.60928	14178.925
735.52295	14100.325
739.43388	14139.825
743.34206	14220.725
747.24749	14333.725
751.15017	14556.325
755.05012	14940.025
758.94733	15911.525
762.8418	18094.825
766.73354	21906.525
770.62254	25849.825
774.50882	27487.825
778.39237	25881.525
782.27321	21854.025
786.15132	18047.725
790.02671	15809.125
793.89938	14790.425
797.76935	14322.525
801.6366	14115.125
805.50115	13960.225
809.36299	13868.625
813.22213	13771.625
817.07857	13745.925
820.93231	13696.225
824.78336	13765.225
828.63172	13825.625
832.47738	13894.125
836.32036	13849.625
840.16066	13748.325
843.99827	13641.825
847.8332	13560.925
851.66546	13539.325
855.49504	13530.025
859.32195	13486.525
863.1462	13337.225
866.96777	13282.725
870.78668	13245.925
874.60293	13299.525
878.41652	13315.325
882.22745	13425.725
886.03573	13501.625
889.84136	13463.825
893.64433	13371.825
897.44466	13299.425
901.24235	13308.325
905.0374	13307.325
908.8298	13273.525
912.61957	13255.425
916.40671	13415.025
920.19121	13617.925
923.97308	13809.825
927.75233	13907.725
931.52895	13959.425
935.30295	13739.425
939.07433	13227.425
942.84309	12756.125
946.60924	12498.025
950.37278	12388.625
954.13371	12283.325
957.89203	12237.025
961.64774	12192.725
965.40086	12178.125
969.15137	12131.325
972.89929	12090.025
976.64461	12029.925
980.38733	12017.525
984.12747	12075.225
987.86502	12114.425
991.59999	12205.225
995.33237	12389.925
999.06217	12700.325
1002.78939	13118.125
1006.51404	13514.625
1010.23611	13921.925
1013.95561	14158.625
1017.67255	14075.525
1021.38692	13793.025
1025.09872	13483.725
1028.80796	13337.825
1032.51465	13448.125
1036.21877	13681.325
1039.92035	13820.025
1043.61937	13901.025
1047.31584	13858.925
1051.00976	13788.425
1054.70114	13755.025
1058.38998	13808.525
1062.07627	13969.725
1065.76003	14170.025
1069.44126	14305.125
1073.11995	14496.325
1076.79611	14678.625
1080.46974	14912.025
1084.14085	15289.825
1087.80943	15859.425
1091.47549	16116.325
1095.13903	15883.225
1098.80005	15249.725
1102.45857	14583.225
1106.11456	14179.625
1109.76805	14145.925
1113.41903	14445.325
1117.06751	14991.425
1120.71348	15744.525
1124.35696	16579.725
1127.99793	17366.625
1131.63641	17275.925
1135.2724	16383.925
1138.90589	15504.725
1142.5369	14965.125
1146.16542	14611.525
1149.79145	14432.825
1153.415	14494.825
1157.03607	14708.725
1160.65467	15157.325
1164.27079	15848.825
1167.88443	16938.925
1171.49561	18640.025
1175.10432	21532.625
1178.71056	25179.325
1182.31434	27670.925
1185.91565	28116.125
1189.51451	27204.825
1193.11091	25394.625
1196.70485	23145.125
1200.29634	21408.325
1203.88538	20183.525
1207.47197	18755.025
1211.05612	17476.725
1214.63782	16785.125
1218.21708	16489.525
1221.79391	16506.525
1225.36829	16656.125
1228.94024	16840.625
1232.50976	17010.125
1236.07685	17107.925
1239.6415	17065.425
1243.20374	16984.925
1246.76355	17030.525
1250.32093	17263.125
1253.8759	17705.625
1257.42845	18366.725
1260.97859	19081.625
1264.52631	19773.525
1268.07163	20556.225
1271.61453	21218.225
1275.15503	21696.025
1278.69312	21967.825
1282.22882	22155.925
1285.76211	22681.225
1289.29301	23530.325
1292.82151	24402.825
1296.34761	25277.625
1299.87133	26656.225
1303.39266	28947.125
1306.9116	32558.725
1310.42815	36806.325
1313.94233	39625.025
1317.45412	39327.625
1320.96354	36814.425
1324.47058	33805.325
1327.97525	31232.425
1331.47754	29504.025
1334.97747	28850.525
1338.47502	28752.725
1341.97022	29342.325
1345.46305	30163.525
1348.95352	31516.525
1352.44163	33535.825
1355.92738	36697.025
1359.41078	42104.525
1362.89183	47840.625
1366.37053	46890.425
1369.84688	39479.625
1373.32088	32030.525
1376.79254	27314.125
1380.26186	25019.225
1383.72883	23846.325
1387.19347	22966.625
1390.65578	22107.425
1394.11575	21332.125
1397.57339	20990.625
1401.0287	21079.725
1404.48168	21334.925
1407.93234	21628.925
1411.38068	21739.225
1414.82669	21503.725
1418.27039	20959.825
1421.71177	20302.625
1425.15083	19680.825
1428.58758	19251.425
1432.02203	19170.425
1435.45416	19333.525
1438.88399	19460.925
1442.31151	19521.225
1445.73673	19692.425
1449.15965	19898.225
1452.58027	19972.025
1455.9986	19811.125
1459.41463	19847.825
1462.82837	20065.225
1466.23982	20538.525
1469.64898	21078.225
1473.05586	21459.625
1476.46045	21718.425
1479.86276	22097.625
1483.26279	22664.425
1486.66054	23361.625
1490.05602	24226.325
1493.44922	25475.025
1496.84016	27383.525
1500.22882	30356.925
1503.61521	34341.125
1506.99934	38849.125
1510.38121	43250.725
1513.76081	45745.625
1517.13816	44052.025
1520.51324	38905.525
1523.88607	33271.325
1527.25665	29266.525
1530.62498	26836.825
1533.99105	25338.725
1537.35488	24327.425
1540.71647	23623.925
1544.07581	23147.725
1547.4329	22736.725
1550.78776	22488.425
1554.14038	22440.625
1557.49077	22653.625
1560.83892	23269.625
1564.18484	24106.125
1567.52853	24960.225
1570.86999	25515.825
1574.20922	25852.225
1577.54624	25661.525
1580.88103	24254.825
1584.2136	22490.025
1587.54395	21585.925
1590.87208	21967.025
1594.19801	23288.625
1597.52172	24973.025
1600.84321	25579.825
1604.16251	24367.325
1607.47959	22427.525
1610.79447	20559.125
1614.10715	18745.025
1617.41763	17319.425
1620.7259	16384.725
1624.03199	15934.325
1627.33587	15957.425
1630.63757	16437.825
1633.93707	17414.425
1637.23439	19006.325
1640.52951	21207.925
1643.82246	24175.325
1647.11321	27633.625
1650.40179	30327.225
1653.68819	29869.925
1656.97241	25846.725
1660.25446	20901.225
1663.53433	17247.125
1666.81203	15030.125
1670.08756	13743.825
1673.36092	12984.325
1676.63211	12482.625
1679.90115	12184.225
1683.16801	11925.025
1686.43272	11738.325
1689.69527	11608.625
1692.95567	11488.325
1696.2139	11423.125
1699.46999	11391.925
1702.72392	11320.525
1705.97571	11286.825
1709.22535	11257.625
1712.47284	11277.525
1715.71819	11297.125
1718.96139	11293.425
1722.20246	11255.225
1725.44139	11185.525
1728.67818	11088.325
1731.91284	10991.125
1735.14537	10871.325
1738.37576	10790.725
1741.60403	10723.025
1744.83017	10679.425
1748.05418	10648.325
1751.27607	10636.325
1754.49584	10582.525
1757.71349	10548.225
1760.92903	10540.625
1764.14244	10505.425
1767.35375	10500.525
1770.56294	10474.925
1773.77002	10438.525
1776.97499	10360.925
1780.17785	10337.525
1783.37861	10322.325
1786.57727	10279.525
1789.77382	10249.125
1792.96828	10238.725
1796.16064	10224.025
1799.3509	10223.925
1802.53907	10183.625
1805.72514	10152.825
1808.90913	10102.325
1812.09102	10079.525
1815.27083	10043.825
1818.44856	10020.225
1821.6242	9988.025
1824.79776	9984.325
1827.96924	9969.425
1831.13864	9954.725
1834.30597	9955.125
1837.47122	9931.425
1840.6344	9928.125
1843.7955	9934.025
1846.95454	9925.325
1850.11151	9945.725
1853.26642	9922.525
1856.41926	9918.125
1859.57004	9925.625
1862.71876	9945.025
1865.86542	9949.725
1869.01003	9932.525
1872.15258	9956.025
1875.29308	9963.125
1878.43152	9986.425
1881.56792	9998.225
1884.70227	10002.025
1887.83457	10022.725
1890.96482	10037.125
1894.09304	10032.225
1897.21921	10056.225
1900.34335	10050.625
1903.46544	10046.625
1906.58551	10084.125
1909.70353	10081.625
1912.81953	10106.225
1915.93349	10089.525
1919.04543	10098.725
1922.15534	10079.925
1925.26322	10050.225
1928.36908	9997.325
1931.47292	9938.925
1934.57473	9837.025
1937.67453	9756.225
1940.77232	9700.525
1943.86808	9603.925
1946.96184	9558.725
1950.05358	9493.425
1953.14331	9492.625
1956.23103	9425.725
1959.31675	9347.225
1962.40046	9334.425
1965.48217	9288.125
1968.56188	9263.425
1971.63959	9239.225
1974.7153	9225.025
1977.78901	9182.825
1980.86073	9141.825
1983.93046	9113.125
1986.99819	9072.725
1990.06394	9014.325
1993.1277	9004.125
1996.18947	8986.025
1999.24925	8965.825
2002.30706	8914.425
2005.36288	8898.025
2008.41672	8861.425
2011.46859	8826.125
2014.51848	8789.325
2017.56639	8768.725
2020.61233	8743.625
2023.6563	8685.825
2026.6983	8669.925
2029.73833	8676.825
2032.7764	8627.125
2035.8125	8588.625
2038.84664	8562.825
2041.87881	8581.025
2044.90903	8552.925
2047.93729	8537.925
2050.96359	8518.125
2053.98794	8508.325
2057.01034	8484.025
2060.03078	8474.525
2063.04927	8475.225
2066.06582	8455.725
2069.08042	8474.525
2072.09307	8449.725
2075.10378	8437.225
2078.11255	8441.725
2081.11938	8442.425
2084.12426	8385.225
2087.12722	8400.825
2090.12824	8382.025
2093.12732	8397.625
2096.12447	8396.025
2099.11969	8375.425
2102.11299	8368.725
2105.10435	8387.125
2108.09379	8399.025
2111.08131	8375.825
2114.0669	8395.025
2117.05057	8397.125
2120.03233	8394.125
2123.01216	8412.825
2125.99008	8430.425
2128.96609	8395.525
2131.94018	8450.925
2134.91236	8416.425
2137.88263	8412.925
2140.851	8408.425
2143.81746	8419.125
2146.78201	8427.525
2149.74466	8394.925
2152.7054	8387.925
2155.66425	8371.325
2158.6212	8358.425
2161.57625	8366.825
2164.52941	8347.025
2167.48067	8359.325
2170.43004	8331.425
2173.37752	8318.125
2176.32311	8332.325
2179.26681	8343.125
2182.20863	8346.625
2185.14856	8354.425
2188.08661	8334.625
2191.02278	8340.825
2193.95707	8331.725
2196.88948	8287.225
2199.82001	8291.725
2202.74867	8280.125
2205.67545	8263.725
2208.60037	8258.225
2211.52341	8252.325
2214.44458	8240.325
2217.36388	8220.825
2220.28132	8198.025
2223.1969	8179.025
2226.11061	8154.025
2229.02246	8130.125
2231.93245	8107.225
2234.84058	8087.525
2237.74686	8072.725
2240.65128	8054.025
2243.55385	8047.425
2246.45456	8046.625
2249.35343	8052.925
2252.25044	8041.625
2255.14561	8032.525
2258.03893	8029.825
2260.93041	8033.525
2263.82004	8028.925
2266.70783	7999.025
2269.59378	7947.125
2272.4779	7944.825
2275.36017	7921.825
2278.24061	7915.125
2281.11922	7900.225
2283.996	7872.925
2286.87094	7822.625
2289.74405	7842.025
2292.61534	7806.125
2295.4848	7803.325
2298.35243	7787.425
2301.21824	7777.225
2304.08223	7797.125
2306.94439	7774.025
2309.80474	7774.525
2312.66327	7783.525
2315.51999	7750.025
2318.37489	7756.925
2321.22797	7761.225
2324.07925	7749.425
2326.92871	7730.825
2329.77637	7737.625
2332.62222	7707.525
2335.46626	7700.625
2338.3085	7700.425
2341.14893	7688.225
2343.98756	7716.725
2346.8244	7722.425
2349.65943	7733.225
2352.49267	7742.625
2355.32411	7741.525
2358.15376	7760.525
2360.98161	7777.325
2363.80768	7778.025
2366.63195	7810.525
2369.45444	7797.925
2372.27514	7782.825
2375.09405	7771.225
2377.91118	7741.325
2380.72652	7724.025
2383.54009	7673.925
2386.35187	7647.925
2389.16188	7606.325
2391.97011	7563.325
2394.77657	7558.625
2397.58125	7513.625
2400.38416	7498.525
2403.18529	7495.325
2405.98466	7467.525
2408.78226	7435.025
2411.57809	7430.825
2414.37216	7421.525
2417.16446	7409.825
2419.955	7406.525
2422.74378	7389.325
2425.5308	7370.125
2428.31606	7393.425
2431.09956	7387.125
2433.88131	7373.025
2436.6613	7390.625
2439.43954	7383.925
2442.21603	7369.625
2444.99077	7370.625
2447.76377	7389.125
2450.53501	7383.125
2453.30451	7380.125
2456.07226	7383.525
2458.83827	7364.325
2461.60254	7390.725
2464.36507	7374.025
2467.12586	7350.125
2469.88492	7369.925
2472.64224	7369.625
2475.39782	7412.225
2478.15167	7414.925
2480.90379	7412.325
2483.65417	7421.525
2486.40283	7428.325
2489.14976	7460.225
2491.89497	7498.325
2494.63845	7467.225
2497.3802	7496.325
2500.12024	7468.425
2502.85855	7476.325
2505.59514	7422.025
2508.33002	7407.125
2511.06318	7378.225
2513.79462	7317.425
2516.52435	7306.325
2519.25237	7261.925
2521.97867	7255.925
2524.70327	7239.925
2527.42616	7236.525
2530.14734	7240.025
2532.86681	7205.625
2535.58458	7207.725
2538.30065	7194.625
2541.01501	7210.025
2543.72768	7189.825
2546.43864	7189.225
2549.14791	7202.725
2551.85548	7186.525
2554.56136	7200.125
2557.26554	7176.225
2559.96803	7165.525
2562.66883	7141.125
2565.36794	7137.925
2568.06536	7121.725
2570.7611	7087.025
2573.45514	7107.425
2576.14751	7110.125
2578.83819	7069.325
2581.52719	7068.025
2584.21451	7059.925
2586.90015	7080.225
2589.58411	7030.825
2592.2664	7058.925
2594.94701	7056.525
2597.62594	7036.625
2600.30321	7051.725
2602.9788	7043.125
2605.65273	7039.925
2608.32498	7027.625
2610.99557	7029.925
2613.66449	7026.825
2616.33175	7039.425
2618.99734	7048.925
2621.66128	7034.925
2624.32355	7018.425
2626.98416	7009.625
2629.64311	7008.125
2632.30041	6989.225
2634.95605	6972.125
2637.61004	6961.725
2640.26238	6969.325
2642.91306	6949.525
2645.56209	6934.125
2648.20948	6929.725
2650.85521	6928.925
2653.4993	6933.125
2656.14175	6918.325
2658.78255	6902.125
2661.42171	6919.225
2664.05923	6952.725
2666.6951	6960.825
2669.32934	6971.925
2671.96194	6983.925
2674.59291	6976.625
2677.22224	6992.625
2679.84993	7002.125
2682.476	6991.025
2685.10043	6976.925
2687.72324	6993.625
2690.34441	6981.125
2692.96396	6960.325
2695.58188	6979.125
2698.19818	6965.725
2700.81285	6973.025
2703.4259	6961.725
2706.03733	7002.225
2708.64714	6980.825
2711.25533	6967.825
2713.86191	6972.825
2716.46687	6998.525
2719.07021	6991.325
2721.67194	7002.925
2724.27206	6998.425
2726.87057	6988.425
2729.46747	7002.025
2732.06276	6981.625
2734.65644	6977.125
2737.24852	6968.725
2739.83899	6947.125
2742.42786	6971.125
2745.01513	6947.225
2747.60079	6927.625
2750.18486	6923.125
2752.76733	6906.825
2755.3482	6903.025
2757.92747	6899.925
2760.50515	6882.525
2763.08123	6863.825
2765.65573	6855.425
2768.22863	6843.525
2770.79994	6840.625
2773.36967	6846.525
2775.9378	6834.025
2778.50435	6835.925
2781.06932	6822.525
2783.6327	6818.225
2786.1945	6847.725
2788.75471	6851.225
2791.31335	6831.825
2793.87041	6808.225
2796.42589	6797.725
2798.97979	6798.225
2801.53212	6803.125
2804.08288	6824.425
2806.63206	6779.425
2809.17967	6774.125
2811.72571	6775.325
2814.27018	6768.625
2816.81308	6778.125
2819.35442	6766.725
2821.89419	6774.625
2824.43239	6800.525
2826.96904	6807.125
2829.50412	6831.525
2832.03763	6801.425
2834.56959	6794.125
2837.1	6797.825
2839.62884	6837.525
2842.15613	6854.625
2844.68186	6921.025
2847.20604	6954.525
2849.72867	7031.525
2852.24974	7039.125
2854.76927	7038.225
2857.28724	7012.325
2859.80367	7020.725
2862.31855	6991.125
2864.83189	6954.325
2867.34368	6968.825
2869.85393	6961.625
2872.36264	6955.525
2874.8698	6931.225
2877.37543	6925.525
2879.87952	6923.625
2882.38207	6929.425
2884.88308	6904.425
2887.38256	6897.925
2889.88051	6906.625
2892.37692	6889.225
2894.8718	6898.325
2897.36515	6906.525
2899.85698	6886.425
2902.34727	6918.525
2904.83604	6922.525
2907.32328	6934.525
2909.809	6911.825
2912.29319	6933.025
2914.77587	6910.525
2917.25702	6924.925
2919.73665	6911.025
2922.21476	6914.325
2924.69136	6905.725
2927.16644	6888.625
2929.64	6865.225
2932.11205	6843.525
2934.58258	6814.925
2937.05161	6815.025
2939.51912	6772.425
2941.98513	6742.625
2944.44962	6714.725
2946.91261	6649.225
2949.37409	6625.225
2951.83407	6585.525
2954.29254	6566.025
2956.74951	6567.225
2959.20498	6555.825
2961.65895	6545.225
2964.11142	6535.525
2966.56239	6510.325
2969.01186	6486.425
2971.45984	6471.225
2973.90632	6455.825
2976.35131	6426.825
2978.7948	6424.025
2981.23681	6404.325
2983.67732	6378.925
2986.11635	6362.225
2988.55388	6358.325
2990.98993	6329.925
2993.4245	6304.825
2995.85758	6281.425
2998.28917	6285.725
3000.71928	6253.825
3003.14791	6257.125
3005.57506	6256.925
3008.00073	6223.225
3010.42493	6127.525
3012.84764	6218.825
3015.26888	6206.525
3017.68865	6190.025
3020.10694	6183.725
3022.52376	6171.925
3024.9391	6156.325
3027.35298	6128.225
3029.76539	6130.325
3032.17632	6121.325
3034.5858	6110.425
3036.9938	6098.025
3039.40034	6093.925
3041.80542	6097.025
3044.20903	6060.125
3046.61118	6047.125
3049.01187	6062.125
3051.4111	6042.325
3053.80888	6023.425
3056.20519	6016.425
3058.60005	5995.025
3060.99345	5997.825
3063.3854	5982.425
3065.7759	5956.425
3068.16494	5933.525
3070.55254	5909.525
3072.93868	5895.525
3075.32338	5860.025
3077.70662	5844.725
3080.08842	5820.925
3082.46878	5817.525
3084.84769	5794.525
3087.22515	5782.825
3089.60118	5788.725
3091.97576	5774.425
3094.3489	5796.425
3096.72061	5758.225
3099.09087	5755.325
3101.4597	5732.625
3103.82709	5769.025
3106.19305	5732.025
3108.55757	5750.325
3110.92066	5703.525
3113.28232	5706.325
3115.64255	5695.425
3118.00134	5683.825
3120.35871	5683.525
3122.71466	5661.725
3125.06917	5644.825
3127.42226	5641.125
3129.77393	5634.025
3132.12417	5641.525
3134.47299	5638.125
3136.82039	5626.825
3139.16636	5618.825
3141.51092	5634.625
3143.85406	5623.825
3146.19579	5629.325
3148.53609	5629.825
3150.87499	5631.725
3153.21246	5643.825
3155.54853	5658.825
3157.88318	5658.525
3160.21642	5657.925
3162.54826	5660.025
3164.87868	5659.425
3167.2077	5661.025
3169.5353	5659.325
3171.86151	5662.725
3174.18631	5648.125
3176.5097	5670.625
3178.83169	5630.225
3181.15228	5646.825
3183.47147	5628.825
