Data from AgNPs_FTO_APTES_UA_5uM_CRN_500uM_R6G_10uM_NaF_0.1M_Addition_RamanShift__24__17-08-41-842.txt Node

Date: Mon Feb 07 17:08:41 GMT 2022
User: TCL
Spectrometer: QEP01345
Trigger mode: 4
Integration Time (sec): 7.000000E0
Scans to average: 10
Electric dark correction enabled: true
Nonlinearity correction enabled: false
Boxcar width: 0
XAxis mode: Raman Shifts
Number of Pixels in Spectrum: 1044
>>>>>Begin Spectral Data<<<<<
46.04893	-1.5375
50.45542	-0.8375
54.85868	0.2625
59.25871	0.2625
63.6555	68.9625
68.04907	72.7625
72.43941	77.4625
76.82654	79.6625
81.21044	81.1625
85.59113	80.6625
89.96862	87.9625
94.34289	88.6625
98.71396	89.5625
103.08183	95.4625
107.4465	99.5625
111.80798	100.9625
116.16626	102.4625
120.52136	107.3625
124.87327	115.0625
129.222	119.1625
133.56755	129.7625
137.90993	138.1625
142.24913	158.9625
146.58517	175.0625
150.91804	210.5625
155.24774	256.2625
159.57429	324.0625
163.89768	413.4625
168.21792	551.2625
172.53501	755.3625
176.84895	1054.6625
181.15975	1485.0625
185.46741	2088.5625
189.77193	2882.6625
194.07331	3861.2625
198.37157	4981.0625
202.6667	6155.9625
206.9587	7322.8625
211.24758	8496.3625
215.53334	9684.2625
219.81599	10968.7625
224.09553	12333.7625
228.37195	13866.3625
232.64527	15558.9625
236.91549	17291.6625
241.18261	18986.0625
245.44663	20543.6625
249.70755	21959.1625
253.96539	23178.6625
258.22014	24212.3625
262.4718	25103.5625
266.72039	25746.5625
270.96589	26083.0625
275.20832	26216.2625
279.44768	26131.3625
283.68397	26011.0625
287.91719	25869.9625
292.14735	25929.8625
296.37445	26115.5625
300.59849	26455.1625
304.81948	26693.3625
309.03742	26658.7625
313.25231	26255.5625
317.46415	25388.0625
321.67296	24260.4625
325.87872	23380.9625
330.08145	23008.4625
334.28114	22985.8625
338.47781	23159.3625
342.67145	23492.3625
346.86207	23963.7625
351.04966	24649.4625
355.23424	25376.7625
359.4158	25946.9625
363.59435	26332.2625
367.76989	26532.5625
371.94243	26630.4625
376.11196	26701.4625
380.27849	26745.6625
384.44203	26837.4625
388.60257	26975.7625
392.76012	27089.9625
396.91468	27329.8625
401.06626	27788.7625
405.21485	28088.7625
409.36047	27859.4625
413.50311	27234.3625
417.64277	26705.6625
421.77947	26529.0625
425.9132	26576.3625
430.04396	26751.6625
434.17176	27041.3625
438.2966	27425.5625
442.41849	28081.1625
446.53742	28994.1625
450.6534	30005.8625
454.76644	30756.8625
458.87653	30908.8625
462.98368	30694.8625
467.08789	30288.2625
471.18916	29963.3625
475.2875	29779.9625
479.38291	29751.9625
483.4754	29621.3625
487.56496	29200.3625
491.6516	28486.5625
495.73531	27785.3625
499.81612	27398.7625
503.89401	27384.9625
507.96899	27384.6625
512.04106	27332.0625
516.11023	27195.5625
520.1765	27013.6625
524.23987	26829.9625
528.30034	26609.1625
532.35792	26391.2625
536.41261	26076.5625
540.46441	25799.2625
544.51333	25802.1625
548.55936	26085.3625
552.60252	26748.0625
556.64279	27603.1625
560.6802	28289.1625
564.71473	28867.3625
568.7464	29640.1625
572.7752	30404.5625
576.80114	30503.9625
580.82422	30277.8625
584.84444	30235.7625
588.86181	30626.6625
592.87633	31337.1625
596.888	31751.6625
600.89682	31587.7625
604.9028	32288.8625
608.90594	35386.2625
612.90624	39379.2625
616.90371	37207.6625
620.89834	29982.2625
624.89015	26768.6625
628.87913	26323.4625
632.86528	26568.9625
636.84862	26645.5625
640.82913	26288.6625
644.80683	25514.0625
648.78172	24890.8625
652.75379	24689.1625
656.72306	25007.3625
660.68952	25521.4625
664.65319	25451.0625
668.61405	24878.3625
672.57211	24711.4625
676.52738	24689.0625
680.47986	24719.9625
684.42955	24646.4625
688.37646	24503.2625
692.32058	24571.8625
696.26192	24767.2625
700.20048	25067.3625
704.13626	25201.2625
708.06928	25222.4625
711.99952	25080.1625
715.927	24986.2625
719.85171	24988.5625
723.77365	24958.4625
727.69284	24829.5625
731.60928	24642.8625
735.52295	24602.1625
739.43388	24635.1625
743.34206	24671.8625
747.24749	24795.7625
751.15017	25000.7625
755.05012	25426.0625
758.94733	26292.3625
762.8418	27939.3625
766.73354	30551.5625
770.62254	33081.3625
774.50882	33957.1625
778.39237	32323.4625
782.27321	29379.0625
786.15132	26774.9625
790.02671	25271.3625
793.89938	24534.0625
797.76935	24272.6625
801.6366	24154.5625
805.50115	24141.8625
809.36299	24060.5625
813.22213	23884.9625
817.07857	23939.2625
820.93231	23946.1625
824.78336	23850.9625
828.63172	23765.5625
832.47738	23713.0625
836.32036	23654.8625
840.16066	23599.2625
843.99827	23575.6625
847.8332	23552.1625
851.66546	23481.3625
855.49504	23468.6625
859.32195	23482.2625
863.1462	23425.0625
866.96777	23350.9625
870.78668	23317.8625
874.60293	23291.2625
878.41652	23292.3625
882.22745	23411.9625
886.03573	23405.4625
889.84136	23418.4625
893.64433	23329.8625
897.44466	23262.0625
901.24235	23116.8625
905.0374	23073.3625
908.8298	22990.1625
912.61957	23012.0625
916.40671	23210.3625
920.19121	23518.1625
923.97308	23750.4625
927.75233	23709.8625
931.52895	23645.3625
935.30295	23367.2625
939.07433	22944.3625
942.84309	22535.4625
946.60924	22314.5625
950.37278	22196.8625
954.13371	22113.4625
957.89203	22138.8625
961.64774	22077.8625
965.40086	22014.9625
969.15137	21945.7625
972.89929	21791.1625
976.64461	21724.6625
980.38733	21629.8625
984.12747	21678.3625
987.86502	21832.8625
991.59999	22026.5625
995.33237	22357.4625
999.06217	22830.2625
1002.78939	23496.9625
1006.51404	23955.8625
1010.23611	24328.4625
1013.95561	24495.4625
1017.67255	24506.6625
1021.38692	24197.7625
1025.09872	23767.5625
1028.80796	23603.9625
1032.51465	23792.1625
1036.21877	24040.6625
1039.92035	24120.0625
1043.61937	24022.6625
1047.31584	23873.5625
1051.00976	23648.0625
1054.70114	23569.9625
1058.38998	23651.2625
1062.07627	23877.8625
1065.76003	24067.7625
1069.44126	24199.0625
1073.11995	24433.5625
1076.79611	24595.8625
1080.46974	24773.7625
1084.14085	25033.6625
1087.80943	25368.7625
1091.47549	25594.2625
1095.13903	25607.7625
1098.80005	25251.7625
1102.45857	24748.3625
1106.11456	24401.9625
1109.76805	24371.0625
1113.41903	24538.6625
1117.06751	25003.7625
1120.71348	25543.1625
1124.35696	26042.5625
1127.99793	26532.9625
1131.63641	26613.1625
1135.2724	26212.5625
1138.90589	25691.5625
1142.5369	25458.6625
1146.16542	25513.8625
1149.79145	25652.0625
1153.415	25943.2625
1157.03607	26390.5625
1160.65467	27119.6625
1164.27079	28256.8625
1167.88443	29830.2625
1171.49561	31824.8625
1175.10432	34555.4625
1178.71056	38065.3625
1182.31434	41080.4625
1185.91565	42434.5625
1189.51451	42111.4625
1193.11091	40859.6625
1196.70485	39228.0625
1200.29634	37657.3625
1203.88538	36386.5625
1207.47197	35269.1625
1211.05612	34287.3625
1214.63782	33527.7625
1218.21708	32917.1625
1221.79391	32464.6625
1225.36829	31975.2625
1228.94024	31378.8625
1232.50976	30718.6625
1236.07685	30246.5625
1239.6415	30018.4625
1243.20374	29989.2625
1246.76355	30202.6625
1250.32093	30633.0625
1253.8759	31274.7625
1257.42845	32072.9625
1260.97859	32985.0625
1264.52631	33742.0625
1268.07163	34603.5625
1271.61453	35575.4625
1275.15503	36542.9625
1278.69312	37452.8625
1282.22882	38351.5625
1285.76211	39517.5625
1289.29301	41033.2625
1292.82151	43054.6625
1296.34761	45508.2625
1299.87133	48400.2625
1303.39266	51743.5625
1306.9116	55463.3625
1310.42815	59162.8625
1313.94233	61431.5625
1317.45412	61614.6625
1320.96354	60330.2625
1324.47058	58824.8625
1327.97525	57356.6625
1331.47754	56423.0625
1334.97747	56066.0625
1338.47502	56240.3625
1341.97022	56211.7625
1345.46305	55726.7625
1348.95352	54847.9625
1352.44163	54223.0625
1355.92738	54834.8625
1359.41078	57286.8625
1362.89183	59769.3625
1366.37053	58395.8625
1369.84688	52753.1625
1373.32088	46620.9625
1376.79254	42734.7625
1380.26186	41229.1625
1383.72883	41123.4625
1387.19347	41430.4625
1390.65578	41630.6625
1394.11575	42129.9625
1397.57339	43143.1625
1401.0287	44583.5625
1404.48168	45900.5625
1407.93234	46531.2625
1411.38068	46014.8625
1414.82669	44446.7625
1418.27039	42017.0625
1421.71177	39504.5625
1425.15083	37306.0625
1428.58758	36009.0625
1432.02203	35906.6625
1435.45416	36457.3625
1438.88399	37520.7625
1442.31151	38455.6625
1445.73673	39396.7625
1449.15965	40316.4625
1452.58027	41147.8625
1455.9986	41657.6625
1459.41463	42118.8625
1462.82837	42702.2625
1466.23982	43423.7625
1469.64898	44050.5625
1473.05586	44226.5625
1476.46045	43967.5625
1479.86276	43471.7625
1483.26279	42862.0625
1486.66054	42387.5625
1490.05602	42234.4625
1493.44922	42190.0625
1496.84016	42372.7625
1500.22882	42974.3625
1503.61521	44460.3625
1506.99934	46650.2625
1510.38121	48832.2625
1513.76081	49743.2625
1517.13816	48436.4625
1520.51324	45785.4625
1523.88607	43330.6625
1527.25665	41951.4625
1530.62498	41406.4625
1533.99105	41278.5625
1537.35488	41190.9625
1540.71647	40885.1625
1544.07581	40331.8625
1547.4329	39556.8625
1550.78776	38846.3625
1554.14038	38226.3625
1557.49077	37965.3625
1560.83892	37944.2625
1564.18484	38085.7625
1567.52853	38303.4625
1570.86999	38600.5625
1574.20922	39147.7625
1577.54624	39647.9625
1580.88103	39657.7625
1584.2136	39751.7625
1587.54395	40741.3625
1590.87208	42725.1625
1594.19801	45439.1625
1597.52172	48159.6625
1600.84321	49179.9625
1604.16251	47396.0625
1607.47959	43602.1625
1610.79447	39411.6625
1614.10715	35411.4625
1617.41763	32265.5625
1620.7259	30142.9625
1624.03199	29036.4625
1627.33587	28879.2625
1630.63757	29676.4625
1633.93707	31539.0625
1637.23439	34683.6625
1640.52951	39195.6625
1643.82246	44533.8625
1647.11321	48980.9625
1650.40179	50383.2625
1653.68819	47420.1625
1656.97241	41180.7625
1660.25446	34685.6625
1663.53433	29744.1625
1666.81203	26565.1625
1670.08756	24552.5625
1673.36092	23294.7625
1676.63211	22490.8625
1679.90115	21908.3625
1683.16801	21485.4625
1686.43272	21182.3625
1689.69527	20941.8625
1692.95567	20764.2625
1696.2139	20630.2625
1699.46999	20493.7625
1702.72392	20416.1625
1705.97571	20386.3625
1709.22535	20259.4625
1712.47284	20282.4625
1715.71819	20208.6625
1718.96139	20144.6625
1722.20246	20088.6625
1725.44139	19987.4625
1728.67818	19873.6625
1731.91284	19766.6625
1735.14537	19675.9625
1738.37576	19577.0625
1741.60403	19477.0625
1744.83017	19427.0625
1748.05418	19339.9625
1751.27607	19325.4625
1754.49584	19293.3625
1757.71349	19283.8625
1760.92903	19213.7625
1764.14244	19211.2625
1767.35375	19202.1625
1770.56294	19151.5625
1773.77002	19103.4625
1776.97499	19050.6625
1780.17785	19008.7625
1783.37861	18980.8625
1786.57727	18996.3625
1789.77382	18937.7625
1792.96828	18903.2625
1796.16064	18881.5625
1799.3509	18841.0625
1802.53907	18774.0625
1805.72514	18736.2625
1808.90913	18689.4625
1812.09102	18618.4625
1815.27083	18591.6625
1818.44856	18550.9625
1821.6242	18506.6625
1824.79776	18502.3625
1827.96924	18459.5625
1831.13864	18413.6625
1834.30597	18436.8625
1837.47122	18379.3625
1840.6344	18354.0625
1843.7955	18387.6625
1846.95454	18390.6625
1850.11151	18347.0625
1853.26642	18322.9625
1856.41926	18325.5625
1859.57004	18358.7625
1862.71876	18330.8625
1865.86542	18326.6625
1869.01003	18332.3625
1872.15258	18305.9625
1875.29308	18315.6625
1878.43152	18279.9625
1881.56792	18280.9625
1884.70227	18304.3625
1887.83457	18254.3625
1890.96482	18248.2625
1894.09304	18237.8625
1897.21921	18251.9625
1900.34335	18221.4625
1903.46544	18215.5625
1906.58551	18192.0625
1909.70353	18169.9625
1912.81953	18149.4625
1915.93349	18124.2625
1919.04543	18127.6625
1922.15534	18067.9625
1925.26322	17996.0625
1928.36908	18011.2625
1931.47292	17956.8625
1934.57473	17899.2625
1937.67453	17864.5625
1940.77232	17763.2625
1943.86808	17675.3625
1946.96184	17608.1625
1950.05358	17588.2625
1953.14331	17494.7625
1956.23103	17421.4625
1959.31675	17358.5625
1962.40046	17336.6625
1965.48217	17293.5625
1968.56188	17204.3625
1971.63959	17143.7625
1974.7153	17121.4625
1977.78901	17073.4625
1980.86073	17026.6625
1983.93046	16955.4625
1986.99819	16903.1625
1990.06394	16851.5625
1993.1277	16786.0625
1996.18947	16716.9625
1999.24925	16703.5625
2002.30706	16684.2625
2005.36288	16589.7625
2008.41672	16558.6625
2011.46859	16524.3625
2014.51848	16480.8625
2017.56639	16437.7625
2020.61233	16372.9625
2023.6563	16294.7625
2026.6983	16256.2625
2029.73833	16231.3625
2032.7764	16223.6625
2035.8125	16212.1625
2038.84664	16156.3625
2041.87881	16131.4625
2044.90903	16089.4625
2047.93729	16020.2625
2050.96359	16047.8625
2053.98794	16021.9625
2057.01034	15994.4625
2060.03078	16002.0625
2063.04927	15989.3625
2066.06582	15987.9625
2069.08042	15983.1625
2072.09307	15944.4625
2075.10378	15904.8625
2078.11255	15889.4625
2081.11938	15910.4625
2084.12426	15892.8625
2087.12722	15875.4625
2090.12824	15838.2625
2093.12732	15838.3625
2096.12447	15849.3625
2099.11969	15828.8625
2102.11299	15828.7625
2105.10435	15810.6625
2108.09379	15812.7625
2111.08131	15823.9625
2114.0669	15811.7625
2117.05057	15863.5625
2120.03233	15859.8625
2123.01216	15868.5625
2125.99008	15890.4625
2128.96609	15872.3625
2131.94018	15892.6625
2134.91236	15916.6625
2137.88263	15916.2625
2140.851	15931.4625
2143.81746	15913.3625
2146.78201	15908.1625
2149.74466	15908.4625
2152.7054	15872.5625
2155.66425	15846.0625
2158.6212	15857.1625
2161.57625	15824.0625
2164.52941	15820.7625
2167.48067	15847.0625
2170.43004	15805.2625
2173.37752	15839.3625
2176.32311	15831.5625
2179.26681	15819.4625
2182.20863	15833.6625
2185.14856	15817.9625
2188.08661	15853.4625
2191.02278	15857.1625
2193.95707	15798.8625
2196.88948	15812.1625
2199.82001	15753.1625
2202.74867	15730.7625
2205.67545	15710.3625
2208.60037	15713.9625
2211.52341	15678.1625
2214.44458	15659.2625
2217.36388	15633.3625
2220.28132	15602.8625
2223.1969	15551.1625
2226.11061	15554.5625
2229.02246	15523.2625
2231.93245	15473.8625
2234.84058	15449.1625
2237.74686	15405.1625
2240.65128	15349.7625
2243.55385	15390.4625
2246.45456	15412.4625
2249.35343	15333.5625
2252.25044	15335.2625
2255.14561	15281.4625
2258.03893	15251.1625
2260.93041	15213.2625
2263.82004	15163.9625
2266.70783	15125.6625
2269.59378	15064.5625
2272.4779	15058.0625
2275.36017	14993.2625
2278.24061	14962.4625
2281.11922	14993.3625
2283.996	14924.3625
2286.87094	14914.0625
2289.74405	14850.3625
2292.61534	14874.6625
2295.4848	14833.3625
2298.35243	14865.6625
2301.21824	14875.5625
2304.08223	14867.6625
2306.94439	14879.8625
2309.80474	14862.0625
2312.66327	14838.0625
2315.51999	14828.0625
2318.37489	14835.3625
2321.22797	14799.5625
2324.07925	14762.8625
2326.92871	14762.1625
2329.77637	14750.8625
2332.62222	14726.0625
2335.46626	14711.5625
2338.3085	14692.2625
2341.14893	14721.3625
2343.98756	14682.8625
2346.8244	14697.4625
2349.65943	14672.8625
2352.49267	14666.0625
2355.32411	14669.7625
2358.15376	14665.7625
2360.98161	14653.2625
2363.80768	14663.7625
2366.63195	14670.8625
2369.45444	14681.8625
2372.27514	14625.8625
2375.09405	14593.7625
2377.91118	14574.2625
2380.72652	14542.6625
2383.54009	14493.2625
2386.35187	14468.7625
2389.16188	14439.0625
2391.97011	14382.5625
2394.77657	14345.8625
2397.58125	14327.0625
2400.38416	14311.0625
2403.18529	14263.7625
2405.98466	14233.5625
2408.78226	14229.4625
2411.57809	14228.1625
2414.37216	14214.2625
2417.16446	14215.4625
2419.955	14161.5625
2422.74378	14164.3625
2425.5308	14134.1625
2428.31606	14105.1625
2431.09956	14111.7625
2433.88131	14083.1625
2436.6613	14116.7625
2439.43954	14105.9625
2442.21603	14082.5625
2444.99077	14061.2625
2447.76377	14063.0625
2450.53501	14075.1625
2453.30451	14052.0625
2456.07226	14029.5625
2458.83827	14033.1625
2461.60254	14033.0625
2464.36507	14038.1625
2467.12586	14023.1625
2469.88492	14024.4625
2472.64224	14006.2625
2475.39782	14048.9625
2478.15167	14040.3625
2480.90379	14023.6625
2483.65417	14018.4625
2486.40283	14053.9625
2489.14976	14071.7625
2491.89497	14072.8625
2494.63845	14052.0625
2497.3802	14090.7625
2500.12024	14080.3625
2502.85855	14066.8625
2505.59514	14049.6625
2508.33002	14012.9625
2511.06318	14014.0625
2513.79462	13997.7625
2516.52435	13953.3625
2519.25237	13946.9625
2521.97867	13926.5625
2524.70327	13896.6625
2527.42616	13895.5625
2530.14734	13911.7625
2532.86681	13905.7625
2535.58458	13906.9625
2538.30065	13874.6625
2541.01501	13881.7625
2543.72768	13847.6625
2546.43864	13851.0625
2549.14791	13801.6625
2551.85548	13806.9625
2554.56136	13779.0625
2557.26554	13782.0625
2559.96803	13737.7625
2562.66883	13745.4625
2565.36794	13748.4625
2568.06536	13724.4625
2570.7611	13719.6625
2573.45514	13665.5625
2576.14751	13660.6625
2578.83819	13657.5625
2581.52719	13623.3625
2584.21451	13639.9625
2586.90015	13670.4625
2589.58411	13648.4625
2592.2664	13663.3625
2594.94701	13625.0625
2597.62594	13627.5625
2600.30321	13585.2625
2602.9788	13591.5625
2605.65273	13602.0625
2608.32498	13626.4625
2610.99557	13610.6625
2613.66449	13624.8625
2616.33175	13602.5625
2618.99734	13593.9625
2621.66128	13611.5625
2624.32355	13595.8625
2626.98416	13596.2625
2629.64311	13559.8625
2632.30041	13569.0625
2634.95605	13582.5625
2637.61004	13574.1625
2640.26238	13539.3625
2642.91306	13500.8625
2645.56209	13495.9625
2648.20948	13537.9625
2650.85521	13521.0625
2653.4993	13515.6625
2656.14175	13517.3625
2658.78255	13576.7625
2661.42171	13539.7625
2664.05923	13556.4625
2666.6951	13536.0625
2669.32934	13591.2625
2671.96194	13578.7625
2674.59291	13583.1625
2677.22224	13552.9625
2679.84993	13556.3625
2682.476	13502.1625
2685.10043	13504.2625
2687.72324	13500.5625
2690.34441	13508.9625
2692.96396	13480.0625
2695.58188	13493.2625
2698.19818	13521.7625
2700.81285	13532.2625
2703.4259	13502.4625
2706.03733	13545.8625
2708.64714	13543.5625
2711.25533	13534.3625
2713.86191	13545.1625
2716.46687	13562.5625
2719.07021	13549.3625
2721.67194	13579.5625
2724.27206	13551.7625
2726.87057	13591.2625
2729.46747	13624.1625
2732.06276	13619.5625
2734.65644	13603.2625
2737.24852	13567.2625
2739.83899	13540.2625
2742.42786	13581.6625
2745.01513	13598.4625
2747.60079	13564.4625
2750.18486	13548.8625
2752.76733	13526.7625
2755.3482	13516.9625
2757.92747	13502.5625
2760.50515	13502.6625
2763.08123	13525.1625
2765.65573	13473.6625
2768.22863	13495.6625
2770.79994	13479.7625
2773.36967	13498.8625
2775.9378	13486.4625
2778.50435	13521.5625
2781.06932	13492.7625
2783.6327	13501.0625
2786.1945	13503.4625
2788.75471	13492.7625
2791.31335	13498.3625
2793.87041	13463.5625
2796.42589	13438.5625
2798.97979	13435.3625
2801.53212	13407.0625
2804.08288	13388.0625
2806.63206	13346.4625
2809.17967	13328.9625
2811.72571	13292.7625
2814.27018	13297.8625
2816.81308	13264.1625
2819.35442	13243.8625
2821.89419	13210.2625
2824.43239	13221.8625
2826.96904	13214.9625
2829.50412	13199.4625
2832.03763	13178.7625
2834.56959	13153.7625
2837.1	13153.8625
2839.62884	13158.3625
2842.15613	13164.9625
2844.68186	13215.0625
2847.20604	13251.4625
2849.72867	13233.3625
2852.24974	13232.4625
2854.76927	13229.0625
2857.28724	13229.2625
2859.80367	13192.6625
2862.31855	13177.4625
2864.83189	13165.1625
2867.34368	13143.8625
2869.85393	13158.7625
2872.36264	13147.8625
2874.8698	13154.4625
2877.37543	13129.7625
2879.87952	13126.7625
2882.38207	13111.9625
2884.88308	13129.3625
2887.38256	13144.4625
2889.88051	13132.7625
2892.37692	13135.3625
2894.8718	13148.1625
2897.36515	13143.4625
2899.85698	13176.9625
2902.34727	13199.1625
2904.83604	13170.2625
2907.32328	13213.8625
2909.809	13212.3625
2912.29319	13206.2625
2914.77587	13205.3625
2917.25702	13188.5625
2919.73665	13168.6625
2922.21476	13195.2625
2924.69136	13153.4625
2927.16644	13172.3625
2929.64	13175.2625
2932.11205	13125.6625
2934.58258	13097.2625
2937.05161	13119.3625
2939.51912	13075.0625
2941.98513	13050.0625
2944.44962	13084.2625
2946.91261	12977.6625
2949.37409	12975.0625
2951.83407	12965.9625
2954.29254	12950.1625
2956.74951	12939.4625
2959.20498	12919.7625
2961.65895	12893.6625
2964.11142	12851.6625
2966.56239	12832.5625
2969.01186	12822.6625
2971.45984	12775.9625
2973.90632	12782.7625
2976.35131	12741.2625
2978.7948	12703.5625
2981.23681	12692.8625
2983.67732	12650.5625
2986.11635	12617.4625
2988.55388	12611.0625
2990.98993	12556.2625
2993.4245	12539.7625
2995.85758	12482.9625
2998.28917	12462.4625
3000.71928	12460.5625
3003.14791	12409.7625
3005.57506	12380.4625
3008.00073	12360.0625
3010.42493	12323.7625
3012.84764	12351.9625
3015.26888	12314.0625
3017.68865	12241.3625
3020.10694	12228.8625
3022.52376	12229.1625
3024.9391	12202.4625
