Data from AgNPs_FTO_APTES_UA_5uM_CRN_50uM_R6G_10uM_NaF_0.1M_Addition_RamanShift__42__14-31-36-858.txt Node

Date: Mon Feb 07 14:31:36 GMT 2022
User: TCL
Spectrometer: QEP01345
Trigger mode: 4
Integration Time (sec): 7.000000E0
Scans to average: 10
Electric dark correction enabled: true
Nonlinearity correction enabled: false
Boxcar width: 0
XAxis mode: Raman Shifts
Number of Pixels in Spectrum: 1044
>>>>>Begin Spectral Data<<<<<
46.04893	0.1125
50.45542	-0.8875
54.85868	-0.8875
59.25871	0.3125
63.6555	114.8125
68.04907	107.1125
72.43941	81.7125
76.82654	84.5125
81.21044	86.6125
85.59113	87.2125
89.96862	93.1125
94.34289	90.7125
98.71396	98.6125
103.08183	102.2125
107.4465	102.3125
111.80798	105.2125
116.16626	111.7125
120.52136	116.3125
124.87327	122.4125
129.222	132.1125
133.56755	140.1125
137.90993	150.1125
142.24913	167.9125
146.58517	195.4125
150.91804	227.1125
155.24774	278.5125
159.57429	348.0125
163.89768	446.8125
168.21792	603.6125
172.53501	823.4125
176.84895	1148.1125
181.15975	1626.4125
185.46741	2295.0125
189.77193	3158.3125
194.07331	4231.2125
198.37157	5445.4125
202.6667	6740.9125
206.9587	8021.3125
211.24758	9251.1125
215.53334	10487.0125
219.81599	11809.2125
224.09553	13220.6125
228.37195	14816.8125
232.64527	16487.8125
236.91549	18232.5125
241.18261	20081.9125
245.44663	21781.5125
249.70755	23387.0125
253.96539	24772.0125
258.22014	25971.1125
262.4718	26911.2125
266.72039	27638.0125
270.96589	28023.8125
275.20832	28108.8125
279.44768	28032.8125
283.68397	27839.6125
287.91719	27690.0125
292.14735	27601.8125
296.37445	27615.1125
300.59849	27690.1125
304.81948	27791.2125
309.03742	27681.1125
313.25231	27380.1125
317.46415	26842.4125
321.67296	26196.5125
325.87872	25666.4125
330.08145	25332.6125
334.28114	25253.1125
338.47781	25380.5125
342.67145	25581.6125
346.86207	25907.7125
351.04966	26276.9125
355.23424	26690.7125
359.4158	27023.6125
363.59435	27313.0125
367.76989	27581.2125
371.94243	27693.0125
376.11196	27775.0125
380.27849	27842.0125
384.44203	27944.7125
388.60257	28141.1125
392.76012	28418.3125
396.91468	28927.0125
401.06626	29393.6125
405.21485	29624.8125
409.36047	29561.8125
413.50311	29256.8125
417.64277	29120.4125
421.77947	29287.2125
425.9132	29499.8125
430.04396	29671.1125
434.17176	29856.2125
438.2966	30025.2125
442.41849	30432.6125
446.53742	31151.5125
450.6534	31981.6125
454.76644	32589.0125
458.87653	32842.6125
462.98368	32724.3125
467.08789	32435.0125
471.18916	32081.5125
475.2875	31844.1125
479.38291	31852.0125
483.4754	31800.8125
487.56496	31498.8125
491.6516	30815.2125
495.73531	30146.5125
499.81612	29694.8125
503.89401	29673.7125
507.96899	29798.3125
512.04106	29756.5125
516.11023	29506.1125
520.1765	29131.9125
524.23987	28618.1125
528.30034	28236.0125
532.35792	27985.3125
536.41261	27702.3125
540.46441	27524.5125
544.51333	27576.8125
548.55936	27922.1125
552.60252	28521.2125
556.64279	29275.5125
560.6802	29938.0125
564.71473	30400.9125
568.7464	31209.2125
572.7752	32355.3125
576.80114	33771.9125
580.82422	34873.7125
584.84444	36224.9125
588.86181	37668.7125
592.87633	38715.7125
596.888	38087.5125
600.89682	36157.2125
604.9028	35081.2125
608.90594	35790.2125
612.90624	36745.1125
616.90371	34453.3125
620.89834	30093.7125
624.89015	28184.5125
628.87913	28032.5125
632.86528	28319.4125
636.84862	28246.7125
640.82913	27808.6125
644.80683	27196.1125
648.78172	26816.9125
652.75379	26738.7125
656.72306	26979.3125
660.68952	27184.8125
664.65319	27036.1125
668.61405	26648.4125
672.57211	26595.8125
676.52738	26706.7125
680.47986	26733.2125
684.42955	26585.5125
688.37646	26434.8125
692.32058	26563.3125
696.26192	26930.5125
700.20048	27268.0125
704.13626	27526.7125
708.06928	27640.5125
711.99952	27695.4125
715.927	27639.3125
719.85171	27688.1125
723.77365	27460.6125
727.69284	27080.7125
731.60928	26641.6125
735.52295	26512.6125
739.43388	26422.9125
743.34206	26554.0125
747.24749	26687.0125
751.15017	27042.6125
755.05012	27569.4125
758.94733	28321.8125
762.8418	29583.3125
766.73354	31292.7125
770.62254	32685.9125
774.50882	32680.1125
778.39237	31145.3125
782.27321	29263.0125
786.15132	27833.4125
790.02671	26870.1125
793.89938	26430.7125
797.76935	26198.4125
801.6366	26152.4125
805.50115	26130.6125
809.36299	26010.4125
813.22213	25874.3125
817.07857	25835.3125
820.93231	25732.3125
824.78336	25497.7125
828.63172	25347.5125
832.47738	25172.2125
836.32036	25136.1125
840.16066	25158.0125
843.99827	25221.3125
847.8332	25182.3125
851.66546	25169.5125
855.49504	25197.8125
859.32195	25186.5125
863.1462	25122.3125
866.96777	25005.9125
870.78668	24959.0125
874.60293	24925.9125
878.41652	24890.0125
882.22745	24933.1125
886.03573	25014.3125
889.84136	25030.3125
893.64433	24961.0125
897.44466	24882.9125
901.24235	24782.7125
905.0374	24720.2125
908.8298	24742.1125
912.61957	24810.7125
916.40671	25161.4125
920.19121	25627.2125
923.97308	25921.9125
927.75233	25723.7125
931.52895	25323.4125
935.30295	24847.6125
939.07433	24382.9125
942.84309	24038.9125
946.60924	23860.1125
950.37278	23773.6125
954.13371	23775.9125
957.89203	23799.8125
961.64774	23814.1125
965.40086	23835.3125
969.15137	23694.5125
972.89929	23560.2125
976.64461	23406.6125
980.38733	23332.5125
984.12747	23329.8125
987.86502	23412.8125
991.59999	23537.2125
995.33237	23671.5125
999.06217	24002.3125
1002.78939	24400.6125
1006.51404	24802.0125
1010.23611	25157.3125
1013.95561	25452.4125
1017.67255	25514.4125
1021.38692	25320.5125
1025.09872	24953.8125
1028.80796	24673.1125
1032.51465	24638.4125
1036.21877	24861.9125
1039.92035	24981.4125
1043.61937	25051.7125
1047.31584	25008.9125
1051.00976	24982.3125
1054.70114	25116.1125
1058.38998	25284.4125
1062.07627	25608.2125
1065.76003	26013.5125
1069.44126	26290.8125
1073.11995	26734.1125
1076.79611	26995.3125
1080.46974	27069.6125
1084.14085	27165.8125
1087.80943	27422.8125
1091.47549	27732.1125
1095.13903	27929.3125
1098.80005	27591.2125
1102.45857	26962.0125
1106.11456	26319.0125
1109.76805	25989.3125
1113.41903	25915.5125
1117.06751	26081.8125
1120.71348	26331.5125
1124.35696	26560.4125
1127.99793	26880.1125
1131.63641	27153.8125
1135.2724	27180.7125
1138.90589	27186.7125
1142.5369	27413.3125
1146.16542	27765.7125
1149.79145	28160.9125
1153.415	28648.1125
1157.03607	29268.1125
1160.65467	30446.9125
1164.27079	32162.5125
1167.88443	34073.3125
1171.49561	35848.3125
1175.10432	37697.5125
1178.71056	40046.0125
1182.31434	42321.7125
1185.91565	43370.3125
1189.51451	43131.3125
1193.11091	42340.1125
1196.70485	41148.7125
1200.29634	39965.6125
1203.88538	39325.7125
1207.47197	39313.7125
1211.05612	39357.7125
1214.63782	38718.0125
1218.21708	37277.6125
1221.79391	35628.6125
1225.36829	34269.9125
1228.94024	33504.3125
1232.50976	32908.8125
1236.07685	32461.9125
1239.6415	32253.5125
1243.20374	32338.5125
1246.76355	32657.9125
1250.32093	33148.8125
1253.8759	33838.9125
1257.42845	34671.9125
1260.97859	35625.5125
1264.52631	36557.1125
1268.07163	37551.0125
1271.61453	38658.5125
1275.15503	39851.2125
1278.69312	41279.8125
1282.22882	42936.6125
1285.76211	44908.6125
1289.29301	47194.8125
1292.82151	50086.4125
1296.34761	53516.7125
1299.87133	57266.2125
1303.39266	60623.3125
1306.9116	63036.6125
1310.42815	64309.5125
1313.94233	64467.1125
1317.45412	63993.1125
1320.96354	63215.9125
1324.47058	62991.8125
1327.97525	63080.5125
1331.47754	62983.4125
1334.97747	62717.7125
1338.47502	62072.7125
1341.97022	61003.2125
1345.46305	59638.3125
1348.95352	58215.2125
1352.44163	57492.5125
1355.92738	57687.8125
1359.41078	58911.9125
1362.89183	59739.2125
1366.37053	58674.6125
1369.84688	54896.1125
1373.32088	49630.3125
1376.79254	45966.8125
1380.26186	44951.6125
1383.72883	45706.1125
1387.19347	46359.3125
1390.65578	46336.6125
1394.11575	46373.0125
1397.57339	47136.9125
1401.0287	48199.9125
1404.48168	48913.5125
1407.93234	48634.8125
1411.38068	47112.1125
1414.82669	44762.1125
1418.27039	42196.2125
1421.71177	39761.2125
1425.15083	37892.8125
1428.58758	37064.4125
1432.02203	37357.4125
1435.45416	38582.2125
1438.88399	40125.0125
1442.31151	41375.3125
1445.73673	42224.7125
1449.15965	42793.8125
1452.58027	43172.4125
1455.9986	43296.2125
1459.41463	43487.0125
1462.82837	43939.0125
1466.23982	44551.9125
1469.64898	45217.2125
1473.05586	45529.5125
1476.46045	45376.5125
1479.86276	44904.3125
1483.26279	44320.9125
1486.66054	43895.2125
1490.05602	43850.8125
1493.44922	44093.7125
1496.84016	44336.2125
1500.22882	44833.7125
1503.61521	45375.5125
1506.99934	46185.8125
1510.38121	46899.0125
1513.76081	47209.7125
1517.13816	46923.1125
1520.51324	46681.5125
1523.88607	46753.9125
1527.25665	47231.2125
1530.62498	47773.9125
1533.99105	47717.0125
1537.35488	47015.0125
1540.71647	45704.3125
1544.07581	44076.7125
1547.4329	42313.8125
1550.78776	40807.5125
1554.14038	39773.5125
1557.49077	39199.0125
1560.83892	38761.9125
1564.18484	38590.3125
1567.52853	38693.5125
1570.86999	39191.6125
1574.20922	40256.1125
1577.54624	41524.8125
1580.88103	42462.8125
1584.2136	43507.8125
1587.54395	45296.1125
1590.87208	47818.1125
1594.19801	50586.7125
1597.52172	52626.2125
1600.84321	52544.4125
1604.16251	49423.2125
1607.47959	44956.5125
1610.79447	40506.6125
1614.10715	36731.0125
1617.41763	33838.3125
1620.7259	31890.3125
1624.03199	30917.7125
1627.33587	31027.1125
1630.63757	32152.4125
1633.93707	34627.6125
1637.23439	38712.5125
1640.52951	44566.3125
1643.82246	51455.4125
1647.11321	56899.7125
1650.40179	57637.6125
1653.68819	52999.3125
1656.97241	45242.5125
1660.25446	37851.0125
1663.53433	32240.7125
1666.81203	28515.8125
1670.08756	26191.2125
1673.36092	24749.0125
1676.63211	23867.3125
1679.90115	23174.2125
1683.16801	22724.6125
1686.43272	22354.9125
1689.69527	22074.6125
1692.95567	21877.5125
1696.2139	21703.5125
1699.46999	21572.7125
1702.72392	21456.2125
1705.97571	21376.9125
1709.22535	21271.5125
1712.47284	21222.6125
1715.71819	21185.1125
1718.96139	21051.6125
1722.20246	20970.4125
1725.44139	20856.4125
1728.67818	20714.9125
1731.91284	20599.0125
1735.14537	20437.2125
1738.37576	20294.4125
1741.60403	20220.8125
1744.83017	20151.6125
1748.05418	20084.1125
1751.27607	20081.3125
1754.49584	20020.9125
1757.71349	20021.7125
1760.92903	19998.8125
1764.14244	19928.8125
1767.35375	19958.6125
1770.56294	19877.5125
1773.77002	19822.1125
1776.97499	19763.5125
1780.17785	19692.3125
1783.37861	19651.7125
1786.57727	19615.0125
1789.77382	19574.9125
1792.96828	19485.7125
1796.16064	19473.7125
1799.3509	19360.4125
1802.53907	19346.7125
1805.72514	19286.8125
1808.90913	19236.2125
1812.09102	19190.6125
1815.27083	19143.9125
1818.44856	19083.1125
1821.6242	19065.1125
1824.79776	19016.1125
1827.96924	19033.3125
1831.13864	18995.1125
1834.30597	18978.8125
1837.47122	18980.3125
1840.6344	18963.1125
1843.7955	18943.4125
1846.95454	18920.9125
1850.11151	18904.7125
1853.26642	18900.6125
1856.41926	18902.8125
1859.57004	18871.7125
1862.71876	18837.3125
1865.86542	18789.8125
1869.01003	18762.3125
1872.15258	18718.8125
1875.29308	18685.3125
1878.43152	18691.3125
1881.56792	18663.2125
1884.70227	18620.1125
1887.83457	18608.4125
1890.96482	18553.5125
1894.09304	18521.2125
1897.21921	18528.4125
1900.34335	18488.0125
1903.46544	18443.4125
1906.58551	18451.9125
1909.70353	18421.0125
1912.81953	18355.6125
1915.93349	18287.5125
1919.04543	18293.4125
1922.15534	18301.4125
1925.26322	18192.6125
1928.36908	18137.7125
1931.47292	18096.3125
1934.57473	18026.0125
1937.67453	17996.4125
1940.77232	17921.2125
1943.86808	17883.4125
1946.96184	17823.0125
1950.05358	17772.4125
1953.14331	17742.2125
1956.23103	17721.3125
1959.31675	17671.1125
1962.40046	17592.6125
1965.48217	17488.8125
1968.56188	17462.8125
1971.63959	17400.7125
1974.7153	17296.7125
1977.78901	17272.5125
1980.86073	17166.7125
1983.93046	17139.6125
1986.99819	17078.7125
1990.06394	17048.0125
1993.1277	17030.9125
1996.18947	16987.4125
1999.24925	16884.7125
2002.30706	16864.1125
2005.36288	16791.0125
2008.41672	16755.4125
2011.46859	16732.0125
2014.51848	16652.9125
2017.56639	16581.8125
2020.61233	16534.0125
2023.6563	16498.5125
2026.6983	16475.6125
2029.73833	16401.9125
2032.7764	16348.2125
2035.8125	16321.3125
2038.84664	16251.3125
2041.87881	16269.7125
2044.90903	16219.7125
2047.93729	16210.8125
2050.96359	16166.3125
2053.98794	16125.9125
2057.01034	16164.4125
2060.03078	16134.7125
2063.04927	16094.7125
2066.06582	16109.7125
2069.08042	16081.8125
2072.09307	16048.3125
2075.10378	16036.0125
2078.11255	16035.9125
2081.11938	16020.6125
2084.12426	15999.6125
2087.12722	15997.5125
2090.12824	15982.1125
2093.12732	15992.5125
2096.12447	15974.7125
2099.11969	15981.4125
2102.11299	15983.2125
2105.10435	15970.8125
2108.09379	15941.6125
2111.08131	15978.6125
2114.0669	15965.2125
2117.05057	16008.3125
2120.03233	16000.8125
2123.01216	16005.3125
2125.99008	16016.5125
2128.96609	15990.4125
2131.94018	16021.7125
2134.91236	16016.3125
2137.88263	16004.7125
2140.851	15991.2125
2143.81746	15982.1125
2146.78201	15957.3125
2149.74466	15957.0125
2152.7054	15940.8125
2155.66425	15920.1125
2158.6212	15888.1125
2161.57625	15887.7125
2164.52941	15919.4125
2167.48067	15898.6125
2170.43004	15884.6125
2173.37752	15874.8125
2176.32311	15867.4125
2179.26681	15859.2125
2182.20863	15850.3125
2185.14856	15880.0125
2188.08661	15864.2125
2191.02278	15851.9125
2193.95707	15873.0125
2196.88948	15812.2125
2199.82001	15771.0125
2202.74867	15761.6125
2205.67545	15706.9125
2208.60037	15713.5125
2211.52341	15666.8125
2214.44458	15660.4125
2217.36388	15642.4125
2220.28132	15578.7125
2223.1969	15555.3125
2226.11061	15536.2125
2229.02246	15512.0125
2231.93245	15466.8125
2234.84058	15470.0125
2237.74686	15425.7125
2240.65128	15398.5125
2243.55385	15388.6125
2246.45456	15339.1125
2249.35343	15323.2125
2252.25044	15281.5125
2255.14561	15232.8125
2258.03893	15201.7125
2260.93041	15157.8125
2263.82004	15119.2125
2266.70783	15099.2125
2269.59378	15025.1125
2272.4779	14962.5125
2275.36017	14922.3125
2278.24061	14933.9125
2281.11922	14892.0125
2283.996	14851.3125
2286.87094	14839.8125
2289.74405	14786.1125
2292.61534	14789.3125
2295.4848	14754.4125
2298.35243	14756.0125
2301.21824	14769.4125
2304.08223	14762.8125
2306.94439	14730.8125
2309.80474	14755.4125
2312.66327	14733.8125
2315.51999	14706.8125
2318.37489	14683.9125
2321.22797	14652.8125
2324.07925	14653.3125
2326.92871	14603.1125
2329.77637	14569.5125
2332.62222	14554.5125
2335.46626	14544.4125
2338.3085	14541.9125
2341.14893	14526.4125
2343.98756	14542.1125
2346.8244	14511.2125
2349.65943	14503.6125
2352.49267	14494.0125
2355.32411	14499.7125
2358.15376	14490.2125
2360.98161	14465.0125
2363.80768	14478.9125
2366.63195	14462.4125
2369.45444	14456.4125
2372.27514	14435.8125
2375.09405	14385.2125
2377.91118	14392.9125
2380.72652	14339.2125
2383.54009	14293.1125
2386.35187	14295.8125
2389.16188	14243.8125
2391.97011	14209.6125
2394.77657	14194.6125
2397.58125	14139.8125
2400.38416	14146.4125
2403.18529	14123.2125
2405.98466	14097.6125
2408.78226	14066.6125
2411.57809	14063.3125
2414.37216	14023.8125
2417.16446	14055.6125
2419.955	14041.6125
2422.74378	14016.0125
2425.5308	13968.6125
2428.31606	13957.4125
2431.09956	13966.0125
2433.88131	13942.2125
2436.6613	13950.0125
2439.43954	13964.9125
2442.21603	13933.5125
2444.99077	13937.5125
2447.76377	13918.5125
2450.53501	13910.9125
2453.30451	13887.2125
2456.07226	13898.9125
2458.83827	13887.5125
2461.60254	13890.6125
2464.36507	13865.4125
2467.12586	13822.8125
2469.88492	13849.9125
2472.64224	13844.5125
2475.39782	13876.5125
2478.15167	13862.4125
2480.90379	13824.3125
2483.65417	13832.4125
2486.40283	13826.0125
2489.14976	13855.1125
2491.89497	13833.8125
2494.63845	13850.1125
2497.3802	13852.1125
2500.12024	13846.7125
2502.85855	13841.5125
2505.59514	13816.8125
2508.33002	13798.9125
2511.06318	13800.9125
2513.79462	13771.8125
2516.52435	13745.5125
2519.25237	13755.9125
2521.97867	13753.0125
2524.70327	13754.6125
2527.42616	13699.6125
2530.14734	13713.6125
2532.86681	13726.3125
2535.58458	13716.6125
2538.30065	13677.9125
2541.01501	13686.8125
2543.72768	13645.8125
2546.43864	13666.4125
2549.14791	13676.1125
2551.85548	13619.5125
2554.56136	13609.5125
2557.26554	13584.8125
2559.96803	13574.8125
2562.66883	13574.0125
2565.36794	13540.5125
2568.06536	13531.5125
2570.7611	13510.8125
2573.45514	13484.1125
2576.14751	13495.2125
2578.83819	13439.7125
2581.52719	13466.0125
2584.21451	13461.1125
2586.90015	13454.0125
2589.58411	13430.8125
2592.2664	13444.8125
2594.94701	13390.8125
2597.62594	13407.6125
2600.30321	13407.6125
2602.9788	13418.4125
2605.65273	13384.9125
2608.32498	13404.9125
2610.99557	13412.1125
2613.66449	13392.5125
2616.33175	13394.5125
2618.99734	13403.3125
2621.66128	13394.0125
2624.32355	13348.8125
2626.98416	13331.7125
2629.64311	13326.8125
2632.30041	13333.9125
2634.95605	13318.0125
2637.61004	13281.0125
2640.26238	13308.5125
2642.91306	13310.8125
2645.56209	13292.1125
2648.20948	13325.5125
2650.85521	13345.7125
2653.4993	13324.0125
2656.14175	13333.4125
2658.78255	13321.8125
2661.42171	13339.5125
2664.05923	13365.5125
2666.6951	13340.9125
2669.32934	13381.3125
2671.96194	13380.7125
2674.59291	13392.8125
2677.22224	13354.6125
2679.84993	13377.5125
2682.476	13331.9125
2685.10043	13329.4125
2687.72324	13308.7125
2690.34441	13321.9125
2692.96396	13292.8125
2695.58188	13327.5125
2698.19818	13327.3125
2700.81285	13330.6125
2703.4259	13335.0125
2706.03733	13399.5125
2708.64714	13367.8125
2711.25533	13363.2125
2713.86191	13351.2125
2716.46687	13413.4125
2719.07021	13387.4125
2721.67194	13411.6125
2724.27206	13409.0125
2726.87057	13407.7125
2729.46747	13445.5125
2732.06276	13460.7125
2734.65644	13430.2125
2737.24852	13426.6125
2739.83899	13426.4125
2742.42786	13394.7125
2745.01513	13391.7125
2747.60079	13400.0125
2750.18486	13370.7125
2752.76733	13344.7125
2755.3482	13353.2125
2757.92747	13362.5125
2760.50515	13344.8125
2763.08123	13351.5125
2765.65573	13353.0125
2768.22863	13383.8125
2770.79994	13340.7125
2773.36967	13351.2125
2775.9378	13361.0125
2778.50435	13312.1125
2781.06932	13338.6125
2783.6327	13328.9125
2786.1945	13344.7125
2788.75471	13327.2125
2791.31335	13314.7125
2793.87041	13298.6125
2796.42589	13283.7125
2798.97979	13258.2125
2801.53212	13208.5125
2804.08288	13217.6125
2806.63206	13162.0125
2809.17967	13140.1125
2811.72571	13121.6125
2814.27018	13121.3125
2816.81308	13065.0125
2819.35442	13031.0125
2821.89419	13056.6125
2824.43239	13023.6125
2826.96904	13026.5125
2829.50412	13000.4125
2832.03763	12969.6125
2834.56959	12974.8125
2837.1	12991.4125
2839.62884	12976.6125
2842.15613	12982.5125
2844.68186	13011.0125
2847.20604	13004.2125
2849.72867	13043.9125
2852.24974	13072.7125
2854.76927	13047.5125
2857.28724	13027.7125
2859.80367	13017.4125
2862.31855	12963.1125
2864.83189	12954.4125
2867.34368	12915.3125
2869.85393	12907.9125
2872.36264	12888.0125
2874.8698	12890.7125
2877.37543	12859.1125
2879.87952	12845.1125
2882.38207	12869.5125
2884.88308	12865.1125
2887.38256	12840.2125
2889.88051	12859.2125
2892.37692	12859.7125
2894.8718	12838.1125
2897.36515	12892.5125
2899.85698	12864.9125
2902.34727	12887.6125
2904.83604	12899.5125
2907.32328	12938.3125
2909.809	12914.4125
2912.29319	12933.9125
2914.77587	12928.1125
2917.25702	12929.5125
2919.73665	12919.4125
2922.21476	12913.7125
2924.69136	12892.3125
2927.16644	12913.8125
2929.64	12902.2125
2932.11205	12848.2125
2934.58258	12823.9125
2937.05161	12845.4125
2939.51912	12853.0125
2941.98513	12833.1125
2944.44962	12787.3125
2946.91261	12742.9125
2949.37409	12761.5125
2951.83407	12735.9125
2954.29254	12700.4125
2956.74951	12671.3125
2959.20498	12637.0125
2961.65895	12669.3125
2964.11142	12671.6125
2966.56239	12609.1125
2969.01186	12620.3125
2971.45984	12589.3125
2973.90632	12599.4125
2976.35131	12549.9125
2978.7948	12555.0125
2981.23681	12521.6125
2983.67732	12482.4125
2986.11635	12454.1125
2988.55388	12411.2125
2990.98993	12354.5125
2993.4245	12333.4125
2995.85758	12292.9125
2998.28917	12246.7125
3000.71928	12229.6125
3003.14791	12219.3125
3005.57506	12175.0125
3008.00073	12135.2125
3010.42493	12019.9125
3012.84764	12093.5125
3015.26888	12072.3125
3017.68865	12032.0125
3020.10694	12007.3125
3022.52376	11981.0125
