Data from AgNPs_FTO_APTES_UA_5uM_CRN_1uM_R6G_10uM_NaF_0.1M_Addition_RamanShift__6__10-24-16-572.txt Node

Date: Mon Feb 07 10:24:16 GMT 2022
User: TCL
Spectrometer: QEP01345
Trigger mode: 4
Integration Time (sec): 7.000000E0
Scans to average: 10
Electric dark correction enabled: true
Nonlinearity correction enabled: false
Boxcar width: 0
XAxis mode: Raman Shifts
Number of Pixels in Spectrum: 1044
>>>>>Begin Spectral Data<<<<<
46.04893	-1.525
50.45542	-2.325
54.85868	-2.125
59.25871	1.475
63.6555	91.475
68.04907	99.375
72.43941	106.275
76.82654	104.675
81.21044	108.975
85.59113	115.575
89.96862	118.175
94.34289	121.575
98.71396	121.475
103.08183	127.975
107.4465	131.575
111.80798	137.675
116.16626	140.675
120.52136	149.475
124.87327	153.375
129.222	161.275
133.56755	173.275
137.90993	194.075
142.24913	210.475
146.58517	240.175
150.91804	281.175
155.24774	335.575
159.57429	423.875
163.89768	547.075
168.21792	732.775
172.53501	1010.675
176.84895	1402.175
181.15975	1973.375
185.46741	2761.975
189.77193	3811.375
194.07331	5090.675
198.37157	6541.075
202.6667	8058.375
206.9587	9583.375
211.24758	11106.575
215.53334	12636.575
219.81599	14286.975
224.09553	16100.975
228.37195	18114.175
232.64527	20294.075
236.91549	22530.775
241.18261	24704.675
245.44663	26695.175
249.70755	28470.675
253.96539	30009.975
258.22014	31280.275
262.4718	32310.575
266.72039	33019.375
270.96589	33422.775
275.20832	33424.075
279.44768	33102.475
283.68397	32831.875
287.91719	32569.175
292.14735	32392.375
296.37445	32424.175
300.59849	32581.575
304.81948	32838.175
309.03742	32892.375
313.25231	32854.975
317.46415	32333.975
321.67296	31650.975
325.87872	31047.375
330.08145	30725.075
334.28114	30611.375
338.47781	30738.575
342.67145	31013.675
346.86207	31470.575
351.04966	32076.675
355.23424	32807.575
359.4158	33466.275
363.59435	33983.575
367.76989	34370.775
371.94243	34541.875
376.11196	34609.675
380.27849	34659.875
384.44203	34767.975
388.60257	35047.075
392.76012	35522.875
396.91468	36043.975
401.06626	36659.775
405.21485	37140.875
409.36047	37078.475
413.50311	36920.375
417.64277	37071.975
421.77947	37595.275
425.9132	37921.575
430.04396	38115.375
434.17176	38252.375
438.2966	38149.375
442.41849	38572.475
446.53742	39649.575
450.6534	40950.975
454.76644	41923.275
458.87653	42039.875
462.98368	41482.275
467.08789	40638.075
471.18916	39606.175
475.2875	38655.175
479.38291	38192.275
483.4754	38074.875
487.56496	37883.275
491.6516	37457.975
495.73531	36954.575
499.81612	36763.575
503.89401	36900.175
507.96899	37119.175
512.04106	36913.675
516.11023	36299.775
520.1765	35601.275
524.23987	35029.675
528.30034	34664.075
532.35792	34235.875
536.41261	33681.175
540.46441	33045.775
544.51333	32886.675
548.55936	33312.075
552.60252	34204.775
556.64279	35303.475
560.6802	36239.475
564.71473	36876.075
568.7464	37807.675
572.7752	39550.375
576.80114	41469.075
580.82422	43811.775
584.84444	47055.675
588.86181	50985.775
592.87633	53865.175
596.888	52681.475
600.89682	47985.975
604.9028	45361.375
608.90594	47282.175
612.90624	50051.975
616.90371	46757.975
620.89834	39230.275
624.89015	35708.675
628.87913	35281.075
632.86528	35388.575
636.84862	34921.275
640.82913	33904.475
644.80683	32848.775
648.78172	32349.675
652.75379	32543.975
656.72306	33030.375
660.68952	33470.875
664.65319	33124.475
668.61405	32439.375
672.57211	32369.175
676.52738	32600.375
680.47986	32560.575
684.42955	32135.175
688.37646	31931.375
692.32058	32316.275
696.26192	33215.575
700.20048	34065.975
704.13626	34483.675
708.06928	34411.375
711.99952	34230.175
715.927	34377.875
719.85171	34729.075
723.77365	34555.775
727.69284	33664.475
731.60928	32827.675
735.52295	32533.075
739.43388	32510.775
743.34206	32692.475
747.24749	33017.575
751.15017	33500.975
755.05012	34262.675
758.94733	35471.075
762.8418	37230.075
766.73354	39682.875
770.62254	41895.275
774.50882	41899.975
778.39237	39774.575
782.27321	37012.975
786.15132	34791.675
790.02671	33465.675
793.89938	32863.075
797.76935	32753.475
801.6366	32793.775
805.50115	32808.375
809.36299	32628.775
813.22213	32313.975
817.07857	32043.575
820.93231	31718.875
824.78336	31429.975
828.63172	31229.175
832.47738	31170.375
836.32036	31311.875
840.16066	31527.075
843.99827	31757.875
847.8332	31648.475
851.66546	31521.775
855.49504	31478.275
859.32195	31444.575
863.1462	31311.875
866.96777	31105.075
870.78668	30996.075
874.60293	30962.875
878.41652	31008.375
882.22745	31151.075
886.03573	31260.975
889.84136	31223.475
893.64433	31066.575
897.44466	30877.375
901.24235	30766.275
905.0374	30667.375
908.8298	30622.175
912.61957	30753.675
916.40671	31146.475
920.19121	31860.575
923.97308	32641.875
927.75233	33052.975
931.52895	32699.375
935.30295	31861.475
939.07433	30999.475
942.84309	30431.675
946.60924	30278.475
950.37278	30258.975
954.13371	30230.275
957.89203	30121.275
961.64774	30067.775
965.40086	30149.475
969.15137	30134.675
972.89929	29982.875
976.64461	29951.075
980.38733	30092.575
984.12747	30209.075
987.86502	30388.575
991.59999	30754.575
995.33237	31433.775
999.06217	32498.975
1002.78939	33930.975
1006.51404	35081.575
1010.23611	35846.875
1013.95561	36300.075
1017.67255	36147.675
1021.38692	35388.575
1025.09872	34745.875
1028.80796	34908.075
1032.51465	36204.375
1036.21877	37495.175
1039.92035	37924.975
1043.61937	37482.175
1047.31584	36298.575
1051.00976	35029.675
1054.70114	34370.075
1058.38998	34155.675
1062.07627	34222.375
1065.76003	34405.875
1069.44126	34877.475
1073.11995	35695.475
1076.79611	36485.475
1080.46974	36887.175
1084.14085	37227.575
1087.80943	37764.875
1091.47549	38130.175
1095.13903	38204.775
1098.80005	37431.675
1102.45857	36127.975
1106.11456	35133.075
1109.76805	34666.575
1113.41903	34496.075
1117.06751	34602.575
1120.71348	34866.975
1124.35696	35123.675
1127.99793	35593.775
1131.63641	36022.575
1135.2724	36220.975
1138.90589	36286.075
1142.5369	36514.075
1146.16542	36966.875
1149.79145	37404.575
1153.415	37910.375
1157.03607	38846.275
1160.65467	40616.375
1164.27079	43564.675
1167.88443	46711.875
1171.49561	49455.275
1175.10432	52451.375
1178.71056	56777.675
1182.31434	61097.275
1185.91565	62913.375
1189.51451	61875.475
1193.11091	59507.775
1196.70485	57050.375
1200.29634	55130.775
1203.88538	54439.775
1207.47197	54642.175
1211.05612	54666.675
1214.63782	53684.775
1218.21708	51719.275
1221.79391	49842.075
1225.36829	48380.975
1228.94024	47144.375
1232.50976	45703.575
1236.07685	44401.575
1239.6415	43638.775
1243.20374	43553.775
1246.76355	44173.675
1250.32093	45288.875
1253.8759	46775.475
1257.42845	48456.475
1260.97859	50338.275
1264.52631	52293.775
1268.07163	54298.575
1271.61453	56580.775
1275.15503	58917.475
1278.69312	61583.675
1282.22882	64351.575
1285.76211	67518.275
1289.29301	71149.475
1292.82151	75360.975
1296.34761	80609.375
1299.87133	87135.675
1303.39266	94085.975
1306.9116	99758.475
1310.42815	103024.475
1313.94233	103298.975
1317.45412	100889.375
1320.96354	97277.875
1324.47058	94793.975
1327.97525	93606.275
1331.47754	92947.175
1334.97747	91725.775
1338.47502	89368.275
1341.97022	85962.475
1345.46305	82131.475
1348.95352	79807.875
1352.44163	80226.775
1355.92738	83932.275
1359.41078	89966.275
1362.89183	94579.875
1366.37053	94442.275
1369.84688	87503.075
1373.32088	76444.875
1376.79254	68215.375
1380.26186	65350.175
1383.72883	65772.975
1387.19347	66043.075
1390.65578	64988.175
1394.11575	64618.375
1397.57339	65857.075
1401.0287	68265.175
1404.48168	70278.675
1407.93234	70820.975
1411.38068	69036.575
1414.82669	65770.475
1418.27039	62052.075
1421.71177	58293.375
1425.15083	55527.675
1428.58758	54430.175
1432.02203	55534.875
1435.45416	58126.175
1438.88399	60859.975
1442.31151	62695.575
1445.73673	63529.275
1449.15965	63731.975
1452.58027	63330.675
1455.9986	62282.575
1459.41463	62060.875
1462.82837	62987.975
1466.23982	64896.475
1469.64898	66863.875
1473.05586	68022.175
1476.46045	68454.975
1479.86276	67932.775
1483.26279	66987.375
1486.66054	66211.375
1490.05602	66051.575
1493.44922	66196.875
1496.84016	66116.875
1500.22882	65916.575
1503.61521	66232.475
1506.99934	66968.275
1510.38121	67756.875
1513.76081	67923.375
1517.13816	67346.875
1520.51324	66540.975
1523.88607	66451.275
1527.25665	67343.575
1530.62498	68258.375
1533.99105	68361.175
1537.35488	67350.375
1540.71647	65374.775
1544.07581	62936.175
1547.4329	60499.575
1550.78776	58157.975
1554.14038	56510.675
1557.49077	55322.475
1560.83892	54424.675
1564.18484	53880.275
1567.52853	53727.575
1570.86999	54116.075
1574.20922	55311.575
1577.54624	56665.075
1580.88103	57782.475
1584.2136	59826.675
1587.54395	64137.975
1590.87208	70596.075
1594.19801	78008.275
1597.52172	83748.775
1600.84321	84259.175
1604.16251	77990.775
1607.47959	68094.675
1610.79447	58613.275
1614.10715	51211.575
1617.41763	46205.975
1620.7259	43348.375
1624.03199	42194.175
1627.33587	42723.775
1630.63757	44833.275
1633.93707	49003.975
1637.23439	55845.675
1640.52951	66091.975
1643.82246	78801.075
1647.11321	88958.375
1650.40179	89628.575
1653.68819	79594.975
1656.97241	64986.075
1660.25446	52333.975
1663.53433	43754.375
1666.81203	38588.875
1670.08756	35524.375
1673.36092	33614.375
1676.63211	32434.075
1679.90115	31641.375
1683.16801	31003.075
1686.43272	30451.675
1689.69527	30149.775
1692.95567	29880.375
1696.2139	29710.175
1699.46999	29589.775
1702.72392	29428.375
1705.97571	29336.675
1709.22535	29248.875
1712.47284	29160.675
1715.71819	29131.375
1718.96139	29032.475
1722.20246	28916.175
1725.44139	28815.075
1728.67818	28584.175
1731.91284	28354.975
1735.14537	28168.375
1738.37576	27984.375
1741.60403	27842.975
1744.83017	27741.675
1748.05418	27673.575
1751.27607	27588.375
1754.49584	27485.775
1757.71349	27526.875
1760.92903	27467.775
1764.14244	27434.275
1767.35375	27454.275
1770.56294	27419.475
1773.77002	27372.075
1776.97499	27264.675
1780.17785	27249.375
1783.37861	27170.075
1786.57727	27165.275
1789.77382	27160.075
1792.96828	27095.875
1796.16064	27010.375
1799.3509	26956.075
1802.53907	26896.575
1805.72514	26798.675
1808.90913	26722.775
1812.09102	26667.475
1815.27083	26624.375
1818.44856	26548.575
1821.6242	26577.675
1824.79776	26535.875
1827.96924	26522.175
1831.13864	26475.275
1834.30597	26501.475
1837.47122	26475.075
1840.6344	26449.475
1843.7955	26504.975
1846.95454	26466.175
1850.11151	26454.975
1853.26642	26427.075
1856.41926	26417.375
1859.57004	26437.975
1862.71876	26420.375
1865.86542	26388.475
1869.01003	26319.475
1872.15258	26309.275
1875.29308	26299.475
1878.43152	26295.875
1881.56792	26300.375
1884.70227	26320.975
1887.83457	26269.175
1890.96482	26287.975
1894.09304	26216.175
1897.21921	26219.675
1900.34335	26155.975
1903.46544	26098.075
1906.58551	26116.275
1909.70353	26017.075
1912.81953	26009.375
1915.93349	25981.175
1919.04543	25946.475
1922.15534	25896.775
1925.26322	25799.075
1928.36908	25735.875
1931.47292	25670.875
1934.57473	25590.975
1937.67453	25553.175
1940.77232	25447.175
1943.86808	25389.675
1946.96184	25310.875
1950.05358	25276.775
1953.14331	25250.975
1956.23103	25168.275
1959.31675	25101.875
1962.40046	25000.775
1965.48217	24967.675
1968.56188	24918.675
1971.63959	24824.775
1974.7153	24725.475
1977.78901	24678.775
1980.86073	24585.275
1983.93046	24511.375
1986.99819	24423.475
1990.06394	24333.675
1993.1277	24289.875
1996.18947	24243.575
1999.24925	24169.675
2002.30706	24065.075
2005.36288	24023.875
2008.41672	23991.575
2011.46859	23941.675
2014.51848	23876.275
2017.56639	23779.975
2020.61233	23756.575
2023.6563	23729.375
2026.6983	23702.675
2029.73833	23657.375
2032.7764	23645.375
2035.8125	23602.875
2038.84664	23531.675
2041.87881	23527.775
2044.90903	23494.975
2047.93729	23451.775
2050.96359	23413.375
2053.98794	23407.575
2057.01034	23401.575
2060.03078	23402.975
2063.04927	23392.275
2066.06582	23372.975
2069.08042	23367.575
2072.09307	23327.075
2075.10378	23276.675
2078.11255	23284.175
2081.11938	23269.875
2084.12426	23248.975
2087.12722	23247.875
2090.12824	23225.175
2093.12732	23224.475
2096.12447	23231.975
2099.11969	23244.875
2102.11299	23228.375
2105.10435	23304.875
2108.09379	23237.575
2111.08131	23251.975
2114.0669	23292.375
2117.05057	23299.975
2120.03233	23321.075
2123.01216	23332.575
2125.99008	23323.575
2128.96609	23368.075
2131.94018	23376.875
2134.91236	23379.675
2137.88263	23383.175
2140.851	23346.675
2143.81746	23411.375
2146.78201	23368.875
2149.74466	23431.375
2152.7054	23356.975
2155.66425	23360.575
2158.6212	23368.875
2161.57625	23367.175
2164.52941	23280.375
2167.48067	23298.375
2170.43004	23385.075
2173.37752	23363.375
2176.32311	23335.475
2179.26681	23306.375
2182.20863	23374.975
2185.14856	23395.875
2188.08661	23407.575
2191.02278	23433.175
2193.95707	23397.175
2196.88948	23389.675
2199.82001	23340.275
2202.74867	23360.875
2205.67545	23321.475
2208.60037	23256.075
2211.52341	23322.375
2214.44458	23307.575
2217.36388	23263.075
2220.28132	23219.175
2223.1969	23223.875
2226.11061	23191.075
2229.02246	23141.275
2231.93245	23155.675
2234.84058	23144.075
2237.74686	23160.975
2240.65128	23125.975
2243.55385	23063.675
2246.45456	22972.575
2249.35343	22957.275
2252.25044	22879.875
2255.14561	22812.075
2258.03893	22735.475
2260.93041	22690.375
2263.82004	22640.875
2266.70783	22572.475
2269.59378	22545.575
2272.4779	22445.175
2275.36017	22382.575
2278.24061	22382.675
2281.11922	22375.375
2283.996	22391.475
2286.87094	22365.775
2289.74405	22386.275
2292.61534	22359.075
2295.4848	22313.975
2298.35243	22370.875
2301.21824	22388.875
2304.08223	22435.175
2306.94439	22432.975
2309.80474	22484.775
2312.66327	22516.875
2315.51999	22460.975
2318.37489	22461.675
2321.22797	22416.975
2324.07925	22412.775
2326.92871	22410.875
2329.77637	22385.075
2332.62222	22381.275
2335.46626	22350.675
2338.3085	22406.875
2341.14893	22377.775
2343.98756	22447.875
2346.8244	22429.875
2349.65943	22452.775
2352.49267	22408.975
2355.32411	22410.175
2358.15376	22401.075
2360.98161	22299.975
2363.80768	22289.075
2366.63195	22321.275
2369.45444	22284.975
2372.27514	22224.275
2375.09405	22218.875
2377.91118	22139.275
2380.72652	22073.475
2383.54009	22094.575
2386.35187	22018.775
2389.16188	21995.575
2391.97011	21966.575
2394.77657	21984.675
2397.58125	21937.975
2400.38416	21898.975
2403.18529	21915.675
2405.98466	21900.875
2408.78226	21829.475
2411.57809	21803.475
2414.37216	21776.775
2417.16446	21737.175
2419.955	21725.775
2422.74378	21718.975
2425.5308	21697.475
2428.31606	21708.875
2431.09956	21669.075
2433.88131	21663.575
2436.6613	21692.575
2439.43954	21698.875
2442.21603	21680.975
2444.99077	21680.575
2447.76377	21676.675
2450.53501	21665.375
2453.30451	21673.975
2456.07226	21629.675
2458.83827	21659.675
2461.60254	21680.075
2464.36507	21657.175
2467.12586	21697.675
2469.88492	21690.975
2472.64224	21700.575
2475.39782	21749.475
2478.15167	21842.375
2480.90379	21855.675
2483.65417	21844.375
2486.40283	21839.175
2489.14976	21861.475
2491.89497	21847.875
2494.63845	21899.475
2497.3802	21874.775
2500.12024	21897.175
2502.85855	21863.175
2505.59514	21834.975
2508.33002	21805.975
2511.06318	21787.775
2513.79462	21742.075
2516.52435	21799.975
2519.25237	21822.175
2521.97867	21821.475
2524.70327	21821.975
2527.42616	21776.575
2530.14734	21811.475
2532.86681	21787.575
2535.58458	21767.975
2538.30065	21771.775
2541.01501	21773.875
2543.72768	21801.975
2546.43864	21795.775
2549.14791	21740.475
2551.85548	21784.575
2554.56136	21742.975
2557.26554	21737.375
2559.96803	21742.775
2562.66883	21783.975
2565.36794	21755.875
2568.06536	21762.975
2570.7611	21801.375
2573.45514	21761.575
2576.14751	21766.075
2578.83819	21784.675
2581.52719	21766.975
2584.21451	21779.575
2586.90015	21760.475
2589.58411	21759.475
2592.2664	21750.375
2594.94701	21747.075
2597.62594	21760.475
2600.30321	21754.175
2602.9788	21773.075
2605.65273	21765.575
2608.32498	21812.675
2610.99557	21813.075
2613.66449	21848.875
2616.33175	21815.875
2618.99734	21809.675
2621.66128	21826.975
2624.32355	21779.675
2626.98416	21733.375
2629.64311	21741.975
2632.30041	21766.975
2634.95605	21750.175
2637.61004	21743.475
2640.26238	21720.375
2642.91306	21672.275
2645.56209	21677.275
2648.20948	21698.575
2650.85521	21719.575
2653.4993	21742.575
2656.14175	21745.975
2658.78255	21790.475
2661.42171	21779.375
2664.05923	21845.975
2666.6951	21874.475
2669.32934	21887.575
2671.96194	21864.275
2674.59291	21918.175
2677.22224	21907.175
2679.84993	21902.975
2682.476	21889.375
2685.10043	21871.675
2687.72324	21806.375
2690.34441	21820.875
2692.96396	21821.075
2695.58188	21779.875
2698.19818	21775.275
2700.81285	21733.975
2703.4259	21744.775
2706.03733	21843.175
2708.64714	21857.175
2711.25533	21855.275
2713.86191	21849.375
2716.46687	21952.375
2719.07021	21888.075
2721.67194	21947.275
2724.27206	21935.175
2726.87057	21972.275
2729.46747	22003.975
2732.06276	22013.375
2734.65644	22032.275
2737.24852	22053.075
2739.83899	22059.075
2742.42786	22041.875
2745.01513	21974.375
2747.60079	22014.175
2750.18486	21993.775
2752.76733	21997.775
2755.3482	21958.675
2757.92747	22002.375
2760.50515	21975.275
2763.08123	21988.975
2765.65573	22028.675
2768.22863	22015.775
2770.79994	21981.075
2773.36967	22020.475
2775.9378	22061.275
2778.50435	22080.175
2781.06932	22038.975
2783.6327	22058.575
2786.1945	22080.675
2788.75471	22074.175
2791.31335	22085.075
2793.87041	22045.075
2796.42589	21968.675
2798.97979	21974.975
2801.53212	21954.475
2804.08288	21890.175
2806.63206	21867.075
2809.17967	21821.575
2811.72571	21855.375
2814.27018	21795.975
2816.81308	21729.875
2819.35442	21693.975
2821.89419	21661.875
2824.43239	21676.375
2826.96904	21674.875
2829.50412	21699.775
2832.03763	21619.975
2834.56959	21614.475
2837.1	21570.275
2839.62884	21621.675
2842.15613	21594.275
2844.68186	21659.775
2847.20604	21630.675
2849.72867	21692.175
2852.24974	21713.875
2854.76927	21711.975
2857.28724	21669.775
2859.80367	21634.075
2862.31855	21604.775
2864.83189	21596.675
2867.34368	21532.275
2869.85393	21540.275
2872.36264	21500.075
2874.8698	21530.475
2877.37543	21522.175
2879.87952	21559.575
2882.38207	21517.175
2884.88308	21565.075
2887.38256	21575.175
2889.88051	21617.875
2892.37692	21628.975
2894.8718	21636.675
2897.36515	21703.075
2899.85698	21710.775
2902.34727	21750.475
2904.83604	21730.475
2907.32328	21795.775
2909.809	21734.875
2912.29319	21801.175
2914.77587	21791.375
2917.25702	21799.075
2919.73665	21744.775
2922.21476	21778.175
2924.69136	21752.875
2927.16644	21725.275
2929.64	21686.575
2932.11205	21662.975
2934.58258	21611.375
2937.05161	21633.075
2939.51912	21592.175
2941.98513	21610.275
2944.44962	21568.275
2946.91261	21501.475
2949.37409	21507.275
2951.83407	21488.775
2954.29254	21440.475
2956.74951	21458.175
2959.20498	21431.775
2961.65895	21398.775
2964.11142	21364.175
2966.56239	21348.475
2969.01186	21334.075
2971.45984	21306.775
2973.90632	21267.175
2976.35131	21235.175
2978.7948	21153.475
2981.23681	21102.775
2983.67732	21033.975
2986.11635	21008.175
2988.55388	20956.475
2990.98993	20895.275
2993.4245	20815.175
2995.85758	20736.175
2998.28917	20696.175
3000.71928	20712.075
3003.14791	20630.175
3005.57506	20668.675
3008.00073	20619.075
3010.42493	20604.675
3012.84764	20541.575
3015.26888	20521.475
3017.68865	20485.275
3020.10694	20449.275
3022.52376	20350.975
3024.9391	20346.775
3027.35298	20356.575
3029.76539	20371.675
3032.17632	20314.075
3034.5858	20294.375
3036.9938	20268.175
3039.40034	20247.775
3041.80542	20270.375
3044.20903	20244.475
3046.61118	20255.075
3049.01187	20229.875
3051.4111	20198.575
3053.80888	20147.275
3056.20519	20120.975
3058.60005	20086.175
3060.99345	20030.775
3063.3854	19989.775
3065.7759	19907.675
3068.16494	19826.375
3070.55254	19780.275
3072.93868	19730.775
3075.32338	19663.375
3077.70662	19610.175
3080.08842	19553.475
3082.46878	19516.675
3084.84769	19531.275
3087.22515	19480.875
3089.60118	19494.475
3091.97576	19503.175
3094.3489	19495.875
3096.72061	19473.075
3099.09087	19469.475
3101.4597	19443.675
3103.82709	19462.275
3106.19305	19413.475
3108.55757	19393.175
3110.92066	19338.875
3113.28232	19317.675
3115.64255	19277.275
3118.00134	19230.075
3120.35871	19200.775
3122.71466	19133.375
3125.06917	19078.175
3127.42226	19061.975
