Data from AgNPs_FTO_APTES_UA_5uM_CRN_100uM_R6G_10uM_NaF_0.1M_Addition_RamanShift__12__14-50-16-879.txt Node

Date: Mon Feb 07 14:50:16 GMT 2022
User: TCL
Spectrometer: QEP01345
Trigger mode: 4
Integration Time (sec): 7.000000E0
Scans to average: 10
Electric dark correction enabled: true
Nonlinearity correction enabled: false
Boxcar width: 0
XAxis mode: Raman Shifts
Number of Pixels in Spectrum: 1044
>>>>>Begin Spectral Data<<<<<
46.04893	0.3
50.45542	-1.3
54.85868	-1.9
59.25871	0.9
63.6555	56.1
68.04907	58.8
72.43941	60.5
76.82654	67.3
81.21044	70.3
85.59113	72.3
89.96862	75.7
94.34289	74
98.71396	79.2
103.08183	82.2
107.4465	82.1
111.80798	84.2
116.16626	89.4
120.52136	91.5
124.87327	103.1
129.222	105.7
133.56755	112.5
137.90993	124.2
142.24913	136.1
146.58517	158.6
150.91804	181.1
155.24774	216.3
159.57429	275.7
163.89768	360.9
168.21792	482.2
172.53501	654.2
176.84895	915.7
181.15975	1297.2
185.46741	1834.3
189.77193	2519.3
194.07331	3388.5
198.37157	4380.6
202.6667	5429.6
206.9587	6448.6
211.24758	7440.5
215.53334	8440.2
219.81599	9487.1
224.09553	10605.9
228.37195	11845.2
232.64527	13198.9
236.91549	14620.9
241.18261	16096.8
245.44663	17532.8
249.70755	18849.7
253.96539	20035.4
258.22014	21008.2
262.4718	21785
266.72039	22307.9
270.96589	22609.8
275.20832	22727.1
279.44768	22697.7
283.68397	22627.1
287.91719	22560.8
292.14735	22471.6
296.37445	22483.5
300.59849	22560.8
304.81948	22580.8
309.03742	22446.5
313.25231	22188.5
317.46415	21771.4
321.67296	21241.1
325.87872	20828.2
330.08145	20540.6
334.28114	20518.1
338.47781	20609.1
342.67145	20753.4
346.86207	20958.6
351.04966	21196.1
355.23424	21407.1
359.4158	21599.7
363.59435	21744.6
367.76989	21879.7
371.94243	21985.2
376.11196	21992.3
380.27849	22031.6
384.44203	22071.5
388.60257	22211.6
392.76012	22451.2
396.91468	22790.6
401.06626	23204.9
405.21485	23482.8
409.36047	23472.2
413.50311	23260.8
417.64277	23108.4
421.77947	23181
425.9132	23317.4
430.04396	23448.5
434.17176	23507.4
438.2966	23704.9
442.41849	23974.4
446.53742	24329.5
450.6534	24816.9
454.76644	25224.2
458.87653	25406.8
462.98368	25441.9
467.08789	25378.8
471.18916	25242.8
475.2875	25120.8
479.38291	25053.9
483.4754	24992.3
487.56496	24828.1
491.6516	24490.3
495.73531	24027.1
499.81612	23800.3
503.89401	23809.1
507.96899	23865.8
512.04106	23900.5
516.11023	23815.6
520.1765	23585.5
524.23987	23326.8
528.30034	23046.8
532.35792	22809
536.41261	22658.6
540.46441	22512.4
544.51333	22569.5
548.55936	22885.7
552.60252	23341.1
556.64279	23791.8
560.6802	24239.1
564.71473	24527.3
568.7464	25044.6
572.7752	25940.8
576.80114	26977.6
580.82422	27904.3
584.84444	28511.3
588.86181	28970.3
592.87633	29245.2
596.888	29038.8
600.89682	28287.2
604.9028	27848.1
608.90594	28218.8
612.90624	28743.7
616.90371	27083.8
620.89834	24302.6
624.89015	23138.4
628.87913	23156.2
632.86528	23431.4
636.84862	23492.1
640.82913	23202.3
644.80683	22722.2
648.78172	22394.2
652.75379	22287.9
656.72306	22389.1
660.68952	22566.1
664.65319	22524.9
668.61405	22371.4
672.57211	22364
676.52738	22411
680.47986	22402.5
684.42955	22345.6
688.37646	22287.9
692.32058	22296.4
696.26192	22513.3
700.20048	22720.1
704.13626	22927.6
708.06928	23063.2
711.99952	23133.9
715.927	23015.1
719.85171	22917.2
723.77365	22719.6
727.69284	22440.9
731.60928	22169.1
735.52295	22003.9
739.43388	21944
743.34206	21966.6
747.24749	22094
751.15017	22315.7
755.05012	22746.5
758.94733	23320.5
762.8418	24216
766.73354	25540.7
770.62254	26643.2
774.50882	26671.6
778.39237	25548.7
782.27321	24188.4
786.15132	23148.9
790.02671	22451.9
793.89938	22037.6
797.76935	21821.4
801.6366	21742.9
805.50115	21667.3
809.36299	21585.5
813.22213	21498.7
817.07857	21498.6
820.93231	21481.7
824.78336	21404.6
828.63172	21306.6
832.47738	21228.8
836.32036	21151.6
840.16066	21104.2
843.99827	21089.7
847.8332	21097.4
851.66546	21136.9
855.49504	21161.8
859.32195	21159.7
863.1462	21119.7
866.96777	21052
870.78668	21043.6
874.60293	21067.8
878.41652	20991.9
882.22745	21038.3
886.03573	21074.5
889.84136	21129.4
893.64433	21074.1
897.44466	21037.6
901.24235	20992.5
905.0374	20994.7
908.8298	20994.7
912.61957	21105.6
916.40671	21353.8
920.19121	21708.5
923.97308	21886.9
927.75233	21725.7
931.52895	21384.3
935.30295	21066.4
939.07433	20743.2
942.84309	20443.7
946.60924	20229
950.37278	20168.6
954.13371	20089.2
957.89203	20083.8
961.64774	20115.1
965.40086	20107.1
969.15137	20027.9
972.89929	19945.3
976.64461	19820.7
980.38733	19756.7
984.12747	19733.2
987.86502	19766
991.59999	19842.1
995.33237	19892.8
999.06217	20020.2
1002.78939	20225.6
1006.51404	20428.8
1010.23611	20629
1013.95561	20852.5
1017.67255	20890.6
1021.38692	20785
1025.09872	20619.2
1028.80796	20472.9
1032.51465	20368.2
1036.21877	20433
1039.92035	20490.1
1043.61937	20578.5
1047.31584	20658.3
1051.00976	20822
1054.70114	20982.2
1058.38998	21182.6
1062.07627	21492.9
1065.76003	21876.9
1069.44126	22125.6
1073.11995	22391.3
1076.79611	22577.5
1080.46974	22677.9
1084.14085	22678.6
1087.80943	22798.5
1091.47549	22993.9
1095.13903	23194.5
1098.80005	23061.7
1102.45857	22582.9
1106.11456	22017.7
1109.76805	21644.2
1113.41903	21550.2
1117.06751	21572.7
1120.71348	21756.3
1124.35696	21939.7
1127.99793	22193.9
1131.63641	22353.6
1135.2724	22400.1
1138.90589	22353.1
1142.5369	22387.9
1146.16542	22581.6
1149.79145	22847.8
1153.415	23125.9
1157.03607	23543.3
1160.65467	24076
1164.27079	25009.9
1167.88443	26040.9
1171.49561	27103
1175.10432	28335.2
1178.71056	29776.8
1182.31434	31176.2
1185.91565	32132
1189.51451	32578.5
1193.11091	32527.1
1196.70485	31878.7
1200.29634	30997.5
1203.88538	30223.8
1207.47197	29884.5
1211.05612	29795.3
1214.63782	29391.8
1218.21708	28564.2
1221.79391	27589.9
1225.36829	26626.1
1228.94024	26073.4
1232.50976	25699.2
1236.07685	25557
1239.6415	25532.3
1243.20374	25606.4
1246.76355	25730.2
1250.32093	26054.9
1253.8759	26481.5
1257.42845	27087.1
1260.97859	27763.7
1264.52631	28349.7
1268.07163	29032.6
1271.61453	29641.2
1275.15503	30354.5
1278.69312	31115.7
1282.22882	32033.3
1285.76211	33027.9
1289.29301	34163.8
1292.82151	35560.4
1296.34761	37242.5
1299.87133	39090.1
1303.39266	40708.2
1306.9116	41942.7
1310.42815	42678.2
1313.94233	42857.2
1317.45412	42699.4
1320.96354	42571.1
1324.47058	42743.3
1327.97525	43040.2
1331.47754	43367
1334.97747	43613.7
1338.47502	43899.7
1341.97022	44118.7
1345.46305	44133.6
1348.95352	43777.9
1352.44163	43099.2
1355.92738	42425.9
1359.41078	42093.6
1362.89183	41897.9
1366.37053	40997.8
1369.84688	38864
1373.32088	36124.8
1376.79254	34039.3
1380.26186	33220.5
1383.72883	33276.9
1387.19347	33524.1
1390.65578	33434.3
1394.11575	33291.7
1397.57339	33360.9
1401.0287	33645.4
1404.48168	33766.2
1407.93234	33502.6
1411.38068	32693.6
1414.82669	31450.7
1418.27039	29972.5
1421.71177	28655.6
1425.15083	27621.6
1428.58758	27100.1
1432.02203	27126.4
1435.45416	27636.9
1438.88399	28302.4
1442.31151	28895.7
1445.73673	29343.4
1449.15965	29864.8
1452.58027	30295.2
1455.9986	30619.8
1459.41463	31034.2
1462.82837	31456.8
1466.23982	31911.3
1469.64898	32314.6
1473.05586	32563.4
1476.46045	32594.2
1479.86276	32448.4
1483.26279	32297.8
1486.66054	32195.8
1490.05602	32378.5
1493.44922	32721.5
1496.84016	33142.1
1500.22882	33909.6
1503.61521	34744.6
1506.99934	35631
1510.38121	36255.1
1513.76081	36531.6
1517.13816	36362.7
1520.51324	36133
1523.88607	36007.9
1527.25665	36080.2
1530.62498	36068.6
1533.99105	35761.7
1537.35488	35126.8
1540.71647	34209.7
1544.07581	33194.9
1547.4329	32082.6
1550.78776	31150.3
1554.14038	30522.9
1557.49077	30183.4
1560.83892	30027.1
1564.18484	29998.5
1567.52853	30033.3
1570.86999	30285.4
1574.20922	30781.9
1577.54624	31302
1580.88103	31442.3
1584.2136	31684.4
1587.54395	32210.1
1590.87208	33158.2
1594.19801	34368.8
1597.52172	35473.2
1600.84321	35544.4
1604.16251	34246.3
1607.47959	32230.1
1610.79447	30117.5
1614.10715	28112.5
1617.41763	26396.9
1620.7259	24993
1624.03199	24148.4
1627.33587	23915.4
1630.63757	24262
1633.93707	25356.3
1637.23439	27317.3
1640.52951	30259.4
1643.82246	33942.6
1647.11321	37183.1
1650.40179	38681.6
1653.68819	37363.3
1656.97241	33929.5
1660.25446	29768.1
1663.53433	26152
1666.81203	23415.1
1670.08756	21559.7
1673.36092	20401.6
1676.63211	19585.7
1679.90115	19069.1
1683.16801	18685.9
1686.43272	18426.7
1689.69527	18207
1692.95567	18041
1696.2139	17899.3
1699.46999	17803.9
1702.72392	17726.4
1705.97571	17625.3
1709.22535	17556
1712.47284	17523
1715.71819	17492.1
1718.96139	17402.4
1722.20246	17309.1
1725.44139	17245.7
1728.67818	17125
1731.91284	17013.4
1735.14537	16952.4
1738.37576	16845
1741.60403	16752.3
1744.83017	16726.9
1748.05418	16662.8
1751.27607	16666.7
1754.49584	16595.5
1757.71349	16594.4
1760.92903	16581.1
1764.14244	16569.9
1767.35375	16555.1
1770.56294	16494.2
1773.77002	16447.3
1776.97499	16375.8
1780.17785	16349.2
1783.37861	16283
1786.57727	16252.3
1789.77382	16211.5
1792.96828	16218
1796.16064	16157.8
1799.3509	16132.5
1802.53907	16061.8
1805.72514	15992.2
1808.90913	15938.9
1812.09102	15918.1
1815.27083	15865.7
1818.44856	15841.6
1821.6242	15814.6
1824.79776	15748.7
1827.96924	15734.1
1831.13864	15729.9
1834.30597	15727.7
1837.47122	15682.6
1840.6344	15651.6
1843.7955	15655.3
1846.95454	15661.4
1850.11151	15656.8
1853.26642	15607.4
1856.41926	15609.3
1859.57004	15606.5
1862.71876	15580.5
1865.86542	15537
1869.01003	15511.9
1872.15258	15454.7
1875.29308	15450.2
1878.43152	15415.7
1881.56792	15382.2
1884.70227	15338.3
1887.83457	15319.2
1890.96482	15270
1894.09304	15264.2
1897.21921	15243.5
1900.34335	15208.3
1903.46544	15190.1
1906.58551	15167.8
1909.70353	15130.9
1912.81953	15131.6
1915.93349	15034.7
1919.04543	15048.7
1922.15534	15012.2
1925.26322	14971.8
1928.36908	14928.8
1931.47292	14867.5
1934.57473	14864.4
1937.67453	14804.8
1940.77232	14742.1
1943.86808	14726.2
1946.96184	14675.5
1950.05358	14639.3
1953.14331	14618.5
1956.23103	14566.4
1959.31675	14486.5
1962.40046	14478.5
1965.48217	14415.5
1968.56188	14326
1971.63959	14322.5
1974.7153	14244.5
1977.78901	14199.7
1980.86073	14136.5
1983.93046	14060.1
1986.99819	14008.4
1990.06394	14009.8
1993.1277	13954.4
1996.18947	13912.3
1999.24925	13842.9
2002.30706	13802.4
2005.36288	13747
2008.41672	13730.7
2011.46859	13666.5
2014.51848	13656.6
2017.56639	13570
2020.61233	13539.1
2023.6563	13492.6
2026.6983	13465.1
2029.73833	13391.1
2032.7764	13360.5
2035.8125	13340.1
2038.84664	13290.8
2041.87881	13295.5
2044.90903	13230.5
2047.93729	13206.7
2050.96359	13213.2
2053.98794	13192.4
2057.01034	13172
2060.03078	13144.7
2063.04927	13120.7
2066.06582	13145.1
2069.08042	13126
2072.09307	13068.8
2075.10378	13045.8
2078.11255	13060.3
2081.11938	13045.1
2084.12426	13048.1
2087.12722	13015.4
2090.12824	13010.4
2093.12732	13010.4
2096.12447	13018
2099.11969	12997.9
2102.11299	12958.7
2105.10435	12964
2108.09379	12966
2111.08131	12973.5
2114.0669	12996.7
2117.05057	12993
2120.03233	12996
2123.01216	13030.6
2125.99008	13018.4
2128.96609	12990.3
2131.94018	13043.4
2134.91236	13005.2
2137.88263	12994.3
2140.851	12997
2143.81746	13020.9
2146.78201	12993.3
2149.74466	12989.8
2152.7054	12974.7
2155.66425	12942.7
2158.6212	12936.9
2161.57625	12902.5
2164.52941	12922.1
2167.48067	12896.7
2170.43004	12900.7
2173.37752	12891.3
2176.32311	12886
2179.26681	12881.1
2182.20863	12859.3
2185.14856	12872.4
2188.08661	12861.8
2191.02278	12856.4
2193.95707	12864
2196.88948	12823.2
2199.82001	12789.9
2202.74867	12763
2205.67545	12746.7
2208.60037	12717.9
2211.52341	12697.5
2214.44458	12706.4
2217.36388	12661.1
2220.28132	12629.9
2223.1969	12592.5
2226.11061	12574.6
2229.02246	12567.6
2231.93245	12518.5
2234.84058	12482.6
2237.74686	12443.2
2240.65128	12474.6
2243.55385	12430.2
2246.45456	12401.7
2249.35343	12390.8
2252.25044	12363.7
2255.14561	12321.5
2258.03893	12303.6
2260.93041	12288.5
2263.82004	12217.8
2266.70783	12191.9
2269.59378	12144.1
2272.4779	12090.2
2275.36017	12077.9
2278.24061	12070.4
2281.11922	12005
2283.996	11991.6
2286.87094	11970.6
2289.74405	11937.2
2292.61534	11929.7
2295.4848	11936.5
2298.35243	11877.2
2301.21824	11858.2
2304.08223	11846.1
2306.94439	11848
2309.80474	11840.5
2312.66327	11807.8
2315.51999	11849.7
2318.37489	11788.6
2321.22797	11770.1
2324.07925	11747.7
2326.92871	11734
2329.77637	11716
2332.62222	11658.9
2335.46626	11670.9
2338.3085	11639.5
2341.14893	11628.5
2343.98756	11629.1
2346.8244	11654.1
2349.65943	11604.2
2352.49267	11596.3
2355.32411	11597.7
2358.15376	11586.7
2360.98161	11559.5
2363.80768	11544.1
2366.63195	11585.2
2369.45444	11548
2372.27514	11515.9
2375.09405	11519
2377.91118	11474.3
2380.72652	11447.9
2383.54009	11419
2386.35187	11413.1
2389.16188	11367.8
2391.97011	11321.9
2394.77657	11311.7
2397.58125	11281.8
2400.38416	11262.3
2403.18529	11252.6
2405.98466	11197.8
2408.78226	11210.7
2411.57809	11192.6
2414.37216	11194.8
2417.16446	11178.7
2419.955	11154.3
2422.74378	11158.9
2425.5308	11140.5
2428.31606	11126.2
2431.09956	11112.8
2433.88131	11096.3
2436.6613	11108.7
2439.43954	11108.7
2442.21603	11060
2444.99077	11045.2
2447.76377	11032.3
2450.53501	11032.4
2453.30451	11015.6
2456.07226	10987.3
2458.83827	10983.3
2461.60254	10967.3
2464.36507	10968.2
2467.12586	10941.3
2469.88492	10927.5
2472.64224	10954.2
2475.39782	10940.7
2478.15167	10931.1
2480.90379	10895.4
2483.65417	10921
2486.40283	10898.3
2489.14976	10945
2491.89497	10911.3
2494.63845	10915.6
2497.3802	10879.7
2500.12024	10895.7
2502.85855	10868.2
2505.59514	10869.8
2508.33002	10825
2511.06318	10827.8
2513.79462	10816.6
2516.52435	10801.1
2519.25237	10790.4
2521.97867	10788.2
2524.70327	10759.6
2527.42616	10746.8
2530.14734	10771.9
2532.86681	10731.8
2535.58458	10707.2
2538.30065	10693.6
2541.01501	10702.3
2543.72768	10661.2
2546.43864	10664.8
2549.14791	10630.7
2551.85548	10631.7
2554.56136	10618.8
2557.26554	10565.5
2559.96803	10557.2
2562.66883	10533.7
2565.36794	10536.1
2568.06536	10510.8
2570.7611	10509.9
2573.45514	10483.3
2576.14751	10451.4
2578.83819	10414.4
2581.52719	10437.4
2584.21451	10402.2
2586.90015	10413.9
2589.58411	10385.4
2592.2664	10384.4
2594.94701	10353.9
2597.62594	10331.7
2600.30321	10329.4
2602.9788	10318.5
2605.65273	10300.7
2608.32498	10307
2610.99557	10275.2
2613.66449	10273.5
2616.33175	10263.2
2618.99734	10275.9
2621.66128	10262.3
2624.32355	10223.5
2626.98416	10218.1
2629.64311	10197.6
2632.30041	10226.9
2634.95605	10206.8
2637.61004	10192.9
2640.26238	10179.8
2642.91306	10165.2
2645.56209	10178.1
2648.20948	10146.1
2650.85521	10146.4
2653.4993	10145.4
2656.14175	10166.4
2658.78255	10131.9
2661.42171	10155.3
2664.05923	10156.7
2666.6951	10146.1
2669.32934	10171.4
2671.96194	10178.6
2674.59291	10149.5
2677.22224	10143.2
2679.84993	10140.7
2682.476	10124.6
2685.10043	10112.2
2687.72324	10126.1
2690.34441	10112.8
2692.96396	10091
2695.58188	10118.8
2698.19818	10084.4
2700.81285	10132.6
2703.4259	10150.1
2706.03733	10183.1
2708.64714	10143.4
2711.25533	10148.1
2713.86191	10132.2
2716.46687	10143.7
2719.07021	10130.2
2721.67194	10146.4
2724.27206	10130.9
2726.87057	10112.7
2729.46747	10146.1
2732.06276	10160.2
2734.65644	10137.3
2737.24852	10127.9
2739.83899	10133.6
2742.42786	10086.4
2745.01513	10094.8
2747.60079	10103.4
2750.18486	10046
2752.76733	10071.1
2755.3482	10016
2757.92747	10025.9
2760.50515	10010.9
2763.08123	10019.1
2765.65573	10002.7
2768.22863	9998.6
2770.79994	9984.1
2773.36967	9983.8
2775.9378	9966.7
2778.50435	9990.8
2781.06932	9942
2783.6327	9941
2786.1945	9976.1
2788.75471	9957.2
2791.31335	9924.9
2793.87041	9933.6
2796.42589	9899.5
2798.97979	9854.6
2801.53212	9840.1
2804.08288	9834
2806.63206	9782.9
2809.17967	9779
2811.72571	9773.8
2814.27018	9726.4
2816.81308	9726.1
2819.35442	9690.5
2821.89419	9662
2824.43239	9674.5
2826.96904	9642.5
2829.50412	9662.6
2832.03763	9597.9
2834.56959	9628.6
2837.1	9606.7
2839.62884	9607.3
2842.15613	9634.6
2844.68186	9675.2
2847.20604	9677.1
2849.72867	9699.3
2852.24974	9683.4
2854.76927	9688
2857.28724	9659.8
2859.80367	9646.3
2862.31855	9614.5
2864.83189	9592.2
2867.34368	9573.8
2869.85393	9577.7
2872.36264	9552.2
2874.8698	9550
2877.37543	9546.5
2879.87952	9520.7
2882.38207	9494.8
2884.88308	9501.1
2887.38256	9505
2889.88051	9486
2892.37692	9476.2
2894.8718	9481.6
2897.36515	9484.2
2899.85698	9477.8
2902.34727	9515.2
2904.83604	9514.7
2907.32328	9529.4
2909.809	9504.3
2912.29319	9496.8
2914.77587	9512.5
2917.25702	9502.1
2919.73665	9474.9
2922.21476	9499.4
2924.69136	9474.7
2927.16644	9501.2
2929.64	9472.2
2932.11205	9455.1
2934.58258	9442.7
2937.05161	9439.3
2939.51912	9443.7
2941.98513	9420.2
2944.44962	9388.5
2946.91261	9332.3
2949.37409	9346.7
2951.83407	9349.6
2954.29254	9310.7
2956.74951	9284.4
2959.20498	9281.2
2961.65895	9285
2964.11142	9267.3
2966.56239	9256.2
2969.01186	9248
2971.45984	9232.9
2973.90632	9223
2976.35131	9178.9
2978.7948	9176.6
2981.23681	9152.1
2983.67732	9131
2986.11635	9106.7
2988.55388	9078.9
2990.98993	9072.1
2993.4245	9031.8
2995.85758	8987.6
2998.28917	8974.8
3000.71928	8942.2
3003.14791	8929.2
3005.57506	8904.9
3008.00073	8877.2
3010.42493	8781.2
3012.84764	8865.4
3015.26888	8845.5
3017.68865	8795.6
3020.10694	8785.3
3022.52376	8773.7
3024.9391	8779.1
3027.35298	8766.2
3029.76539	8742.9
3032.17632	8709.7
3034.5858	8706.6
3036.9938	8695.2
3039.40034	8701.4
3041.80542	8683.4
3044.20903	8682.1
3046.61118	8665.4
3049.01187	8628.2
3051.4111	8642.2
3053.80888	8621.3
3056.20519	8588.9
3058.60005	8568.8
3060.99345	8558.7
3063.3854	8525.3
3065.7759	8502
3068.16494	8466.1
3070.55254	8434.6
3072.93868	8410.5
3075.32338	8390.1
3077.70662	8365.5
3080.08842	8340
3082.46878	8317.1
3084.84769	8312.2
3087.22515	8307.5
3089.60118	8289.6
3091.97576	8278.8
3094.3489	8277.1
3096.72061	8268.4
3099.09087	8274.7
3101.4597	8269.8
3103.82709	8261.2
3106.19305	8230.5
3108.55757	8257.5
3110.92066	8229
3113.28232	8221.4
3115.64255	8204.3
3118.00134	8171.7
3120.35871	8172.3
3122.71466	8132.6
3125.06917	8109.7
3127.42226	8070.6
3129.77393	8087.7
3132.12417	8047.6
3134.47299	8076.6
3136.82039	8072.6
3139.16636	8064.8
3141.51092	8045.5
3143.85406	8039
3146.19579	8056.8
3148.53609	8031.9
3150.87499	8034
3153.21246	8021.7
3155.54853	8061
3157.88318	8042.7
3160.21642	8035.2
3162.54826	8041.3
3164.87868	8055
3167.2077	8023.3
3169.5353	8029.9
3171.86151	8029.3
3174.18631	8030.5
3176.5097	8018.4
3178.83169	7995.5
3181.15228	7986.5
3183.47147	7964.1
3185.78926	7967.5
3188.10565	7930.5
3190.42065	7938
3192.73424	7942.5
3195.04645	7905.9
3197.35725	7896.9
3199.66667	7854.2
3201.97469	7902.7
3204.28132	7902.3
3206.58656	7900.3
3208.8904	7900.9
3211.19287	7911.2
3213.49394	7881.2
3215.79363	7884.1
3218.09193	7887
3220.38884	7866.4
3222.68438	7913.6
3224.97853	7857.4
3227.2713	7849.3
3229.56269	7832.3
3231.8527	7806.4
3234.14133	7789.3
3236.42858	7777.5
3238.71446	7754.2
3240.99896	7767.6
3243.28209	7763.6
3245.56384	7716.9
3247.84423	7734.5
3250.12324	7722.4
3252.40088	7698.7
3254.67715	7685.7
3256.95205	7688.8
3259.22558	7692.3
3261.49775	7684.7
3263.76855	7665.6
3266.03799	7631.4
3268.30606	7621.1
3270.57277	7598.6
3272.83812	7573.4
3275.10211	7542.5
3277.36474	7556.7
3279.62601	7522.1
3281.88593	7508
3284.14448	7512.3
3286.40168	7504.4
3288.65753	7530.1
3290.91202	7517.9
3293.16516	7501.7
3295.41695	7470.4
3297.66738	7411.7
3299.91647	7391.9
3302.16421	7334.5
3304.4106	7298.8
3306.65564	7242.5
3308.89933	7207
3311.14169	7138.1
3313.38269	7081.4
3315.62236	7028.4
3317.86068	6973.1
3320.09766	6911
3322.3333	6865.3
3324.5676	6844.1
3326.80056	6728.4
3329.03219	6665.8
3331.26248	3.2
3333.49143	-0.8
3335.71905	0.3
