Data from AgNPs_FTO_APTES_UA_5uM_CRN_200uM_R6G_10uM_NaF_0.1M_Addition_RamanShift__10__16-11-31-773.txt Node

Date: Mon Feb 07 16:11:31 GMT 2022
User: TCL
Spectrometer: QEP01345
Trigger mode: 4
Integration Time (sec): 7.000000E0
Scans to average: 10
Electric dark correction enabled: true
Nonlinearity correction enabled: false
Boxcar width: 0
XAxis mode: Raman Shifts
Number of Pixels in Spectrum: 1044
>>>>>Begin Spectral Data<<<<<
46.04893	-0.925
50.45542	-1.925
54.85868	0.375
59.25871	-0.525
63.6555	73.175
68.04907	75.675
72.43941	82.075
76.82654	81.875
81.21044	83.775
85.59113	83.375
89.96862	92.075
94.34289	96.175
98.71396	96.975
103.08183	102.875
107.4465	104.175
111.80798	108.275
116.16626	108.675
120.52136	116.575
124.87327	121.675
129.222	127.075
133.56755	138.075
137.90993	152.675
142.24913	172.075
146.58517	193.575
150.91804	224.875
155.24774	275.675
159.57429	345.875
163.89768	448.775
168.21792	597.975
172.53501	818.575
176.84895	1137.075
181.15975	1609.175
185.46741	2264.175
189.77193	3121.175
194.07331	4185.575
198.37157	5396.375
202.6667	6692.975
206.9587	7943.375
211.24758	9193.875
215.53334	10418.075
219.81599	11738.775
224.09553	13171.975
228.37195	14740.875
232.64527	16471.175
236.91549	18296.575
241.18261	20071.575
245.44663	21753.575
249.70755	23341.075
253.96539	24693.675
258.22014	25818.475
262.4718	26735.375
266.72039	27412.675
270.96589	27819.975
275.20832	28032.375
279.44768	28037.575
283.68397	27931.175
287.91719	27935.975
292.14735	28028.175
296.37445	28271.775
300.59849	28532.175
304.81948	28657.175
309.03742	28579.675
313.25231	28141.275
317.46415	27353.675
321.67296	26400.475
325.87872	25617.175
330.08145	25192.275
334.28114	25099.475
338.47781	25209.375
342.67145	25397.675
346.86207	25723.175
351.04966	25996.375
355.23424	26241.775
359.4158	26492.075
363.59435	26684.775
367.76989	26800.975
371.94243	26906.475
376.11196	26939.675
380.27849	26995.375
384.44203	27031.075
388.60257	27298.175
392.76012	27583.075
396.91468	28000.475
401.06626	28409.275
405.21485	28707.375
409.36047	28598.575
413.50311	28134.275
417.64277	27776.875
421.77947	27664.375
425.9132	27700.675
430.04396	27856.275
434.17176	28018.575
438.2966	28227.475
442.41849	28648.275
446.53742	29309.675
450.6534	29995.575
454.76644	30630.175
458.87653	30939.475
462.98368	31040.775
467.08789	31008.475
471.18916	30969.675
475.2875	30983.675
479.38291	31083.375
483.4754	30998.875
487.56496	30526.875
491.6516	29741.475
495.73531	28968.875
499.81612	28521.875
503.89401	28491.375
507.96899	28544.375
512.04106	28603.675
516.11023	28554.475
520.1765	28322.175
524.23987	27977.675
528.30034	27613.775
532.35792	27316.775
536.41261	27046.875
540.46441	26935.475
544.51333	26986.875
548.55936	27416.775
552.60252	28135.675
556.64279	28924.875
560.6802	29549.075
564.71473	30077.075
568.7464	30847.175
572.7752	32048.175
576.80114	33256.275
580.82422	33979.475
584.84444	34203.175
588.86181	34381.175
592.87633	34369.175
596.888	33895.575
600.89682	33242.475
604.9028	33168.675
608.90594	34435.675
612.90624	35939.475
616.90371	33732.175
620.89834	29097.775
624.89015	27124.875
628.87913	26965.575
632.86528	27273.475
636.84862	27431.575
640.82913	27089.475
644.80683	26569.975
648.78172	26110.875
652.75379	25937.575
656.72306	26095.275
660.68952	26353.675
664.65319	26298.575
668.61405	25952.975
672.57211	25917.375
676.52738	25944.375
680.47986	25973.875
684.42955	25973.375
688.37646	25861.275
692.32058	25906.175
696.26192	26054.075
700.20048	26316.075
704.13626	26564.575
708.06928	26701.875
711.99952	26709.675
715.927	26564.575
719.85171	26523.775
723.77365	26322.275
727.69284	25988.075
731.60928	25712.375
735.52295	25553.975
739.43388	25457.175
743.34206	25482.775
747.24749	25589.975
751.15017	25876.275
755.05012	26390.875
758.94733	27244.775
762.8418	28706.775
766.73354	30785.375
770.62254	32690.875
774.50882	32684.975
778.39237	31084.475
782.27321	28968.675
786.15132	27190.475
790.02671	26103.275
793.89938	25540.975
797.76935	25244.275
801.6366	25133.275
805.50115	25034.475
809.36299	24910.275
813.22213	24845.975
817.07857	24919.175
820.93231	24954.575
824.78336	24822.775
828.63172	24629.275
832.47738	24503.475
836.32036	24425.975
840.16066	24344.475
843.99827	24337.575
847.8332	24306.375
851.66546	24323.775
855.49504	24329.675
859.32195	24371.275
863.1462	24298.775
866.96777	24232.775
870.78668	24180.075
874.60293	24159.075
878.41652	24141.075
882.22745	24171.675
886.03573	24198.775
889.84136	24207.475
893.64433	24203.375
897.44466	24155.575
901.24235	24058.675
905.0374	24002.675
908.8298	24002.475
912.61957	24188.075
916.40671	24558.375
920.19121	24954.475
923.97308	25136.175
927.75233	24888.075
931.52895	24462.375
935.30295	24058.775
939.07433	23665.875
942.84309	23285.575
946.60924	23044.675
950.37278	22923.375
954.13371	22887.675
957.89203	22911.275
961.64774	22946.775
965.40086	22888.675
969.15137	22775.675
972.89929	22618.675
976.64461	22469.175
980.38733	22357.175
984.12747	22324.675
987.86502	22444.275
991.59999	22490.975
995.33237	22548.875
999.06217	22770.175
1002.78939	23038.175
1006.51404	23272.275
1010.23611	23608.575
1013.95561	23806.975
1017.67255	23910.775
1021.38692	23822.175
1025.09872	23585.575
1028.80796	23328.475
1032.51465	23227.075
1036.21877	23260.675
1039.92035	23377.975
1043.61937	23551.075
1047.31584	23713.875
1051.00976	23860.775
1054.70114	24007.975
1058.38998	24271.775
1062.07627	24741.075
1065.76003	25212.075
1069.44126	25559.175
1073.11995	25831.075
1076.79611	26045.875
1080.46974	26092.575
1084.14085	26114.375
1087.80943	26267.675
1091.47549	26467.475
1095.13903	26572.675
1098.80005	26369.775
1102.45857	25826.375
1106.11456	25198.075
1109.76805	24824.575
1113.41903	24744.375
1117.06751	24940.975
1120.71348	25225.375
1124.35696	25586.775
1127.99793	26030.075
1131.63641	26254.775
1135.2724	26109.675
1138.90589	25923.775
1142.5369	25950.275
1146.16542	26283.875
1149.79145	26676.475
1153.415	27132.975
1157.03607	27684.975
1160.65467	28459.175
1164.27079	29657.675
1167.88443	31173.275
1171.49561	32943.875
1175.10432	35002.875
1178.71056	37568.375
1182.31434	39835.075
1185.91565	41170.375
1189.51451	41518.075
1193.11091	41056.475
1196.70485	39936.775
1200.29634	38373.275
1203.88538	37173.175
1207.47197	36471.875
1211.05612	36063.675
1214.63782	35404.875
1218.21708	34207.175
1221.79391	32832.875
1225.36829	31684.375
1228.94024	30941.575
1232.50976	30548.775
1236.07685	30228.175
1239.6415	30140.075
1243.20374	30265.175
1246.76355	30547.375
1250.32093	30872.975
1253.8759	31419.475
1257.42845	32152.475
1260.97859	33060.475
1264.52631	33942.675
1268.07163	34806.075
1271.61453	35658.875
1275.15503	36652.275
1278.69312	37814.875
1282.22882	38931.275
1285.76211	40474.775
1289.29301	42366.075
1292.82151	44761.975
1296.34761	47462.475
1299.87133	50165.775
1303.39266	52644.475
1306.9116	54493.975
1310.42815	55788.175
1313.94233	56334.675
1317.45412	56347.175
1320.96354	56263.175
1324.47058	56354.075
1327.97525	56450.575
1331.47754	56385.575
1334.97747	56342.175
1338.47502	56156.075
1341.97022	55905.675
1345.46305	55697.375
1348.95352	55117.775
1352.44163	54206.575
1355.92738	53496.575
1359.41078	53660.975
1362.89183	54003.075
1366.37053	52715.175
1369.84688	49219.275
1373.32088	45048.875
1376.79254	42334.075
1380.26186	41567.675
1383.72883	41834.675
1387.19347	42396.275
1390.65578	42537.975
1394.11575	42506.275
1397.57339	42531.475
1401.0287	42541.875
1404.48168	42313.275
1407.93234	41504.775
1411.38068	40007.175
1414.82669	38035.575
1418.27039	35966.675
1421.71177	34167.975
1425.15083	32869.475
1428.58758	32216.575
1432.02203	32409.575
1435.45416	33172.375
1438.88399	34193.875
1442.31151	35071.875
1445.73673	35791.275
1449.15965	36564.175
1452.58027	37309.275
1455.9986	37926.775
1459.41463	38394.375
1462.82837	38752.175
1466.23982	39063.275
1469.64898	39282.075
1473.05586	39382.975
1476.46045	39130.775
1479.86276	38768.575
1483.26279	38352.475
1486.66054	38078.475
1490.05602	38284.575
1493.44922	38865.275
1496.84016	39698.375
1500.22882	41202.375
1503.61521	43117.075
1506.99934	45117.575
1510.38121	46699.275
1513.76081	47146.975
1517.13816	46452.675
1520.51324	45448.475
1523.88607	44685.475
1527.25665	44416.875
1530.62498	44415.775
1533.99105	44082.675
1537.35488	43334.575
1540.71647	42092.275
1544.07581	40530.475
1547.4329	38990.775
1550.78776	37750.275
1554.14038	37016.275
1557.49077	36670.875
1560.83892	36456.975
1564.18484	36516.075
1567.52853	36787.075
1570.86999	37316.975
1574.20922	38304.275
1577.54624	39368.875
1580.88103	39872.575
1584.2136	40126.475
1587.54395	40645.875
1590.87208	41484.675
1594.19801	42612.875
1597.52172	43681.475
1600.84321	43442.475
1604.16251	41527.375
1607.47959	38729.375
1610.79447	35925.875
1614.10715	33259.975
1617.41763	30900.375
1620.7259	29171.775
1624.03199	28145.375
1627.33587	28038.175
1630.63757	28798.675
1633.93707	30543.475
1637.23439	33461.775
1640.52951	37796.975
1643.82246	42822.375
1647.11321	47029.975
1650.40179	48343.575
1653.68819	45805.075
1656.97241	40523.575
1660.25446	34586.875
1663.53433	29815.275
1666.81203	26367.475
1670.08756	24191.675
1673.36092	22794.675
1676.63211	21919.875
1679.90115	21315.375
1683.16801	20842.975
1686.43272	20492.475
1689.69527	20216.575
1692.95567	20028.275
1696.2139	19890.575
1699.46999	19752.875
1702.72392	19658.575
1705.97571	19546.875
1709.22535	19466.875
1712.47284	19400.175
1715.71819	19298.375
1718.96139	19257.475
1722.20246	19152.875
1725.44139	19054.475
1728.67818	18966.275
1731.91284	18811.975
1735.14537	18691.375
1738.37576	18612.275
1741.60403	18528.075
1744.83017	18431.375
1748.05418	18372.275
1751.27607	18361.975
1754.49584	18354.375
1757.71349	18303.375
1760.92903	18248.475
1764.14244	18247.875
1767.35375	18197.175
1770.56294	18126.275
1773.77002	18059.675
1776.97499	18012.675
1780.17785	17922.775
1783.37861	17895.075
1786.57727	17862.075
1789.77382	17830.875
1792.96828	17774.575
1796.16064	17729.675
1799.3509	17663.975
1802.53907	17610.575
1805.72514	17547.975
1808.90913	17489.575
1812.09102	17461.375
1815.27083	17366.175
1818.44856	17321.975
1821.6242	17308.275
1824.79776	17278.075
1827.96924	17257.175
1831.13864	17189.575
1834.30597	17211.275
1837.47122	17167.875
1840.6344	17178.475
1843.7955	17157.175
1846.95454	17118.975
1850.11151	17048.575
1853.26642	17066.975
1856.41926	17064.575
1859.57004	17025.175
1862.71876	16970.875
1865.86542	16937.775
1869.01003	16934.975
1872.15258	16876.475
1875.29308	16871.775
1878.43152	16828.575
1881.56792	16800.375
1884.70227	16755.575
1887.83457	16746.775
1890.96482	16690.475
1894.09304	16635.975
1897.21921	16613.275
1900.34335	16586.975
1903.46544	16540.375
1906.58551	16536.975
1909.70353	16513.775
1912.81953	16471.075
1915.93349	16404.275
1919.04543	16362.675
1922.15534	16341.375
1925.26322	16290.975
1928.36908	16265.875
1931.47292	16268.675
1934.57473	16234.075
1937.67453	16154.075
1940.77232	16090.975
1943.86808	16009.175
1946.96184	15925.875
1950.05358	15916.275
1953.14331	15871.875
1956.23103	15790.575
1959.31675	15734.875
1962.40046	15704.375
1965.48217	15647.075
1968.56188	15556.975
1971.63959	15515.675
1974.7153	15465.675
1977.78901	15436.175
1980.86073	15366.875
1983.93046	15311.375
1986.99819	15236.175
1990.06394	15199.775
1993.1277	15131.775
1996.18947	15086.975
1999.24925	15044.475
2002.30706	14975.775
2005.36288	14930.275
2008.41672	14878.475
2011.46859	14846.575
2014.51848	14793.275
2017.56639	14713.975
2020.61233	14681.475
2023.6563	14607.175
2026.6983	14562.575
2029.73833	14529.875
2032.7764	14471.275
2035.8125	14478.575
2038.84664	14415.175
2041.87881	14399.775
2044.90903	14362.375
2047.93729	14314.175
2050.96359	14289.875
2053.98794	14272.775
2057.01034	14277.375
2060.03078	14261.575
2063.04927	14249.675
2066.06582	14218.275
2069.08042	14204.775
2072.09307	14176.275
2075.10378	14167.075
2078.11255	14150.375
2081.11938	14163.575
2084.12426	14123.975
2087.12722	14093.475
2090.12824	14084.675
2093.12732	14098.575
2096.12447	14060.275
2099.11969	14066.475
2102.11299	14056.075
2105.10435	14044.875
2108.09379	14061.875
2111.08131	14060.875
2114.0669	14071.775
2117.05057	14051.075
2120.03233	14082.875
2123.01216	14061.675
2125.99008	14074.075
2128.96609	14068.975
2131.94018	14031.575
2134.91236	14074.575
2137.88263	14086.375
2140.851	14075.575
2143.81746	14059.175
2146.78201	14022.575
2149.74466	14026.075
2152.7054	14054.175
2155.66425	13988.175
2158.6212	13978.675
2161.57625	13968.775
2164.52941	13950.075
2167.48067	13944.075
2170.43004	13930.775
2173.37752	13903.975
2176.32311	13943.175
2179.26681	13937.975
2182.20863	13898.975
2185.14856	13899.475
2188.08661	13884.875
2191.02278	13871.075
2193.95707	13852.875
2196.88948	13829.575
2199.82001	13769.475
2202.74867	13774.775
2205.67545	13724.975
2208.60037	13726.175
2211.52341	13673.775
2214.44458	13634.375
2217.36388	13621.375
2220.28132	13588.075
2223.1969	13523.675
2226.11061	13543.375
2229.02246	13525.375
2231.93245	13476.175
2234.84058	13424.975
2237.74686	13416.175
2240.65128	13407.175
2243.55385	13353.175
2246.45456	13361.875
2249.35343	13362.475
2252.25044	13294.675
2255.14561	13223.775
2258.03893	13203.275
2260.93041	13145.575
2263.82004	13120.075
2266.70783	13102.075
2269.59378	13049.975
2272.4779	12989.575
2275.36017	12971.375
2278.24061	12935.575
2281.11922	12910.475
2283.996	12928.775
2286.87094	12870.575
2289.74405	12817.475
2292.61534	12813.775
2295.4848	12788.675
2298.35243	12791.275
2301.21824	12787.875
2304.08223	12782.975
2306.94439	12797.975
2309.80474	12767.375
2312.66327	12730.275
2315.51999	12698.475
2318.37489	12685.775
2321.22797	12644.775
2324.07925	12635.375
2326.92871	12605.275
2329.77637	12614.675
2332.62222	12568.075
2335.46626	12545.075
2338.3085	12527.375
2341.14893	12523.675
2343.98756	12521.275
2346.8244	12500.475
2349.65943	12495.175
2352.49267	12483.575
2355.32411	12502.675
2358.15376	12475.675
2360.98161	12505.975
2363.80768	12475.475
2366.63195	12463.075
2369.45444	12461.875
2372.27514	12433.475
2375.09405	12373.175
2377.91118	12363.075
2380.72652	12355.375
2383.54009	12313.775
2386.35187	12317.575
2389.16188	12245.575
2391.97011	12205.575
2394.77657	12156.375
2397.58125	12110.475
2400.38416	12103.475
2403.18529	12089.675
2405.98466	12064.775
2408.78226	12047.575
2411.57809	12071.875
2414.37216	12051.775
2417.16446	12065.875
2419.955	12019.975
2422.74378	12020.275
2425.5308	11982.475
2428.31606	11985.575
2431.09956	11969.675
2433.88131	11908.375
2436.6613	11958.175
2439.43954	11933.775
2442.21603	11946.375
2444.99077	11879.075
2447.76377	11902.875
2450.53501	11893.375
2453.30451	11828.675
2456.07226	11860.675
2458.83827	11811.675
2461.60254	11791.475
2464.36507	11808.975
2467.12586	11805.975
2469.88492	11794.875
2472.64224	11765.175
2475.39782	11756.075
2478.15167	11792.375
2480.90379	11787.675
2483.65417	11765.775
2486.40283	11763.175
2489.14976	11784.575
2491.89497	11749.875
2494.63845	11771.775
2497.3802	11764.775
2500.12024	11747.475
2502.85855	11730.375
2505.59514	11728.175
2508.33002	11707.975
2511.06318	11675.675
2513.79462	11672.975
2516.52435	11664.575
2519.25237	11639.775
2521.97867	11635.775
2524.70327	11583.175
2527.42616	11595.375
2530.14734	11583.575
2532.86681	11568.775
2535.58458	11568.675
2538.30065	11561.375
2541.01501	11525.575
2543.72768	11513.675
2546.43864	11501.575
2549.14791	11461.875
2551.85548	11476.675
2554.56136	11439.375
2557.26554	11418.775
2559.96803	11388.875
2562.66883	11359.975
2565.36794	11359.575
2568.06536	11358.975
2570.7611	11343.275
2573.45514	11297.075
2576.14751	11324.775
2578.83819	11288.475
2581.52719	11270.075
2584.21451	11260.075
2586.90015	11234.775
2589.58411	11216.675
2592.2664	11197.975
2594.94701	11197.375
2597.62594	11198.675
2600.30321	11163.275
2602.9788	11150.675
2605.65273	11154.975
2608.32498	11180.875
2610.99557	11175.675
2613.66449	11157.275
2616.33175	11127.675
2618.99734	11112.675
2621.66128	11101.075
2624.32355	11100.275
2626.98416	11084.175
2629.64311	11052.975
2632.30041	11030.775
2634.95605	11021.875
2637.61004	11012.475
2640.26238	11031.375
2642.91306	11011.175
2645.56209	11011.275
2648.20948	11018.275
2650.85521	11026.175
2653.4993	11001.975
2656.14175	10998.175
2658.78255	11019.975
2661.42171	11020.675
2664.05923	10976.675
2666.6951	10969.175
2669.32934	11030.675
2671.96194	10994.475
2674.59291	10987.175
2677.22224	11005.075
2679.84993	10998.875
2682.476	10974.575
2685.10043	10963.875
2687.72324	10962.575
2690.34441	10968.775
2692.96396	10944.975
2695.58188	10936.175
2698.19818	10962.375
2700.81285	10962.975
2703.4259	10938.075
2706.03733	10985.875
2708.64714	10966.075
2711.25533	10974.275
2713.86191	10956.975
2716.46687	10947.375
2719.07021	10983.275
2721.67194	10972.875
2724.27206	10956.475
2726.87057	10983.775
2729.46747	11012.875
2732.06276	10997.575
2734.65644	10961.675
2737.24852	10969.075
2739.83899	10951.175
2742.42786	10951.575
2745.01513	10938.175
2747.60079	10926.875
2750.18486	10888.275
2752.76733	10879.275
2755.3482	10857.775
2757.92747	10841.275
2760.50515	10831.075
2763.08123	10873.375
2765.65573	10859.275
2768.22863	10847.375
2770.79994	10831.975
2773.36967	10810.775
2775.9378	10823.375
2778.50435	10828.375
2781.06932	10780.875
2783.6327	10791.975
2786.1945	10803.375
2788.75471	10769.375
2791.31335	10768.375
2793.87041	10774.575
2796.42589	10739.875
2798.97979	10734.775
2801.53212	10707.475
2804.08288	10701.775
2806.63206	10635.175
2809.17967	10637.575
2811.72571	10633.075
2814.27018	10614.375
2816.81308	10564.775
2819.35442	10546.975
2821.89419	10511.675
2824.43239	10507.975
2826.96904	10527.875
2829.50412	10531.675
2832.03763	10467.275
2834.56959	10485.275
2837.1	10459.375
2839.62884	10496.875
2842.15613	10506.975
2844.68186	10574.075
2847.20604	10607.475
2849.72867	10612.275
2852.24974	10600.075
2854.76927	10582.875
2857.28724	10582.275
2859.80367	10534.775
2862.31855	10513.675
2864.83189	10488.175
2867.34368	10481.375
2869.85393	10464.075
2872.36264	10447.975
2874.8698	10466.475
2877.37543	10470.075
2879.87952	10432.675
2882.38207	10410.975
2884.88308	10396.475
2887.38256	10412.075
2889.88051	10394.975
2892.37692	10411.075
2894.8718	10392.675
2897.36515	10417.775
2899.85698	10386.875
2902.34727	10410.875
2904.83604	10408.575
2907.32328	10442.175
2909.809	10461.375
2912.29319	10462.675
2914.77587	10423.775
2917.25702	10401.675
2919.73665	10401.675
2922.21476	10419.475
2924.69136	10422.475
2927.16644	10409.275
2929.64	10416.775
2932.11205	10368.175
2934.58258	10326.475
2937.05161	10338.975
2939.51912	10306.175
2941.98513	10292.275
2944.44962	10275.675
2946.91261	10187.575
2949.37409	10211.275
2951.83407	10213.475
2954.29254	10179.375
2956.74951	10141.075
2959.20498	10157.575
2961.65895	10136.975
2964.11142	10108.675
2966.56239	10082.775
2969.01186	10074.675
2971.45984	10050.075
2973.90632	10060.275
2976.35131	10030.775
2978.7948	10020.975
2981.23681	9962.975
2983.67732	9956.375
2986.11635	9918.775
2988.55388	9883.475
2990.98993	9848.175
2993.4245	9808.575
2995.85758	9799.775
2998.28917	9784.175
3000.71928	9732.875
3003.14791	9729.775
3005.57506	9676.775
3008.00073	9658.675
3010.42493	9645.975
3012.84764	9645.875
3015.26888	9634.375
3017.68865	9563.475
3020.10694	9543.375
3022.52376	9521.375
3024.9391	9523.575
3027.35298	9492.775
3029.76539	9505.275
3032.17632	9482.075
3034.5858	9461.875
3036.9938	9453.875
3039.40034	9450.475
3041.80542	9449.175
3044.20903	9425.275
3046.61118	9416.375
3049.01187	9386.775
3051.4111	9396.075
3053.80888	9355.575
3056.20519	9345.075
3058.60005	9291.075
3060.99345	9272.675
3063.3854	9259.275
3065.7759	9188.075
3068.16494	9167.275
3070.55254	9134.275
3072.93868	9097.475
3075.32338	9080.875
3077.70662	9060.675
3080.08842	9022.675
3082.46878	8985.775
3084.84769	9006.975
3087.22515	8982.975
3089.60118	8983.175
3091.97576	8949.375
3094.3489	8961.875
3096.72061	8971.175
3099.09087	8970.575
3101.4597	8973.375
3103.82709	8957.475
3106.19305	8925.875
3108.55757	8934.675
3110.92066	8876.375
3113.28232	8873.475
3115.64255	8830.375
3118.00134	8815.375
3120.35871	8826.575
3122.71466	8795.375
3125.06917	8783.375
3127.42226	8720.875
3129.77393	8732.175
3132.12417	8709.475
3134.47299	8740.075
