Data from AgNPs_FTO_APTES_UA_5uM_CRN_10uM_R6G_10uM_NaF_0.1M_Addition_RamanShift__12__12-37-16-727.txt Node

Date: Mon Feb 07 12:37:16 GMT 2022
User: TCL
Spectrometer: QEP01345
Trigger mode: 4
Integration Time (sec): 7.000000E0
Scans to average: 10
Electric dark correction enabled: true
Nonlinearity correction enabled: false
Boxcar width: 0
XAxis mode: Raman Shifts
Number of Pixels in Spectrum: 1044
>>>>>Begin Spectral Data<<<<<
46.04893	-0.5375
50.45542	-1.6375
54.85868	0.2625
59.25871	-0.5375
63.6555	88.1625
68.04907	92.9625
72.43941	98.0625
76.82654	98.7625
81.21044	101.1625
85.59113	108.4625
89.96862	112.3625
94.34289	112.8625
98.71396	120.2625
103.08183	119.0625
107.4465	127.7625
111.80798	128.4625
116.16626	136.2625
120.52136	139.4625
124.87327	147.7625
129.222	159.5625
133.56755	168.9625
137.90993	186.2625
142.24913	202.6625
146.58517	235.0625
150.91804	276.6625
155.24774	337.6625
159.57429	424.5625
163.89768	553.9625
168.21792	742.2625
172.53501	1006.1625
176.84895	1410.8625
181.15975	1982.3625
185.46741	2787.8625
189.77193	3842.9625
194.07331	5140.9625
198.37157	6628.5625
202.6667	8188.0625
206.9587	9728.6625
211.24758	11261.7625
215.53334	12712.1625
219.81599	14283.4625
224.09553	16027.0625
228.37195	17901.2625
232.64527	19988.7625
236.91549	22135.3625
241.18261	24346.8625
245.44663	26487.9625
249.70755	28339.6625
253.96539	30043.7625
258.22014	31442.1625
262.4718	32527.7625
266.72039	33273.6625
270.96589	33713.7625
275.20832	33845.5625
279.44768	33751.4625
283.68397	33573.7625
287.91719	33440.4625
292.14735	33340.9625
296.37445	33334.5625
300.59849	33412.2625
304.81948	33477.7625
309.03742	33493.6625
313.25231	33201.5625
317.46415	32605.3625
321.67296	31847.7625
325.87872	31171.6625
330.08145	30804.4625
334.28114	30688.8625
338.47781	30833.9625
342.67145	31121.9625
346.86207	31439.8625
351.04966	31809.9625
355.23424	32200.0625
359.4158	32594.6625
363.59435	32898.5625
367.76989	33072.8625
371.94243	33124.5625
376.11196	33162.5625
380.27849	33164.3625
384.44203	33181.8625
388.60257	33327.3625
392.76012	33785.4625
396.91468	34397.7625
401.06626	35066.5625
405.21485	35440.1625
409.36047	35320.9625
413.50311	34941.8625
417.64277	34730.1625
421.77947	34860.8625
425.9132	35106.2625
430.04396	35330.0625
434.17176	35474.8625
438.2966	35615.7625
442.41849	35993.7625
446.53742	36681.7625
450.6534	37534.5625
454.76644	38077.6625
458.87653	38304.5625
462.98368	38345.9625
467.08789	38176.0625
471.18916	37805.8625
475.2875	37505.1625
479.38291	37456.2625
483.4754	37423.1625
487.56496	37206.1625
491.6516	36622.0625
495.73531	35880.7625
499.81612	35325.3625
503.89401	35293.1625
507.96899	35424.3625
512.04106	35530.8625
516.11023	35368.7625
520.1765	34976.3625
524.23987	34389.5625
528.30034	33813.3625
532.35792	33415.4625
536.41261	33064.6625
540.46441	32809.8625
544.51333	32868.9625
548.55936	33287.0625
552.60252	34036.4625
556.64279	34842.2625
560.6802	35514.9625
564.71473	36183.0625
568.7464	37201.5625
572.7752	38812.9625
576.80114	40915.7625
580.82422	42734.0625
584.84444	44172.4625
588.86181	45599.5625
592.87633	46944.0625
596.888	46793.8625
600.89682	44592.7625
604.9028	42948.4625
608.90594	43282.3625
612.90624	43958.2625
616.90371	40926.5625
620.89834	36063.4625
624.89015	34047.1625
628.87913	34128.1625
632.86528	34526.6625
636.84862	34520.0625
640.82913	33777.8625
644.80683	32857.5625
648.78172	32279.3625
652.75379	32119.3625
656.72306	32313.8625
660.68952	32669.2625
664.65319	32540.0625
668.61405	32220.6625
672.57211	32180.5625
676.52738	32192.9625
680.47986	32109.4625
684.42955	31918.9625
688.37646	31867.5625
692.32058	32051.9625
696.26192	32390.0625
700.20048	32766.8625
704.13626	33121.6625
708.06928	33419.6625
711.99952	33496.8625
715.927	33389.8625
719.85171	33212.5625
723.77365	32851.5625
727.69284	32264.1625
731.60928	31791.6625
735.52295	31447.0625
739.43388	31364.2625
743.34206	31403.4625
747.24749	31670.1625
751.15017	32079.9625
755.05012	32789.7625
758.94733	33783.0625
762.8418	35361.4625
766.73354	37483.0625
770.62254	39294.4625
774.50882	39069.2625
778.39237	37248.5625
782.27321	34977.3625
786.15132	33273.7625
790.02671	32211.4625
793.89938	31520.8625
797.76935	31173.6625
801.6366	30994.4625
805.50115	30897.5625
809.36299	30722.9625
813.22213	30590.7625
817.07857	30629.8625
820.93231	30541.2625
824.78336	30370.1625
828.63172	30166.5625
832.47738	29995.5625
836.32036	29919.3625
840.16066	29907.8625
843.99827	29902.3625
847.8332	29902.2625
851.66546	29959.8625
855.49504	30021.4625
859.32195	29986.8625
863.1462	29876.0625
866.96777	29791.9625
870.78668	29746.6625
874.60293	29750.2625
878.41652	29726.0625
882.22745	29747.9625
886.03573	29853.1625
889.84136	29854.9625
893.64433	29747.1625
897.44466	29666.4625
901.24235	29632.7625
905.0374	29578.4625
908.8298	29611.0625
912.61957	29748.7625
916.40671	30226.6625
920.19121	30906.0625
923.97308	31274.2625
927.75233	31102.1625
931.52895	30540.9625
935.30295	29836.0625
939.07433	29179.0625
942.84309	28764.6625
946.60924	28458.2625
950.37278	28332.6625
954.13371	28283.5625
957.89203	28327.7625
961.64774	28356.8625
965.40086	28322.0625
969.15137	28286.8625
972.89929	28108.1625
976.64461	27919.7625
980.38733	27839.1625
984.12747	27802.5625
987.86502	27894.2625
991.59999	27931.2625
995.33237	28097.4625
999.06217	28483.7625
1002.78939	28897.3625
1006.51404	29367.3625
1010.23611	29861.5625
1013.95561	30248.6625
1017.67255	30298.3625
1021.38692	30013.5625
1025.09872	29541.0625
1028.80796	29158.3625
1032.51465	28997.8625
1036.21877	29072.9625
1039.92035	29204.7625
1043.61937	29360.2625
1047.31584	29516.0625
1051.00976	29678.9625
1054.70114	29954.8625
1058.38998	30285.9625
1062.07627	30747.9625
1065.76003	31337.7625
1069.44126	31875.3625
1073.11995	32428.2625
1076.79611	32864.1625
1080.46974	32949.1625
1084.14085	33040.0625
1087.80943	33390.5625
1091.47549	33854.8625
1095.13903	34131.1625
1098.80005	33777.6625
1102.45857	32767.8625
1106.11456	31775.7625
1109.76805	31220.0625
1113.41903	31119.4625
1117.06751	31134.6625
1120.71348	31414.5625
1124.35696	31739.3625
1127.99793	32043.5625
1131.63641	32327.9625
1135.2724	32486.0625
1138.90589	32557.3625
1142.5369	32797.4625
1146.16542	33186.8625
1149.79145	33743.6625
1153.415	34348.8625
1157.03607	35081.3625
1160.65467	36142.5625
1164.27079	37899.5625
1167.88443	39878.4625
1171.49561	41887.1625
1175.10432	44140.8625
1178.71056	46734.4625
1182.31434	49295.5625
1185.91565	50796.9625
1189.51451	51048.3625
1193.11091	50554.2625
1196.70485	49191.2625
1200.29634	47482.4625
1203.88538	46353.0625
1207.47197	46305.3625
1211.05612	46523.2625
1214.63782	46106.8625
1218.21708	44550.2625
1221.79391	42569.5625
1225.36829	40916.7625
1228.94024	39872.8625
1232.50976	39217.2625
1236.07685	38866.8625
1239.6415	38609.6625
1243.20374	38694.4625
1246.76355	39009.0625
1250.32093	39585.0625
1253.8759	40426.4625
1257.42845	41581.1625
1260.97859	42866.3625
1264.52631	44159.0625
1268.07163	45508.5625
1271.61453	46841.7625
1275.15503	48285.9625
1278.69312	49922.6625
1282.22882	51795.2625
1285.76211	54041.6625
1289.29301	56548.6625
1292.82151	59456.8625
1296.34761	62891.1625
1299.87133	66559.4625
1303.39266	69827.1625
1306.9116	72106.2625
1310.42815	73303.8625
1313.94233	73420.1625
1317.45412	72905.5625
1320.96354	72569.3625
1324.47058	72645.6625
1327.97525	73208.2625
1331.47754	73610.7625
1334.97747	73766.6625
1338.47502	73570.2625
1341.97022	73304.1625
1345.46305	72594.7625
1348.95352	71394.2625
1352.44163	69888.7625
1355.92738	68756.4625
1359.41078	68715.9625
1362.89183	69002.0625
1366.37053	67898.5625
1369.84688	64239.5625
1373.32088	58973.3625
1376.79254	55004.0625
1380.26186	53727.5625
1383.72883	54126.1625
1387.19347	54799.0625
1390.65578	54643.0625
1394.11575	54389.4625
1397.57339	54770.4625
1401.0287	55524.3625
1404.48168	55922.7625
1407.93234	55435.0625
1411.38068	53722.5625
1414.82669	51232.0625
1418.27039	48526.9625
1421.71177	46007.5625
1425.15083	44244.3625
1428.58758	43480.5625
1432.02203	43903.5625
1435.45416	45189.3625
1438.88399	46807.6625
1442.31151	48024.3625
1445.73673	48901.2625
1449.15965	49676.4625
1452.58027	50349.4625
1455.9986	50760.2625
1459.41463	51284.2625
1462.82837	51997.8625
1466.23982	52808.6625
1469.64898	53428.7625
1473.05586	53754.4625
1476.46045	53601.6625
1479.86276	53123.3625
1483.26279	52600.7625
1486.66054	52420.1625
1490.05602	52640.2625
1493.44922	53214.5625
1496.84016	54056.3625
1500.22882	55051.5625
1503.61521	56089.3625
1506.99934	57177.3625
1510.38121	57954.0625
1513.76081	58222.4625
1517.13816	58155.0625
1520.51324	58075.0625
1523.88607	58430.2625
1527.25665	58967.2625
1530.62498	59159.7625
1533.99105	58617.9625
1537.35488	57362.1625
1540.71647	55434.3625
1544.07581	53157.5625
1547.4329	50967.3625
1550.78776	49354.4625
1554.14038	48334.7625
1557.49077	47686.2625
1560.83892	47341.7625
1564.18484	47151.7625
1567.52853	47174.8625
1570.86999	47646.9625
1574.20922	48778.2625
1577.54624	50032.2625
1580.88103	50967.0625
1584.2136	51947.5625
1587.54395	53660.8625
1590.87208	56008.3625
1594.19801	58595.5625
1597.52172	60462.6625
1600.84321	60077.9625
1604.16251	56746.7625
1607.47959	52127.1625
1610.79447	47807.3625
1614.10715	43785.2625
1617.41763	40502.8625
1620.7259	38137.3625
1624.03199	36864.8625
1627.33587	36915.6625
1630.63757	38117.4625
1633.93707	41008.0625
1637.23439	45757.2625
1640.52951	52720.0625
1643.82246	60766.6625
1647.11321	67240.1625
1650.40179	68633.8625
1653.68819	63842.9625
1656.97241	55235.3625
1660.25446	46400.7625
1663.53433	39518.6625
1666.81203	34824.6625
1670.08756	31817.7625
1673.36092	29945.8625
1676.63211	28750.2625
1679.90115	27924.1625
1683.16801	27313.8625
1686.43272	26868.8625
1689.69527	26495.1625
1692.95567	26263.3625
1696.2139	26043.7625
1699.46999	25850.9625
1702.72392	25719.5625
1705.97571	25606.5625
1709.22535	25527.8625
1712.47284	25417.6625
1715.71819	25345.0625
1718.96139	25215.4625
1722.20246	25109.5625
1725.44139	24948.9625
1728.67818	24806.3625
1731.91284	24608.9625
1735.14537	24452.2625
1738.37576	24326.4625
1741.60403	24190.9625
1744.83017	24110.8625
1748.05418	23999.5625
1751.27607	23935.4625
1754.49584	23828.2625
1757.71349	23815.8625
1760.92903	23782.0625
1764.14244	23737.2625
1767.35375	23705.7625
1770.56294	23673.5625
1773.77002	23571.9625
1776.97499	23482.6625
1780.17785	23473.7625
1783.37861	23394.2625
1786.57727	23342.3625
1789.77382	23284.8625
1792.96828	23239.9625
1796.16064	23179.4625
1799.3509	23103.8625
1802.53907	23043.9625
1805.72514	22934.5625
1808.90913	22911.5625
1812.09102	22837.0625
1815.27083	22776.2625
1818.44856	22734.7625
1821.6242	22658.4625
1824.79776	22633.9625
1827.96924	22626.7625
1831.13864	22593.3625
1834.30597	22624.4625
1837.47122	22614.5625
1840.6344	22580.8625
1843.7955	22596.2625
1846.95454	22608.1625
1850.11151	22548.4625
1853.26642	22555.7625
1856.41926	22513.5625
1859.57004	22510.6625
1862.71876	22440.9625
1865.86542	22389.2625
1869.01003	22304.5625
1872.15258	22275.8625
1875.29308	22250.3625
1878.43152	22205.1625
1881.56792	22134.0625
1884.70227	22141.2625
1887.83457	22062.4625
1890.96482	21996.2625
1894.09304	21949.3625
1897.21921	21942.8625
1900.34335	21920.8625
1903.46544	21881.5625
1906.58551	21851.7625
1909.70353	21785.3625
1912.81953	21728.1625
1915.93349	21670.6625
1919.04543	21619.0625
1922.15534	21566.0625
1925.26322	21524.1625
1928.36908	21464.1625
1931.47292	21395.5625
1934.57473	21305.9625
1937.67453	21197.6625
1940.77232	21160.2625
1943.86808	21100.4625
1946.96184	21057.5625
1950.05358	20965.0625
1953.14331	20917.0625
1956.23103	20848.8625
1959.31675	20780.7625
1962.40046	20748.4625
1965.48217	20617.1625
1968.56188	20569.0625
1971.63959	20491.6625
1974.7153	20440.0625
1977.78901	20335.5625
1980.86073	20224.8625
1983.93046	20169.2625
1986.99819	20091.4625
1990.06394	20024.0625
1993.1277	20014.0625
1996.18947	19907.7625
1999.24925	19880.2625
2002.30706	19786.4625
2005.36288	19740.8625
2008.41672	19679.6625
2011.46859	19595.2625
2014.51848	19537.9625
2017.56639	19474.9625
2020.61233	19399.4625
2023.6563	19331.0625
2026.6983	19275.3625
2029.73833	19225.0625
2032.7764	19176.9625
2035.8125	19121.9625
2038.84664	19072.6625
2041.87881	19030.6625
2044.90903	18972.1625
2047.93729	18933.3625
2050.96359	18897.3625
2053.98794	18864.8625
2057.01034	18839.6625
2060.03078	18864.4625
2063.04927	18839.9625
2066.06582	18860.2625
2069.08042	18816.7625
2072.09307	18808.3625
2075.10378	18737.8625
2078.11255	18740.6625
2081.11938	18724.1625
2084.12426	18685.4625
2087.12722	18694.2625
2090.12824	18679.5625
2093.12732	18629.5625
2096.12447	18670.2625
2099.11969	18664.1625
2102.11299	18649.9625
2105.10435	18615.0625
2108.09379	18619.3625
2111.08131	18651.1625
2114.0669	18641.1625
2117.05057	18642.3625
2120.03233	18678.3625
2123.01216	18667.7625
2125.99008	18687.9625
2128.96609	18695.4625
2131.94018	18655.7625
2134.91236	18598.7625
2137.88263	18634.5625
2140.851	18649.6625
2143.81746	18683.3625
2146.78201	18594.3625
2149.74466	18587.1625
2152.7054	18613.9625
2155.66425	18537.8625
2158.6212	18533.5625
2161.57625	18498.2625
2164.52941	18495.6625
2167.48067	18505.9625
2170.43004	18510.9625
2173.37752	18459.9625
2176.32311	18469.6625
2179.26681	18458.4625
2182.20863	18439.3625
2185.14856	18445.5625
2188.08661	18424.9625
2191.02278	18436.8625
2193.95707	18405.2625
2196.88948	18356.1625
2199.82001	18349.1625
2202.74867	18262.1625
2205.67545	18235.5625
2208.60037	18209.4625
2211.52341	18200.8625
2214.44458	18206.8625
2217.36388	18165.9625
2220.28132	18076.5625
2223.1969	18020.0625
2226.11061	18044.3625
2229.02246	17981.2625
2231.93245	17935.6625
2234.84058	17918.3625
2237.74686	17897.1625
2240.65128	17859.1625
2243.55385	17836.4625
2246.45456	17806.8625
2249.35343	17760.9625
2252.25044	17711.7625
2255.14561	17638.9625
2258.03893	17594.5625
2260.93041	17540.1625
2263.82004	17488.5625
2266.70783	17434.7625
2269.59378	17383.6625
2272.4779	17320.8625
2275.36017	17279.7625
2278.24061	17254.9625
2281.11922	17182.6625
2283.996	17159.4625
2286.87094	17117.8625
2289.74405	17119.7625
2292.61534	17077.8625
2295.4848	16997.8625
2298.35243	16991.0625
2301.21824	17011.7625
2304.08223	17004.3625
2306.94439	16966.3625
2309.80474	16941.8625
2312.66327	16947.2625
2315.51999	16923.7625
2318.37489	16879.6625
2321.22797	16846.1625
2324.07925	16808.8625
2326.92871	16801.3625
2329.77637	16742.1625
2332.62222	16717.2625
2335.46626	16709.7625
2338.3085	16695.0625
2341.14893	16664.2625
2343.98756	16692.8625
2346.8244	16687.1625
2349.65943	16636.4625
2352.49267	16647.8625
2355.32411	16666.7625
2358.15376	16641.5625
2360.98161	16656.2625
2363.80768	16655.5625
2366.63195	16634.5625
2369.45444	16613.4625
2372.27514	16608.7625
2375.09405	16574.4625
2377.91118	16523.1625
2380.72652	16451.6625
2383.54009	16426.3625
2386.35187	16446.2625
2389.16188	16359.2625
2391.97011	16302.7625
2394.77657	16281.0625
2397.58125	16269.2625
2400.38416	16237.7625
2403.18529	16207.0625
2405.98466	16186.8625
2408.78226	16182.7625
2411.57809	16123.0625
2414.37216	16113.9625
2417.16446	16139.0625
2419.955	16105.1625
2422.74378	16099.2625
2425.5308	16032.8625
2428.31606	16016.1625
2431.09956	16055.8625
2433.88131	16012.1625
2436.6613	16017.7625
2439.43954	15986.8625
2442.21603	15966.3625
2444.99077	15931.7625
2447.76377	15956.1625
2450.53501	15977.7625
2453.30451	15937.9625
2456.07226	15885.2625
2458.83827	15885.8625
2461.60254	15874.2625
2464.36507	15866.9625
2467.12586	15822.5625
2469.88492	15831.6625
2472.64224	15875.1625
2475.39782	15880.0625
2478.15167	15855.1625
2480.90379	15832.9625
2483.65417	15821.5625
2486.40283	15819.2625
2489.14976	15819.8625
2491.89497	15800.0625
2494.63845	15811.7625
2497.3802	15810.8625
2500.12024	15815.2625
2502.85855	15770.2625
2505.59514	15763.6625
2508.33002	15767.4625
2511.06318	15757.0625
2513.79462	15735.3625
2516.52435	15712.2625
2519.25237	15697.2625
2521.97867	15717.3625
2524.70327	15694.0625
2527.42616	15642.9625
2530.14734	15681.1625
2532.86681	15650.0625
2535.58458	15647.4625
2538.30065	15601.1625
2541.01501	15624.7625
2543.72768	15578.4625
2546.43864	15602.4625
2549.14791	15580.0625
2551.85548	15540.2625
2554.56136	15476.0625
2557.26554	15477.8625
2559.96803	15478.5625
2562.66883	15421.2625
2565.36794	15418.4625
2568.06536	15415.9625
2570.7611	15364.1625
2573.45514	15391.0625
2576.14751	15349.3625
2578.83819	15318.5625
2581.52719	15302.2625
2584.21451	15312.3625
2586.90015	15304.8625
2589.58411	15281.8625
2592.2664	15273.8625
2594.94701	15253.9625
2597.62594	15270.1625
2600.30321	15221.4625
2602.9788	15232.0625
2605.65273	15209.2625
2608.32498	15237.6625
2610.99557	15211.9625
2613.66449	15220.6625
2616.33175	15219.2625
2618.99734	15167.0625
2621.66128	15152.9625
2624.32355	15124.1625
2626.98416	15147.1625
2629.64311	15128.5625
2632.30041	15097.4625
2634.95605	15120.3625
2637.61004	15089.4625
2640.26238	15082.8625
2642.91306	15104.7625
2645.56209	15091.5625
2648.20948	15103.9625
2650.85521	15094.0625
2653.4993	15114.5625
2656.14175	15100.3625
2658.78255	15113.1625
2661.42171	15118.9625
2664.05923	15137.8625
2666.6951	15101.8625
2669.32934	15153.2625
2671.96194	15136.8625
2674.59291	15134.6625
2677.22224	15149.4625
2679.84993	15141.1625
2682.476	15154.2625
2685.10043	15136.3625
2687.72324	15127.6625
2690.34441	15118.4625
2692.96396	15094.5625
2695.58188	15094.8625
2698.19818	15096.7625
2700.81285	15133.3625
2703.4259	15087.8625
2706.03733	15144.5625
2708.64714	15109.2625
2711.25533	15084.4625
2713.86191	15081.5625
2716.46687	15101.2625
2719.07021	15125.5625
2721.67194	15136.7625
2724.27206	15116.0625
2726.87057	15199.6625
2729.46747	15140.8625
2732.06276	15198.4625
2734.65644	15185.3625
2737.24852	15152.3625
2739.83899	15158.5625
2742.42786	15159.7625
2745.01513	15129.5625
2747.60079	15109.4625
2750.18486	15080.9625
2752.76733	15064.8625
2755.3482	15053.8625
2757.92747	15057.9625
2760.50515	15022.6625
2763.08123	15057.7625
2765.65573	15037.2625
2768.22863	15050.2625
2770.79994	14997.3625
2773.36967	15012.0625
2775.9378	14998.8625
2778.50435	15026.6625
2781.06932	14971.0625
2783.6327	15019.3625
2786.1945	15000.4625
2788.75471	14985.9625
2791.31335	14966.6625
2793.87041	14922.9625
2796.42589	14866.1625
2798.97979	14891.4625
2801.53212	14834.3625
2804.08288	14829.8625
2806.63206	14804.0625
2809.17967	14756.4625
2811.72571	14721.0625
2814.27018	14718.8625
2816.81308	14689.6625
2819.35442	14645.8625
2821.89419	14606.1625
2824.43239	14594.4625
2826.96904	14597.0625
2829.50412	14604.6625
2832.03763	14536.7625
2834.56959	14483.7625
2837.1	14501.1625
2839.62884	14500.4625
2842.15613	14491.3625
2844.68186	14558.2625
2847.20604	14555.9625
2849.72867	14500.6625
2852.24974	14497.3625
2854.76927	14504.8625
2857.28724	14510.3625
2859.80367	14480.5625
2862.31855	14411.3625
2864.83189	14412.6625
2867.34368	14384.5625
2869.85393	14357.0625
2872.36264	14317.6625
2874.8698	14287.2625
2877.37543	14294.9625
2879.87952	14271.2625
2882.38207	14281.5625
2884.88308	14254.7625
2887.38256	14284.9625
2889.88051	14232.9625
2892.37692	14251.2625
2894.8718	14259.0625
2897.36515	14275.3625
2899.85698	14242.7625
2902.34727	14285.4625
2904.83604	14300.1625
2907.32328	14301.3625
2909.809	14296.9625
2912.29319	14320.0625
2914.77587	14299.5625
2917.25702	14323.1625
2919.73665	14299.8625
2922.21476	14284.1625
2924.69136	14257.0625
2927.16644	14286.2625
2929.64	14211.5625
2932.11205	14236.3625
2934.58258	14177.3625
2937.05161	14194.0625
2939.51912	14195.8625
2941.98513	14185.6625
2944.44962	14138.2625
2946.91261	14065.8625
2949.37409	14080.7625
2951.83407	14080.3625
2954.29254	14049.1625
2956.74951	14020.1625
2959.20498	13998.3625
2961.65895	13976.7625
2964.11142	13975.7625
2966.56239	13929.2625
2969.01186	13957.9625
2971.45984	13915.8625
2973.90632	13911.9625
2976.35131	13870.0625
2978.7948	13809.3625
2981.23681	13771.4625
2983.67732	13761.5625
2986.11635	13689.7625
2988.55388	13683.9625
2990.98993	13648.4625
2993.4245	13587.7625
2995.85758	13536.0625
2998.28917	13473.3625
3000.71928	13482.1625
3003.14791	13447.9625
3005.57506	13433.0625
3008.00073	13368.6625
3010.42493	13221.7625
3012.84764	13279.4625
3015.26888	13297.4625
3017.68865	13238.3625
3020.10694	13221.5625
3022.52376	13189.2625
