Data from AgNPs_FTO_APTES_UA_5uM_CRN_100uM_R6G_10uM_NaF_0.1M_Addition_RamanShift__10__14-47-56-877.txt Node

Date: Mon Feb 07 14:47:56 GMT 2022
User: TCL
Spectrometer: QEP01345
Trigger mode: 4
Integration Time (sec): 7.000000E0
Scans to average: 10
Electric dark correction enabled: true
Nonlinearity correction enabled: false
Boxcar width: 0
XAxis mode: Raman Shifts
Number of Pixels in Spectrum: 1044
>>>>>Begin Spectral Data<<<<<
46.04893	-0.2875
50.45542	-1.0875
54.85868	-0.6875
59.25871	0.1125
63.6555	60.9125
68.04907	62.2125
72.43941	67.4125
76.82654	72.1125
81.21044	73.9125
85.59113	78.2125
89.96862	82.6125
94.34289	77.8125
98.71396	86.6125
103.08183	90.1125
107.4465	89.1125
111.80798	93.3125
116.16626	97.5125
120.52136	99.8125
124.87327	106.5125
129.222	113.8125
133.56755	118.4125
137.90993	133.6125
142.24913	143.6125
146.58517	174.3125
150.91804	196.5125
155.24774	237.4125
159.57429	298.9125
163.89768	389.1125
168.21792	513.8125
172.53501	707.5125
176.84895	992.5125
181.15975	1401.2125
185.46741	1966.0125
189.77193	2718.0125
194.07331	3637.8125
198.37157	4672.3125
202.6667	5790.2125
206.9587	6871.6125
211.24758	7944.5125
215.53334	9011.0125
219.81599	10113.1125
224.09553	11341.8125
228.37195	12685.8125
232.64527	14102.0125
236.91549	15629.4125
241.18261	17187.5125
245.44663	18676.9125
249.70755	20058.1125
253.96539	21248.1125
258.22014	22288.7125
262.4718	23134.8125
266.72039	23692.2125
270.96589	24038.7125
275.20832	24138.9125
279.44768	24106.8125
283.68397	24052.2125
287.91719	23989.6125
292.14735	23984.5125
296.37445	24022.5125
300.59849	24158.3125
304.81948	24180.2125
309.03742	24099.2125
313.25231	23782.0125
317.46415	23245.9125
321.67296	22668.9125
325.87872	22094.9125
330.08145	21832.8125
334.28114	21751.6125
338.47781	21859.9125
342.67145	21999.2125
346.86207	22227.3125
351.04966	22497.1125
355.23424	22738.2125
359.4158	22952.2125
363.59435	23218.7125
367.76989	23364.4125
371.94243	23446.2125
376.11196	23474.6125
380.27849	23521.4125
384.44203	23573.0125
388.60257	23714.5125
392.76012	24016.1125
396.91468	24380.7125
401.06626	24801.2125
405.21485	25085.6125
409.36047	25023.5125
413.50311	24763.7125
417.64277	24665.9125
421.77947	24744.5125
425.9132	24905.0125
430.04396	25057.1125
434.17176	25169.4125
438.2966	25316.7125
442.41849	25653.6125
446.53742	26188.6125
450.6534	26831.6125
454.76644	27295.9125
458.87653	27542.3125
462.98368	27645.5125
467.08789	27470.5125
471.18916	27326.2125
475.2875	27273.4125
479.38291	27289.5125
483.4754	27258.7125
487.56496	26976.2125
491.6516	26357.2125
495.73531	25730.4125
499.81612	25308.7125
503.89401	25283.4125
507.96899	25342.1125
512.04106	25412.7125
516.11023	25248.2125
520.1765	24890.2125
524.23987	24461.6125
528.30034	24080.7125
532.35792	23881.5125
536.41261	23662.8125
540.46441	23494.3125
544.51333	23625.5125
548.55936	23974.8125
552.60252	24527.7125
556.64279	25176.6125
560.6802	25733.7125
564.71473	26203.4125
568.7464	26918.4125
572.7752	28032.2125
576.80114	29389.5125
580.82422	30436.5125
584.84444	31201.8125
588.86181	32009.6125
592.87633	32647.4125
596.888	32113.5125
600.89682	30724.7125
604.9028	30002.2125
608.90594	30361.9125
612.90624	30804.6125
616.90371	28780.9125
620.89834	25346.3125
624.89015	23981.9125
628.87913	24007.9125
632.86528	24285.4125
636.84862	24340.6125
640.82913	23967.6125
644.80683	23425.5125
648.78172	23067.0125
652.75379	22952.9125
656.72306	23090.0125
660.68952	23283.7125
664.65319	23145.0125
668.61405	22943.6125
672.57211	22903.5125
676.52738	22989.1125
680.47986	22954.5125
684.42955	22856.4125
688.37646	22825.9125
692.32058	22866.8125
696.26192	23144.2125
700.20048	23415.3125
704.13626	23658.5125
708.06928	23836.8125
711.99952	23850.1125
715.927	23756.6125
719.85171	23693.2125
723.77365	23482.8125
727.69284	23150.3125
731.60928	22790.8125
735.52295	22634.5125
739.43388	22566.5125
743.34206	22634.4125
747.24749	22727.0125
751.15017	23064.0125
755.05012	23589.3125
758.94733	24309.4125
762.8418	25418.7125
766.73354	26922.9125
770.62254	28120.4125
774.50882	27932.7125
778.39237	26568.9125
782.27321	24975.1125
786.15132	23778.7125
790.02671	23048.5125
793.89938	22625.4125
797.76935	22398.1125
801.6366	22336.5125
805.50115	22273.2125
809.36299	22159.0125
813.22213	22116.7125
817.07857	22101.4125
820.93231	22038.3125
824.78336	21883.1125
828.63172	21707.9125
832.47738	21544.7125
836.32036	21486.9125
840.16066	21448.6125
843.99827	21454.1125
847.8332	21437.8125
851.66546	21506.8125
855.49504	21530.6125
859.32195	21484.9125
863.1462	21414.1125
866.96777	21406.9125
870.78668	21356.2125
874.60293	21285.7125
878.41652	21284.1125
882.22745	21316.6125
886.03573	21358.3125
889.84136	21386.0125
893.64433	21356.5125
897.44466	21255.5125
901.24235	21251.0125
905.0374	21210.3125
908.8298	21234.5125
912.61957	21342.5125
916.40671	21694.2125
920.19121	22098.7125
923.97308	22339.3125
927.75233	22127.1125
931.52895	21709.2125
935.30295	21288.6125
939.07433	20842.2125
942.84309	20551.3125
946.60924	20398.3125
950.37278	20285.4125
954.13371	20295.6125
957.89203	20275.5125
961.64774	20357.0125
965.40086	20346.4125
969.15137	20215.9125
972.89929	20064.7125
976.64461	19913.9125
980.38733	19809.4125
984.12747	19781.1125
987.86502	19846.0125
991.59999	19869.7125
995.33237	19968.6125
999.06217	20192.1125
1002.78939	20446.0125
1006.51404	20725.1125
1010.23611	20996.8125
1013.95561	21264.1125
1017.67255	21351.1125
1021.38692	21193.2125
1025.09872	20922.7125
1028.80796	20740.6125
1032.51465	20643.6125
1036.21877	20647.9125
1039.92035	20781.1125
1043.61937	20913.8125
1047.31584	20974.6125
1051.00976	21103.3125
1054.70114	21272.1125
1058.38998	21509.8125
1062.07627	21900.5125
1065.76003	22285.0125
1069.44126	22629.0125
1073.11995	22939.0125
1076.79611	23171.4125
1080.46974	23186.2125
1084.14085	23258.7125
1087.80943	23416.1125
1091.47549	23715.2125
1095.13903	23892.1125
1098.80005	23683.7125
1102.45857	23091.7125
1106.11456	22428.8125
1109.76805	22062.9125
1113.41903	21974.1125
1117.06751	22054.8125
1120.71348	22272.3125
1124.35696	22548.3125
1127.99793	22784.5125
1131.63641	23022.8125
1135.2724	23091.3125
1138.90589	23040.1125
1142.5369	23248.4125
1146.16542	23572.4125
1149.79145	23966.4125
1153.415	24420.5125
1157.03607	24945.9125
1160.65467	25816.3125
1164.27079	27178.9125
1167.88443	28717.1125
1171.49561	30182.9125
1175.10432	31799.2125
1178.71056	33661.4125
1182.31434	35377.7125
1185.91565	36359.6125
1189.51451	36568.3125
1193.11091	36143.0125
1196.70485	35323.4125
1200.29634	34220.1125
1203.88538	33567.1125
1207.47197	33490.2125
1211.05612	33540.0125
1214.63782	33052.3125
1218.21708	31815.4125
1221.79391	30291.2125
1225.36829	29046.3125
1228.94024	28241.6125
1232.50976	27835.7125
1236.07685	27547.1125
1239.6415	27461.0125
1243.20374	27504.4125
1246.76355	27785.4125
1250.32093	28148.1125
1253.8759	28766.0125
1257.42845	29500.6125
1260.97859	30367.7125
1264.52631	31152.2125
1268.07163	32015.9125
1271.61453	32842.8125
1275.15503	33833.4125
1278.69312	35016.0125
1282.22882	36420.3125
1285.76211	38026.0125
1289.29301	39926.4125
1292.82151	42236.5125
1296.34761	44945.7125
1299.87133	47755.4125
1303.39266	50126.9125
1306.9116	51783.5125
1310.42815	52564.5125
1313.94233	52715.0125
1317.45412	52411.8125
1320.96354	52256.3125
1324.47058	52416.2125
1327.97525	52875.6125
1331.47754	53143.2125
1334.97747	53150.2125
1338.47502	52760.3125
1341.97022	52362.4125
1345.46305	51593.5125
1348.95352	50587.2125
1352.44163	49537.1125
1355.92738	48927.1125
1359.41078	48934.0125
1362.89183	49013.2125
1366.37053	48082.4125
1369.84688	45355.1125
1373.32088	41647.6125
1376.79254	38992.8125
1380.26186	38327.1125
1383.72883	38863.4125
1387.19347	39447.0125
1390.65578	39518.5125
1394.11575	39481.7125
1397.57339	39793.8125
1401.0287	40331.5125
1404.48168	40611.3125
1407.93234	40109.6125
1411.38068	38708.7125
1414.82669	36724.5125
1418.27039	34605.0125
1421.71177	32648.9125
1425.15083	31234.2125
1428.58758	30555.2125
1432.02203	30771.4125
1435.45416	31737.1125
1438.88399	32882.1125
1442.31151	33863.0125
1445.73673	34570.3125
1449.15965	35190.3125
1452.58027	35664.8125
1455.9986	36023.2125
1459.41463	36300.8125
1462.82837	36742.9125
1466.23982	37207.3125
1469.64898	37590.5125
1473.05586	37772.7125
1476.46045	37616.0125
1479.86276	37272.7125
1483.26279	36755.0125
1486.66054	36488.9125
1490.05602	36448.3125
1493.44922	36690.8125
1496.84016	37074.9125
1500.22882	37653.6125
1503.61521	38411.7125
1506.99934	39285.7125
1510.38121	39989.0125
1513.76081	40404.4125
1517.13816	40420.6125
1520.51324	40401.7125
1523.88607	40650.4125
1527.25665	41162.5125
1530.62498	41515.0125
1533.99105	41273.3125
1537.35488	40582.6125
1540.71647	39350.9125
1544.07581	37854.9125
1547.4329	36299.2125
1550.78776	35113.0125
1554.14038	34243.1125
1557.49077	33658.4125
1560.83892	33397.1125
1564.18484	33253.6125
1567.52853	33297.9125
1570.86999	33733.3125
1574.20922	34615.4125
1577.54624	35606.9125
1580.88103	36339.9125
1584.2136	37071.9125
1587.54395	38259.8125
1590.87208	39766.3125
1594.19801	41511.7125
1597.52172	42917.9125
1600.84321	42624.1125
1604.16251	40409.2125
1607.47959	37179.6125
1610.79447	33986.8125
1614.10715	31135.1125
1617.41763	28787.2125
1620.7259	27137.3125
1624.03199	26210.5125
1627.33587	26118.1125
1630.63757	26930.5125
1633.93707	28797.0125
1637.23439	31979.4125
1640.52951	36546.0125
1643.82246	41862.9125
1647.11321	46123.7125
1650.40179	47088.0125
1653.68819	43946.8125
1656.97241	38225.6125
1660.25446	32380.3125
1663.53433	27702.6125
1666.81203	24431.3125
1670.08756	22295.4125
1673.36092	20971.8125
1676.63211	20141.1125
1679.90115	19498.8125
1683.16801	19077.2125
1686.43272	18773.8125
1689.69527	18536.9125
1692.95567	18309.7125
1696.2139	18147.8125
1699.46999	18032.2125
1702.72392	17954.8125
1705.97571	17839.1125
1709.22535	17741.3125
1712.47284	17702.6125
1715.71819	17608.1125
1718.96139	17552.3125
1722.20246	17477.5125
1725.44139	17373.9125
1728.67818	17260.7125
1731.91284	17106.9125
1735.14537	17040.9125
1738.37576	16930.9125
1741.60403	16840.1125
1744.83017	16758.1125
1748.05418	16712.5125
1751.27607	16671.6125
1754.49584	16629.4125
1757.71349	16658.8125
1760.92903	16612.9125
1764.14244	16603.9125
1767.35375	16560.9125
1770.56294	16524.3125
1773.77002	16448.1125
1776.97499	16411.2125
1780.17785	16334.8125
1783.37861	16312.8125
1786.57727	16268.3125
1789.77382	16220.3125
1792.96828	16170.9125
1796.16064	16135.5125
1799.3509	16096.2125
1802.53907	16012.0125
1805.72514	15967.4125
1808.90913	15903.4125
1812.09102	15847.7125
1815.27083	15824.4125
1818.44856	15795.1125
1821.6242	15748.9125
1824.79776	15733.5125
1827.96924	15710.9125
1831.13864	15690.1125
1834.30597	15698.0125
1837.47122	15678.7125
1840.6344	15641.6125
1843.7955	15650.0125
1846.95454	15628.7125
1850.11151	15628.4125
1853.26642	15573.6125
1856.41926	15593.0125
1859.57004	15577.4125
1862.71876	15525.9125
1865.86542	15490.4125
1869.01003	15462.2125
1872.15258	15427.8125
1875.29308	15425.0125
1878.43152	15388.7125
1881.56792	15333.9125
1884.70227	15319.3125
1887.83457	15268.2125
1890.96482	15247.8125
1894.09304	15228.2125
1897.21921	15180.2125
1900.34335	15197.6125
1903.46544	15140.3125
1906.58551	15151.0125
1909.70353	15087.5125
1912.81953	15053.5125
1915.93349	15029.2125
1919.04543	15010.3125
1922.15534	14960.3125
1925.26322	14906.1125
1928.36908	14863.9125
1931.47292	14839.1125
1934.57473	14782.8125
1937.67453	14747.2125
1940.77232	14696.7125
1943.86808	14656.6125
1946.96184	14593.2125
1950.05358	14562.0125
1953.14331	14536.3125
1956.23103	14470.2125
1959.31675	14424.8125
1962.40046	14382.0125
1965.48217	14340.6125
1968.56188	14267.7125
1971.63959	14182.9125
1974.7153	14142.9125
1977.78901	14101.4125
1980.86073	14035.4125
1983.93046	14000.6125
1986.99819	13951.0125
1990.06394	13937.2125
1993.1277	13865.9125
1996.18947	13823.7125
1999.24925	13775.3125
2002.30706	13741.0125
2005.36288	13677.5125
2008.41672	13646.9125
2011.46859	13574.2125
2014.51848	13568.0125
2017.56639	13503.7125
2020.61233	13470.0125
2023.6563	13422.6125
2026.6983	13388.0125
2029.73833	13318.1125
2032.7764	13280.6125
2035.8125	13255.8125
2038.84664	13223.8125
2041.87881	13198.9125
2044.90903	13163.8125
2047.93729	13139.1125
2050.96359	13119.9125
2053.98794	13074.0125
2057.01034	13063.1125
2060.03078	13063.1125
2063.04927	13055.4125
2066.06582	13053.7125
2069.08042	13060.7125
2072.09307	12996.9125
2075.10378	12974.7125
2078.11255	12975.6125
2081.11938	12966.2125
2084.12426	12982.3125
2087.12722	12956.8125
2090.12824	12923.0125
2093.12732	12897.4125
2096.12447	12898.9125
2099.11969	12901.7125
2102.11299	12911.6125
2105.10435	12889.8125
2108.09379	12906.8125
2111.08131	12918.7125
2114.0669	12898.9125
2117.05057	12915.8125
2120.03233	12914.2125
2123.01216	12923.8125
2125.99008	12911.8125
2128.96609	12907.4125
2131.94018	12924.2125
2134.91236	12903.0125
2137.88263	12917.2125
2140.851	12884.9125
2143.81746	12921.8125
2146.78201	12891.3125
2149.74466	12881.2125
2152.7054	12870.3125
2155.66425	12830.3125
2158.6212	12840.6125
2161.57625	12814.6125
2164.52941	12825.9125
2167.48067	12800.9125
2170.43004	12804.0125
2173.37752	12779.9125
2176.32311	12781.1125
2179.26681	12736.5125
2182.20863	12756.9125
2185.14856	12766.2125
2188.08661	12762.7125
2191.02278	12740.7125
2193.95707	12745.3125
2196.88948	12686.1125
2199.82001	12705.4125
2202.74867	12636.8125
2205.67545	12632.0125
2208.60037	12600.8125
2211.52341	12575.0125
2214.44458	12565.8125
2217.36388	12558.9125
2220.28132	12507.9125
2223.1969	12471.4125
2226.11061	12470.3125
2229.02246	12444.1125
2231.93245	12431.5125
2234.84058	12362.8125
2237.74686	12372.1125
2240.65128	12355.2125
2243.55385	12324.1125
2246.45456	12280.4125
2249.35343	12286.8125
2252.25044	12213.8125
2255.14561	12167.3125
2258.03893	12177.6125
2260.93041	12125.0125
2263.82004	12094.9125
2266.70783	12058.3125
2269.59378	11981.3125
2272.4779	11936.2125
2275.36017	11931.0125
2278.24061	11906.4125
2281.11922	11878.9125
2283.996	11869.2125
2286.87094	11839.7125
2289.74405	11812.3125
2292.61534	11788.0125
2295.4848	11762.4125
2298.35243	11755.8125
2301.21824	11741.4125
2304.08223	11730.3125
2306.94439	11723.9125
2309.80474	11734.9125
2312.66327	11734.1125
2315.51999	11702.1125
2318.37489	11662.1125
2321.22797	11657.6125
2324.07925	11625.8125
2326.92871	11629.1125
2329.77637	11588.7125
2332.62222	11541.8125
2335.46626	11545.7125
2338.3085	11551.5125
2341.14893	11521.6125
2343.98756	11520.8125
2346.8244	11518.1125
2349.65943	11509.1125
2352.49267	11486.9125
2355.32411	11530.4125
2358.15376	11477.0125
2360.98161	11475.8125
2363.80768	11461.6125
2366.63195	11487.6125
2369.45444	11454.0125
2372.27514	11437.2125
2375.09405	11406.4125
2377.91118	11366.9125
2380.72652	11353.8125
2383.54009	11313.8125
2386.35187	11322.7125
2389.16188	11250.8125
2391.97011	11237.7125
2394.77657	11210.0125
2397.58125	11207.3125
2400.38416	11188.0125
2403.18529	11149.1125
2405.98466	11119.7125
2408.78226	11103.8125
2411.57809	11113.5125
2414.37216	11116.9125
2417.16446	11103.2125
2419.955	11079.4125
2422.74378	11097.0125
2425.5308	11057.9125
2428.31606	11053.7125
2431.09956	11016.5125
2433.88131	11027.6125
2436.6613	11014.8125
2439.43954	11001.7125
2442.21603	10992.9125
2444.99077	10991.2125
2447.76377	10968.7125
2450.53501	10970.8125
2453.30451	10972.3125
2456.07226	10949.0125
2458.83827	10941.5125
2461.60254	10914.2125
2464.36507	10895.4125
2467.12586	10883.3125
2469.88492	10892.5125
2472.64224	10868.8125
2475.39782	10903.1125
2478.15167	10913.7125
2480.90379	10864.8125
2483.65417	10885.7125
2486.40283	10855.6125
2489.14976	10907.7125
2491.89497	10856.1125
2494.63845	10901.8125
2497.3802	10884.6125
2500.12024	10871.0125
2502.85855	10848.9125
2505.59514	10854.1125
2508.33002	10830.2125
2511.06318	10818.6125
2513.79462	10801.0125
2516.52435	10801.1125
2519.25237	10826.3125
2521.97867	10786.4125
2524.70327	10769.2125
2527.42616	10754.5125
2530.14734	10758.9125
2532.86681	10745.0125
2535.58458	10733.3125
2538.30065	10716.8125
2541.01501	10704.2125
2543.72768	10675.6125
2546.43864	10684.8125
2549.14791	10652.5125
2551.85548	10655.5125
2554.56136	10638.0125
2557.26554	10624.7125
2559.96803	10577.4125
2562.66883	10582.3125
2565.36794	10552.8125
2568.06536	10566.6125
2570.7611	10572.1125
2573.45514	10539.6125
2576.14751	10540.3125
2578.83819	10508.2125
2581.52719	10508.2125
2584.21451	10485.4125
2586.90015	10476.0125
2589.58411	10484.7125
2592.2664	10470.0125
2594.94701	10446.5125
2597.62594	10445.3125
2600.30321	10447.8125
2602.9788	10427.2125
2605.65273	10421.3125
2608.32498	10432.1125
2610.99557	10418.0125
2613.66449	10419.0125
2616.33175	10413.1125
2618.99734	10405.5125
2621.66128	10393.2125
2624.32355	10386.2125
2626.98416	10361.2125
2629.64311	10353.6125
2632.30041	10337.6125
2634.95605	10315.0125
2637.61004	10330.9125
2640.26238	10316.0125
2642.91306	10307.4125
2645.56209	10297.8125
2648.20948	10307.7125
2650.85521	10326.8125
2653.4993	10339.1125
2656.14175	10325.8125
2658.78255	10325.2125
2661.42171	10319.2125
2664.05923	10367.9125
2666.6951	10320.5125
2669.32934	10349.7125
2671.96194	10354.8125
2674.59291	10321.0125
2677.22224	10315.5125
2679.84993	10333.8125
2682.476	10308.8125
2685.10043	10315.4125
2687.72324	10296.4125
2690.34441	10302.3125
2692.96396	10280.9125
2695.58188	10291.2125
2698.19818	10286.0125
2700.81285	10316.3125
2703.4259	10310.0125
2706.03733	10373.6125
2708.64714	10341.1125
2711.25533	10341.0125
2713.86191	10317.2125
2716.46687	10338.6125
2719.07021	10332.5125
2721.67194	10344.7125
2724.27206	10341.8125
2726.87057	10347.5125
2729.46747	10357.2125
2732.06276	10350.3125
2734.65644	10368.3125
2737.24852	10336.2125
2739.83899	10315.0125
2742.42786	10325.5125
2745.01513	10300.5125
2747.60079	10314.5125
2750.18486	10314.3125
2752.76733	10290.4125
2755.3482	10267.3125
2757.92747	10298.7125
2760.50515	10284.0125
2763.08123	10300.0125
2765.65573	10261.7125
2768.22863	10260.8125
2770.79994	10228.9125
2773.36967	10255.1125
2775.9378	10252.5125
2778.50435	10226.2125
2781.06932	10226.0125
2783.6327	10239.3125
2786.1945	10279.6125
2788.75471	10250.7125
2791.31335	10239.9125
2793.87041	10203.4125
2796.42589	10153.0125
2798.97979	10172.8125
2801.53212	10138.3125
2804.08288	10154.9125
2806.63206	10083.1125
2809.17967	10073.8125
2811.72571	10079.5125
2814.27018	10016.3125
2816.81308	9983.9125
2819.35442	9986.6125
2821.89419	9974.3125
2824.43239	9994.3125
2826.96904	9939.7125
2829.50412	9943.4125
2832.03763	9932.9125
2834.56959	9924.5125
2837.1	9920.1125
2839.62884	9940.9125
2842.15613	9936.8125
2844.68186	9952.4125
2847.20604	9986.6125
2849.72867	10011.6125
2852.24974	10009.2125
2854.76927	10005.2125
2857.28724	9984.1125
2859.80367	9994.1125
2862.31855	9924.3125
2864.83189	9935.6125
2867.34368	9903.7125
2869.85393	9872.7125
2872.36264	9871.7125
2874.8698	9858.6125
2877.37543	9864.3125
2879.87952	9834.1125
2882.38207	9841.2125
2884.88308	9819.7125
2887.38256	9818.4125
2889.88051	9848.0125
2892.37692	9825.3125
2894.8718	9848.7125
2897.36515	9838.6125
2899.85698	9815.1125
2902.34727	9846.7125
2904.83604	9867.5125
2907.32328	9856.6125
2909.809	9869.1125
2912.29319	9841.1125
2914.77587	9856.2125
2917.25702	9865.0125
2919.73665	9833.0125
2922.21476	9860.4125
2924.69136	9837.7125
2927.16644	9850.8125
2929.64	9813.5125
2932.11205	9804.0125
2934.58258	9771.2125
2937.05161	9801.4125
2939.51912	9806.5125
2941.98513	9774.8125
2944.44962	9762.1125
2946.91261	9705.1125
2949.37409	9689.4125
2951.83407	9675.7125
2954.29254	9660.2125
2956.74951	9632.2125
2959.20498	9627.8125
2961.65895	9593.4125
2964.11142	9604.8125
2966.56239	9592.4125
2969.01186	9575.9125
2971.45984	9555.0125
2973.90632	9542.5125
2976.35131	9517.5125
2978.7948	9473.8125
2981.23681	9468.6125
2983.67732	9436.3125
2986.11635	9428.6125
2988.55388	9374.0125
2990.98993	9383.3125
2993.4245	9330.1125
2995.85758	9274.9125
2998.28917	9266.1125
3000.71928	9237.3125
3003.14791	9203.0125
3005.57506	9192.6125
3008.00073	9158.4125
3010.42493	9059.2125
3012.84764	9143.4125
3015.26888	9132.4125
3017.68865	9055.6125
3020.10694	9038.6125
3022.52376	9031.6125
3024.9391	9035.9125
3027.35298	9014.7125
3029.76539	9002.2125
3032.17632	8996.4125
3034.5858	8965.4125
