Data from AgNPs_FTO_APTES_UA_5uM_CRN_1uM_R6G_10uM_NaF_0.1M_Addition_RamanShift__0__10-17-16-563.txt Node

Date: Mon Feb 07 10:17:16 GMT 2022
User: TCL
Spectrometer: QEP01345
Trigger mode: 4
Integration Time (sec): 7.000000E0
Scans to average: 10
Electric dark correction enabled: true
Nonlinearity correction enabled: false
Boxcar width: 0
XAxis mode: Raman Shifts
Number of Pixels in Spectrum: 1044
>>>>>Begin Spectral Data<<<<<
46.04893	-0.975
50.45542	-0.875
54.85868	-0.975
59.25871	1.625
63.6555	38.425
68.04907	42.525
72.43941	44.325
76.82654	45.225
81.21044	50.525
85.59113	47.825
89.96862	55.525
94.34289	50.825
98.71396	54.425
103.08183	53.425
107.4465	57.025
111.80798	56.925
116.16626	58.825
120.52136	64.625
124.87327	64.025
129.222	67.925
133.56755	74.625
137.90993	79.625
142.24913	85.525
146.58517	95.525
150.91804	111.025
155.24774	130.025
159.57429	164.725
163.89768	208.725
168.21792	278.325
172.53501	376.025
176.84895	528.025
181.15975	748.425
185.46741	1062.425
189.77193	1444.925
194.07331	1952.125
198.37157	2517.125
202.6667	3100.025
206.9587	3702.525
211.24758	4284.425
215.53334	4880.625
219.81599	5513.525
224.09553	6234.125
228.37195	7033.125
232.64527	7872.025
236.91549	8752.225
241.18261	9597.625
245.44663	10314.425
249.70755	11011.325
253.96539	11566.525
258.22014	12095.625
262.4718	12539.625
266.72039	12822.125
270.96589	13004.325
275.20832	13004.525
279.44768	12846.525
283.68397	12702.525
287.91719	12591.625
292.14735	12534.625
296.37445	12552.725
300.59849	12736.825
304.81948	12947.325
309.03742	13104.325
313.25231	13099.225
317.46415	12719.525
321.67296	12188.425
325.87872	11698.825
330.08145	11443.025
334.28114	11417.025
338.47781	11533.025
342.67145	11706.125
346.86207	11942.325
351.04966	12294.225
355.23424	12740.225
359.4158	13120.925
363.59435	13354.325
367.76989	13523.425
371.94243	13564.625
376.11196	13594.125
380.27849	13568.125
384.44203	13567.425
388.60257	13518.425
392.76012	13527.725
396.91468	13719.725
401.06626	13971.125
405.21485	14238.625
409.36047	14221.225
413.50311	13920.125
417.64277	13628.225
421.77947	13516.225
425.9132	13479.325
430.04396	13528.925
434.17176	13576.025
438.2966	13682.225
442.41849	13978.425
446.53742	14401.425
450.6534	14933.525
454.76644	15308.525
458.87653	15359.025
462.98368	15178.425
467.08789	14881.825
471.18916	14510.725
475.2875	14262.625
479.38291	14094.325
483.4754	13978.525
487.56496	13842.625
491.6516	13710.125
495.73531	13564.925
499.81612	13466.325
503.89401	13518.325
507.96899	13538.225
512.04106	13489.725
516.11023	13439.925
520.1765	13412.425
524.23987	13385.525
528.30034	13254.925
532.35792	13136.725
536.41261	12906.625
540.46441	12641.525
544.51333	12526.025
548.55936	12621.725
552.60252	12877.025
556.64279	13229.325
560.6802	13437.225
564.71473	13671.725
568.7464	14124.925
572.7752	14523.725
576.80114	14547.125
580.82422	14477.125
584.84444	14652.225
588.86181	14945.225
592.87633	15308.925
596.888	15471.125
600.89682	15393.225
604.9028	15981.825
608.90594	18252.225
612.90624	21102.325
616.90371	20255.725
620.89834	15927.925
624.89015	13853.325
628.87913	13547.425
632.86528	13478.625
636.84862	13304.425
640.82913	13015.225
644.80683	12521.525
648.78172	12206.125
652.75379	12218.225
656.72306	12549.625
660.68952	12956.525
664.65319	12938.025
668.61405	12608.025
672.57211	12443.425
676.52738	12437.125
680.47986	12395.425
684.42955	12276.225
688.37646	12206.025
692.32058	12311.625
696.26192	12512.325
700.20048	12716.625
704.13626	12867.825
708.06928	12775.625
711.99952	12658.225
715.927	12633.525
719.85171	12691.425
723.77365	12702.525
727.69284	12480.925
731.60928	12315.125
735.52295	12291.025
739.43388	12314.025
743.34206	12352.025
747.24749	12449.525
751.15017	12533.525
755.05012	12750.225
758.94733	13116.425
762.8418	13933.125
766.73354	15298.825
770.62254	16755.225
774.50882	17390.225
778.39237	16822.525
782.27321	15387.025
786.15132	13955.825
790.02671	13034.325
793.89938	12657.525
797.76935	12502.425
801.6366	12445.425
805.50115	12435.825
809.36299	12370.725
813.22213	12264.925
817.07857	12207.125
820.93231	12177.925
824.78336	12155.625
828.63172	12196.425
832.47738	12226.325
836.32036	12312.325
840.16066	12348.925
843.99827	12392.525
847.8332	12337.625
851.66546	12233.425
855.49504	12177.225
859.32195	12149.925
863.1462	12084.825
866.96777	12018.425
870.78668	11981.425
874.60293	11953.725
878.41652	11964.225
882.22745	12055.225
886.03573	12116.725
889.84136	12088.025
893.64433	12036.425
897.44466	11963.425
901.24235	11920.025
905.0374	11876.825
908.8298	11842.525
912.61957	11855.425
916.40671	11927.125
920.19121	12114.525
923.97308	12310.625
927.75233	12507.825
931.52895	12537.525
935.30295	12414.225
939.07433	12075.925
942.84309	11842.025
946.60924	11699.725
950.37278	11645.025
954.13371	11585.225
957.89203	11511.425
961.64774	11450.825
965.40086	11412.125
969.15137	11384.525
972.89929	11370.225
976.64461	11394.825
980.38733	11420.725
984.12747	11491.425
987.86502	11633.725
991.59999	11840.925
995.33237	12085.925
999.06217	12496.625
1002.78939	12962.625
1006.51404	13234.625
1010.23611	13347.525
1013.95561	13473.525
1017.67255	13418.225
1021.38692	13227.625
1025.09872	13128.825
1028.80796	13307.125
1032.51465	13846.725
1036.21877	14361.225
1039.92035	14408.625
1043.61937	14153.625
1047.31584	13684.325
1051.00976	13170.525
1054.70114	12898.325
1058.38998	12782.025
1062.07627	12760.825
1065.76003	12747.425
1069.44126	12802.025
1073.11995	12945.325
1076.79611	13214.425
1080.46974	13374.525
1084.14085	13575.825
1087.80943	13789.025
1091.47549	13930.325
1095.13903	13828.625
1098.80005	13491.525
1102.45857	13146.225
1106.11456	12923.825
1109.76805	12870.225
1113.41903	12949.025
1117.06751	13090.825
1120.71348	13327.825
1124.35696	13589.125
1127.99793	13859.625
1131.63641	13949.625
1135.2724	13712.925
1138.90589	13407.625
1142.5369	13209.025
1146.16542	13092.625
1149.79145	13080.225
1153.415	13132.525
1157.03607	13286.425
1160.65467	13567.825
1164.27079	14130.725
1167.88443	14862.125
1171.49561	15871.625
1175.10432	17331.025
1178.71056	19281.125
1182.31434	21011.425
1185.91565	21936.525
1189.51451	21768.625
1193.11091	20740.325
1196.70485	19448.725
1200.29634	18318.225
1203.88538	17569.525
1207.47197	16866.425
1211.05612	16291.525
1214.63782	15952.325
1218.21708	15826.825
1221.79391	15889.925
1225.36829	15980.025
1228.94024	15805.125
1232.50976	15320.725
1236.07685	14974.925
1239.6415	14850.625
1243.20374	14843.925
1246.76355	14952.625
1250.32093	15250.425
1253.8759	15602.825
1257.42845	16113.025
1260.97859	16665.925
1264.52631	17149.525
1268.07163	17680.325
1271.61453	18189.025
1275.15503	18724.125
1278.69312	19278.625
1282.22882	19798.525
1285.76211	20331.625
1289.29301	20942.325
1292.82151	21657.625
1296.34761	22649.425
1299.87133	24006.725
1303.39266	25785.625
1306.9116	28020.625
1310.42815	30350.025
1313.94233	31792.125
1317.45412	31597.025
1320.96354	30117.325
1324.47058	28469.825
1327.97525	27018.425
1331.47754	26035.325
1334.97747	25565.825
1338.47502	25254.325
1341.97022	24905.025
1345.46305	24436.325
1348.95352	24403.725
1352.44163	25011.125
1355.92738	26433.325
1359.41078	28887.925
1362.89183	31403.225
1366.37053	31609.025
1369.84688	28659.025
1373.32088	24713.825
1376.79254	21910.325
1380.26186	20595.225
1383.72883	20195.325
1387.19347	19888.825
1390.65578	19326.825
1394.11575	18966.825
1397.57339	19104.825
1401.0287	19533.525
1404.48168	19958.925
1407.93234	20223.725
1411.38068	20067.125
1414.82669	19585.325
1418.27039	18853.025
1421.71177	18023.525
1425.15083	17307.125
1428.58758	16920.525
1432.02203	17044.725
1435.45416	17386.425
1438.88399	17775.925
1442.31151	18044.325
1445.73673	18339.425
1449.15965	18579.825
1452.58027	18608.025
1455.9986	18447.325
1459.41463	18313.125
1462.82837	18486.725
1466.23982	18855.525
1469.64898	19373.525
1473.05586	19719.325
1476.46045	19968.625
1479.86276	20173.025
1483.26279	20253.825
1486.66054	20336.325
1490.05602	20475.625
1493.44922	20679.025
1496.84016	20921.825
1500.22882	21468.025
1503.61521	22454.225
1506.99934	23880.625
1510.38121	25250.525
1513.76081	25976.025
1517.13816	25404.025
1520.51324	23756.725
1523.88607	21977.325
1527.25665	20862.625
1530.62498	20279.725
1533.99105	19981.225
1537.35488	19732.725
1540.71647	19490.125
1544.07581	19113.325
1547.4329	18708.325
1550.78776	18286.525
1554.14038	17889.125
1557.49077	17745.625
1560.83892	17628.625
1564.18484	17711.125
1567.52853	17917.125
1570.86999	18210.125
1574.20922	18538.225
1577.54624	18687.825
1580.88103	18461.425
1584.2136	18199.625
1587.54395	18514.725
1590.87208	19583.325
1594.19801	21313.325
1597.52172	23108.925
1600.84321	23958.225
1604.16251	22972.325
1607.47959	20803.225
1610.79447	18444.025
1614.10715	16470.825
1617.41763	15075.525
1620.7259	14302.425
1624.03199	13976.925
1627.33587	13997.225
1630.63757	14452.625
1633.93707	15278.625
1637.23439	16651.325
1640.52951	18638.625
1643.82246	21213.025
1647.11321	23758.825
1650.40179	24833.525
1653.68819	23509.325
1656.97241	20358.025
1660.25446	17078.425
1663.53433	14708.725
1666.81203	13245.925
1670.08756	12416.825
1673.36092	11868.425
1676.63211	11529.525
1679.90115	11323.125
1683.16801	11135.825
1686.43272	11047.525
1689.69527	10964.325
1692.95567	10905.125
1696.2139	10908.325
1699.46999	10942.325
1702.72392	10894.425
1705.97571	10837.725
1709.22535	10772.225
1712.47284	10721.925
1715.71819	10726.525
1718.96139	10672.725
1722.20246	10630.225
1725.44139	10615.425
1728.67818	10563.125
1731.91284	10471.725
1735.14537	10443.625
1738.37576	10370.125
1741.60403	10350.225
1744.83017	10336.725
1748.05418	10309.925
1751.27607	10310.925
1754.49584	10282.025
1757.71349	10331.725
1760.92903	10330.825
1764.14244	10325.325
1767.35375	10329.425
1770.56294	10288.525
1773.77002	10271.125
1776.97499	10219.125
1780.17785	10163.925
1783.37861	10170.625
1786.57727	10133.425
1789.77382	10116.025
1792.96828	10101.125
1796.16064	10044.725
1799.3509	10078.925
1802.53907	10026.825
1805.72514	9997.125
1808.90913	9976.925
1812.09102	9956.625
1815.27083	9927.025
1818.44856	9921.425
1821.6242	9900.325
1824.79776	9882.225
1827.96924	9866.125
1831.13864	9849.925
1834.30597	9839.625
1837.47122	9855.525
1840.6344	9829.025
1843.7955	9817.525
1846.95454	9818.025
1850.11151	9816.025
1853.26642	9806.725
1856.41926	9786.425
1859.57004	9793.725
1862.71876	9778.025
1865.86542	9780.825
1869.01003	9771.825
1872.15258	9765.125
1875.29308	9763.225
1878.43152	9741.825
1881.56792	9752.425
1884.70227	9766.025
1887.83457	9744.125
1890.96482	9734.325
1894.09304	9741.425
1897.21921	9758.325
1900.34335	9724.625
1903.46544	9709.625
1906.58551	9697.925
1909.70353	9704.525
1912.81953	9693.525
1915.93349	9693.225
1919.04543	9679.425
1922.15534	9649.725
1925.26322	9668.625
1928.36908	9621.025
1931.47292	9625.925
1934.57473	9588.625
1937.67453	9557.425
1940.77232	9548.525
1943.86808	9529.825
1946.96184	9457.125
1950.05358	9460.725
1953.14331	9456.725
1956.23103	9425.225
1959.31675	9387.625
1962.40046	9354.425
1965.48217	9361.625
1968.56188	9333.225
1971.63959	9293.525
1974.7153	9282.025
1977.78901	9257.625
1980.86073	9211.425
1983.93046	9226.525
1986.99819	9172.825
1990.06394	9140.125
1993.1277	9104.725
1996.18947	9078.525
1999.24925	9067.525
2002.30706	9037.425
2005.36288	9006.225
2008.41672	9013.725
2011.46859	8973.725
2014.51848	8957.525
2017.56639	8913.525
2020.61233	8906.525
2023.6563	8885.525
2026.6983	8862.425
2029.73833	8854.525
2032.7764	8829.325
2035.8125	8828.825
2038.84664	8826.425
2041.87881	8789.625
2044.90903	8790.625
2047.93729	8771.225
2050.96359	8749.425
2053.98794	8769.025
2057.01034	8776.425
2060.03078	8757.625
2063.04927	8742.425
2066.06582	8766.325
2069.08042	8734.225
2072.09307	8753.125
2075.10378	8719.025
2078.11255	8719.225
2081.11938	8719.425
2084.12426	8709.625
2087.12722	8706.925
2090.12824	8690.625
2093.12732	8683.725
2096.12447	8696.225
2099.11969	8685.925
2102.11299	8711.525
2105.10435	8698.225
2108.09379	8697.225
2111.08131	8710.925
2114.0669	8719.925
2117.05057	8737.625
2120.03233	8740.425
2123.01216	8716.925
2125.99008	8780.225
2128.96609	8741.725
2131.94018	8783.625
2134.91236	8775.025
2137.88263	8759.225
2140.851	8770.925
2143.81746	8778.825
2146.78201	8773.925
2149.74466	8788.525
2152.7054	8805.325
2155.66425	8774.125
2158.6212	8785.725
2161.57625	8775.025
2164.52941	8778.925
2167.48067	8770.125
2170.43004	8786.425
2173.37752	8802.125
2176.32311	8787.925
2179.26681	8779.825
2182.20863	8776.325
2185.14856	8766.125
2188.08661	8773.825
2191.02278	8778.225
2193.95707	8781.225
2196.88948	8768.825
2199.82001	8770.325
2202.74867	8784.725
2205.67545	8771.425
2208.60037	8763.925
2211.52341	8752.525
2214.44458	8783.825
2217.36388	8748.325
2220.28132	8723.725
2223.1969	8720.925
2226.11061	8709.325
2229.02246	8702.925
2231.93245	8666.325
2234.84058	8656.925
2237.74686	8652.225
2240.65128	8629.325
2243.55385	8633.525
2246.45456	8608.025
2249.35343	8587.025
2252.25044	8604.425
2255.14561	8558.425
2258.03893	8600.125
2260.93041	8599.425
2263.82004	8534.225
2266.70783	8536.125
2269.59378	8500.325
2272.4779	8460.425
2275.36017	8457.225
2278.24061	8419.725
2281.11922	8417.225
2283.996	8424.125
2286.87094	8406.025
2289.74405	8417.125
2292.61534	8398.325
2295.4848	8381.425
2298.35243	8384.725
2301.21824	8381.525
2304.08223	8403.525
2306.94439	8412.825
2309.80474	8433.125
2312.66327	8439.525
2315.51999	8431.125
2318.37489	8413.025
2321.22797	8437.825
2324.07925	8411.725
2326.92871	8407.925
2329.77637	8409.725
2332.62222	8385.825
2335.46626	8431.225
2338.3085	8377.825
2341.14893	8424.025
2343.98756	8413.725
2346.8244	8404.425
2349.65943	8399.825
2352.49267	8418.525
2355.32411	8425.325
2358.15376	8419.125
2360.98161	8386.225
2363.80768	8385.525
2366.63195	8380.925
2369.45444	8359.725
2372.27514	8359.325
2375.09405	8357.225
2377.91118	8330.825
2380.72652	8305.125
2383.54009	8301.525
2386.35187	8265.825
2389.16188	8238.325
2391.97011	8237.225
2394.77657	8227.625
2397.58125	8203.125
2400.38416	8178.425
2403.18529	8197.125
2405.98466	8179.525
2408.78226	8147.925
2411.57809	8132.925
2414.37216	8115.025
2417.16446	8118.425
2419.955	8110.925
2422.74378	8090.925
2425.5308	8081.525
2428.31606	8081.325
2431.09956	8100.125
2433.88131	8097.925
2436.6613	8078.425
2439.43954	8075.825
2442.21603	8085.625
2444.99077	8058.625
2447.76377	8087.325
2450.53501	8062.525
2453.30451	8046.425
2456.07226	8036.125
2458.83827	8059.425
2461.60254	8051.325
2464.36507	8054.425
2467.12586	8043.325
2469.88492	8034.925
2472.64224	8049.125
2475.39782	8090.025
2478.15167	8084.325
2480.90379	8095.625
2483.65417	8071.525
2486.40283	8095.125
2489.14976	8123.325
2491.89497	8117.225
2494.63845	8124.825
2497.3802	8149.125
2500.12024	8136.325
2502.85855	8109.725
2505.59514	8090.525
2508.33002	8070.325
2511.06318	8054.325
2513.79462	8036.325
2516.52435	8030.225
2519.25237	8032.625
2521.97867	8028.825
2524.70327	8004.425
2527.42616	8007.525
2530.14734	8001.525
2532.86681	8000.025
2535.58458	7988.225
2538.30065	7999.325
2541.01501	7972.925
2543.72768	7991.325
2546.43864	7987.725
2549.14791	7959.325
2551.85548	7983.325
2554.56136	7947.925
2557.26554	7933.325
2559.96803	7931.325
2562.66883	7943.925
2565.36794	7942.025
2568.06536	7945.025
2570.7611	7942.625
2573.45514	7928.525
2576.14751	7935.825
2578.83819	7909.525
2581.52719	7906.125
2584.21451	7900.125
2586.90015	7899.025
2589.58411	7891.925
2592.2664	7900.625
2594.94701	7874.525
2597.62594	7863.925
2600.30321	7859.325
2602.9788	7855.025
2605.65273	7848.125
2608.32498	7848.125
2610.99557	7859.125
2613.66449	7871.825
2616.33175	7873.325
2618.99734	7858.825
2621.66128	7847.125
2624.32355	7838.525
2626.98416	7846.825
2629.64311	7862.825
2632.30041	7878.425
2634.95605	7850.625
2637.61004	7824.525
2640.26238	7841.625
2642.91306	7798.025
2645.56209	7785.825
2648.20948	7777.525
2650.85521	7800.525
2653.4993	7792.725
2656.14175	7818.625
2658.78255	7803.625
2661.42171	7803.625
2664.05923	7818.025
2666.6951	7804.925
2669.32934	7831.825
2671.96194	7828.825
2674.59291	7829.525
2677.22224	7848.225
2679.84993	7829.625
2682.476	7834.125
2685.10043	7821.325
2687.72324	7799.825
2690.34441	7807.625
2692.96396	7799.425
2695.58188	7783.625
2698.19818	7766.225
2700.81285	7756.525
2703.4259	7818.625
2706.03733	7861.925
2708.64714	7830.625
2711.25533	7839.025
2713.86191	7821.925
2716.46687	7848.425
2719.07021	7833.825
2721.67194	7826.925
2724.27206	7820.725
2726.87057	7830.225
2729.46747	7831.125
2732.06276	7832.925
2734.65644	7844.225
2737.24852	7827.225
2739.83899	7814.425
2742.42786	7795.725
2745.01513	7771.525
2747.60079	7788.325
2750.18486	7790.125
2752.76733	7769.625
2755.3482	7768.625
2757.92747	7754.025
2760.50515	7746.925
2763.08123	7760.025
2765.65573	7766.225
2768.22863	7768.125
2770.79994	7748.025
2773.36967	7753.925
2775.9378	7773.425
2778.50435	7775.325
2781.06932	7771.225
2783.6327	7783.325
2786.1945	7770.125
2788.75471	7775.625
2791.31335	7754.625
2793.87041	7734.325
2796.42589	7735.825
2798.97979	7717.625
2801.53212	7708.325
2804.08288	7692.825
2806.63206	7656.225
2809.17967	7663.925
2811.72571	7676.625
2814.27018	7651.825
2816.81308	7670.225
2819.35442	7641.325
2821.89419	7637.725
2824.43239	7641.125
2826.96904	7651.825
2829.50412	7681.025
2832.03763	7635.225
2834.56959	7640.225
2837.1	7622.325
2839.62884	7665.125
2842.15613	7669.225
2844.68186	7730.425
2847.20604	7735.925
2849.72867	7787.625
2852.24974	7794.025
2854.76927	7793.925
2857.28724	7823.525
2859.80367	7801.825
2862.31855	7781.925
2864.83189	7742.725
2867.34368	7732.525
2869.85393	7738.925
2872.36264	7731.525
2874.8698	7734.925
2877.37543	7758.725
2879.87952	7756.825
2882.38207	7744.525
2884.88308	7741.125
2887.38256	7729.025
2889.88051	7748.725
2892.37692	7754.125
2894.8718	7751.025
2897.36515	7764.125
2899.85698	7772.125
2902.34727	7783.025
2904.83604	7775.525
2907.32328	7785.025
2909.809	7792.925
2912.29319	7817.425
2914.77587	7816.025
2917.25702	7802.725
2919.73665	7801.525
2922.21476	7804.725
2924.69136	7786.125
2927.16644	7781.125
2929.64	7769.025
2932.11205	7745.125
2934.58258	7713.425
2937.05161	7713.225
2939.51912	7705.425
2941.98513	7676.125
2944.44962	7659.125
2946.91261	7602.525
2949.37409	7620.225
2951.83407	7577.625
2954.29254	7557.025
2956.74951	7554.225
2959.20498	7551.125
2961.65895	7521.525
2964.11142	7537.625
2966.56239	7519.025
2969.01186	7531.825
2971.45984	7507.525
2973.90632	7506.925
2976.35131	7480.325
2978.7948	7454.325
2981.23681	7432.325
2983.67732	7420.025
2986.11635	7416.925
2988.55388	7393.125
2990.98993	7355.425
2993.4245	7335.125
2995.85758	7308.525
2998.28917	7292.225
3000.71928	7294.525
3003.14791	7273.425
3005.57506	7283.125
3008.00073	7249.625
3010.42493	7265.225
3012.84764	7236.625
3015.26888	7263.025
3017.68865	7223.525
3020.10694	7208.025
3022.52376	7173.625
3024.9391	7196.725
3027.35298	7199.625
3029.76539	7228.225
3032.17632	7184.025
3034.5858	7180.325
3036.9938	7172.525
3039.40034	7164.425
3041.80542	7157.525
3044.20903	7158.525
3046.61118	7158.225
3049.01187	7138.225
3051.4111	7143.125
3053.80888	7108.925
3056.20519	7129.725
3058.60005	7114.625
3060.99345	7088.725
3063.3854	7068.125
3065.7759	7054.325
3068.16494	7060.825
3070.55254	7043.525
3072.93868	7030.525
3075.32338	7015.925
3077.70662	6996.325
3080.08842	6974.825
3082.46878	6972.825
3084.84769	6958.225
3087.22515	6942.025
3089.60118	6957.925
3091.97576	6951.225
3094.3489	6978.225
3096.72061	6936.325
3099.09087	6950.425
3101.4597	6937.325
3103.82709	6959.325
3106.19305	6912.025
3108.55757	6941.925
3110.92066	6932.425
3113.28232	6909.525
3115.64255	6896.925
3118.00134	6888.725
3120.35871	6880.725
3122.71466	6872.625
3125.06917	6859.725
3127.42226	6845.425
3129.77393	6839.025
3132.12417	6836.825
3134.47299	6855.725
3136.82039	6847.325
3139.16636	6852.925
3141.51092	6841.825
3143.85406	6839.425
3146.19579	6852.125
3148.53609	6848.625
3150.87499	6837.525
3153.21246	6826.025
3155.54853	6842.525
3157.88318	6849.125
3160.21642	6865.625
3162.54826	6848.525
3164.87868	6871.225
3167.2077	6857.025
3169.5353	6857.625
3171.86151	6863.425
3174.18631	6859.725
3176.5097	6841.925
3178.83169	6834.325
3181.15228	6837.125
3183.47147	6825.825
3185.78926	6838.625
