Data from AgNPs_FTO_APTES_UA_5uM_CRN_500uM_R6G_10uM_NaF_0.1M_Addition_RamanShift__7__16-48-51-818.txt Node

Date: Mon Feb 07 16:48:51 GMT 2022
User: TCL
Spectrometer: QEP01345
Trigger mode: 4
Integration Time (sec): 7.000000E0
Scans to average: 10
Electric dark correction enabled: true
Nonlinearity correction enabled: false
Boxcar width: 0
XAxis mode: Raman Shifts
Number of Pixels in Spectrum: 1044
>>>>>Begin Spectral Data<<<<<
46.04893	-0.775
50.45542	-0.675
54.85868	0.025
59.25871	-1.375
63.6555	70.025
68.04907	71.325
72.43941	78.425
76.82654	78.825
81.21044	77.125
85.59113	79.725
89.96862	85.325
94.34289	88.425
98.71396	92.925
103.08183	98.325
107.4465	99.425
111.80798	101.625
116.16626	103.525
120.52136	113.025
124.87327	116.725
129.222	123.925
133.56755	129.725
137.90993	145.525
142.24913	160.725
146.58517	179.925
150.91804	212.425
155.24774	262.625
159.57429	327.725
163.89768	421.525
168.21792	566.625
172.53501	771.725
176.84895	1083.425
181.15975	1531.125
185.46741	2144.325
189.77193	2947.925
194.07331	3957.225
198.37157	5092.425
202.6667	6296.725
206.9587	7467.425
211.24758	8650.125
215.53334	9831.125
219.81599	11053.625
224.09553	12415.925
228.37195	13887.825
232.64527	15478.725
236.91549	17162.425
241.18261	18862.525
245.44663	20466.925
249.70755	21968.925
253.96539	23268.325
258.22014	24365.525
262.4718	25253.425
266.72039	25883.925
270.96589	26258.925
275.20832	26336.325
279.44768	26315.225
283.68397	26139.625
287.91719	25965.925
292.14735	25944.125
296.37445	25957.525
300.59849	26032.625
304.81948	26163.625
309.03742	26085.625
313.25231	25791.325
317.46415	25269.425
321.67296	24641.325
325.87872	24121.525
330.08145	23864.325
334.28114	23769.225
338.47781	23812.225
342.67145	24033.125
346.86207	24323.425
351.04966	24701.525
355.23424	24992.125
359.4158	25302.925
363.59435	25534.925
367.76989	25698.125
371.94243	25873.725
376.11196	25985.925
380.27849	26038.325
384.44203	26192.925
388.60257	26465.325
392.76012	26758.925
396.91468	27128.325
401.06626	27487.425
405.21485	27700.225
409.36047	27613.025
413.50311	27361.025
417.64277	27232.925
421.77947	27334.725
425.9132	27523.425
430.04396	27714.025
434.17176	27902.425
438.2966	28086.025
442.41849	28550.425
446.53742	29359.825
450.6534	30174.825
454.76644	30806.725
458.87653	30987.425
462.98368	30930.725
467.08789	30637.525
471.18916	30398.625
475.2875	30292.825
479.38291	30376.525
483.4754	30315.725
487.56496	29902.325
491.6516	29137.425
495.73531	28333.225
499.81612	27835.825
503.89401	27783.225
507.96899	27865.825
512.04106	27805.725
516.11023	27590.925
520.1765	27216.425
524.23987	26869.825
528.30034	26587.725
532.35792	26318.225
536.41261	26086.525
540.46441	25923.325
544.51333	25967.925
548.55936	26287.425
552.60252	26986.325
556.64279	27792.425
560.6802	28486.125
564.71473	29004.225
568.7464	29693.525
572.7752	30908.225
576.80114	32145.925
580.82422	33151.825
584.84444	34122.425
588.86181	35549.025
592.87633	36719.925
596.888	36110.225
600.89682	34049.025
604.9028	32804.225
608.90594	33323.425
612.90624	34206.425
616.90371	32060.925
620.89834	27972.125
624.89015	26255.625
628.87913	26132.725
632.86528	26369.525
636.84862	26365.525
640.82913	25993.325
644.80683	25456.525
648.78172	25097.625
652.75379	25021.725
656.72306	25193.725
660.68952	25402.625
664.65319	25207.225
668.61405	24844.225
672.57211	24785.325
676.52738	24900.025
680.47986	24979.825
684.42955	24887.825
688.37646	24780.925
692.32058	24885.625
696.26192	25149.325
700.20048	25384.225
704.13626	25634.325
708.06928	25765.625
711.99952	25818.225
715.927	25793.625
719.85171	25808.425
723.77365	25620.525
727.69284	25292.825
731.60928	24983.525
735.52295	24805.625
739.43388	24796.925
743.34206	24850.925
747.24749	25005.025
751.15017	25328.325
755.05012	25841.925
758.94733	26583.025
762.8418	27750.525
766.73354	29383.225
770.62254	30705.025
774.50882	30722.925
778.39237	29324.025
782.27321	27530.725
786.15132	26081.925
790.02671	25198.125
793.89938	24704.125
797.76935	24552.325
801.6366	24463.525
805.50115	24446.625
809.36299	24302.925
813.22213	24174.925
817.07857	24142.125
820.93231	24095.025
824.78336	23916.625
828.63172	23713.925
832.47738	23578.825
836.32036	23499.025
840.16066	23480.825
843.99827	23497.525
847.8332	23456.125
851.66546	23464.525
855.49504	23495.425
859.32195	23491.925
863.1462	23471.825
866.96777	23392.325
870.78668	23294.925
874.60293	23314.825
878.41652	23331.125
882.22745	23351.625
886.03573	23370.725
889.84136	23391.025
893.64433	23331.325
897.44466	23268.325
901.24235	23218.225
905.0374	23114.625
908.8298	23090.525
912.61957	23162.325
916.40671	23488.025
920.19121	23890.925
923.97308	24145.925
927.75233	23992.925
931.52895	23627.925
935.30295	23173.625
939.07433	22728.325
942.84309	22404.425
946.60924	22183.625
950.37278	22109.125
954.13371	22114.125
957.89203	22162.025
961.64774	22205.625
965.40086	22173.625
969.15137	22098.325
972.89929	21854.525
976.64461	21650.125
980.38733	21565.825
984.12747	21564.225
987.86502	21646.525
991.59999	21696.825
995.33237	21836.025
999.06217	22119.725
1002.78939	22425.725
1006.51404	22828.325
1010.23611	23215.525
1013.95561	23551.825
1017.67255	23637.425
1021.38692	23460.225
1025.09872	23018.925
1028.80796	22662.025
1032.51465	22509.125
1036.21877	22538.025
1039.92035	22620.825
1043.61937	22746.125
1047.31584	22796.725
1051.00976	22948.125
1054.70114	23078.825
1058.38998	23255.625
1062.07627	23596.025
1065.76003	23959.025
1069.44126	24209.525
1073.11995	24570.625
1076.79611	24800.825
1080.46974	24903.725
1084.14085	24958.025
1087.80943	25166.125
1091.47549	25405.025
1095.13903	25582.225
1098.80005	25338.225
1102.45857	24733.325
1106.11456	24229.925
1109.76805	23931.525
1113.41903	23955.025
1117.06751	24128.125
1120.71348	24391.225
1124.35696	24669.425
1127.99793	25025.425
1131.63641	25352.425
1135.2724	25260.725
1138.90589	25200.325
1142.5369	25353.425
1146.16542	25764.725
1149.79145	26243.025
1153.415	26723.525
1157.03607	27290.225
1160.65467	28285.825
1164.27079	29869.725
1167.88443	31603.525
1171.49561	33388.625
1175.10432	35374.525
1178.71056	37900.125
1182.31434	40064.525
1185.91565	41097.225
1189.51451	40712.125
1193.11091	39787.125
1196.70485	38604.525
1200.29634	37428.725
1203.88538	36756.925
1207.47197	36686.225
1211.05612	36620.325
1214.63782	36002.625
1218.21708	34622.725
1221.79391	33161.325
1225.36829	32070.725
1228.94024	31393.625
1232.50976	30833.025
1236.07685	30313.025
1239.6415	30010.925
1243.20374	30003.825
1246.76355	30272.825
1250.32093	30694.125
1253.8759	31226.525
1257.42845	31972.425
1260.97859	32935.825
1264.52631	33821.925
1268.07163	34729.925
1271.61453	35718.725
1275.15503	36823.325
1278.69312	38169.825
1282.22882	39710.825
1285.76211	41617.725
1289.29301	44002.025
1292.82151	46925.525
1296.34761	50292.325
1299.87133	53885.625
1303.39266	56998.825
1306.9116	59292.125
1310.42815	60686.525
1313.94233	61327.225
1317.45412	60864.225
1320.96354	60214.125
1324.47058	59738.125
1327.97525	59500.225
1331.47754	59276.825
1334.97747	58827.225
1338.47502	57939.025
1341.97022	56712.325
1345.46305	55451.825
1348.95352	54251.025
1352.44163	53585.525
1355.92738	54006.125
1359.41078	55298.225
1362.89183	56221.125
1366.37053	55099.525
1369.84688	51235.625
1373.32088	46256.325
1376.79254	42952.225
1380.26186	42280.325
1383.72883	43013.325
1387.19347	43701.525
1390.65578	43850.125
1394.11575	44081.025
1397.57339	44788.425
1401.0287	45827.925
1404.48168	46280.825
1407.93234	45779.425
1411.38068	44126.425
1414.82669	41791.325
1418.27039	39242.225
1421.71177	36957.425
1425.15083	35108.025
1428.58758	34258.125
1432.02203	34588.025
1435.45416	35753.225
1438.88399	37223.625
1442.31151	38358.925
1445.73673	39093.625
1449.15965	39677.825
1452.58027	40068.025
1455.9986	40360.525
1459.41463	40627.725
1462.82837	41027.825
1466.23982	41519.925
1469.64898	41975.425
1473.05586	42140.025
1476.46045	41965.325
1479.86276	41379.525
1483.26279	40649.025
1486.66054	40085.625
1490.05602	40059.125
1493.44922	40245.825
1496.84016	40470.425
1500.22882	41004.525
1503.61521	41754.625
1506.99934	42695.725
1510.38121	43538.925
1513.76081	43809.525
1517.13816	43537.225
1520.51324	43127.325
1523.88607	43178.325
1527.25665	43661.225
1530.62498	44168.625
1533.99105	44130.625
1537.35488	43563.825
1540.71647	42304.625
1544.07581	40716.225
1547.4329	39124.925
1550.78776	37723.525
1554.14038	36722.925
1557.49077	36043.125
1560.83892	35702.125
1564.18484	35580.725
1567.52853	35750.725
1570.86999	36310.925
1574.20922	37487.925
1577.54624	38695.925
1580.88103	39571.925
1584.2136	40569.125
1587.54395	42116.925
1590.87208	44180.525
1594.19801	46608.125
1597.52172	48569.725
1600.84321	48717.425
1604.16251	46011.025
1607.47959	41720.225
1610.79447	37454.425
1614.10715	33829.025
1617.41763	31015.525
1620.7259	29113.725
1624.03199	28297.225
1627.33587	28414.325
1630.63757	29586.525
1633.93707	31939.825
1637.23439	35936.825
1640.52951	41610.825
1643.82246	48239.625
1647.11321	53358.325
1650.40179	53884.525
1653.68819	49195.325
1656.97241	41752.825
1660.25446	34631.825
1663.53433	29382.125
1666.81203	25899.425
1670.08756	23776.425
1673.36092	22440.425
1676.63211	21593.725
1679.90115	21046.925
1683.16801	20540.025
1686.43272	20221.525
1689.69527	19968.625
1692.95567	19754.025
1696.2139	19597.025
1699.46999	19443.325
1702.72392	19323.125
1705.97571	19255.825
1709.22535	19179.625
1712.47284	19107.525
1715.71819	19054.025
1718.96139	18993.825
1722.20246	18929.425
1725.44139	18826.725
1728.67818	18695.325
1731.91284	18541.025
1735.14537	18420.825
1738.37576	18304.525
1741.60403	18244.725
1744.83017	18152.625
1748.05418	18106.225
1751.27607	18064.725
1754.49584	18026.425
1757.71349	18006.325
1760.92903	17986.725
1764.14244	17947.825
1767.35375	17932.825
1770.56294	17868.525
1773.77002	17804.425
1776.97499	17734.025
1780.17785	17669.925
1783.37861	17655.425
1786.57727	17628.625
1789.77382	17581.125
1792.96828	17517.925
1796.16064	17467.525
1799.3509	17435.025
1802.53907	17377.325
1805.72514	17303.825
1808.90913	17251.825
1812.09102	17203.825
1815.27083	17133.525
1818.44856	17123.925
1821.6242	17101.025
1824.79776	17070.025
1827.96924	17029.725
1831.13864	16979.525
1834.30597	17001.425
1837.47122	16997.425
1840.6344	16966.325
1843.7955	16956.725
1846.95454	16950.925
1850.11151	16887.625
1853.26642	16885.925
1856.41926	16872.225
1859.57004	16879.425
1862.71876	16810.825
1865.86542	16764.125
1869.01003	16767.025
1872.15258	16737.325
1875.29308	16674.825
1878.43152	16654.125
1881.56792	16652.425
1884.70227	16622.325
1887.83457	16598.825
1890.96482	16588.825
1894.09304	16525.825
1897.21921	16499.725
1900.34335	16466.425
1903.46544	16418.325
1906.58551	16415.225
1909.70353	16373.825
1912.81953	16330.125
1915.93349	16289.825
1919.04543	16250.925
1922.15534	16245.325
1925.26322	16195.025
1928.36908	16110.825
1931.47292	16108.925
1934.57473	16051.525
1937.67453	16019.125
1940.77232	15988.025
1943.86808	15890.025
1946.96184	15813.925
1950.05358	15802.825
1953.14331	15748.525
1956.23103	15663.525
1959.31675	15616.925
1962.40046	15576.925
1965.48217	15502.625
1968.56188	15437.925
1971.63959	15375.625
1974.7153	15335.825
1977.78901	15302.425
1980.86073	15256.325
1983.93046	15187.225
1986.99819	15130.025
1990.06394	15097.525
1993.1277	15044.825
1996.18947	14983.225
1999.24925	14961.425
2002.30706	14875.125
2005.36288	14829.525
2008.41672	14785.025
2011.46859	14736.125
2014.51848	14686.725
2017.56639	14638.125
2020.61233	14598.925
2023.6563	14533.625
2026.6983	14497.125
2029.73833	14411.225
2032.7764	14398.425
2035.8125	14402.125
2038.84664	14350.225
2041.87881	14325.025
2044.90903	14275.325
2047.93729	14254.025
2050.96359	14244.725
2053.98794	14199.425
2057.01034	14184.025
2060.03078	14200.325
2063.04927	14167.725
2066.06582	14169.925
2069.08042	14153.225
2072.09307	14148.125
2075.10378	14096.325
2078.11255	14087.825
2081.11938	14111.225
2084.12426	14046.925
2087.12722	14057.925
2090.12824	14031.525
2093.12732	14034.225
2096.12447	14034.625
2099.11969	13983.925
2102.11299	13997.625
2105.10435	13976.325
2108.09379	13999.025
2111.08131	13974.525
2114.0669	13969.425
2117.05057	13992.525
2120.03233	13984.625
2123.01216	13971.025
2125.99008	13980.925
2128.96609	13985.925
2131.94018	13970.325
2134.91236	13956.325
2137.88263	13990.825
2140.851	13979.725
2143.81746	13954.125
2146.78201	13930.525
2149.74466	13921.025
2152.7054	13925.025
2155.66425	13889.425
2158.6212	13888.225
2161.57625	13822.625
2164.52941	13822.025
2167.48067	13845.825
2170.43004	13837.025
2173.37752	13830.825
2176.32311	13811.725
2179.26681	13832.325
2182.20863	13833.025
2185.14856	13844.325
2188.08661	13838.525
2191.02278	13813.025
2193.95707	13776.525
2196.88948	13742.725
2199.82001	13738.425
2202.74867	13691.225
2205.67545	13688.725
2208.60037	13638.425
2211.52341	13616.825
2214.44458	13579.025
2217.36388	13544.525
2220.28132	13502.025
2223.1969	13449.325
2226.11061	13467.825
2229.02246	13454.325
2231.93245	13417.125
2234.84058	13351.025
2237.74686	13361.925
2240.65128	13339.725
2243.55385	13312.325
2246.45456	13273.225
2249.35343	13253.625
2252.25044	13222.025
2255.14561	13161.425
2258.03893	13135.725
2260.93041	13072.925
2263.82004	13026.425
2266.70783	12982.625
2269.59378	12963.225
2272.4779	12935.425
2275.36017	12868.725
2278.24061	12847.625
2281.11922	12829.625
2283.996	12812.225
2286.87094	12806.825
2289.74405	12748.425
2292.61534	12733.025
2295.4848	12709.225
2298.35243	12712.925
2301.21824	12705.925
2304.08223	12704.325
2306.94439	12688.225
2309.80474	12670.225
2312.66327	12640.825
2315.51999	12637.725
2318.37489	12627.025
2321.22797	12577.225
2324.07925	12552.425
2326.92871	12560.125
2329.77637	12556.225
2332.62222	12510.125
2335.46626	12495.625
2338.3085	12477.525
2341.14893	12472.725
2343.98756	12456.325
2346.8244	12459.025
2349.65943	12412.925
2352.49267	12409.625
2355.32411	12403.425
2358.15376	12400.225
2360.98161	12405.525
2363.80768	12396.325
2366.63195	12395.925
2369.45444	12387.525
2372.27514	12334.625
2375.09405	12309.825
2377.91118	12274.525
2380.72652	12252.925
2383.54009	12232.225
2386.35187	12250.325
2389.16188	12199.925
2391.97011	12150.525
2394.77657	12098.525
2397.58125	12073.725
2400.38416	12044.625
2403.18529	12043.125
2405.98466	12015.525
2408.78226	12028.325
2411.57809	12024.325
2414.37216	11987.225
2417.16446	11994.425
2419.955	11978.325
2422.74378	11928.925
2425.5308	11930.225
2428.31606	11904.425
2431.09956	11889.225
2433.88131	11893.225
2436.6613	11890.025
2439.43954	11897.325
2442.21603	11865.825
2444.99077	11832.325
2447.76377	11864.425
2450.53501	11812.825
2453.30451	11808.725
2456.07226	11796.525
2458.83827	11800.925
2461.60254	11768.725
2464.36507	11756.925
2467.12586	11754.725
2469.88492	11763.725
2472.64224	11765.425
2475.39782	11766.425
2478.15167	11763.925
2480.90379	11743.425
2483.65417	11745.225
2486.40283	11740.325
2489.14976	11747.425
2491.89497	11726.325
2494.63845	11733.625
2497.3802	11751.425
2500.12024	11724.325
2502.85855	11710.225
2505.59514	11707.925
2508.33002	11679.225
2511.06318	11662.325
2513.79462	11634.625
2516.52435	11639.725
2519.25237	11640.525
2521.97867	11606.525
2524.70327	11568.725
2527.42616	11569.025
2530.14734	11598.725
2532.86681	11595.525
2535.58458	11564.525
2538.30065	11560.225
2541.01501	11536.925
2543.72768	11524.625
2546.43864	11532.725
2549.14791	11480.025
2551.85548	11478.125
2554.56136	11449.425
2557.26554	11436.325
2559.96803	11423.125
2562.66883	11408.625
2565.36794	11417.025
2568.06536	11392.525
2570.7611	11390.025
2573.45514	11340.525
2576.14751	11357.725
2578.83819	11307.925
2581.52719	11337.325
2584.21451	11327.025
2586.90015	11300.925
2589.58411	11326.825
2592.2664	11303.025
2594.94701	11292.225
2597.62594	11299.925
2600.30321	11283.925
2602.9788	11231.125
2605.65273	11245.925
2608.32498	11255.525
2610.99557	11248.325
2613.66449	11262.625
2616.33175	11268.625
2618.99734	11229.325
2621.66128	11249.425
2624.32355	11212.025
2626.98416	11193.625
2629.64311	11190.025
2632.30041	11174.625
2634.95605	11176.525
2637.61004	11179.725
2640.26238	11150.525
2642.91306	11125.325
2645.56209	11110.825
2648.20948	11161.525
2650.85521	11177.125
2653.4993	11168.125
2656.14175	11136.625
2658.78255	11156.325
2661.42171	11175.625
2664.05923	11174.525
2666.6951	11149.525
2669.32934	11178.825
2671.96194	11161.725
2674.59291	11145.625
2677.22224	11139.125
2679.84993	11122.825
2682.476	11125.725
2685.10043	11122.925
2687.72324	11119.625
2690.34441	11112.825
2692.96396	11106.025
2695.58188	11097.625
2698.19818	11092.125
2700.81285	11125.725
2703.4259	11116.325
2706.03733	11109.325
2708.64714	11111.925
2711.25533	11122.925
2713.86191	11124.325
2716.46687	11142.225
2719.07021	11134.425
2721.67194	11150.525
2724.27206	11147.525
2726.87057	11155.225
2729.46747	11166.325
2732.06276	11177.825
2734.65644	11177.625
2737.24852	11166.625
2739.83899	11145.725
2742.42786	11170.025
2745.01513	11141.425
2747.60079	11117.525
2750.18486	11123.525
2752.76733	11112.025
2755.3482	11100.025
2757.92747	11097.825
2760.50515	11069.525
2763.08123	11077.125
2765.65573	11061.725
2768.22863	11058.325
2770.79994	11080.025
2773.36967	11077.025
2775.9378	11070.225
2778.50435	11081.925
2781.06932	11052.925
2783.6327	11050.025
2786.1945	11014.325
2788.75471	11038.125
2791.31335	11037.325
2793.87041	11015.725
2796.42589	10966.725
2798.97979	10980.525
2801.53212	10958.925
2804.08288	10940.025
2806.63206	10901.725
2809.17967	10905.525
2811.72571	10863.925
2814.27018	10851.325
2816.81308	10825.125
2819.35442	10784.925
2821.89419	10758.825
2824.43239	10768.725
2826.96904	10781.225
2829.50412	10753.625
2832.03763	10712.725
2834.56959	10709.525
2837.1	10723.925
2839.62884	10726.425
2842.15613	10742.925
2844.68186	10806.625
2847.20604	10809.425
2849.72867	10807.125
2852.24974	10820.225
2854.76927	10819.125
2857.28724	10797.425
2859.80367	10783.925
2862.31855	10761.525
2864.83189	10710.325
2867.34368	10690.425
2869.85393	10688.725
2872.36264	10705.325
2874.8698	10689.925
2877.37543	10662.525
2879.87952	10656.725
2882.38207	10633.725
2884.88308	10656.825
2887.38256	10660.125
2889.88051	10644.125
2892.37692	10633.025
2894.8718	10656.325
2897.36515	10681.225
2899.85698	10641.025
2902.34727	10660.425
2904.83604	10645.325
2907.32328	10708.825
2909.809	10677.725
2912.29319	10685.425
2914.77587	10677.025
2917.25702	10629.425
2919.73665	10654.125
2922.21476	10642.925
2924.69136	10628.725
2927.16644	10662.525
2929.64	10641.925
2932.11205	10627.625
2934.58258	10601.525
2937.05161	10598.125
2939.51912	10583.725
2941.98513	10574.225
2944.44962	10535.225
2946.91261	10511.125
2949.37409	10501.225
2951.83407	10456.125
2954.29254	10441.525
2956.74951	10430.325
2959.20498	10453.825
2961.65895	10397.125
2964.11142	10368.725
2966.56239	10368.225
2969.01186	10364.825
2971.45984	10354.325
2973.90632	10306.325
2976.35131	10275.625
2978.7948	10258.725
2981.23681	10216.125
2983.67732	10199.325
2986.11635	10173.925
2988.55388	10153.325
2990.98993	10066.925
2993.4245	10041.025
2995.85758	10026.125
2998.28917	9993.025
3000.71928	9960.325
3003.14791	9952.125
3005.57506	9925.025
3008.00073	9891.425
3010.42493	9857.725
3012.84764	9852.925
3015.26888	9839.125
3017.68865	9788.525
3020.10694	9774.025
3022.52376	9742.325
3024.9391	9698.525
3027.35298	9710.525
3029.76539	9702.325
3032.17632	9692.625
3034.5858	9689.925
3036.9938	9690.725
3039.40034	9693.725
3041.80542	9683.025
3044.20903	9648.825
3046.61118	9670.225
3049.01187	9590.125
3051.4111	9580.225
3053.80888	9527.525
3056.20519	9550.925
3058.60005	9504.125
3060.99345	9499.325
3063.3854	9456.925
3065.7759	9414.125
3068.16494	9367.725
3070.55254	9327.225
3072.93868	9288.225
3075.32338	9256.625
3077.70662	9259.525
3080.08842	9205.125
3082.46878	9187.725
3084.84769	9160.825
3087.22515	9164.625
3089.60118	9173.125
3091.97576	9151.925
3094.3489	9128.325
3096.72061	9150.125
3099.09087	9154.925
3101.4597	9128.825
3103.82709	9100.225
3106.19305	9077.525
3108.55757	9082.125
3110.92066	9028.825
3113.28232	9050.325
3115.64255	8999.825
3118.00134	8979.625
3120.35871	8980.325
3122.71466	8956.625
3125.06917	8933.525
3127.42226	8897.625
3129.77393	8898.025
3132.12417	8864.825
3134.47299	8855.025
