Data from AgNPs_FTO_APTES_UA_5uM_CRN_100uM_R6G_10uM_NaF_0.1M_Addition_RamanShift__4__14-40-56-869.txt Node

Date: Mon Feb 07 14:40:56 GMT 2022
User: TCL
Spectrometer: QEP01345
Trigger mode: 4
Integration Time (sec): 7.000000E0
Scans to average: 10
Electric dark correction enabled: true
Nonlinearity correction enabled: false
Boxcar width: 0
XAxis mode: Raman Shifts
Number of Pixels in Spectrum: 1044
>>>>>Begin Spectral Data<<<<<
46.04893	-0.6875
50.45542	-1.3875
54.85868	-0.6875
59.25871	0.5125
63.6555	61.2125
68.04907	69.9125
72.43941	72.7125
76.82654	74.8125
81.21044	77.2125
85.59113	78.5125
89.96862	83.1125
94.34289	82.9125
98.71396	89.6125
103.08183	90.7125
107.4465	92.4125
111.80798	93.7125
116.16626	103.6125
120.52136	104.5125
124.87327	109.0125
129.222	119.7125
133.56755	126.8125
137.90993	142.0125
142.24913	155.0125
146.58517	181.9125
150.91804	205.8125
155.24774	252.9125
159.57429	316.7125
163.89768	420.7125
168.21792	555.4125
172.53501	760.4125
176.84895	1063.9125
181.15975	1491.4125
185.46741	2091.2125
189.77193	2893.2125
194.07331	3876.1125
198.37157	4996.6125
202.6667	6145.8125
206.9587	7312.1125
211.24758	8440.1125
215.53334	9579.4125
219.81599	10788.3125
224.09553	12120.6125
228.37195	13571.9125
232.64527	15132.5125
236.91549	16775.9125
241.18261	18408.9125
245.44663	19953.8125
249.70755	21418.4125
253.96539	22606.1125
258.22014	23716.9125
262.4718	24598.4125
266.72039	25192.4125
270.96589	25600.3125
275.20832	25713.8125
279.44768	25666.4125
283.68397	25570.2125
287.91719	25430.9125
292.14735	25475.7125
296.37445	25515.4125
300.59849	25693.3125
304.81948	25778.0125
309.03742	25698.8125
313.25231	25342.7125
317.46415	24715.1125
321.67296	23992.2125
325.87872	23441.2125
330.08145	23040.8125
334.28114	22958.6125
338.47781	23051.5125
342.67145	23193.5125
346.86207	23481.1125
351.04966	23840.2125
355.23424	24238.1125
359.4158	24543.9125
363.59435	24844.0125
367.76989	25045.0125
371.94243	25145.1125
376.11196	25209.8125
380.27849	25282.1125
384.44203	25373.1125
388.60257	25519.9125
392.76012	25851.2125
396.91468	26228.8125
401.06626	26658.8125
405.21485	26909.1125
409.36047	26895.1125
413.50311	26538.1125
417.64277	26409.7125
421.77947	26511.2125
425.9132	26663.0125
430.04396	26762.5125
434.17176	26869.8125
438.2966	27030.5125
442.41849	27437.7125
446.53742	28150.5125
450.6534	28959.9125
454.76644	29565.9125
458.87653	29829.2125
462.98368	29743.5125
467.08789	29510.4125
471.18916	29181.0125
475.2875	29011.8125
479.38291	29055.8125
483.4754	29046.2125
487.56496	28703.8125
491.6516	28038.4125
495.73531	27311.8125
499.81612	26849.9125
503.89401	26867.8125
507.96899	26933.3125
512.04106	26900.5125
516.11023	26626.3125
520.1765	26189.2125
524.23987	25765.5125
528.30034	25338.1125
532.35792	25118.9125
536.41261	24832.5125
540.46441	24614.4125
544.51333	24693.3125
548.55936	25099.0125
552.60252	25743.5125
556.64279	26497.6125
560.6802	27127.9125
564.71473	27589.1125
568.7464	28337.6125
572.7752	29552.5125
576.80114	30843.0125
580.82422	31917.9125
584.84444	32920.3125
588.86181	33948.5125
592.87633	34611.5125
596.888	33892.7125
600.89682	32365.4125
604.9028	31752.5125
608.90594	32821.5125
612.90624	33911.2125
616.90371	31572.6125
620.89834	27059.9125
624.89015	25179.0125
628.87913	25115.8125
632.86528	25298.7125
636.84862	25264.1125
640.82913	24848.6125
644.80683	24253.0125
648.78172	23847.2125
652.75379	23754.6125
656.72306	23950.8125
660.68952	24153.3125
664.65319	23990.0125
668.61405	23599.4125
672.57211	23533.3125
676.52738	23634.3125
680.47986	23653.6125
684.42955	23472.5125
688.37646	23383.2125
692.32058	23520.7125
696.26192	23810.4125
700.20048	24139.8125
704.13626	24354.3125
708.06928	24529.7125
711.99952	24506.6125
715.927	24423.3125
719.85171	24447.9125
723.77365	24290.5125
727.69284	23908.4125
731.60928	23580.5125
735.52295	23410.9125
739.43388	23364.8125
743.34206	23431.5125
747.24749	23552.8125
751.15017	23914.5125
755.05012	24417.3125
758.94733	25269.9125
762.8418	26590.6125
766.73354	28389.3125
770.62254	29908.3125
774.50882	29817.1125
778.39237	28187.1125
782.27321	26234.7125
786.15132	24732.3125
790.02671	23825.1125
793.89938	23376.8125
797.76935	23155.6125
801.6366	23138.3125
805.50115	23113.3125
809.36299	22969.8125
813.22213	22819.1125
817.07857	22771.0125
820.93231	22674.9125
824.78336	22464.5125
828.63172	22240.0125
832.47738	22114.3125
836.32036	22105.1125
840.16066	22139.7125
843.99827	22168.9125
847.8332	22093.1125
851.66546	22087.8125
855.49504	22096.1125
859.32195	22071.0125
863.1462	22022.5125
866.96777	21936.0125
870.78668	21858.8125
874.60293	21820.4125
878.41652	21779.9125
882.22745	21830.9125
886.03573	21913.7125
889.84136	21920.8125
893.64433	21856.6125
897.44466	21761.2125
901.24235	21706.6125
905.0374	21630.6125
908.8298	21612.1125
912.61957	21734.9125
916.40671	22066.3125
920.19121	22513.2125
923.97308	22773.7125
927.75233	22624.2125
931.52895	22233.7125
935.30295	21800.0125
939.07433	21326.2125
942.84309	21005.8125
946.60924	20799.1125
950.37278	20719.6125
954.13371	20711.7125
957.89203	20736.9125
961.64774	20735.7125
965.40086	20766.0125
969.15137	20673.4125
972.89929	20474.1125
976.64461	20302.2125
980.38733	20235.6125
984.12747	20242.0125
987.86502	20330.2125
991.59999	20507.3125
995.33237	20699.5125
999.06217	21049.5125
1002.78939	21501.1125
1006.51404	21845.6125
1010.23611	22162.5125
1013.95561	22421.7125
1017.67255	22496.7125
1021.38692	22271.5125
1025.09872	21930.3125
1028.80796	21811.9125
1032.51465	21960.3125
1036.21877	22234.1125
1039.92035	22393.1125
1043.61937	22399.8125
1047.31584	22227.4125
1051.00976	22134.2125
1054.70114	22137.1125
1058.38998	22255.2125
1062.07627	22543.9125
1065.76003	22915.1125
1069.44126	23260.7125
1073.11995	23567.6125
1076.79611	23832.1125
1080.46974	23941.1125
1084.14085	24010.6125
1087.80943	24253.5125
1091.47549	24584.7125
1095.13903	24752.9125
1098.80005	24476.1125
1102.45857	23826.6125
1106.11456	23226.2125
1109.76805	22939.9125
1113.41903	22887.5125
1117.06751	23012.9125
1120.71348	23265.1125
1124.35696	23555.7125
1127.99793	23841.2125
1131.63641	24071.2125
1135.2724	24063.6125
1138.90589	24037.2125
1142.5369	24208.1125
1146.16542	24546.6125
1149.79145	24987.4125
1153.415	25432.9125
1157.03607	26042.0125
1160.65467	27170.8125
1164.27079	28859.9125
1167.88443	30714.2125
1171.49561	32611.9125
1175.10432	34608.8125
1178.71056	37115.5125
1182.31434	39420.7125
1185.91565	40621.7125
1189.51451	40529.8125
1193.11091	39671.6125
1196.70485	38470.5125
1200.29634	37087.6125
1203.88538	36346.0125
1207.47197	36185.8125
1211.05612	36040.5125
1214.63782	35370.8125
1218.21708	33982.0125
1221.79391	32452.4125
1225.36829	31208.8125
1228.94024	30343.7125
1232.50976	29719.4125
1236.07685	29268.5125
1239.6415	29134.4125
1243.20374	29185.1125
1246.76355	29488.1125
1250.32093	29983.9125
1253.8759	30717.8125
1257.42845	31602.7125
1260.97859	32564.5125
1264.52631	33466.5125
1268.07163	34447.0125
1271.61453	35541.4125
1275.15503	36717.4125
1278.69312	38145.4125
1282.22882	39669.6125
1285.76211	41494.8125
1289.29301	43694.2125
1292.82151	46464.9125
1296.34761	49885.0125
1299.87133	53624.5125
1303.39266	57025.0125
1306.9116	59574.3125
1310.42815	60967.8125
1313.94233	61305.5125
1317.45412	60660.8125
1320.96354	59984.9125
1324.47058	59831.4125
1327.97525	59894.7125
1331.47754	59935.4125
1334.97747	59717.0125
1338.47502	59009.4125
1341.97022	58112.8125
1345.46305	56753.3125
1348.95352	55457.2125
1352.44163	54522.1125
1355.92738	54582.2125
1359.41078	55612.0125
1362.89183	56390.4125
1366.37053	55349.4125
1369.84688	51410.7125
1373.32088	46362.6125
1376.79254	42713.0125
1380.26186	41823.8125
1383.72883	42469.0125
1387.19347	43207.0125
1390.65578	43236.9125
1394.11575	43300.0125
1397.57339	44040.7125
1401.0287	45094.4125
1404.48168	45741.0125
1407.93234	45507.9125
1411.38068	44029.8125
1414.82669	41626.0125
1418.27039	39034.8125
1421.71177	36626.0125
1425.15083	34741.4125
1428.58758	33816.8125
1432.02203	34080.2125
1435.45416	35282.0125
1438.88399	36787.9125
1442.31151	38065.9125
1445.73673	38920.6125
1449.15965	39625.5125
1452.58027	40022.6125
1455.9986	40203.0125
1459.41463	40480.5125
1462.82837	40925.1125
1466.23982	41539.2125
1469.64898	42062.1125
1473.05586	42360.9125
1476.46045	42213.7125
1479.86276	41658.9125
1483.26279	40949.8125
1486.66054	40534.8125
1490.05602	40469.4125
1493.44922	40638.8125
1496.84016	40906.0125
1500.22882	41520.2125
1503.61521	42322.5125
1506.99934	43286.5125
1510.38121	44175.5125
1513.76081	44557.6125
1517.13816	44230.4125
1520.51324	43751.7125
1523.88607	43619.6125
1527.25665	43954.1125
1530.62498	44373.6125
1533.99105	44385.9125
1537.35488	43802.2125
1540.71647	42661.0125
1544.07581	41073.8125
1547.4329	39354.9125
1550.78776	38006.3125
1554.14038	36964.8125
1557.49077	36382.1125
1560.83892	36038.2125
1564.18484	35891.3125
1567.52853	35983.6125
1570.86999	36435.0125
1574.20922	37448.0125
1577.54624	38587.3125
1580.88103	39415.8125
1584.2136	40508.0125
1587.54395	42167.5125
1590.87208	44546.7125
1594.19801	47104.2125
1597.52172	49134.4125
1600.84321	49012.4125
1604.16251	46061.8125
1607.47959	41810.7125
1610.79447	37539.1125
1614.10715	33876.8125
1617.41763	30981.3125
1620.7259	28943.1125
1624.03199	27971.5125
1627.33587	27983.8125
1630.63757	29064.7125
1633.93707	31385.0125
1637.23439	35249.9125
1640.52951	40757.8125
1643.82246	47278.2125
1647.11321	52319.1125
1650.40179	53178.8125
1653.68819	48988.3125
1656.97241	41827.4125
1660.25446	34768.4125
1663.53433	29274.8125
1666.81203	25597.0125
1670.08756	23349.2125
1673.36092	21888.2125
1676.63211	20937.1125
1679.90115	20297.3125
1683.16801	19802.3125
1686.43272	19461.7125
1689.69527	19199.7125
1692.95567	18994.5125
1696.2139	18829.3125
1699.46999	18712.2125
1702.72392	18601.6125
1705.97571	18496.7125
1709.22535	18412.6125
1712.47284	18369.2125
1715.71819	18279.7125
1718.96139	18202.4125
1722.20246	18141.2125
1725.44139	18011.5125
1728.67818	17885.7125
1731.91284	17732.7125
1735.14537	17625.1125
1738.37576	17511.5125
1741.60403	17448.1125
1744.83017	17373.9125
1748.05418	17310.9125
1751.27607	17262.1125
1754.49584	17224.4125
1757.71349	17219.0125
1760.92903	17209.9125
1764.14244	17211.3125
1767.35375	17154.9125
1770.56294	17100.2125
1773.77002	17055.0125
1776.97499	16981.4125
1780.17785	16935.2125
1783.37861	16910.7125
1786.57727	16851.4125
1789.77382	16811.7125
1792.96828	16784.5125
1796.16064	16722.9125
1799.3509	16669.4125
1802.53907	16614.5125
1805.72514	16578.7125
1808.90913	16508.4125
1812.09102	16484.8125
1815.27083	16457.5125
1818.44856	16395.1125
1821.6242	16344.1125
1824.79776	16312.2125
1827.96924	16306.5125
1831.13864	16297.0125
1834.30597	16310.9125
1837.47122	16279.9125
1840.6344	16257.6125
1843.7955	16269.3125
1846.95454	16262.7125
1850.11151	16253.0125
1853.26642	16191.6125
1856.41926	16226.2125
1859.57004	16215.0125
1862.71876	16164.9125
1865.86542	16113.6125
1869.01003	16114.3125
1872.15258	16063.4125
1875.29308	16038.1125
1878.43152	16013.1125
1881.56792	16012.4125
1884.70227	15976.7125
1887.83457	15951.5125
1890.96482	15929.1125
1894.09304	15878.7125
1897.21921	15858.4125
1900.34335	15849.0125
1903.46544	15836.2125
1906.58551	15779.1125
1909.70353	15775.3125
1912.81953	15756.2125
1915.93349	15696.2125
1919.04543	15684.3125
1922.15534	15642.6125
1925.26322	15584.9125
1928.36908	15535.5125
1931.47292	15497.0125
1934.57473	15466.4125
1937.67453	15408.6125
1940.77232	15370.2125
1943.86808	15320.9125
1946.96184	15260.9125
1950.05358	15214.0125
1953.14331	15210.0125
1956.23103	15155.8125
1959.31675	15086.2125
1962.40046	15045.6125
1965.48217	14983.9125
1968.56188	14954.2125
1971.63959	14898.4125
1974.7153	14833.1125
1977.78901	14763.0125
1980.86073	14710.4125
1983.93046	14688.2125
1986.99819	14597.8125
1990.06394	14556.3125
1993.1277	14551.9125
1996.18947	14466.6125
1999.24925	14442.7125
2002.30706	14406.7125
2005.36288	14308.2125
2008.41672	14322.4125
2011.46859	14248.2125
2014.51848	14185.6125
2017.56639	14197.9125
2020.61233	14158.8125
2023.6563	14117.8125
2026.6983	14057.8125
2029.73833	14008.8125
2032.7764	14014.9125
2035.8125	13980.6125
2038.84664	13945.2125
2041.87881	13887.9125
2044.90903	13875.9125
2047.93729	13846.1125
2050.96359	13846.4125
2053.98794	13832.2125
2057.01034	13824.1125
2060.03078	13826.9125
2063.04927	13767.2125
2066.06582	13779.0125
2069.08042	13795.7125
2072.09307	13730.7125
2075.10378	13721.9125
2078.11255	13724.4125
2081.11938	13729.2125
2084.12426	13679.9125
2087.12722	13712.4125
2090.12824	13667.8125
2093.12732	13655.6125
2096.12447	13681.9125
2099.11969	13661.9125
2102.11299	13666.0125
2105.10435	13659.9125
2108.09379	13651.5125
2111.08131	13653.1125
2114.0669	13670.0125
2117.05057	13680.9125
2120.03233	13660.5125
2123.01216	13691.0125
2125.99008	13681.6125
2128.96609	13670.5125
2131.94018	13683.4125
2134.91236	13642.9125
2137.88263	13678.9125
2140.851	13660.7125
2143.81746	13681.5125
2146.78201	13629.6125
2149.74466	13638.2125
2152.7054	13634.5125
2155.66425	13624.9125
2158.6212	13599.6125
2161.57625	13587.6125
2164.52941	13592.9125
2167.48067	13572.8125
2170.43004	13574.0125
2173.37752	13576.1125
2176.32311	13547.3125
2179.26681	13550.4125
2182.20863	13539.8125
2185.14856	13552.7125
2188.08661	13556.6125
2191.02278	13556.7125
2193.95707	13544.3125
2196.88948	13529.9125
2199.82001	13486.2125
2202.74867	13480.5125
2205.67545	13470.8125
2208.60037	13413.5125
2211.52341	13423.7125
2214.44458	13409.1125
2217.36388	13382.6125
2220.28132	13356.2125
2223.1969	13302.2125
2226.11061	13326.3125
2229.02246	13287.2125
2231.93245	13244.1125
2234.84058	13226.1125
2237.74686	13173.7125
2240.65128	13185.0125
2243.55385	13150.7125
2246.45456	13128.9125
2249.35343	13077.5125
2252.25044	13073.7125
2255.14561	13052.0125
2258.03893	13026.5125
2260.93041	12984.0125
2263.82004	12934.9125
2266.70783	12907.6125
2269.59378	12807.4125
2272.4779	12793.7125
2275.36017	12758.7125
2278.24061	12747.3125
2281.11922	12737.9125
2283.996	12713.0125
2286.87094	12697.1125
2289.74405	12683.9125
2292.61534	12676.5125
2295.4848	12624.3125
2298.35243	12633.9125
2301.21824	12625.4125
2304.08223	12651.8125
2306.94439	12640.0125
2309.80474	12618.6125
2312.66327	12617.7125
2315.51999	12626.2125
2318.37489	12585.2125
2321.22797	12565.9125
2324.07925	12561.1125
2326.92871	12526.0125
2329.77637	12516.2125
2332.62222	12488.0125
2335.46626	12467.8125
2338.3085	12469.0125
2341.14893	12511.8125
2343.98756	12478.9125
2346.8244	12482.8125
2349.65943	12466.1125
2352.49267	12477.7125
2355.32411	12476.9125
2358.15376	12441.6125
2360.98161	12421.4125
2363.80768	12439.9125
2366.63195	12456.8125
2369.45444	12411.4125
2372.27514	12369.0125
2375.09405	12388.6125
2377.91118	12351.2125
2380.72652	12299.5125
2383.54009	12266.1125
2386.35187	12254.8125
2389.16188	12220.5125
2391.97011	12200.2125
2394.77657	12179.9125
2397.58125	12152.0125
2400.38416	12156.9125
2403.18529	12111.7125
2405.98466	12107.1125
2408.78226	12069.4125
2411.57809	12043.0125
2414.37216	12077.1125
2417.16446	12051.7125
2419.955	12058.4125
2422.74378	12051.6125
2425.5308	12019.0125
2428.31606	12011.0125
2431.09956	12008.9125
2433.88131	11999.4125
2436.6613	11984.7125
2439.43954	12013.6125
2442.21603	12000.6125
2444.99077	11970.8125
2447.76377	11972.1125
2450.53501	11957.4125
2453.30451	11942.3125
2456.07226	11924.1125
2458.83827	11955.6125
2461.60254	11928.3125
2464.36507	11931.0125
2467.12586	11921.8125
2469.88492	11957.1125
2472.64224	11941.3125
2475.39782	11962.5125
2478.15167	11934.4125
2480.90379	11944.4125
2483.65417	11942.1125
2486.40283	11947.1125
2489.14976	11969.1125
2491.89497	11955.1125
2494.63845	11976.2125
2497.3802	11990.6125
2500.12024	11960.2125
2502.85855	11958.1125
2505.59514	11933.6125
2508.33002	11902.7125
2511.06318	11945.5125
2513.79462	11910.2125
2516.52435	11918.0125
2519.25237	11889.5125
2521.97867	11890.4125
2524.70327	11877.2125
2527.42616	11858.3125
2530.14734	11867.8125
2532.86681	11840.6125
2535.58458	11862.8125
2538.30065	11825.4125
2541.01501	11831.9125
2543.72768	11837.1125
2546.43864	11818.6125
2549.14791	11802.6125
2551.85548	11788.6125
2554.56136	11780.5125
2557.26554	11769.7125
2559.96803	11748.6125
2562.66883	11753.1125
2565.36794	11728.0125
2568.06536	11744.0125
2570.7611	11739.9125
2573.45514	11726.4125
2576.14751	11712.8125
2578.83819	11683.5125
2581.52719	11717.2125
2584.21451	11671.9125
2586.90015	11698.4125
2589.58411	11670.1125
2592.2664	11682.3125
2594.94701	11679.0125
2597.62594	11684.9125
2600.30321	11654.3125
2602.9788	11655.1125
2605.65273	11639.6125
2608.32498	11641.9125
2610.99557	11671.0125
2613.66449	11681.2125
2616.33175	11652.2125
2618.99734	11674.2125
2621.66128	11672.9125
2624.32355	11646.5125
2626.98416	11632.4125
2629.64311	11638.9125
2632.30041	11643.0125
2634.95605	11627.3125
2637.61004	11623.2125
2640.26238	11605.9125
2642.91306	11612.0125
2645.56209	11584.9125
2648.20948	11593.0125
2650.85521	11592.7125
2653.4993	11629.0125
2656.14175	11609.9125
2658.78255	11643.5125
2661.42171	11625.9125
2664.05923	11648.2125
2666.6951	11662.1125
2669.32934	11674.8125
2671.96194	11686.4125
2674.59291	11680.8125
2677.22224	11672.1125
2679.84993	11678.8125
2682.476	11645.9125
2685.10043	11666.0125
2687.72324	11619.9125
2690.34441	11639.8125
2692.96396	11613.9125
2695.58188	11625.5125
2698.19818	11628.3125
2700.81285	11635.2125
2703.4259	11676.5125
2706.03733	11739.9125
2708.64714	11687.7125
2711.25533	11687.2125
2713.86191	11675.5125
2716.46687	11692.0125
2719.07021	11696.1125
2721.67194	11707.5125
2724.27206	11727.2125
2726.87057	11741.0125
2729.46747	11727.6125
2732.06276	11719.0125
2734.65644	11731.1125
2737.24852	11724.8125
2739.83899	11735.7125
2742.42786	11718.6125
2745.01513	11703.5125
2747.60079	11723.3125
2750.18486	11696.5125
2752.76733	11697.3125
2755.3482	11687.8125
2757.92747	11688.0125
2760.50515	11688.9125
2763.08123	11695.4125
2765.65573	11693.2125
2768.22863	11687.8125
2770.79994	11674.2125
2773.36967	11695.4125
2775.9378	11690.0125
2778.50435	11712.0125
2781.06932	11689.6125
2783.6327	11701.1125
2786.1945	11721.8125
2788.75471	11737.0125
2791.31335	11709.2125
2793.87041	11676.1125
2796.42589	11642.7125
2798.97979	11646.3125
2801.53212	11645.3125
2804.08288	11611.9125
2806.63206	11546.6125
2809.17967	11562.0125
2811.72571	11534.4125
2814.27018	11522.9125
2816.81308	11495.6125
2819.35442	11482.4125
2821.89419	11433.2125
2824.43239	11453.8125
2826.96904	11433.5125
2829.50412	11429.2125
2832.03763	11423.7125
2834.56959	11421.6125
2837.1	11406.6125
2839.62884	11450.5125
2842.15613	11458.0125
2844.68186	11500.8125
2847.20604	11502.0125
2849.72867	11503.1125
2852.24974	11541.7125
2854.76927	11500.6125
2857.28724	11508.9125
2859.80367	11493.0125
2862.31855	11442.1125
2864.83189	11433.5125
2867.34368	11417.0125
2869.85393	11419.1125
2872.36264	11401.7125
2874.8698	11388.8125
2877.37543	11362.8125
2879.87952	11349.2125
2882.38207	11344.8125
2884.88308	11368.0125
2887.38256	11386.6125
2889.88051	11388.2125
2892.37692	11378.8125
2894.8718	11385.6125
2897.36515	11416.1125
2899.85698	11405.7125
2902.34727	11425.3125
2904.83604	11436.9125
2907.32328	11461.5125
2909.809	11444.4125
2912.29319	11442.3125
2914.77587	11458.5125
2917.25702	11484.4125
2919.73665	11436.8125
2922.21476	11451.9125
2924.69136	11432.8125
2927.16644	11436.8125
2929.64	11428.3125
2932.11205	11402.8125
2934.58258	11384.4125
2937.05161	11408.3125
2939.51912	11409.2125
2941.98513	11371.5125
2944.44962	11345.8125
2946.91261	11279.3125
2949.37409	11296.6125
2951.83407	11283.2125
2954.29254	11270.5125
2956.74951	11231.5125
2959.20498	11244.4125
2961.65895	11216.0125
2964.11142	11204.7125
2966.56239	11188.9125
2969.01186	11174.1125
2971.45984	11144.9125
2973.90632	11139.8125
2976.35131	11120.9125
2978.7948	11092.0125
2981.23681	11062.8125
2983.67732	11030.7125
2986.11635	11006.9125
2988.55388	10963.4125
2990.98993	10928.5125
2993.4245	10910.2125
2995.85758	10877.3125
2998.28917	10818.0125
3000.71928	10793.6125
3003.14791	10764.3125
3005.57506	10763.5125
3008.00073	10734.5125
3010.42493	10631.4125
3012.84764	10699.8125
3015.26888	10681.5125
3017.68865	10627.8125
3020.10694	10612.0125
3022.52376	10609.1125
3024.9391	10594.1125
