Data from AgNPs_FTO_APTES_UA_5uM_CRN_200uM_R6G_10uM_NaF_0.1M_Addition_RamanShift__26__16-30-11-796.txt Node

Date: Mon Feb 07 16:30:11 GMT 2022
User: TCL
Spectrometer: QEP01345
Trigger mode: 4
Integration Time (sec): 7.000000E0
Scans to average: 10
Electric dark correction enabled: true
Nonlinearity correction enabled: false
Boxcar width: 0
XAxis mode: Raman Shifts
Number of Pixels in Spectrum: 1044
>>>>>Begin Spectral Data<<<<<
46.04893	-2.3875
50.45542	-0.2875
54.85868	-0.5875
59.25871	-1.3875
63.6555	85.0125
68.04907	85.1125
72.43941	92.5125
76.82654	91.6125
81.21044	93.4125
85.59113	97.4125
89.96862	99.6125
94.34289	106.4125
98.71396	108.4125
103.08183	113.2125
107.4465	115.9125
111.80798	119.6125
116.16626	124.3125
120.52136	130.6125
124.87327	141.1125
129.222	146.1125
133.56755	155.1125
137.90993	173.1125
142.24913	195.1125
146.58517	218.2125
150.91804	255.7125
155.24774	316.2125
159.57429	396.8125
163.89768	512.9125
168.21792	691.6125
172.53501	948.1125
176.84895	1330.6125
181.15975	1861.9125
185.46741	2620.9125
189.77193	3632.8125
194.07331	4863.5125
198.37157	6270.1125
202.6667	7770.6125
206.9587	9225.9125
211.24758	10722.0125
215.53334	12242.6125
219.81599	13868.3125
224.09553	15761.6125
228.37195	17818.7125
232.64527	20037.7125
236.91549	22298.0125
241.18261	24469.1125
245.44663	26314.0125
249.70755	27966.9125
253.96539	29426.1125
258.22014	30623.9125
262.4718	31712.8125
266.72039	32525.4125
270.96589	33028.8125
275.20832	33150.5125
279.44768	33030.4125
283.68397	32740.5125
287.91719	32587.9125
292.14735	32843.1125
296.37445	33391.5125
300.59849	34157.6125
304.81948	34787.6125
309.03742	35041.6125
313.25231	34584.7125
317.46415	33064.0125
321.67296	31062.0125
325.87872	29357.1125
330.08145	28564.5125
334.28114	28509.7125
338.47781	28847.6125
342.67145	29410.3125
346.86207	30385.4125
351.04966	31617.9125
355.23424	33087.3125
359.4158	34147.6125
363.59435	34664.6125
367.76989	34849.1125
371.94243	34913.9125
376.11196	34869.7125
380.27849	34777.8125
384.44203	34675.1125
388.60257	34512.0125
392.76012	34436.2125
396.91468	34752.2125
401.06626	35450.0125
405.21485	35975.5125
409.36047	35479.5125
413.50311	34132.4125
417.64277	32861.6125
421.77947	32179.4125
425.9132	32038.0125
430.04396	32187.3125
434.17176	32422.8125
438.2966	32944.5125
442.41849	33777.1125
446.53742	34821.6125
450.6534	35949.0125
454.76644	36718.9125
458.87653	36965.9125
462.98368	36684.2125
467.08789	36316.6125
471.18916	35949.1125
475.2875	35682.8125
479.38291	35412.6125
483.4754	35001.6125
487.56496	34261.0125
491.6516	33472.7125
495.73531	32769.4125
499.81612	32515.7125
503.89401	32613.3125
507.96899	32766.0125
512.04106	32954.8125
516.11023	33102.9125
520.1765	33170.2125
524.23987	32937.3125
528.30034	32547.3125
532.35792	32177.9125
536.41261	31669.2125
540.46441	31208.9125
544.51333	31140.4125
548.55936	31489.6125
552.60252	32417.1125
556.64279	33383.5125
560.6802	34102.2125
564.71473	34752.1125
568.7464	35967.9125
572.7752	36834.9125
576.80114	36330.7125
580.82422	35422.2125
584.84444	35016.3125
588.86181	35133.5125
592.87633	35666.1125
596.888	36086.6125
600.89682	36576.7125
604.9028	38741.6125
608.90594	45566.5125
612.90624	54736.1125
616.90371	52327.4125
620.89834	39028.4125
624.89015	32935.1125
628.87913	31930.3125
632.86528	32151.9125
636.84862	32369.6125
640.82913	31784.9125
644.80683	30565.4125
648.78172	29670.2125
652.75379	29513.2125
656.72306	30247.4125
660.68952	31295.1125
664.65319	31182.3125
668.61405	30077.6125
672.57211	29590.4125
676.52738	29545.6125
680.47986	29591.8125
684.42955	29438.6125
688.37646	29339.5125
692.32058	29389.7125
696.26192	29640.3125
700.20048	29957.2125
704.13626	30191.8125
708.06928	30125.6125
711.99952	29932.7125
715.927	29835.8125
719.85171	29842.3125
723.77365	29910.8125
727.69284	29622.7125
731.60928	29404.0125
735.52295	29320.4125
739.43388	29353.9125
743.34206	29394.6125
747.24749	29531.6125
751.15017	29811.6125
755.05012	30378.6125
758.94733	31689.6125
762.8418	34412.4125
766.73354	38998.6125
770.62254	43597.5125
774.50882	45555.2125
778.39237	43388.4125
782.27321	38270.7125
786.15132	33599.9125
790.02671	30894.1125
793.89938	29639.3125
797.76935	29125.5125
801.6366	28919.3125
805.50115	28807.6125
809.36299	28702.7125
813.22213	28580.1125
817.07857	28661.9125
820.93231	28667.5125
824.78336	28616.0125
828.63172	28636.7125
832.47738	28666.0125
836.32036	28559.6125
840.16066	28432.3125
843.99827	28402.0125
847.8332	28270.2125
851.66546	28172.6125
855.49504	28115.8125
859.32195	28108.3125
863.1462	28003.1125
866.96777	27905.6125
870.78668	27821.4125
874.60293	27852.3125
878.41652	27914.7125
882.22745	28063.1125
886.03573	28131.7125
889.84136	28061.2125
893.64433	27879.2125
897.44466	27858.7125
901.24235	27768.6125
905.0374	27680.8125
908.8298	27602.5125
912.61957	27618.9125
916.40671	27869.4125
920.19121	28183.7125
923.97308	28402.0125
927.75233	28525.7125
931.52895	28634.2125
935.30295	28334.6125
939.07433	27635.0125
942.84309	27022.2125
946.60924	26671.9125
950.37278	26476.8125
954.13371	26399.6125
957.89203	26325.6125
961.64774	26285.8125
965.40086	26228.2125
969.15137	26087.9125
972.89929	25936.9125
976.64461	25873.5125
980.38733	25797.2125
984.12747	25862.7125
987.86502	26018.2125
991.59999	26316.2125
995.33237	26646.9125
999.06217	27294.2125
1002.78939	28090.8125
1006.51404	28690.0125
1010.23611	29158.0125
1013.95561	29437.6125
1017.67255	29386.3125
1021.38692	29014.6125
1025.09872	28546.3125
1028.80796	28441.1125
1032.51465	28707.8125
1036.21877	29102.9125
1039.92035	29265.9125
1043.61937	29104.0125
1047.31584	28851.3125
1051.00976	28571.3125
1054.70114	28444.6125
1058.38998	28445.0125
1062.07627	28761.3125
1065.76003	28999.6125
1069.44126	29069.9125
1073.11995	29301.8125
1076.79611	29576.6125
1080.46974	29955.9125
1084.14085	30440.3125
1087.80943	31051.4125
1091.47549	31395.7125
1095.13903	31130.5125
1098.80005	30463.7125
1102.45857	29768.6125
1106.11456	29391.5125
1109.76805	29421.2125
1113.41903	29879.2125
1117.06751	30657.0125
1120.71348	31667.6125
1124.35696	32664.0125
1127.99793	33490.5125
1131.63641	33454.9125
1135.2724	32306.0125
1138.90589	31212.1125
1142.5369	30608.4125
1146.16542	30392.5125
1149.79145	30393.1125
1153.415	30654.3125
1157.03607	31058.5125
1160.65467	31888.0125
1164.27079	33124.8125
1167.88443	34912.4125
1171.49561	37586.9125
1175.10432	41586.6125
1178.71056	46781.0125
1182.31434	50931.1125
1185.91565	52511.1125
1189.51451	51933.3125
1193.11091	49717.0125
1196.70485	47016.0125
1200.29634	44612.6125
1203.88538	42617.5125
1207.47197	40593.1125
1211.05612	38905.5125
1214.63782	37765.9125
1218.21708	37174.0125
1221.79391	36853.6125
1225.36829	36514.4125
1228.94024	36047.8125
1232.50976	35458.5125
1236.07685	35084.3125
1239.6415	34980.4125
1243.20374	35164.6125
1246.76355	35478.9125
1250.32093	36023.1125
1253.8759	36802.9125
1257.42845	37915.0125
1260.97859	38939.1125
1264.52631	39947.8125
1268.07163	40973.5125
1271.61453	41989.8125
1275.15503	42961.2125
1278.69312	43813.5125
1282.22882	44487.2125
1285.76211	45566.8125
1289.29301	47205.7125
1292.82151	49222.1125
1296.34761	51798.5125
1299.87133	54993.8125
1303.39266	59206.3125
1306.9116	64704.3125
1310.42815	70544.0125
1313.94233	74037.5125
1317.45412	73730.4125
1320.96354	70962.6125
1324.47058	67824.7125
1327.97525	65018.4125
1331.47754	63064.8125
1334.97747	62363.2125
1338.47502	62635.4125
1341.97022	63279.0125
1345.46305	63779.6125
1348.95352	64032.7125
1352.44163	64841.0125
1355.92738	67431.2125
1359.41078	73167.4125
1362.89183	79126.2125
1366.37053	76760.0125
1369.84688	66790.3125
1373.32088	57102.2125
1376.79254	51217.2125
1380.26186	48661.2125
1383.72883	47889.5125
1387.19347	47808.1125
1390.65578	47667.4125
1394.11575	47791.5125
1397.57339	48543.0125
1401.0287	49689.8125
1404.48168	50840.8125
1407.93234	51367.4125
1411.38068	51070.7125
1414.82669	49596.3125
1418.27039	47269.7125
1421.71177	44769.5125
1425.15083	42635.1125
1428.58758	41351.6125
1432.02203	41242.5125
1435.45416	41730.3125
1438.88399	42543.5125
1442.31151	43306.7125
1445.73673	44097.2125
1449.15965	44962.6125
1452.58027	45808.2125
1455.9986	46378.4125
1459.41463	47024.9125
1462.82837	47833.8125
1466.23982	48629.2125
1469.64898	49274.9125
1473.05586	49415.6125
1476.46045	49187.3125
1479.86276	48921.9125
1483.26279	48680.8125
1486.66054	48652.2125
1490.05602	49129.2125
1493.44922	49981.2125
1496.84016	51273.5125
1500.22882	53711.7125
1503.61521	57784.7125
1506.99934	62877.7125
1510.38121	67926.1125
1513.76081	70133.9125
1517.13816	67523.7125
1520.51324	61556.7125
1523.88607	55648.2125
1527.25665	51783.0125
1530.62498	49827.4125
1533.99105	48781.1125
1537.35488	48267.5125
1540.71647	47801.0125
1544.07581	47277.3125
1547.4329	46630.1125
1550.78776	45970.2125
1554.14038	45623.3125
1557.49077	45627.2125
1560.83892	45924.5125
1564.18484	46588.7125
1567.52853	47282.6125
1570.86999	47852.5125
1574.20922	48398.9125
1577.54624	48654.4125
1580.88103	47720.4125
1584.2136	46704.0125
1587.54395	46832.3125
1590.87208	48385.6125
1594.19801	51289.3125
1597.52172	54446.0125
1600.84321	55699.1125
1604.16251	53592.5125
1607.47959	49601.7125
1610.79447	45145.9125
1614.10715	40940.0125
1617.41763	37458.3125
1620.7259	35156.8125
1624.03199	33953.3125
1627.33587	33803.4125
1630.63757	34687.3125
1633.93707	36665.6125
1637.23439	39924.4125
1640.52951	44689.2125
1643.82246	50641.2125
1647.11321	56555.6125
1650.40179	59565.4125
1653.68819	57063.1125
1656.97241	49590.6125
1660.25446	41419.9125
1663.53433	35357.1125
1666.81203	31426.6125
1670.08756	29098.8125
1673.36092	27619.2125
1676.63211	26743.6125
1679.90115	26081.6125
1683.16801	25612.9125
1686.43272	25208.8125
1689.69527	24976.4125
1692.95567	24787.8125
1696.2139	24646.2125
1699.46999	24518.8125
1702.72392	24437.9125
1705.97571	24376.5125
1709.22535	24304.5125
1712.47284	24265.6125
1715.71819	24244.5125
1718.96139	24213.1125
1722.20246	24104.9125
1725.44139	24017.1125
1728.67818	23847.3125
1731.91284	23697.7125
1735.14537	23605.4125
1738.37576	23453.4125
1741.60403	23373.1125
1744.83017	23310.1125
1748.05418	23238.0125
1751.27607	23199.4125
1754.49584	23168.5125
1757.71349	23123.4125
1760.92903	23072.4125
1764.14244	23043.7125
1767.35375	23027.6125
1770.56294	22954.9125
1773.77002	22883.4125
1776.97499	22808.8125
1780.17785	22772.3125
1783.37861	22732.9125
1786.57727	22685.4125
1789.77382	22703.3125
1792.96828	22622.9125
1796.16064	22615.2125
1799.3509	22562.9125
1802.53907	22518.6125
1805.72514	22455.2125
1808.90913	22385.3125
1812.09102	22303.4125
1815.27083	22246.3125
1818.44856	22200.5125
1821.6242	22147.7125
1824.79776	22105.3125
1827.96924	22100.8125
1831.13864	22034.6125
1834.30597	22064.8125
1837.47122	22006.7125
1840.6344	22006.2125
1843.7955	22028.8125
1846.95454	21941.7125
1850.11151	21953.1125
1853.26642	21892.0125
1856.41926	21920.3125
1859.57004	21904.5125
1862.71876	21913.8125
1865.86542	21876.9125
1869.01003	21886.3125
1872.15258	21913.9125
1875.29308	21876.8125
1878.43152	21889.0125
1881.56792	21901.5125
1884.70227	21854.1125
1887.83457	21903.7125
1890.96482	21818.2125
1894.09304	21813.0125
1897.21921	21780.6125
1900.34335	21768.5125
1903.46544	21790.8125
1906.58551	21743.0125
1909.70353	21740.9125
1912.81953	21729.7125
1915.93349	21713.3125
1919.04543	21692.5125
1922.15534	21634.0125
1925.26322	21577.3125
1928.36908	21523.1125
1931.47292	21491.7125
1934.57473	21464.8125
1937.67453	21388.6125
1940.77232	21306.5125
1943.86808	21195.9125
1946.96184	21127.7125
1950.05358	21065.1125
1953.14331	20963.6125
1956.23103	20898.5125
1959.31675	20818.7125
1962.40046	20796.8125
1965.48217	20709.9125
1968.56188	20667.2125
1971.63959	20594.6125
1974.7153	20518.2125
1977.78901	20518.4125
1980.86073	20438.9125
1983.93046	20372.6125
1986.99819	20287.1125
1990.06394	20213.5125
1993.1277	20124.1125
1996.18947	20056.9125
1999.24925	19992.9125
2002.30706	19971.8125
2005.36288	19916.4125
2008.41672	19854.5125
2011.46859	19804.7125
2014.51848	19723.7125
2017.56639	19685.1125
2020.61233	19589.8125
2023.6563	19549.2125
2026.6983	19501.7125
2029.73833	19470.0125
2032.7764	19405.2125
2035.8125	19356.7125
2038.84664	19372.2125
2041.87881	19366.0125
2044.90903	19280.5125
2047.93729	19232.9125
2050.96359	19238.6125
2053.98794	19211.7125
2057.01034	19212.1125
2060.03078	19170.7125
2063.04927	19147.5125
2066.06582	19131.7125
2069.08042	19146.7125
2072.09307	19081.1125
2075.10378	19027.7125
2078.11255	19082.6125
2081.11938	19058.3125
2084.12426	19008.3125
2087.12722	19004.9125
2090.12824	18961.1125
2093.12732	18977.1125
2096.12447	18955.4125
2099.11969	18952.1125
2102.11299	18957.8125
2105.10435	18958.1125
2108.09379	18929.2125
2111.08131	18982.4125
2114.0669	18990.1125
2117.05057	19004.6125
2120.03233	18990.2125
2123.01216	19033.9125
2125.99008	19046.9125
2128.96609	19063.5125
2131.94018	19037.7125
2134.91236	19039.0125
2137.88263	19086.5125
2140.851	19068.6125
2143.81746	19087.1125
2146.78201	19061.1125
2149.74466	19058.6125
2152.7054	19035.9125
2155.66425	19019.4125
2158.6212	18994.9125
2161.57625	18975.3125
2164.52941	18970.4125
2167.48067	18961.8125
2170.43004	18954.5125
2173.37752	18963.3125
2176.32311	18969.4125
2179.26681	19002.6125
2182.20863	18994.8125
2185.14856	19002.3125
2188.08661	18950.4125
2191.02278	18963.9125
2193.95707	18917.5125
2196.88948	18901.3125
2199.82001	18880.5125
2202.74867	18877.3125
2205.67545	18849.1125
2208.60037	18853.5125
2211.52341	18810.4125
2214.44458	18794.1125
2217.36388	18721.8125
2220.28132	18710.2125
2223.1969	18644.1125
2226.11061	18647.8125
2229.02246	18618.0125
2231.93245	18565.7125
2234.84058	18482.9125
2237.74686	18456.1125
2240.65128	18438.3125
2243.55385	18438.3125
2246.45456	18478.4125
2249.35343	18439.5125
2252.25044	18406.3125
2255.14561	18341.4125
2258.03893	18272.6125
2260.93041	18282.4125
2263.82004	18253.3125
2266.70783	18205.9125
2269.59378	18161.6125
2272.4779	18113.4125
2275.36017	18013.7125
2278.24061	18031.3125
2281.11922	17977.7125
2283.996	17950.3125
2286.87094	17905.3125
2289.74405	17869.8125
2292.61534	17856.4125
2295.4848	17826.9125
2298.35243	17821.6125
2301.21824	17855.9125
2304.08223	17891.6125
2306.94439	17905.4125
2309.80474	17842.7125
2312.66327	17854.8125
2315.51999	17850.9125
2318.37489	17842.4125
2321.22797	17793.6125
2324.07925	17769.2125
2326.92871	17739.6125
2329.77637	17766.1125
2332.62222	17715.2125
2335.46626	17704.8125
2338.3085	17721.4125
2341.14893	17743.4125
2343.98756	17725.6125
2346.8244	17691.5125
2349.65943	17683.7125
2352.49267	17661.2125
2355.32411	17706.1125
2358.15376	17728.9125
2360.98161	17713.7125
2363.80768	17705.7125
2366.63195	17721.8125
2369.45444	17703.1125
2372.27514	17708.7125
2375.09405	17616.2125
2377.91118	17548.5125
2380.72652	17522.4125
2383.54009	17467.2125
2386.35187	17437.8125
2389.16188	17362.0125
2391.97011	17310.7125
2394.77657	17240.3125
2397.58125	17207.2125
2400.38416	17191.5125
2403.18529	17153.9125
2405.98466	17152.5125
2408.78226	17079.4125
2411.57809	17109.2125
2414.37216	17076.3125
2417.16446	17081.1125
2419.955	17028.1125
2422.74378	17001.2125
2425.5308	17009.6125
2428.31606	16975.3125
2431.09956	16945.3125
2433.88131	16961.6125
2436.6613	16979.5125
2439.43954	16974.0125
2442.21603	16993.3125
2444.99077	16962.3125
2447.76377	16927.3125
2450.53501	16954.0125
2453.30451	16933.3125
2456.07226	16884.1125
2458.83827	16931.7125
2461.60254	16878.8125
2464.36507	16902.5125
2467.12586	16901.3125
2469.88492	16855.1125
2472.64224	16884.7125
2475.39782	16904.9125
2478.15167	16898.7125
2480.90379	16900.7125
2483.65417	16939.8125
2486.40283	16938.5125
2489.14976	17010.3125
2491.89497	16980.7125
2494.63845	17033.9125
2497.3802	17028.9125
2500.12024	16977.8125
2502.85855	16953.6125
2505.59514	16959.2125
2508.33002	16893.5125
2511.06318	16879.9125
2513.79462	16809.0125
2516.52435	16791.6125
2519.25237	16787.7125
2521.97867	16713.5125
2524.70327	16692.4125
2527.42616	16669.3125
2530.14734	16705.8125
2532.86681	16667.8125
2535.58458	16688.9125
2538.30065	16658.9125
2541.01501	16675.0125
2543.72768	16646.3125
2546.43864	16624.9125
2549.14791	16601.9125
2551.85548	16585.5125
2554.56136	16537.8125
2557.26554	16522.8125
2559.96803	16491.0125
2562.66883	16483.1125
2565.36794	16452.8125
2568.06536	16482.1125
2570.7611	16467.8125
2573.45514	16410.2125
2576.14751	16422.7125
2578.83819	16424.1125
2581.52719	16392.6125
2584.21451	16380.2125
2586.90015	16381.9125
2589.58411	16379.5125
2592.2664	16389.5125
2594.94701	16351.6125
2597.62594	16347.0125
2600.30321	16303.2125
2602.9788	16281.6125
2605.65273	16274.8125
2608.32498	16325.7125
2610.99557	16319.9125
2613.66449	16344.9125
2616.33175	16313.7125
2618.99734	16294.5125
2621.66128	16295.1125
2624.32355	16276.5125
2626.98416	16256.8125
2629.64311	16267.5125
2632.30041	16264.6125
2634.95605	16227.4125
2637.61004	16208.1125
2640.26238	16184.7125
2642.91306	16158.9125
2645.56209	16108.0125
2648.20948	16150.6125
2650.85521	16179.1125
2653.4993	16153.3125
2656.14175	16121.2125
2658.78255	16214.9125
2661.42171	16188.2125
2664.05923	16182.2125
2666.6951	16223.4125
2669.32934	16215.1125
2671.96194	16216.4125
2674.59291	16213.9125
2677.22224	16202.4125
2679.84993	16229.7125
2682.476	16178.0125
2685.10043	16189.8125
2687.72324	16149.4125
2690.34441	16162.9125
2692.96396	16139.9125
2695.58188	16170.0125
2698.19818	16151.1125
2700.81285	16157.9125
2703.4259	16148.1125
2706.03733	16179.7125
2708.64714	16198.5125
2711.25533	16197.9125
2713.86191	16194.4125
2716.46687	16233.2125
2719.07021	16216.2125
2721.67194	16224.0125
2724.27206	16226.4125
2726.87057	16275.1125
2729.46747	16280.2125
2732.06276	16285.9125
2734.65644	16225.8125
2737.24852	16228.5125
2739.83899	16217.8125
2742.42786	16231.8125
2745.01513	16176.5125
2747.60079	16180.9125
2750.18486	16157.3125
2752.76733	16126.9125
2755.3482	16113.6125
2757.92747	16108.5125
2760.50515	16090.5125
2763.08123	16110.9125
2765.65573	16097.1125
2768.22863	16062.4125
2770.79994	16065.5125
2773.36967	16073.7125
2775.9378	16069.7125
2778.50435	16059.4125
2781.06932	16061.6125
2783.6327	16095.4125
2786.1945	16069.0125
2788.75471	16069.7125
2791.31335	16052.1125
2793.87041	16033.8125
2796.42589	16005.9125
2798.97979	15982.8125
2801.53212	15939.5125
2804.08288	15931.1125
2806.63206	15872.1125
2809.17967	15867.3125
2811.72571	15904.4125
2814.27018	15876.3125
2816.81308	15852.2125
2819.35442	15809.6125
2821.89419	15760.9125
2824.43239	15784.9125
2826.96904	15765.6125
2829.50412	15792.6125
2832.03763	15743.0125
2834.56959	15705.7125
2837.1	15678.6125
2839.62884	15723.5125
2842.15613	15727.1125
2844.68186	15814.4125
2847.20604	15834.4125
2849.72867	15878.9125
2852.24974	15872.5125
2854.76927	15825.5125
2857.28724	15807.5125
2859.80367	15812.2125
2862.31855	15743.5125
2864.83189	15743.4125
2867.34368	15717.7125
2869.85393	15740.2125
2872.36264	15735.8125
2874.8698	15748.0125
2877.37543	15762.0125
2879.87952	15736.4125
2882.38207	15713.8125
2884.88308	15703.8125
2887.38256	15679.7125
2889.88051	15705.0125
2892.37692	15675.5125
2894.8718	15712.0125
2897.36515	15734.4125
2899.85698	15716.4125
2902.34727	15741.2125
2904.83604	15750.0125
2907.32328	15768.4125
2909.809	15770.3125
2912.29319	15765.3125
2914.77587	15769.5125
2917.25702	15750.1125
2919.73665	15722.8125
2922.21476	15702.1125
2924.69136	15683.7125
2927.16644	15701.9125
2929.64	15682.0125
2932.11205	15666.6125
2934.58258	15582.9125
2937.05161	15568.7125
2939.51912	15555.2125
2941.98513	15510.5125
2944.44962	15470.2125
2946.91261	15407.2125
2949.37409	15441.7125
2951.83407	15405.6125
2954.29254	15367.9125
2956.74951	15346.1125
2959.20498	15353.0125
2961.65895	15314.5125
2964.11142	15319.8125
2966.56239	15238.2125
2969.01186	15269.2125
2971.45984	15253.7125
2973.90632	15224.6125
2976.35131	15189.7125
2978.7948	15125.4125
2981.23681	15107.1125
2983.67732	15083.7125
2986.11635	15029.6125
2988.55388	14976.0125
2990.98993	14955.7125
2993.4245	14908.4125
2995.85758	14847.1125
2998.28917	14852.8125
3000.71928	14855.6125
3003.14791	14781.4125
3005.57506	14777.0125
3008.00073	14700.8125
3010.42493	14707.6125
3012.84764	14700.2125
3015.26888	14678.9125
3017.68865	14609.1125
3020.10694	14602.7125
3022.52376	14563.2125
