Data from AgNPs_FTO_APTES_UA_5uM_CRN_2uM_R6G_10uM_NaF_0.1M_Addition_RamanShift__32__11-34-16-654.txt Node

Date: Mon Feb 07 11:34:16 GMT 2022
User: TCL
Spectrometer: QEP01345
Trigger mode: 4
Integration Time (sec): 7.000000E0
Scans to average: 10
Electric dark correction enabled: true
Nonlinearity correction enabled: false
Boxcar width: 0
XAxis mode: Raman Shifts
Number of Pixels in Spectrum: 1044
>>>>>Begin Spectral Data<<<<<
46.04893	-0.6125
50.45542	-2.0125
54.85868	0.0875
59.25871	0.8875
63.6555	49.4875
68.04907	51.6875
72.43941	53.4875
76.82654	59.6875
81.21044	61.5875
85.59113	65.1875
89.96862	67.5875
94.34289	64.6875
98.71396	69.0875
103.08183	72.3875
107.4465	74.8875
111.80798	75.9875
116.16626	78.7875
120.52136	77.5875
124.87327	81.9875
129.222	89.2875
133.56755	90.6875
137.90993	102.1875
142.24913	107.3875
146.58517	119.9875
150.91804	134.6875
155.24774	165.0875
159.57429	202.8875
163.89768	260.3875
168.21792	349.3875
172.53501	466.5875
176.84895	647.1875
181.15975	903.4875
185.46741	1269.0875
189.77193	1755.0875
194.07331	2339.6875
198.37157	3010.1875
202.6667	3707.0875
206.9587	4426.2875
211.24758	5145.4875
215.53334	5915.6875
219.81599	6804.7875
224.09553	7815.2875
228.37195	8987.8875
232.64527	10176.2875
236.91549	11317.4875
241.18261	12344.9875
245.44663	13095.6875
249.70755	13624.9875
253.96539	14043.1875
258.22014	14419.3875
262.4718	14805.1875
266.72039	15120.5875
270.96589	15264.8875
275.20832	15293.6875
279.44768	15107.2875
283.68397	14921.7875
287.91719	14864.9875
292.14735	15021.5875
296.37445	15476.9875
300.59849	16293.0875
304.81948	17362.9875
309.03742	18185.2875
313.25231	18240.6875
317.46415	17129.4875
321.67296	15354.6875
325.87872	13760.7875
330.08145	12959.8875
334.28114	12844.9875
338.47781	13109.0875
342.67145	13577.9875
346.86207	14372.0875
351.04966	15586.0875
355.23424	17002.2875
359.4158	18018.4875
363.59435	18416.7875
367.76989	18373.8875
371.94243	18136.1875
376.11196	17839.4875
380.27849	17504.5875
384.44203	17151.3875
388.60257	16696.0875
392.76012	16521.1875
396.91468	16687.7875
401.06626	17301.1875
405.21485	17786.4875
409.36047	17321.4875
413.50311	15988.9875
417.64277	14790.6875
421.77947	14076.5875
425.9132	13741.8875
430.04396	13618.7875
434.17176	13630.8875
438.2966	13771.7875
442.41849	14151.0875
446.53742	14675.0875
450.6534	15169.3875
454.76644	15424.1875
458.87653	15435.3875
462.98368	15175.3875
467.08789	14858.8875
471.18916	14426.5875
475.2875	13911.4875
479.38291	13496.7875
483.4754	13191.9875
487.56496	12957.5875
491.6516	12853.1875
495.73531	12869.1875
499.81612	12961.3875
503.89401	13223.1875
507.96899	13445.3875
512.04106	13719.1875
516.11023	13994.5875
520.1765	14185.1875
524.23987	14084.4875
528.30034	13678.4875
532.35792	13214.0875
536.41261	12738.3875
540.46441	12224.9875
544.51333	11990.0875
548.55936	12097.0875
552.60252	12568.3875
556.64279	13141.3875
560.6802	13427.2875
564.71473	13769.8875
568.7464	14749.5875
572.7752	15451.3875
576.80114	14909.8875
580.82422	14153.3875
584.84444	13804.5875
588.86181	13596.1875
592.87633	13457.1875
596.888	13568.3875
600.89682	14272.9875
604.9028	16741.4875
608.90594	23577.9875
612.90624	32988.0875
616.90371	31900.0875
620.89834	19780.7875
624.89015	13861.1875
628.87913	12737.4875
632.86528	12885.4875
636.84862	13303.8875
640.82913	13038.9875
644.80683	12091.2875
648.78172	11445.5875
652.75379	11516.2875
656.72306	12379.4875
660.68952	13484.6875
664.65319	13292.4875
668.61405	12198.6875
672.57211	11596.7875
676.52738	11485.6875
680.47986	11449.5875
684.42955	11272.6875
688.37646	11134.2875
692.32058	11213.0875
696.26192	11363.7875
700.20048	11666.4875
704.13626	11899.4875
708.06928	11928.8875
711.99952	11764.3875
715.927	11656.3875
719.85171	11630.0875
723.77365	11592.7875
727.69284	11402.1875
731.60928	11188.1875
735.52295	11176.2875
739.43388	11214.5875
743.34206	11328.4875
747.24749	11458.3875
751.15017	11584.5875
755.05012	12007.1875
758.94733	12962.2875
762.8418	15226.9875
766.73354	19275.1875
770.62254	23448.3875
774.50882	25393.6875
778.39237	24065.3875
782.27321	19930.2875
786.15132	15659.3875
790.02671	13141.6875
793.89938	12042.6875
797.76935	11592.9875
801.6366	11325.1875
805.50115	11215.6875
809.36299	11082.0875
813.22213	10990.8875
817.07857	10923.9875
820.93231	10910.0875
824.78336	10981.8875
828.63172	11070.5875
832.47738	11131.0875
836.32036	11078.4875
840.16066	10934.4875
843.99827	10822.1875
847.8332	10744.1875
851.66546	10728.8875
855.49504	10724.2875
859.32195	10654.7875
863.1462	10572.1875
866.96777	10510.1875
870.78668	10476.5875
874.60293	10481.7875
878.41652	10549.4875
882.22745	10669.5875
886.03573	10745.8875
889.84136	10708.2875
893.64433	10592.9875
897.44466	10587.8875
901.24235	10613.3875
905.0374	10569.3875
908.8298	10483.9875
912.61957	10467.5875
916.40671	10549.3875
920.19121	10731.3875
923.97308	10935.1875
927.75233	11132.8875
931.52895	11305.2875
935.30295	11066.0875
939.07433	10540.9875
942.84309	10050.7875
946.60924	9762.9875
950.37278	9623.3875
954.13371	9555.1875
957.89203	9501.4875
961.64774	9452.5875
965.40086	9409.7875
969.15137	9371.8875
972.89929	9343.9875
976.64461	9359.6875
980.38733	9336.7875
984.12747	9359.9875
987.86502	9397.2875
991.59999	9464.3875
995.33237	9624.3875
999.06217	9920.0875
1002.78939	10307.1875
1006.51404	10705.8875
1010.23611	11136.9875
1013.95561	11369.8875
1017.67255	11250.8875
1021.38692	10977.3875
1025.09872	10650.8875
1028.80796	10475.0875
1032.51465	10539.2875
1036.21877	10720.2875
1039.92035	10944.8875
1043.61937	11040.6875
1047.31584	11027.2875
1051.00976	10947.7875
1054.70114	10883.3875
1058.38998	10847.8875
1062.07627	10910.0875
1065.76003	11047.7875
1069.44126	11238.3875
1073.11995	11465.7875
1076.79611	11758.7875
1080.46974	12030.5875
1084.14085	12508.4875
1087.80943	13151.1875
1091.47549	13409.9875
1095.13903	13065.4875
1098.80005	12367.7875
1102.45857	11643.8875
1106.11456	11278.4875
1109.76805	11298.1875
1113.41903	11642.1875
1117.06751	12250.6875
1120.71348	13119.1875
1124.35696	14110.0875
1127.99793	15016.9875
1131.63641	14920.6875
1135.2724	13821.9875
1138.90589	12779.8875
1142.5369	12156.3875
1146.16542	11787.8875
1149.79145	11562.3875
1153.415	11558.1875
1157.03607	11714.8875
1160.65467	12138.3875
1164.27079	12828.5875
1167.88443	13942.9875
1171.49561	15728.8875
1175.10432	18758.9875
1178.71056	22679.6875
1182.31434	25265.5875
1185.91565	25697.5875
1189.51451	24655.5875
1193.11091	22599.6875
1196.70485	20173.8875
1200.29634	18322.0875
1203.88538	16992.9875
1207.47197	15508.5875
1211.05612	14213.0875
1214.63782	13492.0875
1218.21708	13243.0875
1221.79391	13295.5875
1225.36829	13449.5875
1228.94024	13649.2875
1232.50976	13775.8875
1236.07685	13882.6875
1239.6415	13810.3875
1243.20374	13737.6875
1246.76355	13729.6875
1250.32093	13939.1875
1253.8759	14321.1875
1257.42845	14973.7875
1260.97859	15691.6875
1264.52631	16443.7875
1268.07163	17247.7875
1271.61453	17940.6875
1275.15503	18466.7875
1278.69312	18650.1875
1282.22882	18798.4875
1285.76211	19351.1875
1289.29301	20223.8875
1292.82151	21061.9875
1296.34761	21966.2875
1299.87133	23292.1875
1303.39266	25698.0875
1306.9116	29612.5875
1310.42815	34164.7875
1313.94233	37122.3875
1317.45412	36634.6875
1320.96354	33692.6875
1324.47058	30212.0875
1327.97525	27243.2875
1331.47754	25285.5875
1334.97747	24415.9875
1338.47502	24238.7875
1341.97022	24626.2875
1345.46305	25640.3875
1348.95352	27419.3875
1352.44163	30001.7875
1355.92738	33863.2875
1359.41078	40078.2875
1362.89183	46456.9875
1366.37053	45489.2875
1369.84688	37551.4875
1373.32088	29475.5875
1376.79254	24359.3875
1380.26186	21785.9875
1383.72883	20476.2875
1387.19347	19395.4875
1390.65578	18303.5875
1394.11575	17458.8875
1397.57339	17070.1875
1401.0287	17124.0875
1404.48168	17337.5875
1407.93234	17577.3875
1411.38068	17718.7875
1414.82669	17565.5875
1418.27039	17207.0875
1421.71177	16686.9875
1425.15083	16200.6875
1428.58758	15861.5875
1432.02203	15844.0875
1435.45416	16018.8875
1438.88399	16101.3875
1442.31151	16113.2875
1445.73673	16229.2875
1449.15965	16383.9875
1452.58027	16380.7875
1455.9986	16204.3875
1459.41463	16168.2875
1462.82837	16387.7875
1466.23982	16775.8875
1469.64898	17317.8875
1473.05586	17670.2875
1476.46045	17906.3875
1479.86276	18359.1875
1483.26279	18914.3875
1486.66054	19713.0875
1490.05602	20617.6875
1493.44922	21975.6875
1496.84016	24107.2875
1500.22882	27412.5875
1503.61521	31838.5875
1506.99934	36885.2875
1510.38121	41777.5875
1513.76081	44468.2875
1517.13816	42544.1875
1520.51324	36550.5875
1523.88607	30174.9875
1527.25665	25715.2875
1530.62498	23093.6875
1533.99105	21428.2875
1537.35488	20394.8875
1540.71647	19612.6875
1544.07581	19235.8875
1547.4329	18913.3875
1550.78776	18693.6875
1554.14038	18654.4875
1557.49077	18910.7875
1560.83892	19452.2875
1564.18484	20378.4875
1567.52853	21332.6875
1570.86999	22108.6875
1574.20922	22574.1875
1577.54624	22421.3875
1580.88103	20884.0875
1584.2136	18848.8875
1587.54395	17778.0875
1590.87208	18047.1875
1594.19801	19340.1875
1597.52172	21077.9875
1600.84321	21726.9875
1604.16251	20630.8875
1607.47959	18800.1875
1610.79447	16951.4875
1614.10715	15225.2875
1617.41763	13877.5875
1620.7259	13049.4875
1624.03199	12657.0875
1627.33587	12714.6875
1630.63757	13172.2875
1633.93707	14090.3875
1637.23439	15635.9875
1640.52951	17852.6875
1643.82246	20925.8875
1647.11321	24761.1875
1650.40179	27777.7875
1653.68819	27443.9875
1656.97241	23255.0875
1660.25446	18182.9875
1663.53433	14413.4875
1666.81203	12184.8875
1670.08756	10892.1875
1673.36092	10185.1875
1676.63211	9731.5875
1679.90115	9449.6875
1683.16801	9223.3875
1686.43272	9044.4875
1689.69527	8935.0875
1692.95567	8827.7875
1696.2139	8807.7875
1699.46999	8782.8875
1702.72392	8726.2875
1705.97571	8683.1875
1709.22535	8685.5875
1712.47284	8676.7875
1715.71819	8679.2875
1718.96139	8678.8875
1722.20246	8686.5875
1725.44139	8631.0875
1728.67818	8534.6875
1731.91284	8415.3875
1735.14537	8317.9875
1738.37576	8212.2875
1741.60403	8162.2875
1744.83017	8116.6875
1748.05418	8074.3875
1751.27607	8027.0875
1754.49584	8025.0875
1757.71349	7982.9875
1760.92903	7990.6875
1764.14244	7969.4875
1767.35375	7945.8875
1770.56294	7890.4875
1773.77002	7852.3875
1776.97499	7809.9875
1780.17785	7777.7875
1783.37861	7737.0875
1786.57727	7725.5875
1789.77382	7695.7875
1792.96828	7676.3875
1796.16064	7652.7875
1799.3509	7672.7875
1802.53907	7632.6875
1805.72514	7598.9875
1808.90913	7577.4875
1812.09102	7526.1875
1815.27083	7490.8875
1818.44856	7488.6875
1821.6242	7452.5875
1824.79776	7453.9875
1827.96924	7431.7875
1831.13864	7421.9875
1834.30597	7410.2875
1837.47122	7409.6875
1840.6344	7398.3875
1843.7955	7394.7875
1846.95454	7400.7875
1850.11151	7392.7875
1853.26642	7375.6875
1856.41926	7394.4875
1859.57004	7404.9875
1862.71876	7412.7875
1865.86542	7416.8875
1869.01003	7426.9875
1872.15258	7417.1875
1875.29308	7443.6875
1878.43152	7448.4875
1881.56792	7496.9875
1884.70227	7500.9875
1887.83457	7519.9875
1890.96482	7530.6875
1894.09304	7529.2875
1897.21921	7539.9875
1900.34335	7530.2875
1903.46544	7540.5875
1906.58551	7543.2875
1909.70353	7557.7875
1912.81953	7563.5875
1915.93349	7566.0875
1919.04543	7556.2875
1922.15534	7531.5875
1925.26322	7502.0875
1928.36908	7467.8875
1931.47292	7400.2875
1934.57473	7328.3875
1937.67453	7278.4875
1940.77232	7217.6875
1943.86808	7162.6875
1946.96184	7090.7875
1950.05358	7017.4875
1953.14331	7000.0875
1956.23103	6992.1875
1959.31675	6895.5875
1962.40046	6895.2875
1965.48217	6883.4875
1968.56188	6865.1875
1971.63959	6855.3875
1974.7153	6830.1875
1977.78901	6816.5875
1980.86073	6773.3875
1983.93046	6727.9875
1986.99819	6694.5875
1990.06394	6657.6875
1993.1277	6646.7875
1996.18947	6616.3875
1999.24925	6596.5875
2002.30706	6560.4875
2005.36288	6550.5875
2008.41672	6521.9875
2011.46859	6503.6875
2014.51848	6490.7875
2017.56639	6439.9875
2020.61233	6429.1875
2023.6563	6408.9875
2026.6983	6389.1875
2029.73833	6381.5875
2032.7764	6351.8875
2035.8125	6328.4875
2038.84664	6317.8875
2041.87881	6302.7875
2044.90903	6294.6875
2047.93729	6293.4875
2050.96359	6267.4875
2053.98794	6250.5875
2057.01034	6252.2875
2060.03078	6251.1875
2063.04927	6218.3875
2066.06582	6222.5875
2069.08042	6214.9875
2072.09307	6188.6875
2075.10378	6197.7875
2078.11255	6184.7875
2081.11938	6185.8875
2084.12426	6170.6875
2087.12722	6177.2875
2090.12824	6167.1875
2093.12732	6152.8875
2096.12447	6153.4875
2099.11969	6159.5875
2102.11299	6151.8875
2105.10435	6140.2875
2108.09379	6141.6875
2111.08131	6151.1875
2114.0669	6173.6875
2117.05057	6168.6875
2120.03233	6156.4875
2123.01216	6172.7875
2125.99008	6171.3875
2128.96609	6184.5875
2131.94018	6181.7875
2134.91236	6186.8875
2137.88263	6183.3875
2140.851	6195.4875
2143.81746	6159.8875
2146.78201	6157.1875
2149.74466	6141.7875
2152.7054	6139.1875
2155.66425	6116.4875
2158.6212	6105.6875
2161.57625	6094.2875
2164.52941	6099.0875
2167.48067	6101.8875
2170.43004	6093.2875
2173.37752	6094.6875
2176.32311	6071.7875
2179.26681	6092.0875
2182.20863	6104.6875
2185.14856	6082.5875
2188.08661	6078.1875
2191.02278	6089.4875
2193.95707	6063.9875
2196.88948	6041.1875
2199.82001	6034.9875
2202.74867	6019.5875
2205.67545	6031.7875
2208.60037	6023.9875
2211.52341	6030.1875
2214.44458	6016.4875
2217.36388	5993.4875
2220.28132	5973.3875
2223.1969	5949.7875
2226.11061	5928.3875
2229.02246	5932.0875
2231.93245	5900.6875
2234.84058	5889.4875
2237.74686	5884.1875
2240.65128	5859.5875
2243.55385	5876.7875
2246.45456	5852.1875
2249.35343	5865.5875
2252.25044	5844.1875
2255.14561	5852.0875
2258.03893	5861.2875
2260.93041	5865.7875
2263.82004	5852.6875
2266.70783	5822.0875
2269.59378	5814.1875
2272.4779	5806.8875
2275.36017	5764.2875
2278.24061	5779.2875
2281.11922	5756.8875
2283.996	5738.8875
2286.87094	5723.0875
2289.74405	5698.2875
2292.61534	5682.4875
2295.4848	5666.3875
2298.35243	5673.4875
2301.21824	5668.0875
2304.08223	5664.4875
2306.94439	5652.8875
2309.80474	5671.3875
2312.66327	5655.7875
2315.51999	5652.9875
2318.37489	5652.6875
2321.22797	5627.9875
2324.07925	5636.4875
2326.92871	5616.2875
2329.77637	5624.9875
2332.62222	5613.3875
2335.46626	5605.4875
2338.3085	5603.3875
2341.14893	5606.3875
2343.98756	5622.7875
2346.8244	5613.0875
2349.65943	5631.7875
2352.49267	5657.8875
2355.32411	5670.1875
2358.15376	5674.3875
2360.98161	5697.3875
2363.80768	5723.7875
2366.63195	5739.4875
2369.45444	5737.2875
2372.27514	5750.4875
2375.09405	5715.6875
2377.91118	5698.7875
2380.72652	5649.2875
2383.54009	5639.5875
2386.35187	5602.1875
2389.16188	5552.2875
2391.97011	5530.1875
2394.77657	5510.5875
2397.58125	5472.9875
2400.38416	5461.9875
2403.18529	5446.7875
2405.98466	5437.0875
2408.78226	5416.1875
2411.57809	5400.9875
2414.37216	5379.9875
2417.16446	5406.4875
2419.955	5384.5875
2422.74378	5376.6875
2425.5308	5380.7875
2428.31606	5386.3875
2431.09956	5379.2875
2433.88131	5376.2875
2436.6613	5387.0875
2439.43954	5399.2875
2442.21603	5388.4875
2444.99077	5400.6875
2447.76377	5403.5875
2450.53501	5392.5875
2453.30451	5416.7875
2456.07226	5403.8875
2458.83827	5429.0875
2461.60254	5411.8875
2464.36507	5409.9875
2467.12586	5412.4875
2469.88492	5402.7875
2472.64224	5412.5875
2475.39782	5427.5875
2478.15167	5445.4875
2480.90379	5448.3875
2483.65417	5471.0875
2486.40283	5484.3875
2489.14976	5522.6875
2491.89497	5529.1875
2494.63845	5539.8875
2497.3802	5533.5875
2500.12024	5518.8875
2502.85855	5517.8875
2505.59514	5474.7875
2508.33002	5443.4875
2511.06318	5425.7875
2513.79462	5371.7875
2516.52435	5362.9875
2519.25237	5315.1875
2521.97867	5297.6875
2524.70327	5280.2875
2527.42616	5280.4875
2530.14734	5270.0875
2532.86681	5259.1875
2535.58458	5266.1875
2538.30065	5255.8875
2541.01501	5283.6875
2543.72768	5269.7875
2546.43864	5266.8875
2549.14791	5260.5875
2551.85548	5264.4875
2554.56136	5247.3875
2557.26554	5234.0875
2559.96803	5247.0875
2562.66883	5258.1875
2565.36794	5228.4875
2568.06536	5230.9875
2570.7611	5209.1875
2573.45514	5207.1875
2576.14751	5194.9875
2578.83819	5209.9875
2581.52719	5185.1875
2584.21451	5190.1875
2586.90015	5198.1875
2589.58411	5173.6875
2592.2664	5173.3875
2594.94701	5174.7875
2597.62594	5152.7875
2600.30321	5146.8875
2602.9788	5162.4875
2605.65273	5137.2875
2608.32498	5150.6875
2610.99557	5161.4875
2613.66449	5164.7875
2616.33175	5170.5875
2618.99734	5170.9875
2621.66128	5148.0875
2624.32355	5145.9875
2626.98416	5131.0875
2629.64311	5149.7875
2632.30041	5142.4875
2634.95605	5122.4875
2637.61004	5120.4875
2640.26238	5076.7875
2642.91306	5088.6875
2645.56209	5077.8875
2648.20948	5070.6875
2650.85521	5085.2875
2653.4993	5072.9875
2656.14175	5064.3875
2658.78255	5076.8875
2661.42171	5071.8875
2664.05923	5104.7875
2666.6951	5102.1875
2669.32934	5121.4875
2671.96194	5123.1875
2674.59291	5131.0875
2677.22224	5134.7875
2679.84993	5150.2875
2682.476	5140.4875
2685.10043	5135.8875
2687.72324	5136.7875
2690.34441	5130.7875
2692.96396	5130.0875
2695.58188	5119.8875
2698.19818	5101.2875
2700.81285	5112.8875
2703.4259	5124.2875
2706.03733	5170.8875
2708.64714	5150.4875
2711.25533	5157.8875
2713.86191	5146.3875
2716.46687	5155.6875
2719.07021	5146.7875
2721.67194	5173.8875
2724.27206	5155.6875
2726.87057	5159.7875
2729.46747	5161.6875
2732.06276	5161.6875
2734.65644	5141.9875
2737.24852	5128.2875
2739.83899	5118.4875
2742.42786	5109.9875
2745.01513	5097.1875
2747.60079	5066.1875
2750.18486	5066.6875
2752.76733	5072.3875
2755.3482	5063.0875
2757.92747	5044.1875
2760.50515	5038.6875
2763.08123	5038.3875
2765.65573	5029.6875
2768.22863	5022.8875
2770.79994	5030.2875
2773.36967	5009.8875
2775.9378	5023.2875
2778.50435	5016.6875
2781.06932	5017.0875
2783.6327	5013.3875
2786.1945	5025.8875
2788.75471	5032.6875
2791.31335	5025.9875
2793.87041	5019.2875
2796.42589	5002.7875
2798.97979	5037.1875
2801.53212	5003.5875
2804.08288	5014.9875
2806.63206	5010.2875
2809.17967	5030.1875
2811.72571	5033.3875
2814.27018	5031.7875
2816.81308	5044.4875
2819.35442	5051.1875
2821.89419	5058.9875
2824.43239	5084.1875
2826.96904	5098.4875
2829.50412	5109.6875
2832.03763	5080.6875
2834.56959	5092.9875
2837.1	5092.8875
2839.62884	5124.5875
2842.15613	5165.0875
2844.68186	5237.8875
2847.20604	5279.2875
2849.72867	5321.8875
2852.24974	5359.7875
2854.76927	5377.8875
2857.28724	5362.8875
2859.80367	5341.6875
2862.31855	5329.8875
2864.83189	5318.2875
2867.34368	5300.8875
2869.85393	5312.8875
2872.36264	5293.1875
2874.8698	5309.2875
2877.37543	5292.5875
2879.87952	5285.5875
2882.38207	5266.8875
2884.88308	5262.4875
2887.38256	5257.4875
2889.88051	5237.0875
2892.37692	5225.9875
2894.8718	5245.0875
2897.36515	5263.5875
2899.85698	5261.4875
2902.34727	5272.8875
2904.83604	5259.7875
2907.32328	5267.7875
2909.809	5274.2875
2912.29319	5271.7875
2914.77587	5273.9875
2917.25702	5258.2875
2919.73665	5259.8875
2922.21476	5262.7875
2924.69136	5240.1875
2927.16644	5250.4875
2929.64	5222.6875
2932.11205	5196.9875
2934.58258	5169.0875
2937.05161	5145.1875
2939.51912	5119.6875
2941.98513	5093.1875
2944.44962	5046.3875
2946.91261	4994.0875
2949.37409	4987.4875
2951.83407	4939.7875
2954.29254	4919.7875
2956.74951	4909.4875
2959.20498	4897.8875
2961.65895	4870.3875
2964.11142	4857.9875
2966.56239	4844.0875
2969.01186	4836.9875
2971.45984	4804.2875
2973.90632	4800.9875
2976.35131	4790.6875
2978.7948	4766.6875
2981.23681	4764.9875
2983.67732	4739.3875
2986.11635	4710.8875
2988.55388	4693.8875
2990.98993	4684.5875
2993.4245	4665.2875
2995.85758	4651.3875
2998.28917	4652.3875
3000.71928	4639.2875
3003.14791	4638.2875
3005.57506	4616.7875
3008.00073	4605.2875
3010.42493	4597.1875
3012.84764	4606.7875
3015.26888	4607.4875
3017.68865	4587.2875
3020.10694	4574.8875
3022.52376	4567.3875
3024.9391	4544.9875
3027.35298	4550.4875
3029.76539	4561.1875
3032.17632	4521.8875
3034.5858	4517.1875
3036.9938	4505.6875
3039.40034	4507.6875
3041.80542	4503.6875
3044.20903	4490.6875
3046.61118	4486.3875
3049.01187	4466.6875
3051.4111	4449.5875
3053.80888	4464.3875
3056.20519	4441.6875
3058.60005	4441.1875
3060.99345	4421.5875
3063.3854	4413.6875
3065.7759	4406.9875
3068.16494	4384.4875
3070.55254	4377.0875
3072.93868	4368.8875
3075.32338	4342.4875
3077.70662	4326.5875
3080.08842	4302.0875
3082.46878	4274.7875
