Data from AgNPs_FTO_APTES_UA_5uM_CRN_5uM_R6G_10uM_NaF_0.1M_Addition_RamanShift__12__11-58-46-682.txt Node

Date: Mon Feb 07 11:58:46 GMT 2022
User: TCL
Spectrometer: QEP01345
Trigger mode: 4
Integration Time (sec): 7.000000E0
Scans to average: 10
Electric dark correction enabled: true
Nonlinearity correction enabled: false
Boxcar width: 0
XAxis mode: Raman Shifts
Number of Pixels in Spectrum: 1044
>>>>>Begin Spectral Data<<<<<
46.04893	-0.6
50.45542	-1.9
54.85868	-1.1
59.25871	0.6
63.6555	101.1
68.04907	109.6
72.43941	112.8
76.82654	116
81.21044	117.4
85.59113	122.3
89.96862	132.2
94.34289	130.6
98.71396	135.3
103.08183	142
107.4465	142.5
111.80798	147.5
116.16626	154.5
120.52136	162.6
124.87327	168.1
129.222	184.6
133.56755	194.8
137.90993	215
142.24913	232.7
146.58517	273
150.91804	316.4
155.24774	383.2
159.57429	482.7
163.89768	625.6
168.21792	837.5
172.53501	1140.4
176.84895	1601.8
181.15975	2254.2
185.46741	3180.9
189.77193	4384.1
194.07331	5887.7
198.37157	7574.9
202.6667	9353.6
206.9587	11121.4
211.24758	12848.8
215.53334	14593.6
219.81599	16357.3
224.09553	18346.9
228.37195	20517.6
232.64527	22921.8
236.91549	25427.9
241.18261	28003.8
245.44663	30419
249.70755	32631.4
253.96539	34609.9
258.22014	36178.1
262.4718	37515.5
266.72039	38364.7
270.96589	38790.1
275.20832	38925.5
279.44768	38834.9
283.68397	38650.2
287.91719	38426.9
292.14735	38277.9
296.37445	38256
300.59849	38281.8
304.81948	38370.3
309.03742	38322.3
313.25231	38054
317.46415	37371.2
321.67296	36523.3
325.87872	35678.8
330.08145	35357.2
334.28114	35268.3
338.47781	35432.9
342.67145	35745.2
346.86207	36159
351.04966	36599.2
355.23424	37045.2
359.4158	37504.3
363.59435	37828.3
367.76989	37969.8
371.94243	38166.2
376.11196	38200
380.27849	38229.5
384.44203	38201.2
388.60257	38387.7
392.76012	38900.7
396.91468	39567.6
401.06626	40327.2
405.21485	40779.9
409.36047	40584.3
413.50311	40180.2
417.64277	39991.7
421.77947	40253.2
425.9132	40526.8
430.04396	40758.6
434.17176	40837.1
438.2966	40994.1
442.41849	41342.5
446.53742	42127.9
450.6534	42996.4
454.76644	43588.4
458.87653	43908.5
462.98368	43969.3
467.08789	43762.6
471.18916	43351.1
475.2875	42955.1
479.38291	42863.7
483.4754	42824.7
487.56496	42619.9
491.6516	41974.6
495.73531	41282.3
499.81612	40771.8
503.89401	40758.5
507.96899	40926.4
512.04106	41010.9
516.11023	40873
520.1765	40338.6
524.23987	39657.3
528.30034	39094.9
532.35792	38590.3
536.41261	38215.5
540.46441	37940.1
544.51333	37975.2
548.55936	38430.3
552.60252	39296.8
556.64279	40143.9
560.6802	40823.7
564.71473	41619.2
568.7464	42677.1
572.7752	44592.5
576.80114	46978.5
580.82422	49181.3
584.84444	50846.5
588.86181	52393.6
592.87633	53933
596.888	53502.8
600.89682	50926.5
604.9028	49174.6
608.90594	49899.2
612.90624	50880.9
616.90371	47431.2
620.89834	41809.3
624.89015	39494.5
628.87913	39585.3
632.86528	40071.1
636.84862	40097.1
640.82913	39237
644.80683	38136.2
648.78172	37472.2
652.75379	37252.4
656.72306	37470
660.68952	37919.6
664.65319	37867.7
668.61405	37457.8
672.57211	37367.1
676.52738	37445.9
680.47986	37360.7
684.42955	37125.9
688.37646	36982.2
692.32058	37165.1
696.26192	37593.2
700.20048	38072.9
704.13626	38434.2
708.06928	38770.1
711.99952	38846.7
715.927	38622.5
719.85171	38489.2
723.77365	38026.8
727.69284	37396.3
731.60928	36900.1
735.52295	36545.9
739.43388	36421.4
743.34206	36511.9
747.24749	36772.9
751.15017	37254.6
755.05012	38026.4
758.94733	39179.6
762.8418	40999.5
766.73354	43461
770.62254	45518.8
774.50882	45339.3
778.39237	43209.2
782.27321	40734.3
786.15132	38772
790.02671	37474.5
793.89938	36668.4
797.76935	36300.3
801.6366	36082.3
805.50115	35941.8
809.36299	35838.1
813.22213	35705.4
817.07857	35592.1
820.93231	35554.1
824.78336	35405.1
828.63172	35172.5
832.47738	34994
836.32036	34894.3
840.16066	34866.4
843.99827	34872.4
847.8332	34856.2
851.66546	34865.2
855.49504	34998.9
859.32195	35007.9
863.1462	34914.6
866.96777	34865.9
870.78668	34788.3
874.60293	34776.2
878.41652	34728.7
882.22745	34814.4
886.03573	34882
889.84136	34903.8
893.64433	34845
897.44466	34742.6
901.24235	34711.8
905.0374	34610.2
908.8298	34653.9
912.61957	34807.3
916.40671	35264.4
920.19121	35986.7
923.97308	36480.7
927.75233	36324.9
931.52895	35675.5
935.30295	34917.6
939.07433	34186.2
942.84309	33640.4
946.60924	33331.9
950.37278	33140.2
954.13371	33111.6
957.89203	33143.7
961.64774	33150.2
965.40086	33198.8
969.15137	33132.7
972.89929	32912
976.64461	32728.5
980.38733	32587.7
984.12747	32553.6
987.86502	32627.6
991.59999	32736.7
995.33237	32977.6
999.06217	33338.6
1002.78939	33871.5
1006.51404	34433.6
1010.23611	35087.2
1013.95561	35493.2
1017.67255	35515.6
1021.38692	35161.5
1025.09872	34607.4
1028.80796	34161.7
1032.51465	33998.1
1036.21877	34026
1039.92035	34183.2
1043.61937	34424.9
1047.31584	34554.3
1051.00976	34744.4
1054.70114	35018
1058.38998	35368.4
1062.07627	35978.8
1065.76003	36566.4
1069.44126	37299.3
1073.11995	37934.5
1076.79611	38402.5
1080.46974	38564.1
1084.14085	38758.8
1087.80943	39097.5
1091.47549	39648.3
1095.13903	40008.4
1098.80005	39552.8
1102.45857	38482.1
1106.11456	37321.7
1109.76805	36651.3
1113.41903	36420.6
1117.06751	36426.2
1120.71348	36692.2
1124.35696	37024.1
1127.99793	37457.1
1131.63641	37785
1135.2724	37887.3
1138.90589	38004.7
1142.5369	38190.9
1146.16542	38594
1149.79145	39227.5
1153.415	39840.7
1157.03607	40642.4
1160.65467	41844.5
1164.27079	43728
1167.88443	45999.5
1171.49561	48269.3
1175.10432	50740
1178.71056	53784.2
1182.31434	56617.5
1185.91565	58377.4
1189.51451	58849
1193.11091	58277
1196.70485	56920.5
1200.29634	54938.1
1203.88538	53649.8
1207.47197	53307.4
1211.05612	53431.6
1214.63782	52954.1
1218.21708	51282.1
1221.79391	49086.4
1225.36829	47253.9
1228.94024	46116.8
1232.50976	45461.7
1236.07685	45021.8
1239.6415	44760.7
1243.20374	44741.2
1246.76355	45107.7
1250.32093	45724
1253.8759	46717.6
1257.42845	48028.2
1260.97859	49539.1
1264.52631	51098.7
1268.07163	52633.8
1271.61453	54189.2
1275.15503	55741.8
1278.69312	57728.6
1282.22882	59838.1
1285.76211	62182.9
1289.29301	64894.3
1292.82151	67949
1296.34761	71548.1
1299.87133	75501.6
1303.39266	79071.3
1306.9116	81822.3
1310.42815	83297.9
1313.94233	83505.4
1317.45412	82917.7
1320.96354	82404.3
1324.47058	82664.4
1327.97525	83343
1331.47754	83921.3
1334.97747	84107.1
1338.47502	83998.6
1341.97022	83785.5
1345.46305	83204
1348.95352	81914.4
1352.44163	80166.3
1355.92738	78725.3
1359.41078	78587.8
1362.89183	78801.4
1366.37053	77572.5
1369.84688	73509.1
1373.32088	67594.9
1376.79254	63087.1
1380.26186	61479.1
1383.72883	61803.1
1387.19347	62325
1390.65578	62091.9
1394.11575	61799.9
1397.57339	62235.9
1401.0287	62989.7
1404.48168	63453.3
1407.93234	62987.3
1411.38068	61141.4
1414.82669	58498
1418.27039	55507.5
1421.71177	52794.2
1425.15083	50865.3
1428.58758	50119
1432.02203	50664.4
1435.45416	52120.7
1438.88399	53828.9
1442.31151	55248.3
1445.73673	56195.3
1449.15965	57005.3
1452.58027	57545.3
1455.9986	58012.9
1459.41463	58607.4
1462.82837	59464.2
1466.23982	60478
1469.64898	61199.4
1473.05586	61354.4
1476.46045	61106.9
1479.86276	60588
1483.26279	59966.3
1486.66054	59782.8
1490.05602	60045.4
1493.44922	60743.1
1496.84016	61761
1500.22882	62973.2
1503.61521	64257.2
1506.99934	65582.5
1510.38121	66439.8
1513.76081	66721.7
1517.13816	66632.3
1520.51324	66532.5
1523.88607	66861.5
1527.25665	67421.2
1530.62498	67566.4
1533.99105	66989.7
1537.35488	65519.7
1540.71647	63363.4
1544.07581	60847.9
1547.4329	58527.6
1550.78776	56749.7
1554.14038	55509.7
1557.49077	54902.9
1560.83892	54468.9
1564.18484	54220.4
1567.52853	54231.7
1570.86999	54675.5
1574.20922	55843.2
1577.54624	57106.6
1580.88103	58053.1
1584.2136	59079.7
1587.54395	61098.9
1590.87208	63738.7
1594.19801	66719.1
1597.52172	69027.7
1600.84321	68516.9
1604.16251	64816
1607.47959	59674.4
1610.79447	54851
1614.10715	50332.5
1617.41763	46540.3
1620.7259	43803
1624.03199	42417.3
1627.33587	42406.5
1630.63757	43763.4
1633.93707	46882.6
1637.23439	52342
1640.52951	60183.8
1643.82246	69259.1
1647.11321	76441.4
1650.40179	77686.4
1653.68819	72070.1
1656.97241	62367.3
1660.25446	52597.5
1663.53433	44964.3
1666.81203	39820.2
1670.08756	36530.9
1673.36092	34538.7
1676.63211	33214.6
1679.90115	32368.7
1683.16801	31660.8
1686.43272	31114.7
1689.69527	30713.9
1692.95567	30415
1696.2139	30155.3
1699.46999	29977.2
1702.72392	29880
1705.97571	29720.1
1709.22535	29642.8
1712.47284	29510.1
1715.71819	29430.2
1718.96139	29335.8
1722.20246	29177.9
1725.44139	29056.1
1728.67818	28852.4
1731.91284	28618.9
1735.14537	28447.1
1738.37576	28258.5
1741.60403	28172.3
1744.83017	28032.3
1748.05418	27886.7
1751.27607	27837.6
1754.49584	27766.4
1757.71349	27699.9
1760.92903	27681.2
1764.14244	27617.4
1767.35375	27581.4
1770.56294	27475.6
1773.77002	27410.7
1776.97499	27340.3
1780.17785	27248.6
1783.37861	27209.4
1786.57727	27132.5
1789.77382	27041.1
1792.96828	27034.5
1796.16064	26979.4
1799.3509	26909
1802.53907	26823.7
1805.72514	26753.3
1808.90913	26640.6
1812.09102	26584.4
1815.27083	26511.7
1818.44856	26470
1821.6242	26434
1824.79776	26382
1827.96924	26322.4
1831.13864	26286.5
1834.30597	26302.1
1837.47122	26291.9
1840.6344	26329.4
1843.7955	26325.8
1846.95454	26322.1
1850.11151	26320
1853.26642	26274.3
1856.41926	26266.7
1859.57004	26236.3
1862.71876	26155.4
1865.86542	26089.2
1869.01003	26020.6
1872.15258	25943.7
1875.29308	25891.6
1878.43152	25856.2
1881.56792	25795.1
1884.70227	25738.6
1887.83457	25697
1890.96482	25667.9
1894.09304	25601.6
1897.21921	25583.3
1900.34335	25506.3
1903.46544	25426.2
1906.58551	25451
1909.70353	25355.8
1912.81953	25257
1915.93349	25197.7
1919.04543	25153.6
1922.15534	25080.8
1925.26322	25024.8
1928.36908	24933.4
1931.47292	24917.6
1934.57473	24758.9
1937.67453	24692.4
1940.77232	24615.5
1943.86808	24546
1946.96184	24493.4
1950.05358	24413.4
1953.14331	24356.6
1956.23103	24242.4
1959.31675	24178.6
1962.40046	24083.5
1965.48217	23995
1968.56188	23912.3
1971.63959	23852.8
1974.7153	23706.7
1977.78901	23627.9
1980.86073	23480.2
1983.93046	23468.5
1986.99819	23384.8
1990.06394	23275.2
1993.1277	23253
1996.18947	23154.5
1999.24925	23119.7
2002.30706	22989.8
2005.36288	22902.2
2008.41672	22828.1
2011.46859	22760.2
2014.51848	22703.4
2017.56639	22619.9
2020.61233	22542
2023.6563	22490.6
2026.6983	22405.8
2029.73833	22373.2
2032.7764	22319
2035.8125	22263.3
2038.84664	22188.8
2041.87881	22111
2044.90903	22073.1
2047.93729	22021.6
2050.96359	21974.8
2053.98794	21949.7
2057.01034	21920.4
2060.03078	21924.1
2063.04927	21878.1
2066.06582	21943.3
2069.08042	21905.4
2072.09307	21870.1
2075.10378	21798.2
2078.11255	21763.2
2081.11938	21752.5
2084.12426	21766.4
2087.12722	21725.6
2090.12824	21681.6
2093.12732	21689.7
2096.12447	21705.9
2099.11969	21696.8
2102.11299	21672.1
2105.10435	21654.4
2108.09379	21677
2111.08131	21652.9
2114.0669	21647.1
2117.05057	21686.1
2120.03233	21692.3
2123.01216	21692.6
2125.99008	21690.4
2128.96609	21685.6
2131.94018	21691.6
2134.91236	21669
2137.88263	21706.1
2140.851	21656.6
2143.81746	21666.7
2146.78201	21612.4
2149.74466	21607.9
2152.7054	21573.8
2155.66425	21544.9
2158.6212	21542.6
2161.57625	21532
2164.52941	21494.3
2167.48067	21513.9
2170.43004	21499.6
2173.37752	21488.8
2176.32311	21397.5
2179.26681	21440.3
2182.20863	21408.4
2185.14856	21430
2188.08661	21429.2
2191.02278	21445
2193.95707	21390.2
2196.88948	21361.7
2199.82001	21319
2202.74867	21244.8
2205.67545	21204.4
2208.60037	21156.9
2211.52341	21130.1
2214.44458	21094.9
2217.36388	21032.1
2220.28132	21005.3
2223.1969	20955.7
2226.11061	20912.1
2229.02246	20894.3
2231.93245	20883.3
2234.84058	20836.7
2237.74686	20815.7
2240.65128	20777.1
2243.55385	20734.6
2246.45456	20714.7
2249.35343	20670.9
2252.25044	20599.3
2255.14561	20506.6
2258.03893	20443.7
2260.93041	20395.4
2263.82004	20296.7
2266.70783	20258.1
2269.59378	20160.8
2272.4779	20115.8
2275.36017	20071
2278.24061	20047.2
2281.11922	19958.3
2283.996	19948.8
2286.87094	19901.8
2289.74405	19823.9
2292.61534	19797.7
2295.4848	19795.6
2298.35243	19762.6
2301.21824	19760.3
2304.08223	19765.7
2306.94439	19748.8
2309.80474	19724
2312.66327	19705
2315.51999	19660
2318.37489	19589.3
2321.22797	19565.5
2324.07925	19535.6
2326.92871	19499.1
2329.77637	19452.5
2332.62222	19467.9
2335.46626	19434
2338.3085	19382.2
2341.14893	19367.5
2343.98756	19386.8
2346.8244	19405.7
2349.65943	19368.4
2352.49267	19360
2355.32411	19365.9
2358.15376	19342.2
2360.98161	19336.9
2363.80768	19340.4
2366.63195	19271.7
2369.45444	19286.7
2372.27514	19262.8
2375.09405	19281.3
2377.91118	19183.1
2380.72652	19111.2
2383.54009	19102.9
2386.35187	19073.5
2389.16188	18994.7
2391.97011	18928.7
2394.77657	18889.1
2397.58125	18882.8
2400.38416	18827.5
2403.18529	18829.5
2405.98466	18806.4
2408.78226	18769.7
2411.57809	18702.8
2414.37216	18714
2417.16446	18734.1
2419.955	18679.1
2422.74378	18660.8
2425.5308	18642.2
2428.31606	18638.4
2431.09956	18614
2433.88131	18565.4
2436.6613	18573.1
2439.43954	18584.9
2442.21603	18566.4
2444.99077	18490.7
2447.76377	18524.4
2450.53501	18481.2
2453.30451	18481.4
2456.07226	18429.3
2458.83827	18422.3
2461.60254	18434.9
2464.36507	18372.9
2467.12586	18397.8
2469.88492	18378.6
2472.64224	18383.7
2475.39782	18373.4
2478.15167	18381
2480.90379	18344.9
2483.65417	18342.5
2486.40283	18343.5
2489.14976	18365
2491.89497	18344
2494.63845	18343.3
2497.3802	18311.1
2500.12024	18330.2
2502.85855	18300.4
2505.59514	18291
2508.33002	18237.6
2511.06318	18239.5
2513.79462	18274.4
2516.52435	18208.6
2519.25237	18199.2
2521.97867	18206.7
2524.70327	18202.1
2527.42616	18173
2530.14734	18156.8
2532.86681	18121
2535.58458	18167.5
2538.30065	18121.9
2541.01501	18103.1
2543.72768	18047.3
2546.43864	18046.5
2549.14791	18020
2551.85548	18025.7
2554.56136	17951
2557.26554	17939.6
2559.96803	17900.6
2562.66883	17888
2565.36794	17826.3
2568.06536	17805.4
2570.7611	17794.9
2573.45514	17770.4
2576.14751	17788.8
2578.83819	17744.1
2581.52719	17733.9
2584.21451	17724.7
2586.90015	17703.8
2589.58411	17664.2
2592.2664	17653.1
2594.94701	17635.4
2597.62594	17627.8
2600.30321	17601.4
2602.9788	17586.1
2605.65273	17583.7
2608.32498	17611.3
2610.99557	17587.8
2613.66449	17592.7
2616.33175	17558
2618.99734	17541.2
2621.66128	17522.3
2624.32355	17496.2
2626.98416	17488.6
2629.64311	17473.9
2632.30041	17454.9
2634.95605	17424.8
2637.61004	17443.5
2640.26238	17401.9
2642.91306	17409.1
2645.56209	17406.1
2648.20948	17419.5
2650.85521	17459
2653.4993	17463.5
2656.14175	17440.4
2658.78255	17442.3
2661.42171	17455.8
2664.05923	17469.3
2666.6951	17444.5
2669.32934	17487.6
2671.96194	17495.8
2674.59291	17490.7
2677.22224	17502.4
2679.84993	17537.2
2682.476	17479.1
2685.10043	17472.4
2687.72324	17447.7
2690.34441	17413.1
2692.96396	17425.1
2695.58188	17453.4
2698.19818	17426.5
2700.81285	17415.6
2703.4259	17407.7
2706.03733	17436.4
2708.64714	17377.7
2711.25533	17394
2713.86191	17374.7
2716.46687	17437
2719.07021	17400.7
2721.67194	17461.9
2724.27206	17466.7
2726.87057	17482.4
2729.46747	17516.8
2732.06276	17506.7
2734.65644	17520.8
2737.24852	17494.7
2739.83899	17460.8
2742.42786	17487.3
2745.01513	17463.3
2747.60079	17424.4
2750.18486	17379.2
2752.76733	17374.8
2755.3482	17353.8
2757.92747	17357.5
2760.50515	17321.4
2763.08123	17344
2765.65573	17324.2
2768.22863	17341.2
2770.79994	17275.4
2773.36967	17259.7
2775.9378	17262.2
2778.50435	17281.7
2781.06932	17252.7
2783.6327	17206.1
2786.1945	17228.7
2788.75471	17231.1
2791.31335	17223.4
2793.87041	17193.1
2796.42589	17162.3
2798.97979	17145.9
2801.53212	17122
2804.08288	17052
2806.63206	17001.6
2809.17967	16965.8
2811.72571	16956.1
2814.27018	16914.1
2816.81308	16884
2819.35442	16834.6
2821.89419	16792.1
2824.43239	16801.4
2826.96904	16781
2829.50412	16787.3
2832.03763	16699.8
2834.56959	16732.3
2837.1	16659
2839.62884	16667.4
2842.15613	16653.2
2844.68186	16691.4
2847.20604	16691
2849.72867	16688.6
2852.24974	16664.4
2854.76927	16683.5
2857.28724	16689.6
2859.80367	16632.9
2862.31855	16582.6
2864.83189	16553.2
2867.34368	16523.6
2869.85393	16495.8
2872.36264	16444.8
2874.8698	16444
2877.37543	16409
2879.87952	16389.8
2882.38207	16399.1
2884.88308	16372.6
2887.38256	16381.1
2889.88051	16370.2
2892.37692	16386.7
2894.8718	16383.6
2897.36515	16387.2
2899.85698	16380
2902.34727	16421
2904.83604	16419.1
2907.32328	16451.7
2909.809	16445.5
2912.29319	16452.5
2914.77587	16427.5
2917.25702	16430.1
2919.73665	16402.9
2922.21476	16428.2
2924.69136	16391.2
2927.16644	16393.3
2929.64	16366.8
2932.11205	16318.2
2934.58258	16289.7
2937.05161	16312.4
2939.51912	16273.1
2941.98513	16265.9
2944.44962	16229.8
2946.91261	16157.3
2949.37409	16176.4
2951.83407	16122.3
2954.29254	16088.5
2956.74951	16113.2
2959.20498	16063.8
2961.65895	16049.6
2964.11142	16025.3
2966.56239	15998
2969.01186	15991.9
2971.45984	15955.1
2973.90632	15978.3
2976.35131	15901.4
2978.7948	15846.8
2981.23681	15825.7
2983.67732	15801.3
2986.11635	15753.4
2988.55388	15719
2990.98993	15683.7
2993.4245	15584.3
2995.85758	15523.4
2998.28917	15470.9
3000.71928	15438.3
3003.14791	15431.8
3005.57506	15383.1
3008.00073	15343.2
3010.42493	15281.4
3012.84764	15262.5
3015.26888	15261
3017.68865	15213.7
3020.10694	15155.7
3022.52376	15119.2
3024.9391	15103.9
3027.35298	15076
3029.76539	15065.2
3032.17632	15046.7
3034.5858	15026.9
3036.9938	15000.8
3039.40034	14993.7
3041.80542	14998.7
3044.20903	14936.9
3046.61118	14915
3049.01187	14900.7
3051.4111	14877.8
3053.80888	14844
3056.20519	14819.1
3058.60005	14746.4
3060.99345	14707.6
3063.3854	14666
3065.7759	14580.6
3068.16494	14528.5
3070.55254	14459.2
3072.93868	14417.2
3075.32338	14388.4
3077.70662	14348.9
3080.08842	14308.7
3082.46878	14273.7
3084.84769	14197.2
3087.22515	14227.1
3089.60118	14204.7
3091.97576	14189.3
3094.3489	14174.2
3096.72061	14138.4
3099.09087	14155.6
3101.4597	14118.6
3103.82709	14119.7
3106.19305	14090.9
3108.55757	14059.3
3110.92066	14014.2
3113.28232	13998.7
3115.64255	13938.4
3118.00134	13923.2
3120.35871	13871.8
3122.71466	13834.3
3125.06917	13796.4
3127.42226	13735.4
3129.77393	13726.4
3132.12417	13682.7
3134.47299	13689.3
3136.82039	13655.7
3139.16636	13609.1
3141.51092	13614.5
3143.85406	13616.7
3146.19579	13612.3
3148.53609	13624.7
3150.87499	13601.6
3153.21246	13594.8
3155.54853	13601.5
3157.88318	13533.1
3160.21642	13591.9
3162.54826	13576
3164.87868	13547.8
3167.2077	13538.7
3169.5353	13521.4
3171.86151	13519.5
3174.18631	13502
3176.5097	13506.1
3178.83169	13463.2
3181.15228	13447.5
3183.47147	13410
3185.78926	13406.6
3188.10565	13343.2
3190.42065	13334.9
3192.73424	13300.9
3195.04645	13293.7
3197.35725	13268.1
3199.66667	13209
3201.97469	13207.3
3204.28132	13199.1
3206.58656	13193.1
3208.8904	13191.4
3211.19287	13188.6
3213.49394	13189.4
3215.79363	13189.6
3218.09193	13143.2
3220.38884	13166.2
3222.68438	13171.6
3224.97853	13107.9
3227.2713	13108.2
3229.56269	13073.3
3231.8527	13096.4
3234.14133	13029.7
3236.42858	13004.9
3238.71446	12988.3
3240.99896	12961.8
3243.28209	12933.9
3245.56384	12922.2
3247.84423	12901.2
3250.12324	12870
3252.40088	12843
3254.67715	12802.2
3256.95205	12799.4
3259.22558	12765.8
3261.49775	12741.3
3263.76855	12709.2
3266.03799	12670.9
3268.30606	12646.7
3270.57277	12635.2
3272.83812	12596.6
3275.10211	12583.7
3277.36474	12521
3279.62601	12522.5
3281.88593	12520.1
3284.14448	12514.4
3286.40168	12516.6
3288.65753	12532.3
3290.91202	12499.7
3293.16516	12474.9
3295.41695	12432.1
3297.66738	12341.5
3299.91647	12289.8
3302.16421	12193.2
3304.4106	12149.9
3306.65564	12017.6
3308.89933	11919
3311.14169	11835.4
3313.38269	11739.4
3315.62236	11622.2
3317.86068	11528.4
3320.09766	11387.8
3322.3333	11321.3
3324.5676	11257.7
3326.80056	11082.1
3329.03219	10983.1
3331.26248	2.4
3333.49143	-0.6
3335.71905	-0.5
