Data from AgNPs_FTO_APTES_UA_5uM_CRN_200uM_R6G_10uM_NaF_0.1M_Addition_RamanShift__0__15-59-51-769.txt Node

Date: Mon Feb 07 15:59:51 GMT 2022
User: TCL
Spectrometer: QEP01345
Trigger mode: 4
Integration Time (sec): 7.000000E0
Scans to average: 10
Electric dark correction enabled: true
Nonlinearity correction enabled: false
Boxcar width: 0
XAxis mode: Raman Shifts
Number of Pixels in Spectrum: 1044
>>>>>Begin Spectral Data<<<<<
46.04893	-1.525
50.45542	-1.325
54.85868	0.875
59.25871	-0.725
63.6555	68.175
68.04907	73.675
72.43941	77.875
76.82654	78.675
81.21044	80.775
85.59113	83.375
89.96862	89.175
94.34289	91.875
98.71396	89.375
103.08183	97.675
107.4465	100.675
111.80798	106.175
116.16626	107.175
120.52136	110.975
124.87327	115.875
129.222	126.775
133.56755	132.675
137.90993	146.675
142.24913	166.375
146.58517	182.775
150.91804	213.475
155.24774	263.175
159.57429	335.475
163.89768	430.475
168.21792	579.675
172.53501	788.275
176.84895	1103.975
181.15975	1562.475
185.46741	2193.375
189.77193	3041.075
194.07331	4081.775
198.37157	5275.275
202.6667	6532.575
206.9587	7763.475
211.24758	8998.475
215.53334	10272.075
219.81599	11584.075
224.09553	13053.975
228.37195	14719.075
232.64527	16473.675
236.91549	18283.775
241.18261	20058.775
245.44663	21618.175
249.70755	23025.375
253.96539	24199.975
258.22014	25167.975
262.4718	26024.175
266.72039	26644.475
270.96589	27031.575
275.20832	27158.575
279.44768	27101.075
283.68397	26904.775
287.91719	26793.475
292.14735	26880.975
296.37445	27130.375
300.59849	27614.475
304.81948	28023.475
309.03742	28184.875
313.25231	27922.375
317.46415	27047.675
321.67296	25852.375
325.87872	24801.675
330.08145	24251.975
334.28114	24155.675
338.47781	24352.775
342.67145	24700.675
346.86207	25222.875
351.04966	25842.575
355.23424	26453.175
359.4158	26942.475
363.59435	27164.475
367.76989	27375.175
371.94243	27454.975
376.11196	27384.875
380.27849	27320.875
384.44203	27340.375
388.60257	27368.675
392.76012	27568.775
396.91468	27917.475
401.06626	28464.175
405.21485	28854.775
409.36047	28585.975
413.50311	27804.675
417.64277	27029.175
421.77947	26518.075
425.9132	26340.975
430.04396	26327.675
434.17176	26458.575
438.2966	26766.175
442.41849	27147.075
446.53742	27748.675
450.6534	28364.975
454.76644	28829.575
458.87653	28999.475
462.98368	29009.575
467.08789	28940.275
471.18916	28798.375
475.2875	28638.875
479.38291	28562.275
483.4754	28403.675
487.56496	28003.675
491.6516	27555.675
495.73531	27070.975
499.81612	26794.475
503.89401	26883.375
507.96899	27026.275
512.04106	27143.175
516.11023	27209.175
520.1765	27243.775
524.23987	27056.075
528.30034	26695.075
532.35792	26440.475
536.41261	26102.975
540.46441	25770.175
544.51333	25751.175
548.55936	26044.875
552.60252	26733.475
556.64279	27468.675
560.6802	27937.475
564.71473	28279.875
568.7464	28930.175
572.7752	29766.175
576.80114	30200.075
580.82422	30420.575
584.84444	30585.175
588.86181	30553.575
592.87633	30456.975
596.888	30244.075
600.89682	30269.775
604.9028	31319.175
608.90594	34959.475
612.90624	39718.875
616.90371	37831.675
620.89834	30108.375
624.89015	26485.275
628.87913	25893.475
632.86528	26206.075
636.84862	26540.075
640.82913	26325.875
644.80683	25638.775
648.78172	25071.375
652.75379	24955.575
656.72306	25311.275
660.68952	25872.675
664.65319	25719.075
668.61405	25127.575
672.57211	24868.375
676.52738	24903.475
680.47986	24921.475
684.42955	24837.175
688.37646	24669.275
692.32058	24732.675
696.26192	24905.375
700.20048	25075.975
704.13626	25329.175
708.06928	25539.575
711.99952	25534.375
715.927	25404.875
719.85171	25393.875
723.77365	25256.075
727.69284	24997.475
731.60928	24724.375
735.52295	24555.575
739.43388	24517.075
743.34206	24565.675
747.24749	24617.375
751.15017	24864.375
755.05012	25286.475
758.94733	26149.975
762.8418	27935.675
766.73354	30933.575
770.62254	33885.175
774.50882	34884.775
778.39237	33203.875
782.27321	30072.475
786.15132	27286.475
790.02671	25613.475
793.89938	24783.575
797.76935	24432.275
801.6366	24233.375
805.50115	24092.375
809.36299	24018.175
813.22213	23953.275
817.07857	24028.175
820.93231	24027.575
824.78336	23979.875
828.63172	23942.775
832.47738	23928.475
836.32036	23819.175
840.16066	23774.875
843.99827	23694.475
847.8332	23609.375
851.66546	23607.375
855.49504	23642.675
859.32195	23629.175
863.1462	23576.175
866.96777	23510.075
870.78668	23442.875
874.60293	23493.675
878.41652	23502.075
882.22745	23568.175
886.03573	23599.575
889.84136	23644.675
893.64433	23572.875
897.44466	23498.875
901.24235	23456.375
905.0374	23356.775
908.8298	23387.375
912.61957	23447.675
916.40671	23674.475
920.19121	23980.675
923.97308	24147.675
927.75233	24120.075
931.52895	23977.775
935.30295	23670.975
939.07433	23200.275
942.84309	22742.375
946.60924	22478.875
950.37278	22269.975
954.13371	22223.175
957.89203	22224.875
961.64774	22187.975
965.40086	22153.575
969.15137	22059.475
972.89929	21965.275
976.64461	21871.075
980.38733	21805.075
984.12747	21826.175
987.86502	21891.675
991.59999	21941.775
995.33237	22037.675
999.06217	22206.275
1002.78939	22454.375
1006.51404	22698.675
1010.23611	23011.775
1013.95561	23206.175
1017.67255	23200.175
1021.38692	23108.975
1025.09872	22892.775
1028.80796	22681.675
1032.51465	22595.175
1036.21877	22634.875
1039.92035	22827.475
1043.61937	23006.575
1047.31584	23179.875
1051.00976	23313.275
1054.70114	23409.575
1058.38998	23553.475
1062.07627	23893.975
1065.76003	24190.675
1069.44126	24427.975
1073.11995	24673.475
1076.79611	24949.075
1080.46974	25089.175
1084.14085	25249.475
1087.80943	25546.575
1091.47549	25852.675
1095.13903	25913.875
1098.80005	25645.975
1102.45857	24997.075
1106.11456	24405.275
1109.76805	24113.375
1113.41903	24198.675
1117.06751	24531.575
1120.71348	25063.975
1124.35696	25571.775
1127.99793	26249.975
1131.63641	26375.775
1135.2724	25858.475
1138.90589	25306.175
1142.5369	25034.475
1146.16542	25030.875
1149.79145	25167.575
1153.415	25359.675
1157.03607	25697.575
1160.65467	26285.075
1164.27079	27232.675
1167.88443	28506.875
1171.49561	30104.975
1175.10432	32446.175
1178.71056	35427.475
1182.31434	37889.075
1185.91565	38919.175
1189.51451	38688.575
1193.11091	37594.275
1196.70485	35999.075
1200.29634	34477.575
1203.88538	33320.375
1207.47197	32246.275
1211.05612	31348.975
1214.63782	30602.975
1218.21708	29753.275
1221.79391	28904.575
1225.36829	28306.375
1228.94024	27951.275
1232.50976	27696.775
1236.07685	27574.475
1239.6415	27528.575
1243.20374	27631.375
1246.76355	27869.475
1250.32093	28153.675
1253.8759	28584.975
1257.42845	29236.875
1260.97859	30037.475
1264.52631	30787.075
1268.07163	31499.375
1271.61453	32201.375
1275.15503	32917.575
1278.69312	33572.375
1282.22882	34181.975
1285.76211	35304.875
1289.29301	36699.875
1292.82151	38413.675
1296.34761	40363.575
1299.87133	42469.775
1303.39266	44710.675
1306.9116	47302.875
1310.42815	49804.075
1313.94233	51069.975
1317.45412	50541.175
1320.96354	49280.175
1324.47058	47925.275
1327.97525	46678.575
1331.47754	45747.575
1334.97747	45278.375
1338.47502	45246.475
1341.97022	45482.375
1345.46305	46136.875
1348.95352	46982.475
1352.44163	48027.675
1355.92738	49464.575
1359.41078	52441.675
1362.89183	55527.675
1366.37053	54393.375
1369.84688	48671.375
1373.32088	42334.575
1376.79254	38406.275
1380.26186	36747.875
1383.72883	36277.275
1387.19347	36038.075
1390.65578	35655.675
1394.11575	35109.475
1397.57339	34774.675
1401.0287	34534.675
1404.48168	34244.175
1407.93234	33696.275
1411.38068	32834.375
1414.82669	31799.775
1418.27039	30691.775
1421.71177	29653.475
1425.15083	28740.675
1428.58758	28171.375
1432.02203	28212.975
1435.45416	28740.175
1438.88399	29295.275
1442.31151	29826.075
1445.73673	30249.475
1449.15965	30813.675
1452.58027	31266.175
1455.9986	31528.575
1459.41463	31808.775
1462.82837	32104.975
1466.23982	32539.675
1469.64898	32980.875
1473.05586	33429.675
1476.46045	33522.675
1479.86276	33630.175
1483.26279	33681.775
1486.66054	33932.675
1490.05602	34570.875
1493.44922	35681.575
1496.84016	37445.775
1500.22882	40234.175
1503.61521	43866.875
1506.99934	47679.475
1510.38121	50779.075
1513.76081	51426.275
1517.13816	49175.475
1520.51324	45373.675
1523.88607	42113.575
1527.25665	40043.875
1530.62498	38951.375
1533.99105	38068.075
1537.35488	37178.575
1540.71647	36084.175
1544.07581	34931.175
1547.4329	33980.075
1550.78776	33210.475
1554.14038	32808.075
1557.49077	32727.775
1560.83892	32929.575
1564.18484	33440.475
1567.52853	34156.675
1570.86999	34886.175
1574.20922	35739.275
1577.54624	36101.675
1580.88103	35537.775
1584.2136	34556.175
1587.54395	34066.375
1590.87208	34321.275
1594.19801	35162.975
1597.52172	36339.975
1600.84321	36477.675
1604.16251	35131.675
1607.47959	33145.975
1610.79447	31140.975
1614.10715	29111.975
1617.41763	27264.175
1620.7259	26004.875
1624.03199	25239.275
1627.33587	25157.875
1630.63757	25600.975
1633.93707	26675.975
1637.23439	28685.475
1640.52951	31781.375
1643.82246	35965.275
1647.11321	40417.575
1650.40179	43072.075
1653.68819	42029.675
1656.97241	37495.675
1660.25446	32097.875
1663.53433	27667.475
1666.81203	24644.675
1670.08756	22804.975
1673.36092	21603.475
1676.63211	20872.775
1679.90115	20363.075
1683.16801	19939.075
1686.43272	19654.575
1689.69527	19440.175
1692.95567	19290.775
1696.2139	19157.375
1699.46999	19062.075
1702.72392	18976.675
1705.97571	18933.675
1709.22535	18840.075
1712.47284	18815.175
1715.71819	18778.075
1718.96139	18714.475
1722.20246	18665.675
1725.44139	18566.075
1728.67818	18419.575
1731.91284	18358.575
1735.14537	18212.975
1738.37576	18148.975
1741.60403	18071.675
1744.83017	17988.375
1748.05418	17918.275
1751.27607	17906.375
1754.49584	17880.775
1757.71349	17869.775
1760.92903	17835.475
1764.14244	17770.475
1767.35375	17763.975
1770.56294	17719.875
1773.77002	17632.575
1776.97499	17561.575
1780.17785	17519.275
1783.37861	17467.675
1786.57727	17408.975
1789.77382	17384.075
1792.96828	17336.075
1796.16064	17303.175
1799.3509	17281.975
1802.53907	17207.375
1805.72514	17183.275
1808.90913	17114.575
1812.09102	17057.575
1815.27083	16983.875
1818.44856	16954.175
1821.6242	16909.075
1824.79776	16881.275
1827.96924	16828.175
1831.13864	16824.475
1834.30597	16783.775
1837.47122	16769.375
1840.6344	16772.675
1843.7955	16702.275
1846.95454	16687.875
1850.11151	16654.575
1853.26642	16634.575
1856.41926	16623.075
1859.57004	16598.575
1862.71876	16569.875
1865.86542	16529.675
1869.01003	16538.775
1872.15258	16481.475
1875.29308	16465.675
1878.43152	16454.375
1881.56792	16405.575
1884.70227	16393.175
1887.83457	16340.975
1890.96482	16322.075
1894.09304	16256.375
1897.21921	16280.275
1900.34335	16217.975
1903.46544	16207.475
1906.58551	16178.375
1909.70353	16159.775
1912.81953	16126.475
1915.93349	16110.775
1919.04543	16062.575
1922.15534	16046.475
1925.26322	16003.875
1928.36908	15940.675
1931.47292	15935.675
1934.57473	15893.375
1937.67453	15894.175
1940.77232	15770.275
1943.86808	15726.175
1946.96184	15691.775
1950.05358	15612.775
1953.14331	15568.975
1956.23103	15526.275
1959.31675	15436.175
1962.40046	15414.575
1965.48217	15374.375
1968.56188	15297.475
1971.63959	15252.175
1974.7153	15210.975
1977.78901	15185.775
1980.86073	15100.875
1983.93046	15057.875
1986.99819	15012.775
1990.06394	14948.275
1993.1277	14917.375
1996.18947	14814.375
1999.24925	14794.675
2002.30706	14764.675
2005.36288	14727.175
2008.41672	14651.275
2011.46859	14583.475
2014.51848	14534.775
2017.56639	14467.975
2020.61233	14436.275
2023.6563	14398.275
2026.6983	14323.475
2029.73833	14288.175
2032.7764	14232.175
2035.8125	14204.275
2038.84664	14194.075
2041.87881	14153.575
2044.90903	14119.975
2047.93729	14113.375
2050.96359	14074.975
2053.98794	14079.175
2057.01034	14047.675
2060.03078	14011.775
2063.04927	14020.675
2066.06582	14004.175
2069.08042	13992.875
2072.09307	13979.575
2075.10378	13960.075
2078.11255	13931.475
2081.11938	13943.675
2084.12426	13930.075
2087.12722	13890.775
2090.12824	13879.075
2093.12732	13906.175
2096.12447	13886.175
2099.11969	13861.775
2102.11299	13849.375
2105.10435	13850.375
2108.09379	13854.575
2111.08131	13874.675
2114.0669	13866.075
2117.05057	13908.375
2120.03233	13895.875
2123.01216	13920.575
2125.99008	13902.975
2128.96609	13913.275
2131.94018	13903.775
2134.91236	13911.575
2137.88263	13893.275
2140.851	13917.675
2143.81746	13906.875
2146.78201	13902.675
2149.74466	13865.375
2152.7054	13884.675
2155.66425	13857.975
2158.6212	13843.975
2161.57625	13801.175
2164.52941	13808.575
2167.48067	13810.675
2170.43004	13786.075
2173.37752	13778.475
2176.32311	13805.075
2179.26681	13819.575
2182.20863	13776.275
2185.14856	13764.275
2188.08661	13769.375
2191.02278	13759.375
2193.95707	13719.875
2196.88948	13671.375
2199.82001	13671.275
2202.74867	13645.975
2205.67545	13587.475
2208.60037	13602.275
2211.52341	13550.575
2214.44458	13540.575
2217.36388	13494.475
2220.28132	13457.075
2223.1969	13395.375
2226.11061	13418.575
2229.02246	13387.275
2231.93245	13373.075
2234.84058	13319.875
2237.74686	13298.275
2240.65128	13287.275
2243.55385	13277.475
2246.45456	13265.475
2249.35343	13257.475
2252.25044	13207.275
2255.14561	13167.275
2258.03893	13137.775
2260.93041	13114.675
2263.82004	13091.775
2266.70783	13054.575
2269.59378	13015.775
2272.4779	13003.675
2275.36017	12930.775
2278.24061	12924.275
2281.11922	12875.875
2283.996	12876.075
2286.87094	12841.475
2289.74405	12774.075
2292.61534	12786.075
2295.4848	12753.975
2298.35243	12756.375
2301.21824	12738.375
2304.08223	12740.675
2306.94439	12759.075
2309.80474	12717.075
2312.66327	12690.775
2315.51999	12670.575
2318.37489	12684.275
2321.22797	12635.375
2324.07925	12620.775
2326.92871	12607.075
2329.77637	12578.275
2332.62222	12542.275
2335.46626	12525.375
2338.3085	12522.975
2341.14893	12490.475
2343.98756	12504.075
2346.8244	12462.575
2349.65943	12484.475
2352.49267	12471.575
2355.32411	12494.075
2358.15376	12456.975
2360.98161	12468.975
2363.80768	12481.875
2366.63195	12524.175
2369.45444	12472.975
2372.27514	12479.475
2375.09405	12420.575
2377.91118	12377.875
2380.72652	12375.975
2383.54009	12344.475
2386.35187	12318.275
2389.16188	12254.375
2391.97011	12180.175
2394.77657	12144.975
2397.58125	12121.675
2400.38416	12103.175
2403.18529	12064.775
2405.98466	12065.175
2408.78226	12038.775
2411.57809	12040.875
2414.37216	12026.775
2417.16446	12033.675
2419.955	12008.375
2422.74378	11975.375
2425.5308	11960.375
2428.31606	11982.075
2431.09956	11947.875
2433.88131	11926.775
2436.6613	11926.275
2439.43954	11941.875
2442.21603	11930.075
2444.99077	11885.875
2447.76377	11889.975
2450.53501	11871.375
2453.30451	11868.675
2456.07226	11845.875
2458.83827	11832.375
2461.60254	11806.675
2464.36507	11838.875
2467.12586	11816.475
2469.88492	11799.575
2472.64224	11813.975
2475.39782	11785.875
2478.15167	11776.775
2480.90379	11769.775
2483.65417	11795.175
2486.40283	11777.475
2489.14976	11828.275
2491.89497	11799.975
2494.63845	11826.975
2497.3802	11795.075
2500.12024	11783.875
2502.85855	11736.575
2505.59514	11715.175
2508.33002	11686.475
2511.06318	11680.775
2513.79462	11662.575
2516.52435	11619.475
2519.25237	11597.675
2521.97867	11563.575
2524.70327	11528.375
2527.42616	11497.275
2530.14734	11520.275
2532.86681	11515.375
2535.58458	11493.175
2538.30065	11464.175
2541.01501	11467.175
2543.72768	11417.175
2546.43864	11427.475
2549.14791	11393.475
2551.85548	11382.675
2554.56136	11347.775
2557.26554	11332.675
2559.96803	11329.575
2562.66883	11310.375
2565.36794	11309.675
2568.06536	11302.775
2570.7611	11256.275
2573.45514	11225.775
2576.14751	11252.875
2578.83819	11197.575
2581.52719	11184.875
2584.21451	11164.575
2586.90015	11144.275
2589.58411	11131.175
2592.2664	11122.675
2594.94701	11102.775
2597.62594	11075.675
2600.30321	11045.975
2602.9788	11034.375
2605.65273	11032.375
2608.32498	11035.675
2610.99557	11028.475
2613.66449	11042.375
2616.33175	10991.875
2618.99734	10977.975
2621.66128	10969.375
2624.32355	10945.775
2626.98416	10924.975
2629.64311	10875.075
2632.30041	10878.575
2634.95605	10862.975
2637.61004	10836.875
2640.26238	10869.475
2642.91306	10811.875
2645.56209	10794.975
2648.20948	10796.375
2650.85521	10805.175
2653.4993	10807.575
2656.14175	10789.575
2658.78255	10828.075
2661.42171	10822.575
2664.05923	10804.675
2666.6951	10793.275
2669.32934	10799.075
2671.96194	10807.575
2674.59291	10817.375
2677.22224	10799.975
2679.84993	10797.475
2682.476	10788.275
2685.10043	10805.275
2687.72324	10767.575
2690.34441	10790.775
2692.96396	10739.475
2695.58188	10751.475
2698.19818	10749.875
2700.81285	10783.475
2703.4259	10758.475
2706.03733	10766.775
2708.64714	10749.275
2711.25533	10769.175
2713.86191	10767.975
2716.46687	10790.975
2719.07021	10772.375
2721.67194	10793.775
2724.27206	10784.875
2726.87057	10779.875
2729.46747	10804.875
2732.06276	10763.175
2734.65644	10772.175
2737.24852	10741.375
2739.83899	10720.875
2742.42786	10718.875
2745.01513	10696.875
2747.60079	10670.375
2750.18486	10652.175
2752.76733	10606.975
2755.3482	10611.975
2757.92747	10586.975
2760.50515	10585.675
2763.08123	10590.575
2765.65573	10568.075
2768.22863	10547.275
2770.79994	10540.375
2773.36967	10530.375
2775.9378	10534.575
2778.50435	10521.475
2781.06932	10499.975
2783.6327	10517.375
2786.1945	10487.875
2788.75471	10489.775
2791.31335	10467.375
2793.87041	10463.675
2796.42589	10464.175
2798.97979	10437.375
2801.53212	10397.775
2804.08288	10385.375
2806.63206	10353.875
2809.17967	10336.475
2811.72571	10330.875
2814.27018	10323.375
2816.81308	10285.975
2819.35442	10275.575
2821.89419	10259.175
2824.43239	10277.375
2826.96904	10263.775
2829.50412	10234.675
2832.03763	10217.675
2834.56959	10208.175
2837.1	10194.275
2839.62884	10231.175
2842.15613	10267.275
2844.68186	10314.975
2847.20604	10356.375
2849.72867	10377.075
2852.24974	10356.675
2854.76927	10333.275
2857.28724	10339.075
2859.80367	10299.075
2862.31855	10285.675
2864.83189	10263.875
2867.34368	10245.675
2869.85393	10241.475
2872.36264	10235.775
2874.8698	10240.975
2877.37543	10247.475
2879.87952	10194.875
2882.38207	10224.175
2884.88308	10188.975
2887.38256	10190.075
2889.88051	10180.075
2892.37692	10174.775
2894.8718	10172.275
2897.36515	10164.175
2899.85698	10163.575
2902.34727	10191.675
2904.83604	10195.875
2907.32328	10201.275
2909.809	10201.875
2912.29319	10197.075
2914.77587	10186.275
2917.25702	10182.075
2919.73665	10187.175
2922.21476	10180.675
2924.69136	10190.875
2927.16644	10198.375
2929.64	10151.175
2932.11205	10134.475
2934.58258	10091.175
2937.05161	10114.675
2939.51912	10058.275
2941.98513	10032.375
2944.44962	10005.175
2946.91261	9988.075
2949.37409	9964.575
2951.83407	9936.975
2954.29254	9923.275
2956.74951	9913.375
2959.20498	9910.275
2961.65895	9890.075
2964.11142	9879.275
2966.56239	9857.275
2969.01186	9859.075
2971.45984	9829.275
2973.90632	9806.275
2976.35131	9808.475
2978.7948	9773.375
2981.23681	9761.075
2983.67732	9714.375
2986.11635	9718.275
2988.55388	9673.375
2990.98993	9647.475
2993.4245	9626.475
2995.85758	9584.075
2998.28917	9563.975
3000.71928	9530.475
3003.14791	9529.675
3005.57506	9507.075
3008.00073	9484.575
3010.42493	9477.575
3012.84764	9445.775
3015.26888	9444.975
3017.68865	9389.575
3020.10694	9384.975
3022.52376	9373.775
3024.9391	9338.675
3027.35298	9321.975
3029.76539	9336.675
3032.17632	9323.375
3034.5858	9286.175
3036.9938	9273.575
3039.40034	9271.975
3041.80542	9275.875
3044.20903	9242.575
3046.61118	9237.775
3049.01187	9212.475
3051.4111	9201.875
3053.80888	9172.575
3056.20519	9161.875
3058.60005	9123.275
3060.99345	9118.475
3063.3854	9099.575
3065.7759	9051.375
3068.16494	9029.875
3070.55254	9002.475
3072.93868	8985.775
3075.32338	8956.875
3077.70662	8931.975
3080.08842	8897.875
3082.46878	8896.875
3084.84769	8874.475
3087.22515	8898.975
3089.60118	8882.175
3091.97576	8869.975
3094.3489	8857.775
3096.72061	8863.875
3099.09087	8864.175
3101.4597	8847.275
3103.82709	8819.775
3106.19305	8830.975
3108.55757	8844.375
3110.92066	8813.275
3113.28232	8809.575
3115.64255	8747.875
3118.00134	8733.075
3120.35871	8745.875
3122.71466	8723.675
3125.06917	8698.075
3127.42226	8666.975
3129.77393	8665.375
3132.12417	8647.175
3134.47299	8658.475
3136.82039	8649.175
