Data from AgNPs_FTO_APTES_UA_5uM_CRN_0uM_R6G_10uM_NaF_0.1M_Addition_RamanShift__0__09-38-46-532.txt Node

Date: Mon Feb 07 09:38:46 GMT 2022
User: TCL
Spectrometer: QEP01345
Trigger mode: 4
Integration Time (sec): 7.000000E0
Scans to average: 10
Electric dark correction enabled: true
Nonlinearity correction enabled: false
Boxcar width: 0
XAxis mode: Raman Shifts
Number of Pixels in Spectrum: 1044
>>>>>Begin Spectral Data<<<<<
46.04893	-0.125
50.45542	-0.525
54.85868	-1.325
59.25871	1.575
63.6555	58.875
68.04907	66.175
72.43941	68.975
76.82654	68.375
81.21044	71.375
85.59113	74.975
89.96862	78.875
94.34289	81.075
98.71396	81.675
103.08183	86.275
107.4465	87.075
111.80798	90.475
116.16626	93.375
120.52136	97.675
124.87327	102.875
129.222	107.575
133.56755	117.175
137.90993	129.275
142.24913	139.475
146.58517	162.875
150.91804	192.275
155.24774	233.575
159.57429	296.675
163.89768	386.975
168.21792	514.475
172.53501	708.375
176.84895	986.075
181.15975	1388.175
185.46741	1963.075
189.77193	2707.075
194.07331	3643.575
198.37157	4745.475
202.6667	5888.575
206.9587	7051.575
211.24758	8207.075
215.53334	9354.575
219.81599	10627.475
224.09553	12018.975
228.37195	13548.875
232.64527	15261.175
236.91549	17065.575
241.18261	18848.575
245.44663	20448.675
249.70755	21844.875
253.96539	23059.075
258.22014	24031.875
262.4718	24737.475
266.72039	25108.775
270.96589	25213.175
275.20832	25014.575
279.44768	24595.475
283.68397	24236.775
287.91719	23847.075
292.14735	23515.375
296.37445	23285.575
300.59849	23188.075
304.81948	23302.575
309.03742	23459.275
313.25231	23480.075
317.46415	22930.975
321.67296	21869.475
325.87872	20718.175
330.08145	20040.175
334.28114	19739.175
338.47781	19803.475
342.67145	19983.275
346.86207	20334.975
351.04966	20757.375
355.23424	21206.675
359.4158	21559.875
363.59435	21827.975
367.76989	21868.975
371.94243	21710.975
376.11196	21487.375
380.27849	21214.875
384.44203	20955.975
388.60257	20849.475
392.76012	21009.875
396.91468	21460.575
401.06626	22015.475
405.21485	22473.675
409.36047	22365.075
413.50311	21780.475
417.64277	21326.675
421.77947	21106.975
425.9132	21033.875
430.04396	21025.675
434.17176	20941.075
438.2966	20841.575
442.41849	20832.175
446.53742	21041.375
450.6534	21368.475
454.76644	21628.775
458.87653	21734.775
462.98368	21745.075
467.08789	21639.675
471.18916	21499.275
475.2875	21303.375
479.38291	21196.775
483.4754	21192.175
487.56496	21272.275
491.6516	21382.575
495.73531	21397.975
499.81612	21387.275
503.89401	21492.575
507.96899	21417.275
512.04106	21218.175
516.11023	20898.475
520.1765	20500.475
524.23987	20100.075
528.30034	19839.475
532.35792	19568.675
536.41261	19279.575
540.46441	18984.775
544.51333	18922.475
548.55936	19265.975
552.60252	19908.875
556.64279	20498.875
560.6802	20599.175
564.71473	20617.575
568.7464	20996.075
572.7752	21852.075
576.80114	22846.175
580.82422	24105.175
584.84444	25618.175
588.86181	26879.275
592.87633	27347.175
596.888	26789.175
600.89682	25599.975
604.9028	25408.575
608.90594	27720.975
612.90624	31034.875
616.90371	29542.975
620.89834	23285.975
624.89015	20132.075
628.87913	19767.375
632.86528	20292.575
636.84862	20790.075
640.82913	20474.375
644.80683	19531.775
648.78172	18740.475
652.75379	18543.075
656.72306	18867.175
660.68952	19302.875
664.65319	19468.375
668.61405	19209.275
672.57211	19045.275
676.52738	19018.975
680.47986	18951.775
684.42955	18780.075
688.37646	18619.375
692.32058	18737.375
696.26192	18986.075
700.20048	19284.575
704.13626	19525.075
708.06928	19801.275
711.99952	19850.775
715.927	19668.675
719.85171	19424.175
723.77365	19147.975
727.69284	18675.375
731.60928	18230.375
735.52295	17984.675
739.43388	17896.575
743.34206	17928.575
747.24749	18101.275
751.15017	18445.475
755.05012	18946.575
758.94733	19753.675
762.8418	21344.775
766.73354	23990.875
770.62254	26625.575
774.50882	26849.175
778.39237	24877.675
782.27321	22502.575
786.15132	20496.475
790.02671	19151.675
793.89938	18371.775
797.76935	17970.975
801.6366	17803.275
805.50115	17675.375
809.36299	17606.575
813.22213	17496.775
817.07857	17507.775
820.93231	17367.475
824.78336	17348.875
828.63172	17290.375
832.47738	17257.475
836.32036	17206.875
840.16066	17134.075
843.99827	17127.375
847.8332	17101.075
851.66546	17139.375
855.49504	17168.175
859.32195	17181.875
863.1462	17079.275
866.96777	17021.875
870.78668	16997.575
874.60293	17005.475
878.41652	17012.975
882.22745	17036.875
886.03573	17114.675
889.84136	17197.175
893.64433	17241.575
897.44466	17328.175
901.24235	17401.975
905.0374	17491.275
908.8298	17458.175
912.61957	17448.275
916.40671	17640.475
920.19121	18002.275
923.97308	18401.275
927.75233	18719.275
931.52895	18670.775
935.30295	18185.375
939.07433	17404.975
942.84309	16805.475
946.60924	16444.475
950.37278	16253.975
954.13371	16144.175
957.89203	16106.575
961.64774	16099.775
965.40086	16086.575
969.15137	16051.975
972.89929	15938.575
976.64461	15840.075
980.38733	15738.275
984.12747	15640.175
987.86502	15660.475
991.59999	15704.275
995.33237	15733.075
999.06217	15860.775
1002.78939	16042.875
1006.51404	16274.875
1010.23611	16516.775
1013.95561	16742.475
1017.67255	16919.175
1021.38692	16810.375
1025.09872	16597.675
1028.80796	16396.975
1032.51465	16346.675
1036.21877	16459.075
1039.92035	16724.775
1043.61937	17018.475
1047.31584	17301.775
1051.00976	17542.375
1054.70114	17715.075
1058.38998	17781.975
1062.07627	17898.975
1065.76003	18015.275
1069.44126	18383.775
1073.11995	19142.975
1076.79611	19922.075
1080.46974	20150.375
1084.14085	20052.575
1087.80943	20255.875
1091.47549	20594.475
1095.13903	20786.275
1098.80005	20550.175
1102.45857	19593.875
1106.11456	18460.175
1109.76805	17579.175
1113.41903	17209.475
1117.06751	17169.875
1120.71348	17443.575
1124.35696	17846.075
1127.99793	18368.575
1131.63641	18694.275
1135.2724	18671.075
1138.90589	18439.675
1142.5369	18312.075
1146.16542	18255.275
1149.79145	18294.775
1153.415	18447.475
1157.03607	18722.975
1160.65467	19237.075
1164.27079	20061.975
1167.88443	21250.375
1171.49561	22779.175
1175.10432	24896.775
1178.71056	27345.275
1182.31434	29359.175
1185.91565	30339.975
1189.51451	30401.375
1193.11091	29704.775
1196.70485	28259.575
1200.29634	26524.875
1203.88538	25114.075
1207.47197	24082.375
1211.05612	23316.575
1214.63782	22639.775
1218.21708	21924.575
1221.79391	21217.075
1225.36829	20698.575
1228.94024	20398.175
1232.50976	20263.775
1236.07685	20204.375
1239.6415	20211.975
1243.20374	20169.575
1246.76355	20224.275
1250.32093	20372.375
1253.8759	20767.775
1257.42845	21483.675
1260.97859	22466.175
1264.52631	23477.075
1268.07163	24458.175
1271.61453	25382.575
1275.15503	26307.975
1278.69312	27400.875
1282.22882	28617.775
1285.76211	30025.875
1289.29301	31340.575
1292.82151	32503.075
1296.34761	33656.875
1299.87133	35195.775
1303.39266	36965.275
1306.9116	38978.075
1310.42815	40859.575
1313.94233	41817.975
1317.45412	41701.075
1320.96354	41201.075
1324.47058	41000.575
1327.97525	41015.975
1331.47754	40719.375
1334.97747	39974.175
1338.47502	38807.975
1341.97022	37790.575
1345.46305	36961.775
1348.95352	36363.775
1352.44163	36113.875
1355.92738	36596.275
1359.41078	38292.775
1362.89183	40950.875
1366.37053	42239.875
1369.84688	40433.375
1373.32088	36321.475
1376.79254	32231.775
1380.26186	29515.275
1383.72883	27971.175
1387.19347	27022.075
1390.65578	26195.875
1394.11575	25575.475
1397.57339	25339.675
1401.0287	25358.575
1404.48168	25481.675
1407.93234	25174.375
1411.38068	24510.075
1414.82669	23617.275
1418.27039	22662.275
1421.71177	21815.575
1425.15083	21095.175
1428.58758	20735.175
1432.02203	20757.275
1435.45416	21078.375
1438.88399	21452.975
1442.31151	21807.375
1445.73673	22169.375
1449.15965	22632.275
1452.58027	22981.175
1455.9986	23048.875
1459.41463	23248.575
1462.82837	23709.375
1466.23982	24432.675
1469.64898	25107.075
1473.05586	25451.675
1476.46045	25769.875
1479.86276	26131.675
1483.26279	26679.475
1486.66054	27443.375
1490.05602	28431.075
1493.44922	29808.475
1496.84016	31625.775
1500.22882	33985.575
1503.61521	36832.775
1506.99934	39850.275
1510.38121	42219.275
1513.76081	43189.275
1517.13816	42155.375
1520.51324	39844.575
1523.88607	37257.475
1527.25665	35049.175
1530.62498	33233.475
1533.99105	31586.775
1537.35488	30085.475
1540.71647	28566.775
1544.07581	27097.875
1547.4329	25801.775
1550.78776	24863.475
1554.14038	24379.875
1557.49077	24348.475
1560.83892	24712.275
1564.18484	25300.275
1567.52853	25854.875
1570.86999	26232.275
1574.20922	26539.775
1577.54624	26543.075
1580.88103	25891.975
1584.2136	25068.875
1587.54395	24879.375
1590.87208	25633.675
1594.19801	26912.175
1597.52172	28058.375
1600.84321	28034.275
1604.16251	26459.375
1607.47959	24280.175
1610.79447	22340.075
1614.10715	20517.475
1617.41763	19080.375
1620.7259	18039.375
1624.03199	17491.475
1627.33587	17449.975
1630.63757	17841.175
1633.93707	18881.675
1637.23439	20744.975
1640.52951	23851.775
1643.82246	28197.975
1647.11321	33177.675
1650.40179	36767.775
1653.68819	36693.875
1656.97241	32739.775
1660.25446	26973.775
1663.53433	21983.675
1666.81203	18610.875
1670.08756	16594.875
1673.36092	15414.475
1676.63211	14681.375
1679.90115	14238.075
1683.16801	13881.875
1686.43272	13611.675
1689.69527	13415.675
1692.95567	13263.775
1696.2139	13131.075
1699.46999	13045.975
1702.72392	12956.875
1705.97571	12906.575
1709.22535	12855.875
1712.47284	12776.875
1715.71819	12723.475
1718.96139	12672.375
1722.20246	12613.475
1725.44139	12521.675
1728.67818	12432.275
1731.91284	12333.075
1735.14537	12242.875
1738.37576	12174.575
1741.60403	12128.275
1744.83017	12045.575
1748.05418	11998.175
1751.27607	11945.175
1754.49584	11943.175
1757.71349	11900.175
1760.92903	11872.075
1764.14244	11846.575
1767.35375	11853.875
1770.56294	11791.575
1773.77002	11772.575
1776.97499	11745.175
1780.17785	11757.375
1783.37861	11699.575
1786.57727	11644.375
1789.77382	11557.775
1792.96828	11513.075
1796.16064	11488.275
1799.3509	11441.375
1802.53907	11410.575
1805.72514	11334.875
1808.90913	11269.375
1812.09102	11223.975
1815.27083	11188.975
1818.44856	11144.675
1821.6242	11120.975
1824.79776	11075.775
1827.96924	11020.875
1831.13864	10992.475
1834.30597	10978.375
1837.47122	10990.375
1840.6344	10931.875
1843.7955	10961.975
1846.95454	10932.875
1850.11151	10963.375
1853.26642	10906.175
1856.41926	10902.575
1859.57004	10893.075
1862.71876	10885.575
1865.86542	10840.375
1869.01003	10855.775
1872.15258	10810.475
1875.29308	10794.075
1878.43152	10733.475
1881.56792	10734.675
1884.70227	10690.475
1887.83457	10702.175
1890.96482	10695.075
1894.09304	10620.775
1897.21921	10616.575
1900.34335	10582.175
1903.46544	10580.275
1906.58551	10540.675
1909.70353	10548.275
1912.81953	10502.475
1915.93349	10507.075
1919.04543	10475.575
1922.15534	10445.675
1925.26322	10441.475
1928.36908	10380.875
1931.47292	10370.575
1934.57473	10340.275
1937.67453	10300.075
1940.77232	10257.075
1943.86808	10205.475
1946.96184	10160.175
1950.05358	10151.275
1953.14331	10110.675
1956.23103	10097.075
1959.31675	10055.275
1962.40046	9992.075
1965.48217	9968.475
1968.56188	9923.875
1971.63959	9903.075
1974.7153	9859.975
1977.78901	9830.175
1980.86073	9787.375
1983.93046	9733.875
1986.99819	9695.875
1990.06394	9661.575
1993.1277	9619.975
1996.18947	9627.275
1999.24925	9573.675
2002.30706	9528.475
2005.36288	9484.775
2008.41672	9442.875
2011.46859	9423.175
2014.51848	9407.875
2017.56639	9373.075
2020.61233	9346.475
2023.6563	9326.175
2026.6983	9275.575
2029.73833	9241.475
2032.7764	9257.675
2035.8125	9245.675
2038.84664	9230.875
2041.87881	9228.375
2044.90903	9212.275
2047.93729	9214.375
2050.96359	9232.875
2053.98794	9250.375
2057.01034	9255.675
2060.03078	9268.375
2063.04927	9280.775
2066.06582	9318.075
2069.08042	9320.275
2072.09307	9328.975
2075.10378	9347.175
2078.11255	9347.875
2081.11938	9361.275
2084.12426	9356.675
2087.12722	9370.775
2090.12824	9347.375
2093.12732	9340.475
2096.12447	9321.575
2099.11969	9291.875
2102.11299	9280.675
2105.10435	9283.175
2108.09379	9240.775
2111.08131	9224.575
2114.0669	9190.575
2117.05057	9187.875
2120.03233	9154.275
2123.01216	9132.875
2125.99008	9114.775
2128.96609	9091.075
2131.94018	9073.875
2134.91236	9052.875
2137.88263	9011.675
2140.851	8998.575
2143.81746	8977.775
2146.78201	8981.475
2149.74466	8935.475
2152.7054	8921.175
2155.66425	8906.475
2158.6212	8875.175
2161.57625	8865.775
2164.52941	8830.175
2167.48067	8832.275
2170.43004	8792.675
2173.37752	8776.675
2176.32311	8789.175
2179.26681	8760.975
2182.20863	8771.575
2185.14856	8761.675
2188.08661	8752.075
2191.02278	8743.875
2193.95707	8728.775
2196.88948	8700.675
2199.82001	8700.875
2202.74867	8657.675
2205.67545	8643.075
2208.60037	8638.075
2211.52341	8611.575
2214.44458	8604.875
2217.36388	8579.375
2220.28132	8540.075
2223.1969	8535.375
2226.11061	8522.775
2229.02246	8497.875
2231.93245	8526.375
2234.84058	8500.575
2237.74686	8475.275
2240.65128	8425.375
2243.55385	8433.275
2246.45456	8426.775
2249.35343	8409.575
2252.25044	8392.675
2255.14561	8341.375
2258.03893	8331.475
2260.93041	8323.975
2263.82004	8329.275
2266.70783	8308.975
2269.59378	8246.775
2272.4779	8240.975
2275.36017	8198.075
2278.24061	8193.175
2281.11922	8171.675
2283.996	8162.675
2286.87094	8130.975
2289.74405	8115.375
2292.61534	8100.875
2295.4848	8062.175
2298.35243	8042.975
2301.21824	8038.775
2304.08223	8037.675
2306.94439	8035.475
2309.80474	8001.675
2312.66327	8005.175
2315.51999	7988.175
2318.37489	7966.675
2321.22797	7966.175
2324.07925	7933.275
2326.92871	7897.175
2329.77637	7913.175
2332.62222	7907.775
2335.46626	7894.675
2338.3085	7880.775
2341.14893	7886.475
2343.98756	7871.475
2346.8244	7889.475
2349.65943	7877.175
2352.49267	7850.475
2355.32411	7905.375
2358.15376	7907.975
2360.98161	7908.775
2363.80768	7910.375
2366.63195	7931.275
2369.45444	7888.875
2372.27514	7884.275
2375.09405	7884.075
2377.91118	7855.275
2380.72652	7825.875
2383.54009	7787.875
2386.35187	7771.175
2389.16188	7738.075
2391.97011	7691.375
2394.77657	7671.775
2397.58125	7624.975
2400.38416	7633.875
2403.18529	7602.275
2405.98466	7573.675
2408.78226	7553.875
2411.57809	7550.175
2414.37216	7544.675
2417.16446	7555.975
2419.955	7558.575
2422.74378	7540.575
2425.5308	7528.775
2428.31606	7513.075
2431.09956	7510.175
2433.88131	7509.075
2436.6613	7514.075
2439.43954	7515.075
2442.21603	7501.675
2444.99077	7495.375
2447.76377	7507.975
2450.53501	7480.075
2453.30451	7479.575
2456.07226	7458.175
2458.83827	7448.475
2461.60254	7454.575
2464.36507	7443.075
2467.12586	7456.375
2469.88492	7436.375
2472.64224	7453.275
2475.39782	7439.975
2478.15167	7446.475
2480.90379	7441.875
2483.65417	7447.875
2486.40283	7439.475
2489.14976	7430.375
2491.89497	7407.875
2494.63845	7423.975
2497.3802	7415.475
2500.12024	7380.375
2502.85855	7381.275
2505.59514	7357.275
2508.33002	7350.975
2511.06318	7317.075
2513.79462	7309.075
2516.52435	7296.775
2519.25237	7270.875
2521.97867	7244.075
2524.70327	7254.975
2527.42616	7206.975
2530.14734	7196.275
2532.86681	7193.275
2535.58458	7194.575
2538.30065	7159.575
2541.01501	7182.975
2543.72768	7162.475
2546.43864	7158.475
2549.14791	7125.275
2551.85548	7102.975
2554.56136	7101.275
2557.26554	7070.775
2559.96803	7078.075
2562.66883	7096.375
2565.36794	7079.175
2568.06536	7084.375
2570.7611	7019.875
2573.45514	7053.775
2576.14751	7038.575
2578.83819	6999.775
2581.52719	6993.975
2584.21451	6984.575
2586.90015	6975.075
2589.58411	6952.075
2592.2664	6953.975
2594.94701	6920.075
2597.62594	6931.575
2600.30321	6906.075
2602.9788	6903.175
2605.65273	6894.475
2608.32498	6879.075
2610.99557	6873.175
2613.66449	6872.475
2616.33175	6882.575
2618.99734	6842.375
2621.66128	6838.475
2624.32355	6846.175
2626.98416	6800.475
2629.64311	6778.975
2632.30041	6784.475
2634.95605	6780.275
2637.61004	6764.775
2640.26238	6748.375
2642.91306	6785.975
2645.56209	6764.275
2648.20948	6756.675
2650.85521	6731.075
2653.4993	6731.675
2656.14175	6738.975
2658.78255	6723.375
2661.42171	6737.875
2664.05923	6708.575
2666.6951	6746.575
2669.32934	6744.775
2671.96194	6729.475
2674.59291	6743.875
2677.22224	6751.475
2679.84993	6743.075
2682.476	6730.175
2685.10043	6727.675
2687.72324	6711.475
2690.34441	6692.275
2692.96396	6701.675
2695.58188	6697.875
2698.19818	6669.575
2700.81285	6675.875
2703.4259	6678.875
2706.03733	6658.775
2708.64714	6660.175
2711.25533	6691.875
2713.86191	6673.975
2716.46687	6676.875
2719.07021	6681.375
2721.67194	6672.475
2724.27206	6690.875
2726.87057	6686.875
2729.46747	6684.775
2732.06276	6668.275
2734.65644	6671.075
2737.24852	6678.975
2739.83899	6655.675
2742.42786	6661.675
2745.01513	6641.075
2747.60079	6631.475
2750.18486	6614.375
2752.76733	6606.875
2755.3482	6599.175
2757.92747	6585.275
2760.50515	6566.775
2763.08123	6543.775
2765.65573	6559.875
2768.22863	6520.775
2770.79994	6535.175
2773.36967	6545.475
2775.9378	6529.675
2778.50435	6535.175
2781.06932	6515.775
2783.6327	6511.575
2786.1945	6526.075
2788.75471	6513.275
2791.31335	6496.475
2793.87041	6499.375
2796.42589	6499.175
2798.97979	6493.675
2801.53212	6452.575
2804.08288	6451.575
2806.63206	6426.475
2809.17967	6423.475
2811.72571	6429.675
2814.27018	6429.075
2816.81308	6406.775
2819.35442	6391.575
2821.89419	6386.575
2824.43239	6400.275
2826.96904	6396.175
2829.50412	6388.875
2832.03763	6385.375
2834.56959	6378.475
2837.1	6357.675
2839.62884	6372.775
2842.15613	6361.475
2844.68186	6417.075
2847.20604	6405.675
2849.72867	6423.875
2852.24974	6427.575
2854.76927	6421.575
2857.28724	6417.875
2859.80367	6406.975
2862.31855	6405.275
2864.83189	6423.075
2867.34368	6413.475
2869.85393	6403.475
2872.36264	6387.775
2874.8698	6385.475
2877.37543	6386.275
2879.87952	6395.775
2882.38207	6401.275
2884.88308	6392.675
2887.38256	6405.175
2889.88051	6406.775
2892.37692	6408.775
2894.8718	6407.775
2897.36515	6411.675
2899.85698	6411.275
2902.34727	6435.875
2904.83604	6442.175
2907.32328	6444.675
2909.809	6447.175
2912.29319	6421.975
2914.77587	6428.175
2917.25702	6436.375
2919.73665	6419.975
2922.21476	6420.875
2924.69136	6437.475
2927.16644	6431.375
2929.64	6432.775
2932.11205	6411.775
2934.58258	6387.475
2937.05161	6377.575
2939.51912	6381.875
2941.98513	6347.575
2944.44962	6311.575
2946.91261	6268.975
2949.37409	6268.075
2951.83407	6245.875
2954.29254	6231.375
2956.74951	6215.175
2959.20498	6211.975
2961.65895	6198.575
2964.11142	6174.675
2966.56239	6176.975
2969.01186	6159.575
2971.45984	6133.575
2973.90632	6138.475
2976.35131	6123.975
2978.7948	6103.575
2981.23681	6080.175
2983.67732	6059.275
2986.11635	6037.075
2988.55388	6023.275
2990.98993	6023.375
2993.4245	5997.175
2995.85758	5972.575
2998.28917	5946.275
3000.71928	5930.375
3003.14791	5901.075
3005.57506	5907.475
3008.00073	5889.875
3010.42493	5882.575
3012.84764	5884.575
3015.26888	5869.975
3017.68865	5846.075
3020.10694	5825.675
3022.52376	5808.975
3024.9391	5790.475
3027.35298	5770.075
3029.76539	5764.875
3032.17632	5782.375
3034.5858	5764.375
3036.9938	5762.075
3039.40034	5754.075
3041.80542	5737.275
3044.20903	5731.375
3046.61118	5703.775
3049.01187	5703.475
3051.4111	5711.975
3053.80888	5703.575
3056.20519	5698.475
3058.60005	5656.875
3060.99345	5665.775
3063.3854	5630.175
3065.7759	5621.075
3068.16494	5630.275
3070.55254	5603.675
3072.93868	5575.775
3075.32338	5560.875
3077.70662	5528.075
3080.08842	5524.775
3082.46878	5506.475
3084.84769	5494.375
3087.22515	5489.775
3089.60118	5479.875
3091.97576	5486.875
3094.3489	5497.875
3096.72061	5500.475
3099.09087	5494.075
3101.4597	5466.675
3103.82709	5471.475
3106.19305	5468.675
3108.55757	5470.075
3110.92066	5458.075
3113.28232	5444.375
3115.64255	5416.675
3118.00134	5415.275
3120.35871	5422.375
3122.71466	5406.575
3125.06917	5397.675
3127.42226	5375.175
3129.77393	5399.075
3132.12417	5379.275
3134.47299	5389.575
3136.82039	5382.475
3139.16636	5383.575
3141.51092	5380.875
3143.85406	5390.375
3146.19579	5399.675
3148.53609	5393.175
3150.87499	5379.875
3153.21246	5405.575
3155.54853	5409.375
3157.88318	5404.175
3160.21642	5405.075
3162.54826	5388.675
3164.87868	5392.575
3167.2077	5384.575
3169.5353	5405.475
3171.86151	5420.775
3174.18631	5400.275
3176.5097	5388.075
3178.83169	5389.475
