Data from AgNPs_FTO_APTES_UA_5uM_CRN_100uM_R6G_10uM_NaF_0.1M_Addition_RamanShift__26__15-06-36-898.txt Node

Date: Mon Feb 07 15:06:36 GMT 2022
User: TCL
Spectrometer: QEP01345
Trigger mode: 4
Integration Time (sec): 7.000000E0
Scans to average: 10
Electric dark correction enabled: true
Nonlinearity correction enabled: false
Boxcar width: 0
XAxis mode: Raman Shifts
Number of Pixels in Spectrum: 1044
>>>>>Begin Spectral Data<<<<<
46.04893	-0.825
50.45542	-0.925
54.85868	-1.725
59.25871	-0.325
63.6555	71.575
68.04907	75.875
72.43941	80.775
76.82654	82.775
81.21044	85.575
85.59113	87.775
89.96862	93.075
94.34289	95.075
98.71396	95.675
103.08183	102.875
107.4465	106.275
111.80798	108.575
116.16626	110.475
120.52136	117.875
124.87327	125.375
129.222	132.575
133.56755	143.975
137.90993	156.275
142.24913	171.675
146.58517	191.075
150.91804	228.475
155.24774	278.175
159.57429	353.175
163.89768	459.975
168.21792	615.875
172.53501	841.775
176.84895	1186.375
181.15975	1669.675
185.46741	2352.075
189.77193	3238.675
194.07331	4344.475
198.37157	5603.575
202.6667	6933.775
206.9587	8257.075
211.24758	9552.675
215.53334	10903.075
219.81599	12356.575
224.09553	14013.675
228.37195	15847.475
232.64527	17755.275
236.91549	19819.775
241.18261	21717.575
245.44663	23412.475
249.70755	24875.275
253.96539	26087.675
258.22014	27286.175
262.4718	28290.975
266.72039	29045.575
270.96589	29525.375
275.20832	29662.975
279.44768	29575.475
283.68397	29359.975
287.91719	29271.875
292.14735	29372.875
296.37445	29754.475
300.59849	30348.675
304.81948	30954.775
309.03742	31187.075
313.25231	30800.775
317.46415	29475.075
321.67296	27723.475
325.87872	26277.875
330.08145	25553.775
334.28114	25465.775
338.47781	25771.275
342.67145	26295.775
346.86207	27070.375
351.04966	28195.075
355.23424	29547.375
359.4158	30514.175
363.59435	30991.575
367.76989	31202.475
371.94243	31218.575
376.11196	31151.275
380.27849	31168.975
384.44203	31021.075
388.60257	30860.175
392.76012	30851.175
396.91468	31121.675
401.06626	31812.475
405.21485	32320.175
409.36047	31952.475
413.50311	30744.375
417.64277	29681.675
421.77947	29200.875
425.9132	29040.275
430.04396	29113.475
434.17176	29303.975
438.2966	29738.175
442.41849	30386.975
446.53742	31284.275
450.6534	32329.675
454.76644	33020.275
458.87653	33252.775
462.98368	33088.275
467.08789	32710.175
471.18916	32343.175
475.2875	32019.175
479.38291	31822.775
483.4754	31491.575
487.56496	30916.575
491.6516	30283.375
495.73531	29711.175
499.81612	29488.975
503.89401	29560.475
507.96899	29697.875
512.04106	29865.275
516.11023	29966.475
520.1765	29951.775
524.23987	29746.975
528.30034	29274.075
532.35792	28878.775
536.41261	28496.375
540.46441	28071.975
544.51333	27993.775
548.55936	28331.875
552.60252	29113.375
556.64279	29936.275
560.6802	30496.675
564.71473	30972.075
568.7464	32109.575
572.7752	32976.375
576.80114	32714.175
580.82422	31987.175
584.84444	31695.075
588.86181	31737.575
592.87633	32066.775
596.888	32457.775
600.89682	32901.775
604.9028	34990.175
608.90594	41039.175
612.90624	49188.075
616.90371	47093.075
620.89834	35359.875
624.89015	30032.975
628.87913	29209.175
632.86528	29324.475
636.84862	29422.575
640.82913	28906.475
644.80683	27780.075
648.78172	26984.075
652.75379	26851.575
656.72306	27547.375
660.68952	28483.475
664.65319	28417.675
668.61405	27481.175
672.57211	27040.775
676.52738	26996.075
680.47986	26977.275
684.42955	26854.075
688.37646	26740.975
692.32058	26828.875
696.26192	27098.675
700.20048	27386.975
704.13626	27642.775
708.06928	27647.075
711.99952	27412.475
715.927	27282.575
719.85171	27294.075
723.77365	27296.875
727.69284	27031.875
731.60928	26832.075
735.52295	26775.575
739.43388	26788.175
743.34206	26894.175
747.24749	26995.375
751.15017	27242.375
755.05012	27836.475
758.94733	28960.575
762.8418	31353.775
766.73354	35338.075
770.62254	39438.275
774.50882	41111.875
778.39237	39074.375
782.27321	34607.975
786.15132	30561.875
790.02671	28271.975
793.89938	27186.575
797.76935	26717.375
801.6366	26578.575
805.50115	26468.675
809.36299	26360.275
813.22213	26251.075
817.07857	26245.775
820.93231	26267.675
824.78336	26279.975
828.63172	26245.775
832.47738	26253.675
836.32036	26182.475
840.16066	26167.475
843.99827	26118.375
847.8332	25999.575
851.66546	25898.875
855.49504	25888.175
859.32195	25808.575
863.1462	25768.475
866.96777	25627.675
870.78668	25580.975
874.60293	25589.975
878.41652	25565.475
882.22745	25708.275
886.03573	25839.475
889.84136	25752.575
893.64433	25625.375
897.44466	25566.075
901.24235	25472.375
905.0374	25414.475
908.8298	25360.875
912.61957	25418.675
916.40671	25642.975
920.19121	25958.875
923.97308	26171.675
927.75233	26301.075
931.52895	26352.575
935.30295	26103.575
939.07433	25503.375
942.84309	24955.975
946.60924	24642.575
950.37278	24430.775
954.13371	24317.275
957.89203	24239.375
961.64774	24206.775
965.40086	24193.875
969.15137	24042.475
972.89929	23905.575
976.64461	23829.075
980.38733	23839.175
984.12747	23896.075
987.86502	24068.675
991.59999	24331.875
995.33237	24685.275
999.06217	25371.775
1002.78939	26131.875
1006.51404	26654.875
1010.23611	27103.475
1013.95561	27321.975
1017.67255	27303.975
1021.38692	26978.875
1025.09872	26662.375
1028.80796	26613.375
1032.51465	26988.675
1036.21877	27530.375
1039.92035	27646.275
1043.61937	27406.475
1047.31584	26991.975
1051.00976	26588.975
1054.70114	26414.875
1058.38998	26452.875
1062.07627	26645.975
1065.76003	26873.875
1069.44126	26995.275
1073.11995	27162.775
1076.79611	27371.975
1080.46974	27680.275
1084.14085	28090.675
1087.80943	28639.275
1091.47549	28992.175
1095.13903	28766.275
1098.80005	28197.975
1102.45857	27557.775
1106.11456	27169.575
1109.76805	27155.575
1113.41903	27564.075
1117.06751	28148.475
1120.71348	28979.375
1124.35696	29788.275
1127.99793	30475.875
1131.63641	30471.575
1135.2724	29606.775
1138.90589	28696.975
1142.5369	28210.075
1146.16542	27947.475
1149.79145	27944.975
1153.415	28126.775
1157.03607	28560.875
1160.65467	29207.475
1164.27079	30370.575
1167.88443	32038.675
1171.49561	34465.075
1175.10432	38025.975
1178.71056	42615.175
1182.31434	46238.475
1185.91565	47689.175
1189.51451	47221.075
1193.11091	45269.075
1196.70485	42757.775
1200.29634	40483.175
1203.88538	38761.475
1207.47197	37004.475
1211.05612	35603.875
1214.63782	34537.875
1218.21708	33985.275
1221.79391	33721.275
1225.36829	33605.075
1228.94024	33266.575
1232.50976	32830.075
1236.07685	32546.175
1239.6415	32489.175
1243.20374	32587.275
1246.76355	32829.775
1250.32093	33317.875
1253.8759	34114.475
1257.42845	35196.975
1260.97859	36171.575
1264.52631	37046.775
1268.07163	37963.575
1271.61453	38966.675
1275.15503	39883.175
1278.69312	40676.275
1282.22882	41370.275
1285.76211	42313.675
1289.29301	43595.075
1292.82151	45346.175
1296.34761	47447.675
1299.87133	50234.475
1303.39266	53914.075
1306.9116	58766.575
1310.42815	63993.775
1313.94233	67292.775
1317.45412	67041.975
1320.96354	64737.775
1324.47058	61906.575
1327.97525	59415.475
1331.47754	57766.875
1334.97747	57102.975
1338.47502	57392.175
1341.97022	57927.475
1345.46305	58265.075
1348.95352	58345.975
1352.44163	58788.175
1355.92738	60921.875
1359.41078	65692.075
1362.89183	70936.875
1366.37053	69322.875
1369.84688	60724.775
1373.32088	52167.775
1376.79254	46777.775
1380.26186	44513.875
1383.72883	43915.175
1387.19347	43770.475
1390.65578	43532.175
1394.11575	43494.575
1397.57339	44104.875
1401.0287	45182.175
1404.48168	46180.975
1407.93234	46790.975
1411.38068	46657.275
1414.82669	45453.175
1418.27039	43445.575
1421.71177	41278.175
1425.15083	39412.075
1428.58758	38241.175
1432.02203	38039.475
1435.45416	38596.775
1438.88399	39279.275
1442.31151	39914.075
1445.73673	40608.875
1449.15965	41492.975
1452.58027	42126.375
1455.9986	42556.375
1459.41463	43049.775
1462.82837	43694.175
1466.23982	44407.575
1469.64898	45006.675
1473.05586	45191.875
1476.46045	45011.575
1479.86276	44893.975
1483.26279	44794.275
1486.66054	44908.775
1490.05602	45294.875
1493.44922	46014.975
1496.84016	47171.575
1500.22882	49258.175
1503.61521	52487.875
1506.99934	56682.275
1510.38121	61020.275
1513.76081	63278.675
1517.13816	61507.175
1520.51324	56481.475
1523.88607	51305.075
1527.25665	47789.875
1530.62498	45886.875
1533.99105	44886.775
1537.35488	44276.575
1540.71647	43849.575
1544.07581	43384.975
1547.4329	42802.175
1550.78776	42223.775
1554.14038	41912.175
1557.49077	41962.975
1560.83892	42382.575
1564.18484	42916.575
1567.52853	43418.775
1570.86999	43829.575
1574.20922	44295.775
1577.54624	44468.375
1580.88103	43818.975
1584.2136	42900.375
1587.54395	43096.675
1590.87208	44669.075
1594.19801	47248.675
1597.52172	50084.975
1600.84321	51101.575
1604.16251	49155.475
1607.47959	45484.875
1610.79447	41508.475
1614.10715	37765.375
1617.41763	34815.475
1620.7259	32768.975
1624.03199	31680.175
1627.33587	31585.775
1630.63757	32408.575
1633.93707	34217.875
1637.23439	37148.675
1640.52951	41255.075
1643.82246	46252.675
1647.11321	51133.275
1650.40179	53683.275
1653.68819	51502.975
1656.97241	45056.175
1660.25446	37904.275
1663.53433	32547.875
1666.81203	29124.675
1670.08756	27084.275
1673.36092	25795.975
1676.63211	24947.775
1679.90115	24398.775
1683.16801	23994.375
1686.43272	23693.875
1689.69527	23485.575
1692.95567	23249.175
1696.2139	23148.075
1699.46999	23055.875
1702.72392	22948.075
1705.97571	22916.675
1709.22535	22861.175
1712.47284	22813.875
1715.71819	22813.675
1718.96139	22772.675
1722.20246	22700.075
1725.44139	22611.375
1728.67818	22484.375
1731.91284	22304.375
1735.14537	22183.075
1738.37576	22109.375
1741.60403	22004.875
1744.83017	21962.575
1748.05418	21922.975
1751.27607	21832.475
1754.49584	21819.575
1757.71349	21792.775
1760.92903	21780.775
1764.14244	21715.375
1767.35375	21710.975
1770.56294	21683.175
1773.77002	21612.375
1776.97499	21555.275
1780.17785	21524.775
1783.37861	21501.575
1786.57727	21460.275
1789.77382	21417.175
1792.96828	21428.875
1796.16064	21365.575
1799.3509	21332.475
1802.53907	21293.875
1805.72514	21179.075
1808.90913	21147.475
1812.09102	21091.175
1815.27083	21026.675
1818.44856	21018.275
1821.6242	20984.875
1824.79776	20930.675
1827.96924	20910.575
1831.13864	20914.575
1834.30597	20883.375
1837.47122	20864.175
1840.6344	20856.375
1843.7955	20845.475
1846.95454	20829.175
1850.11151	20832.475
1853.26642	20817.875
1856.41926	20842.775
1859.57004	20859.675
1862.71876	20875.675
1865.86542	20813.475
1869.01003	20838.475
1872.15258	20832.075
1875.29308	20826.575
1878.43152	20786.375
1881.56792	20809.175
1884.70227	20797.775
1887.83457	20800.375
1890.96482	20759.275
1894.09304	20771.175
1897.21921	20760.275
1900.34335	20786.875
1903.46544	20728.775
1906.58551	20776.275
1909.70353	20771.075
1912.81953	20730.675
1915.93349	20709.675
1919.04543	20685.175
1922.15534	20663.075
1925.26322	20592.475
1928.36908	20485.975
1931.47292	20443.375
1934.57473	20401.775
1937.67453	20346.275
1940.77232	20316.375
1943.86808	20210.975
1946.96184	20129.575
1950.05358	20020.575
1953.14331	20015.175
1956.23103	19932.075
1959.31675	19862.075
1962.40046	19811.575
1965.48217	19750.275
1968.56188	19705.475
1971.63959	19650.475
1974.7153	19584.175
1977.78901	19564.775
1980.86073	19466.675
1983.93046	19354.475
1986.99819	19293.075
1990.06394	19272.475
1993.1277	19209.975
1996.18947	19143.275
1999.24925	19076.475
2002.30706	19012.475
2005.36288	18944.275
2008.41672	18945.975
2011.46859	18871.775
2014.51848	18802.475
2017.56639	18798.175
2020.61233	18730.375
2023.6563	18702.575
2026.6983	18609.175
2029.73833	18587.575
2032.7764	18523.875
2035.8125	18512.075
2038.84664	18459.675
2041.87881	18448.675
2044.90903	18424.775
2047.93729	18376.575
2050.96359	18359.275
2053.98794	18341.875
2057.01034	18360.375
2060.03078	18300.875
2063.04927	18272.575
2066.06582	18297.775
2069.08042	18262.875
2072.09307	18245.875
2075.10378	18188.275
2078.11255	18177.075
2081.11938	18198.175
2084.12426	18139.375
2087.12722	18155.675
2090.12824	18137.675
2093.12732	18126.975
2096.12447	18146.775
2099.11969	18126.675
2102.11299	18138.075
2105.10435	18137.775
2108.09379	18134.675
2111.08131	18125.575
2114.0669	18177.875
2117.05057	18182.175
2120.03233	18192.175
2123.01216	18171.075
2125.99008	18209.175
2128.96609	18209.075
2131.94018	18229.275
2134.91236	18259.475
2137.88263	18270.475
2140.851	18267.375
2143.81746	18297.975
2146.78201	18272.975
2149.74466	18243.875
2152.7054	18258.775
2155.66425	18251.475
2158.6212	18203.375
2161.57625	18201.175
2164.52941	18203.775
2167.48067	18171.075
2170.43004	18164.575
2173.37752	18146.775
2176.32311	18155.675
2179.26681	18171.975
2182.20863	18164.075
2185.14856	18173.375
2188.08661	18159.375
2191.02278	18187.975
2193.95707	18172.875
2196.88948	18156.175
2199.82001	18159.875
2202.74867	18092.775
2205.67545	18126.475
2208.60037	18111.375
2211.52341	18067.675
2214.44458	18085.975
2217.36388	18050.075
2220.28132	17988.175
2223.1969	17967.975
2226.11061	17963.975
2229.02246	17903.775
2231.93245	17862.375
2234.84058	17791.775
2237.74686	17759.375
2240.65128	17732.775
2243.55385	17684.475
2246.45456	17689.875
2249.35343	17659.875
2252.25044	17651.375
2255.14561	17646.175
2258.03893	17647.775
2260.93041	17619.475
2263.82004	17583.875
2266.70783	17534.075
2269.59378	17437.775
2272.4779	17427.075
2275.36017	17362.475
2278.24061	17333.075
2281.11922	17284.175
2283.996	17277.975
2286.87094	17268.075
2289.74405	17200.175
2292.61534	17203.675
2295.4848	17196.475
2298.35243	17181.775
2301.21824	17178.175
2304.08223	17170.875
2306.94439	17179.575
2309.80474	17192.375
2312.66327	17228.375
2315.51999	17181.975
2318.37489	17171.975
2321.22797	17134.175
2324.07925	17152.175
2326.92871	17121.975
2329.77637	17085.475
2332.62222	17065.775
2335.46626	17049.275
2338.3085	17082.975
2341.14893	17081.775
2343.98756	17097.375
2346.8244	17128.575
2349.65943	17088.975
2352.49267	17082.475
2355.32411	17124.975
2358.15376	17101.675
2360.98161	17080.575
2363.80768	17097.075
2366.63195	17093.375
2369.45444	17106.875
2372.27514	17040.275
2375.09405	16989.575
2377.91118	16965.075
2380.72652	16914.275
2383.54009	16819.075
2386.35187	16854.375
2389.16188	16779.275
2391.97011	16720.275
2394.77657	16711.275
2397.58125	16657.175
2400.38416	16622.175
2403.18529	16591.475
2405.98466	16565.275
2408.78226	16524.875
2411.57809	16511.675
2414.37216	16472.875
2417.16446	16507.675
2419.955	16473.175
2422.74378	16460.175
2425.5308	16375.175
2428.31606	16385.375
2431.09956	16428.375
2433.88131	16409.375
2436.6613	16397.775
2439.43954	16423.775
2442.21603	16418.575
2444.99077	16386.875
2447.76377	16361.075
2450.53501	16337.575
2453.30451	16365.375
2456.07226	16355.775
2458.83827	16347.575
2461.60254	16329.575
2464.36507	16312.475
2467.12586	16276.575
2469.88492	16314.975
2472.64224	16327.775
2475.39782	16334.075
2478.15167	16372.875
2480.90379	16339.075
2483.65417	16359.075
2486.40283	16428.275
2489.14976	16441.775
2491.89497	16412.775
2494.63845	16450.075
2497.3802	16470.875
2500.12024	16447.575
2502.85855	16438.575
2505.59514	16379.875
2508.33002	16359.675
2511.06318	16347.575
2513.79462	16273.575
2516.52435	16265.375
2519.25237	16279.575
2521.97867	16206.075
2524.70327	16219.075
2527.42616	16192.775
2530.14734	16176.675
2532.86681	16160.975
2535.58458	16131.275
2538.30065	16139.975
2541.01501	16148.275
2543.72768	16137.875
2546.43864	16109.675
2549.14791	16078.975
2551.85548	16090.375
2554.56136	16081.775
2557.26554	16052.875
2559.96803	16031.775
2562.66883	16004.275
2565.36794	15988.575
2568.06536	15946.375
2570.7611	15940.275
2573.45514	15934.775
2576.14751	15916.075
2578.83819	15878.375
2581.52719	15886.175
2584.21451	15911.575
2586.90015	15911.275
2589.58411	15890.675
2592.2664	15886.475
2594.94701	15880.575
2597.62594	15860.275
2600.30321	15839.175
2602.9788	15838.975
2605.65273	15813.675
2608.32498	15841.275
2610.99557	15830.575
2613.66449	15842.775
2616.33175	15839.675
2618.99734	15860.475
2621.66128	15833.075
2624.32355	15816.475
2626.98416	15784.975
2629.64311	15832.975
2632.30041	15825.875
2634.95605	15794.975
2637.61004	15773.775
2640.26238	15757.975
2642.91306	15720.775
2645.56209	15714.875
2648.20948	15720.475
2650.85521	15730.775
2653.4993	15694.275
2656.14175	15695.475
2658.78255	15729.375
2661.42171	15694.475
2664.05923	15772.875
2666.6951	15761.875
2669.32934	15783.575
2671.96194	15792.375
2674.59291	15786.975
2677.22224	15805.875
2679.84993	15807.075
2682.476	15761.875
2685.10043	15756.175
2687.72324	15730.975
2690.34441	15727.975
2692.96396	15710.475
2695.58188	15732.375
2698.19818	15687.475
2700.81285	15734.375
2703.4259	15770.275
2706.03733	15851.475
2708.64714	15774.375
2711.25533	15801.475
2713.86191	15771.575
2716.46687	15794.375
2719.07021	15810.375
2721.67194	15820.275
2724.27206	15821.375
2726.87057	15834.475
2729.46747	15820.375
2732.06276	15828.675
2734.65644	15814.275
2737.24852	15783.175
2739.83899	15773.575
2742.42786	15780.675
2745.01513	15776.875
2747.60079	15763.575
2750.18486	15741.775
2752.76733	15730.775
2755.3482	15702.975
2757.92747	15717.475
2760.50515	15693.075
2763.08123	15700.375
2765.65573	15721.175
2768.22863	15692.775
2770.79994	15665.875
2773.36967	15686.075
2775.9378	15674.275
2778.50435	15687.775
2781.06932	15668.175
2783.6327	15689.775
2786.1945	15706.775
2788.75471	15687.975
2791.31335	15646.175
2793.87041	15630.975
2796.42589	15592.975
2798.97979	15582.775
2801.53212	15556.275
2804.08288	15547.675
2806.63206	15481.175
2809.17967	15457.975
2811.72571	15445.375
2814.27018	15432.675
2816.81308	15400.675
2819.35442	15357.675
2821.89419	15386.675
2824.43239	15404.875
2826.96904	15371.675
2829.50412	15367.375
2832.03763	15325.175
2834.56959	15326.375
2837.1	15321.975
2839.62884	15317.375
2842.15613	15347.775
2844.68186	15402.975
2847.20604	15410.575
2849.72867	15428.075
2852.24974	15430.575
2854.76927	15433.375
2857.28724	15422.175
2859.80367	15397.275
2862.31855	15348.275
2864.83189	15347.475
2867.34368	15328.775
2869.85393	15347.275
2872.36264	15320.475
2874.8698	15310.575
2877.37543	15285.275
2879.87952	15273.875
2882.38207	15274.075
2884.88308	15280.875
2887.38256	15286.475
2889.88051	15268.775
2892.37692	15291.475
2894.8718	15271.075
2897.36515	15292.875
2899.85698	15283.575
2902.34727	15306.875
2904.83604	15361.075
2907.32328	15363.375
2909.809	15361.375
2912.29319	15362.975
2914.77587	15365.375
2917.25702	15374.475
2919.73665	15370.375
2922.21476	15348.875
2924.69136	15339.875
2927.16644	15316.475
2929.64	15278.775
2932.11205	15236.875
2934.58258	15197.875
2937.05161	15223.575
2939.51912	15205.675
2941.98513	15185.975
2944.44962	15147.275
2946.91261	15083.875
2949.37409	15069.875
2951.83407	15050.775
2954.29254	15021.975
2956.74951	14993.475
2959.20498	15024.575
2961.65895	14969.775
2964.11142	14946.375
2966.56239	14925.375
2969.01186	14914.475
2971.45984	14895.275
2973.90632	14872.475
2976.35131	14821.475
2978.7948	14802.175
2981.23681	14761.075
2983.67732	14758.575
2986.11635	14709.675
2988.55388	14671.275
2990.98993	14632.375
2993.4245	14613.375
2995.85758	14543.875
2998.28917	14505.975
3000.71928	14505.375
3003.14791	14471.575
3005.57506	14433.875
3008.00073	14405.675
3010.42493	14292.175
3012.84764	14376.675
3015.26888	14365.275
3017.68865	14297.175
3020.10694	14279.975
3022.52376	14276.975
3024.9391	14242.875
3027.35298	14220.875
3029.76539	14221.675
3032.17632	14193.775
3034.5858	14175.075
3036.9938	14162.875
3039.40034	14139.975
3041.80542	14152.075
3044.20903	14110.575
3046.61118	14117.375
3049.01187	14066.675
3051.4111	14059.275
3053.80888	14014.875
3056.20519	13983.975
3058.60005	13954.675
3060.99345	13923.675
3063.3854	13851.875
3065.7759	13821.175
3068.16494	13796.275
3070.55254	13700.075
3072.93868	13686.675
3075.32338	13625.675
3077.70662	13601.075
3080.08842	13567.375
3082.46878	13546.075
3084.84769	13547.075
3087.22515	13518.775
3089.60118	13503.175
3091.97576	13490.375
3094.3489	13470.775
3096.72061	13491.275
3099.09087	13478.775
3101.4597	13470.475
3103.82709	13465.575
3106.19305	13434.475
3108.55757	13403.175
3110.92066	13380.775
3113.28232	13377.175
3115.64255	13302.075
3118.00134	13293.675
3120.35871	13263.875
3122.71466	13236.075
3125.06917	13207.475
3127.42226	13175.775
