Data from AgNPs_FTO_APTES_UA_5uM_CRN_5uM_R6G_10uM_NaF_0.1M_Addition_RamanShift__9__11-55-16-678.txt Node

Date: Mon Feb 07 11:55:16 GMT 2022
User: TCL
Spectrometer: QEP01345
Trigger mode: 4
Integration Time (sec): 7.000000E0
Scans to average: 10
Electric dark correction enabled: true
Nonlinearity correction enabled: false
Boxcar width: 0
XAxis mode: Raman Shifts
Number of Pixels in Spectrum: 1044
>>>>>Begin Spectral Data<<<<<
46.04893	-0.325
50.45542	-1.025
54.85868	-1.325
59.25871	0.575
63.6555	103.375
68.04907	107.075
72.43941	116.575
76.82654	117.375
81.21044	121.775
85.59113	128.775
89.96862	131.675
94.34289	132.275
98.71396	137.475
103.08183	145.575
107.4465	148.275
111.80798	151.675
116.16626	153.875
120.52136	169.175
124.87327	172.575
129.222	181.575
133.56755	196.775
137.90993	211.275
142.24913	234.975
146.58517	276.475
150.91804	317.775
155.24774	383.375
159.57429	488.175
163.89768	630.575
168.21792	845.175
172.53501	1158.975
176.84895	1604.275
181.15975	2275.175
185.46741	3188.075
189.77193	4387.975
194.07331	5866.175
198.37157	7549.975
202.6667	9312.975
206.9587	11089.475
211.24758	12803.375
215.53334	14505.275
219.81599	16297.975
224.09553	18292.275
228.37195	20553.875
232.64527	22993.675
236.91549	25465.475
241.18261	27961.475
245.44663	30299.375
249.70755	32469.875
253.96539	34276.975
258.22014	35872.475
262.4718	37098.575
266.72039	37953.575
270.96589	38452.175
275.20832	38542.975
279.44768	38395.075
283.68397	38185.875
287.91719	38018.175
292.14735	37921.975
296.37445	37903.675
300.59849	38067.575
304.81948	38174.275
309.03742	38220.775
313.25231	37909.175
317.46415	37267.675
321.67296	36331.575
325.87872	35502.175
330.08145	35067.075
334.28114	34975.375
338.47781	35089.475
342.67145	35477.375
346.86207	35967.675
351.04966	36483.775
355.23424	37099.375
359.4158	37605.075
363.59435	37992.375
367.76989	38201.775
371.94243	38335.775
376.11196	38417.775
380.27849	38375.775
384.44203	38413.275
388.60257	38730.775
392.76012	39252.675
396.91468	39906.675
401.06626	40711.575
405.21485	41078.275
409.36047	40919.075
413.50311	40489.375
417.64277	40409.875
421.77947	40759.475
425.9132	41079.175
430.04396	41293.375
434.17176	41351.975
438.2966	41389.275
442.41849	41780.275
446.53742	42841.175
450.6534	43937.575
454.76644	44799.375
458.87653	45188.375
462.98368	45023.275
467.08789	44540.175
471.18916	43866.775
475.2875	43268.175
479.38291	43041.575
483.4754	42941.875
487.56496	42597.375
491.6516	41834.375
495.73531	40973.575
499.81612	40455.375
503.89401	40518.875
507.96899	40765.075
512.04106	40857.575
516.11023	40550.875
520.1765	39802.975
524.23987	39049.275
528.30034	38338.375
532.35792	37867.175
536.41261	37392.275
540.46441	37045.375
544.51333	37055.775
548.55936	37582.775
552.60252	38524.875
556.64279	39596.475
560.6802	40549.175
564.71473	41363.775
568.7464	42591.675
572.7752	44653.175
576.80114	47126.975
580.82422	49554.775
584.84444	51893.275
588.86181	54722.575
592.87633	57007.175
596.888	56012.375
600.89682	52121.875
604.9028	49770.075
608.90594	50752.075
612.90624	52160.875
616.90371	48262.675
620.89834	41364.175
624.89015	38515.175
628.87913	38459.975
632.86528	38953.775
636.84862	38853.575
640.82913	37917.175
644.80683	36809.375
648.78172	36119.275
652.75379	36070.475
656.72306	36481.975
660.68952	36861.675
664.65319	36629.475
668.61405	36011.975
672.57211	35908.475
676.52738	36096.275
680.47986	36057.875
684.42955	35692.875
688.37646	35491.675
692.32058	35777.775
696.26192	36434.475
700.20048	37013.275
704.13626	37422.975
708.06928	37719.075
711.99952	37678.275
715.927	37644.475
719.85171	37650.675
723.77365	37307.575
727.69284	36506.975
731.60928	35767.775
735.52295	35397.475
739.43388	35354.175
743.34206	35463.275
747.24749	35787.875
751.15017	36383.975
755.05012	37244.675
758.94733	38547.075
762.8418	40527.975
766.73354	43382.275
770.62254	45617.075
774.50882	45361.375
778.39237	42871.275
782.27321	39949.675
786.15132	37741.675
790.02671	36355.375
793.89938	35580.075
797.76935	35212.675
801.6366	35048.475
805.50115	35019.275
809.36299	34874.775
813.22213	34610.975
817.07857	34445.175
820.93231	34319.975
824.78336	34019.275
828.63172	33720.675
832.47738	33511.775
836.32036	33472.275
840.16066	33457.375
843.99827	33452.475
847.8332	33457.975
851.66546	33448.575
855.49504	33597.375
859.32195	33570.175
863.1462	33429.675
866.96777	33372.975
870.78668	33316.175
874.60293	33314.875
878.41652	33252.375
882.22745	33346.975
886.03573	33429.575
889.84136	33412.275
893.64433	33271.475
897.44466	33202.475
901.24235	33180.175
905.0374	33059.275
908.8298	33058.075
912.61957	33161.275
916.40671	33667.175
920.19121	34429.575
923.97308	35060.375
927.75233	34920.075
931.52895	34249.275
935.30295	33361.975
939.07433	32571.775
942.84309	32005.575
946.60924	31645.875
950.37278	31578.575
954.13371	31615.575
957.89203	31658.875
961.64774	31722.775
965.40086	31731.875
969.15137	31717.775
972.89929	31447.575
976.64461	31241.575
980.38733	31124.075
984.12747	31078.575
987.86502	31216.475
991.59999	31386.275
995.33237	31682.175
999.06217	32176.575
1002.78939	32891.175
1006.51404	33718.875
1010.23611	34483.275
1013.95561	35013.775
1017.67255	35014.175
1021.38692	34548.175
1025.09872	33789.075
1028.80796	33240.375
1032.51465	33149.775
1036.21877	33249.775
1039.92035	33468.175
1043.61937	33627.075
1047.31584	33665.675
1051.00976	33712.075
1054.70114	33928.775
1058.38998	34225.075
1062.07627	34727.575
1065.76003	35392.575
1069.44126	36141.175
1073.11995	36950.375
1076.79611	37544.075
1080.46974	37753.375
1084.14085	37991.975
1087.80943	38477.875
1091.47549	39060.375
1095.13903	39373.875
1098.80005	38815.675
1102.45857	37466.775
1106.11456	36321.975
1109.76805	35680.775
1113.41903	35531.475
1117.06751	35657.375
1120.71348	35966.075
1124.35696	36338.275
1127.99793	36821.475
1131.63641	37171.875
1135.2724	37346.575
1138.90589	37414.375
1142.5369	37786.175
1146.16542	38337.475
1149.79145	39058.875
1153.415	39776.175
1157.03607	40732.075
1160.65467	42442.175
1164.27079	45044.475
1167.88443	48001.775
1171.49561	50731.975
1175.10432	53732.875
1178.71056	57457.575
1182.31434	61029.875
1185.91565	62883.175
1189.51451	62702.675
1193.11091	61410.775
1196.70485	59496.575
1200.29634	57377.375
1203.88538	56224.775
1207.47197	56166.575
1211.05612	56459.775
1214.63782	55708.875
1218.21708	53655.775
1221.79391	51015.775
1225.36829	49007.375
1228.94024	47729.575
1232.50976	46814.375
1236.07685	46060.875
1239.6415	45574.875
1243.20374	45528.175
1246.76355	45925.675
1250.32093	46780.275
1253.8759	47932.675
1257.42845	49448.975
1260.97859	51272.575
1264.52631	53139.975
1268.07163	54965.375
1271.61453	56787.275
1275.15503	58822.475
1278.69312	61067.375
1282.22882	63753.575
1285.76211	66905.475
1289.29301	70513.975
1292.82151	74673.175
1296.34761	79738.375
1299.87133	85295.975
1303.39266	90459.675
1306.9116	94375.075
1310.42815	96459.775
1313.94233	96744.775
1317.45412	95752.675
1320.96354	94594.875
1324.47058	94247.375
1327.97525	94694.375
1331.47754	95000.575
1334.97747	94562.975
1338.47502	93450.775
1341.97022	91976.475
1345.46305	90043.375
1348.95352	87908.375
1352.44163	86126.375
1355.92738	85802.675
1359.41078	87470.675
1362.89183	89259.375
1366.37053	88191.175
1369.84688	82641.175
1373.32088	74348.575
1376.79254	68141.875
1380.26186	66200.675
1383.72883	67122.075
1387.19347	68002.575
1390.65578	67785.175
1394.11575	67663.475
1397.57339	68584.975
1401.0287	70175.275
1404.48168	71397.675
1407.93234	71149.775
1411.38068	68943.375
1414.82669	65371.875
1418.27039	61482.475
1421.71177	57929.875
1425.15083	55292.075
1428.58758	54309.175
1432.02203	55179.675
1435.45416	57291.075
1438.88399	59807.775
1442.31151	61662.075
1445.73673	62720.075
1449.15965	63383.375
1452.58027	63609.875
1455.9986	63721.075
1459.41463	64060.775
1462.82837	65074.275
1466.23982	66253.475
1469.64898	67189.375
1473.05586	67534.575
1476.46045	67318.475
1479.86276	66416.375
1483.26279	65420.675
1486.66054	64946.775
1490.05602	65035.375
1493.44922	65650.075
1496.84016	66335.675
1500.22882	67234.275
1503.61521	68301.475
1506.99934	69519.975
1510.38121	70462.575
1513.76081	70697.975
1517.13816	70355.875
1520.51324	70219.875
1523.88607	70733.675
1527.25665	71622.875
1530.62498	72358.375
1533.99105	71958.475
1537.35488	70641.075
1540.71647	68285.275
1544.07581	65283.475
1547.4329	62443.275
1550.78776	60154.575
1554.14038	58618.475
1557.49077	57724.775
1560.83892	57072.975
1564.18484	56642.475
1567.52853	56603.375
1570.86999	57112.875
1574.20922	58686.475
1577.54624	60390.475
1580.88103	61719.675
1584.2136	63539.475
1587.54395	66755.975
1590.87208	71061.175
1594.19801	75771.575
1597.52172	79228.375
1600.84321	78798.875
1604.16251	73483.875
1607.47959	66134.075
1610.79447	59206.975
1614.10715	53126.975
1617.41763	48386.275
1620.7259	45163.675
1624.03199	43661.075
1627.33587	43781.175
1630.63757	45674.675
1633.93707	49823.775
1637.23439	56937.275
1640.52951	67073.975
1643.82246	78945.675
1647.11321	87923.675
1650.40179	88675.775
1653.68819	80185.575
1656.97241	67240.175
1660.25446	54980.275
1663.53433	46000.175
1666.81203	40089.575
1670.08756	36425.175
1673.36092	34218.575
1676.63211	32744.975
1679.90115	31786.875
1683.16801	31039.775
1686.43272	30465.375
1689.69527	30082.575
1692.95567	29706.075
1696.2139	29466.175
1699.46999	29221.275
1702.72392	29051.275
1705.97571	28982.975
1709.22535	28840.175
1712.47284	28724.775
1715.71819	28641.875
1718.96139	28545.275
1722.20246	28368.475
1725.44139	28242.475
1728.67818	28025.675
1731.91284	27761.675
1735.14537	27540.075
1738.37576	27376.075
1741.60403	27248.875
1744.83017	27123.075
1748.05418	26993.375
1751.27607	26926.575
1754.49584	26829.275
1757.71349	26795.575
1760.92903	26753.175
1764.14244	26679.775
1767.35375	26622.475
1770.56294	26538.275
1773.77002	26478.675
1776.97499	26381.875
1780.17785	26325.075
1783.37861	26259.575
1786.57727	26192.775
1789.77382	26140.375
1792.96828	26082.375
1796.16064	26018.775
1799.3509	25945.175
1802.53907	25856.075
1805.72514	25806.475
1808.90913	25670.875
1812.09102	25603.075
1815.27083	25585.575
1818.44856	25544.575
1821.6242	25502.075
1824.79776	25475.575
1827.96924	25453.075
1831.13864	25419.875
1834.30597	25439.275
1837.47122	25417.275
1840.6344	25442.375
1843.7955	25414.175
1846.95454	25452.175
1850.11151	25405.575
1853.26642	25394.075
1856.41926	25361.175
1859.57004	25322.375
1862.71876	25282.375
1865.86542	25237.875
1869.01003	25150.775
1872.15258	25064.475
1875.29308	25028.875
1878.43152	24972.975
1881.56792	24963.175
1884.70227	24898.775
1887.83457	24854.875
1890.96482	24844.075
1894.09304	24793.875
1897.21921	24780.675
1900.34335	24698.075
1903.46544	24647.675
1906.58551	24652.375
1909.70353	24555.775
1912.81953	24447.375
1915.93349	24409.475
1919.04543	24329.875
1922.15534	24290.675
1925.26322	24182.475
1928.36908	24152.775
1931.47292	24099.375
1934.57473	23976.675
1937.67453	23861.575
1940.77232	23824.975
1943.86808	23714.275
1946.96184	23648.375
1950.05358	23620.175
1953.14331	23541.575
1956.23103	23482.375
1959.31675	23396.275
1962.40046	23341.475
1965.48217	23198.275
1968.56188	23167.075
1971.63959	23056.375
1974.7153	22951.875
1977.78901	22870.075
1980.86073	22771.575
1983.93046	22698.375
1986.99819	22663.575
1990.06394	22571.175
1993.1277	22524.875
1996.18947	22467.475
1999.24925	22365.075
2002.30706	22276.075
2005.36288	22192.975
2008.41672	22128.775
2011.46859	22043.175
2014.51848	21982.875
2017.56639	21920.175
2020.61233	21883.475
2023.6563	21768.775
2026.6983	21759.575
2029.73833	21712.675
2032.7764	21633.075
2035.8125	21604.675
2038.84664	21520.275
2041.87881	21513.975
2044.90903	21452.875
2047.93729	21382.475
2050.96359	21357.375
2053.98794	21342.175
2057.01034	21347.275
2060.03078	21319.375
2063.04927	21306.375
2066.06582	21288.575
2069.08042	21292.275
2072.09307	21239.475
2075.10378	21184.675
2078.11255	21189.875
2081.11938	21143.075
2084.12426	21182.075
2087.12722	21150.675
2090.12824	21119.675
2093.12732	21098.175
2096.12447	21095.275
2099.11969	21112.475
2102.11299	21115.875
2105.10435	21077.475
2108.09379	21065.775
2111.08131	21112.775
2114.0669	21068.075
2117.05057	21103.075
2120.03233	21104.175
2123.01216	21094.875
2125.99008	21072.375
2128.96609	21090.475
2131.94018	21042.275
2134.91236	21103.975
2137.88263	21078.775
2140.851	21049.375
2143.81746	21076.975
2146.78201	21012.175
2149.74466	20980.775
2152.7054	21001.175
2155.66425	20965.675
2158.6212	20971.275
2161.57625	20931.275
2164.52941	20961.075
2167.48067	20903.375
2170.43004	20906.875
2173.37752	20916.675
2176.32311	20870.275
2179.26681	20860.075
2182.20863	20853.175
2185.14856	20909.675
2188.08661	20894.475
2191.02278	20909.375
2193.95707	20887.575
2196.88948	20832.575
2199.82001	20766.675
2202.74867	20698.675
2205.67545	20658.975
2208.60037	20642.475
2211.52341	20627.975
2214.44458	20582.475
2217.36388	20533.275
2220.28132	20472.775
2223.1969	20410.975
2226.11061	20427.575
2229.02246	20354.875
2231.93245	20383.975
2234.84058	20360.375
2237.74686	20307.475
2240.65128	20285.275
2243.55385	20263.675
2246.45456	20206.775
2249.35343	20117.075
2252.25044	20074.275
2255.14561	20037.875
2258.03893	20001.075
2260.93041	19885.875
2263.82004	19821.575
2266.70783	19781.575
2269.59378	19692.775
2272.4779	19637.675
2275.36017	19582.475
2278.24061	19550.375
2281.11922	19478.875
2283.996	19454.775
2286.87094	19483.275
2289.74405	19420.675
2292.61534	19362.575
2295.4848	19351.175
2298.35243	19336.875
2301.21824	19351.575
2304.08223	19325.275
2306.94439	19319.675
2309.80474	19304.675
2312.66327	19306.775
2315.51999	19297.275
2318.37489	19234.175
2321.22797	19195.775
2324.07925	19177.475
2326.92871	19148.575
2329.77637	19130.275
2332.62222	19095.575
2335.46626	19067.175
2338.3085	19044.575
2341.14893	19042.375
2343.98756	19076.875
2346.8244	19089.175
2349.65943	19041.175
2352.49267	19023.575
2355.32411	19067.175
2358.15376	19051.975
2360.98161	19025.875
2363.80768	19006.375
2366.63195	19024.775
2369.45444	18991.075
2372.27514	18952.275
2375.09405	18946.175
2377.91118	18884.975
2380.72652	18862.375
2383.54009	18765.675
2386.35187	18772.475
2389.16188	18730.375
2391.97011	18672.775
2394.77657	18640.075
2397.58125	18605.575
2400.38416	18602.075
2403.18529	18579.575
2405.98466	18537.375
2408.78226	18492.075
2411.57809	18483.675
2414.37216	18465.175
2417.16446	18454.475
2419.955	18429.475
2422.74378	18401.575
2425.5308	18339.375
2428.31606	18383.875
2431.09956	18364.175
2433.88131	18335.375
2436.6613	18345.375
2439.43954	18325.375
2442.21603	18325.475
2444.99077	18284.575
2447.76377	18300.675
2450.53501	18281.775
2453.30451	18283.475
2456.07226	18232.575
2458.83827	18249.175
2461.60254	18267.875
2464.36507	18261.175
2467.12586	18202.875
2469.88492	18198.175
2472.64224	18223.775
2475.39782	18269.075
2478.15167	18249.975
2480.90379	18240.475
2483.65417	18238.875
2486.40283	18232.175
2489.14976	18273.275
2491.89497	18244.675
2494.63845	18256.675
2497.3802	18248.175
2500.12024	18245.275
2502.85855	18213.375
2505.59514	18212.775
2508.33002	18186.475
2511.06318	18203.275
2513.79462	18171.575
2516.52435	18180.875
2519.25237	18170.575
2521.97867	18158.575
2524.70327	18156.675
2527.42616	18137.975
2530.14734	18132.175
2532.86681	18117.275
2535.58458	18163.275
2538.30065	18113.575
2541.01501	18118.275
2543.72768	18075.475
2546.43864	18075.375
2549.14791	18035.975
2551.85548	18005.175
2554.56136	17963.175
2557.26554	17957.575
2559.96803	17957.275
2562.66883	17951.875
2565.36794	17893.775
2568.06536	17908.775
2570.7611	17881.875
2573.45514	17898.275
2576.14751	17890.675
2578.83819	17826.075
2581.52719	17866.275
2584.21451	17826.575
2586.90015	17854.375
2589.58411	17827.675
2592.2664	17845.875
2594.94701	17835.675
2597.62594	17805.075
2600.30321	17786.875
2602.9788	17764.775
2605.65273	17776.675
2608.32498	17823.275
2610.99557	17829.275
2613.66449	17823.675
2616.33175	17790.275
2618.99734	17794.075
2621.66128	17770.175
2624.32355	17776.175
2626.98416	17759.175
2629.64311	17725.975
2632.30041	17719.875
2634.95605	17704.875
2637.61004	17683.975
2640.26238	17669.675
2642.91306	17704.775
2645.56209	17687.275
2648.20948	17689.775
2650.85521	17742.175
2653.4993	17770.075
2656.14175	17781.375
2658.78255	17755.675
2661.42171	17781.475
2664.05923	17811.475
2666.6951	17770.775
2669.32934	17842.275
2671.96194	17805.475
2674.59291	17813.975
2677.22224	17856.175
2679.84993	17867.975
2682.476	17823.075
2685.10043	17785.775
2687.72324	17769.275
2690.34441	17752.375
2692.96396	17740.475
2695.58188	17793.275
2698.19818	17761.975
2700.81285	17790.475
2703.4259	17757.375
2706.03733	17794.675
2708.64714	17757.575
2711.25533	17786.475
2713.86191	17769.475
2716.46687	17811.875
2719.07021	17828.475
2721.67194	17877.875
2724.27206	17850.575
2726.87057	17913.175
2729.46747	17920.675
2732.06276	17941.675
2734.65644	17925.475
2737.24852	17895.375
2739.83899	17917.975
2742.42786	17946.975
2745.01513	17893.175
2747.60079	17889.575
2750.18486	17868.075
2752.76733	17862.275
2755.3482	17842.175
2757.92747	17820.975
2760.50515	17829.975
2763.08123	17829.475
2765.65573	17857.375
2768.22863	17835.275
2770.79994	17824.175
2773.36967	17793.875
2775.9378	17794.375
2778.50435	17760.775
2781.06932	17755.475
2783.6327	17768.375
2786.1945	17760.875
2788.75471	17803.375
2791.31335	17788.375
2793.87041	17738.575
2796.42589	17706.775
2798.97979	17720.375
2801.53212	17689.875
2804.08288	17671.075
2806.63206	17571.375
2809.17967	17550.475
2811.72571	17536.075
2814.27018	17492.175
2816.81308	17457.175
2819.35442	17434.175
2821.89419	17371.375
2824.43239	17360.175
2826.96904	17368.575
2829.50412	17383.875
2832.03763	17300.575
2834.56959	17305.875
2837.1	17249.675
2839.62884	17285.275
2842.15613	17242.275
2844.68186	17297.475
2847.20604	17282.775
2849.72867	17289.975
2852.24974	17263.775
2854.76927	17310.675
2857.28724	17266.975
2859.80367	17249.775
2862.31855	17207.375
2864.83189	17160.075
2867.34368	17161.875
2869.85393	17152.475
2872.36264	17084.275
2874.8698	17079.775
2877.37543	17066.175
2879.87952	17037.275
2882.38207	17053.975
2884.88308	17022.675
2887.38256	17067.675
2889.88051	17034.975
2892.37692	17056.975
2894.8718	17074.175
2897.36515	17049.675
2899.85698	17047.175
2902.34727	17091.375
2904.83604	17148.975
2907.32328	17157.175
2909.809	17122.675
2912.29319	17134.275
2914.77587	17148.675
2917.25702	17110.475
2919.73665	17156.975
2922.21476	17154.275
2924.69136	17118.275
2927.16644	17103.475
2929.64	17060.775
2932.11205	17047.175
2934.58258	16991.675
2937.05161	17015.175
2939.51912	17015.975
2941.98513	16986.975
2944.44962	16912.775
2946.91261	16862.775
2949.37409	16865.675
2951.83407	16828.175
2954.29254	16810.875
2956.74951	16800.075
2959.20498	16769.975
2961.65895	16738.175
2964.11142	16707.875
2966.56239	16682.475
2969.01186	16644.375
2971.45984	16630.875
2973.90632	16647.275
2976.35131	16591.175
2978.7948	16549.975
2981.23681	16490.375
2983.67732	16425.675
2986.11635	16399.375
2988.55388	16348.375
2990.98993	16329.175
2993.4245	16207.875
2995.85758	16162.375
2998.28917	16116.875
3000.71928	16076.175
3003.14791	16032.975
3005.57506	16030.275
3008.00073	15951.875
3010.42493	15933.375
3012.84764	15895.975
3015.26888	15889.375
3017.68865	15797.975
3020.10694	15777.375
3022.52376	15743.075
3024.9391	15724.975
3027.35298	15739.975
3029.76539	15690.375
3032.17632	15675.175
3034.5858	15642.075
3036.9938	15645.475
3039.40034	15645.875
3041.80542	15643.875
3044.20903	15596.875
3046.61118	15588.075
3049.01187	15530.275
3051.4111	15529.675
3053.80888	15473.175
3056.20519	15451.675
3058.60005	15382.775
3060.99345	15348.875
3063.3854	15267.975
3065.7759	15189.075
3068.16494	15165.675
3070.55254	15099.975
3072.93868	15016.175
3075.32338	14985.875
3077.70662	14932.975
3080.08842	14851.075
3082.46878	14872.775
3084.84769	14817.275
3087.22515	14776.675
3089.60118	14762.775
3091.97576	14781.175
3094.3489	14735.775
3096.72061	14738.375
3099.09087	14689.375
3101.4597	14724.575
3103.82709	14692.575
3106.19305	14660.875
3108.55757	14653.875
3110.92066	14570.475
3113.28232	14546.075
3115.64255	14488.675
3118.00134	14481.675
3120.35871	14445.075
3122.71466	14392.275
3125.06917	14360.375
3127.42226	14288.775
