Data from AgNPs_FTO_APTES_UA_5uM_CRN_200uM_R6G_10uM_NaF_0.1M_Addition_RamanShift__30__16-34-51-801.txt Node

Date: Mon Feb 07 16:34:51 GMT 2022
User: TCL
Spectrometer: QEP01345
Trigger mode: 4
Integration Time (sec): 7.000000E0
Scans to average: 10
Electric dark correction enabled: true
Nonlinearity correction enabled: false
Boxcar width: 0
XAxis mode: Raman Shifts
Number of Pixels in Spectrum: 1044
>>>>>Begin Spectral Data<<<<<
46.04893	-0.675
50.45542	-0.575
54.85868	0.725
59.25871	-0.875
63.6555	47.225
68.04907	53.125
72.43941	53.625
76.82654	57.225
81.21044	57.525
85.59113	58.325
89.96862	66.625
94.34289	65.825
98.71396	67.025
103.08183	68.325
107.4465	70.525
111.80798	74.125
116.16626	72.625
120.52136	77.725
124.87327	80.925
129.222	87.025
133.56755	89.025
137.90993	94.525
142.24913	108.525
146.58517	118.125
150.91804	132.925
155.24774	165.425
159.57429	205.825
163.89768	261.925
168.21792	349.025
172.53501	477.725
176.84895	657.625
181.15975	917.325
185.46741	1295.325
189.77193	1780.925
194.07331	2394.525
198.37157	3087.925
202.6667	3820.225
206.9587	4543.025
211.24758	5264.125
215.53334	6034.225
219.81599	6876.625
224.09553	7847.525
228.37195	8960.525
232.64527	10103.725
236.91549	11264.725
241.18261	12325.925
245.44663	13216.225
249.70755	13916.425
253.96539	14474.425
258.22014	15003.725
262.4718	15410.525
266.72039	15743.025
270.96589	15934.225
275.20832	15987.125
279.44768	15940.225
283.68397	15815.425
287.91719	15799.525
292.14735	15998.725
296.37445	16438.325
300.59849	16992.125
304.81948	17634.525
309.03742	18036.225
313.25231	17937.725
317.46415	16993.125
321.67296	15558.825
325.87872	14380.825
330.08145	13790.925
334.28114	13761.825
338.47781	14022.225
342.67145	14423.125
346.86207	15082.325
351.04966	16082.325
355.23424	17106.225
359.4158	17865.225
363.59435	18132.425
367.76989	18198.025
371.94243	18052.925
376.11196	17878.625
380.27849	17695.125
384.44203	17498.725
388.60257	17219.025
392.76012	17094.025
396.91468	17282.925
401.06626	17776.125
405.21485	18152.325
409.36047	17855.225
413.50311	16837.725
417.64277	15860.525
421.77947	15279.725
425.9132	15056.625
430.04396	15076.325
434.17176	15129.125
438.2966	15342.525
442.41849	15659.725
446.53742	16139.325
450.6534	16596.025
454.76644	16922.025
458.87653	16927.925
462.98368	16752.425
467.08789	16587.425
471.18916	16278.125
475.2875	15934.525
479.38291	15635.725
483.4754	15346.725
487.56496	15066.025
491.6516	14844.625
495.73531	14757.025
499.81612	14802.025
503.89401	14996.125
507.96899	15252.525
512.04106	15420.625
516.11023	15690.725
520.1765	15821.725
524.23987	15707.825
528.30034	15395.625
532.35792	15083.825
536.41261	14761.225
540.46441	14424.225
544.51333	14291.525
548.55936	14473.325
552.60252	14940.025
556.64279	15438.525
560.6802	15707.725
564.71473	16015.225
568.7464	16783.025
572.7752	17296.125
576.80114	16709.225
580.82422	16008.625
584.84444	15636.925
588.86181	15538.125
592.87633	15542.025
596.888	15732.925
600.89682	16259.925
604.9028	18153.425
608.90594	23333.125
612.90624	30609.925
616.90371	29553.125
620.89834	20167.325
624.89015	15602.225
628.87913	14801.025
632.86528	14897.325
636.84862	15164.725
640.82913	14938.125
644.80683	14196.425
648.78172	13734.425
652.75379	13814.525
656.72306	14412.925
660.68952	15236.225
664.65319	15092.025
668.61405	14300.225
672.57211	13884.125
676.52738	13880.625
680.47986	13896.825
684.42955	13779.025
688.37646	13687.925
692.32058	13752.725
696.26192	13859.025
700.20048	14063.825
704.13626	14197.625
708.06928	14205.525
711.99952	14064.525
715.927	14003.125
719.85171	14024.925
723.77365	14016.325
727.69284	13833.025
731.60928	13648.525
735.52295	13555.425
739.43388	13580.225
743.34206	13631.725
747.24749	13720.725
751.15017	13842.525
755.05012	14204.825
758.94733	15029.625
762.8418	16916.425
766.73354	20155.725
770.62254	23490.725
774.50882	25084.825
778.39237	23977.725
782.27321	20439.125
786.15132	16987.825
790.02671	14990.225
793.89938	14108.225
797.76935	13701.225
801.6366	13538.625
805.50115	13431.625
809.36299	13366.225
813.22213	13327.025
817.07857	13294.825
820.93231	13280.125
824.78336	13331.325
828.63172	13443.525
832.47738	13477.325
836.32036	13380.525
840.16066	13278.925
843.99827	13179.125
847.8332	13141.125
851.66546	13108.425
855.49504	13119.825
859.32195	13056.825
863.1462	13006.725
866.96777	12923.425
870.78668	12911.125
874.60293	12929.425
878.41652	12984.025
882.22745	13076.725
886.03573	13148.925
889.84136	13078.525
893.64433	13013.125
897.44466	12971.125
901.24235	12975.725
905.0374	12933.725
908.8298	12910.025
912.61957	12910.525
916.40671	13038.525
920.19121	13154.225
923.97308	13238.025
927.75233	13337.525
931.52895	13476.525
935.30295	13308.425
939.07433	12875.625
942.84309	12473.325
946.60924	12253.125
950.37278	12107.925
954.13371	12022.325
957.89203	12007.525
961.64774	11972.725
965.40086	11943.925
969.15137	11914.325
972.89929	11883.725
976.64461	11857.625
980.38733	11792.625
984.12747	11830.525
987.86502	11881.325
991.59999	11947.725
995.33237	12055.625
999.06217	12257.125
1002.78939	12574.125
1006.51404	12860.325
1010.23611	13191.825
1013.95561	13346.925
1017.67255	13316.125
1021.38692	13084.825
1025.09872	12843.225
1028.80796	12668.325
1032.51465	12725.125
1036.21877	12815.125
1039.92035	12961.525
1043.61937	13091.625
1047.31584	13162.125
1051.00976	13170.925
1054.70114	13190.825
1058.38998	13218.825
1062.07627	13379.225
1065.76003	13516.625
1069.44126	13598.725
1073.11995	13718.525
1076.79611	13869.825
1080.46974	14151.525
1084.14085	14533.125
1087.80943	14963.125
1091.47549	15144.925
1095.13903	14892.925
1098.80005	14368.325
1102.45857	13840.725
1106.11456	13591.225
1109.76805	13613.425
1113.41903	13950.525
1117.06751	14488.025
1120.71348	15240.925
1124.35696	16063.625
1127.99793	16751.125
1131.63641	16554.825
1135.2724	15593.525
1138.90589	14749.025
1142.5369	14279.525
1146.16542	13990.025
1149.79145	13870.725
1153.415	13897.725
1157.03607	14085.425
1160.65467	14444.525
1164.27079	15006.225
1167.88443	15922.525
1171.49561	17351.425
1175.10432	19749.125
1178.71056	22837.725
1182.31434	24939.025
1185.91565	25268.425
1189.51451	24428.825
1193.11091	22959.625
1196.70485	21221.425
1200.29634	19932.825
1203.88538	18906.225
1207.47197	17592.025
1211.05612	16536.425
1214.63782	15913.525
1218.21708	15702.325
1221.79391	15690.425
1225.36829	15704.025
1228.94024	15742.025
1232.50976	15739.025
1236.07685	15722.125
1239.6415	15745.625
1243.20374	15815.225
1246.76355	15970.225
1250.32093	16152.025
1253.8759	16494.025
1257.42845	16972.825
1260.97859	17540.425
1264.52631	18116.325
1268.07163	18658.725
1271.61453	19119.825
1275.15503	19446.525
1278.69312	19562.525
1282.22882	19683.525
1285.76211	20134.025
1289.29301	20903.825
1292.82151	21683.825
1296.34761	22600.725
1299.87133	23896.125
1303.39266	25996.825
1306.9116	29184.025
1310.42815	32767.225
1313.94233	34765.925
1317.45412	33970.625
1320.96354	31599.825
1324.47058	29055.525
1327.97525	26966.625
1331.47754	25656.425
1334.97747	25186.625
1338.47502	25316.625
1341.97022	25905.325
1345.46305	26883.525
1348.95352	28276.625
1352.44163	30106.425
1355.92738	33090.325
1359.41078	38007.925
1362.89183	42467.825
1366.37053	40822.325
1369.84688	34254.025
1373.32088	28138.025
1376.79254	24364.525
1380.26186	22443.425
1383.72883	21444.725
1387.19347	20804.625
1390.65578	20152.025
1394.11575	19644.125
1397.57339	19443.425
1401.0287	19503.025
1404.48168	19695.225
1407.93234	19874.425
1411.38068	19868.125
1414.82669	19620.725
1418.27039	19049.425
1421.71177	18430.825
1425.15083	17859.625
1428.58758	17525.925
1432.02203	17556.425
1435.45416	17724.425
1438.88399	17863.625
1442.31151	17932.925
1445.73673	18041.325
1449.15965	18257.725
1452.58027	18348.425
1455.9986	18372.325
1459.41463	18442.925
1462.82837	18733.825
1466.23982	19092.025
1469.64898	19501.425
1473.05586	19732.225
1476.46045	19862.725
1479.86276	20135.025
1483.26279	20548.125
1486.66054	21011.225
1490.05602	21765.125
1493.44922	22793.625
1496.84016	24411.425
1500.22882	27025.325
1503.61521	30615.925
1506.99934	34643.125
1510.38121	38456.625
1513.76081	40137.925
1517.13816	37999.525
1520.51324	33196.525
1523.88607	28472.725
1527.25665	25335.625
1530.62498	23540.625
1533.99105	22503.325
1537.35488	21826.525
1540.71647	21391.225
1544.07581	21119.925
1547.4329	20937.725
1550.78776	20776.725
1554.14038	20692.725
1557.49077	20812.125
1560.83892	21239.625
1564.18484	21920.725
1567.52853	22688.525
1570.86999	23170.625
1574.20922	23472.825
1577.54624	23250.125
1580.88103	22082.425
1584.2136	20495.825
1587.54395	19695.725
1590.87208	19843.125
1594.19801	20888.725
1597.52172	22313.325
1600.84321	22942.025
1604.16251	22119.325
1607.47959	20593.125
1610.79447	18985.025
1614.10715	17370.225
1617.41763	16120.325
1620.7259	15281.125
1624.03199	14871.625
1627.33587	14850.625
1630.63757	15177.525
1633.93707	15882.625
1637.23439	17091.925
1640.52951	18981.025
1643.82246	21638.325
1647.11321	24778.225
1650.40179	27109.325
1653.68819	26507.225
1656.97241	22934.125
1660.25446	18840.925
1663.53433	15884.725
1666.81203	14099.625
1670.08756	13063.025
1673.36092	12473.125
1676.63211	12084.825
1679.90115	11799.825
1683.16801	11579.825
1686.43272	11391.025
1689.69527	11288.225
1692.95567	11193.725
1696.2139	11122.425
1699.46999	11058.925
1702.72392	11038.025
1705.97571	11015.625
1709.22535	10980.425
1712.47284	10965.225
1715.71819	10967.125
1718.96139	10985.825
1722.20246	10956.025
1725.44139	10927.425
1728.67818	10849.225
1731.91284	10747.025
1735.14537	10651.825
1738.37576	10585.225
1741.60403	10499.525
1744.83017	10472.325
1748.05418	10453.525
1751.27607	10441.425
1754.49584	10396.225
1757.71349	10377.525
1760.92903	10344.225
1764.14244	10329.725
1767.35375	10330.625
1770.56294	10256.825
1773.77002	10223.425
1776.97499	10185.325
1780.17785	10140.925
1783.37861	10136.125
1786.57727	10100.925
1789.77382	10106.825
1792.96828	10069.725
1796.16064	10087.825
1799.3509	10038.225
1802.53907	9991.425
1805.72514	9945.125
1808.90913	9948.325
1812.09102	9913.325
1815.27083	9875.325
1818.44856	9832.825
1821.6242	9828.725
1824.79776	9808.725
1827.96924	9791.325
1831.13864	9761.325
1834.30597	9753.825
1837.47122	9744.925
1840.6344	9726.725
1843.7955	9711.625
1846.95454	9719.625
1850.11151	9697.925
1853.26642	9681.925
1856.41926	9683.325
1859.57004	9700.225
1862.71876	9678.325
1865.86542	9686.425
1869.01003	9674.025
1872.15258	9669.725
1875.29308	9680.925
1878.43152	9665.425
1881.56792	9665.425
1884.70227	9641.725
1887.83457	9664.425
1890.96482	9643.225
1894.09304	9631.725
1897.21921	9622.625
1900.34335	9613.225
1903.46544	9628.825
1906.58551	9607.925
1909.70353	9602.025
1912.81953	9603.725
1915.93349	9634.325
1919.04543	9608.625
1922.15534	9578.525
1925.26322	9560.025
1928.36908	9526.325
1931.47292	9517.025
1934.57473	9478.425
1937.67453	9430.925
1940.77232	9399.925
1943.86808	9327.325
1946.96184	9306.825
1950.05358	9296.725
1953.14331	9207.225
1956.23103	9182.725
1959.31675	9147.425
1962.40046	9130.325
1965.48217	9084.625
1968.56188	9093.525
1971.63959	9061.425
1974.7153	9031.625
1977.78901	8986.325
1980.86073	8983.325
1983.93046	8935.725
1986.99819	8868.825
1990.06394	8871.225
1993.1277	8822.925
1996.18947	8811.425
1999.24925	8769.125
2002.30706	8754.225
2005.36288	8731.025
2008.41672	8709.325
2011.46859	8670.925
2014.51848	8643.225
2017.56639	8608.925
2020.61233	8584.025
2023.6563	8547.125
2026.6983	8521.025
2029.73833	8503.425
2032.7764	8483.925
2035.8125	8464.225
2038.84664	8425.725
2041.87881	8423.025
2044.90903	8420.825
2047.93729	8410.125
2050.96359	8360.825
2053.98794	8341.525
2057.01034	8346.325
2060.03078	8327.225
2063.04927	8327.925
2066.06582	8320.325
2069.08042	8302.425
2072.09307	8298.525
2075.10378	8267.225
2078.11255	8262.925
2081.11938	8283.025
2084.12426	8266.325
2087.12722	8275.625
2090.12824	8252.825
2093.12732	8267.225
2096.12447	8240.425
2099.11969	8244.225
2102.11299	8223.525
2105.10435	8241.425
2108.09379	8238.425
2111.08131	8258.325
2114.0669	8246.025
2117.05057	8244.825
2120.03233	8253.025
2123.01216	8292.125
2125.99008	8297.625
2128.96609	8268.425
2131.94018	8294.625
2134.91236	8280.925
2137.88263	8287.725
2140.851	8278.525
2143.81746	8288.225
2146.78201	8285.425
2149.74466	8279.925
2152.7054	8249.825
2155.66425	8246.125
2158.6212	8247.525
2161.57625	8215.725
2164.52941	8226.325
2167.48067	8223.625
2170.43004	8195.025
2173.37752	8216.125
2176.32311	8214.525
2179.26681	8226.725
2182.20863	8230.325
2185.14856	8218.025
2188.08661	8192.125
2191.02278	8210.325
2193.95707	8165.825
2196.88948	8150.925
2199.82001	8149.825
2202.74867	8139.625
2205.67545	8113.325
2208.60037	8120.625
2211.52341	8092.125
2214.44458	8083.025
2217.36388	8070.125
2220.28132	8072.525
2223.1969	8005.525
2226.11061	7995.325
2229.02246	7989.725
2231.93245	7978.025
2234.84058	7938.225
2237.74686	7921.025
2240.65128	7917.625
2243.55385	7902.425
2246.45456	7933.525
2249.35343	7903.725
2252.25044	7909.325
2255.14561	7890.225
2258.03893	7889.325
2260.93041	7863.825
2263.82004	7861.325
2266.70783	7834.625
2269.59378	7822.225
2272.4779	7801.125
2275.36017	7759.525
2278.24061	7754.225
2281.11922	7748.625
2283.996	7734.925
2286.87094	7713.925
2289.74405	7689.025
2292.61534	7661.025
2295.4848	7654.525
2298.35243	7650.225
2301.21824	7651.125
2304.08223	7660.525
2306.94439	7641.425
2309.80474	7630.925
2312.66327	7632.125
2315.51999	7611.125
2318.37489	7620.425
2321.22797	7594.525
2324.07925	7588.425
2326.92871	7579.525
2329.77637	7573.625
2332.62222	7559.625
2335.46626	7556.525
2338.3085	7557.625
2341.14893	7515.025
2343.98756	7533.625
2346.8244	7541.725
2349.65943	7545.225
2352.49267	7542.825
2355.32411	7551.525
2358.15376	7570.525
2360.98161	7561.025
2363.80768	7575.525
2366.63195	7588.225
2369.45444	7603.625
2372.27514	7595.325
2375.09405	7548.825
2377.91118	7535.625
2380.72652	7513.225
2383.54009	7487.625
2386.35187	7438.625
2389.16188	7413.125
2391.97011	7353.825
2394.77657	7353.025
2397.58125	7323.425
2400.38416	7316.725
2403.18529	7290.525
2405.98466	7281.825
2408.78226	7252.325
2411.57809	7261.825
2414.37216	7247.025
2417.16446	7218.025
2419.955	7231.125
2422.74378	7225.225
2425.5308	7208.425
2428.31606	7214.525
2431.09956	7211.425
2433.88131	7199.625
2436.6613	7227.925
2439.43954	7224.425
2442.21603	7205.925
2444.99077	7204.925
2447.76377	7194.625
2450.53501	7207.025
2453.30451	7199.525
2456.07226	7190.025
2458.83827	7185.425
2461.60254	7188.625
2464.36507	7188.725
2467.12586	7172.625
2469.88492	7180.825
2472.64224	7152.625
2475.39782	7177.925
2478.15167	7192.725
2480.90379	7196.025
2483.65417	7209.125
2486.40283	7210.525
2489.14976	7235.125
2491.89497	7231.625
2494.63845	7228.525
2497.3802	7229.725
2500.12024	7229.425
2502.85855	7191.225
2505.59514	7175.925
2508.33002	7158.425
2511.06318	7121.725
2513.79462	7109.325
2516.52435	7074.425
2519.25237	7054.225
2521.97867	7010.725
2524.70327	7005.525
2527.42616	7003.825
2530.14734	6994.125
2532.86681	6986.825
2535.58458	6983.625
2538.30065	6964.125
2541.01501	6978.625
2543.72768	6959.625
2546.43864	6952.425
2549.14791	6941.025
2551.85548	6941.325
2554.56136	6928.925
2557.26554	6914.225
2559.96803	6910.425
2562.66883	6881.625
2565.36794	6879.425
2568.06536	6862.925
2570.7611	6868.325
2573.45514	6850.225
2576.14751	6830.125
2578.83819	6831.725
2581.52719	6825.025
2584.21451	6800.825
2586.90015	6806.125
2589.58411	6789.425
2592.2664	6783.925
2594.94701	6766.825
2597.62594	6767.125
2600.30321	6764.425
2602.9788	6759.425
2605.65273	6750.125
2608.32498	6757.125
2610.99557	6749.325
2613.66449	6762.525
2616.33175	6746.425
2618.99734	6736.025
2621.66128	6714.725
2624.32355	6737.725
2626.98416	6713.125
2629.64311	6679.425
2632.30041	6691.525
2634.95605	6680.325
2637.61004	6645.025
2640.26238	6664.625
2642.91306	6633.425
2645.56209	6639.525
2648.20948	6643.425
2650.85521	6640.925
2653.4993	6631.125
2656.14175	6623.125
2658.78255	6649.125
2661.42171	6647.225
2664.05923	6643.825
2666.6951	6645.125
2669.32934	6667.925
2671.96194	6686.125
2674.59291	6669.725
2677.22224	6682.425
2679.84993	6664.425
2682.476	6663.425
2685.10043	6633.025
2687.72324	6644.825
2690.34441	6642.125
2692.96396	6651.725
2695.58188	6614.425
2698.19818	6622.525
2700.81285	6659.825
2703.4259	6654.925
2706.03733	6664.625
2708.64714	6668.825
2711.25533	6667.925
2713.86191	6683.625
2716.46687	6694.125
2719.07021	6700.825
2721.67194	6689.325
2724.27206	6679.525
2726.87057	6684.525
2729.46747	6694.425
2732.06276	6681.925
2734.65644	6663.325
2737.24852	6667.825
2739.83899	6645.025
2742.42786	6657.025
2745.01513	6628.525
2747.60079	6611.525
2750.18486	6607.025
2752.76733	6578.525
2755.3482	6587.225
2757.92747	6567.725
2760.50515	6540.725
2763.08123	6545.125
2765.65573	6550.725
2768.22863	6535.625
2770.79994	6530.925
2773.36967	6525.725
2775.9378	6519.325
2778.50435	6523.825
2781.06932	6525.925
2783.6327	6524.825
2786.1945	6516.725
2788.75471	6516.325
2791.31335	6527.825
2793.87041	6484.625
2796.42589	6505.825
2798.97979	6508.625
2801.53212	6491.525
2804.08288	6476.025
2806.63206	6476.225
2809.17967	6449.625
2811.72571	6477.425
2814.27018	6458.325
2816.81308	6461.925
2819.35442	6454.525
2821.89419	6464.325
2824.43239	6478.125
2826.96904	6472.925
2829.50412	6485.325
2832.03763	6460.625
2834.56959	6479.225
2837.1	6473.825
2839.62884	6522.925
2842.15613	6567.725
2844.68186	6668.525
2847.20604	6724.625
2849.72867	6811.525
2852.24974	6828.125
2854.76927	6823.425
2857.28724	6809.725
2859.80367	6786.925
2862.31855	6738.125
2864.83189	6752.425
2867.34368	6707.625
2869.85393	6700.025
2872.36264	6717.725
2874.8698	6717.225
2877.37543	6706.225
2879.87952	6700.925
2882.38207	6699.725
2884.88308	6671.525
2887.38256	6670.525
2889.88051	6681.825
2892.37692	6669.025
2894.8718	6663.825
2897.36515	6679.825
2899.85698	6669.525
2902.34727	6703.925
2904.83604	6696.025
2907.32328	6687.625
2909.809	6706.025
2912.29319	6685.825
2914.77587	6685.625
2917.25702	6659.825
2919.73665	6652.425
2922.21476	6648.425
2924.69136	6656.725
2927.16644	6637.725
2929.64	6628.725
2932.11205	6601.325
2934.58258	6568.225
2937.05161	6550.725
2939.51912	6544.825
2941.98513	6489.525
2944.44962	6454.425
2946.91261	6383.825
2949.37409	6378.025
2951.83407	6336.925
2954.29254	6304.725
2956.74951	6305.325
2959.20498	6276.125
2961.65895	6273.525
2964.11142	6244.725
2966.56239	6231.225
2969.01186	6228.525
2971.45984	6201.825
2973.90632	6161.425
2976.35131	6156.625
2978.7948	6151.325
2981.23681	6117.025
2983.67732	6119.425
2986.11635	6073.025
2988.55388	6073.725
2990.98993	6054.725
2993.4245	6027.225
2995.85758	6020.125
2998.28917	6002.125
3000.71928	6002.525
3003.14791	5990.525
3005.57506	5972.325
3008.00073	5957.425
3010.42493	5954.225
3012.84764	5942.425
3015.26888	5954.625
3017.68865	5918.825
3020.10694	5898.525
3022.52376	5903.625
3024.9391	5893.225
3027.35298	5888.425
3029.76539	5876.825
3032.17632	5868.825
3034.5858	5849.325
3036.9938	5855.925
3039.40034	5865.325
3041.80542	5817.225
3044.20903	5814.525
3046.61118	5829.625
3049.01187	5806.325
3051.4111	5796.725
3053.80888	5786.825
3056.20519	5778.525
3058.60005	5757.025
3060.99345	5744.425
3063.3854	5750.125
3065.7759	5709.525
3068.16494	5688.225
3070.55254	5683.125
3072.93868	5666.125
3075.32338	5668.625
3077.70662	5635.325
3080.08842	5621.525
3082.46878	5605.425
3084.84769	5590.025
3087.22515	5585.225
3089.60118	5593.925
3091.97576	5579.825
3094.3489	5573.025
3096.72061	5577.425
3099.09087	5570.425
3101.4597	5569.725
3103.82709	5564.125
3106.19305	5557.825
3108.55757	5546.325
3110.92066	5524.925
3113.28232	5528.225
3115.64255	5508.425
3118.00134	5483.925
3120.35871	5498.125
3122.71466	5493.325
3125.06917	5476.925
3127.42226	5447.125
3129.77393	5478.525
3132.12417	5457.725
3134.47299	5481.025
3136.82039	5454.925
3139.16636	5463.225
3141.51092	5478.625
3143.85406	5482.325
3146.19579	5489.925
3148.53609	5485.325
3150.87499	5479.125
3153.21246	5503.125
3155.54853	5496.525
3157.88318	5503.925
3160.21642	5530.125
3162.54826	5509.025
3164.87868	5510.025
3167.2077	5503.525
3169.5353	5517.425
3171.86151	5509.525
3174.18631	5514.125
3176.5097	5500.125
3178.83169	5483.925
3181.15228	5489.525
3183.47147	5493.025
3185.78926	5487.225
