Data from AgNPs_FTO_APTES_UA_5uM_CRN_50uM_R6G_10uM_NaF_0.1M_Addition_RamanShift__32__14-19-56-845.txt Node

Date: Mon Feb 07 14:19:56 GMT 2022
User: TCL
Spectrometer: QEP01345
Trigger mode: 4
Integration Time (sec): 7.000000E0
Scans to average: 10
Electric dark correction enabled: true
Nonlinearity correction enabled: false
Boxcar width: 0
XAxis mode: Raman Shifts
Number of Pixels in Spectrum: 1044
>>>>>Begin Spectral Data<<<<<
46.04893	0.1125
50.45542	-0.7875
54.85868	-1.8875
59.25871	0.4125
63.6555	41.9125
68.04907	44.8125
72.43941	51.1125
76.82654	50.0125
81.21044	50.9125
85.59113	54.0125
89.96862	58.0125
94.34289	58.8125
98.71396	59.6125
103.08183	63.5125
107.4465	66.1125
111.80798	65.0125
116.16626	67.9125
120.52136	72.7125
124.87327	75.2125
129.222	76.7125
133.56755	80.8125
137.90993	88.4125
142.24913	92.9125
146.58517	106.4125
150.91804	121.5125
155.24774	145.6125
159.57429	179.6125
163.89768	233.3125
168.21792	308.0125
172.53501	416.6125
176.84895	572.1125
181.15975	797.7125
185.46741	1116.4125
189.77193	1551.4125
194.07331	2066.6125
198.37157	2673.3125
202.6667	3293.6125
206.9587	3933.2125
211.24758	4541.5125
215.53334	5207.1125
219.81599	5960.7125
224.09553	6818.3125
228.37195	7760.7125
232.64527	8770.2125
236.91549	9772.2125
241.18261	10699.2125
245.44663	11416.9125
249.70755	11971.7125
253.96539	12397.9125
258.22014	12838.6125
262.4718	13252.1125
266.72039	13583.8125
270.96589	13788.8125
275.20832	13862.3125
279.44768	13790.6125
283.68397	13653.0125
287.91719	13567.3125
292.14735	13655.5125
296.37445	14028.6125
300.59849	14589.7125
304.81948	15259.0125
309.03742	15752.4125
313.25231	15653.4125
317.46415	14817.9125
321.67296	13478.1125
325.87872	12367.0125
330.08145	11805.4125
334.28114	11742.1125
338.47781	11907.5125
342.67145	12282.8125
346.86207	12899.0125
351.04966	13751.0125
355.23424	14743.5125
359.4158	15476.7125
363.59435	15771.8125
367.76989	15842.0125
371.94243	15717.1125
376.11196	15612.5125
380.27849	15465.6125
384.44203	15245.5125
388.60257	14929.7125
392.76012	14824.1125
396.91468	14958.6125
401.06626	15402.4125
405.21485	15766.7125
409.36047	15435.0125
413.50311	14473.4125
417.64277	13534.8125
421.77947	12962.8125
425.9132	12756.1125
430.04396	12690.6125
434.17176	12741.4125
438.2966	12898.5125
442.41849	13199.8125
446.53742	13569.0125
450.6534	14021.0125
454.76644	14270.4125
458.87653	14281.0125
462.98368	14194.7125
467.08789	13994.0125
471.18916	13698.6125
475.2875	13394.0125
479.38291	13121.8125
483.4754	12857.4125
487.56496	12657.0125
491.6516	12468.5125
495.73531	12437.1125
499.81612	12460.7125
503.89401	12614.9125
507.96899	12821.7125
512.04106	13024.1125
516.11023	13240.8125
520.1765	13393.0125
524.23987	13283.8125
528.30034	12965.7125
532.35792	12649.0125
536.41261	12303.0125
540.46441	12003.1125
544.51333	11856.4125
548.55936	11972.0125
552.60252	12355.5125
556.64279	12865.7125
560.6802	13075.7125
564.71473	13337.2125
568.7464	14032.1125
572.7752	14515.0125
576.80114	14060.7125
580.82422	13428.7125
584.84444	13121.9125
588.86181	12981.6125
592.87633	12935.2125
596.888	13071.3125
600.89682	13553.0125
604.9028	15382.3125
608.90594	20373.0125
612.90624	27350.5125
616.90371	26554.4125
620.89834	17526.2125
624.89015	13094.9125
628.87913	12269.4125
632.86528	12374.8125
636.84862	12677.5125
640.82913	12495.6125
644.80683	11870.0125
648.78172	11376.3125
652.75379	11368.3125
656.72306	11981.5125
660.68952	12782.7125
664.65319	12660.2125
668.61405	11859.1125
672.57211	11451.0125
676.52738	11409.5125
680.47986	11430.3125
684.42955	11301.2125
688.37646	11200.6125
692.32058	11271.2125
696.26192	11359.5125
700.20048	11561.3125
704.13626	11678.8125
708.06928	11686.3125
711.99952	11613.8125
715.927	11558.6125
719.85171	11579.9125
723.77365	11555.5125
727.69284	11411.1125
731.60928	11255.9125
735.52295	11220.3125
739.43388	11219.8125
743.34206	11272.7125
747.24749	11329.6125
751.15017	11445.9125
755.05012	11760.4125
758.94733	12474.1125
762.8418	14170.3125
766.73354	17158.7125
770.62254	20364.2125
774.50882	21988.8125
778.39237	20869.7125
782.27321	17589.1125
786.15132	14421.7125
790.02671	12581.5125
793.89938	11742.9125
797.76935	11357.6125
801.6366	11229.2125
805.50115	11131.9125
809.36299	11045.9125
813.22213	10996.7125
817.07857	10974.1125
820.93231	10976.7125
824.78336	10996.1125
828.63172	11059.6125
832.47738	11077.7125
836.32036	11020.4125
840.16066	10918.8125
843.99827	10844.8125
847.8332	10818.4125
851.66546	10790.4125
855.49504	10760.5125
859.32195	10749.5125
863.1462	10642.2125
866.96777	10604.0125
870.78668	10594.9125
874.60293	10599.1125
878.41652	10637.3125
882.22745	10721.3125
886.03573	10777.2125
889.84136	10758.1125
893.64433	10666.8125
897.44466	10636.6125
901.24235	10658.3125
905.0374	10621.6125
908.8298	10589.3125
912.61957	10588.2125
916.40671	10662.3125
920.19121	10801.4125
923.97308	10897.6125
927.75233	10991.3125
931.52895	11092.2125
935.30295	10982.0125
939.07433	10579.1125
942.84309	10217.0125
946.60924	9999.6125
950.37278	9874.8125
954.13371	9804.5125
957.89203	9777.0125
961.64774	9737.8125
965.40086	9740.5125
969.15137	9681.8125
972.89929	9641.5125
976.64461	9608.7125
980.38733	9629.7125
984.12747	9627.0125
987.86502	9660.5125
991.59999	9730.0125
995.33237	9843.5125
999.06217	10030.7125
1002.78939	10286.0125
1006.51404	10538.6125
1010.23611	10839.3125
1013.95561	10996.3125
1017.67255	10990.9125
1021.38692	10767.6125
1025.09872	10561.0125
1028.80796	10419.5125
1032.51465	10422.8125
1036.21877	10550.8125
1039.92035	10676.9125
1043.61937	10792.0125
1047.31584	10822.2125
1051.00976	10799.1125
1054.70114	10806.7125
1058.38998	10827.2125
1062.07627	10921.6125
1065.76003	11062.4125
1069.44126	11119.4125
1073.11995	11241.9125
1076.79611	11425.5125
1080.46974	11619.2125
1084.14085	11975.9125
1087.80943	12425.1125
1091.47549	12660.7125
1095.13903	12451.3125
1098.80005	11985.8125
1102.45857	11524.1125
1106.11456	11246.7125
1109.76805	11255.4125
1113.41903	11531.4125
1117.06751	12028.8125
1120.71348	12634.6125
1124.35696	13282.4125
1127.99793	13899.5125
1131.63641	13917.7125
1135.2724	13109.2125
1138.90589	12328.5125
1142.5369	11875.3125
1146.16542	11585.9125
1149.79145	11466.1125
1153.415	11478.9125
1157.03607	11667.3125
1160.65467	11990.5125
1164.27079	12532.8125
1167.88443	13359.1125
1171.49561	14738.4125
1175.10432	16986.6125
1178.71056	19924.4125
1182.31434	21900.3125
1185.91565	22231.1125
1189.51451	21403.4125
1193.11091	19863.1125
1196.70485	18114.1125
1200.29634	16813.3125
1203.88538	15891.0125
1207.47197	14781.7125
1211.05612	13854.3125
1214.63782	13277.6125
1218.21708	13062.9125
1221.79391	12982.0125
1225.36829	13070.3125
1228.94024	13118.2125
1232.50976	13173.0125
1236.07685	13205.4125
1239.6415	13224.9125
1243.20374	13264.1125
1246.76355	13348.8125
1250.32093	13539.2125
1253.8759	13867.4125
1257.42845	14330.2125
1260.97859	14829.6125
1264.52631	15363.5125
1268.07163	15881.4125
1271.61453	16370.7125
1275.15503	16744.6125
1278.69312	16840.9125
1282.22882	16882.6125
1285.76211	17232.9125
1289.29301	17886.1125
1292.82151	18641.3125
1296.34761	19434.8125
1299.87133	20551.4125
1303.39266	22350.8125
1306.9116	25229.8125
1310.42815	28579.5125
1313.94233	30689.0125
1317.45412	30337.6125
1320.96354	28209.5125
1324.47058	25786.5125
1327.97525	23720.1125
1331.47754	22367.5125
1334.97747	21791.3125
1338.47502	21792.7125
1341.97022	22187.3125
1345.46305	22947.2125
1348.95352	24172.5125
1352.44163	26033.1125
1355.92738	28826.4125
1359.41078	33371.1125
1362.89183	38221.2125
1366.37053	37564.6125
1369.84688	31418.9125
1373.32088	25020.6125
1376.79254	21090.9125
1380.26186	19231.9125
1383.72883	18425.1125
1387.19347	17814.8125
1390.65578	17132.6125
1394.11575	16525.2125
1397.57339	16246.3125
1401.0287	16306.1125
1404.48168	16516.3125
1407.93234	16719.8125
1411.38068	16766.5125
1414.82669	16552.2125
1418.27039	16122.6125
1421.71177	15611.0125
1425.15083	15145.7125
1428.58758	14797.9125
1432.02203	14757.7125
1435.45416	14944.2125
1438.88399	15103.5125
1442.31151	15173.8125
1445.73673	15357.9125
1449.15965	15566.5125
1452.58027	15652.3125
1455.9986	15569.1125
1459.41463	15579.9125
1462.82837	15782.4125
1466.23982	16149.5125
1469.64898	16553.0125
1473.05586	16824.2125
1476.46045	17019.8125
1479.86276	17286.8125
1483.26279	17685.1125
1486.66054	18195.6125
1490.05602	18799.7125
1493.44922	19731.6125
1496.84016	21136.4125
1500.22882	23527.2125
1503.61521	26767.3125
1506.99934	30567.1125
1510.38121	34318.5125
1513.76081	36407.4125
1517.13816	34956.3125
1520.51324	30449.8125
1523.88607	25710.5125
1527.25665	22391.3125
1530.62498	20458.6125
1533.99105	19344.4125
1537.35488	18636.2125
1540.71647	18115.6125
1544.07581	17854.7125
1547.4329	17645.8125
1550.78776	17460.3125
1554.14038	17438.4125
1557.49077	17588.9125
1560.83892	18013.2125
1564.18484	18638.1125
1567.52853	19407.1125
1570.86999	19955.7125
1574.20922	20324.0125
1577.54624	20244.9125
1580.88103	19158.4125
1584.2136	17659.5125
1587.54395	16837.2125
1590.87208	16944.6125
1594.19801	17872.8125
1597.52172	19159.2125
1600.84321	19735.4125
1604.16251	18891.5125
1607.47959	17473.6125
1610.79447	16048.2125
1614.10715	14654.1125
1617.41763	13520.2125
1620.7259	12802.0125
1624.03199	12438.2125
1627.33587	12388.4125
1630.63757	12672.0125
1633.93707	13335.6125
1637.23439	14462.1125
1640.52951	16188.0125
1643.82246	18630.4125
1647.11321	21687.9125
1650.40179	24151.2125
1653.68819	23876.2125
1656.97241	20613.4125
1660.25446	16614.2125
1663.53433	13657.5125
1666.81203	11893.2125
1670.08756	10866.4125
1673.36092	10256.3125
1676.63211	9894.6125
1679.90115	9596.9125
1683.16801	9427.1125
1686.43272	9276.9125
1689.69527	9169.5125
1692.95567	9099.7125
1696.2139	9065.2125
1699.46999	9050.9125
1702.72392	8998.7125
1705.97571	8955.6125
1709.22535	8950.4125
1712.47284	8922.9125
1715.71819	8942.8125
1718.96139	8914.6125
1722.20246	8911.2125
1725.44139	8862.9125
1728.67818	8770.5125
1731.91284	8679.9125
1735.14537	8602.8125
1738.37576	8550.6125
1741.60403	8474.7125
1744.83017	8467.6125
1748.05418	8422.0125
1751.27607	8427.7125
1754.49584	8401.5125
1757.71349	8402.9125
1760.92903	8390.0125
1764.14244	8364.5125
1767.35375	8341.0125
1770.56294	8322.0125
1773.77002	8270.4125
1776.97499	8242.3125
1780.17785	8181.4125
1783.37861	8142.5125
1786.57727	8144.5125
1789.77382	8107.8125
1792.96828	8112.5125
1796.16064	8094.8125
1799.3509	8088.9125
1802.53907	8058.6125
1805.72514	8010.1125
1808.90913	7976.8125
1812.09102	7951.7125
1815.27083	7920.4125
1818.44856	7920.6125
1821.6242	7908.7125
1824.79776	7895.9125
1827.96924	7860.5125
1831.13864	7839.9125
1834.30597	7849.2125
1837.47122	7819.7125
1840.6344	7815.0125
1843.7955	7793.1125
1846.95454	7823.1125
1850.11151	7790.5125
1853.26642	7767.4125
1856.41926	7770.5125
1859.57004	7787.4125
1862.71876	7781.2125
1865.86542	7778.7125
1869.01003	7780.5125
1872.15258	7773.4125
1875.29308	7782.6125
1878.43152	7779.4125
1881.56792	7784.7125
1884.70227	7775.3125
1887.83457	7786.5125
1890.96482	7785.2125
1894.09304	7754.4125
1897.21921	7776.4125
1900.34335	7763.0125
1903.46544	7760.1125
1906.58551	7776.0125
1909.70353	7771.6125
1912.81953	7764.3125
1915.93349	7752.3125
1919.04543	7758.1125
1922.15534	7718.1125
1925.26322	7700.4125
1928.36908	7669.3125
1931.47292	7650.2125
1934.57473	7611.5125
1937.67453	7575.4125
1940.77232	7530.6125
1943.86808	7497.8125
1946.96184	7460.8125
1950.05358	7440.3125
1953.14331	7416.2125
1956.23103	7378.4125
1959.31675	7328.3125
1962.40046	7349.4125
1965.48217	7303.6125
1968.56188	7289.1125
1971.63959	7267.2125
1974.7153	7251.3125
1977.78901	7229.8125
1980.86073	7198.0125
1983.93046	7150.3125
1986.99819	7147.4125
1990.06394	7084.5125
1993.1277	7078.1125
1996.18947	7050.7125
1999.24925	7036.8125
2002.30706	7009.6125
2005.36288	6965.1125
2008.41672	6968.9125
2011.46859	6935.9125
2014.51848	6916.0125
2017.56639	6896.9125
2020.61233	6863.7125
2023.6563	6867.6125
2026.6983	6814.5125
2029.73833	6801.6125
2032.7764	6792.9125
2035.8125	6754.6125
2038.84664	6747.4125
2041.87881	6734.7125
2044.90903	6730.5125
2047.93729	6732.0125
2050.96359	6724.9125
2053.98794	6698.0125
2057.01034	6694.4125
2060.03078	6683.4125
2063.04927	6656.4125
2066.06582	6653.3125
2069.08042	6654.5125
2072.09307	6636.0125
2075.10378	6623.1125
2078.11255	6628.3125
2081.11938	6617.4125
2084.12426	6592.2125
2087.12722	6608.3125
2090.12824	6588.2125
2093.12732	6599.4125
2096.12447	6588.9125
2099.11969	6608.5125
2102.11299	6589.4125
2105.10435	6604.6125
2108.09379	6586.4125
2111.08131	6573.3125
2114.0669	6600.3125
2117.05057	6597.0125
2120.03233	6617.8125
2123.01216	6611.7125
2125.99008	6617.5125
2128.96609	6613.2125
2131.94018	6628.1125
2134.91236	6623.6125
2137.88263	6624.8125
2140.851	6628.4125
2143.81746	6609.9125
2146.78201	6614.2125
2149.74466	6613.2125
2152.7054	6600.1125
2155.66425	6600.1125
2158.6212	6565.0125
2161.57625	6571.0125
2164.52941	6568.8125
2167.48067	6561.3125
2170.43004	6571.0125
2173.37752	6552.4125
2176.32311	6565.0125
2179.26681	6546.1125
2182.20863	6551.4125
2185.14856	6563.4125
2188.08661	6560.4125
2191.02278	6537.5125
2193.95707	6543.0125
2196.88948	6520.8125
2199.82001	6516.6125
2202.74867	6491.4125
2205.67545	6481.7125
2208.60037	6469.7125
2211.52341	6479.1125
2214.44458	6477.0125
2217.36388	6444.3125
2220.28132	6430.0125
2223.1969	6414.1125
2226.11061	6396.6125
2229.02246	6379.7125
2231.93245	6368.8125
2234.84058	6325.5125
2237.74686	6337.5125
2240.65128	6324.7125
2243.55385	6312.5125
2246.45456	6286.9125
2249.35343	6300.5125
2252.25044	6296.3125
2255.14561	6294.1125
2258.03893	6292.7125
2260.93041	6310.3125
2263.82004	6318.2125
2266.70783	6288.9125
2269.59378	6248.3125
2272.4779	6238.4125
2275.36017	6222.7125
2278.24061	6205.2125
2281.11922	6202.9125
2283.996	6191.3125
2286.87094	6155.2125
2289.74405	6140.1125
2292.61534	6128.3125
2295.4848	6111.8125
2298.35243	6094.3125
2301.21824	6107.0125
2304.08223	6099.1125
2306.94439	6064.4125
2309.80474	6090.1125
2312.66327	6095.5125
2315.51999	6092.5125
2318.37489	6077.7125
2321.22797	6047.2125
2324.07925	6057.9125
2326.92871	6044.6125
2329.77637	6048.0125
2332.62222	6030.2125
2335.46626	6026.8125
2338.3085	6004.1125
2341.14893	6014.0125
2343.98756	6041.6125
2346.8244	6028.7125
2349.65943	6023.9125
2352.49267	6039.8125
2355.32411	6042.4125
2358.15376	6063.6125
2360.98161	6081.8125
2363.80768	6095.8125
2366.63195	6096.2125
2369.45444	6094.3125
2372.27514	6099.4125
2375.09405	6100.7125
2377.91118	6048.0125
2380.72652	6031.8125
2383.54009	5988.2125
2386.35187	5961.5125
2389.16188	5929.9125
2391.97011	5910.5125
2394.77657	5892.9125
2397.58125	5864.7125
2400.38416	5856.2125
2403.18529	5838.0125
2405.98466	5829.4125
2408.78226	5807.8125
2411.57809	5798.2125
2414.37216	5801.6125
2417.16446	5773.1125
2419.955	5788.6125
2422.74378	5775.3125
2425.5308	5763.9125
2428.31606	5780.8125
2431.09956	5792.2125
2433.88131	5769.9125
2436.6613	5789.2125
2439.43954	5767.0125
2442.21603	5788.0125
2444.99077	5779.0125
2447.76377	5781.6125
2450.53501	5774.8125
2453.30451	5787.7125
2456.07226	5781.2125
2458.83827	5785.6125
2461.60254	5771.7125
2464.36507	5788.6125
2467.12586	5747.1125
2469.88492	5744.0125
2472.64224	5739.7125
2475.39782	5781.6125
2478.15167	5791.4125
2480.90379	5781.2125
2483.65417	5801.1125
2486.40283	5821.5125
2489.14976	5839.0125
2491.89497	5846.3125
2494.63845	5885.0125
2497.3802	5834.2125
2500.12024	5836.9125
2502.85855	5812.5125
2505.59514	5790.3125
2508.33002	5768.4125
2511.06318	5738.9125
2513.79462	5715.4125
2516.52435	5679.0125
2519.25237	5661.5125
2521.97867	5659.7125
2524.70327	5636.2125
2527.42616	5626.4125
2530.14734	5623.1125
2532.86681	5616.0125
2535.58458	5601.2125
2538.30065	5609.1125
2541.01501	5601.5125
2543.72768	5617.4125
2546.43864	5602.6125
2549.14791	5607.2125
2551.85548	5601.7125
2554.56136	5594.3125
2557.26554	5592.2125
2559.96803	5587.3125
2562.66883	5549.5125
2565.36794	5548.6125
2568.06536	5539.9125
2570.7611	5531.6125
2573.45514	5516.7125
2576.14751	5509.0125
2578.83819	5496.7125
2581.52719	5505.1125
2584.21451	5491.2125
2586.90015	5492.0125
2589.58411	5464.2125
2592.2664	5472.0125
2594.94701	5451.5125
2597.62594	5448.8125
2600.30321	5449.9125
2602.9788	5454.2125
2605.65273	5458.2125
2608.32498	5462.6125
2610.99557	5452.8125
2613.66449	5463.8125
2616.33175	5450.7125
2618.99734	5445.8125
2621.66128	5420.6125
2624.32355	5426.3125
2626.98416	5427.6125
2629.64311	5414.5125
2632.30041	5422.7125
2634.95605	5405.9125
2637.61004	5369.3125
2640.26238	5374.5125
2642.91306	5374.6125
2645.56209	5373.0125
2648.20948	5355.9125
2650.85521	5360.7125
2653.4993	5361.8125
2656.14175	5365.9125
2658.78255	5373.3125
2661.42171	5376.0125
2664.05923	5398.5125
2666.6951	5400.3125
2669.32934	5406.9125
2671.96194	5397.3125
2674.59291	5408.9125
2677.22224	5415.2125
2679.84993	5422.0125
2682.476	5404.9125
2685.10043	5422.6125
2687.72324	5400.9125
2690.34441	5389.8125
2692.96396	5371.2125
2695.58188	5394.5125
2698.19818	5373.1125
2700.81285	5400.4125
2703.4259	5425.9125
2706.03733	5465.3125
2708.64714	5433.7125
2711.25533	5426.5125
2713.86191	5424.2125
2716.46687	5410.8125
2719.07021	5418.5125
2721.67194	5420.9125
2724.27206	5415.3125
2726.87057	5429.0125
2729.46747	5425.6125
2732.06276	5438.6125
2734.65644	5406.9125
2737.24852	5412.7125
2739.83899	5400.9125
2742.42786	5386.9125
2745.01513	5369.0125
2747.60079	5367.5125
2750.18486	5353.3125
2752.76733	5344.3125
2755.3482	5348.6125
2757.92747	5322.2125
2760.50515	5326.8125
2763.08123	5325.5125
2765.65573	5318.6125
2768.22863	5307.2125
2770.79994	5298.4125
2773.36967	5316.0125
2775.9378	5292.7125
2778.50435	5283.7125
2781.06932	5296.3125
2783.6327	5280.6125
2786.1945	5297.6125
2788.75471	5291.9125
2791.31335	5274.9125
2793.87041	5279.1125
2796.42589	5280.8125
2798.97979	5268.7125
2801.53212	5268.0125
2804.08288	5265.9125
2806.63206	5242.6125
2809.17967	5236.5125
2811.72571	5245.5125
2814.27018	5250.1125
2816.81308	5253.4125
2819.35442	5255.7125
2821.89419	5242.7125
2824.43239	5278.5125
2826.96904	5261.8125
2829.50412	5286.6125
2832.03763	5265.9125
2834.56959	5263.4125
2837.1	5284.3125
2839.62884	5293.5125
2842.15613	5336.9125
2844.68186	5392.3125
2847.20604	5456.2125
2849.72867	5514.1125
2852.24974	5522.8125
2854.76927	5553.3125
2857.28724	5542.1125
2859.80367	5528.3125
2862.31855	5507.5125
2864.83189	5457.2125
2867.34368	5467.1125
2869.85393	5465.4125
2872.36264	5444.2125
2874.8698	5457.1125
2877.37543	5428.5125
2879.87952	5426.2125
2882.38207	5445.0125
2884.88308	5426.0125
2887.38256	5415.8125
2889.88051	5421.9125
2892.37692	5411.0125
2894.8718	5402.3125
2897.36515	5426.7125
2899.85698	5426.3125
2902.34727	5408.5125
2904.83604	5432.7125
2907.32328	5433.8125
2909.809	5441.1125
2912.29319	5425.8125
2914.77587	5425.7125
2917.25702	5421.6125
2919.73665	5427.8125
2922.21476	5429.8125
2924.69136	5401.6125
2927.16644	5408.6125
2929.64	5393.9125
2932.11205	5383.8125
2934.58258	5343.3125
2937.05161	5338.2125
2939.51912	5312.1125
2941.98513	5283.9125
2944.44962	5254.5125
2946.91261	5207.9125
2949.37409	5178.1125
2951.83407	5144.8125
2954.29254	5124.7125
2956.74951	5122.9125
2959.20498	5108.6125
2961.65895	5095.0125
2964.11142	5073.4125
2966.56239	5069.3125
2969.01186	5055.5125
2971.45984	5044.2125
2973.90632	5042.8125
2976.35131	5009.7125
2978.7948	5006.1125
2981.23681	4991.3125
2983.67732	4970.0125
2986.11635	4953.8125
2988.55388	4949.2125
2990.98993	4937.5125
2993.4245	4915.8125
2995.85758	4894.3125
2998.28917	4877.5125
3000.71928	4874.4125
3003.14791	4884.4125
3005.57506	4871.6125
3008.00073	4842.0125
3010.42493	4757.6125
3012.84764	4849.6125
3015.26888	4831.0125
3017.68865	4812.9125
3020.10694	4815.4125
3022.52376	4804.3125
3024.9391	4793.3125
3027.35298	4795.0125
3029.76539	4792.9125
3032.17632	4771.7125
3034.5858	4760.8125
3036.9938	4755.3125
3039.40034	4743.1125
3041.80542	4748.1125
3044.20903	4737.5125
3046.61118	4738.8125
3049.01187	4724.4125
3051.4111	4702.7125
3053.80888	4715.1125
3056.20519	4698.6125
3058.60005	4680.3125
3060.99345	4696.9125
3063.3854	4680.8125
3065.7759	4660.8125
3068.16494	4643.5125
3070.55254	4638.7125
3072.93868	4633.0125
3075.32338	4616.4125
3077.70662	4601.4125
3080.08842	4576.1125
3082.46878	4563.3125
