Data from AgNPs_FTO_APTES_UA_5uM_CRN_500uM_R6G_10uM_NaF_0.1M_Addition_RamanShift__16__16-59-21-830.txt Node

Date: Mon Feb 07 16:59:21 GMT 2022
User: TCL
Spectrometer: QEP01345
Trigger mode: 4
Integration Time (sec): 7.000000E0
Scans to average: 10
Electric dark correction enabled: true
Nonlinearity correction enabled: false
Boxcar width: 0
XAxis mode: Raman Shifts
Number of Pixels in Spectrum: 1044
>>>>>Begin Spectral Data<<<<<
46.04893	-1.6375
50.45542	-1.6375
54.85868	0.2625
59.25871	-0.9375
63.6555	57.5625
68.04907	58.8625
72.43941	62.8625
76.82654	63.4625
81.21044	65.5625
85.59113	66.0625
89.96862	73.1625
94.34289	78.7625
98.71396	74.4625
103.08183	80.2625
107.4465	84.1625
111.80798	85.2625
116.16626	85.6625
120.52136	92.6625
124.87327	98.4625
129.222	102.2625
133.56755	108.9625
137.90993	117.8625
142.24913	130.4625
146.58517	148.7625
150.91804	171.5625
155.24774	212.5625
159.57429	268.4625
163.89768	339.7625
168.21792	457.2625
172.53501	620.9625
176.84895	875.2625
181.15975	1235.2625
185.46741	1730.2625
189.77193	2399.5625
194.07331	3201.1625
198.37157	4129.0625
202.6667	5100.0625
206.9587	6065.9625
211.24758	7025.9625
215.53334	7968.2625
219.81599	8961.8625
224.09553	10115.8625
228.37195	11286.8625
232.64527	12613.3625
236.91549	13988.5625
241.18261	15404.9625
245.44663	16686.0625
249.70755	17879.1625
253.96539	18925.2625
258.22014	19772.3625
262.4718	20499.7625
266.72039	21002.6625
270.96589	21317.5625
275.20832	21421.7625
279.44768	21421.8625
283.68397	21280.7625
287.91719	21228.4625
292.14735	21263.6625
296.37445	21329.2625
300.59849	21463.6625
304.81948	21485.1625
309.03742	21380.0625
313.25231	21004.0625
317.46415	20437.6625
321.67296	19755.6625
325.87872	19234.0625
330.08145	18963.3625
334.28114	18909.3625
338.47781	18974.3625
342.67145	19184.7625
346.86207	19450.1625
351.04966	19773.8625
355.23424	20081.0625
359.4158	20327.2625
363.59435	20550.3625
367.76989	20672.2625
371.94243	20758.4625
376.11196	20870.7625
380.27849	20951.2625
384.44203	21113.8625
388.60257	21323.6625
392.76012	21521.0625
396.91468	21746.6625
401.06626	22060.9625
405.21485	22229.7625
409.36047	22141.2625
413.50311	21826.6625
417.64277	21544.1625
421.77947	21495.5625
425.9132	21555.4625
430.04396	21743.4625
434.17176	21898.9625
438.2966	22107.6625
442.41849	22445.5625
446.53742	23075.9625
450.6534	23709.1625
454.76644	24188.3625
458.87653	24405.3625
462.98368	24324.5625
467.08789	24197.9625
471.18916	24065.7625
475.2875	23959.1625
479.38291	24038.3625
483.4754	23983.5625
487.56496	23623.6625
491.6516	23116.5625
495.73531	22577.5625
499.81612	22275.9625
503.89401	22291.0625
507.96899	22281.6625
512.04106	22214.4625
516.11023	22075.0625
520.1765	21868.5625
524.23987	21595.9625
528.30034	21429.6625
532.35792	21275.4625
536.41261	21075.7625
540.46441	20916.0625
544.51333	20963.1625
548.55936	21260.3625
552.60252	21820.2625
556.64279	22459.6625
560.6802	22952.5625
564.71473	23276.5625
568.7464	23796.1625
572.7752	24469.7625
576.80114	24951.1625
580.82422	25264.4625
584.84444	25406.9625
588.86181	25703.0625
592.87633	25874.6625
596.888	25847.8625
600.89682	25479.2625
604.9028	25749.1625
608.90594	27199.2625
612.90624	28778.8625
616.90371	27022.9625
620.89834	23044.7625
624.89015	21268.2625
628.87913	21130.7625
632.86528	21341.9625
636.84862	21429.8625
640.82913	21232.1625
644.80683	20780.5625
648.78172	20354.4625
652.75379	20203.3625
656.72306	20349.8625
660.68952	20586.5625
664.65319	20508.0625
668.61405	20209.0625
672.57211	20134.5625
676.52738	20212.3625
680.47986	20273.0625
684.42955	20212.3625
688.37646	20086.3625
692.32058	20112.5625
696.26192	20178.0625
700.20048	20396.6625
704.13626	20550.2625
708.06928	20606.1625
711.99952	20531.6625
715.927	20506.2625
719.85171	20508.6625
723.77365	20432.1625
727.69284	20266.4625
731.60928	20118.7625
735.52295	20008.6625
739.43388	19995.5625
743.34206	19963.0625
747.24749	20055.0625
751.15017	20228.0625
755.05012	20573.2625
758.94733	21169.3625
762.8418	22250.5625
766.73354	23869.8625
770.62254	25438.2625
774.50882	25676.1625
778.39237	24541.3625
782.27321	22748.2625
786.15132	21324.7625
790.02671	20427.5625
793.89938	19976.1625
797.76935	19772.8625
801.6366	19694.0625
805.50115	19673.8625
809.36299	19533.8625
813.22213	19452.5625
817.07857	19433.2625
820.93231	19400.8625
824.78336	19309.6625
828.63172	19159.1625
832.47738	19107.7625
836.32036	19082.7625
840.16066	19093.2625
843.99827	19063.8625
847.8332	19055.5625
851.66546	19043.7625
855.49504	19036.5625
859.32195	18998.0625
863.1462	19015.3625
866.96777	18973.1625
870.78668	18929.5625
874.60293	18927.7625
878.41652	18922.6625
882.22745	18961.9625
886.03573	19000.6625
889.84136	18972.8625
893.64433	18960.0625
897.44466	18860.9625
901.24235	18823.5625
905.0374	18709.4625
908.8298	18637.7625
912.61957	18663.7625
916.40671	18879.2625
920.19121	19132.3625
923.97308	19288.8625
927.75233	19225.7625
931.52895	19041.2625
935.30295	18802.3625
939.07433	18493.5625
942.84309	18178.3625
946.60924	18036.1625
950.37278	17951.7625
954.13371	17923.8625
957.89203	17909.5625
961.64774	17893.2625
965.40086	17875.9625
969.15137	17809.6625
972.89929	17684.2625
976.64461	17581.1625
980.38733	17517.2625
984.12747	17556.0625
987.86502	17647.6625
991.59999	17800.8625
995.33237	17992.0625
999.06217	18263.1625
1002.78939	18595.3625
1006.51404	18887.7625
1010.23611	19085.2625
1013.95561	19269.2625
1017.67255	19310.1625
1021.38692	19156.0625
1025.09872	18911.0625
1028.80796	18781.3625
1032.51465	18831.4625
1036.21877	18978.3625
1039.92035	19066.7625
1043.61937	19012.3625
1047.31584	18962.5625
1051.00976	18902.6625
1054.70114	18926.8625
1058.38998	19037.4625
1062.07627	19249.4625
1065.76003	19506.3625
1069.44126	19657.3625
1073.11995	19845.9625
1076.79611	20033.6625
1080.46974	20083.7625
1084.14085	20176.1625
1087.80943	20345.2625
1091.47549	20524.8625
1095.13903	20637.6625
1098.80005	20482.0625
1102.45857	20104.4625
1106.11456	19713.2625
1109.76805	19524.0625
1113.41903	19529.7625
1117.06751	19715.9625
1120.71348	19945.2625
1124.35696	20240.1625
1127.99793	20583.6625
1131.63641	20790.0625
1135.2724	20614.1625
1138.90589	20441.7625
1142.5369	20344.2625
1146.16542	20498.3625
1149.79145	20659.9625
1153.415	20985.5625
1157.03607	21353.7625
1160.65467	21997.7625
1164.27079	22924.0625
1167.88443	24140.9625
1171.49561	25609.4625
1175.10432	27436.9625
1178.71056	29660.6625
1182.31434	31763.0625
1185.91565	32919.2625
1189.51451	33043.5625
1193.11091	32369.0625
1196.70485	31350.2625
1200.29634	30067.7625
1203.88538	29019.9625
1207.47197	28225.6625
1211.05612	27617.2625
1214.63782	27047.7625
1218.21708	26498.5625
1221.79391	25894.3625
1225.36829	25509.5625
1228.94024	25056.8625
1232.50976	24514.3625
1236.07685	24111.7625
1239.6415	23906.4625
1243.20374	23887.0625
1246.76355	24054.6625
1250.32093	24336.6625
1253.8759	24770.7625
1257.42845	25338.9625
1260.97859	26073.0625
1264.52631	26704.8625
1268.07163	27379.5625
1271.61453	28078.0625
1275.15503	28850.6625
1278.69312	29717.0625
1282.22882	30543.4625
1285.76211	31590.5625
1289.29301	32839.0625
1292.82151	34480.2625
1296.34761	36472.3625
1299.87133	38666.4625
1303.39266	40956.2625
1306.9116	42995.2625
1310.42815	44803.2625
1313.94233	45953.5625
1317.45412	46056.1625
1320.96354	45569.0625
1324.47058	45110.1625
1327.97525	44721.2625
1331.47754	44406.5625
1334.97747	44154.6625
1338.47502	44035.3625
1341.97022	43784.9625
1345.46305	43342.2625
1348.95352	42708.4625
1352.44163	41957.5625
1355.92738	41723.7625
1359.41078	42383.2625
1362.89183	43165.5625
1366.37053	42368.4625
1369.84688	39173.5625
1373.32088	35613.5625
1376.79254	33165.4625
1380.26186	32316.6625
1383.72883	32423.9625
1387.19347	32728.1625
1390.65578	32923.6625
1394.11575	33152.6625
1397.57339	33622.9625
1401.0287	34233.5625
1404.48168	34654.0625
1407.93234	34491.0625
1411.38068	33591.8625
1414.82669	32148.3625
1418.27039	30461.4625
1421.71177	28876.8625
1425.15083	27585.9625
1428.58758	26859.4625
1432.02203	26906.2625
1435.45416	27531.9625
1438.88399	28372.3625
1442.31151	29211.9625
1445.73673	29758.9625
1449.15965	30368.2625
1452.58027	30955.4625
1455.9986	31367.7625
1459.41463	31738.3625
1462.82837	32093.7625
1466.23982	32464.0625
1469.64898	32749.2625
1473.05586	32742.5625
1476.46045	32537.0625
1479.86276	32136.3625
1483.26279	31673.6625
1486.66054	31317.2625
1490.05602	31281.5625
1493.44922	31437.7625
1496.84016	31704.2625
1500.22882	32357.5625
1503.61521	33418.4625
1506.99934	34688.9625
1510.38121	35859.7625
1513.76081	36277.3625
1517.13816	35683.5625
1520.51324	34489.9625
1523.88607	33504.5625
1527.25665	33008.0625
1530.62498	32905.1625
1533.99105	32842.9625
1537.35488	32618.6625
1540.71647	32061.3625
1544.07581	31287.2625
1547.4329	30446.0625
1550.78776	29688.1625
1554.14038	29201.3625
1557.49077	28959.7625
1560.83892	28839.5625
1564.18484	28891.0625
1567.52853	29043.0625
1570.86999	29345.9625
1574.20922	29862.0625
1577.54624	30461.4625
1580.88103	30710.1625
1584.2136	30960.5625
1587.54395	31634.5625
1590.87208	32830.1625
1594.19801	34345.5625
1597.52172	35898.8625
1600.84321	36282.6625
1604.16251	34873.2625
1607.47959	32385.7625
1610.79447	29664.8625
1614.10715	27075.8625
1617.41763	24962.7625
1620.7259	23336.2625
1624.03199	22540.6625
1627.33587	22394.8625
1630.63757	22959.1625
1633.93707	24366.9625
1637.23439	26718.8625
1640.52951	30074.9625
1643.82246	34046.5625
1647.11321	37188.3625
1650.40179	38043.4625
1653.68819	35788.9625
1656.97241	31435.4625
1660.25446	26857.8625
1663.53433	23235.6625
1666.81203	20800.5625
1670.08756	19221.4625
1673.36092	18236.0625
1676.63211	17606.3625
1679.90115	17156.2625
1683.16801	16818.5625
1686.43272	16603.4625
1689.69527	16374.8625
1692.95567	16222.6625
1696.2139	16126.3625
1699.46999	15992.9625
1702.72392	15931.8625
1705.97571	15874.3625
1709.22535	15806.6625
1712.47284	15792.4625
1715.71819	15731.0625
1718.96139	15691.1625
1722.20246	15625.6625
1725.44139	15533.8625
1728.67818	15465.8625
1731.91284	15355.8625
1735.14537	15272.1625
1738.37576	15194.2625
1741.60403	15148.5625
1744.83017	15098.1625
1748.05418	15083.1625
1751.27607	15041.4625
1754.49584	15003.3625
1757.71349	15009.6625
1760.92903	14975.1625
1764.14244	14975.7625
1767.35375	14929.9625
1770.56294	14865.0625
1773.77002	14813.7625
1776.97499	14758.5625
1780.17785	14720.0625
1783.37861	14708.1625
1786.57727	14697.2625
1789.77382	14641.4625
1792.96828	14615.5625
1796.16064	14586.7625
1799.3509	14538.5625
1802.53907	14510.4625
1805.72514	14461.9625
1808.90913	14412.0625
1812.09102	14366.0625
1815.27083	14320.1625
1818.44856	14305.7625
1821.6242	14276.9625
1824.79776	14235.3625
1827.96924	14212.3625
1831.13864	14226.2625
1834.30597	14201.3625
1837.47122	14174.1625
1840.6344	14158.5625
1843.7955	14169.8625
1846.95454	14189.0625
1850.11151	14140.0625
1853.26642	14136.6625
1856.41926	14098.9625
1859.57004	14101.0625
1862.71876	14070.6625
1865.86542	14049.6625
1869.01003	14065.6625
1872.15258	14033.6625
1875.29308	14029.6625
1878.43152	13989.8625
1881.56792	13978.7625
1884.70227	13972.4625
1887.83457	13946.1625
1890.96482	13937.2625
1894.09304	13882.6625
1897.21921	13906.5625
1900.34335	13857.1625
1903.46544	13846.9625
1906.58551	13840.8625
1909.70353	13799.6625
1912.81953	13784.9625
1915.93349	13743.8625
1919.04543	13710.0625
1922.15534	13693.3625
1925.26322	13684.7625
1928.36908	13619.3625
1931.47292	13590.3625
1934.57473	13558.7625
1937.67453	13554.1625
1940.77232	13503.1625
1943.86808	13443.1625
1946.96184	13386.3625
1950.05358	13359.4625
1953.14331	13307.3625
1956.23103	13255.8625
1959.31675	13207.7625
1962.40046	13183.2625
1965.48217	13146.2625
1968.56188	13066.8625
1971.63959	13037.4625
1974.7153	13012.3625
1977.78901	12973.3625
1980.86073	12959.6625
1983.93046	12908.8625
1986.99819	12859.8625
1990.06394	12829.3625
1993.1277	12770.3625
1996.18947	12721.3625
1999.24925	12700.3625
2002.30706	12672.2625
2005.36288	12628.5625
2008.41672	12584.8625
2011.46859	12537.8625
2014.51848	12494.8625
2017.56639	12460.7625
2020.61233	12412.5625
2023.6563	12390.5625
2026.6983	12355.2625
2029.73833	12291.0625
2032.7764	12296.7625
2035.8125	12264.0625
2038.84664	12252.7625
2041.87881	12235.7625
2044.90903	12186.0625
2047.93729	12170.0625
2050.96359	12158.6625
2053.98794	12137.8625
2057.01034	12129.1625
2060.03078	12123.5625
2063.04927	12118.2625
2066.06582	12130.6625
2069.08042	12105.7625
2072.09307	12117.7625
2075.10378	12073.6625
2078.11255	12044.4625
2081.11938	12051.6625
2084.12426	12023.8625
2087.12722	12010.0625
2090.12824	11998.8625
2093.12732	12027.8625
2096.12447	12031.9625
2099.11969	12008.6625
2102.11299	11984.3625
2105.10435	11982.8625
2108.09379	11989.9625
2111.08131	12008.7625
2114.0669	12012.7625
2117.05057	12021.8625
2120.03233	12028.4625
2123.01216	12042.5625
2125.99008	12046.2625
2128.96609	12040.4625
2131.94018	12037.0625
2134.91236	12041.2625
2137.88263	12042.8625
2140.851	12062.7625
2143.81746	12044.7625
2146.78201	12030.5625
2149.74466	12041.7625
2152.7054	12047.1625
2155.66425	12003.8625
2158.6212	12012.3625
2161.57625	12014.2625
2164.52941	12007.8625
2167.48067	12003.3625
2170.43004	12001.7625
2173.37752	11970.0625
2176.32311	11988.4625
2179.26681	11996.2625
2182.20863	11971.3625
2185.14856	11990.2625
2188.08661	12002.3625
2191.02278	11994.0625
2193.95707	11963.6625
2196.88948	11938.3625
2199.82001	11922.6625
2202.74867	11904.9625
2205.67545	11893.0625
2208.60037	11864.0625
2211.52341	11841.8625
2214.44458	11825.5625
2217.36388	11803.7625
2220.28132	11766.0625
2223.1969	11744.7625
2226.11061	11745.5625
2229.02246	11709.6625
2231.93245	11694.2625
2234.84058	11659.0625
2237.74686	11614.0625
2240.65128	11608.2625
2243.55385	11600.3625
2246.45456	11581.5625
2249.35343	11590.8625
2252.25044	11533.6625
2255.14561	11510.5625
2258.03893	11497.1625
2260.93041	11474.2625
2263.82004	11427.2625
2266.70783	11406.5625
2269.59378	11382.8625
2272.4779	11352.1625
2275.36017	11304.1625
2278.24061	11290.8625
2281.11922	11272.5625
2283.996	11268.0625
2286.87094	11223.7625
2289.74405	11200.0625
2292.61534	11205.0625
2295.4848	11172.6625
2298.35243	11210.0625
2301.21824	11196.2625
2304.08223	11193.6625
2306.94439	11206.5625
2309.80474	11175.1625
2312.66327	11187.7625
2315.51999	11153.9625
2318.37489	11138.3625
2321.22797	11122.6625
2324.07925	11096.4625
2326.92871	11097.2625
2329.77637	11095.8625
2332.62222	11066.8625
2335.46626	11049.1625
2338.3085	11033.8625
2341.14893	11041.8625
2343.98756	11037.1625
2346.8244	11022.6625
2349.65943	11021.6625
2352.49267	10979.6625
2355.32411	10997.8625
2358.15376	10987.1625
2360.98161	11014.1625
2363.80768	10995.2625
2366.63195	11009.8625
2369.45444	10982.1625
2372.27514	10972.2625
2375.09405	10941.3625
2377.91118	10917.0625
2380.72652	10899.1625
2383.54009	10881.6625
2386.35187	10863.2625
2389.16188	10815.0625
2391.97011	10789.2625
2394.77657	10763.1625
2397.58125	10743.4625
2400.38416	10723.5625
2403.18529	10703.9625
2405.98466	10690.1625
2408.78226	10672.1625
2411.57809	10668.1625
2414.37216	10668.8625
2417.16446	10666.5625
2419.955	10622.5625
2422.74378	10640.1625
2425.5308	10611.0625
2428.31606	10607.0625
2431.09956	10562.9625
2433.88131	10578.6625
2436.6613	10585.4625
2439.43954	10593.1625
2442.21603	10590.3625
2444.99077	10547.9625
2447.76377	10566.6625
2450.53501	10512.0625
2453.30451	10550.2625
2456.07226	10511.8625
2458.83827	10512.1625
2461.60254	10510.6625
2464.36507	10494.9625
2467.12586	10517.4625
2469.88492	10497.6625
2472.64224	10507.4625
2475.39782	10468.4625
2478.15167	10497.7625
2480.90379	10476.8625
2483.65417	10487.5625
2486.40283	10511.0625
2489.14976	10491.9625
2491.89497	10500.4625
2494.63845	10502.5625
2497.3802	10505.1625
2500.12024	10487.6625
2502.85855	10489.1625
2505.59514	10462.3625
2508.33002	10451.6625
2511.06318	10443.6625
2513.79462	10457.2625
2516.52435	10445.4625
2519.25237	10427.9625
2521.97867	10410.7625
2524.70327	10391.4625
2527.42616	10354.4625
2530.14734	10370.7625
2532.86681	10364.2625
2535.58458	10358.7625
2538.30065	10367.9625
2541.01501	10341.9625
2543.72768	10329.4625
2546.43864	10307.1625
2549.14791	10289.9625
2551.85548	10314.5625
2554.56136	10278.9625
2557.26554	10274.1625
2559.96803	10257.2625
2562.66883	10238.5625
2565.36794	10213.8625
2568.06536	10205.8625
2570.7611	10202.6625
2573.45514	10187.5625
2576.14751	10156.7625
2578.83819	10172.4625
2581.52719	10177.9625
2584.21451	10160.5625
2586.90015	10148.1625
2589.58411	10140.3625
2592.2664	10113.2625
2594.94701	10109.3625
2597.62594	10128.6625
2600.30321	10093.0625
2602.9788	10086.4625
2605.65273	10090.7625
2608.32498	10111.8625
2610.99557	10092.7625
2613.66449	10074.4625
2616.33175	10089.9625
2618.99734	10072.4625
2621.66128	10035.9625
2624.32355	10068.1625
2626.98416	10049.6625
2629.64311	10042.2625
2632.30041	10043.3625
2634.95605	10022.9625
2637.61004	10026.4625
2640.26238	10035.2625
2642.91306	10002.6625
2645.56209	9977.5625
2648.20948	10001.5625
2650.85521	10003.1625
2653.4993	9981.1625
2656.14175	9999.6625
2658.78255	10031.4625
2661.42171	10009.1625
2664.05923	10021.8625
2666.6951	10022.8625
2669.32934	10032.4625
2671.96194	10016.6625
2674.59291	9978.4625
2677.22224	9987.4625
2679.84993	9988.6625
2682.476	9979.0625
2685.10043	9947.1625
2687.72324	9972.9625
2690.34441	9951.1625
2692.96396	9965.4625
2695.58188	9979.6625
2698.19818	9954.0625
2700.81285	9957.1625
2703.4259	9962.9625
2706.03733	9952.3625
2708.64714	9968.4625
2711.25533	9979.3625
2713.86191	10006.6625
2716.46687	9990.1625
2719.07021	9973.9625
2721.67194	10003.0625
2724.27206	9990.2625
2726.87057	10021.8625
2729.46747	10024.9625
2732.06276	10018.4625
2734.65644	10001.8625
2737.24852	10012.5625
2739.83899	9984.0625
2742.42786	9973.8625
2745.01513	10009.9625
2747.60079	9997.5625
2750.18486	9974.0625
2752.76733	9977.3625
2755.3482	9938.1625
2757.92747	9951.8625
2760.50515	9947.4625
2763.08123	9948.0625
2765.65573	9919.8625
2768.22863	9941.9625
2770.79994	9926.6625
2773.36967	9921.5625
2775.9378	9936.0625
2778.50435	9944.2625
2781.06932	9920.6625
2783.6327	9895.0625
2786.1945	9919.8625
2788.75471	9925.2625
2791.31335	9919.4625
2793.87041	9895.0625
2796.42589	9861.0625
2798.97979	9871.7625
2801.53212	9824.4625
2804.08288	9831.8625
2806.63206	9813.1625
2809.17967	9799.6625
2811.72571	9760.6625
2814.27018	9752.1625
2816.81308	9749.6625
2819.35442	9704.4625
2821.89419	9707.6625
2824.43239	9692.0625
2826.96904	9673.6625
2829.50412	9698.0625
2832.03763	9671.0625
2834.56959	9667.5625
2837.1	9637.6625
2839.62884	9654.6625
2842.15613	9665.7625
2844.68186	9703.6625
2847.20604	9720.1625
2849.72867	9757.9625
2852.24974	9749.0625
2854.76927	9730.1625
2857.28724	9719.3625
2859.80367	9723.9625
2862.31855	9667.7625
2864.83189	9680.9625
2867.34368	9633.9625
2869.85393	9671.4625
2872.36264	9669.9625
2874.8698	9645.9625
2877.37543	9641.7625
2879.87952	9652.7625
2882.38207	9635.4625
2884.88308	9628.9625
2887.38256	9642.2625
2889.88051	9636.2625
2892.37692	9630.8625
2894.8718	9653.2625
2897.36515	9690.2625
2899.85698	9660.0625
2902.34727	9683.2625
2904.83604	9691.0625
2907.32328	9710.8625
2909.809	9709.8625
2912.29319	9726.1625
2914.77587	9681.6625
2917.25702	9681.2625
2919.73665	9690.9625
2922.21476	9687.6625
2924.69136	9693.2625
2927.16644	9691.2625
2929.64	9689.7625
2932.11205	9671.8625
2934.58258	9653.8625
2937.05161	9639.9625
2939.51912	9622.1625
2941.98513	9624.2625
2944.44962	9611.9625
2946.91261	9562.1625
2949.37409	9558.4625
2951.83407	9550.6625
2954.29254	9524.8625
2956.74951	9513.3625
2959.20498	9520.5625
2961.65895	9490.3625
2964.11142	9480.2625
2966.56239	9476.8625
2969.01186	9465.0625
2971.45984	9421.4625
2973.90632	9407.1625
2976.35131	9396.3625
2978.7948	9369.1625
2981.23681	9331.1625
2983.67732	9331.7625
2986.11635	9309.9625
2988.55388	9291.3625
2990.98993	9242.8625
2993.4245	9222.4625
2995.85758	9204.4625
2998.28917	9178.5625
3000.71928	9162.5625
3003.14791	9161.1625
3005.57506	9133.7625
3008.00073	9094.7625
3010.42493	9091.3625
3012.84764	9091.4625
3015.26888	9067.2625
3017.68865	9041.6625
3020.10694	9021.4625
3022.52376	8995.5625
3024.9391	9000.5625
3027.35298	8970.4625
3029.76539	8970.6625
3032.17632	8984.7625
3034.5858	8949.0625
3036.9938	8960.6625
3039.40034	8943.6625
