Data from AgNPs_FTO_APTES_UA_5uM_CRN_20uM_R6G_10uM_NaF_0.1M_Addition_RamanShift__9__13-13-26-768.txt Node

Date: Mon Feb 07 13:13:26 GMT 2022
User: TCL
Spectrometer: QEP01345
Trigger mode: 4
Integration Time (sec): 7.000000E0
Scans to average: 10
Electric dark correction enabled: true
Nonlinearity correction enabled: false
Boxcar width: 0
XAxis mode: Raman Shifts
Number of Pixels in Spectrum: 1044
>>>>>Begin Spectral Data<<<<<
46.04893	-0.7875
50.45542	-1.2875
54.85868	0.2125
59.25871	-0.1875
63.6555	82.2125
68.04907	87.0125
72.43941	93.3125
76.82654	96.5125
81.21044	97.0125
85.59113	100.3125
89.96862	105.8125
94.34289	106.3125
98.71396	111.4125
103.08183	114.5125
107.4465	118.0125
111.80798	116.3125
116.16626	124.9125
120.52136	134.5125
124.87327	142.6125
129.222	151.9125
133.56755	167.0125
137.90993	180.3125
142.24913	195.3125
146.58517	228.7125
150.91804	272.4125
155.24774	329.6125
159.57429	416.8125
163.89768	541.8125
168.21792	729.6125
172.53501	1003.5125
176.84895	1398.3125
181.15975	1967.4125
185.46741	2770.4125
189.77193	3814.3125
194.07331	5094.9125
198.37157	6540.2125
202.6667	8098.8125
206.9587	9596.1125
211.24758	11106.2125
215.53334	12575.5125
219.81599	14145.3125
224.09553	15848.6125
228.37195	17760.2125
232.64527	19850.8125
236.91549	21960.3125
241.18261	24094.5125
245.44663	26139.3125
249.70755	27969.0125
253.96539	29556.9125
258.22014	30891.2125
262.4718	32013.3125
266.72039	32707.5125
270.96589	33195.0125
275.20832	33272.4125
279.44768	33194.2125
283.68397	32968.6125
287.91719	32860.7125
292.14735	32801.6125
296.37445	32910.8125
300.59849	33035.4125
304.81948	33208.7125
309.03742	33168.8125
313.25231	32869.2125
317.46415	32254.4125
321.67296	31390.9125
325.87872	30676.8125
330.08145	30226.6125
334.28114	30124.9125
338.47781	30214.7125
342.67145	30504.4125
346.86207	30902.7125
351.04966	31320.2125
355.23424	31806.7125
359.4158	32260.4125
363.59435	32580.1125
367.76989	32811.5125
371.94243	32914.2125
376.11196	32949.4125
380.27849	32942.3125
384.44203	33015.3125
388.60257	33209.6125
392.76012	33752.6125
396.91468	34304.9125
401.06626	34947.2125
405.21485	35270.5125
409.36047	35079.9125
413.50311	34645.9125
417.64277	34522.3125
421.77947	34790.8125
425.9132	35001.0125
430.04396	35211.7125
434.17176	35331.7125
438.2966	35421.6125
442.41849	35906.3125
446.53742	36775.5125
450.6534	37849.2125
454.76644	38561.1125
458.87653	38795.9125
462.98368	38737.8125
467.08789	38377.4125
471.18916	37900.9125
475.2875	37537.2125
479.38291	37515.1125
483.4754	37574.5125
487.56496	37153.0125
491.6516	36380.9125
495.73531	35445.3125
499.81612	34763.5125
503.89401	34730.6125
507.96899	34919.1125
512.04106	34947.1125
516.11023	34630.2125
520.1765	34121.5125
524.23987	33474.0125
528.30034	32918.9125
532.35792	32505.2125
536.41261	32147.1125
540.46441	31848.7125
544.51333	31867.2125
548.55936	32372.8125
552.60252	33235.6125
556.64279	34198.9125
560.6802	35040.9125
564.71473	35764.1125
568.7464	36853.7125
572.7752	38651.1125
576.80114	40712.7125
580.82422	42525.1125
584.84444	44239.9125
588.86181	46420.4125
592.87633	48094.4125
596.888	47198.8125
600.89682	44140.5125
604.9028	42295.7125
608.90594	43073.8125
612.90624	44137.4125
616.90371	40918.5125
620.89834	35221.0125
624.89015	32835.3125
628.87913	32708.0125
632.86528	33152.6125
636.84862	33050.4125
640.82913	32307.1125
644.80683	31434.6125
648.78172	30871.1125
652.75379	30810.9125
656.72306	31070.8125
660.68952	31363.4125
664.65319	31196.0125
668.61405	30669.4125
672.57211	30541.1125
676.52738	30682.6125
680.47986	30695.4125
684.42955	30469.5125
688.37646	30314.8125
692.32058	30545.6125
696.26192	30970.3125
700.20048	31509.1125
704.13626	31891.2125
708.06928	32095.0125
711.99952	32135.3125
715.927	32075.1125
719.85171	32104.5125
723.77365	31777.0125
727.69284	31112.3125
731.60928	30581.6125
735.52295	30306.6125
739.43388	30251.9125
743.34206	30294.4125
747.24749	30580.2125
751.15017	31041.9125
755.05012	31818.0125
758.94733	32941.9125
762.8418	34611.8125
766.73354	36929.1125
770.62254	38728.4125
774.50882	38521.9125
778.39237	36494.7125
782.27321	34034.8125
786.15132	32208.1125
790.02671	30951.5125
793.89938	30348.2125
797.76935	29993.9125
801.6366	29911.3125
805.50115	29814.0125
809.36299	29683.9125
813.22213	29549.3125
817.07857	29489.5125
820.93231	29369.8125
824.78336	29150.3125
828.63172	28821.3125
832.47738	28603.4125
836.32036	28499.8125
840.16066	28533.2125
843.99827	28623.8125
847.8332	28584.0125
851.66546	28575.6125
855.49504	28651.8125
859.32195	28619.7125
863.1462	28499.7125
866.96777	28389.8125
870.78668	28289.0125
874.60293	28248.5125
878.41652	28229.0125
882.22745	28357.8125
886.03573	28358.3125
889.84136	28359.9125
893.64433	28308.6125
897.44466	28241.6125
901.24235	28178.0125
905.0374	28087.6125
908.8298	28090.1125
912.61957	28264.7125
916.40671	28717.6125
920.19121	29327.4125
923.97308	29791.6125
927.75233	29594.8125
931.52895	28975.9125
935.30295	28308.6125
939.07433	27611.1125
942.84309	27128.4125
946.60924	26895.4125
950.37278	26826.7125
954.13371	26838.8125
957.89203	26862.6125
961.64774	26887.4125
965.40086	26932.7125
969.15137	26847.0125
972.89929	26611.3125
976.64461	26387.6125
980.38733	26288.6125
984.12747	26284.9125
987.86502	26372.9125
991.59999	26487.4125
995.33237	26672.4125
999.06217	27088.2125
1002.78939	27658.6125
1006.51404	28227.5125
1010.23611	28777.0125
1013.95561	29215.0125
1017.67255	29261.5125
1021.38692	28963.0125
1025.09872	28432.8125
1028.80796	27995.7125
1032.51465	27910.2125
1036.21877	28031.9125
1039.92035	28230.2125
1043.61937	28317.4125
1047.31584	28394.5125
1051.00976	28409.5125
1054.70114	28568.8125
1058.38998	28925.6125
1062.07627	29330.7125
1065.76003	29913.7125
1069.44126	30436.6125
1073.11995	31044.5125
1076.79611	31464.6125
1080.46974	31612.2125
1084.14085	31730.0125
1087.80943	32103.6125
1091.47549	32592.5125
1095.13903	32837.5125
1098.80005	32374.6125
1102.45857	31428.4125
1106.11456	30389.2125
1109.76805	29928.7125
1113.41903	29802.8125
1117.06751	29950.4125
1120.71348	30258.2125
1124.35696	30564.5125
1127.99793	31006.5125
1131.63641	31349.1125
1135.2724	31399.9125
1138.90589	31507.8125
1142.5369	31830.9125
1146.16542	32323.1125
1149.79145	32954.8125
1153.415	33630.3125
1157.03607	34475.4125
1160.65467	35959.4125
1164.27079	38185.8125
1167.88443	40686.8125
1171.49561	43044.7125
1175.10432	45669.6125
1178.71056	48854.7125
1182.31434	51839.6125
1185.91565	53234.6125
1189.51451	52976.8125
1193.11091	51868.1125
1196.70485	50230.3125
1200.29634	48505.5125
1203.88538	47535.7125
1207.47197	47614.2125
1211.05612	47891.5125
1214.63782	47291.7125
1218.21708	45390.0125
1221.79391	43082.7125
1225.36829	41263.9125
1228.94024	40198.8125
1232.50976	39432.6125
1236.07685	38834.4125
1239.6415	38511.5125
1243.20374	38560.1125
1246.76355	38875.1125
1250.32093	39547.9125
1253.8759	40525.6125
1257.42845	41746.3125
1260.97859	43169.2125
1264.52631	44606.3125
1268.07163	46005.2125
1271.61453	47553.2125
1275.15503	49149.0125
1278.69312	51130.6125
1282.22882	53421.0125
1285.76211	56196.4125
1289.29301	59413.3125
1292.82151	63223.8125
1296.34761	67745.6125
1299.87133	72611.1125
1303.39266	76983.4125
1306.9116	80032.7125
1310.42815	81600.7125
1313.94233	81811.2125
1317.45412	81046.5125
1320.96354	80149.1125
1324.47058	79933.5125
1327.97525	80271.6125
1331.47754	80391.7125
1334.97747	80015.5125
1338.47502	78903.0125
1341.97022	77515.2125
1345.46305	75725.1125
1348.95352	73862.0125
1352.44163	72544.3125
1355.92738	72500.8125
1359.41078	73907.1125
1362.89183	75124.7125
1366.37053	74073.0125
1369.84688	69299.4125
1373.32088	62344.4125
1376.79254	57409.9125
1380.26186	56072.8125
1383.72883	57105.0125
1387.19347	58103.9125
1390.65578	57996.8125
1394.11575	57972.4125
1397.57339	58793.8125
1401.0287	60083.4125
1404.48168	60857.5125
1407.93234	60392.8125
1411.38068	58074.8125
1414.82669	54963.3125
1418.27039	51508.2125
1421.71177	48395.7125
1425.15083	46136.9125
1428.58758	45135.8125
1432.02203	45803.0125
1435.45416	47556.5125
1438.88399	49695.4125
1442.31151	51293.1125
1445.73673	52333.7125
1449.15965	53058.9125
1452.58027	53478.9125
1455.9986	53607.1125
1459.41463	53860.3125
1462.82837	54470.5125
1466.23982	55251.0125
1469.64898	56106.1125
1473.05586	56395.3125
1476.46045	56199.8125
1479.86276	55433.6125
1483.26279	54690.8125
1486.66054	54276.0125
1490.05602	54327.5125
1493.44922	54804.2125
1496.84016	55367.0125
1500.22882	56110.3125
1503.61521	57066.2125
1506.99934	58168.1125
1510.38121	59072.7125
1513.76081	59474.5125
1517.13816	59285.8125
1520.51324	59144.8125
1523.88607	59492.2125
1527.25665	60391.2125
1530.62498	61014.8125
1533.99105	60779.9125
1537.35488	59633.9125
1540.71647	57520.3125
1544.07581	54951.9125
1547.4329	52413.7125
1550.78776	50474.5125
1554.14038	49102.3125
1557.49077	48294.1125
1560.83892	47845.0125
1564.18484	47541.6125
1567.52853	47601.1125
1570.86999	48256.0125
1574.20922	49792.4125
1577.54624	51427.1125
1580.88103	52771.4125
1584.2136	54243.5125
1587.54395	56790.5125
1590.87208	60171.4125
1594.19801	63763.8125
1597.52172	66211.1125
1600.84321	65651.2125
1604.16251	61281.6125
1607.47959	55145.6125
1610.79447	49280.0125
1614.10715	44386.9125
1617.41763	40549.3125
1620.7259	38006.9125
1624.03199	36816.5125
1627.33587	37011.8125
1630.63757	38599.9125
1633.93707	42153.5125
1637.23439	47983.5125
1640.52951	56208.1125
1643.82246	65876.3125
1647.11321	73443.6125
1650.40179	74365.7125
1653.68819	67826.4125
1656.97241	57089.7125
1660.25446	46798.0125
1663.53433	39085.0125
1666.81203	34025.8125
1670.08756	30917.4125
1673.36092	28929.3125
1676.63211	27661.5125
1679.90115	26773.6125
1683.16801	26181.8125
1686.43272	25675.8125
1689.69527	25287.4125
1692.95567	25043.2125
1696.2139	24825.6125
1699.46999	24663.3125
1702.72392	24498.9125
1705.97571	24360.6125
1709.22535	24225.1125
1712.47284	24179.3125
1715.71819	24085.1125
1718.96139	24003.8125
1722.20246	23866.9125
1725.44139	23699.0125
1728.67818	23523.3125
1731.91284	23326.2125
1735.14537	23107.6125
1738.37576	23038.2125
1741.60403	22854.0125
1744.83017	22746.4125
1748.05418	22700.7125
1751.27607	22633.5125
1754.49584	22580.9125
1757.71349	22568.5125
1760.92903	22550.2125
1764.14244	22477.8125
1767.35375	22461.3125
1770.56294	22416.3125
1773.77002	22293.1125
1776.97499	22218.3125
1780.17785	22147.3125
1783.37861	22110.4125
1786.57727	22051.3125
1789.77382	22005.6125
1792.96828	21970.2125
1796.16064	21908.5125
1799.3509	21854.2125
1802.53907	21776.3125
1805.72514	21703.1125
1808.90913	21593.1125
1812.09102	21547.9125
1815.27083	21480.4125
1818.44856	21453.2125
1821.6242	21404.9125
1824.79776	21397.9125
1827.96924	21407.0125
1831.13864	21377.7125
1834.30597	21367.1125
1837.47122	21365.0125
1840.6344	21382.0125
1843.7955	21375.2125
1846.95454	21325.3125
1850.11151	21339.9125
1853.26642	21317.8125
1856.41926	21275.5125
1859.57004	21238.7125
1862.71876	21234.8125
1865.86542	21169.8125
1869.01003	21097.7125
1872.15258	21092.1125
1875.29308	21012.6125
1878.43152	20994.0125
1881.56792	20947.0125
1884.70227	20916.4125
1887.83457	20875.0125
1890.96482	20829.7125
1894.09304	20793.3125
1897.21921	20783.5125
1900.34335	20761.0125
1903.46544	20701.1125
1906.58551	20695.0125
1909.70353	20645.2125
1912.81953	20586.7125
1915.93349	20529.4125
1919.04543	20495.4125
1922.15534	20387.7125
1925.26322	20355.4125
1928.36908	20293.2125
1931.47292	20237.3125
1934.57473	20168.0125
1937.67453	20122.7125
1940.77232	20013.6125
1943.86808	19960.7125
1946.96184	19931.3125
1950.05358	19899.2125
1953.14331	19839.5125
1956.23103	19767.4125
1959.31675	19662.2125
1962.40046	19599.0125
1965.48217	19533.0125
1968.56188	19448.0125
1971.63959	19394.6125
1974.7153	19349.1125
1977.78901	19273.6125
1980.86073	19170.7125
1983.93046	19107.6125
1986.99819	19050.9125
1990.06394	19014.9125
1993.1277	18974.0125
1996.18947	18918.8125
1999.24925	18840.0125
2002.30706	18801.4125
2005.36288	18735.3125
2008.41672	18663.5125
2011.46859	18604.7125
2014.51848	18546.7125
2017.56639	18486.3125
2020.61233	18418.7125
2023.6563	18383.0125
2026.6983	18337.6125
2029.73833	18287.6125
2032.7764	18229.8125
2035.8125	18181.0125
2038.84664	18130.8125
2041.87881	18084.1125
2044.90903	18088.4125
2047.93729	18000.4125
2050.96359	18020.3125
2053.98794	17967.2125
2057.01034	17953.9125
2060.03078	17937.3125
2063.04927	17909.0125
2066.06582	17894.8125
2069.08042	17891.8125
2072.09307	17863.5125
2075.10378	17816.8125
2078.11255	17799.4125
2081.11938	17821.0125
2084.12426	17816.7125
2087.12722	17810.3125
2090.12824	17744.0125
2093.12732	17745.5125
2096.12447	17753.8125
2099.11969	17762.5125
2102.11299	17766.0125
2105.10435	17733.9125
2108.09379	17730.9125
2111.08131	17770.8125
2114.0669	17757.3125
2117.05057	17783.7125
2120.03233	17773.7125
2123.01216	17778.5125
2125.99008	17774.8125
2128.96609	17793.2125
2131.94018	17765.6125
2134.91236	17763.5125
2137.88263	17757.5125
2140.851	17788.7125
2143.81746	17777.7125
2146.78201	17735.6125
2149.74466	17692.6125
2152.7054	17669.0125
2155.66425	17683.7125
2158.6212	17680.2125
2161.57625	17618.7125
2164.52941	17636.6125
2167.48067	17611.7125
2170.43004	17618.0125
2173.37752	17581.3125
2176.32311	17594.4125
2179.26681	17599.1125
2182.20863	17559.3125
2185.14856	17612.5125
2188.08661	17617.7125
2191.02278	17622.5125
2193.95707	17622.3125
2196.88948	17537.1125
2199.82001	17510.2125
2202.74867	17439.1125
2205.67545	17459.5125
2208.60037	17421.3125
2211.52341	17379.4125
2214.44458	17362.1125
2217.36388	17344.7125
2220.28132	17264.8125
2223.1969	17266.3125
2226.11061	17237.3125
2229.02246	17157.5125
2231.93245	17128.8125
2234.84058	17126.9125
2237.74686	17120.0125
2240.65128	17094.4125
2243.55385	17049.0125
2246.45456	17032.7125
2249.35343	16969.1125
2252.25044	16937.8125
2255.14561	16857.0125
2258.03893	16814.8125
2260.93041	16753.3125
2263.82004	16716.4125
2266.70783	16664.7125
2269.59378	16611.0125
2272.4779	16568.5125
2275.36017	16515.7125
2278.24061	16474.6125
2281.11922	16447.1125
2283.996	16431.9125
2286.87094	16416.6125
2289.74405	16369.7125
2292.61534	16347.7125
2295.4848	16337.0125
2298.35243	16331.8125
2301.21824	16341.1125
2304.08223	16300.6125
2306.94439	16300.3125
2309.80474	16273.7125
2312.66327	16286.8125
2315.51999	16235.2125
2318.37489	16235.0125
2321.22797	16156.5125
2324.07925	16171.4125
2326.92871	16146.2125
2329.77637	16105.6125
2332.62222	16100.9125
2335.46626	16084.3125
2338.3085	16077.3125
2341.14893	16036.6125
2343.98756	16082.5125
2346.8244	16050.2125
2349.65943	16037.1125
2352.49267	16033.6125
2355.32411	16051.6125
2358.15376	16037.6125
2360.98161	16036.8125
2363.80768	16020.9125
2366.63195	16016.8125
2369.45444	15998.3125
2372.27514	15956.2125
2375.09405	15936.5125
2377.91118	15907.9125
2380.72652	15868.2125
2383.54009	15817.5125
2386.35187	15813.1125
2389.16188	15767.4125
2391.97011	15709.5125
2394.77657	15714.0125
2397.58125	15676.1125
2400.38416	15674.6125
2403.18529	15645.7125
2405.98466	15592.5125
2408.78226	15605.0125
2411.57809	15565.7125
2414.37216	15564.1125
2417.16446	15577.6125
2419.955	15536.1125
2422.74378	15484.5125
2425.5308	15457.1125
2428.31606	15463.1125
2431.09956	15474.4125
2433.88131	15440.2125
2436.6613	15463.1125
2439.43954	15451.4125
2442.21603	15418.3125
2444.99077	15396.4125
2447.76377	15420.0125
2450.53501	15418.8125
2453.30451	15397.4125
2456.07226	15355.7125
2458.83827	15386.9125
2461.60254	15357.2125
2464.36507	15358.6125
2467.12586	15324.7125
2469.88492	15329.6125
2472.64224	15376.8125
2475.39782	15366.7125
2478.15167	15383.4125
2480.90379	15354.5125
2483.65417	15369.3125
2486.40283	15381.0125
2489.14976	15409.8125
2491.89497	15350.4125
2494.63845	15377.5125
2497.3802	15357.1125
2500.12024	15349.6125
2502.85855	15371.4125
2505.59514	15342.8125
2508.33002	15316.7125
2511.06318	15349.5125
2513.79462	15296.9125
2516.52435	15302.8125
2519.25237	15310.9125
2521.97867	15258.6125
2524.70327	15256.5125
2527.42616	15251.3125
2530.14734	15249.7125
2532.86681	15228.1125
2535.58458	15230.7125
2538.30065	15235.9125
2541.01501	15208.7125
2543.72768	15212.0125
2546.43864	15184.3125
2549.14791	15155.9125
2551.85548	15160.6125
2554.56136	15133.9125
2557.26554	15097.5125
2559.96803	15100.7125
2562.66883	15082.5125
2565.36794	15064.0125
2568.06536	15020.6125
2570.7611	15063.4125
2573.45514	15051.9125
2576.14751	15031.2125
2578.83819	14988.5125
2581.52719	14993.1125
2584.21451	14993.2125
2586.90015	14975.1125
2589.58411	14985.9125
2592.2664	15019.5125
2594.94701	14962.5125
2597.62594	15005.0125
2600.30321	14956.4125
2602.9788	14968.9125
2605.65273	14970.2125
2608.32498	14998.7125
2610.99557	15003.5125
2613.66449	14988.8125
2616.33175	14956.4125
2618.99734	14966.8125
2621.66128	14933.4125
2624.32355	14918.1125
2626.98416	14909.6125
2629.64311	14936.3125
2632.30041	14940.5125
2634.95605	14917.2125
2637.61004	14893.2125
2640.26238	14897.5125
2642.91306	14862.7125
2645.56209	14865.3125
2648.20948	14903.2125
2650.85521	14933.4125
2653.4993	14927.7125
2656.14175	14912.0125
2658.78255	14945.4125
2661.42171	14950.2125
2664.05923	14977.4125
2666.6951	14975.1125
2669.32934	15016.2125
2671.96194	15010.1125
2674.59291	14957.5125
2677.22224	15010.4125
2679.84993	14986.7125
2682.476	14993.8125
2685.10043	14997.7125
2687.72324	14967.6125
2690.34441	14943.4125
2692.96396	14933.3125
2695.58188	14989.4125
2698.19818	14948.4125
2700.81285	14967.3125
2703.4259	14990.8125
2706.03733	15016.2125
2708.64714	14980.6125
2711.25533	14976.6125
2713.86191	15008.7125
2716.46687	15024.7125
2719.07021	15013.5125
2721.67194	15072.6125
2724.27206	15044.4125
2726.87057	15065.3125
2729.46747	15102.1125
2732.06276	15117.4125
2734.65644	15112.6125
2737.24852	15075.7125
2739.83899	15077.8125
2742.42786	15054.7125
2745.01513	15051.8125
2747.60079	15051.5125
2750.18486	15048.5125
2752.76733	15044.6125
2755.3482	15011.4125
2757.92747	15045.7125
2760.50515	15027.7125
2763.08123	15025.7125
2765.65573	15008.3125
2768.22863	14998.8125
2770.79994	15005.2125
2773.36967	14987.1125
2775.9378	14999.2125
2778.50435	14988.1125
2781.06932	14997.6125
2783.6327	15002.2125
2786.1945	15010.4125
2788.75471	15043.2125
2791.31335	14973.9125
2793.87041	14952.9125
2796.42589	14930.7125
2798.97979	14925.5125
2801.53212	14892.1125
2804.08288	14906.3125
2806.63206	14821.2125
2809.17967	14796.4125
2811.72571	14802.0125
2814.27018	14776.8125
2816.81308	14740.3125
2819.35442	14679.5125
2821.89419	14649.3125
2824.43239	14725.7125
2826.96904	14706.3125
2829.50412	14669.6125
2832.03763	14628.7125
2834.56959	14623.1125
2837.1	14606.2125
2839.62884	14593.2125
2842.15613	14571.7125
2844.68186	14637.9125
2847.20604	14645.9125
2849.72867	14684.7125
2852.24974	14652.4125
2854.76927	14631.1125
2857.28724	14629.6125
2859.80367	14633.7125
2862.31855	14579.3125
2864.83189	14550.0125
2867.34368	14549.8125
2869.85393	14503.0125
2872.36264	14477.1125
2874.8698	14464.0125
2877.37543	14434.6125
2879.87952	14444.9125
2882.38207	14402.4125
2884.88308	14436.7125
2887.38256	14414.2125
2889.88051	14417.4125
2892.37692	14448.8125
2894.8718	14456.3125
2897.36515	14472.9125
2899.85698	14461.8125
2902.34727	14472.2125
2904.83604	14480.4125
2907.32328	14530.0125
2909.809	14519.8125
2912.29319	14525.1125
2914.77587	14537.0125
2917.25702	14533.2125
2919.73665	14522.1125
2922.21476	14523.1125
2924.69136	14500.0125
2927.16644	14507.9125
2929.64	14478.2125
2932.11205	14437.9125
2934.58258	14415.7125
2937.05161	14454.7125
2939.51912	14404.3125
2941.98513	14407.8125
2944.44962	14406.1125
2946.91261	14311.8125
2949.37409	14316.7125
2951.83407	14285.3125
2954.29254	14268.9125
2956.74951	14251.2125
2959.20498	14224.2125
2961.65895	14200.5125
2964.11142	14224.7125
2966.56239	14161.1125
2969.01186	14162.2125
2971.45984	14149.6125
2973.90632	14139.7125
2976.35131	14095.2125
2978.7948	14073.3125
2981.23681	14033.2125
2983.67732	13968.1125
2986.11635	13951.8125
2988.55388	13897.0125
2990.98993	13856.0125
2993.4245	13791.8125
2995.85758	13708.3125
2998.28917	13727.6125
3000.71928	13688.6125
3003.14791	13682.2125
3005.57506	13648.5125
3008.00073	13568.5125
3010.42493	13456.7125
3012.84764	13497.1125
3015.26888	13501.1125
3017.68865	13452.6125
3020.10694	13438.6125
3022.52376	13416.2125
