Data from AgNPs_FTO_APTES_UA_5uM_CRN_5uM_R6G_10uM_NaF_0.1M_Addition_RamanShift__15__12-02-16-686.txt Node

Date: Mon Feb 07 12:02:16 GMT 2022
User: TCL
Spectrometer: QEP01345
Trigger mode: 4
Integration Time (sec): 7.000000E0
Scans to average: 10
Electric dark correction enabled: true
Nonlinearity correction enabled: false
Boxcar width: 0
XAxis mode: Raman Shifts
Number of Pixels in Spectrum: 1044
>>>>>Begin Spectral Data<<<<<
46.04893	-1.05
50.45542	-0.85
54.85868	-2.15
59.25871	0.95
63.6555	95.55
68.04907	98.55
72.43941	108.55
76.82654	111.15
81.21044	114.95
85.59113	119.55
89.96862	123.15
94.34289	124.05
98.71396	127.35
103.08183	136.25
107.4465	136.55
111.80798	143.85
116.16626	147.25
120.52136	153.65
124.87327	162.55
129.222	171.75
133.56755	180.75
137.90993	200.55
142.24913	216.85
146.58517	252.65
150.91804	291.05
155.24774	360.35
159.57429	443.35
163.89768	580.65
168.21792	769.05
172.53501	1058.55
176.84895	1490.75
181.15975	2091.75
185.46741	2942.15
189.77193	4062.45
194.07331	5408.55
198.37157	6977.25
202.6667	8576.45
206.9587	10202.25
211.24758	11776.95
215.53334	13381.65
219.81599	15082.25
224.09553	16947.15
228.37195	19040.25
232.64527	21268.75
236.91549	23666.15
241.18261	26045.55
245.44663	28250.95
249.70755	30213.35
253.96539	31975.05
258.22014	33411.65
262.4718	34643.65
266.72039	35576.35
270.96589	36125.75
275.20832	36330.45
279.44768	36281.05
283.68397	36184.85
287.91719	36021.25
292.14735	36040.75
296.37445	36054.55
300.59849	36219.15
304.81948	36287.85
309.03742	36134.75
313.25231	35582.25
317.46415	34609.35
321.67296	33410.75
325.87872	32419.75
330.08145	31848.55
334.28114	31788.05
338.47781	31927.55
342.67145	32279.85
346.86207	32757.65
351.04966	33362.85
355.23424	33962.65
359.4158	34532.05
363.59435	34889.15
367.76989	35111.05
371.94243	35285.75
376.11196	35392.95
380.27849	35531.85
384.44203	35639.95
388.60257	35874.95
392.76012	36269.55
396.91468	36830.25
401.06626	37448.55
405.21485	37802.35
409.36047	37589.35
413.50311	37026.35
417.64277	36633.15
421.77947	36601.05
425.9132	36732.45
430.04396	36922.65
434.17176	37055.25
438.2966	37227.75
442.41849	37710.25
446.53742	38489.55
450.6534	39548.85
454.76644	40411.85
458.87653	40883.45
462.98368	40845.55
467.08789	40566.65
471.18916	40193.25
475.2875	39832.95
479.38291	39805.85
483.4754	39791.95
487.56496	39311.95
491.6516	38686.85
495.73531	37907.55
499.81612	37492.65
503.89401	37573.25
507.96899	37663.05
512.04106	37608.65
516.11023	37229.05
520.1765	36664.55
524.23987	36025.65
528.30034	35462.55
532.35792	34980.15
536.41261	34584.95
540.46441	34278.65
544.51333	34481.65
548.55936	35041.85
552.60252	36036.05
556.64279	37062.15
560.6802	37831.15
564.71473	38379.55
568.7464	39291.15
572.7752	40619.65
576.80114	41885.35
580.82422	42980.85
584.84444	43812.85
588.86181	44297.55
592.87633	44406.95
596.888	43826.95
600.89682	43102.75
604.9028	43804.05
608.90594	46832.95
612.90624	49879.85
616.90371	46504.95
620.89834	39012.95
624.89015	35693.05
628.87913	35387.85
632.86528	35620.35
636.84862	35668.25
640.82913	35101.25
644.80683	34128.05
648.78172	33345.65
652.75379	33116.85
656.72306	33428.85
660.68952	33986.25
664.65319	33839.45
668.61405	33309.15
672.57211	33092.35
676.52738	33231.25
680.47986	33137.05
684.42955	32918.75
688.37646	32781.35
692.32058	32960.45
696.26192	33395.35
700.20048	33808.55
704.13626	34171.35
708.06928	34271.25
711.99952	34060.55
715.927	34035.35
719.85171	34037.05
723.77365	33941.85
727.69284	33410.95
731.60928	32959.35
735.52295	32665.25
739.43388	32640.65
743.34206	32698.55
747.24749	32937.65
751.15017	33305.05
755.05012	34050.05
758.94733	35211.65
762.8418	37198.95
766.73354	40249.15
770.62254	42920.85
774.50882	43146.15
778.39237	40844.25
782.27321	37676.85
786.15132	35289.15
790.02671	33697.45
793.89938	32911.95
797.76935	32558.35
801.6366	32441.85
805.50115	32417.75
809.36299	32215.25
813.22213	31967.75
817.07857	31804.45
820.93231	31737.55
824.78336	31551.55
828.63172	31311.25
832.47738	31164.75
836.32036	31091.45
840.16066	31162.55
843.99827	31226.45
847.8332	31145.85
851.66546	31075.75
855.49504	31052.75
859.32195	31087.65
863.1462	30983.65
866.96777	30893.95
870.78668	30823.75
874.60293	30783.85
878.41652	30771.75
882.22745	30841.25
886.03573	30977.55
889.84136	30957.95
893.64433	30886.45
897.44466	30744.15
901.24235	30676.05
905.0374	30564.15
908.8298	30473.35
912.61957	30574.95
916.40671	30909.85
920.19121	31456.35
923.97308	31813.15
927.75233	31742.65
931.52895	31362.15
935.30295	30789.25
939.07433	30193.95
942.84309	29683.75
946.60924	29457.35
950.37278	29334.55
954.13371	29308.25
957.89203	29287.15
961.64774	29238.45
965.40086	29270.15
969.15137	29216.55
972.89929	29075.25
976.64461	28900.35
980.38733	28866.55
984.12747	28896.05
987.86502	29112.75
991.59999	29381.05
995.33237	29763.95
999.06217	30455.85
1002.78939	31222.85
1006.51404	31820.25
1010.23611	32300.45
1013.95561	32673.25
1017.67255	32716.15
1021.38692	32334.15
1025.09872	31848.25
1028.80796	31632.35
1032.51465	31960.05
1036.21877	32489.75
1039.92035	32622.25
1043.61937	32522.25
1047.31584	32152.55
1051.00976	31816.75
1054.70114	31762.15
1058.38998	32006.05
1062.07627	32425.45
1065.76003	32969.15
1069.44126	33418.95
1073.11995	33908.25
1076.79611	34368.65
1080.46974	34641.15
1084.14085	34839.75
1087.80943	35305.65
1091.47549	35781.55
1095.13903	35977.85
1098.80005	35628.45
1102.45857	34733.95
1106.11456	33835.75
1109.76805	33286.95
1113.41903	33197.45
1117.06751	33303.35
1120.71348	33624.25
1124.35696	33954.65
1127.99793	34435.75
1131.63641	34689.85
1135.2724	34696.15
1138.90589	34623.85
1142.5369	34656.95
1146.16542	34910.45
1149.79145	35302.05
1153.415	35794.55
1157.03607	36605.25
1160.65467	37902.45
1164.27079	39818.75
1167.88443	42338.35
1171.49561	45144.45
1175.10432	48515.75
1178.71056	52653.35
1182.31434	56566.45
1185.91565	58895.55
1189.51451	59338.95
1193.11091	58292.35
1196.70485	56129.55
1200.29634	53615.05
1203.88538	51644.95
1207.47197	50495.35
1211.05612	49695.45
1214.63782	48654.35
1218.21708	47210.65
1221.79391	45809.65
1225.36829	44741.85
1228.94024	43873.05
1232.50976	43034.15
1236.07685	42438.85
1239.6415	42179.75
1243.20374	42074.05
1246.76355	42376.55
1250.32093	43040.15
1253.8759	44068.85
1257.42845	45548.75
1260.97859	47032.05
1264.52631	48540.65
1268.07163	50098.45
1271.61453	51669.95
1275.15503	53425.45
1278.69312	55243.15
1282.22882	57000.25
1285.76211	58850.65
1289.29301	61180.15
1292.82151	64128.85
1296.34761	67789.05
1299.87133	72038.35
1303.39266	76437.65
1306.9116	80606.25
1310.42815	83767.95
1313.94233	85477.05
1317.45412	85460.85
1320.96354	84835.85
1324.47058	84528.35
1327.97525	84366.95
1331.47754	84359.25
1334.97747	84347.25
1338.47502	84108.35
1341.97022	83536.75
1345.46305	82395.45
1348.95352	80514.75
1352.44163	78429.65
1355.92738	77272.65
1359.41078	78075.65
1362.89183	79257.85
1366.37053	77652.35
1369.84688	72400.25
1373.32088	65723.55
1376.79254	61039.05
1380.26186	59269.95
1383.72883	59478.35
1387.19347	59933.85
1390.65578	59853.75
1394.11575	60000.85
1397.57339	60693.25
1401.0287	61816.55
1404.48168	62660.15
1407.93234	62549.85
1411.38068	61038.85
1414.82669	58445.45
1418.27039	55324.95
1421.71177	52304.05
1425.15083	49969.85
1428.58758	48887.85
1432.02203	49147.55
1435.45416	50571.55
1438.88399	52409.85
1442.31151	53971.65
1445.73673	55149.25
1449.15965	56176.25
1452.58027	56898.05
1455.9986	57364.55
1459.41463	57876.75
1462.82837	58705.55
1466.23982	59581.65
1469.64898	60359.55
1473.05586	60518.05
1476.46045	60097.35
1479.86276	59351.75
1483.26279	58385.75
1486.66054	57873.65
1490.05602	57954.95
1493.44922	58396.95
1496.84016	59062.15
1500.22882	60280.25
1503.61521	62076.75
1506.99934	64238.55
1510.38121	65997.95
1513.76081	66512.75
1517.13816	65655.45
1520.51324	63959.55
1523.88607	62525.95
1527.25665	61880.75
1530.62498	61706.05
1533.99105	61573.55
1537.35488	61036.15
1540.71647	59853.65
1544.07581	58081.25
1547.4329	56224.75
1550.78776	54734.75
1554.14038	53687.05
1557.49077	53164.55
1560.83892	52860.35
1564.18484	52739.35
1567.52853	52843.55
1570.86999	53292.35
1574.20922	54315.95
1577.54624	55336.35
1580.88103	55986.25
1584.2136	56758.95
1587.54395	58626.75
1590.87208	61514.45
1594.19801	65011.05
1597.52172	68022.55
1600.84321	68286.95
1604.16251	64830.75
1607.47959	59437.75
1610.79447	54116.45
1614.10715	49045.95
1617.41763	44834.65
1620.7259	41730.25
1624.03199	40127.65
1627.33587	39922.25
1630.63757	41208.25
1633.93707	44355.45
1637.23439	49551.25
1640.52951	56697.75
1643.82246	64537.75
1647.11321	70453.15
1650.40179	71182.35
1653.68819	66008.95
1656.97241	57029.25
1660.25446	47963.55
1663.53433	40927.35
1666.81203	36172.45
1670.08756	33108.35
1673.36092	31233.05
1676.63211	29980.65
1679.90115	29127.25
1683.16801	28483.65
1686.43272	28022.65
1689.69527	27659.55
1692.95567	27350.55
1696.2139	27105.45
1699.46999	26950.25
1702.72392	26825.65
1705.97571	26702.25
1709.22535	26609.45
1712.47284	26542.75
1715.71819	26467.65
1718.96139	26399.15
1722.20246	26283.45
1725.44139	26127.95
1728.67818	25908.85
1731.91284	25684.85
1735.14537	25550.05
1738.37576	25401.95
1741.60403	25276.55
1744.83017	25164.75
1748.05418	25046.15
1751.27607	25047.25
1754.49584	24940.45
1757.71349	24900.25
1760.92903	24871.85
1764.14244	24809.95
1767.35375	24783.75
1770.56294	24706.55
1773.77002	24638.65
1776.97499	24564.95
1780.17785	24530.75
1783.37861	24436.75
1786.57727	24426.55
1789.77382	24341.85
1792.96828	24313.45
1796.16064	24236.95
1799.3509	24208.95
1802.53907	24146.55
1805.72514	24057.75
1808.90913	24003.65
1812.09102	23930.45
1815.27083	23898.55
1818.44856	23848.15
1821.6242	23797.95
1824.79776	23782.25
1827.96924	23786.65
1831.13864	23741.15
1834.30597	23796.35
1837.47122	23804.85
1840.6344	23785.45
1843.7955	23823.25
1846.95454	23848.45
1850.11151	23813.35
1853.26642	23801.25
1856.41926	23769.15
1859.57004	23725.65
1862.71876	23741.95
1865.86542	23678.05
1869.01003	23621.25
1872.15258	23564.15
1875.29308	23566.25
1878.43152	23531.85
1881.56792	23492.15
1884.70227	23468.95
1887.83457	23447.25
1890.96482	23343.55
1894.09304	23353.75
1897.21921	23271.45
1900.34335	23258.65
1903.46544	23246.45
1906.58551	23198.35
1909.70353	23125.45
1912.81953	23058.35
1915.93349	23010.15
1919.04543	22965.05
1922.15534	22901.45
1925.26322	22816.85
1928.36908	22755.75
1931.47292	22705.35
1934.57473	22594.55
1937.67453	22547.45
1940.77232	22469.25
1943.86808	22366.15
1946.96184	22365.75
1950.05358	22238.75
1953.14331	22203.25
1956.23103	22101.35
1959.31675	22027.45
1962.40046	21940.95
1965.48217	21927.65
1968.56188	21821.55
1971.63959	21780.65
1974.7153	21690.95
1977.78901	21590.05
1980.86073	21506.45
1983.93046	21445.85
1986.99819	21364.55
1990.06394	21309.25
1993.1277	21272.65
1996.18947	21174.65
1999.24925	21139.05
2002.30706	21042.45
2005.36288	20951.35
2008.41672	20904.15
2011.46859	20871.75
2014.51848	20817.85
2017.56639	20764.05
2020.61233	20679.25
2023.6563	20623.95
2026.6983	20598.15
2029.73833	20533.35
2032.7764	20505.35
2035.8125	20411.45
2038.84664	20374.05
2041.87881	20353.85
2044.90903	20350.65
2047.93729	20262.25
2050.96359	20243.85
2053.98794	20230.05
2057.01034	20238.05
2060.03078	20208.25
2063.04927	20202.55
2066.06582	20203.35
2069.08042	20197.15
2072.09307	20130.95
2075.10378	20111.65
2078.11255	20089.15
2081.11938	20072.05
2084.12426	20062.75
2087.12722	20089.35
2090.12824	20015.55
2093.12732	20024.05
2096.12447	20013.75
2099.11969	20024.05
2102.11299	20062.95
2105.10435	20015.55
2108.09379	20011.85
2111.08131	20026.15
2114.0669	20044.25
2117.05057	20009.35
2120.03233	20039.55
2123.01216	20047.65
2125.99008	20083.05
2128.96609	20058.65
2131.94018	20081.05
2134.91236	20066.45
2137.88263	20101.15
2140.851	20109.45
2143.81746	20117.35
2146.78201	20083.05
2149.74466	20070.65
2152.7054	20087.05
2155.66425	20086.85
2158.6212	20032.55
2161.57625	20011.05
2164.52941	20014.95
2167.48067	20015.35
2170.43004	19973.25
2173.37752	19967.45
2176.32311	19946.55
2179.26681	19944.65
2182.20863	19932.65
2185.14856	19954.05
2188.08661	19966.75
2191.02278	19970.45
2193.95707	19979.25
2196.88948	19921.15
2199.82001	19890.95
2202.74867	19872.75
2205.67545	19847.05
2208.60037	19817.25
2211.52341	19785.55
2214.44458	19737.15
2217.36388	19739.55
2220.28132	19660.55
2223.1969	19638.75
2226.11061	19587.75
2229.02246	19557.45
2231.93245	19520.25
2234.84058	19482.55
2237.74686	19423.25
2240.65128	19398.75
2243.55385	19379.55
2246.45456	19328.55
2249.35343	19313.25
2252.25044	19258.15
2255.14561	19229.05
2258.03893	19225.65
2260.93041	19141.15
2263.82004	19098.25
2266.70783	19044.85
2269.59378	18963.15
2272.4779	18949.05
2275.36017	18858.45
2278.24061	18821.65
2281.11922	18811.75
2283.996	18762.55
2286.87094	18765.35
2289.74405	18706.75
2292.61534	18700.75
2295.4848	18670.65
2298.35243	18676.25
2301.21824	18699.45
2304.08223	18696.45
2306.94439	18691.35
2309.80474	18684.35
2312.66327	18685.25
2315.51999	18668.95
2318.37489	18629.65
2321.22797	18606.15
2324.07925	18600.75
2326.92871	18562.95
2329.77637	18544.65
2332.62222	18522.95
2335.46626	18470.35
2338.3085	18492.65
2341.14893	18476.55
2343.98756	18484.05
2346.8244	18505.95
2349.65943	18495.45
2352.49267	18487.85
2355.32411	18511.75
2358.15376	18498.05
2360.98161	18473.95
2363.80768	18447.75
2366.63195	18447.15
2369.45444	18455.75
2372.27514	18411.35
2375.09405	18367.55
2377.91118	18313.25
2380.72652	18278.05
2383.54009	18243.55
2386.35187	18219.75
2389.16188	18139.55
2391.97011	18135.25
2394.77657	18111.15
2397.58125	18069.05
2400.38416	18042.15
2403.18529	18005.55
2405.98466	17985.25
2408.78226	17969.95
2411.57809	17914.55
2414.37216	17920.65
2417.16446	17898.85
2419.955	17877.85
2422.74378	17850.95
2425.5308	17832.85
2428.31606	17825.25
2431.09956	17805.05
2433.88131	17815.65
2436.6613	17834.55
2439.43954	17811.65
2442.21603	17793.55
2444.99077	17789.45
2447.76377	17807.95
2450.53501	17788.55
2453.30451	17777.55
2456.07226	17721.35
2458.83827	17749.25
2461.60254	17758.85
2464.36507	17729.15
2467.12586	17712.05
2469.88492	17706.05
2472.64224	17698.35
2475.39782	17782.25
2478.15167	17755.55
2480.90379	17758.15
2483.65417	17775.25
2486.40283	17804.35
2489.14976	17778.75
2491.89497	17786.95
2494.63845	17783.15
2497.3802	17788.65
2500.12024	17789.75
2502.85855	17791.05
2505.59514	17771.95
2508.33002	17723.55
2511.06318	17773.25
2513.79462	17716.05
2516.52435	17719.85
2519.25237	17729.35
2521.97867	17719.35
2524.70327	17686.15
2527.42616	17648.55
2530.14734	17645.75
2532.86681	17659.05
2535.58458	17662.15
2538.30065	17648.65
2541.01501	17635.75
2543.72768	17603.15
2546.43864	17582.65
2549.14791	17535.85
2551.85548	17583.35
2554.56136	17525.35
2557.26554	17517.05
2559.96803	17479.95
2562.66883	17475.55
2565.36794	17436.55
2568.06536	17417.45
2570.7611	17432.75
2573.45514	17423.95
2576.14751	17403.45
2578.83819	17364.45
2581.52719	17362.95
2584.21451	17360.55
2586.90015	17363.15
2589.58411	17368.15
2592.2664	17368.55
2594.94701	17329.55
2597.62594	17349.85
2600.30321	17298.15
2602.9788	17298.15
2605.65273	17304.75
2608.32498	17317.55
2610.99557	17317.15
2613.66449	17338.05
2616.33175	17279.85
2618.99734	17312.55
2621.66128	17316.35
2624.32355	17302.05
2626.98416	17283.95
2629.64311	17255.45
2632.30041	17316.75
2634.95605	17292.15
2637.61004	17290.85
2640.26238	17278.05
2642.91306	17243.05
2645.56209	17245.65
2648.20948	17251.65
2650.85521	17277.75
2653.4993	17288.75
2656.14175	17238.05
2658.78255	17277.85
2661.42171	17271.15
2664.05923	17295.85
2666.6951	17277.55
2669.32934	17320.95
2671.96194	17346.85
2674.59291	17347.05
2677.22224	17344.05
2679.84993	17355.55
2682.476	17321.65
2685.10043	17285.05
2687.72324	17273.15
2690.34441	17260.75
2692.96396	17277.45
2695.58188	17269.25
2698.19818	17251.85
2700.81285	17260.65
2703.4259	17274.35
2706.03733	17317.05
2708.64714	17256.75
2711.25533	17266.05
2713.86191	17251.15
2716.46687	17272.65
2719.07021	17289.95
2721.67194	17378.55
2724.27206	17351.45
2726.87057	17387.45
2729.46747	17374.35
2732.06276	17373.35
2734.65644	17395.95
2737.24852	17391.05
2739.83899	17344.15
2742.42786	17356.35
2745.01513	17366.25
2747.60079	17318.95
2750.18486	17315.45
2752.76733	17309.75
2755.3482	17268.65
2757.92747	17324.45
2760.50515	17289.65
2763.08123	17316.15
2765.65573	17303.65
2768.22863	17268.65
2770.79994	17290.45
2773.36967	17318.95
2775.9378	17269.35
2778.50435	17263.45
2781.06932	17270.15
2783.6327	17258.35
2786.1945	17259.75
2788.75471	17269.95
2791.31335	17239.45
2793.87041	17215.35
2796.42589	17161.35
2798.97979	17145.45
2801.53212	17123.55
2804.08288	17095.45
2806.63206	17040.15
2809.17967	17029.95
2811.72571	16980.25
2814.27018	16982.25
2816.81308	16917.95
2819.35442	16884.15
2821.89419	16810.45
2824.43239	16871.35
2826.96904	16859.75
2829.50412	16865.75
2832.03763	16802.05
2834.56959	16796.55
2837.1	16772.55
2839.62884	16751.75
2842.15613	16739.45
2844.68186	16756.75
2847.20604	16787.25
2849.72867	16782.95
2852.24974	16777.55
2854.76927	16789.05
2857.28724	16811.65
2859.80367	16756.25
2862.31855	16760.35
2864.83189	16685.05
2867.34368	16674.25
2869.85393	16686.75
2872.36264	16655.45
2874.8698	16630.75
2877.37543	16612.75
2879.87952	16618.05
2882.38207	16621.65
2884.88308	16604.85
2887.38256	16598.85
2889.88051	16601.55
2892.37692	16601.85
2894.8718	16629.05
2897.36515	16667.75
2899.85698	16670.75
2902.34727	16698.35
2904.83604	16725.25
2907.32328	16773.75
2909.809	16735.25
2912.29319	16745.25
2914.77587	16759.75
2917.25702	16765.45
2919.73665	16766.55
2922.21476	16709.15
2924.69136	16721.45
2927.16644	16714.35
2929.64	16668.25
2932.11205	16673.95
2934.58258	16610.75
2937.05161	16613.15
2939.51912	16582.45
2941.98513	16584.25
2944.44962	16541.35
2946.91261	16469.35
2949.37409	16465.55
2951.83407	16458.85
2954.29254	16414.25
2956.74951	16421.55
2959.20498	16406.65
2961.65895	16387.05
2964.11142	16373.15
2966.56239	16330.35
2969.01186	16320.15
2971.45984	16279.45
2973.90632	16269.05
2976.35131	16231.95
2978.7948	16195.15
2981.23681	16152.65
2983.67732	16114.25
2986.11635	16083.15
2988.55388	16058.75
2990.98993	16006.15
2993.4245	15943.35
2995.85758	15925.45
2998.28917	15839.45
3000.71928	15827.25
3003.14791	15761.05
3005.57506	15763.75
3008.00073	15718.25
3010.42493	15701.85
3012.84764	15647.65
3015.26888	15653.95
3017.68865	15592.55
3020.10694	15608.65
3022.52376	15534.35
3024.9391	15547.55
3027.35298	15499.95
3029.76539	15493.85
3032.17632	15483.65
3034.5858	15455.35
3036.9938	15452.25
3039.40034	15441.25
3041.80542	15454.45
3044.20903	15426.85
3046.61118	15401.65
3049.01187	15355.85
3051.4111	15377.35
3053.80888	15308.65
3056.20519	15267.05
3058.60005	15242.85
3060.99345	15174.35
3063.3854	15128.75
3065.7759	15080.25
3068.16494	15032.45
3070.55254	14986.65
3072.93868	14926.65
3075.32338	14891.65
3077.70662	14861.65
3080.08842	14817.15
3082.46878	14815.45
3084.84769	14773.65
3087.22515	14738.85
3089.60118	14741.55
3091.97576	14730.45
3094.3489	14699.25
3096.72061	14710.95
3099.09087	14718.85
3101.4597	14685.45
3103.82709	14680.25
3106.19305	14665.95
3108.55757	14640.75
3110.92066	14585.45
3113.28232	14593.05
3115.64255	14507.05
3118.00134	14500.85
3120.35871	14458.35
3122.71466	14441.95
3125.06917	14377.05
3127.42226	14321.45
3129.77393	14318.05
3132.12417	14259.55
3134.47299	14270.45
3136.82039	14298.15
3139.16636	14252.25
3141.51092	14241.95
3143.85406	14252.85
3146.19579	14252.25
3148.53609	14244.15
3150.87499	14260.05
3153.21246	14192.15
3155.54853	14274.75
3157.88318	14242.15
3160.21642	14227.45
3162.54826	14249.85
3164.87868	14249.65
3167.2077	14224.05
3169.5353	14233.95
3171.86151	14217.85
3174.18631	14225.65
3176.5097	14199.05
3178.83169	14157.05
3181.15228	14171.85
3183.47147	14122.15
3185.78926	14144.75
3188.10565	14082.45
3190.42065	14068.85
3192.73424	14050.95
3195.04645	14033.85
3197.35725	14009.65
3199.66667	13979.75
3201.97469	14017.95
3204.28132	13974.25
3206.58656	13973.45
3208.8904	13997.55
3211.19287	13993.95
3213.49394	13982.35
3215.79363	14011.95
3218.09193	13982.15
3220.38884	13955.55
3222.68438	13965.15
3224.97853	13963.35
3227.2713	13912.45
3229.56269	13942.85
3231.8527	13938.35
3234.14133	13886.85
3236.42858	13879.85
