Data from AgNPs_FTO_APTES_UA_5uM_CRN_2uM_R6G_10uM_NaF_0.1M_Addition_RamanShift__13__11-12-06-628.txt Node

Date: Mon Feb 07 11:12:06 GMT 2022
User: TCL
Spectrometer: QEP01345
Trigger mode: 4
Integration Time (sec): 7.000000E0
Scans to average: 10
Electric dark correction enabled: true
Nonlinearity correction enabled: false
Boxcar width: 0
XAxis mode: Raman Shifts
Number of Pixels in Spectrum: 1044
>>>>>Begin Spectral Data<<<<<
46.04893	-1.225
50.45542	-1.425
54.85868	-0.325
59.25871	-0.225
63.6555	105.475
68.04907	109.575
72.43941	115.275
76.82654	120.275
81.21044	126.975
85.59113	131.875
89.96862	134.275
94.34289	135.675
98.71396	141.675
103.08183	143.175
107.4465	148.475
111.80798	152.175
116.16626	158.975
120.52136	167.975
124.87327	177.375
129.222	186.475
133.56755	198.775
137.90993	218.575
142.24913	244.775
146.58517	278.175
150.91804	327.675
155.24774	393.775
159.57429	495.075
163.89768	641.375
168.21792	858.275
172.53501	1173.375
176.84895	1638.275
181.15975	2312.675
185.46741	3246.375
189.77193	4486.775
194.07331	6027.175
198.37157	7762.275
202.6667	9620.675
206.9587	11438.675
211.24758	13223.875
215.53334	14983.275
219.81599	16864.075
224.09553	18896.475
228.37195	21185.375
232.64527	23640.275
236.91549	26259.675
241.18261	28895.075
245.44663	31478.575
249.70755	33796.975
253.96539	35734.975
258.22014	37421.375
262.4718	38733.375
266.72039	39620.575
270.96589	40058.775
275.20832	40136.475
279.44768	39883.275
283.68397	39541.875
287.91719	39305.475
292.14735	39004.275
296.37445	38854.875
300.59849	38793.575
304.81948	38923.775
309.03742	38931.075
313.25231	38691.175
317.46415	38211.775
321.67296	37386.575
325.87872	36618.775
330.08145	36237.075
334.28114	36188.175
338.47781	36320.875
342.67145	36599.075
346.86207	37106.075
351.04966	37647.675
355.23424	38157.975
359.4158	38665.475
363.59435	39119.575
367.76989	39384.075
371.94243	39522.375
376.11196	39516.175
380.27849	39521.075
384.44203	39512.375
388.60257	39731.775
392.76012	40259.275
396.91468	40890.675
401.06626	41693.475
405.21485	42166.175
409.36047	42099.475
413.50311	41558.975
417.64277	41350.475
421.77947	41595.075
425.9132	41913.575
430.04396	42192.775
434.17176	42315.475
438.2966	42359.075
442.41849	42633.275
446.53742	43345.375
450.6534	44109.975
454.76644	44678.275
458.87653	44902.675
462.98368	44764.775
467.08789	44545.975
471.18916	44122.375
475.2875	43644.075
479.38291	43376.475
483.4754	43279.575
487.56496	43090.975
491.6516	42683.675
495.73531	42214.775
499.81612	41821.375
503.89401	41891.175
507.96899	42164.875
512.04106	42225.275
516.11023	41977.675
520.1765	41459.975
524.23987	40830.575
528.30034	40274.775
532.35792	39735.675
536.41261	39302.475
540.46441	38973.475
544.51333	38977.875
548.55936	39417.275
552.60252	40178.875
556.64279	41014.775
560.6802	41742.975
564.71473	42339.375
568.7464	43284.075
572.7752	45007.975
576.80114	47198.275
580.82422	49434.975
584.84444	51539.975
588.86181	53990.275
592.87633	56330.075
596.888	56099.775
600.89682	52936.975
604.9028	50766.475
608.90594	51673.975
612.90624	53289.775
616.90371	49926.375
620.89834	43561.175
624.89015	40917.075
628.87913	40825.975
632.86528	41457.675
636.84862	41497.175
640.82913	40613.775
644.80683	39432.475
648.78172	38618.675
652.75379	38516.975
656.72306	38868.575
660.68952	39295.075
664.65319	39152.275
668.61405	38627.775
672.57211	38565.375
676.52738	38664.175
680.47986	38589.475
684.42955	38313.375
688.37646	38096.975
692.32058	38305.775
696.26192	38850.475
700.20048	39325.375
704.13626	39746.875
708.06928	40059.975
711.99952	40074.275
715.927	40019.075
719.85171	39876.275
723.77365	39392.975
727.69284	38697.475
731.60928	38024.675
735.52295	37690.275
739.43388	37634.575
743.34206	37741.675
747.24749	37992.775
751.15017	38514.675
755.05012	39307.275
758.94733	40412.975
762.8418	42266.175
766.73354	44791.575
770.62254	47007.875
774.50882	47051.375
778.39237	44972.575
782.27321	42355.375
786.15132	40343.375
790.02671	38905.075
793.89938	38111.975
797.76935	37721.775
801.6366	37468.175
805.50115	37292.575
809.36299	37167.775
813.22213	36958.775
817.07857	36878.275
820.93231	36731.975
824.78336	36576.675
828.63172	36390.775
832.47738	36255.775
836.32036	36192.175
840.16066	36149.175
843.99827	36125.375
847.8332	36137.575
851.66546	36202.475
855.49504	36325.475
859.32195	36320.075
863.1462	36185.675
866.96777	36149.075
870.78668	36106.775
874.60293	36126.275
878.41652	36111.575
882.22745	36176.775
886.03573	36226.775
889.84136	36279.275
893.64433	36194.375
897.44466	36189.875
901.24235	36167.175
905.0374	36063.575
908.8298	36028.275
912.61957	36142.475
916.40671	36593.475
920.19121	37216.575
923.97308	37800.675
927.75233	37814.675
931.52895	37235.775
935.30295	36438.175
939.07433	35625.675
942.84309	35027.875
946.60924	34714.675
950.37278	34504.775
954.13371	34441.075
957.89203	34460.575
961.64774	34453.375
965.40086	34496.375
969.15137	34439.775
972.89929	34188.875
976.64461	34044.475
980.38733	33950.875
984.12747	33929.675
987.86502	33985.275
991.59999	34088.975
995.33237	34288.775
999.06217	34622.575
1002.78939	35227.475
1006.51404	35892.975
1010.23611	36535.275
1013.95561	36983.375
1017.67255	37046.775
1021.38692	36693.675
1025.09872	36056.975
1028.80796	35573.175
1032.51465	35369.875
1036.21877	35413.875
1039.92035	35531.175
1043.61937	35774.575
1047.31584	35914.875
1051.00976	36094.775
1054.70114	36338.575
1058.38998	36609.475
1062.07627	37106.875
1065.76003	37735.175
1069.44126	38435.875
1073.11995	39160.875
1076.79611	39767.475
1080.46974	39982.975
1084.14085	40140.775
1087.80943	40627.875
1091.47549	41220.275
1095.13903	41490.475
1098.80005	41018.875
1102.45857	39811.075
1106.11456	38676.575
1109.76805	37987.475
1113.41903	37753.275
1117.06751	37742.675
1120.71348	38030.075
1124.35696	38355.775
1127.99793	38789.875
1131.63641	39159.075
1135.2724	39221.275
1138.90589	39237.375
1142.5369	39420.475
1146.16542	39789.475
1149.79145	40195.575
1153.415	40786.275
1157.03607	41489.475
1160.65467	42693.675
1164.27079	44621.475
1167.88443	46894.875
1171.49561	49230.175
1175.10432	51759.975
1178.71056	54888.575
1182.31434	57799.375
1185.91565	59525.375
1189.51451	59920.475
1193.11091	59142.075
1196.70485	57465.575
1200.29634	55429.175
1203.88538	54025.575
1207.47197	53712.375
1211.05612	53746.175
1214.63782	53115.175
1218.21708	51516.975
1221.79391	49484.475
1225.36829	47780.875
1228.94024	46872.475
1232.50976	46217.975
1236.07685	45856.275
1239.6415	45625.075
1243.20374	45587.475
1246.76355	45810.475
1250.32093	46425.775
1253.8759	47362.675
1257.42845	48652.475
1260.97859	50190.475
1264.52631	51749.275
1268.07163	53303.475
1271.61453	54878.675
1275.15503	56546.875
1278.69312	58445.175
1282.22882	60620.875
1285.76211	63026.375
1289.29301	65755.175
1292.82151	68756.775
1296.34761	72190.175
1299.87133	76050.275
1303.39266	79807.475
1306.9116	82770.775
1310.42815	84406.575
1313.94233	84731.075
1317.45412	83937.275
1320.96354	83015.575
1324.47058	82959.075
1327.97525	83363.375
1331.47754	83669.975
1334.97747	83666.975
1338.47502	83181.175
1341.97022	82596.775
1345.46305	81845.175
1348.95352	80731.475
1352.44163	79651.475
1355.92738	79350.675
1359.41078	80408.875
1362.89183	81729.675
1366.37053	80897.675
1369.84688	76328.875
1373.32088	69534.875
1376.79254	64149.575
1380.26186	62090.075
1383.72883	62152.775
1387.19347	62159.775
1390.65578	61512.475
1394.11575	60994.275
1397.57339	61393.375
1401.0287	62510.375
1404.48168	63234.775
1407.93234	62925.775
1411.38068	61301.875
1414.82669	58687.975
1418.27039	55904.475
1421.71177	53367.875
1425.15083	51508.575
1428.58758	50811.875
1432.02203	51413.275
1435.45416	52934.175
1438.88399	54514.775
1442.31151	55701.075
1445.73673	56554.175
1449.15965	57155.875
1452.58027	57584.275
1455.9986	57802.475
1459.41463	58248.675
1462.82837	59197.775
1466.23982	60254.475
1469.64898	61038.575
1473.05586	61448.975
1476.46045	61383.875
1479.86276	61089.175
1483.26279	60681.375
1486.66054	60652.875
1490.05602	61096.375
1493.44922	62092.275
1496.84016	63322.075
1500.22882	64700.675
1503.61521	66093.075
1506.99934	67564.675
1510.38121	68506.875
1513.76081	68672.575
1517.13816	68257.875
1520.51324	67783.075
1523.88607	67619.175
1527.25665	67817.775
1530.62498	67778.275
1533.99105	66929.375
1537.35488	65328.675
1540.71647	63093.275
1544.07581	60660.375
1547.4329	58344.775
1550.78776	56650.775
1554.14038	55448.575
1557.49077	54828.375
1560.83892	54482.675
1564.18484	54423.675
1567.52853	54524.575
1570.86999	54890.475
1574.20922	56012.675
1577.54624	57125.975
1580.88103	57738.675
1584.2136	58666.075
1587.54395	60579.575
1590.87208	63689.475
1594.19801	67118.775
1597.52172	69767.375
1600.84321	69427.175
1604.16251	65571.475
1607.47959	60109.775
1610.79447	54905.375
1614.10715	50330.375
1617.41763	46617.575
1620.7259	44071.575
1624.03199	42776.775
1627.33587	42804.975
1630.63757	44187.275
1633.93707	47426.875
1637.23439	52777.375
1640.52951	60889.375
1643.82246	70500.275
1647.11321	78420.675
1650.40179	79986.175
1653.68819	73978.775
1656.97241	63636.075
1660.25446	53426.675
1663.53433	45686.675
1666.81203	40696.675
1670.08756	37539.775
1673.36092	35522.375
1676.63211	34279.575
1679.90115	33467.175
1683.16801	32809.075
1686.43272	32277.375
1689.69527	31884.675
1692.95567	31631.475
1696.2139	31383.775
1699.46999	31251.375
1702.72392	31123.875
1705.97571	30954.875
1709.22535	30854.475
1712.47284	30718.075
1715.71819	30654.275
1718.96139	30564.475
1722.20246	30434.575
1725.44139	30327.675
1728.67818	30124.975
1731.91284	29906.175
1735.14537	29707.975
1738.37576	29538.175
1741.60403	29432.375
1744.83017	29287.775
1748.05418	29161.875
1751.27607	29070.575
1754.49584	28980.875
1757.71349	28944.575
1760.92903	28883.575
1764.14244	28812.375
1767.35375	28835.675
1770.56294	28814.075
1773.77002	28671.175
1776.97499	28620.375
1780.17785	28522.875
1783.37861	28453.675
1786.57727	28384.575
1789.77382	28325.475
1792.96828	28272.375
1796.16064	28208.475
1799.3509	28125.675
1802.53907	28046.275
1805.72514	27980.175
1808.90913	27905.175
1812.09102	27866.675
1815.27083	27784.675
1818.44856	27718.575
1821.6242	27648.275
1824.79776	27643.875
1827.96924	27614.575
1831.13864	27602.075
1834.30597	27598.275
1837.47122	27579.575
1840.6344	27586.575
1843.7955	27659.375
1846.95454	27655.575
1850.11151	27680.975
1853.26642	27599.675
1856.41926	27591.875
1859.57004	27572.375
1862.71876	27561.775
1865.86542	27476.175
1869.01003	27385.775
1872.15258	27321.175
1875.29308	27253.175
1878.43152	27214.175
1881.56792	27174.875
1884.70227	27089.775
1887.83457	27058.475
1890.96482	26982.375
1894.09304	26949.875
1897.21921	26904.975
1900.34335	26840.475
1903.46544	26814.175
1906.58551	26763.975
1909.70353	26654.575
1912.81953	26580.075
1915.93349	26577.675
1919.04543	26463.075
1922.15534	26366.075
1925.26322	26302.175
1928.36908	26254.275
1931.47292	26155.575
1934.57473	26087.675
1937.67453	25971.675
1940.77232	25881.575
1943.86808	25824.075
1946.96184	25714.975
1950.05358	25631.275
1953.14331	25581.275
1956.23103	25472.075
1959.31675	25371.375
1962.40046	25318.975
1965.48217	25237.275
1968.56188	25169.275
1971.63959	25052.975
1974.7153	24934.075
1977.78901	24844.975
1980.86073	24736.475
1983.93046	24661.975
1986.99819	24559.475
1990.06394	24522.875
1993.1277	24446.175
1996.18947	24326.575
1999.24925	24270.175
2002.30706	24159.375
2005.36288	24069.875
2008.41672	23999.975
2011.46859	23928.075
2014.51848	23858.075
2017.56639	23801.875
2020.61233	23735.275
2023.6563	23632.075
2026.6983	23601.775
2029.73833	23525.175
2032.7764	23461.475
2035.8125	23395.875
2038.84664	23306.275
2041.87881	23308.875
2044.90903	23217.375
2047.93729	23169.875
2050.96359	23157.075
2053.98794	23126.475
2057.01034	23074.675
2060.03078	23067.475
2063.04927	23032.075
2066.06582	23049.075
2069.08042	23037.575
2072.09307	23009.175
2075.10378	22950.275
2078.11255	22941.375
2081.11938	22950.575
2084.12426	22888.275
2087.12722	22888.975
2090.12824	22840.475
2093.12732	22826.575
2096.12447	22806.875
2099.11969	22855.875
2102.11299	22880.275
2105.10435	22820.475
2108.09379	22773.875
2111.08131	22811.275
2114.0669	22814.375
2117.05057	22818.575
2120.03233	22847.175
2123.01216	22841.875
2125.99008	22812.575
2128.96609	22846.475
2131.94018	22843.975
2134.91236	22836.675
2137.88263	22826.775
2140.851	22821.175
2143.81746	22857.175
2146.78201	22820.775
2149.74466	22787.775
2152.7054	22765.275
2155.66425	22766.975
2158.6212	22710.275
2161.57625	22674.275
2164.52941	22627.175
2167.48067	22642.375
2170.43004	22657.875
2173.37752	22662.575
2176.32311	22630.775
2179.26681	22599.275
2182.20863	22576.475
2185.14856	22564.375
2188.08661	22611.475
2191.02278	22587.875
2193.95707	22571.275
2196.88948	22525.775
2199.82001	22437.475
2202.74867	22399.175
2205.67545	22399.475
2208.60037	22326.775
2211.52341	22300.475
2214.44458	22291.875
2217.36388	22194.275
2220.28132	22161.275
2223.1969	22096.675
2226.11061	22082.275
2229.02246	22043.275
2231.93245	22035.175
2234.84058	22004.775
2237.74686	21963.375
2240.65128	21974.875
2243.55385	21915.975
2246.45456	21877.775
2249.35343	21802.975
2252.25044	21757.475
2255.14561	21672.075
2258.03893	21581.075
2260.93041	21558.375
2263.82004	21457.775
2266.70783	21403.475
2269.59378	21309.675
2272.4779	21259.175
2275.36017	21167.975
2278.24061	21146.875
2281.11922	21099.775
2283.996	21040.775
2286.87094	21032.575
2289.74405	20956.375
2292.61534	20957.575
2295.4848	20902.375
2298.35243	20919.175
2301.21824	20882.675
2304.08223	20858.675
2306.94439	20848.075
2309.80474	20881.375
2312.66327	20855.675
2315.51999	20792.875
2318.37489	20736.175
2321.22797	20703.475
2324.07925	20677.275
2326.92871	20624.775
2329.77637	20584.875
2332.62222	20548.275
2335.46626	20539.375
2338.3085	20498.075
2341.14893	20506.775
2343.98756	20501.175
2346.8244	20475.475
2349.65943	20487.075
2352.49267	20435.775
2355.32411	20483.575
2358.15376	20465.275
2360.98161	20406.375
2363.80768	20378.675
2366.63195	20423.175
2369.45444	20434.575
2372.27514	20364.075
2375.09405	20334.575
2377.91118	20301.675
2380.72652	20228.375
2383.54009	20147.475
2386.35187	20130.175
2389.16188	20036.175
2391.97011	20014.675
2394.77657	19962.475
2397.58125	19898.375
2400.38416	19905.775
2403.18529	19884.875
2405.98466	19830.375
2408.78226	19819.975
2411.57809	19808.875
2414.37216	19771.375
2417.16446	19807.875
2419.955	19738.475
2422.74378	19690.175
2425.5308	19689.975
2428.31606	19662.675
2431.09956	19673.775
2433.88131	19629.575
2436.6613	19658.575
2439.43954	19656.675
2442.21603	19612.175
2444.99077	19597.675
2447.76377	19592.075
2450.53501	19530.275
2453.30451	19547.275
2456.07226	19481.675
2458.83827	19481.475
2461.60254	19501.075
2464.36507	19474.975
2467.12586	19419.475
2469.88492	19397.375
2472.64224	19415.775
2475.39782	19454.475
2478.15167	19461.975
2480.90379	19424.775
2483.65417	19399.775
2486.40283	19391.675
2489.14976	19413.975
2491.89497	19366.275
2494.63845	19389.075
2497.3802	19322.975
2500.12024	19366.875
2502.85855	19352.575
2505.59514	19306.275
2508.33002	19278.775
2511.06318	19261.075
2513.79462	19239.675
2516.52435	19178.875
2519.25237	19202.175
2521.97867	19199.775
2524.70327	19167.675
2527.42616	19118.175
2530.14734	19129.475
2532.86681	19152.275
2535.58458	19146.075
2538.30065	19064.775
2541.01501	19064.475
2543.72768	19032.975
2546.43864	19025.975
2549.14791	18996.575
2551.85548	18963.775
2554.56136	18932.275
2557.26554	18872.275
2559.96803	18856.975
2562.66883	18850.275
2565.36794	18839.475
2568.06536	18789.075
2570.7611	18760.075
2573.45514	18747.375
2576.14751	18718.875
2578.83819	18682.675
2581.52719	18682.875
2584.21451	18677.475
2586.90015	18641.675
2589.58411	18605.675
2592.2664	18597.175
2594.94701	18586.175
2597.62594	18568.775
2600.30321	18490.475
2602.9788	18526.175
2605.65273	18493.075
2608.32498	18543.775
2610.99557	18499.175
2613.66449	18503.475
2616.33175	18468.275
2618.99734	18466.575
2621.66128	18460.175
2624.32355	18380.875
2626.98416	18392.075
2629.64311	18365.975
2632.30041	18388.375
2634.95605	18342.175
2637.61004	18319.275
2640.26238	18320.475
2642.91306	18285.075
2645.56209	18290.675
2648.20948	18292.575
2650.85521	18347.675
2653.4993	18332.775
2656.14175	18305.375
2658.78255	18331.175
2661.42171	18379.675
2664.05923	18353.675
2666.6951	18320.775
2669.32934	18362.875
2671.96194	18373.875
2674.59291	18359.175
2677.22224	18359.175
2679.84993	18378.375
2682.476	18335.675
2685.10043	18383.275
2687.72324	18327.075
2690.34441	18310.375
2692.96396	18318.175
2695.58188	18316.975
2698.19818	18282.175
2700.81285	18333.375
2703.4259	18289.575
2706.03733	18323.375
2708.64714	18293.175
2711.25533	18306.275
2713.86191	18302.075
2716.46687	18311.775
2719.07021	18303.875
2721.67194	18335.075
2724.27206	18335.175
2726.87057	18359.075
2729.46747	18358.275
2732.06276	18381.075
2734.65644	18363.775
2737.24852	18368.475
2739.83899	18318.275
2742.42786	18318.075
2745.01513	18259.575
2747.60079	18257.975
2750.18486	18269.175
2752.76733	18246.775
2755.3482	18177.375
2757.92747	18241.575
2760.50515	18160.275
2763.08123	18186.575
2765.65573	18141.075
2768.22863	18128.075
2770.79994	18118.275
2773.36967	18104.675
2775.9378	18127.975
2778.50435	18095.975
2781.06932	18049.575
2783.6327	18097.275
2786.1945	18082.975
2788.75471	18067.075
2791.31335	18046.975
2793.87041	18018.475
2796.42589	17976.275
2798.97979	17977.675
2801.53212	17937.975
2804.08288	17884.375
2806.63206	17816.675
2809.17967	17795.675
2811.72571	17766.675
2814.27018	17730.175
2816.81308	17668.375
2819.35442	17637.675
2821.89419	17636.475
2824.43239	17625.675
2826.96904	17576.275
2829.50412	17587.975
2832.03763	17491.275
2834.56959	17514.775
2837.1	17492.975
2839.62884	17506.775
2842.15613	17466.975
2844.68186	17527.575
2847.20604	17503.575
2849.72867	17505.775
2852.24974	17507.175
2854.76927	17504.375
2857.28724	17470.975
2859.80367	17441.875
2862.31855	17405.775
2864.83189	17381.875
2867.34368	17306.875
2869.85393	17314.475
2872.36264	17249.675
2874.8698	17231.275
2877.37543	17207.175
2879.87952	17196.675
2882.38207	17194.075
2884.88308	17190.375
2887.38256	17186.175
2889.88051	17190.075
2892.37692	17193.475
2894.8718	17198.875
2897.36515	17174.975
2899.85698	17178.775
2902.34727	17211.775
2904.83604	17247.075
2907.32328	17279.375
2909.809	17246.575
2912.29319	17227.675
2914.77587	17232.275
2917.25702	17250.675
2919.73665	17236.375
2922.21476	17210.975
2924.69136	17217.375
2927.16644	17206.275
2929.64	17169.775
2932.11205	17170.875
2934.58258	17109.675
2937.05161	17107.575
2939.51912	17115.075
2941.98513	17059.375
2944.44962	17035.175
2946.91261	16921.075
2949.37409	16974.175
2951.83407	16945.975
2954.29254	16891.375
2956.74951	16926.175
2959.20498	16867.475
2961.65895	16875.375
2964.11142	16837.175
2966.56239	16764.375
2969.01186	16786.575
2971.45984	16759.775
2973.90632	16745.875
2976.35131	16682.975
2978.7948	16619.175
2981.23681	16579.475
2983.67732	16569.475
2986.11635	16545.175
2988.55388	16480.475
2990.98993	16401.475
2993.4245	16366.575
2995.85758	16314.275
2998.28917	16263.275
3000.71928	16232.975
3003.14791	16216.975
3005.57506	16153.875
3008.00073	16084.475
3010.42493	16102.375
3012.84764	16054.675
3015.26888	16030.875
3017.68865	15992.975
3020.10694	15968.175
3022.52376	15881.775
3024.9391	15865.775
3027.35298	15852.775
3029.76539	15839.075
3032.17632	15820.775
3034.5858	15780.075
3036.9938	15777.375
3039.40034	15736.475
3041.80542	15727.175
3044.20903	15720.175
3046.61118	15701.175
3049.01187	15657.575
3051.4111	15643.375
3053.80888	15597.675
3056.20519	15577.275
3058.60005	15535.375
3060.99345	15460.975
3063.3854	15427.175
3065.7759	15350.875
3068.16494	15300.475
3070.55254	15190.375
3072.93868	15198.475
3075.32338	15160.275
3077.70662	15123.275
3080.08842	15057.675
3082.46878	15030.075
3084.84769	14984.675
3087.22515	14984.875
3089.60118	14975.975
3091.97576	14956.575
3094.3489	14928.675
3096.72061	14941.475
3099.09087	14907.375
3101.4597	14886.875
3103.82709	14924.875
3106.19305	14850.475
3108.55757	14827.775
3110.92066	14789.175
3113.28232	14761.475
3115.64255	14726.175
3118.00134	14660.575
3120.35871	14666.175
3122.71466	14595.875
3125.06917	14544.975
