Data from AgNPs_FTO_APTES_UA_5uM_CRN_0uM_R6G_10uM_NaF_0.1M_Addition_RamanShift__14__09-55-06-537.txt Node

Date: Mon Feb 07 09:55:06 GMT 2022
User: TCL
Spectrometer: QEP01345
Trigger mode: 4
Integration Time (sec): 7.000000E0
Scans to average: 10
Electric dark correction enabled: true
Nonlinearity correction enabled: false
Boxcar width: 0
XAxis mode: Raman Shifts
Number of Pixels in Spectrum: 1044
>>>>>Begin Spectral Data<<<<<
46.04893	-1.675
50.45542	-1.675
54.85868	0.225
59.25871	0.725
63.6555	86.425
68.04907	88.925
72.43941	89.325
76.82654	94.625
81.21044	99.125
85.59113	101.225
89.96862	109.125
94.34289	106.525
98.71396	111.525
103.08183	117.925
107.4465	118.325
111.80798	121.625
116.16626	129.025
120.52136	133.325
124.87327	142.425
129.222	153.125
133.56755	165.425
137.90993	186.125
142.24913	201.325
146.58517	231.125
150.91804	274.325
155.24774	327.025
159.57429	420.925
163.89768	551.825
168.21792	738.125
172.53501	1011.325
176.84895	1422.925
181.15975	1991.225
185.46741	2808.025
189.77193	3876.525
194.07331	5206.225
198.37157	6696.025
202.6667	8313.325
206.9587	9910.225
211.24758	11491.725
215.53334	13031.125
219.81599	14708.625
224.09553	16544.525
228.37195	18604.425
232.64527	20853.625
236.91549	23213.325
241.18261	25582.125
245.44663	27835.725
249.70755	29863.925
253.96539	31624.625
258.22014	33161.325
262.4718	34382.725
266.72039	35062.925
270.96589	35510.425
275.20832	35561.825
279.44768	35320.225
283.68397	35024.225
287.91719	34751.425
292.14735	34553.725
296.37445	34418.825
300.59849	34345.625
304.81948	34335.025
309.03742	34346.625
313.25231	34072.125
317.46415	33379.025
321.67296	32296.125
325.87872	31245.525
330.08145	30665.425
334.28114	30482.725
338.47781	30654.625
342.67145	30934.625
346.86207	31290.725
351.04966	31806.825
355.23424	32356.025
359.4158	32917.325
363.59435	33239.825
367.76989	33487.425
371.94243	33531.725
376.11196	33548.925
380.27849	33445.625
384.44203	33327.025
388.60257	33475.025
392.76012	33800.325
396.91468	34406.625
401.06626	35054.725
405.21485	35503.225
409.36047	35349.525
413.50311	34843.225
417.64277	34373.225
421.77947	34304.625
425.9132	34321.025
430.04396	34436.125
434.17176	34396.325
438.2966	34347.125
442.41849	34469.425
446.53742	34929.925
450.6534	35563.525
454.76644	36153.325
458.87653	36582.625
462.98368	36794.025
467.08789	36835.225
471.18916	36697.225
475.2875	36562.425
479.38291	36621.225
483.4754	36895.825
487.56496	37006.625
491.6516	36851.525
495.73531	36401.925
499.81612	36025.825
503.89401	35958.625
507.96899	35934.025
512.04106	35756.625
516.11023	35329.425
520.1765	34728.825
524.23987	34080.825
528.30034	33598.125
532.35792	33132.025
536.41261	32767.525
540.46441	32482.425
544.51333	32575.925
548.55936	33097.425
552.60252	33974.825
556.64279	34887.125
560.6802	35432.925
564.71473	35927.725
568.7464	36822.025
572.7752	38315.525
576.80114	40094.425
580.82422	41748.525
584.84444	42959.825
588.86181	43873.525
592.87633	44285.025
596.888	43439.825
600.89682	41850.925
604.9028	41634.325
608.90594	43894.425
612.90624	46507.625
616.90371	43715.125
620.89834	37222.325
624.89015	34268.025
628.87913	34034.825
632.86528	34608.525
636.84862	34924.325
640.82913	34345.625
644.80683	33311.625
648.78172	32495.025
652.75379	32178.825
656.72306	32412.225
660.68952	32890.425
664.65319	32934.325
668.61405	32595.825
672.57211	32494.625
676.52738	32512.525
680.47986	32367.925
684.42955	32131.725
688.37646	31921.325
692.32058	32084.825
696.26192	32427.525
700.20048	32865.625
704.13626	33300.425
708.06928	33631.725
711.99952	33708.525
715.927	33526.125
719.85171	33294.425
723.77365	33047.725
727.69284	32560.925
731.60928	32000.725
735.52295	31735.225
739.43388	31608.325
743.34206	31681.225
747.24749	31918.025
751.15017	32310.325
755.05012	33069.525
758.94733	34125.425
762.8418	35979.025
766.73354	38722.825
770.62254	41169.825
774.50882	41234.725
778.39237	39071.425
782.27321	36495.925
786.15132	34331.025
790.02671	32952.125
793.89938	32100.025
797.76935	31642.325
801.6366	31469.125
805.50115	31309.825
809.36299	31196.825
813.22213	31044.625
817.07857	31115.825
820.93231	31090.425
824.78336	31012.925
828.63172	30852.025
832.47738	30654.225
836.32036	30574.025
840.16066	30553.525
843.99827	30529.125
847.8332	30535.325
851.66546	30616.725
855.49504	30628.925
859.32195	30714.625
863.1462	30607.025
866.96777	30621.525
870.78668	30574.825
874.60293	30496.425
878.41652	30466.625
882.22745	30518.525
886.03573	30597.625
889.84136	30640.225
893.64433	30662.525
897.44466	30728.225
901.24235	30792.625
905.0374	30779.025
908.8298	30725.525
912.61957	30783.925
916.40671	31109.325
920.19121	31678.525
923.97308	32241.025
927.75233	32377.125
931.52895	31973.925
935.30295	31240.025
939.07433	30461.825
942.84309	29843.425
946.60924	29443.225
950.37278	29237.325
954.13371	29225.925
957.89203	29246.625
961.64774	29290.325
965.40086	29239.125
969.15137	29204.425
972.89929	29118.625
976.64461	28917.925
980.38733	28698.425
984.12747	28631.125
987.86502	28665.925
991.59999	28766.625
995.33237	28864.125
999.06217	29051.425
1002.78939	29363.225
1006.51404	29739.825
1010.23611	30164.125
1013.95561	30445.525
1017.67255	30603.125
1021.38692	30462.925
1025.09872	30143.725
1028.80796	29841.525
1032.51465	29745.725
1036.21877	29853.625
1039.92035	29959.925
1043.61937	30193.525
1047.31584	30373.825
1051.00976	30520.325
1054.70114	30779.125
1058.38998	30979.225
1062.07627	31402.825
1065.76003	31856.625
1069.44126	32508.625
1073.11995	33357.025
1076.79611	34149.625
1080.46974	34438.025
1084.14085	34471.525
1087.80943	34703.425
1091.47549	35191.625
1095.13903	35592.025
1098.80005	35319.725
1102.45857	34271.425
1106.11456	32980.025
1109.76805	32069.225
1113.41903	31598.125
1117.06751	31458.225
1120.71348	31646.925
1124.35696	31953.225
1127.99793	32406.125
1131.63641	32764.225
1135.2724	32848.825
1138.90589	32814.525
1142.5369	32854.325
1146.16542	33001.025
1149.79145	33254.525
1153.415	33616.325
1157.03607	34254.525
1160.65467	35185.425
1164.27079	36546.625
1167.88443	38433.525
1171.49561	40600.125
1175.10432	43222.525
1178.71056	46383.325
1182.31434	49239.625
1185.91565	50983.325
1189.51451	51413.025
1193.11091	50693.325
1196.70485	48962.225
1200.29634	46721.225
1203.88538	45163.825
1207.47197	44296.825
1211.05612	43837.425
1214.63782	43196.725
1218.21708	41942.325
1221.79391	40432.925
1225.36829	39131.725
1228.94024	38332.425
1232.50976	37881.825
1236.07685	37574.025
1239.6415	37421.525
1243.20374	37376.125
1246.76355	37538.625
1250.32093	37892.925
1253.8759	38590.125
1257.42845	39803.125
1260.97859	41248.525
1264.52631	42641.525
1268.07163	44019.625
1271.61453	45321.025
1275.15503	46747.125
1278.69312	48401.525
1282.22882	50100.425
1285.76211	51959.225
1289.29301	54132.625
1292.82151	56370.425
1296.34761	58974.325
1299.87133	61850.825
1303.39266	64682.425
1306.9116	67136.825
1310.42815	68777.625
1313.94233	69540.025
1317.45412	69328.125
1320.96354	69265.525
1324.47058	69873.725
1327.97525	70585.125
1331.47754	71032.325
1334.97747	70736.625
1338.47502	69891.325
1341.97022	69082.325
1345.46305	68235.225
1348.95352	67054.625
1352.44163	65335.025
1355.92738	64050.825
1359.41078	64199.125
1362.89183	65334.125
1366.37053	65411.125
1369.84688	62556.725
1373.32088	57776.625
1376.79254	53486.925
1380.26186	51028.225
1383.72883	50132.925
1387.19347	49832.425
1390.65578	49557.825
1394.11575	49352.025
1397.57339	49507.825
1401.0287	49885.525
1404.48168	49938.125
1407.93234	49198.625
1411.38068	47540.725
1414.82669	45336.125
1418.27039	43028.225
1421.71177	41061.825
1425.15083	39570.625
1428.58758	38833.025
1432.02203	38984.225
1435.45416	39790.625
1438.88399	40831.025
1442.31151	41753.825
1445.73673	42640.425
1449.15965	43590.125
1452.58027	44340.525
1455.9986	44822.825
1459.41463	45230.325
1462.82837	45897.025
1466.23982	46748.025
1469.64898	47346.125
1473.05586	47520.725
1476.46045	47451.025
1479.86276	47225.625
1483.26279	47170.025
1486.66054	47587.825
1490.05602	48240.525
1493.44922	49391.225
1496.84016	50987.725
1500.22882	53089.525
1503.61521	55473.425
1506.99934	57909.025
1510.38121	59848.325
1513.76081	60657.125
1517.13816	60149.225
1520.51324	58960.825
1523.88607	57730.125
1527.25665	56812.625
1530.62498	56014.425
1533.99105	54988.925
1537.35488	53567.225
1540.71647	51700.225
1544.07581	49555.725
1547.4329	47597.625
1550.78776	46059.625
1554.14038	45142.925
1557.49077	44763.225
1560.83892	44851.525
1564.18484	45141.125
1567.52853	45327.625
1570.86999	45551.625
1574.20922	46142.225
1577.54624	46846.225
1580.88103	46963.525
1584.2136	47140.325
1587.54395	48042.325
1590.87208	49716.925
1594.19801	51614.725
1597.52172	53060.525
1600.84321	52540.625
1604.16251	49621.625
1607.47959	45994.025
1610.79447	42557.525
1614.10715	39339.025
1617.41763	36564.625
1620.7259	34605.825
1624.03199	33570.225
1627.33587	33515.925
1630.63757	34367.225
1633.93707	36408.725
1637.23439	39967.925
1640.52951	45389.525
1643.82246	52232.825
1647.11321	58522.325
1650.40179	61545.925
1653.68819	59126.525
1656.97241	52476.625
1660.25446	44559.625
1663.53433	37918.425
1666.81203	33323.925
1670.08756	30522.925
1673.36092	28811.325
1676.63211	27716.925
1679.90115	27033.325
1683.16801	26447.425
1686.43272	26038.725
1689.69527	25723.425
1692.95567	25504.325
1696.2139	25294.925
1699.46999	25131.725
1702.72392	25068.225
1705.97571	24948.125
1709.22535	24831.425
1712.47284	24734.525
1715.71819	24676.625
1718.96139	24533.325
1722.20246	24460.325
1725.44139	24340.425
1728.67818	24216.125
1731.91284	24032.225
1735.14537	23869.925
1738.37576	23745.325
1741.60403	23649.825
1744.83017	23562.525
1748.05418	23457.725
1751.27607	23418.725
1754.49584	23343.925
1757.71349	23304.725
1760.92903	23229.725
1764.14244	23186.225
1767.35375	23225.425
1770.56294	23120.925
1773.77002	23077.325
1776.97499	23035.625
1780.17785	22952.125
1783.37861	22924.725
1786.57727	22865.425
1789.77382	22786.925
1792.96828	22755.625
1796.16064	22687.725
1799.3509	22637.425
1802.53907	22600.925
1805.72514	22482.425
1808.90913	22361.225
1812.09102	22334.625
1815.27083	22281.525
1818.44856	22265.225
1821.6242	22148.025
1824.79776	22145.625
1827.96924	22085.025
1831.13864	22072.025
1834.30597	22082.825
1837.47122	22064.925
1840.6344	22046.425
1843.7955	22025.925
1846.95454	21993.925
1850.11151	22006.025
1853.26642	22004.125
1856.41926	21953.825
1859.57004	21995.925
1862.71876	21964.925
1865.86542	21869.525
1869.01003	21818.825
1872.15258	21762.025
1875.29308	21690.325
1878.43152	21621.125
1881.56792	21546.825
1884.70227	21509.525
1887.83457	21522.025
1890.96482	21467.125
1894.09304	21425.225
1897.21921	21365.125
1900.34335	21312.125
1903.46544	21285.325
1906.58551	21209.725
1909.70353	21210.425
1912.81953	21159.125
1915.93349	21125.425
1919.04543	21081.425
1922.15534	21061.125
1925.26322	20967.525
1928.36908	20886.925
1931.47292	20858.025
1934.57473	20773.225
1937.67453	20701.525
1940.77232	20635.825
1943.86808	20507.625
1946.96184	20467.425
1950.05358	20361.625
1953.14331	20358.125
1956.23103	20342.825
1959.31675	20246.525
1962.40046	20189.325
1965.48217	20101.425
1968.56188	20045.825
1971.63959	19977.925
1974.7153	19879.225
1977.78901	19790.925
1980.86073	19737.225
1983.93046	19664.525
1986.99819	19591.925
1990.06394	19543.025
1993.1277	19492.025
1996.18947	19375.925
1999.24925	19321.325
2002.30706	19252.425
2005.36288	19170.125
2008.41672	19105.525
2011.46859	19049.825
2014.51848	18946.225
2017.56639	18916.625
2020.61233	18879.725
2023.6563	18778.725
2026.6983	18763.325
2029.73833	18733.725
2032.7764	18651.625
2035.8125	18611.025
2038.84664	18543.925
2041.87881	18533.325
2044.90903	18447.625
2047.93729	18376.225
2050.96359	18409.225
2053.98794	18359.425
2057.01034	18364.725
2060.03078	18366.025
2063.04927	18307.725
2066.06582	18290.125
2069.08042	18275.525
2072.09307	18306.525
2075.10378	18271.725
2078.11255	18245.825
2081.11938	18269.625
2084.12426	18191.225
2087.12722	18188.525
2090.12824	18186.825
2093.12732	18185.125
2096.12447	18174.625
2099.11969	18119.325
2102.11299	18141.225
2105.10435	18136.525
2108.09379	18108.425
2111.08131	18121.225
2114.0669	18116.425
2117.05057	18163.325
2120.03233	18130.725
2123.01216	18137.225
2125.99008	18178.525
2128.96609	18152.625
2131.94018	18170.025
2134.91236	18135.125
2137.88263	18127.825
2140.851	18110.025
2143.81746	18140.025
2146.78201	18104.825
2149.74466	18109.225
2152.7054	18107.525
2155.66425	18082.325
2158.6212	18039.825
2161.57625	18014.925
2164.52941	18001.725
2167.48067	18009.325
2170.43004	18002.025
2173.37752	17927.425
2176.32311	17910.825
2179.26681	17890.425
2182.20863	17937.725
2185.14856	17923.825
2188.08661	17855.425
2191.02278	17876.025
2193.95707	17854.125
2196.88948	17802.125
2199.82001	17747.925
2202.74867	17697.825
2205.67545	17710.725
2208.60037	17668.425
2211.52341	17645.825
2214.44458	17630.025
2217.36388	17599.725
2220.28132	17547.725
2223.1969	17521.825
2226.11061	17477.925
2229.02246	17425.625
2231.93245	17411.025
2234.84058	17414.025
2237.74686	17354.725
2240.65128	17306.225
2243.55385	17251.225
2246.45456	17223.625
2249.35343	17223.925
2252.25044	17136.425
2255.14561	17108.725
2258.03893	17066.625
2260.93041	17038.625
2263.82004	16981.325
2266.70783	16917.925
2269.59378	16891.625
2272.4779	16847.725
2275.36017	16807.225
2278.24061	16754.525
2281.11922	16725.125
2283.996	16734.525
2286.87094	16708.225
2289.74405	16642.825
2292.61534	16604.225
2295.4848	16526.425
2298.35243	16529.425
2301.21824	16524.125
2304.08223	16493.225
2306.94439	16486.825
2309.80474	16468.225
2312.66327	16468.925
2315.51999	16414.325
2318.37489	16416.225
2321.22797	16376.525
2324.07925	16318.525
2326.92871	16286.725
2329.77637	16275.425
2332.62222	16262.125
2335.46626	16225.825
2338.3085	16225.025
2341.14893	16197.525
2343.98756	16170.925
2346.8244	16183.625
2349.65943	16171.425
2352.49267	16172.225
2355.32411	16196.825
2358.15376	16208.025
2360.98161	16177.125
2363.80768	16177.425
2366.63195	16158.725
2369.45444	16135.225
2372.27514	16090.325
2375.09405	16048.125
2377.91118	16041.225
2380.72652	15968.525
2383.54009	15938.425
2386.35187	15947.725
2389.16188	15869.425
2391.97011	15793.325
2394.77657	15749.825
2397.58125	15715.325
2400.38416	15701.825
2403.18529	15655.925
2405.98466	15645.625
2408.78226	15581.125
2411.57809	15577.925
2414.37216	15570.725
2417.16446	15554.025
2419.955	15511.125
2422.74378	15524.025
2425.5308	15473.525
2428.31606	15453.625
2431.09956	15441.725
2433.88131	15431.625
2436.6613	15432.425
2439.43954	15459.425
2442.21603	15424.225
2444.99077	15393.325
2447.76377	15439.525
2450.53501	15383.725
2453.30451	15344.525
2456.07226	15330.425
2458.83827	15327.825
2461.60254	15310.425
2464.36507	15328.025
2467.12586	15264.725
2469.88492	15223.725
2472.64224	15233.325
2475.39782	15243.125
2478.15167	15206.625
2480.90379	15186.825
2483.65417	15193.125
2486.40283	15158.725
2489.14976	15213.625
2491.89497	15214.525
2494.63845	15210.525
2497.3802	15195.025
2500.12024	15198.625
2502.85855	15126.425
2505.59514	15128.425
2508.33002	15098.025
2511.06318	15058.425
2513.79462	15053.925
2516.52435	15033.825
2519.25237	15046.625
2521.97867	14990.225
2524.70327	14964.225
2527.42616	14934.225
2530.14734	14909.125
2532.86681	14944.325
2535.58458	14930.225
2538.30065	14883.425
2541.01501	14846.525
2543.72768	14843.825
2546.43864	14811.525
2549.14791	14772.525
2551.85548	14761.825
2554.56136	14743.125
2557.26554	14703.625
2559.96803	14680.625
2562.66883	14685.925
2565.36794	14668.725
2568.06536	14585.125
2570.7611	14561.425
2573.45514	14571.325
2576.14751	14543.125
2578.83819	14470.625
2581.52719	14468.925
2584.21451	14469.725
2586.90015	14450.125
2589.58411	14415.725
2592.2664	14398.925
2594.94701	14417.725
2597.62594	14355.925
2600.30321	14314.325
2602.9788	14334.925
2605.65273	14330.125
2608.32498	14311.925
2610.99557	14341.925
2613.66449	14296.725
2616.33175	14254.425
2618.99734	14222.425
2621.66128	14215.225
2624.32355	14198.525
2626.98416	14158.025
2629.64311	14154.025
2632.30041	14144.525
2634.95605	14105.225
2637.61004	14108.625
2640.26238	14108.225
2642.91306	14096.125
2645.56209	14103.325
2648.20948	14108.325
2650.85521	14098.325
2653.4993	14104.425
2656.14175	14053.725
2658.78255	14054.225
2661.42171	14032.625
2664.05923	14060.725
2666.6951	14031.325
2669.32934	14035.225
2671.96194	14027.225
2674.59291	14044.325
2677.22224	14046.925
2679.84993	14028.025
2682.476	14009.525
2685.10043	14018.025
2687.72324	13983.425
2690.34441	13973.925
2692.96396	13968.225
2695.58188	13986.825
2698.19818	13950.125
2700.81285	13979.725
2703.4259	13978.025
2706.03733	13977.125
2708.64714	13989.025
2711.25533	14006.225
2713.86191	13951.125
2716.46687	13937.525
2719.07021	13910.225
2721.67194	13935.225
2724.27206	13963.825
2726.87057	13976.325
2729.46747	13981.525
2732.06276	13979.725
2734.65644	13958.025
2737.24852	13948.025
2739.83899	13909.725
2742.42786	13892.625
2745.01513	13853.825
2747.60079	13860.925
2750.18486	13832.625
2752.76733	13825.625
2755.3482	13800.825
2757.92747	13777.325
2760.50515	13763.325
2763.08123	13751.525
2765.65573	13743.825
2768.22863	13725.525
2770.79994	13695.025
2773.36967	13709.825
2775.9378	13718.225
2778.50435	13695.625
2781.06932	13650.025
2783.6327	13657.725
2786.1945	13649.325
2788.75471	13627.725
2791.31335	13618.025
2793.87041	13561.025
2796.42589	13554.025
2798.97979	13552.225
2801.53212	13508.725
2804.08288	13495.225
2806.63206	13465.725
2809.17967	13430.025
2811.72571	13430.325
2814.27018	13399.825
2816.81308	13368.425
2819.35442	13329.825
2821.89419	13301.625
2824.43239	13298.325
2826.96904	13275.425
2829.50412	13321.925
2832.03763	13239.925
2834.56959	13256.025
2837.1	13246.325
2839.62884	13240.125
2842.15613	13252.225
2844.68186	13251.925
2847.20604	13273.325
2849.72867	13259.625
2852.24974	13245.025
2854.76927	13234.625
2857.28724	13232.025
2859.80367	13215.425
2862.31855	13162.025
2864.83189	13153.125
2867.34368	13143.325
2869.85393	13118.625
2872.36264	13079.725
2874.8698	13038.625
2877.37543	13044.325
2879.87952	13018.325
2882.38207	13026.325
2884.88308	13023.125
2887.38256	13025.825
2889.88051	13026.925
2892.37692	13042.925
2894.8718	13010.225
2897.36515	12998.925
2899.85698	13030.925
2902.34727	13086.425
2904.83604	13085.425
2907.32328	13105.925
2909.809	13060.425
2912.29319	13078.925
2914.77587	13084.425
2917.25702	13075.925
2919.73665	13030.625
2922.21476	13029.325
2924.69136	13033.325
2927.16644	13005.825
2929.64	13004.325
2932.11205	12979.625
2934.58258	12931.625
2937.05161	12908.425
2939.51912	12926.725
2941.98513	12878.325
2944.44962	12846.625
2946.91261	12807.025
2949.37409	12821.825
2951.83407	12797.425
2954.29254	12750.025
2956.74951	12726.325
2959.20498	12743.225
2961.65895	12705.325
2964.11142	12696.425
2966.56239	12651.425
2969.01186	12651.225
2971.45984	12616.625
2973.90632	12614.725
2976.35131	12588.325
2978.7948	12602.825
2981.23681	12566.025
2983.67732	12520.525
2986.11635	12493.725
2988.55388	12443.725
2990.98993	12430.425
2993.4245	12372.325
2995.85758	12353.625
2998.28917	12280.825
3000.71928	12256.725
3003.14791	12206.025
3005.57506	12194.825
3008.00073	12137.525
3010.42493	12140.225
3012.84764	12123.925
3015.26888	12098.025
3017.68865	12076.525
3020.10694	12037.925
3022.52376	11996.025
3024.9391	11981.025
3027.35298	11942.725
3029.76539	11957.925
3032.17632	11964.725
3034.5858	11927.825
3036.9938	11930.925
3039.40034	11905.425
3041.80542	11877.525
3044.20903	11836.925
3046.61118	11869.025
3049.01187	11812.825
3051.4111	11841.525
3053.80888	11779.225
3056.20519	11735.825
3058.60005	11724.125
3060.99345	11689.025
3063.3854	11639.525
3065.7759	11604.825
3068.16494	11560.725
3070.55254	11520.825
3072.93868	11463.025
3075.32338	11406.125
3077.70662	11399.125
3080.08842	11328.725
3082.46878	11349.125
3084.84769	11358.825
3087.22515	11363.325
3089.60118	11333.025
3091.97576	11318.225
3094.3489	11307.125
3096.72061	11312.625
3099.09087	11291.125
3101.4597	11248.025
3103.82709	11266.025
3106.19305	11282.825
3108.55757	11269.825
3110.92066	11234.125
3113.28232	11218.025
3115.64255	11145.425
3118.00134	11123.425
3120.35871	11119.725
3122.71466	11095.925
3125.06917	11089.025
3127.42226	11052.525
