Data from AgNPs_FTO_APTES_UA_5uM_CRN_500uM_R6G_10uM_NaF_0.1M_Addition_RamanShift__11__16-53-31-823.txt Node

Date: Mon Feb 07 16:53:31 GMT 2022
User: TCL
Spectrometer: QEP01345
Trigger mode: 4
Integration Time (sec): 7.000000E0
Scans to average: 10
Electric dark correction enabled: true
Nonlinearity correction enabled: false
Boxcar width: 0
XAxis mode: Raman Shifts
Number of Pixels in Spectrum: 1044
>>>>>Begin Spectral Data<<<<<
46.04893	-2.0875
50.45542	0.1125
54.85868	-0.4875
59.25871	-1.1875
63.6555	61.9125
68.04907	65.3125
72.43941	75.2125
76.82654	69.6125
81.21044	73.4125
85.59113	73.9125
89.96862	79.2125
94.34289	80.0125
98.71396	82.9125
103.08183	88.8125
107.4465	90.8125
111.80798	93.1125
116.16626	92.7125
120.52136	99.1125
124.87327	101.2125
129.222	113.8125
133.56755	111.3125
137.90993	127.2125
142.24913	141.0125
146.58517	160.3125
150.91804	185.4125
155.24774	230.3125
159.57429	288.8125
163.89768	364.4125
168.21792	495.0125
172.53501	673.6125
176.84895	948.4125
181.15975	1328.8125
185.46741	1863.7125
189.77193	2587.5125
194.07331	3460.5125
198.37157	4462.9125
202.6667	5525.8125
206.9587	6575.6125
211.24758	7605.5125
215.53334	8626.0125
219.81599	9692.5125
224.09553	10880.6125
228.37195	12191.3125
232.64527	13565.3125
236.91549	15075.8125
241.18261	16569.1125
245.44663	17994.6125
249.70755	19328.1125
253.96539	20506.0125
258.22014	21465.0125
262.4718	22195.7125
266.72039	22707.4125
270.96589	23028.1125
275.20832	23100.7125
279.44768	23077.0125
283.68397	22943.5125
287.91719	22818.0125
292.14735	22788.9125
296.37445	22832.4125
300.59849	22932.9125
304.81948	22982.2125
309.03742	22949.4125
313.25231	22744.2125
317.46415	22323.3125
321.67296	21739.3125
325.87872	21279.1125
330.08145	20998.6125
334.28114	20910.3125
338.47781	20991.3125
342.67145	21164.9125
346.86207	21402.7125
351.04966	21640.0125
355.23424	21899.8125
359.4158	22085.4125
363.59435	22261.0125
367.76989	22409.6125
371.94243	22479.3125
376.11196	22549.2125
380.27849	22568.1125
384.44203	22659.0125
388.60257	22804.5125
392.76012	23072.9125
396.91468	23386.0125
401.06626	23824.8125
405.21485	24044.3125
409.36047	23946.7125
413.50311	23693.9125
417.64277	23513.7125
421.77947	23582.6125
425.9132	23684.7125
430.04396	23851.4125
434.17176	23976.4125
438.2966	24142.0125
442.41849	24474.4125
446.53742	24991.7125
450.6534	25613.0125
454.76644	26020.4125
458.87653	26221.6125
462.98368	26233.9125
467.08789	26102.4125
471.18916	25981.7125
475.2875	25825.9125
479.38291	25799.3125
483.4754	25723.5125
487.56496	25489.6125
491.6516	25063.8125
495.73531	24504.4125
499.81612	24146.8125
503.89401	24125.3125
507.96899	24164.1125
512.04106	24218.7125
516.11023	24106.2125
520.1765	23857.0125
524.23987	23633.9125
528.30034	23342.0125
532.35792	23153.8125
536.41261	22958.5125
540.46441	22807.4125
544.51333	22824.4125
548.55936	23109.1125
552.60252	23671.8125
556.64279	24302.2125
560.6802	24779.0125
564.71473	25155.5125
568.7464	25709.6125
572.7752	26703.0125
576.80114	27749.8125
580.82422	28641.5125
584.84444	29314.6125
588.86181	30092.2125
592.87633	30779.7125
596.888	30565.8125
600.89682	29361.3125
604.9028	28521.9125
608.90594	29043.1125
612.90624	29850.1125
616.90371	28098.2125
620.89834	24777.8125
624.89015	23361.5125
628.87913	23330.0125
632.86528	23650.0125
636.84862	23695.3125
640.82913	23331.3125
644.80683	22829.1125
648.78172	22463.8125
652.75379	22398.6125
656.72306	22539.3125
660.68952	22695.8125
664.65319	22646.6125
668.61405	22392.1125
672.57211	22382.1125
676.52738	22411.9125
680.47986	22451.3125
684.42955	22425.1125
688.37646	22323.5125
692.32058	22351.3125
696.26192	22531.0125
700.20048	22770.3125
704.13626	22932.5125
708.06928	23098.1125
711.99952	23187.2125
715.927	23110.8125
719.85171	23039.9125
723.77365	22851.1125
727.69284	22557.2125
731.60928	22275.8125
735.52295	22153.2125
739.43388	22086.9125
743.34206	22128.6125
747.24749	22271.7125
751.15017	22519.9125
755.05012	22950.4125
758.94733	23590.3125
762.8418	24618.7125
766.73354	26068.6125
770.62254	27325.8125
774.50882	27424.6125
778.39237	26282.0125
782.27321	24738.5125
786.15132	23435.3125
790.02671	22636.7125
793.89938	22175.5125
797.76935	21981.5125
801.6366	21852.9125
805.50115	21819.3125
809.36299	21672.9125
813.22213	21615.0125
817.07857	21605.7125
820.93231	21593.3125
824.78336	21457.7125
828.63172	21352.5125
832.47738	21252.3125
836.32036	21198.7125
840.16066	21180.8125
843.99827	21174.2125
847.8332	21166.9125
851.66546	21204.9125
855.49504	21186.2125
859.32195	21232.1125
863.1462	21176.2125
866.96777	21084.4125
870.78668	21032.1125
874.60293	21100.1125
878.41652	21057.6125
882.22745	21131.7125
886.03573	21131.2125
889.84136	21128.8125
893.64433	21103.5125
897.44466	21060.6125
901.24235	20991.1125
905.0374	20971.6125
908.8298	20961.9125
912.61957	21045.4125
916.40671	21383.4125
920.19121	21718.3125
923.97308	21898.3125
927.75233	21776.0125
931.52895	21494.7125
935.30295	21097.7125
939.07433	20713.4125
942.84309	20351.0125
946.60924	20190.9125
950.37278	20062.7125
954.13371	20048.5125
957.89203	20068.3125
961.64774	20059.2125
965.40086	20063.9125
969.15137	20007.9125
972.89929	19845.8125
976.64461	19730.2125
980.38733	19635.3125
984.12747	19606.1125
987.86502	19662.8125
991.59999	19685.3125
995.33237	19811.0125
999.06217	19979.4125
1002.78939	20188.1125
1006.51404	20463.0125
1010.23611	20798.6125
1013.95561	20951.5125
1017.67255	21058.8125
1021.38692	20961.2125
1025.09872	20705.0125
1028.80796	20453.0125
1032.51465	20355.7125
1036.21877	20405.0125
1039.92035	20427.2125
1043.61937	20574.0125
1047.31584	20652.7125
1051.00976	20803.4125
1054.70114	20903.6125
1058.38998	21111.6125
1062.07627	21393.3125
1065.76003	21729.6125
1069.44126	21966.4125
1073.11995	22276.9125
1076.79611	22502.3125
1080.46974	22624.4125
1084.14085	22604.7125
1087.80943	22758.1125
1091.47549	22962.1125
1095.13903	23099.0125
1098.80005	22961.8125
1102.45857	22496.4125
1106.11456	21916.8125
1109.76805	21621.8125
1113.41903	21547.0125
1117.06751	21701.1125
1120.71348	21853.2125
1124.35696	22106.3125
1127.99793	22436.1125
1131.63641	22664.9125
1135.2724	22636.8125
1138.90589	22493.7125
1142.5369	22554.5125
1146.16542	22757.0125
1149.79145	23100.9125
1153.415	23424.5125
1157.03607	23801.5125
1160.65467	24449.8125
1164.27079	25417.9125
1167.88443	26634.3125
1171.49561	27907.6125
1175.10432	29349.2125
1178.71056	31142.9125
1182.31434	32850.7125
1185.91565	33889.2125
1189.51451	34112.2125
1193.11091	33736.8125
1196.70485	32984.5125
1200.29634	32033.5125
1203.88538	31254.7125
1207.47197	30930.3125
1211.05612	30773.2125
1214.63782	30365.8125
1218.21708	29473.5125
1221.79391	28376.0125
1225.36829	27393.8125
1228.94024	26813.0125
1232.50976	26438.7125
1236.07685	26125.8125
1239.6415	25932.4125
1243.20374	25941.0125
1246.76355	26108.1125
1250.32093	26421.8125
1253.8759	26809.0125
1257.42845	27452.8125
1260.97859	28176.5125
1264.52631	28881.1125
1268.07163	29567.5125
1271.61453	30361.7125
1275.15503	31134.0125
1278.69312	32091.8125
1282.22882	33215.0125
1285.76211	34465.7125
1289.29301	35969.6125
1292.82151	37814.2125
1296.34761	39964.2125
1299.87133	42187.5125
1303.39266	44303.9125
1306.9116	45880.5125
1310.42815	46974.9125
1313.94233	47325.6125
1317.45412	47018.1125
1320.96354	46611.0125
1324.47058	46379.4125
1327.97525	46251.5125
1331.47754	46272.2125
1334.97747	46156.3125
1338.47502	46008.9125
1341.97022	45700.2125
1345.46305	45511.5125
1348.95352	45082.7125
1352.44163	44623.3125
1355.92738	44511.5125
1359.41078	44981.9125
1362.89183	45403.3125
1366.37053	44521.6125
1369.84688	41759.0125
1373.32088	38281.5125
1376.79254	35772.4125
1380.26186	34895.6125
1383.72883	35023.3125
1387.19347	35299.3125
1390.65578	35243.0125
1394.11575	35278.9125
1397.57339	35472.6125
1401.0287	35841.0125
1404.48168	35992.6125
1407.93234	35625.9125
1411.38068	34546.5125
1414.82669	33097.6125
1418.27039	31358.2125
1421.71177	29883.2125
1425.15083	28639.4125
1428.58758	28033.2125
1432.02203	28110.0125
1435.45416	28739.7125
1438.88399	29535.7125
1442.31151	30231.7125
1445.73673	30661.1125
1449.15965	31145.8125
1452.58027	31536.1125
1455.9986	31905.4125
1459.41463	32245.4125
1462.82837	32632.8125
1466.23982	33034.7125
1469.64898	33446.9125
1473.05586	33640.3125
1476.46045	33553.1125
1479.86276	33358.8125
1483.26279	33045.5125
1486.66054	32896.1125
1490.05602	33032.5125
1493.44922	33411.5125
1496.84016	33926.2125
1500.22882	34781.6125
1503.61521	35761.4125
1506.99934	36832.7125
1510.38121	37721.7125
1513.76081	37962.3125
1517.13816	37666.7125
1520.51324	37218.2125
1523.88607	37015.4125
1527.25665	37146.7125
1530.62498	37175.9125
1533.99105	36958.7125
1537.35488	36383.4125
1540.71647	35401.3125
1544.07581	34166.6125
1547.4329	32913.5125
1550.78776	31867.1125
1554.14038	31119.2125
1557.49077	30649.3125
1560.83892	30461.3125
1564.18484	30415.4125
1567.52853	30540.9125
1570.86999	30898.2125
1574.20922	31574.8125
1577.54624	32235.9125
1580.88103	32549.3125
1584.2136	32839.8125
1587.54395	33480.7125
1590.87208	34709.4125
1594.19801	36223.1125
1597.52172	37640.2125
1600.84321	37913.1125
1604.16251	36382.7125
1607.47959	33770.9125
1610.79447	31100.7125
1614.10715	28643.1125
1617.41763	26568.7125
1620.7259	25055.9125
1624.03199	24240.3125
1627.33587	24069.2125
1630.63757	24581.0125
1633.93707	25937.4125
1637.23439	28317.8125
1640.52951	31861.3125
1643.82246	36301.3125
1647.11321	40243.7125
1650.40179	41799.5125
1653.68819	40000.4125
1656.97241	35602.5125
1660.25446	30593.6125
1663.53433	26492.0125
1666.81203	23454.7125
1670.08756	21506.2125
1673.36092	20235.1125
1676.63211	19454.7125
1679.90115	18892.3125
1683.16801	18509.1125
1686.43272	18161.8125
1689.69527	17959.2125
1692.95567	17827.0125
1696.2139	17670.5125
1699.46999	17519.1125
1702.72392	17427.9125
1705.97571	17363.0125
1709.22535	17293.6125
1712.47284	17254.2125
1715.71819	17209.4125
1718.96139	17138.0125
1722.20246	17086.1125
1725.44139	16990.9125
1728.67818	16885.0125
1731.91284	16780.4125
1735.14537	16703.1125
1738.37576	16585.9125
1741.60403	16533.4125
1744.83017	16444.4125
1748.05418	16373.3125
1751.27607	16377.4125
1754.49584	16368.5125
1757.71349	16301.4125
1760.92903	16288.1125
1764.14244	16276.4125
1767.35375	16275.6125
1770.56294	16192.2125
1773.77002	16106.2125
1776.97499	16074.6125
1780.17785	16022.9125
1783.37861	15998.4125
1786.57727	15957.2125
1789.77382	15940.6125
1792.96828	15909.9125
1796.16064	15838.5125
1799.3509	15792.8125
1802.53907	15726.3125
1805.72514	15709.8125
1808.90913	15643.4125
1812.09102	15635.9125
1815.27083	15547.9125
1818.44856	15514.4125
1821.6242	15489.0125
1824.79776	15466.8125
1827.96924	15414.0125
1831.13864	15430.0125
1834.30597	15392.7125
1837.47122	15361.8125
1840.6344	15340.7125
1843.7955	15357.1125
1846.95454	15317.6125
1850.11151	15283.0125
1853.26642	15229.5125
1856.41926	15247.5125
1859.57004	15244.4125
1862.71876	15211.3125
1865.86542	15179.8125
1869.01003	15164.2125
1872.15258	15108.4125
1875.29308	15127.4125
1878.43152	15076.7125
1881.56792	15053.8125
1884.70227	15016.6125
1887.83457	14985.9125
1890.96482	14976.6125
1894.09304	14922.4125
1897.21921	14925.5125
1900.34335	14876.5125
1903.46544	14860.0125
1906.58551	14848.0125
1909.70353	14811.2125
1912.81953	14748.6125
1915.93349	14715.1125
1919.04543	14695.2125
1922.15534	14666.3125
1925.26322	14641.8125
1928.36908	14609.2125
1931.47292	14558.2125
1934.57473	14531.6125
1937.67453	14480.0125
1940.77232	14443.6125
1943.86808	14389.2125
1946.96184	14309.0125
1950.05358	14290.6125
1953.14331	14219.2125
1956.23103	14142.6125
1959.31675	14121.3125
1962.40046	14099.8125
1965.48217	14032.7125
1968.56188	13952.3125
1971.63959	13908.6125
1974.7153	13886.5125
1977.78901	13842.0125
1980.86073	13789.5125
1983.93046	13763.2125
1986.99819	13702.3125
1990.06394	13679.1125
1993.1277	13616.6125
1996.18947	13535.9125
1999.24925	13503.3125
2002.30706	13455.1125
2005.36288	13433.9125
2008.41672	13371.0125
2011.46859	13308.6125
2014.51848	13281.6125
2017.56639	13254.8125
2020.61233	13187.7125
2023.6563	13142.7125
2026.6983	13066.2125
2029.73833	13036.8125
2032.7764	13023.6125
2035.8125	13001.4125
2038.84664	12939.3125
2041.87881	12932.3125
2044.90903	12881.7125
2047.93729	12839.0125
2050.96359	12818.2125
2053.98794	12807.0125
2057.01034	12791.2125
2060.03078	12783.9125
2063.04927	12797.3125
2066.06582	12770.2125
2069.08042	12790.2125
2072.09307	12749.5125
2075.10378	12742.0125
2078.11255	12700.3125
2081.11938	12707.5125
2084.12426	12675.2125
2087.12722	12653.3125
2090.12824	12663.6125
2093.12732	12643.4125
2096.12447	12640.8125
2099.11969	12644.3125
2102.11299	12611.5125
2105.10435	12610.6125
2108.09379	12614.1125
2111.08131	12599.9125
2114.0669	12614.3125
2117.05057	12632.0125
2120.03233	12625.3125
2123.01216	12637.9125
2125.99008	12626.0125
2128.96609	12621.0125
2131.94018	12623.2125
2134.91236	12637.9125
2137.88263	12604.6125
2140.851	12600.4125
2143.81746	12617.6125
2146.78201	12594.0125
2149.74466	12583.3125
2152.7054	12563.1125
2155.66425	12547.4125
2158.6212	12550.9125
2161.57625	12527.9125
2164.52941	12511.1125
2167.48067	12519.7125
2170.43004	12467.2125
2173.37752	12466.6125
2176.32311	12486.3125
2179.26681	12471.5125
2182.20863	12488.9125
2185.14856	12465.5125
2188.08661	12488.4125
2191.02278	12480.9125
2193.95707	12435.8125
2196.88948	12400.6125
2199.82001	12394.5125
2202.74867	12357.6125
2205.67545	12342.5125
2208.60037	12309.9125
2211.52341	12277.6125
2214.44458	12227.6125
2217.36388	12194.5125
2220.28132	12176.8125
2223.1969	12146.1125
2226.11061	12173.5125
2229.02246	12102.0125
2231.93245	12091.1125
2234.84058	12052.0125
2237.74686	12016.9125
2240.65128	12003.9125
2243.55385	12018.0125
2246.45456	12009.1125
2249.35343	11973.4125
2252.25044	11934.7125
2255.14561	11900.5125
2258.03893	11849.3125
2260.93041	11790.3125
2263.82004	11758.8125
2266.70783	11750.9125
2269.59378	11724.5125
2272.4779	11680.9125
2275.36017	11605.4125
2278.24061	11610.0125
2281.11922	11583.8125
2283.996	11625.2125
2286.87094	11550.8125
2289.74405	11551.3125
2292.61534	11503.6125
2295.4848	11467.6125
2298.35243	11498.0125
2301.21824	11478.9125
2304.08223	11463.8125
2306.94439	11455.3125
2309.80474	11437.8125
2312.66327	11423.8125
2315.51999	11400.9125
2318.37489	11368.6125
2321.22797	11361.4125
2324.07925	11299.7125
2326.92871	11302.6125
2329.77637	11290.9125
2332.62222	11249.8125
2335.46626	11249.9125
2338.3085	11229.2125
2341.14893	11220.6125
2343.98756	11205.9125
2346.8244	11170.9125
2349.65943	11173.4125
2352.49267	11171.6125
2355.32411	11143.1125
2358.15376	11146.1125
2360.98161	11156.9125
2363.80768	11145.9125
2366.63195	11133.0125
2369.45444	11110.3125
2372.27514	11101.8125
2375.09405	11077.5125
2377.91118	11038.5125
2380.72652	11047.1125
2383.54009	11007.4125
2386.35187	11006.9125
2389.16188	10946.6125
2391.97011	10930.3125
2394.77657	10898.1125
2397.58125	10834.6125
2400.38416	10827.3125
2403.18529	10809.3125
2405.98466	10816.1125
2408.78226	10790.2125
2411.57809	10777.1125
2414.37216	10761.3125
2417.16446	10770.9125
2419.955	10727.1125
2422.74378	10715.1125
2425.5308	10714.5125
2428.31606	10683.4125
2431.09956	10644.8125
2433.88131	10675.8125
2436.6613	10678.0125
2439.43954	10658.7125
2442.21603	10676.9125
2444.99077	10610.7125
2447.76377	10614.7125
2450.53501	10593.6125
2453.30451	10560.3125
2456.07226	10549.5125
2458.83827	10540.0125
2461.60254	10522.9125
2464.36507	10541.0125
2467.12586	10546.2125
2469.88492	10520.7125
2472.64224	10516.9125
2475.39782	10499.4125
2478.15167	10523.0125
2480.90379	10497.9125
2483.65417	10497.2125
2486.40283	10474.7125
2489.14976	10486.1125
2491.89497	10481.4125
2494.63845	10463.3125
2497.3802	10456.3125
2500.12024	10438.8125
2502.85855	10431.6125
2505.59514	10449.5125
2508.33002	10428.7125
2511.06318	10410.6125
2513.79462	10384.8125
2516.52435	10383.0125
2519.25237	10359.7125
2521.97867	10330.1125
2524.70327	10325.2125
2527.42616	10299.0125
2530.14734	10320.4125
2532.86681	10306.5125
2535.58458	10293.0125
2538.30065	10291.6125
2541.01501	10269.0125
2543.72768	10229.2125
2546.43864	10241.1125
2549.14791	10206.3125
2551.85548	10218.3125
2554.56136	10167.0125
2557.26554	10149.5125
2559.96803	10116.9125
2562.66883	10131.1125
2565.36794	10107.1125
2568.06536	10086.6125
2570.7611	10071.7125
2573.45514	10064.8125
2576.14751	10043.9125
2578.83819	10014.6125
2581.52719	10017.8125
2584.21451	10004.1125
2586.90015	10000.9125
2589.58411	9982.6125
2592.2664	9975.7125
2594.94701	9946.9125
2597.62594	9940.0125
2600.30321	9898.4125
2602.9788	9911.7125
2605.65273	9924.1125
2608.32498	9908.2125
2610.99557	9914.8125
2613.66449	9901.1125
2616.33175	9858.7125
2618.99734	9865.6125
2621.66128	9874.4125
2624.32355	9851.3125
2626.98416	9829.2125
2629.64311	9799.3125
2632.30041	9798.1125
2634.95605	9786.7125
2637.61004	9755.2125
2640.26238	9753.3125
2642.91306	9757.4125
2645.56209	9739.6125
2648.20948	9750.1125
2650.85521	9771.4125
2653.4993	9774.4125
2656.14175	9740.5125
2658.78255	9785.6125
2661.42171	9766.2125
2664.05923	9762.0125
2666.6951	9738.6125
2669.32934	9764.3125
2671.96194	9739.4125
2674.59291	9756.9125
2677.22224	9725.0125
2679.84993	9726.0125
2682.476	9714.5125
2685.10043	9698.5125
2687.72324	9712.7125
2690.34441	9713.4125
2692.96396	9677.6125
2695.58188	9700.8125
2698.19818	9701.5125
2700.81285	9711.7125
2703.4259	9692.8125
2706.03733	9693.4125
2708.64714	9712.8125
2711.25533	9704.8125
2713.86191	9728.6125
2716.46687	9738.6125
2719.07021	9741.3125
2721.67194	9710.5125
2724.27206	9719.0125
2726.87057	9712.4125
2729.46747	9721.1125
2732.06276	9743.7125
2734.65644	9704.0125
2737.24852	9698.4125
2739.83899	9688.8125
2742.42786	9697.6125
2745.01513	9668.4125
2747.60079	9669.9125
2750.18486	9657.1125
2752.76733	9647.6125
2755.3482	9625.4125
2757.92747	9624.4125
2760.50515	9588.1125
2763.08123	9608.0125
2765.65573	9586.7125
2768.22863	9554.9125
2770.79994	9559.7125
2773.36967	9572.7125
2775.9378	9563.8125
2778.50435	9569.0125
2781.06932	9556.0125
2783.6327	9538.2125
2786.1945	9510.2125
2788.75471	9531.0125
2791.31335	9505.1125
2793.87041	9526.6125
2796.42589	9494.2125
2798.97979	9468.3125
2801.53212	9448.1125
2804.08288	9428.9125
2806.63206	9417.1125
2809.17967	9396.6125
2811.72571	9372.8125
2814.27018	9366.2125
2816.81308	9340.2125
2819.35442	9319.7125
2821.89419	9286.3125
2824.43239	9305.8125
2826.96904	9267.0125
2829.50412	9276.2125
2832.03763	9226.5125
2834.56959	9236.1125
2837.1	9236.3125
2839.62884	9259.6125
2842.15613	9269.0125
2844.68186	9307.6125
2847.20604	9338.5125
2849.72867	9341.6125
2852.24974	9354.0125
2854.76927	9344.7125
2857.28724	9314.9125
2859.80367	9300.1125
2862.31855	9262.8125
2864.83189	9268.3125
2867.34368	9249.1125
2869.85393	9229.5125
2872.36264	9207.6125
2874.8698	9212.4125
2877.37543	9202.6125
2879.87952	9172.4125
2882.38207	9180.0125
2884.88308	9173.6125
2887.38256	9175.0125
2889.88051	9145.1125
2892.37692	9154.1125
2894.8718	9177.6125
2897.36515	9176.1125
2899.85698	9166.0125
2902.34727	9188.8125
2904.83604	9169.3125
2907.32328	9178.0125
2909.809	9175.6125
2912.29319	9184.2125
2914.77587	9182.4125
2917.25702	9151.4125
2919.73665	9135.2125
2922.21476	9163.3125
2924.69136	9144.3125
2927.16644	9145.6125
2929.64	9170.6125
2932.11205	9147.4125
2934.58258	9112.2125
2937.05161	9114.1125
2939.51912	9104.6125
2941.98513	9089.4125
2944.44962	9044.1125
2946.91261	9008.8125
2949.37409	9008.6125
2951.83407	8995.4125
2954.29254	8969.6125
2956.74951	8967.7125
2959.20498	8948.7125
2961.65895	8927.2125
2964.11142	8933.5125
2966.56239	8891.9125
2969.01186	8912.4125
2971.45984	8860.0125
2973.90632	8857.6125
2976.35131	8821.0125
2978.7948	8793.4125
2981.23681	8774.4125
2983.67732	8763.3125
2986.11635	8742.0125
2988.55388	8679.1125
2990.98993	8680.7125
2993.4245	8640.5125
2995.85758	8614.8125
2998.28917	8617.5125
3000.71928	8580.7125
3003.14791	8560.7125
3005.57506	8531.4125
3008.00073	8504.9125
3010.42493	8503.3125
3012.84764	8480.7125
3015.26888	8474.6125
3017.68865	8422.6125
3020.10694	8399.6125
3022.52376	8397.0125
3024.9391	8390.6125
3027.35298	8363.7125
3029.76539	8347.1125
3032.17632	8348.8125
3034.5858	8312.9125
3036.9938	8331.2125
3039.40034	8330.9125
3041.80542	8318.6125
3044.20903	8291.8125
