Data from AgNPs_FTO_APTES_UA_5uM_CRN_2uM_R6G_10uM_NaF_0.1M_Addition_RamanShift__1__10-58-06-611.txt Node

Date: Mon Feb 07 10:58:06 GMT 2022
User: TCL
Spectrometer: QEP01345
Trigger mode: 4
Integration Time (sec): 7.000000E0
Scans to average: 10
Electric dark correction enabled: true
Nonlinearity correction enabled: false
Boxcar width: 0
XAxis mode: Raman Shifts
Number of Pixels in Spectrum: 1044
>>>>>Begin Spectral Data<<<<<
46.04893	-1.1625
50.45542	-1.6625
54.85868	-1.2625
59.25871	-0.5625
63.6555	102.5375
68.04907	108.1375
72.43941	113.7375
76.82654	117.7375
81.21044	120.1375
85.59113	125.4375
89.96862	131.5375
94.34289	134.1375
98.71396	138.8375
103.08183	142.3375
107.4465	145.9375
111.80798	147.7375
116.16626	156.7375
120.52136	160.4375
124.87327	167.0375
129.222	179.6375
133.56755	186.5375
137.90993	207.2375
142.24913	221.7375
146.58517	248.8375
150.91804	296.2375
155.24774	352.1375
159.57429	442.3375
163.89768	562.4375
168.21792	754.5375
172.53501	1027.8375
176.84895	1422.5375
181.15975	2011.9375
185.46741	2812.7375
189.77193	3887.3375
194.07331	5203.7375
198.37157	6706.6375
202.6667	8265.9375
206.9587	9832.3375
211.24758	11394.0375
215.53334	12979.3375
219.81599	14681.6375
224.09553	16573.4375
228.37195	18640.2375
232.64527	20879.4375
236.91549	23215.7375
241.18261	25497.9375
245.44663	27566.9375
249.70755	29383.6375
253.96539	30969.8375
258.22014	32293.6375
262.4718	33343.9375
266.72039	34157.0375
270.96589	34511.5375
275.20832	34473.1375
279.44768	34133.1375
283.68397	33789.1375
287.91719	33470.8375
292.14735	33255.5375
296.37445	33269.0375
300.59849	33460.0375
304.81948	33843.6375
309.03742	34135.3375
313.25231	34050.5375
317.46415	33527.8375
321.67296	32831.9375
325.87872	32090.2375
330.08145	31773.8375
334.28114	31643.7375
338.47781	31870.3375
342.67145	32297.9375
346.86207	32792.7375
351.04966	33514.6375
355.23424	34267.8375
359.4158	34949.7375
363.59435	35473.1375
367.76989	35770.2375
371.94243	35985.7375
376.11196	36082.7375
380.27849	36179.7375
384.44203	36335.3375
388.60257	36561.3375
392.76012	36909.6375
396.91468	37331.6375
401.06626	37906.4375
405.21485	38444.6375
409.36047	38403.2375
413.50311	37997.5375
417.64277	37788.8375
421.77947	37933.8375
425.9132	38115.4375
430.04396	38292.4375
434.17176	38456.6375
438.2966	38664.5375
442.41849	39318.9375
446.53742	40614.6375
450.6534	42101.9375
454.76644	43024.1375
458.87653	43052.0375
462.98368	42384.1375
467.08789	41437.2375
471.18916	40476.1375
475.2875	39469.9375
479.38291	38810.5375
483.4754	38450.1375
487.56496	38115.2375
491.6516	37766.1375
495.73531	37504.0375
499.81612	37349.1375
503.89401	37589.2375
507.96899	37711.2375
512.04106	37506.8375
516.11023	37182.4375
520.1765	36812.7375
524.23987	36634.5375
528.30034	36523.7375
532.35792	36337.3375
536.41261	35700.3375
540.46441	34997.5375
544.51333	34674.4375
548.55936	34968.0375
552.60252	35758.6375
556.64279	36770.2375
560.6802	37659.8375
564.71473	38095.1375
568.7464	38750.0375
572.7752	39917.3375
576.80114	41100.4375
580.82422	42447.5375
584.84444	44665.2375
588.86181	47560.2375
592.87633	50198.4375
596.888	50264.2375
600.89682	47457.9375
604.9028	46070.4375
608.90594	49218.8375
612.90624	53445.9375
616.90371	50573.5375
620.89834	41880.5375
624.89015	37820.4375
628.87913	37184.6375
632.86528	37138.2375
636.84862	36809.0375
640.82913	35849.8375
644.80683	34789.7375
648.78172	34160.8375
652.75379	34330.0375
656.72306	34895.6375
660.68952	35576.1375
664.65319	35328.5375
668.61405	34541.9375
672.57211	34369.4375
676.52738	34583.9375
680.47986	34510.3375
684.42955	34043.5375
688.37646	33860.4375
692.32058	34236.9375
696.26192	35057.0375
700.20048	35805.3375
704.13626	36173.3375
708.06928	36029.4375
711.99952	35653.0375
715.927	35746.9375
719.85171	36112.3375
723.77365	36018.3375
727.69284	35284.6375
731.60928	34604.5375
735.52295	34392.3375
739.43388	34451.2375
743.34206	34641.6375
747.24749	34889.0375
751.15017	35281.4375
755.05012	35881.4375
758.94733	36916.1375
762.8418	38786.7375
766.73354	41618.3375
770.62254	44346.8375
774.50882	44986.1375
778.39237	43127.5375
782.27321	40159.8375
786.15132	37551.5375
790.02671	35856.2375
793.89938	35156.5375
797.76935	34903.7375
801.6366	34870.5375
805.50115	34751.9375
809.36299	34593.6375
813.22213	34252.4375
817.07857	33968.4375
820.93231	33762.7375
824.78336	33666.7375
828.63172	33631.0375
832.47738	33681.8375
836.32036	33830.5375
840.16066	34086.9375
843.99827	34262.1375
847.8332	34114.4375
851.66546	34000.9375
855.49504	33883.3375
859.32195	33865.4375
863.1462	33755.7375
866.96777	33565.6375
870.78668	33443.6375
874.60293	33361.5375
878.41652	33432.6375
882.22745	33640.1375
886.03573	33796.2375
889.84136	33752.1375
893.64433	33532.5375
897.44466	33395.8375
901.24235	33230.1375
905.0374	33157.9375
908.8298	33085.0375
912.61957	33169.8375
916.40671	33480.1375
920.19121	34056.5375
923.97308	34706.6375
927.75233	35138.8375
931.52895	35047.3375
935.30295	34521.2375
939.07433	33719.3375
942.84309	33166.2375
946.60924	32919.5375
950.37278	32849.1375
954.13371	32759.9375
957.89203	32624.6375
961.64774	32516.0375
965.40086	32510.3375
969.15137	32530.9375
972.89929	32446.7375
976.64461	32536.9375
980.38733	32695.0375
984.12747	32927.6375
987.86502	33285.5375
991.59999	33768.1375
995.33237	34401.8375
999.06217	35556.5375
1002.78939	36963.5375
1006.51404	37867.5375
1010.23611	38417.3375
1013.95561	38717.0375
1017.67255	38690.9375
1021.38692	38096.0375
1025.09872	37409.3375
1028.80796	37671.3375
1032.51465	39125.5375
1036.21877	40668.3375
1039.92035	40964.7375
1043.61937	40420.3375
1047.31584	39145.6375
1051.00976	37809.8375
1054.70114	37032.8375
1058.38998	36732.8375
1062.07627	36673.2375
1065.76003	36742.6375
1069.44126	37088.8375
1073.11995	37714.2375
1076.79611	38477.6375
1080.46974	38900.9375
1084.14085	39288.3375
1087.80943	39804.2375
1091.47549	40137.2375
1095.13903	40022.7375
1098.80005	39234.8375
1102.45857	38284.6375
1106.11456	37539.1375
1109.76805	37248.1375
1113.41903	37302.7375
1117.06751	37398.7375
1120.71348	37778.9375
1124.35696	38178.5375
1127.99793	38713.3375
1131.63641	38975.9375
1135.2724	38813.5375
1138.90589	38558.0375
1142.5369	38563.4375
1146.16542	38717.5375
1149.79145	38969.4375
1153.415	39297.1375
1157.03607	39899.9375
1160.65467	41239.8375
1164.27079	43480.0375
1167.88443	46215.1375
1171.49561	49010.3375
1175.10432	52440.0375
1178.71056	57141.2375
1182.31434	61605.1375
1185.91565	63537.6375
1189.51451	62561.9375
1193.11091	59920.0375
1196.70485	57093.4375
1200.29634	54877.2375
1203.88538	53506.7375
1207.47197	52881.1375
1211.05612	52172.6375
1214.63782	51089.2375
1218.21708	49965.4375
1221.79391	49087.7375
1225.36829	48606.6375
1228.94024	47860.1375
1232.50976	46646.6375
1236.07685	45410.2375
1239.6415	44748.1375
1243.20374	44665.2375
1246.76355	45132.4375
1250.32093	46154.3375
1253.8759	47353.5375
1257.42845	48848.1375
1260.97859	50482.3375
1264.52631	52188.8375
1268.07163	54023.6375
1271.61453	55966.0375
1275.15503	58033.4375
1278.69312	60080.3375
1282.22882	62196.3375
1285.76211	64518.7375
1289.29301	67168.4375
1292.82151	70311.7375
1296.34761	74389.2375
1299.87133	79598.1375
1303.39266	85581.6375
1306.9116	91513.8375
1310.42815	95802.0375
1313.94233	97456.9375
1317.45412	95635.8375
1320.96354	91871.4375
1324.47058	88178.1375
1327.97525	85316.0375
1331.47754	83637.3375
1334.97747	82261.2375
1338.47502	80464.6375
1341.97022	78034.7375
1345.46305	75625.6375
1348.95352	74704.3375
1352.44163	76235.7375
1355.92738	80756.0375
1359.41078	87277.9375
1362.89183	92454.6375
1366.37053	91913.8375
1369.84688	84237.8375
1373.32088	73340.4375
1376.79254	65654.6375
1380.26186	62904.8375
1383.72883	62744.0375
1387.19347	62454.3375
1390.65578	61105.3375
1394.11575	60395.6375
1397.57339	61051.9375
1401.0287	62543.4375
1404.48168	63972.0375
1407.93234	64390.3375
1411.38068	63425.1375
1414.82669	61384.8375
1418.27039	58840.9375
1421.71177	56297.0375
1425.15083	54069.2375
1428.58758	53175.5375
1432.02203	53965.6375
1435.45416	55994.0375
1438.88399	57911.6375
1442.31151	59091.1375
1445.73673	59661.8375
1449.15965	59930.6375
1452.58027	59554.0375
1455.9986	58762.8375
1459.41463	58359.9375
1462.82837	59135.0375
1466.23982	60604.6375
1469.64898	62419.7375
1473.05586	63625.0375
1476.46045	64260.3375
1479.86276	64216.5375
1483.26279	63798.4375
1486.66054	63629.6375
1490.05602	63902.2375
1493.44922	64398.6375
1496.84016	64889.1375
1500.22882	65354.4375
1503.61521	66458.9375
1506.99934	68165.4375
1510.38121	69875.2375
1513.76081	70470.5375
1517.13816	69231.2375
1520.51324	66803.6375
1523.88607	64761.2375
1527.25665	64083.7375
1530.62498	64028.2375
1533.99105	63710.2375
1537.35488	62788.0375
1540.71647	61373.0375
1544.07581	59699.4375
1547.4329	57904.3375
1550.78776	56316.4375
1554.14038	55075.9375
1557.49077	54310.1375
1560.83892	53779.9375
1564.18484	53540.8375
1567.52853	53664.1375
1570.86999	54165.5375
1574.20922	55091.8375
1577.54624	55931.5375
1580.88103	56303.0375
1584.2136	57208.1375
1587.54395	60028.2375
1590.87208	64815.0375
1594.19801	70686.7375
1597.52172	75806.2375
1600.84321	77024.8375
1604.16251	72647.9375
1607.47959	64939.5375
1610.79447	56970.6375
1614.10715	50582.0375
1617.41763	46267.3375
1620.7259	43797.0375
1624.03199	42955.9375
1627.33587	43410.9375
1630.63757	45170.9375
1633.93707	48518.0375
1637.23439	53960.3375
1640.52951	62214.1375
1643.82246	72403.0375
1647.11321	80862.3375
1650.40179	82018.5375
1653.68819	74282.5375
1656.97241	62215.3375
1660.25446	51516.7375
1663.53433	44188.3375
1666.81203	39816.0375
1670.08756	37275.6375
1673.36092	35619.4375
1676.63211	34615.1375
1679.90115	33946.8375
1683.16801	33399.5375
1686.43272	32981.7375
1689.69527	32735.9375
1692.95567	32502.6375
1696.2139	32378.3375
1699.46999	32225.8375
1702.72392	32139.7375
1705.97571	32107.7375
1709.22535	31979.4375
1712.47284	31942.2375
1715.71819	31909.1375
1718.96139	31799.9375
1722.20246	31824.9375
1725.44139	31686.3375
1728.67818	31452.9375
1731.91284	31237.4375
1735.14537	31096.1375
1738.37576	30980.6375
1741.60403	30842.6375
1744.83017	30681.1375
1748.05418	30643.0375
1751.27607	30582.7375
1754.49584	30513.5375
1757.71349	30496.3375
1760.92903	30415.3375
1764.14244	30475.4375
1767.35375	30472.2375
1770.56294	30414.1375
1773.77002	30347.5375
1776.97499	30344.8375
1780.17785	30230.3375
1783.37861	30211.7375
1786.57727	30185.0375
1789.77382	30087.6375
1792.96828	30091.8375
1796.16064	30027.2375
1799.3509	30000.9375
1802.53907	29928.6375
1805.72514	29892.1375
1808.90913	29789.5375
1812.09102	29745.2375
1815.27083	29692.2375
1818.44856	29654.6375
1821.6242	29646.7375
1824.79776	29565.5375
1827.96924	29535.9375
1831.13864	29563.5375
1834.30597	29504.1375
1837.47122	29532.4375
1840.6344	29477.6375
1843.7955	29494.7375
1846.95454	29514.3375
1850.11151	29521.4375
1853.26642	29467.8375
1856.41926	29504.3375
1859.57004	29539.1375
1862.71876	29518.3375
1865.86542	29442.7375
1869.01003	29435.0375
1872.15258	29354.4375
1875.29308	29362.4375
1878.43152	29388.2375
1881.56792	29421.1375
1884.70227	29358.1375
1887.83457	29335.5375
1890.96482	29293.9375
1894.09304	29288.3375
1897.21921	29275.9375
1900.34335	29245.6375
1903.46544	29215.2375
1906.58551	29185.8375
1909.70353	29148.2375
1912.81953	29126.0375
1915.93349	29117.7375
1919.04543	29061.4375
1922.15534	29016.5375
1925.26322	28912.2375
1928.36908	28889.5375
1931.47292	28815.2375
1934.57473	28784.1375
1937.67453	28680.9375
1940.77232	28589.6375
1943.86808	28479.8375
1946.96184	28453.2375
1950.05358	28329.9375
1953.14331	28322.7375
1956.23103	28230.5375
1959.31675	28172.1375
1962.40046	28127.9375
1965.48217	28014.3375
1968.56188	27977.4375
1971.63959	27899.9375
1974.7153	27767.2375
1977.78901	27706.2375
1980.86073	27620.5375
1983.93046	27521.3375
1986.99819	27460.1375
1990.06394	27434.9375
1993.1277	27363.9375
1996.18947	27267.1375
1999.24925	27178.4375
2002.30706	27100.1375
2005.36288	27041.4375
2008.41672	26980.7375
2011.46859	26890.9375
2014.51848	26871.9375
2017.56639	26776.2375
2020.61233	26775.1375
2023.6563	26720.5375
2026.6983	26659.4375
2029.73833	26635.4375
2032.7764	26576.6375
2035.8125	26560.6375
2038.84664	26520.4375
2041.87881	26531.8375
2044.90903	26486.8375
2047.93729	26459.0375
2050.96359	26437.7375
2053.98794	26390.3375
2057.01034	26393.6375
2060.03078	26389.3375
2063.04927	26369.3375
2066.06582	26341.3375
2069.08042	26325.0375
2072.09307	26294.5375
2075.10378	26273.8375
2078.11255	26260.7375
2081.11938	26261.5375
2084.12426	26239.1375
2087.12722	26243.2375
2090.12824	26203.4375
2093.12732	26214.9375
2096.12447	26255.4375
2099.11969	26301.3375
2102.11299	26273.7375
2105.10435	26236.9375
2108.09379	26302.9375
2111.08131	26295.3375
2114.0669	26266.2375
2117.05057	26304.2375
2120.03233	26324.6375
2123.01216	26320.9375
2125.99008	26391.4375
2128.96609	26455.9375
2131.94018	26452.9375
2134.91236	26437.8375
2137.88263	26498.3375
2140.851	26539.2375
2143.81746	26535.1375
2146.78201	26543.0375
2149.74466	26503.1375
2152.7054	26483.1375
2155.66425	26471.3375
2158.6212	26474.5375
2161.57625	26421.3375
2164.52941	26472.4375
2167.48067	26433.6375
2170.43004	26462.2375
2173.37752	26436.1375
2176.32311	26478.3375
2179.26681	26449.7375
2182.20863	26434.4375
2185.14856	26499.3375
2188.08661	26524.8375
2191.02278	26542.6375
2193.95707	26544.2375
2196.88948	26514.3375
2199.82001	26514.7375
2202.74867	26529.6375
2205.67545	26468.2375
2208.60037	26459.1375
2211.52341	26486.2375
2214.44458	26488.1375
2217.36388	26381.1375
2220.28132	26362.2375
2223.1969	26325.8375
2226.11061	26308.9375
2229.02246	26292.7375
2231.93245	26263.7375
2234.84058	26211.8375
2237.74686	26171.2375
2240.65128	26167.8375
2243.55385	26134.8375
2246.45456	26087.4375
2249.35343	26041.3375
2252.25044	26014.2375
2255.14561	25943.6375
2258.03893	25925.3375
2260.93041	25864.2375
2263.82004	25850.9375
2266.70783	25760.6375
2269.59378	25664.7375
2272.4779	25621.9375
2275.36017	25541.4375
2278.24061	25562.8375
2281.11922	25471.0375
2283.996	25467.1375
2286.87094	25468.8375
2289.74405	25453.4375
2292.61534	25500.5375
2295.4848	25470.6375
2298.35243	25472.0375
2301.21824	25499.4375
2304.08223	25545.2375
2306.94439	25523.8375
2309.80474	25616.3375
2312.66327	25641.2375
2315.51999	25561.8375
2318.37489	25491.0375
2321.22797	25484.2375
2324.07925	25484.1375
2326.92871	25491.9375
2329.77637	25448.7375
2332.62222	25441.8375
2335.46626	25453.6375
2338.3085	25473.4375
2341.14893	25469.5375
2343.98756	25502.8375
2346.8244	25514.1375
2349.65943	25457.0375
2352.49267	25447.0375
2355.32411	25465.6375
2358.15376	25423.1375
2360.98161	25377.3375
2363.80768	25383.3375
2366.63195	25377.0375
2369.45444	25361.4375
2372.27514	25269.7375
2375.09405	25277.2375
2377.91118	25206.0375
2380.72652	25151.2375
2383.54009	25118.7375
2386.35187	25089.1375
2389.16188	25043.0375
2391.97011	25025.9375
2394.77657	24977.3375
2397.58125	24945.0375
2400.38416	24927.5375
2403.18529	24913.2375
2405.98466	24826.6375
2408.78226	24812.9375
2411.57809	24751.0375
2414.37216	24797.0375
2417.16446	24806.8375
2419.955	24759.7375
2422.74378	24743.6375
2425.5308	24705.5375
2428.31606	24703.3375
2431.09956	24709.6375
2433.88131	24661.5375
2436.6613	24692.1375
2439.43954	24708.0375
2442.21603	24694.3375
2444.99077	24681.0375
2447.76377	24672.0375
2450.53501	24612.7375
2453.30451	24618.9375
2456.07226	24616.1375
2458.83827	24649.2375
2461.60254	24598.5375
2464.36507	24612.4375
2467.12586	24612.7375
2469.88492	24656.7375
2472.64224	24663.8375
2475.39782	24720.6375
2478.15167	24745.7375
2480.90379	24733.8375
2483.65417	24736.8375
2486.40283	24768.4375
2489.14976	24807.4375
2491.89497	24799.8375
2494.63845	24808.1375
2497.3802	24805.0375
2500.12024	24818.7375
2502.85855	24811.7375
2505.59514	24784.5375
2508.33002	24757.1375
2511.06318	24709.0375
2513.79462	24689.2375
2516.52435	24680.2375
2519.25237	24697.1375
2521.97867	24673.7375
2524.70327	24689.2375
2527.42616	24641.5375
2530.14734	24691.2375
2532.86681	24666.0375
2535.58458	24692.5375
2538.30065	24638.6375
2541.01501	24635.1375
2543.72768	24655.1375
2546.43864	24589.9375
2549.14791	24573.1375
2551.85548	24593.5375
2554.56136	24545.5375
2557.26554	24546.5375
2559.96803	24518.6375
2562.66883	24553.8375
2565.36794	24489.4375
2568.06536	24545.5375
2570.7611	24536.6375
2573.45514	24506.2375
2576.14751	24519.3375
2578.83819	24465.1375
2581.52719	24502.2375
2584.21451	24488.8375
2586.90015	24513.4375
2589.58411	24520.1375
2592.2664	24437.1375
2594.94701	24440.9375
2597.62594	24413.6375
2600.30321	24349.7375
2602.9788	24375.2375
2605.65273	24382.2375
2608.32498	24427.5375
2610.99557	24419.6375
2613.66449	24416.0375
2616.33175	24414.5375
2618.99734	24403.7375
2621.66128	24377.5375
2624.32355	24298.4375
2626.98416	24325.1375
2629.64311	24357.0375
2632.30041	24380.6375
2634.95605	24332.3375
2637.61004	24304.5375
2640.26238	24249.7375
2642.91306	24219.9375
2645.56209	24205.5375
2648.20948	24215.5375
2650.85521	24249.2375
2653.4993	24258.3375
2656.14175	24242.9375
2658.78255	24252.3375
2661.42171	24302.9375
2664.05923	24321.0375
2666.6951	24338.4375
2669.32934	24382.2375
2671.96194	24407.7375
2674.59291	24426.6375
2677.22224	24365.9375
2679.84993	24384.5375
2682.476	24380.7375
2685.10043	24335.4375
2687.72324	24275.4375
2690.34441	24283.9375
2692.96396	24302.7375
2695.58188	24350.9375
2698.19818	24302.7375
2700.81285	24336.4375
2703.4259	24315.3375
2706.03733	24361.4375
2708.64714	24334.1375
2711.25533	24364.1375
2713.86191	24344.8375
2716.46687	24377.9375
2719.07021	24391.2375
2721.67194	24469.3375
2724.27206	24421.9375
2726.87057	24462.3375
2729.46747	24494.5375
2732.06276	24496.5375
2734.65644	24545.5375
2737.24852	24501.5375
2739.83899	24476.4375
2742.42786	24466.4375
2745.01513	24451.1375
2747.60079	24468.5375
2750.18486	24437.4375
2752.76733	24449.1375
2755.3482	24376.1375
2757.92747	24447.1375
2760.50515	24367.9375
2763.08123	24409.3375
2765.65573	24416.9375
2768.22863	24387.6375
2770.79994	24390.3375
2773.36967	24383.5375
2775.9378	24425.1375
2778.50435	24447.4375
2781.06932	24437.4375
2783.6327	24440.9375
2786.1945	24432.6375
2788.75471	24444.0375
2791.31335	24389.5375
2793.87041	24376.3375
2796.42589	24328.3375
2798.97979	24349.9375
2801.53212	24282.2375
2804.08288	24239.6375
2806.63206	24187.0375
2809.17967	24139.2375
2811.72571	24086.8375
2814.27018	24093.0375
2816.81308	23985.8375
2819.35442	23991.0375
2821.89419	23954.9375
2824.43239	23989.4375
2826.96904	23998.8375
2829.50412	23971.1375
2832.03763	23945.3375
2834.56959	23892.9375
2837.1	23900.1375
2839.62884	23908.4375
2842.15613	23919.8375
2844.68186	23987.3375
2847.20604	23999.6375
2849.72867	23977.9375
2852.24974	24022.7375
2854.76927	24000.9375
2857.28724	23964.9375
2859.80367	23942.7375
2862.31855	23929.4375
2864.83189	23881.1375
2867.34368	23810.3375
2869.85393	23823.6375
2872.36264	23788.5375
2874.8698	23805.4375
2877.37543	23775.3375
2879.87952	23860.5375
2882.38207	23804.4375
2884.88308	23790.5375
2887.38256	23876.1375
2889.88051	23866.2375
2892.37692	23887.1375
2894.8718	23917.5375
2897.36515	23952.6375
2899.85698	23921.0375
2902.34727	24007.4375
2904.83604	24023.0375
2907.32328	24092.7375
2909.809	24048.8375
2912.29319	24056.5375
2914.77587	24070.6375
2917.25702	24057.4375
2919.73665	24009.7375
2922.21476	23982.9375
2924.69136	23969.7375
2927.16644	23998.7375
2929.64	23944.5375
2932.11205	23907.3375
2934.58258	23860.7375
2937.05161	23881.4375
2939.51912	23892.2375
2941.98513	23837.7375
2944.44962	23798.3375
2946.91261	23731.7375
2949.37409	23790.3375
2951.83407	23730.4375
2954.29254	23733.7375
2956.74951	23721.4375
2959.20498	23760.3375
2961.65895	23704.4375
2964.11142	23660.7375
2966.56239	23616.1375
2969.01186	23602.4375
2971.45984	23544.3375
2973.90632	23555.9375
2976.35131	23486.8375
2978.7948	23422.9375
2981.23681	23410.0375
2983.67732	23381.8375
2986.11635	23365.9375
2988.55388	23302.4375
2990.98993	23252.1375
2993.4245	23144.9375
2995.85758	23100.8375
2998.28917	23055.5375
3000.71928	23042.1375
3003.14791	22997.0375
3005.57506	22965.3375
3008.00073	22920.4375
3010.42493	22928.9375
3012.84764	22909.7375
3015.26888	22868.3375
3017.68865	22830.1375
3020.10694	22785.6375
3022.52376	22743.6375
