Data from AgNPs_FTO_APTES_UA_5uM_CRN_100uM_R6G_10uM_NaF_0.1M_Addition_RamanShift__22__15-01-56-893.txt Node

Date: Mon Feb 07 15:01:56 GMT 2022
User: TCL
Spectrometer: QEP01345
Trigger mode: 4
Integration Time (sec): 7.000000E0
Scans to average: 10
Electric dark correction enabled: true
Nonlinearity correction enabled: false
Boxcar width: 0
XAxis mode: Raman Shifts
Number of Pixels in Spectrum: 1044
>>>>>Begin Spectral Data<<<<<
46.04893	-0.875
50.45542	-1.775
54.85868	-1.475
59.25871	1.125
63.6555	64.525
68.04907	70.925
72.43941	75.125
76.82654	79.425
81.21044	78.625
85.59113	83.125
89.96862	86.525
94.34289	84.725
98.71396	90.825
103.08183	93.725
107.4465	97.325
111.80798	98.725
116.16626	104.925
120.52136	110.325
124.87327	112.725
129.222	120.325
133.56755	127.425
137.90993	141.725
142.24913	154.725
146.58517	181.525
150.91804	206.125
155.24774	250.825
159.57429	314.625
163.89768	412.725
168.21792	549.125
172.53501	750.225
176.84895	1048.925
181.15975	1481.725
185.46741	2072.925
189.77193	2883.425
194.07331	3841.125
198.37157	4949.125
202.6667	6115.225
206.9587	7261.225
211.24758	8408.525
215.53334	9556.425
219.81599	10753.925
224.09553	12070.925
228.37195	13547.025
232.64527	15155.725
236.91549	16806.125
241.18261	18481.025
245.44663	20062.825
249.70755	21537.725
253.96539	22786.425
258.22014	23916.225
262.4718	24832.625
266.72039	25519.525
270.96589	25932.725
275.20832	26115.525
279.44768	26101.525
283.68397	26019.725
287.91719	25990.625
292.14735	26028.825
296.37445	26140.925
300.59849	26227.625
304.81948	26240.125
309.03742	25962.325
313.25231	25491.425
317.46415	24677.125
321.67296	23864.125
325.87872	23178.425
330.08145	22879.125
334.28114	22828.425
338.47781	22957.625
342.67145	23166.325
346.86207	23491.525
351.04966	23931.425
355.23424	24454.625
359.4158	24825.925
363.59435	25101.625
367.76989	25323.325
371.94243	25434.825
376.11196	25537.425
380.27849	25654.925
384.44203	25871.625
388.60257	26064.725
392.76012	26272.125
396.91468	26615.825
401.06626	27060.025
405.21485	27323.325
409.36047	27227.925
413.50311	26881.325
417.64277	26611.625
421.77947	26571.825
425.9132	26702.325
430.04396	26878.025
434.17176	27182.325
438.2966	27488.625
442.41849	28020.625
446.53742	28829.825
450.6534	29745.025
454.76644	30507.925
458.87653	30808.025
462.98368	30738.925
467.08789	30462.625
471.18916	30203.425
475.2875	30131.425
479.38291	30191.425
483.4754	30214.325
487.56496	29763.625
491.6516	28968.825
495.73531	28221.025
499.81612	27731.825
503.89401	27705.225
507.96899	27706.625
512.04106	27611.325
516.11023	27308.825
520.1765	27031.725
524.23987	26664.525
528.30034	26369.225
532.35792	26181.025
536.41261	25930.325
540.46441	25791.725
544.51333	25884.425
548.55936	26272.825
552.60252	26923.625
556.64279	27627.925
560.6802	28239.225
564.71473	28663.625
568.7464	29330.325
572.7752	30202.725
576.80114	30668.125
580.82422	30918.625
584.84444	31152.325
588.86181	31498.725
592.87633	32053.025
596.888	32388.925
600.89682	32324.125
604.9028	32766.625
608.90594	34572.325
612.90624	36461.725
616.90371	34095.025
620.89834	28946.525
624.89015	26846.625
628.87913	26720.825
632.86528	26961.125
636.84862	27039.825
640.82913	26649.025
644.80683	25852.725
648.78172	25254.125
652.75379	24953.125
656.72306	25103.725
660.68952	25413.525
664.65319	25333.125
668.61405	24934.925
672.57211	24818.325
676.52738	24900.525
680.47986	24934.825
684.42955	24816.425
688.37646	24756.225
692.32058	24854.725
696.26192	25042.325
700.20048	25301.425
704.13626	25502.025
708.06928	25537.125
711.99952	25369.925
715.927	25251.525
719.85171	25292.825
723.77365	25248.825
727.69284	25058.025
731.60928	24826.025
735.52295	24777.425
739.43388	24788.725
743.34206	24840.625
747.24749	24928.725
751.15017	25205.625
755.05012	25720.225
758.94733	26501.825
762.8418	27866.725
766.73354	29956.125
770.62254	31761.025
774.50882	31976.825
778.39237	30337.625
782.27321	28077.225
786.15132	26241.525
790.02671	25191.725
793.89938	24678.425
797.76935	24466.425
801.6366	24458.825
805.50115	24450.025
809.36299	24351.825
813.22213	24265.125
817.07857	24243.925
820.93231	24198.225
824.78336	24085.325
828.63172	23978.125
832.47738	23862.825
836.32036	23842.125
840.16066	23894.425
843.99827	23934.825
847.8332	23832.825
851.66546	23719.925
855.49504	23687.225
859.32195	23691.825
863.1462	23649.825
866.96777	23584.425
870.78668	23507.725
874.60293	23503.625
878.41652	23449.225
882.22745	23525.625
886.03573	23582.625
889.84136	23583.325
893.64433	23505.625
897.44466	23385.825
901.24235	23309.525
905.0374	23206.525
908.8298	23177.825
912.61957	23264.025
916.40671	23535.125
920.19121	23903.625
923.97308	24137.425
927.75233	24081.625
931.52895	23888.325
935.30295	23560.625
939.07433	23176.925
942.84309	22838.225
946.60924	22623.325
950.37278	22523.525
954.13371	22497.725
957.89203	22457.725
961.64774	22469.125
965.40086	22431.225
969.15137	22312.825
972.89929	22119.425
976.64461	22022.225
980.38733	22007.825
984.12747	21974.125
987.86502	22148.425
991.59999	22437.125
995.33237	22773.125
999.06217	23316.425
1002.78939	23978.525
1006.51404	24444.525
1010.23611	24701.425
1013.95561	24905.725
1017.67255	24921.325
1021.38692	24657.225
1025.09872	24338.625
1028.80796	24389.725
1032.51465	24743.025
1036.21877	25160.825
1039.92035	25280.425
1043.61937	25079.125
1047.31584	24679.725
1051.00976	24330.825
1054.70114	24190.925
1058.38998	24290.625
1062.07627	24550.025
1065.76003	24792.425
1069.44126	24993.325
1073.11995	25187.625
1076.79611	25303.025
1080.46974	25470.825
1084.14085	25606.625
1087.80943	25832.425
1091.47549	26143.925
1095.13903	26234.525
1098.80005	26004.025
1102.45857	25530.725
1106.11456	25100.125
1109.76805	24923.325
1113.41903	25021.325
1117.06751	25251.225
1120.71348	25539.825
1124.35696	25882.325
1127.99793	26193.725
1131.63641	26338.525
1135.2724	26221.425
1138.90589	26049.025
1142.5369	25988.725
1146.16542	26125.325
1149.79145	26376.225
1153.415	26804.925
1157.03607	27334.025
1160.65467	28223.125
1164.27079	29495.625
1167.88443	31116.025
1171.49561	33179.325
1175.10432	35717.925
1178.71056	38708.025
1182.31434	41456.225
1185.91565	42956.225
1189.51451	43098.925
1193.11091	42260.425
1196.70485	40863.725
1200.29634	39280.225
1203.88538	37989.725
1207.47197	37102.925
1211.05612	36383.425
1214.63782	35605.825
1218.21708	34848.425
1221.79391	34140.925
1225.36829	33583.725
1228.94024	32941.125
1232.50976	32269.525
1236.07685	31722.125
1239.6415	31510.425
1243.20374	31455.425
1246.76355	31714.725
1250.32093	32183.425
1253.8759	32939.125
1257.42845	33786.525
1260.97859	34669.725
1264.52631	35492.825
1268.07163	36328.925
1271.61453	37334.425
1275.15503	38456.625
1278.69312	39724.025
1282.22882	40910.025
1285.76211	42250.225
1289.29301	43828.425
1292.82151	46030.425
1296.34761	48695.325
1299.87133	51859.825
1303.39266	55133.725
1306.9116	58358.325
1310.42815	61222.725
1313.94233	62989.625
1317.45412	63348.825
1320.96354	62918.225
1324.47058	62341.025
1327.97525	61777.125
1331.47754	61344.925
1334.97747	61215.425
1338.47502	61231.825
1341.97022	61069.525
1345.46305	60028.225
1348.95352	58341.725
1352.44163	56594.225
1355.92738	55799.425
1359.41078	56460.625
1362.89183	57528.825
1366.37053	56382.025
1369.84688	52247.125
1373.32088	47484.825
1376.79254	44266.025
1380.26186	43320.125
1383.72883	43698.725
1387.19347	44356.225
1390.65578	44826.625
1394.11575	45437.725
1397.57339	46594.025
1401.0287	48026.125
1404.48168	49255.625
1407.93234	49573.525
1411.38068	48703.525
1414.82669	46672.725
1418.27039	44029.325
1421.71177	41235.725
1425.15083	39037.425
1428.58758	37649.425
1432.02203	37480.925
1435.45416	38262.725
1438.88399	39557.925
1442.31151	40813.225
1445.73673	41906.325
1449.15965	43046.125
1452.58027	44043.525
1455.9986	44691.325
1459.41463	45244.525
1462.82837	45969.425
1466.23982	46645.225
1469.64898	47122.925
1473.05586	47172.125
1476.46045	46792.325
1479.86276	46093.025
1483.26279	45176.625
1486.66054	44491.725
1490.05602	44106.325
1493.44922	43824.925
1496.84016	43670.025
1500.22882	43814.125
1503.61521	44443.025
1506.99934	45564.425
1510.38121	46801.225
1513.76081	47435.225
1517.13816	46934.425
1520.51324	45655.925
1523.88607	44485.825
1527.25665	43995.225
1530.62498	44001.025
1533.99105	44140.425
1537.35488	44115.425
1540.71647	43748.425
1544.07581	43006.025
1547.4329	42017.525
1550.78776	41070.625
1554.14038	40342.325
1557.49077	40030.125
1560.83892	39857.325
1564.18484	39814.325
1567.52853	39854.325
1570.86999	40009.225
1574.20922	40657.425
1577.54624	41423.225
1580.88103	41966.825
1584.2136	42775.125
1587.54395	44247.825
1590.87208	46471.725
1594.19801	49166.125
1597.52172	51536.025
1600.84321	52088.625
1604.16251	49861.625
1607.47959	45942.925
1610.79447	41626.425
1614.10715	37684.125
1617.41763	34523.125
1620.7259	32285.725
1624.03199	31104.225
1627.33587	30904.825
1630.63757	31801.225
1633.93707	33921.625
1637.23439	37355.325
1640.52951	42079.625
1643.82246	47415.525
1647.11321	51518.325
1650.40179	52339.125
1653.68819	48963.125
1656.97241	42754.625
1660.25446	36438.825
1663.53433	31406.825
1666.81203	27956.625
1670.08756	25810.325
1673.36092	24472.325
1676.63211	23564.925
1679.90115	22928.325
1683.16801	22491.825
1686.43272	22113.525
1689.69527	21880.125
1692.95567	21677.225
1696.2139	21567.625
1699.46999	21434.325
1702.72392	21313.025
1705.97571	21195.325
1709.22535	21128.625
1712.47284	21087.425
1715.71819	21040.425
1718.96139	20977.025
1722.20246	20871.525
1725.44139	20761.725
1728.67818	20630.925
1731.91284	20557.625
1735.14537	20420.025
1738.37576	20342.425
1741.60403	20285.825
1744.83017	20180.525
1748.05418	20139.725
1751.27607	20139.625
1754.49584	20084.025
1757.71349	20042.525
1760.92903	20050.625
1764.14244	20019.825
1767.35375	19961.825
1770.56294	19919.225
1773.77002	19862.625
1776.97499	19821.825
1780.17785	19792.525
1783.37861	19753.725
1786.57727	19753.925
1789.77382	19699.925
1792.96828	19686.125
1796.16064	19612.825
1799.3509	19591.225
1802.53907	19544.325
1805.72514	19468.625
1808.90913	19435.925
1812.09102	19398.925
1815.27083	19349.325
1818.44856	19306.425
1821.6242	19253.225
1824.79776	19249.925
1827.96924	19216.125
1831.13864	19199.825
1834.30597	19234.625
1837.47122	19203.425
1840.6344	19196.825
1843.7955	19180.925
1846.95454	19164.125
1850.11151	19183.425
1853.26642	19178.125
1856.41926	19171.325
1859.57004	19191.025
1862.71876	19154.125
1865.86542	19159.925
1869.01003	19125.525
1872.15258	19111.425
1875.29308	19099.825
1878.43152	19056.625
1881.56792	19082.625
1884.70227	19072.925
1887.83457	19027.825
1890.96482	19025.025
1894.09304	19020.925
1897.21921	19041.125
1900.34335	19004.925
1903.46544	19024.925
1906.58551	19017.825
1909.70353	18976.825
1912.81953	18960.925
1915.93349	18905.025
1919.04543	18861.225
1922.15534	18853.025
1925.26322	18781.925
1928.36908	18686.625
1931.47292	18684.625
1934.57473	18649.425
1937.67453	18621.725
1940.77232	18529.325
1943.86808	18486.525
1946.96184	18419.825
1950.05358	18383.025
1953.14331	18308.925
1956.23103	18250.825
1959.31675	18164.625
1962.40046	18117.525
1965.48217	18081.825
1968.56188	18046.325
1971.63959	17998.825
1974.7153	17909.225
1977.78901	17842.225
1980.86073	17782.625
1983.93046	17725.625
1986.99819	17685.725
1990.06394	17632.625
1993.1277	17599.425
1996.18947	17518.125
1999.24925	17462.825
2002.30706	17409.325
2005.36288	17384.825
2008.41672	17340.125
2011.46859	17293.225
2014.51848	17250.825
2017.56639	17213.225
2020.61233	17159.425
2023.6563	17085.725
2026.6983	17054.125
2029.73833	16998.525
2032.7764	16983.825
2035.8125	16950.225
2038.84664	16908.525
2041.87881	16905.225
2044.90903	16880.725
2047.93729	16857.825
2050.96359	16875.425
2053.98794	16844.125
2057.01034	16814.325
2060.03078	16809.225
2063.04927	16808.925
2066.06582	16767.625
2069.08042	16795.325
2072.09307	16764.725
2075.10378	16727.625
2078.11255	16695.525
2081.11938	16709.825
2084.12426	16654.125
2087.12722	16691.325
2090.12824	16650.025
2093.12732	16675.725
2096.12447	16630.925
2099.11969	16620.625
2102.11299	16647.725
2105.10435	16648.825
2108.09379	16612.525
2111.08131	16642.625
2114.0669	16686.525
2117.05057	16673.925
2120.03233	16701.725
2123.01216	16700.825
2125.99008	16724.025
2128.96609	16717.625
2131.94018	16710.025
2134.91236	16743.325
2137.88263	16740.625
2140.851	16758.825
2143.81746	16803.625
2146.78201	16797.925
2149.74466	16748.125
2152.7054	16761.025
2155.66425	16733.025
2158.6212	16727.925
2161.57625	16707.825
2164.52941	16696.625
2167.48067	16706.325
2170.43004	16671.725
2173.37752	16708.825
2176.32311	16669.425
2179.26681	16690.525
2182.20863	16675.625
2185.14856	16687.725
2188.08661	16705.225
2191.02278	16682.325
2193.95707	16680.025
2196.88948	16686.525
2199.82001	16653.025
2202.74867	16658.625
2205.67545	16604.825
2208.60037	16621.825
2211.52341	16621.925
2214.44458	16598.825
2217.36388	16570.225
2220.28132	16527.325
2223.1969	16489.525
2226.11061	16483.025
2229.02246	16459.825
2231.93245	16400.325
2234.84058	16381.625
2237.74686	16311.425
2240.65128	16294.025
2243.55385	16278.025
2246.45456	16292.925
2249.35343	16234.725
2252.25044	16219.425
2255.14561	16174.325
2258.03893	16206.025
2260.93041	16138.425
2263.82004	16122.525
2266.70783	16048.225
2269.59378	15994.725
2272.4779	15937.025
2275.36017	15887.925
2278.24061	15888.625
2281.11922	15862.525
2283.996	15857.125
2286.87094	15834.825
2289.74405	15780.225
2292.61534	15767.725
2295.4848	15773.425
2298.35243	15741.325
2301.21824	15774.225
2304.08223	15755.225
2306.94439	15764.125
2309.80474	15789.225
2312.66327	15765.325
2315.51999	15768.225
2318.37489	15767.125
2321.22797	15729.925
2324.07925	15728.525
2326.92871	15712.625
2329.77637	15686.425
2332.62222	15661.625
2335.46626	15658.925
2338.3085	15664.725
2341.14893	15649.625
2343.98756	15685.225
2346.8244	15700.825
2349.65943	15674.825
2352.49267	15653.525
2355.32411	15643.425
2358.15376	15631.225
2360.98161	15632.325
2363.80768	15639.825
2366.63195	15604.525
2369.45444	15586.025
2372.27514	15568.325
2375.09405	15548.325
2377.91118	15486.125
2380.72652	15456.025
2383.54009	15434.325
2386.35187	15400.825
2389.16188	15361.525
2391.97011	15330.125
2394.77657	15312.925
2397.58125	15274.225
2400.38416	15291.325
2403.18529	15250.925
2405.98466	15237.125
2408.78226	15195.425
2411.57809	15175.125
2414.37216	15185.025
2417.16446	15160.625
2419.955	15142.125
2422.74378	15135.425
2425.5308	15096.125
2428.31606	15072.825
2431.09956	15048.625
2433.88131	15072.725
2436.6613	15101.625
2439.43954	15092.825
2442.21603	15078.125
2444.99077	15029.125
2447.76377	15062.925
2450.53501	15038.325
2453.30451	15043.425
2456.07226	15026.625
2458.83827	15043.225
2461.60254	15007.325
2464.36507	15037.825
2467.12586	14995.525
2469.88492	15012.725
2472.64224	15021.525
2475.39782	15033.425
2478.15167	15034.525
2480.90379	15021.725
2483.65417	15045.725
2486.40283	15069.125
2489.14976	15102.125
2491.89497	15091.925
2494.63845	15098.025
2497.3802	15113.525
2500.12024	15119.625
2502.85855	15108.625
2505.59514	15083.725
2508.33002	15096.825
2511.06318	15022.325
2513.79462	15050.525
2516.52435	15061.225
2519.25237	15049.625
2521.97867	15012.825
2524.70327	14996.725
2527.42616	14985.025
2530.14734	14975.925
2532.86681	14999.125
2535.58458	14967.225
2538.30065	14955.825
2541.01501	14950.525
2543.72768	14932.725
2546.43864	14927.325
2549.14791	14895.525
2551.85548	14899.625
2554.56136	14885.725
2557.26554	14880.625
2559.96803	14855.825
2562.66883	14839.825
2565.36794	14819.825
2568.06536	14819.425
2570.7611	14794.225
2573.45514	14789.725
2576.14751	14761.425
2578.83819	14759.025
2581.52719	14774.025
2584.21451	14774.725
2586.90015	14797.925
2589.58411	14821.425
2592.2664	14775.425
2594.94701	14731.525
2597.62594	14754.425
2600.30321	14742.225
2602.9788	14725.925
2605.65273	14733.825
2608.32498	14789.325
2610.99557	14722.325
2613.66449	14752.225
2616.33175	14772.525
2618.99734	14780.925
2621.66128	14770.125
2624.32355	14738.825
2626.98416	14771.025
2629.64311	14746.225
2632.30041	14774.625
2634.95605	14724.325
2637.61004	14755.725
2640.26238	14738.125
2642.91306	14718.125
2645.56209	14709.025
2648.20948	14699.925
2650.85521	14730.125
2653.4993	14729.025
2656.14175	14730.825
2658.78255	14752.825
2661.42171	14752.525
2664.05923	14738.425
2666.6951	14758.825
2669.32934	14789.425
2671.96194	14778.425
2674.59291	14787.725
2677.22224	14781.525
2679.84993	14775.825
2682.476	14762.325
2685.10043	14723.425
2687.72324	14718.525
2690.34441	14721.725
2692.96396	14677.625
2695.58188	14706.125
2698.19818	14695.225
2700.81285	14719.925
2703.4259	14771.025
2706.03733	14809.025
2708.64714	14799.325
2711.25533	14790.025
2713.86191	14775.025
2716.46687	14804.425
2719.07021	14790.125
2721.67194	14830.425
2724.27206	14839.525
2726.87057	14835.325
2729.46747	14865.225
2732.06276	14881.725
2734.65644	14841.825
2737.24852	14842.825
2739.83899	14820.825
2742.42786	14830.625
2745.01513	14819.325
2747.60079	14827.225
2750.18486	14813.725
2752.76733	14816.325
2755.3482	14798.125
2757.92747	14796.025
2760.50515	14823.725
2763.08123	14809.025
2765.65573	14828.625
2768.22863	14799.125
2770.79994	14792.625
2773.36967	14819.325
2775.9378	14818.625
2778.50435	14846.925
2781.06932	14827.025
2783.6327	14824.325
2786.1945	14842.025
2788.75471	14849.325
2791.31335	14836.725
2793.87041	14794.125
2796.42589	14765.525
2798.97979	14762.925
2801.53212	14722.525
2804.08288	14697.725
2806.63206	14633.625
2809.17967	14616.925
2811.72571	14581.325
2814.27018	14591.725
2816.81308	14556.125
2819.35442	14519.925
2821.89419	14514.225
2824.43239	14540.325
2826.96904	14505.225
2829.50412	14490.125
2832.03763	14437.225
2834.56959	14473.825
2837.1	14453.825
2839.62884	14461.425
2842.15613	14473.725
2844.68186	14483.425
2847.20604	14494.225
2849.72867	14525.525
2852.24974	14497.225
2854.76927	14503.525
2857.28724	14494.825
2859.80367	14486.125
2862.31855	14463.125
2864.83189	14428.825
2867.34368	14403.225
2869.85393	14411.225
2872.36264	14390.325
2874.8698	14374.925
2877.37543	14359.725
2879.87952	14351.725
2882.38207	14360.025
2884.88308	14400.925
2887.38256	14409.825
2889.88051	14411.625
2892.37692	14401.325
2894.8718	14425.925
2897.36515	14460.025
2899.85698	14410.825
2902.34727	14476.525
2904.83604	14504.425
2907.32328	14525.025
2909.809	14503.925
2912.29319	14517.825
2914.77587	14542.125
2917.25702	14522.725
2919.73665	14551.825
2922.21476	14528.825
2924.69136	14521.825
2927.16644	14520.125
2929.64	14474.225
2932.11205	14476.725
2934.58258	14435.925
2937.05161	14451.825
2939.51912	14431.525
2941.98513	14450.125
2944.44962	14381.325
2946.91261	14332.125
2949.37409	14334.525
2951.83407	14305.925
2954.29254	14298.325
2956.74951	14268.525
2959.20498	14283.925
2961.65895	14237.125
2964.11142	14229.125
2966.56239	14188.425
2969.01186	14188.025
2971.45984	14156.625
2973.90632	14157.725
2976.35131	14120.725
2978.7948	14090.025
2981.23681	14050.925
2983.67732	14037.225
2986.11635	14003.625
2988.55388	13964.925
2990.98993	13903.525
2993.4245	13885.225
2995.85758	13857.425
2998.28917	13787.125
3000.71928	13780.225
3003.14791	13725.125
3005.57506	13718.925
3008.00073	13680.025
3010.42493	13583.825
3012.84764	13642.125
3015.26888	13634.225
3017.68865	13579.225
3020.10694	13570.225
3022.52376	13569.225
3024.9391	13516.425
3027.35298	13532.025
3029.76539	13517.025
3032.17632	13500.625
3034.5858	13479.825
3036.9938	13501.725
3039.40034	13486.025
3041.80542	13491.925
3044.20903	13453.425
3046.61118	13472.725
3049.01187	13405.425
3051.4111	13414.125
3053.80888	13400.625
3056.20519	13352.225
3058.60005	13312.725
3060.99345	13307.625
3063.3854	13253.025
3065.7759	13175.225
3068.16494	13144.225
3070.55254	13089.525
3072.93868	13058.125
3075.32338	13048.425
3077.70662	13002.425
3080.08842	12980.925
3082.46878	12975.425
3084.84769	12915.825
3087.22515	12935.725
3089.60118	12943.325
3091.97576	12913.525
3094.3489	12906.925
3096.72061	12887.225
3099.09087	12900.625
3101.4597	12862.325
3103.82709	12878.125
3106.19305	12864.425
3108.55757	12839.725
3110.92066	12822.725
3113.28232	12818.825
3115.64255	12779.225
3118.00134	12717.625
3120.35871	12726.625
3122.71466	12689.825
3125.06917	12655.725
3127.42226	12613.925
