Data from AgNPs_FTO_APTES_UA_5uM_CRN_100uM_R6G_10uM_NaF_0.1M_Addition_RamanShift__5__14-42-06-870.txt Node

Date: Mon Feb 07 14:42:06 GMT 2022
User: TCL
Spectrometer: QEP01345
Trigger mode: 4
Integration Time (sec): 7.000000E0
Scans to average: 10
Electric dark correction enabled: true
Nonlinearity correction enabled: false
Boxcar width: 0
XAxis mode: Raman Shifts
Number of Pixels in Spectrum: 1044
>>>>>Begin Spectral Data<<<<<
46.04893	-0.275
50.45542	-0.975
54.85868	-0.475
59.25871	-0.175
63.6555	64.825
68.04907	68.525
72.43941	72.525
76.82654	71.825
81.21044	75.125
85.59113	83.125
89.96862	85.325
94.34289	81.525
98.71396	86.525
103.08183	92.125
107.4465	90.225
111.80798	92.725
116.16626	99.725
120.52136	103.025
124.87327	106.925
129.222	117.025
133.56755	124.125
137.90993	136.925
142.24913	150.425
146.58517	170.925
150.91804	203.825
155.24774	247.225
159.57429	311.525
163.89768	406.525
168.21792	546.625
172.53501	746.025
176.84895	1039.725
181.15975	1470.825
185.46741	2067.625
189.77193	2837.325
194.07331	3798.825
198.37157	4895.325
202.6667	6022.125
206.9587	7160.525
211.24758	8259.425
215.53334	9387.325
219.81599	10575.425
224.09553	11870.025
228.37195	13298.625
232.64527	14799.025
236.91549	16431.025
241.18261	18027.625
245.44663	19586.225
249.70755	20952.025
253.96539	22174.425
258.22014	23233.525
262.4718	24117.425
266.72039	24713.425
270.96589	25100.325
275.20832	25200.225
279.44768	25137.425
283.68397	25079.225
287.91719	25005.925
292.14735	24972.825
296.37445	25060.925
300.59849	25219.725
304.81948	25273.125
309.03742	25202.725
313.25231	24844.925
317.46415	24205.225
321.67296	23539.725
325.87872	22927.825
330.08145	22588.025
334.28114	22514.025
338.47781	22564.925
342.67145	22756.725
346.86207	23019.925
351.04966	23346.925
355.23424	23757.325
359.4158	24054.325
363.59435	24357.125
367.76989	24550.825
371.94243	24650.725
376.11196	24731.825
380.27849	24745.625
384.44203	24825.325
388.60257	25061.725
392.76012	25316.725
396.91468	25696.225
401.06626	26148.125
405.21485	26372.825
409.36047	26321.825
413.50311	26024.625
417.64277	25893.725
421.77947	26024.125
425.9132	26130.725
430.04396	26271.425
434.17176	26378.425
438.2966	26523.325
442.41849	26930.225
446.53742	27635.725
450.6534	28383.325
454.76644	29029.425
458.87653	29303.825
462.98368	29225.525
467.08789	28973.825
471.18916	28704.525
475.2875	28496.125
479.38291	28550.525
483.4754	28484.825
487.56496	28196.725
491.6516	27549.225
495.73531	26795.725
499.81612	26398.525
503.89401	26346.325
507.96899	26463.225
512.04106	26446.925
516.11023	26181.625
520.1765	25720.225
524.23987	25307.225
528.30034	24925.925
532.35792	24617.225
536.41261	24369.825
540.46441	24130.125
544.51333	24185.925
548.55936	24599.825
552.60252	25273.425
556.64279	25998.025
560.6802	26595.025
564.71473	27071.725
568.7464	27841.925
572.7752	29012.325
576.80114	30221.025
580.82422	31272.725
584.84444	32341.025
588.86181	33360.025
592.87633	33990.325
596.888	33271.325
600.89682	31732.625
604.9028	31169.525
608.90594	32122.325
612.90624	33171.925
616.90371	30877.825
620.89834	26526.225
624.89015	24678.325
628.87913	24574.025
632.86528	24764.825
636.84862	24744.725
640.82913	24339.125
644.80683	23740.225
648.78172	23348.125
652.75379	23302.425
656.72306	23462.325
660.68952	23692.625
664.65319	23495.125
668.61405	23104.625
672.57211	23053.925
676.52738	23120.125
680.47986	23147.025
684.42955	22995.425
688.37646	22894.425
692.32058	23000.325
696.26192	23314.525
700.20048	23635.025
704.13626	23889.425
708.06928	24027.425
711.99952	23984.125
715.927	23934.225
719.85171	23977.525
723.77365	23824.425
727.69284	23457.125
731.60928	23115.225
735.52295	22954.025
739.43388	22878.225
743.34206	22941.625
747.24749	23092.925
751.15017	23400.025
755.05012	24005.325
758.94733	24806.925
762.8418	26059.425
766.73354	27764.125
770.62254	29223.925
774.50882	29101.225
778.39237	27587.725
782.27321	25630.625
786.15132	24175.425
790.02671	23329.625
793.89938	22852.125
797.76935	22669.325
801.6366	22641.925
805.50115	22611.525
809.36299	22500.425
813.22213	22321.825
817.07857	22293.325
820.93231	22201.125
824.78336	21985.225
828.63172	21762.525
832.47738	21649.225
836.32036	21595.325
840.16066	21693.725
843.99827	21732.025
847.8332	21650.225
851.66546	21613.525
855.49504	21606.925
859.32195	21603.625
863.1462	21540.825
866.96777	21465.025
870.78668	21383.025
874.60293	21375.225
878.41652	21314.825
882.22745	21375.225
886.03573	21401.625
889.84136	21444.625
893.64433	21368.325
897.44466	21303.125
901.24235	21237.625
905.0374	21184.125
908.8298	21153.425
912.61957	21308.925
916.40671	21574.125
920.19121	22041.025
923.97308	22329.025
927.75233	22151.025
931.52895	21779.725
935.30295	21329.125
939.07433	20858.625
942.84309	20570.625
946.60924	20378.325
950.37278	20308.525
954.13371	20296.825
957.89203	20297.525
961.64774	20328.325
965.40086	20353.325
969.15137	20255.025
972.89929	20054.525
976.64461	19904.425
980.38733	19844.725
984.12747	19814.825
987.86502	19941.725
991.59999	20040.525
995.33237	20242.525
999.06217	20608.925
1002.78939	21044.325
1006.51404	21392.825
1010.23611	21684.025
1013.95561	21927.825
1017.67255	22010.625
1021.38692	21798.825
1025.09872	21451.525
1028.80796	21345.525
1032.51465	21450.325
1036.21877	21756.725
1039.92035	21905.225
1043.61937	21912.525
1047.31584	21753.425
1051.00976	21626.225
1054.70114	21629.225
1058.38998	21756.725
1062.07627	22077.025
1065.76003	22444.925
1069.44126	22746.025
1073.11995	23061.625
1076.79611	23308.825
1080.46974	23417.225
1084.14085	23528.125
1087.80943	23732.825
1091.47549	24060.525
1095.13903	24205.025
1098.80005	23985.325
1102.45857	23375.325
1106.11456	22761.525
1109.76805	22435.625
1113.41903	22382.925
1117.06751	22521.725
1120.71348	22793.025
1124.35696	22996.825
1127.99793	23312.825
1131.63641	23553.425
1135.2724	23546.225
1138.90589	23524.925
1142.5369	23734.725
1146.16542	24061.025
1149.79145	24476.525
1153.415	24932.125
1157.03607	25557.125
1160.65467	26670.125
1164.27079	28310.125
1167.88443	30171.725
1171.49561	31999.625
1175.10432	34007.525
1178.71056	36464.725
1182.31434	38729.925
1185.91565	39882.425
1189.51451	39816.425
1193.11091	39017.425
1196.70485	37812.925
1200.29634	36448.625
1203.88538	35689.425
1207.47197	35583.625
1211.05612	35502.425
1214.63782	34806.325
1218.21708	33421.125
1221.79391	31863.625
1225.36829	30671.625
1228.94024	29816.325
1232.50976	29166.425
1236.07685	28751.325
1239.6415	28579.125
1243.20374	28635.725
1246.76355	28910.325
1250.32093	29403.025
1253.8759	30128.425
1257.42845	30969.825
1260.97859	31916.625
1264.52631	32868.025
1268.07163	33772.225
1271.61453	34840.825
1275.15503	36053.525
1278.69312	37444.125
1282.22882	39003.025
1285.76211	40767.525
1289.29301	42910.325
1292.82151	45722.125
1296.34761	49002.625
1299.87133	52763.325
1303.39266	56128.425
1306.9116	58640.825
1310.42815	60057.525
1313.94233	60298.825
1317.45412	59711.325
1320.96354	59221.325
1324.47058	58969.425
1327.97525	59016.725
1331.47754	59098.125
1334.97747	58869.125
1338.47502	58239.725
1341.97022	57304.025
1345.46305	56040.225
1348.95352	54653.825
1352.44163	53689.625
1355.92738	53623.325
1359.41078	54496.025
1362.89183	55258.125
1366.37053	54233.425
1369.84688	50444.425
1373.32088	45485.725
1376.79254	41977.725
1380.26186	41085.325
1383.72883	41799.225
1387.19347	42502.625
1390.65578	42580.125
1394.11575	42720.325
1397.57339	43446.925
1401.0287	44543.325
1404.48168	45206.825
1407.93234	44905.225
1411.38068	43376.625
1414.82669	41073.825
1418.27039	38452.925
1421.71177	36036.125
1425.15083	34206.825
1428.58758	33277.725
1432.02203	33538.325
1435.45416	34714.025
1438.88399	36242.325
1442.31151	37467.025
1445.73673	38362.125
1449.15965	39049.325
1452.58027	39439.525
1455.9986	39636.525
1459.41463	39839.825
1462.82837	40371.625
1466.23982	40956.825
1469.64898	41446.625
1473.05586	41728.525
1476.46045	41588.725
1479.86276	41055.825
1483.26279	40344.725
1486.66054	39835.525
1490.05602	39800.225
1493.44922	39939.525
1496.84016	40184.825
1500.22882	40711.125
1503.61521	41397.225
1506.99934	42382.025
1510.38121	43212.125
1513.76081	43571.725
1517.13816	43316.625
1520.51324	42857.125
1523.88607	42791.925
1527.25665	43147.125
1530.62498	43623.125
1533.99105	43694.725
1537.35488	43172.625
1540.71647	41971.225
1544.07581	40341.125
1547.4329	38727.625
1550.78776	37389.725
1554.14038	36346.325
1557.49077	35766.225
1560.83892	35432.525
1564.18484	35282.325
1567.52853	35329.225
1570.86999	35824.225
1574.20922	36776.325
1577.54624	37910.825
1580.88103	38808.225
1584.2136	39847.025
1587.54395	41549.825
1590.87208	43942.425
1594.19801	46521.925
1597.52172	48424.025
1600.84321	48330.825
1604.16251	45429.825
1607.47959	41191.825
1610.79447	36946.125
1614.10715	33293.025
1617.41763	30449.625
1620.7259	28480.425
1624.03199	27497.125
1627.33587	27498.525
1630.63757	28573.625
1633.93707	30892.225
1637.23439	34686.625
1640.52951	40252.525
1643.82246	46631.625
1647.11321	51560.325
1650.40179	52317.925
1653.68819	48114.525
1656.97241	41038.525
1660.25446	34080.725
1663.53433	28725.725
1666.81203	25105.525
1670.08756	22863.825
1673.36092	21453.125
1676.63211	20530.125
1679.90115	19892.525
1683.16801	19420.925
1686.43272	19060.525
1689.69527	18839.725
1692.95567	18609.325
1696.2139	18462.325
1699.46999	18310.525
1702.72392	18230.925
1705.97571	18092.625
1709.22535	18000.925
1712.47284	17979.325
1715.71819	17893.325
1718.96139	17798.425
1722.20246	17727.325
1725.44139	17600.125
1728.67818	17482.625
1731.91284	17372.225
1735.14537	17232.325
1738.37576	17124.425
1741.60403	17079.325
1744.83017	16975.325
1748.05418	16911.025
1751.27607	16881.925
1754.49584	16895.025
1757.71349	16848.025
1760.92903	16830.425
1764.14244	16809.125
1767.35375	16769.825
1770.56294	16691.925
1773.77002	16638.325
1776.97499	16588.825
1780.17785	16573.925
1783.37861	16508.525
1786.57727	16448.525
1789.77382	16468.625
1792.96828	16400.525
1796.16064	16345.925
1799.3509	16299.925
1802.53907	16261.025
1805.72514	16183.225
1808.90913	16117.725
1812.09102	16103.825
1815.27083	16056.225
1818.44856	16027.425
1821.6242	16003.825
1824.79776	15961.225
1827.96924	15925.625
1831.13864	15927.225
1834.30597	15937.925
1837.47122	15929.125
1840.6344	15890.125
1843.7955	15892.825
1846.95454	15877.225
1850.11151	15865.125
1853.26642	15817.225
1856.41926	15813.425
1859.57004	15795.625
1862.71876	15801.725
1865.86542	15777.325
1869.01003	15717.725
1872.15258	15708.225
1875.29308	15693.925
1878.43152	15636.225
1881.56792	15629.125
1884.70227	15628.525
1887.83457	15578.825
1890.96482	15547.025
1894.09304	15510.325
1897.21921	15521.125
1900.34335	15491.325
1903.46544	15485.425
1906.58551	15435.025
1909.70353	15412.825
1912.81953	15397.225
1915.93349	15380.425
1919.04543	15301.325
1922.15534	15285.825
1925.26322	15231.125
1928.36908	15164.425
1931.47292	15144.325
1934.57473	15093.425
1937.67453	15053.925
1940.77232	15025.325
1943.86808	14968.125
1946.96184	14905.525
1950.05358	14887.925
1953.14331	14848.025
1956.23103	14817.425
1959.31675	14732.925
1962.40046	14696.125
1965.48217	14650.225
1968.56188	14580.525
1971.63959	14547.725
1974.7153	14523.025
1977.78901	14430.425
1980.86073	14379.925
1983.93046	14316.825
1986.99819	14275.925
1990.06394	14238.325
1993.1277	14207.425
1996.18947	14151.225
1999.24925	14117.425
2002.30706	14080.825
2005.36288	14011.425
2008.41672	13989.125
2011.46859	13891.825
2014.51848	13876.725
2017.56639	13850.625
2020.61233	13783.525
2023.6563	13790.725
2026.6983	13729.725
2029.73833	13705.025
2032.7764	13683.625
2035.8125	13648.325
2038.84664	13612.025
2041.87881	13609.825
2044.90903	13591.325
2047.93729	13554.625
2050.96359	13512.825
2053.98794	13497.225
2057.01034	13464.225
2060.03078	13485.825
2063.04927	13469.425
2066.06582	13461.325
2069.08042	13451.025
2072.09307	13423.725
2075.10378	13387.325
2078.11255	13394.025
2081.11938	13409.825
2084.12426	13374.825
2087.12722	13383.425
2090.12824	13370.925
2093.12732	13323.625
2096.12447	13339.225
2099.11969	13324.225
2102.11299	13346.925
2105.10435	13317.425
2108.09379	13342.525
2111.08131	13326.025
2114.0669	13322.725
2117.05057	13343.925
2120.03233	13367.625
2123.01216	13343.525
2125.99008	13375.025
2128.96609	13372.525
2131.94018	13349.325
2134.91236	13352.125
2137.88263	13333.525
2140.851	13344.025
2143.81746	13378.825
2146.78201	13336.625
2149.74466	13320.125
2152.7054	13307.925
2155.66425	13291.825
2158.6212	13271.725
2161.57625	13257.025
2164.52941	13266.325
2167.48067	13269.125
2170.43004	13268.825
2173.37752	13228.125
2176.32311	13224.325
2179.26681	13243.725
2182.20863	13255.125
2185.14856	13256.225
2188.08661	13209.525
2191.02278	13222.925
2193.95707	13223.825
2196.88948	13207.725
2199.82001	13191.025
2202.74867	13152.525
2205.67545	13144.725
2208.60037	13092.225
2211.52341	13085.125
2214.44458	13092.825
2217.36388	13062.425
2220.28132	13028.325
2223.1969	12989.025
2226.11061	12995.925
2229.02246	12958.025
2231.93245	12920.625
2234.84058	12919.425
2237.74686	12876.825
2240.65128	12856.425
2243.55385	12839.925
2246.45456	12797.825
2249.35343	12766.025
2252.25044	12755.425
2255.14561	12742.925
2258.03893	12702.225
2260.93041	12667.025
2263.82004	12627.225
2266.70783	12596.725
2269.59378	12530.725
2272.4779	12489.525
2275.36017	12444.125
2278.24061	12437.125
2281.11922	12422.225
2283.996	12394.625
2286.87094	12372.325
2289.74405	12348.125
2292.61534	12353.525
2295.4848	12331.825
2298.35243	12340.525
2301.21824	12315.625
2304.08223	12326.225
2306.94439	12302.925
2309.80474	12321.125
2312.66327	12308.325
2315.51999	12322.725
2318.37489	12289.425
2321.22797	12259.625
2324.07925	12241.125
2326.92871	12233.325
2329.77637	12206.525
2332.62222	12177.525
2335.46626	12184.425
2338.3085	12158.425
2341.14893	12165.325
2343.98756	12189.025
2346.8244	12165.025
2349.65943	12178.225
2352.49267	12147.825
2355.32411	12175.125
2358.15376	12144.625
2360.98161	12092.425
2363.80768	12127.325
2366.63195	12142.525
2369.45444	12122.525
2372.27514	12078.925
2375.09405	12064.525
2377.91118	12050.225
2380.72652	11971.725
2383.54009	11965.125
2386.35187	11952.125
2389.16188	11922.625
2391.97011	11898.225
2394.77657	11886.525
2397.58125	11854.225
2400.38416	11844.625
2403.18529	11828.525
2405.98466	11799.025
2408.78226	11762.825
2411.57809	11771.325
2414.37216	11779.725
2417.16446	11778.525
2419.955	11747.525
2422.74378	11711.225
2425.5308	11693.425
2428.31606	11717.625
2431.09956	11710.225
2433.88131	11705.625
2436.6613	11718.525
2439.43954	11722.125
2442.21603	11692.825
2444.99077	11689.525
2447.76377	11674.825
2450.53501	11662.925
2453.30451	11656.525
2456.07226	11656.925
2458.83827	11648.625
2461.60254	11634.825
2464.36507	11639.225
2467.12586	11648.125
2469.88492	11623.225
2472.64224	11664.425
2475.39782	11655.925
2478.15167	11655.225
2480.90379	11641.625
2483.65417	11656.525
2486.40283	11659.925
2489.14976	11661.125
2491.89497	11668.125
2494.63845	11673.525
2497.3802	11693.725
2500.12024	11667.325
2502.85855	11633.425
2505.59514	11642.325
2508.33002	11662.825
2511.06318	11631.825
2513.79462	11625.125
2516.52435	11619.125
2519.25237	11639.325
2521.97867	11603.225
2524.70327	11581.825
2527.42616	11574.125
2530.14734	11590.525
2532.86681	11532.625
2535.58458	11548.125
2538.30065	11530.525
2541.01501	11535.525
2543.72768	11534.925
2546.43864	11509.225
2549.14791	11517.025
2551.85548	11507.725
2554.56136	11486.925
2557.26554	11464.325
2559.96803	11480.125
2562.66883	11467.325
2565.36794	11464.725
2568.06536	11439.125
2570.7611	11408.425
2573.45514	11439.125
2576.14751	11435.825
2578.83819	11408.125
2581.52719	11439.425
2584.21451	11426.125
2586.90015	11386.225
2589.58411	11415.925
2592.2664	11388.925
2594.94701	11344.325
2597.62594	11401.625
2600.30321	11369.925
2602.9788	11361.425
2605.65273	11373.625
2608.32498	11383.625
2610.99557	11358.525
2613.66449	11384.625
2616.33175	11371.925
2618.99734	11385.825
2621.66128	11359.425
2624.32355	11373.625
2626.98416	11346.325
2629.64311	11354.525
2632.30041	11352.825
2634.95605	11347.225
2637.61004	11345.825
2640.26238	11317.925
2642.91306	11316.825
2645.56209	11301.525
2648.20948	11305.125
2650.85521	11300.225
2653.4993	11332.825
2656.14175	11320.525
2658.78255	11337.825
2661.42171	11329.925
2664.05923	11361.125
2666.6951	11348.525
2669.32934	11404.325
2671.96194	11412.725
2674.59291	11369.925
2677.22224	11386.125
2679.84993	11384.925
2682.476	11359.525
2685.10043	11351.125
2687.72324	11351.725
2690.34441	11353.425
2692.96396	11343.925
2695.58188	11348.725
2698.19818	11325.625
2700.81285	11342.925
2703.4259	11390.025
2706.03733	11454.625
2708.64714	11405.625
2711.25533	11379.725
2713.86191	11386.125
2716.46687	11426.925
2719.07021	11417.725
2721.67194	11435.725
2724.27206	11436.925
2726.87057	11444.425
2729.46747	11437.025
2732.06276	11462.125
2734.65644	11443.425
2737.24852	11446.125
2739.83899	11438.025
2742.42786	11423.125
2745.01513	11418.025
2747.60079	11424.125
2750.18486	11418.725
2752.76733	11426.725
2755.3482	11412.825
2757.92747	11388.425
2760.50515	11395.725
2763.08123	11416.325
2765.65573	11408.025
2768.22863	11411.025
2770.79994	11397.225
2773.36967	11419.025
2775.9378	11402.325
2778.50435	11424.825
2781.06932	11419.725
2783.6327	11436.225
2786.1945	11438.725
2788.75471	11439.825
2791.31335	11417.025
2793.87041	11431.825
2796.42589	11368.125
2798.97979	11385.225
2801.53212	11340.225
2804.08288	11326.225
2806.63206	11311.225
2809.17967	11274.425
2811.72571	11266.325
2814.27018	11249.825
2816.81308	11219.225
2819.35442	11204.925
2821.89419	11155.725
2824.43239	11186.925
2826.96904	11173.025
2829.50412	11171.925
2832.03763	11167.325
2834.56959	11156.725
2837.1	11157.725
2839.62884	11148.225
2842.15613	11166.125
2844.68186	11213.625
2847.20604	11214.825
2849.72867	11248.125
2852.24974	11237.725
2854.76927	11259.425
2857.28724	11229.725
2859.80367	11219.325
2862.31855	11181.625
2864.83189	11167.225
2867.34368	11130.125
2869.85393	11152.625
2872.36264	11117.325
2874.8698	11113.625
2877.37543	11106.725
2879.87952	11110.625
2882.38207	11089.825
2884.88308	11090.925
2887.38256	11094.625
2889.88051	11096.625
2892.37692	11122.425
2894.8718	11113.025
2897.36515	11109.925
2899.85698	11137.425
2902.34727	11170.425
2904.83604	11153.925
2907.32328	11178.325
2909.809	11186.925
2912.29319	11197.325
2914.77587	11184.525
2917.25702	11194.625
2919.73665	11177.225
2922.21476	11192.425
2924.69136	11174.725
2927.16644	11179.725
2929.64	11168.525
2932.11205	11164.225
2934.58258	11120.825
2937.05161	11129.425
2939.51912	11148.225
2941.98513	11111.625
2944.44962	11060.725
2946.91261	11020.625
2949.37409	11033.125
2951.83407	11034.725
2954.29254	10978.525
2956.74951	10985.725
2959.20498	10969.925
2961.65895	10959.625
2964.11142	10943.925
2966.56239	10889.525
2969.01186	10899.925
2971.45984	10883.225
2973.90632	10886.425
2976.35131	10850.525
2978.7948	10830.825
2981.23681	10791.025
2983.67732	10798.725
2986.11635	10747.725
2988.55388	10698.425
2990.98993	10689.425
2993.4245	10630.825
2995.85758	10624.525
2998.28917	10593.725
3000.71928	10581.425
3003.14791	10515.725
3005.57506	10499.325
3008.00073	10472.125
3010.42493	10388.725
3012.84764	10456.725
3015.26888	10446.025
3017.68865	10382.225
3020.10694	10379.725
3022.52376	10346.525
3024.9391	10353.425
3027.35298	10351.525
3029.76539	10336.025
3032.17632	10348.225
3034.5858	10311.225
3036.9938	10321.725
3039.40034	10312.525
3041.80542	10309.525
3044.20903	10294.525
3046.61118	10276.925
3049.01187	10230.625
3051.4111	10234.825
3053.80888	10233.025
3056.20519	10180.325
3058.60005	10167.425
3060.99345	10127.225
3063.3854	10130.025
3065.7759	10070.525
3068.16494	10032.325
3070.55254	9991.725
3072.93868	9952.825
3075.32338	9956.025
3077.70662	9914.125
3080.08842	9903.525
3082.46878	9872.725
3084.84769	9860.025
3087.22515	9854.425
3089.60118	9855.425
3091.97576	9834.725
3094.3489	9829.925
3096.72061	9828.825
3099.09087	9801.525
3101.4597	9792.125
3103.82709	9801.125
3106.19305	9774.825
3108.55757	9781.725
3110.92066	9733.425
3113.28232	9742.725
3115.64255	9720.425
3118.00134	9707.125
3120.35871	9675.725
3122.71466	9647.425
3125.06917	9621.925
3127.42226	9588.425
3129.77393	9588.625
