Data from AgNPs_FTO_APTES_UA_5uM_CRN_10uM_R6G_10uM_NaF_0.1M_Addition_RamanShift__16__12-41-56-732.txt Node

Date: Mon Feb 07 12:41:56 GMT 2022
User: TCL
Spectrometer: QEP01345
Trigger mode: 4
Integration Time (sec): 7.000000E0
Scans to average: 10
Electric dark correction enabled: true
Nonlinearity correction enabled: false
Boxcar width: 0
XAxis mode: Raman Shifts
Number of Pixels in Spectrum: 1044
>>>>>Begin Spectral Data<<<<<
46.04893	-1.4125
50.45542	0.1875
54.85868	-0.0125
59.25871	0.4875
63.6555	84.7875
68.04907	88.2875
72.43941	90.6875
76.82654	94.9875
81.21044	99.3875
85.59113	105.5875
89.96862	109.2875
94.34289	110.4875
98.71396	116.1875
103.08183	114.6875
107.4465	122.0875
111.80798	123.0875
116.16626	126.5875
120.52136	137.5875
124.87327	144.6875
129.222	151.0875
133.56755	162.8875
137.90993	175.8875
142.24913	197.7875
146.58517	226.3875
150.91804	263.7875
155.24774	315.0875
159.57429	399.5875
163.89768	517.7875
168.21792	696.7875
172.53501	946.5875
176.84895	1328.0875
181.15975	1893.3875
185.46741	2642.1875
189.77193	3656.8875
194.07331	4861.9875
198.37157	6265.6875
202.6667	7711.9875
206.9587	9150.6875
211.24758	10558.7875
215.53334	11970.8875
219.81599	13501.3875
224.09553	15151.0875
228.37195	17004.2875
232.64527	19010.9875
236.91549	21085.4875
241.18261	23234.3875
245.44663	25217.4875
249.70755	26961.0875
253.96539	28527.9875
258.22014	29868.3875
262.4718	30953.4875
266.72039	31763.6875
270.96589	32272.9875
275.20832	32469.7875
279.44768	32449.3875
283.68397	32392.7875
287.91719	32227.9875
292.14735	32267.4875
296.37445	32339.3875
300.59849	32460.2875
304.81948	32529.6875
309.03742	32313.0875
313.25231	31789.3875
317.46415	30813.5875
321.67296	29793.1875
325.87872	28849.2875
330.08145	28424.6875
334.28114	28293.6875
338.47781	28436.3875
342.67145	28761.9875
346.86207	29147.6875
351.04966	29688.4875
355.23424	30230.3875
359.4158	30716.7875
363.59435	31045.8875
367.76989	31251.3875
371.94243	31370.9875
376.11196	31467.2875
380.27849	31588.2875
384.44203	31751.2875
388.60257	32001.8875
392.76012	32371.2875
396.91468	32828.3875
401.06626	33376.0875
405.21485	33695.7875
409.36047	33443.6875
413.50311	32946.9875
417.64277	32579.0875
421.77947	32513.0875
425.9132	32628.7875
430.04396	32827.4875
434.17176	32989.5875
438.2966	33191.0875
442.41849	33678.7875
446.53742	34526.8875
450.6534	35468.5875
454.76644	36211.6875
458.87653	36639.4875
462.98368	36636.7875
467.08789	36382.0875
471.18916	36082.1875
475.2875	35896.9875
479.38291	35946.6875
483.4754	35834.8875
487.56496	35416.1875
491.6516	34684.1875
495.73531	33960.5875
499.81612	33510.3875
503.89401	33493.7875
507.96899	33577.6875
512.04106	33538.3875
516.11023	33212.4875
520.1765	32741.0875
524.23987	32176.9875
528.30034	31711.7875
532.35792	31308.8875
536.41261	30982.8875
540.46441	30715.1875
544.51333	30822.0875
548.55936	31411.5875
552.60252	32349.1875
556.64279	33273.9875
560.6802	33897.8875
564.71473	34344.3875
568.7464	35125.4875
572.7752	36147.6875
576.80114	37100.7875
580.82422	37832.3875
584.84444	38371.6875
588.86181	38682.8875
592.87633	38915.9875
596.888	38769.1875
600.89682	38457.7875
604.9028	39301.9875
608.90594	41950.9875
612.90624	44477.4875
616.90371	41459.0875
620.89834	34854.5875
624.89015	32012.5875
628.87913	31810.7875
632.86528	32051.8875
636.84862	32079.9875
640.82913	31487.2875
644.80683	30558.8875
648.78172	29885.2875
652.75379	29636.6875
656.72306	29826.6875
660.68952	30278.7875
664.65319	30139.1875
668.61405	29615.5875
672.57211	29495.5875
676.52738	29533.9875
680.47986	29476.7875
684.42955	29276.0875
688.37646	29228.9875
692.32058	29363.0875
696.26192	29659.6875
700.20048	30023.3875
704.13626	30306.3875
708.06928	30397.6875
711.99952	30183.9875
715.927	30106.1875
719.85171	30137.7875
723.77365	30033.3875
727.69284	29619.7875
731.60928	29279.5875
735.52295	29093.7875
739.43388	29000.5875
743.34206	29067.8875
747.24749	29229.9875
751.15017	29595.8875
755.05012	30268.3875
758.94733	31270.2875
762.8418	33075.8875
766.73354	35719.5875
770.62254	38058.2875
774.50882	38326.9875
778.39237	36264.7875
782.27321	33438.1875
786.15132	31232.9875
790.02671	29876.3875
793.89938	29194.6875
797.76935	28936.8875
801.6366	28858.6875
805.50115	28789.9875
809.36299	28629.2875
813.22213	28375.6875
817.07857	28296.0875
820.93231	28206.7875
824.78336	28055.2875
828.63172	27819.2875
832.47738	27694.5875
836.32036	27651.8875
840.16066	27731.6875
843.99827	27860.8875
847.8332	27762.8875
851.66546	27663.7875
855.49504	27608.1875
859.32195	27603.8875
863.1462	27463.5875
866.96777	27408.3875
870.78668	27308.9875
874.60293	27306.7875
878.41652	27260.4875
882.22745	27336.7875
886.03573	27468.5875
889.84136	27437.5875
893.64433	27308.0875
897.44466	27221.1875
901.24235	27089.1875
905.0374	26968.9875
908.8298	26938.0875
912.61957	27008.2875
916.40671	27317.9875
920.19121	27841.6875
923.97308	28172.7875
927.75233	28105.1875
931.52895	27752.6875
935.30295	27307.7875
939.07433	26740.2875
942.84309	26289.9875
946.60924	26065.5875
950.37278	26022.4875
954.13371	25970.3875
957.89203	25895.7875
961.64774	25898.9875
965.40086	25859.0875
969.15137	25818.1875
972.89929	25652.5875
976.64461	25531.6875
980.38733	25483.3875
984.12747	25563.0875
987.86502	25759.7875
991.59999	26008.6875
995.33237	26442.2875
999.06217	27187.4875
1002.78939	27917.7875
1006.51404	28449.1875
1010.23611	28757.4875
1013.95561	29047.9875
1017.67255	29104.8875
1021.38692	28822.3875
1025.09872	28407.6875
1028.80796	28436.2875
1032.51465	28922.6875
1036.21877	29459.2875
1039.92035	29637.7875
1043.61937	29402.3875
1047.31584	28925.5875
1051.00976	28440.1875
1054.70114	28276.5875
1058.38998	28466.4875
1062.07627	28808.5875
1065.76003	29159.6875
1069.44126	29508.0875
1073.11995	29877.3875
1076.79611	30170.8875
1080.46974	30390.6875
1084.14085	30673.2875
1087.80943	31013.0875
1091.47549	31425.1875
1095.13903	31615.4875
1098.80005	31329.4875
1102.45857	30566.1875
1106.11456	29785.4875
1109.76805	29420.4875
1113.41903	29405.4875
1117.06751	29560.5875
1120.71348	29899.1875
1124.35696	30190.4875
1127.99793	30541.5875
1131.63641	30785.9875
1135.2724	30712.1875
1138.90589	30639.4875
1142.5369	30624.8875
1146.16542	30812.7875
1149.79145	31206.9875
1153.415	31707.7875
1157.03607	32408.4875
1160.65467	33597.8875
1164.27079	35298.0875
1167.88443	37524.9875
1171.49561	40070.3875
1175.10432	43252.1875
1178.71056	47172.6875
1182.31434	50815.7875
1185.91565	52972.0875
1189.51451	53391.6875
1193.11091	52322.1875
1196.70485	50362.3875
1200.29634	47924.2875
1203.88538	46141.8875
1207.47197	44931.2875
1211.05612	44158.3875
1214.63782	43227.0875
1218.21708	42138.2875
1221.79391	40942.2875
1225.36829	40167.9875
1228.94024	39405.4875
1232.50976	38621.2875
1236.07685	38021.2875
1239.6415	37714.3875
1243.20374	37666.8875
1246.76355	37935.7875
1250.32093	38520.1875
1253.8759	39467.6875
1257.42845	40661.8875
1260.97859	41967.6875
1264.52631	43323.9875
1268.07163	44692.1875
1271.61453	46128.4875
1275.15503	47690.8875
1278.69312	49355.1875
1282.22882	50980.1875
1285.76211	52697.5875
1289.29301	54708.0875
1292.82151	57337.4875
1296.34761	60689.8875
1299.87133	64572.6875
1303.39266	68603.5875
1306.9116	72545.9875
1310.42815	75706.7875
1313.94233	77415.4875
1317.45412	77581.2875
1320.96354	76926.7875
1324.47058	76451.3875
1327.97525	76167.3875
1331.47754	75963.3875
1334.97747	75829.3875
1338.47502	75608.4875
1341.97022	75161.0875
1345.46305	74008.6875
1348.95352	72210.9875
1352.44163	70221.5875
1355.92738	69203.8875
1359.41078	69682.7875
1362.89183	70656.0875
1366.37053	69143.5875
1369.84688	64212.3875
1373.32088	58438.6875
1376.79254	54371.3875
1380.26186	52949.2875
1383.72883	53248.2875
1387.19347	53807.6875
1390.65578	53911.8875
1394.11575	54211.1875
1397.57339	54935.8875
1401.0287	56078.4875
1404.48168	56876.0875
1407.93234	56747.3875
1411.38068	55378.9875
1414.82669	52894.4875
1418.27039	49939.8875
1421.71177	47082.2875
1425.15083	44979.1875
1428.58758	43893.7875
1432.02203	44025.8875
1435.45416	45238.2875
1438.88399	46836.0875
1442.31151	48414.6875
1445.73673	49575.0875
1449.15965	50629.7875
1452.58027	51466.3875
1455.9986	52068.5875
1459.41463	52695.2875
1462.82837	53428.3875
1466.23982	54251.7875
1469.64898	54771.1875
1473.05586	54890.7875
1476.46045	54399.3875
1479.86276	53603.1875
1483.26279	52614.9875
1486.66054	52120.6875
1490.05602	52001.0875
1493.44922	52133.7875
1496.84016	52606.4875
1500.22882	53534.3875
1503.61521	55032.9875
1506.99934	56912.1875
1510.38121	58540.5875
1513.76081	59053.2875
1517.13816	58319.1875
1520.51324	56832.3875
1523.88607	55533.5875
1527.25665	54942.0875
1530.62498	54790.2875
1533.99105	54788.1875
1537.35488	54446.5875
1540.71647	53519.9875
1544.07581	52120.1875
1547.4329	50509.2875
1550.78776	49218.2875
1554.14038	48293.8875
1557.49077	47863.0875
1560.83892	47620.0875
1564.18484	47599.5875
1567.52853	47654.2875
1570.86999	47982.2875
1574.20922	48881.0875
1577.54624	49868.2875
1580.88103	50532.0875
1584.2136	51318.3875
1587.54395	53033.2875
1590.87208	55536.9875
1594.19801	58527.0875
1597.52172	61204.9875
1600.84321	61639.9875
1604.16251	58502.5875
1607.47959	53782.0875
1610.79447	48902.6875
1614.10715	44342.1875
1617.41763	40490.7875
1620.7259	37667.3875
1624.03199	36214.6875
1627.33587	35979.7875
1630.63757	37204.9875
1633.93707	40018.6875
1637.23439	44595.2875
1640.52951	50772.0875
1643.82246	57619.6875
1647.11321	62645.4875
1650.40179	63260.9875
1653.68819	58739.3875
1656.97241	50911.0875
1660.25446	42851.2875
1663.53433	36544.4875
1666.81203	32326.3875
1670.08756	29590.1875
1673.36092	27901.7875
1676.63211	26803.5875
1679.90115	26049.9875
1683.16801	25443.9875
1686.43272	24989.3875
1689.69527	24653.0875
1692.95567	24457.5875
1696.2139	24228.1875
1699.46999	24056.0875
1702.72392	23915.1875
1705.97571	23842.3875
1709.22535	23748.6875
1712.47284	23636.8875
1715.71819	23609.8875
1718.96139	23528.0875
1722.20246	23395.5875
1725.44139	23266.4875
1728.67818	23117.4875
1731.91284	22932.1875
1735.14537	22752.3875
1738.37576	22649.8875
1741.60403	22507.2875
1744.83017	22488.5875
1748.05418	22370.7875
1751.27607	22299.3875
1754.49584	22256.3875
1757.71349	22225.6875
1760.92903	22184.4875
1764.14244	22155.4875
1767.35375	22117.3875
1770.56294	22079.1875
1773.77002	21979.4875
1776.97499	21926.1875
1780.17785	21879.6875
1783.37861	21856.0875
1786.57727	21773.2875
1789.77382	21769.0875
1792.96828	21739.0875
1796.16064	21728.8875
1799.3509	21610.0875
1802.53907	21546.0875
1805.72514	21443.6875
1808.90913	21444.4875
1812.09102	21355.5875
1815.27083	21284.3875
1818.44856	21262.5875
1821.6242	21218.4875
1824.79776	21204.1875
1827.96924	21207.0875
1831.13864	21197.1875
1834.30597	21240.6875
1837.47122	21222.6875
1840.6344	21235.1875
1843.7955	21217.5875
1846.95454	21221.5875
1850.11151	21213.0875
1853.26642	21196.3875
1856.41926	21175.8875
1859.57004	21185.4875
1862.71876	21160.2875
1865.86542	21113.6875
1869.01003	21105.2875
1872.15258	21024.0875
1875.29308	20999.4875
1878.43152	21029.7875
1881.56792	21001.1875
1884.70227	20932.2875
1887.83457	20974.9875
1890.96482	20887.0875
1894.09304	20884.0875
1897.21921	20859.7875
1900.34335	20840.9875
1903.46544	20764.3875
1906.58551	20754.3875
1909.70353	20743.4875
1912.81953	20648.5875
1915.93349	20617.6875
1919.04543	20563.7875
1922.15534	20515.7875
1925.26322	20467.0875
1928.36908	20372.6875
1931.47292	20327.6875
1934.57473	20237.4875
1937.67453	20196.5875
1940.77232	20121.1875
1943.86808	20043.5875
1946.96184	19968.3875
1950.05358	19940.8875
1953.14331	19840.7875
1956.23103	19781.9875
1959.31675	19703.3875
1962.40046	19656.7875
1965.48217	19568.7875
1968.56188	19515.3875
1971.63959	19435.4875
1974.7153	19394.4875
1977.78901	19348.4875
1980.86073	19260.7875
1983.93046	19187.0875
1986.99819	19079.6875
1990.06394	19079.2875
1993.1277	19055.1875
1996.18947	18990.5875
1999.24925	18920.3875
2002.30706	18880.8875
2005.36288	18796.2875
2008.41672	18726.7875
2011.46859	18692.9875
2014.51848	18634.0875
2017.56639	18569.4875
2020.61233	18511.3875
2023.6563	18491.3875
2026.6983	18416.6875
2029.73833	18365.8875
2032.7764	18355.5875
2035.8125	18297.8875
2038.84664	18234.9875
2041.87881	18266.5875
2044.90903	18198.5875
2047.93729	18138.5875
2050.96359	18133.4875
2053.98794	18132.2875
2057.01034	18101.3875
2060.03078	18094.7875
2063.04927	18076.5875
2066.06582	18092.1875
2069.08042	18087.4875
2072.09307	18059.4875
2075.10378	18009.2875
2078.11255	18003.9875
2081.11938	17975.1875
2084.12426	17944.4875
2087.12722	17979.4875
2090.12824	17924.8875
2093.12732	17908.2875
2096.12447	17933.2875
2099.11969	17939.5875
2102.11299	17927.8875
2105.10435	17916.8875
2108.09379	17940.8875
2111.08131	17943.2875
2114.0669	17954.7875
2117.05057	17983.5875
2120.03233	17939.9875
2123.01216	17984.9875
2125.99008	17982.6875
2128.96609	17990.6875
2131.94018	17973.6875
2134.91236	17992.2875
2137.88263	18009.7875
2140.851	18031.0875
2143.81746	18025.7875
2146.78201	17984.2875
2149.74466	17980.1875
2152.7054	17994.8875
2155.66425	17966.0875
2158.6212	17988.1875
2161.57625	17957.7875
2164.52941	17965.3875
2167.48067	17917.9875
2170.43004	17940.5875
2173.37752	17908.8875
2176.32311	17931.4875
2179.26681	17899.6875
2182.20863	17910.9875
2185.14856	17925.1875
2188.08661	17943.6875
2191.02278	17919.5875
2193.95707	17901.8875
2196.88948	17856.8875
2199.82001	17845.0875
2202.74867	17829.6875
2205.67545	17818.5875
2208.60037	17798.1875
2211.52341	17793.6875
2214.44458	17761.4875
2217.36388	17740.7875
2220.28132	17699.4875
2223.1969	17645.1875
2226.11061	17599.7875
2229.02246	17561.4875
2231.93245	17548.4875
2234.84058	17487.8875
2237.74686	17462.7875
2240.65128	17422.5875
2243.55385	17340.7875
2246.45456	17385.9875
2249.35343	17334.8875
2252.25044	17280.3875
2255.14561	17257.5875
2258.03893	17247.0875
2260.93041	17189.5875
2263.82004	17208.1875
2266.70783	17140.9875
2269.59378	17060.1875
2272.4779	17039.0875
2275.36017	16987.8875
2278.24061	16943.1875
2281.11922	16913.8875
2283.996	16903.8875
2286.87094	16879.6875
2289.74405	16860.7875
2292.61534	16834.1875
2295.4848	16799.8875
2298.35243	16802.2875
2301.21824	16817.6875
2304.08223	16826.2875
2306.94439	16847.9875
2309.80474	16839.7875
2312.66327	16837.1875
2315.51999	16826.0875
2318.37489	16812.9875
2321.22797	16767.0875
2324.07925	16745.2875
2326.92871	16748.5875
2329.77637	16713.4875
2332.62222	16685.8875
2335.46626	16662.7875
2338.3085	16676.5875
2341.14893	16716.1875
2343.98756	16705.3875
2346.8244	16723.6875
2349.65943	16728.9875
2352.49267	16699.3875
2355.32411	16733.8875
2358.15376	16701.3875
2360.98161	16701.1875
2363.80768	16671.2875
2366.63195	16681.1875
2369.45444	16635.8875
2372.27514	16586.3875
2375.09405	16594.1875
2377.91118	16514.9875
2380.72652	16486.6875
2383.54009	16463.8875
2386.35187	16437.1875
2389.16188	16414.2875
2391.97011	16349.1875
2394.77657	16304.5875
2397.58125	16329.7875
2400.38416	16298.6875
2403.18529	16268.9875
2405.98466	16237.4875
2408.78226	16205.1875
2411.57809	16183.2875
2414.37216	16138.8875
2417.16446	16175.1875
2419.955	16145.6875
2422.74378	16120.3875
2425.5308	16066.5875
2428.31606	16088.0875
2431.09956	16087.1875
2433.88131	16083.8875
2436.6613	16093.0875
2439.43954	16060.5875
2442.21603	16057.4875
2444.99077	16050.1875
2447.76377	16073.3875
2450.53501	16051.7875
2453.30451	16037.9875
2456.07226	16033.0875
2458.83827	16035.5875
2461.60254	16037.6875
2464.36507	16034.1875
2467.12586	15999.7875
2469.88492	16016.9875
2472.64224	16064.3875
2475.39782	16082.2875
2478.15167	16074.9875
2480.90379	16058.4875
2483.65417	16071.6875
2486.40283	16090.5875
2489.14976	16109.3875
2491.89497	16102.7875
2494.63845	16118.0875
2497.3802	16135.2875
2500.12024	16125.0875
2502.85855	16085.0875
2505.59514	16069.2875
2508.33002	16084.4875
2511.06318	16069.0875
2513.79462	16035.0875
2516.52435	16051.7875
2519.25237	16066.3875
2521.97867	16028.6875
2524.70327	16036.2875
2527.42616	16020.5875
2530.14734	16038.3875
2532.86681	16011.4875
2535.58458	16034.3875
2538.30065	16011.7875
2541.01501	15995.3875
2543.72768	15967.0875
2546.43864	15970.9875
2549.14791	15934.6875
2551.85548	15941.8875
2554.56136	15926.2875
2557.26554	15851.1875
2559.96803	15859.3875
2562.66883	15868.0875
2565.36794	15841.6875
2568.06536	15824.9875
2570.7611	15801.2875
2573.45514	15797.4875
2576.14751	15789.1875
2578.83819	15772.2875
2581.52719	15807.3875
2584.21451	15770.8875
2586.90015	15824.9875
2589.58411	15794.0875
2592.2664	15792.0875
2594.94701	15794.3875
2597.62594	15782.4875
2600.30321	15749.2875
2602.9788	15805.3875
2605.65273	15750.4875
2608.32498	15780.2875
2610.99557	15796.8875
2613.66449	15779.3875
2616.33175	15770.6875
2618.99734	15799.2875
2621.66128	15773.9875
2624.32355	15759.5875
2626.98416	15774.1875
2629.64311	15781.2875
2632.30041	15769.1875
2634.95605	15769.8875
2637.61004	15766.3875
2640.26238	15777.6875
2642.91306	15746.2875
2645.56209	15724.4875
2648.20948	15744.3875
2650.85521	15723.8875
2653.4993	15747.5875
2656.14175	15747.3875
2658.78255	15741.4875
2661.42171	15744.2875
2664.05923	15796.4875
2666.6951	15784.9875
2669.32934	15809.9875
2671.96194	15825.8875
2674.59291	15805.3875
2677.22224	15832.9875
2679.84993	15817.6875
2682.476	15816.3875
2685.10043	15773.0875
2687.72324	15760.6875
2690.34441	15751.1875
2692.96396	15703.9875
2695.58188	15748.0875
2698.19818	15744.0875
2700.81285	15747.1875
2703.4259	15740.0875
2706.03733	15780.5875
2708.64714	15785.4875
2711.25533	15774.6875
2713.86191	15801.4875
2716.46687	15801.5875
2719.07021	15776.8875
2721.67194	15835.5875
2724.27206	15826.8875
2726.87057	15859.1875
2729.46747	15888.0875
2732.06276	15885.3875
2734.65644	15866.4875
2737.24852	15889.2875
2739.83899	15842.1875
2742.42786	15882.9875
2745.01513	15854.8875
2747.60079	15851.0875
2750.18486	15832.9875
2752.76733	15811.3875
2755.3482	15809.3875
2757.92747	15800.7875
2760.50515	15803.9875
2763.08123	15823.7875
2765.65573	15820.9875
2768.22863	15831.3875
2770.79994	15810.1875
2773.36967	15836.5875
2775.9378	15805.8875
2778.50435	15836.8875
2781.06932	15836.3875
2783.6327	15819.5875
2786.1945	15843.3875
2788.75471	15833.1875
2791.31335	15787.4875
2793.87041	15802.2875
2796.42589	15716.5875
2798.97979	15737.8875
2801.53212	15690.2875
2804.08288	15683.1875
2806.63206	15615.2875
2809.17967	15589.8875
2811.72571	15554.0875
2814.27018	15542.1875
2816.81308	15523.9875
2819.35442	15478.3875
2821.89419	15462.1875
2824.43239	15489.6875
2826.96904	15505.3875
2829.50412	15465.7875
2832.03763	15413.6875
2834.56959	15409.3875
2837.1	15380.5875
2839.62884	15399.6875
2842.15613	15405.8875
2844.68186	15434.8875
2847.20604	15433.8875
2849.72867	15460.0875
2852.24974	15410.2875
2854.76927	15438.0875
2857.28724	15442.1875
2859.80367	15418.5875
2862.31855	15362.9875
2864.83189	15352.3875
2867.34368	15342.4875
2869.85393	15336.6875
2872.36264	15303.3875
2874.8698	15291.9875
2877.37543	15289.3875
2879.87952	15300.0875
2882.38207	15307.2875
2884.88308	15297.6875
2887.38256	15306.1875
2889.88051	15294.6875
2892.37692	15312.3875
2894.8718	15350.8875
2897.36515	15354.6875
2899.85698	15359.3875
2902.34727	15384.7875
2904.83604	15397.3875
2907.32328	15460.0875
2909.809	15427.2875
2912.29319	15469.5875
2914.77587	15455.3875
2917.25702	15514.0875
2919.73665	15420.0875
2922.21476	15430.7875
2924.69136	15408.2875
2927.16644	15418.6875
2929.64	15390.7875
2932.11205	15360.7875
2934.58258	15283.1875
2937.05161	15293.8875
2939.51912	15331.3875
2941.98513	15307.6875
2944.44962	15278.3875
2946.91261	15201.2875
2949.37409	15189.7875
2951.83407	15187.6875
2954.29254	15199.6875
2956.74951	15150.6875
2959.20498	15123.1875
2961.65895	15113.9875
2964.11142	15105.9875
2966.56239	15079.0875
2969.01186	15066.7875
2971.45984	15021.5875
2973.90632	15013.4875
2976.35131	15004.2875
2978.7948	14945.6875
2981.23681	14908.8875
2983.67732	14885.8875
2986.11635	14821.8875
2988.55388	14788.9875
2990.98993	14784.1875
2993.4245	14720.9875
2995.85758	14658.2875
2998.28917	14644.1875
3000.71928	14632.4875
3003.14791	14602.8875
3005.57506	14573.3875
3008.00073	14509.5875
3010.42493	14414.5875
3012.84764	14455.5875
3015.26888	14452.8875
3017.68865	14399.9875
3020.10694	14402.8875
3022.52376	14361.9875
