Data from AgNPs_FTO_APTES_UA_5uM_CRN_1000uM_R6G_10uM_NaF_0.1M_Addition_RamanShift__13__17-39-01-877.txt Node

Date: Mon Feb 07 17:39:01 GMT 2022
User: TCL
Spectrometer: QEP01345
Trigger mode: 4
Integration Time (sec): 7.000000E0
Scans to average: 10
Electric dark correction enabled: true
Nonlinearity correction enabled: false
Boxcar width: 0
XAxis mode: Raman Shifts
Number of Pixels in Spectrum: 1044
>>>>>Begin Spectral Data<<<<<
46.04893	-2.3625
50.45542	-1.3625
54.85868	0.8375
59.25871	-1.2625
63.6555	40.7375
68.04907	46.9375
72.43941	49.8375
76.82654	48.7375
81.21044	49.6375
85.59113	52.5375
89.96862	53.2375
94.34289	59.0375
98.71396	59.6375
103.08183	64.2375
107.4465	63.6375
111.80798	64.6375
116.16626	67.7375
120.52136	72.1375
124.87327	71.9375
129.222	77.9375
133.56755	81.8375
137.90993	85.6375
142.24913	100.8375
146.58517	109.1375
150.91804	128.4375
155.24774	153.3375
159.57429	190.9375
163.89768	241.4375
168.21792	323.8375
172.53501	436.3375
176.84895	616.1375
181.15975	864.4375
185.46741	1220.1375
189.77193	1688.6375
194.07331	2269.4375
198.37157	2923.9375
202.6667	3632.5375
206.9587	4339.8375
211.24758	5025.9375
215.53334	5689.8375
219.81599	6407.3375
224.09553	7202.2375
228.37195	8042.0375
232.64527	8975.9375
236.91549	9947.0375
241.18261	10975.1375
245.44663	11872.5375
249.70755	12780.1375
253.96539	13502.8375
258.22014	14124.6375
262.4718	14620.1375
266.72039	14931.7375
270.96589	15136.9375
275.20832	15190.8375
279.44768	15108.0375
283.68397	15018.8375
287.91719	14955.9375
292.14735	14911.9375
296.37445	14918.2375
300.59849	14913.1375
304.81948	14995.5375
309.03742	14970.7375
313.25231	14827.1375
317.46415	14562.5375
321.67296	14170.8375
325.87872	13846.6375
330.08145	13664.0375
334.28114	13582.1375
338.47781	13685.6375
342.67145	13763.8375
346.86207	13961.7375
351.04966	14153.1375
355.23424	14314.2375
359.4158	14459.7375
363.59435	14574.9375
367.76989	14691.0375
371.94243	14715.3375
376.11196	14766.7375
380.27849	14749.7375
384.44203	14788.0375
388.60257	14886.5375
392.76012	15035.5375
396.91468	15248.7375
401.06626	15465.3375
405.21485	15659.4375
409.36047	15611.2375
413.50311	15427.7375
417.64277	15238.7375
421.77947	15238.3375
425.9132	15306.2375
430.04396	15381.0375
434.17176	15472.4375
438.2966	15567.8375
442.41849	15771.9375
446.53742	16079.2375
450.6534	16358.0375
454.76644	16597.8375
458.87653	16689.4375
462.98368	16740.1375
467.08789	16702.5375
471.18916	16558.3375
475.2875	16493.0375
479.38291	16418.8375
483.4754	16362.8375
487.56496	16260.5375
491.6516	16069.0375
495.73531	15849.7375
499.81612	15678.7375
503.89401	15670.3375
507.96899	15661.6375
512.04106	15688.8375
516.11023	15601.1375
520.1765	15505.5375
524.23987	15368.0375
528.30034	15247.9375
532.35792	15123.8375
536.41261	15017.2375
540.46441	14898.2375
544.51333	14913.5375
548.55936	15098.6375
552.60252	15390.8375
556.64279	15721.8375
560.6802	15971.5375
564.71473	16133.2375
568.7464	16459.0375
572.7752	16987.9375
576.80114	17555.7375
580.82422	18016.0375
584.84444	18306.1375
588.86181	18527.6375
592.87633	18704.0375
596.888	18632.0375
600.89682	18254.0375
604.9028	18128.5375
608.90594	18805.4375
612.90624	19679.8375
616.90371	18673.8375
620.89834	16344.2375
624.89015	15296.0375
628.87913	15195.3375
632.86528	15419.8375
636.84862	15488.5375
640.82913	15328.0375
644.80683	15010.9375
648.78172	14775.8375
652.75379	14675.2375
656.72306	14780.3375
660.68952	14955.1375
664.65319	14887.8375
668.61405	14788.2375
672.57211	14725.5375
676.52738	14784.8375
680.47986	14820.7375
684.42955	14781.8375
688.37646	14724.0375
692.32058	14729.9375
696.26192	14809.0375
700.20048	14892.1375
704.13626	15021.4375
708.06928	15123.4375
711.99952	15117.7375
715.927	15081.0375
719.85171	15032.0375
723.77365	14900.5375
727.69284	14772.5375
731.60928	14601.9375
735.52295	14527.6375
739.43388	14500.7375
743.34206	14462.1375
747.24749	14537.9375
751.15017	14696.5375
755.05012	14960.0375
758.94733	15311.8375
762.8418	15946.6375
766.73354	16941.6375
770.62254	17929.3375
774.50882	18116.0375
778.39237	17403.1375
782.27321	16300.4375
786.15132	15428.2375
790.02671	14885.1375
793.89938	14546.7375
797.76935	14399.2375
801.6366	14335.5375
805.50115	14251.8375
809.36299	14192.7375
813.22213	14116.1375
817.07857	14121.8375
820.93231	14115.4375
824.78336	14060.7375
828.63172	14004.5375
832.47738	13964.1375
836.32036	13938.7375
840.16066	13923.1375
843.99827	13900.1375
847.8332	13891.2375
851.66546	13889.0375
855.49504	13903.9375
859.32195	13909.7375
863.1462	13870.9375
866.96777	13892.1375
870.78668	13862.3375
874.60293	13832.7375
878.41652	13851.5375
882.22745	13901.9375
886.03573	13903.6375
889.84136	13936.7375
893.64433	13919.3375
897.44466	13879.9375
901.24235	13881.6375
905.0374	13806.9375
908.8298	13811.4375
912.61957	13827.6375
916.40671	14003.1375
920.19121	14189.7375
923.97308	14315.5375
927.75233	14236.8375
931.52895	14152.9375
935.30295	13902.8375
939.07433	13645.1375
942.84309	13468.1375
946.60924	13331.2375
950.37278	13231.1375
954.13371	13192.0375
957.89203	13202.0375
961.64774	13195.8375
965.40086	13127.2375
969.15137	13095.2375
972.89929	13062.0375
976.64461	13014.5375
980.38733	12933.6375
984.12747	12943.0375
987.86502	12949.8375
991.59999	12968.7375
995.33237	13025.0375
999.06217	13106.6375
1002.78939	13194.3375
1006.51404	13378.0375
1010.23611	13541.0375
1013.95561	13639.6375
1017.67255	13723.3375
1021.38692	13653.2375
1025.09872	13514.6375
1028.80796	13415.0375
1032.51465	13343.0375
1036.21877	13381.3375
1039.92035	13424.1375
1043.61937	13488.1375
1047.31584	13585.4375
1051.00976	13634.8375
1054.70114	13712.9375
1058.38998	13784.6375
1062.07627	13957.7375
1065.76003	14148.9375
1069.44126	14268.9375
1073.11995	14435.2375
1076.79611	14581.1375
1080.46974	14611.1375
1084.14085	14643.4375
1087.80943	14731.7375
1091.47549	14863.1375
1095.13903	14936.0375
1098.80005	14859.5375
1102.45857	14562.0375
1106.11456	14251.5375
1109.76805	14043.5375
1113.41903	13990.8375
1117.06751	14025.9375
1120.71348	14204.5375
1124.35696	14379.6375
1127.99793	14625.7375
1131.63641	14794.0375
1135.2724	14691.2375
1138.90589	14545.0375
1142.5369	14514.2375
1146.16542	14578.4375
1149.79145	14697.7375
1153.415	14836.0375
1157.03607	15046.4375
1160.65467	15393.5375
1164.27079	15862.1375
1167.88443	16459.9375
1171.49561	17191.4375
1175.10432	18019.7375
1178.71056	19103.0375
1182.31434	20150.4375
1185.91565	20768.4375
1189.51451	20955.9375
1193.11091	20806.3375
1196.70485	20358.9375
1200.29634	19729.3375
1203.88538	19208.2375
1207.47197	18837.9375
1211.05612	18525.4375
1214.63782	18193.9375
1218.21708	17740.6375
1221.79391	17261.4375
1225.36829	16856.7375
1228.94024	16610.4375
1232.50976	16379.9375
1236.07685	16287.1375
1239.6415	16198.6375
1243.20374	16208.7375
1246.76355	16287.1375
1250.32093	16445.3375
1253.8759	16640.2375
1257.42845	16995.5375
1260.97859	17357.7375
1264.52631	17784.9375
1268.07163	18129.0375
1271.61453	18542.6375
1275.15503	18967.1375
1278.69312	19412.5375
1282.22882	19885.8375
1285.76211	20445.6375
1289.29301	21188.2375
1292.82151	21974.7375
1296.34761	22956.9375
1299.87133	24010.9375
1303.39266	25003.4375
1306.9116	25920.1375
1310.42815	26620.9375
1313.94233	26917.2375
1317.45412	26799.3375
1320.96354	26408.3375
1324.47058	26222.3375
1327.97525	26041.9375
1331.47754	25942.2375
1334.97747	26035.5375
1338.47502	26070.0375
1341.97022	26266.3375
1345.46305	26429.2375
1348.95352	26465.4375
1352.44163	26436.5375
1355.92738	26489.2375
1359.41078	26785.4375
1362.89183	27134.7375
1366.37053	26712.7375
1369.84688	25006.7375
1373.32088	22912.1375
1376.79254	21358.6375
1380.26186	20649.3375
1383.72883	20495.6375
1387.19347	20436.6375
1390.65578	20360.2375
1394.11575	20245.9375
1397.57339	20256.9375
1401.0287	20352.2375
1404.48168	20360.4375
1407.93234	20161.1375
1411.38068	19727.6375
1414.82669	19111.8375
1418.27039	18340.2375
1421.71177	17657.9375
1425.15083	17075.6375
1428.58758	16741.9375
1432.02203	16750.2375
1435.45416	16930.5375
1438.88399	17245.3375
1442.31151	17502.2375
1445.73673	17704.1375
1449.15965	17965.6375
1452.58027	18204.6375
1455.9986	18377.0375
1459.41463	18574.4375
1462.82837	18848.1375
1466.23982	19081.9375
1469.64898	19347.2375
1473.05586	19492.4375
1476.46045	19531.8375
1479.86276	19520.0375
1483.26279	19522.0375
1486.66054	19565.4375
1490.05602	19762.3375
1493.44922	20133.4375
1496.84016	20625.6375
1500.22882	21341.3375
1503.61521	22253.0375
1506.99934	23169.9375
1510.38121	23823.4375
1513.76081	23974.9375
1517.13816	23515.9375
1520.51324	22852.9375
1523.88607	22328.8375
1527.25665	22030.1375
1530.62498	21872.6375
1533.99105	21648.8375
1537.35488	21292.3375
1540.71647	20791.0375
1544.07581	20147.8375
1547.4329	19592.8375
1550.78776	19057.0375
1554.14038	18715.0375
1557.49077	18534.4375
1560.83892	18447.7375
1564.18484	18464.6375
1567.52853	18585.8375
1570.86999	18778.9375
1574.20922	19076.6375
1577.54624	19327.0375
1580.88103	19289.8375
1584.2136	19158.1375
1587.54395	19250.4375
1590.87208	19677.7375
1594.19801	20383.3375
1597.52172	21082.5375
1600.84321	21265.1375
1604.16251	20595.9375
1607.47959	19532.7375
1610.79447	18302.8375
1614.10715	17148.0375
1617.41763	16100.6375
1620.7259	15272.6375
1624.03199	14751.5375
1627.33587	14593.0375
1630.63757	14751.8375
1633.93707	15333.7375
1637.23439	16352.1375
1640.52951	17974.2375
1643.82246	20047.6375
1647.11321	22097.9375
1650.40179	23281.1375
1653.68819	22745.5375
1656.97241	20790.9375
1660.25446	18288.7375
1663.53433	16102.0375
1666.81203	14477.3375
1670.08756	13401.1375
1673.36092	12707.7375
1676.63211	12315.4375
1679.90115	11998.3375
1683.16801	11757.6375
1686.43272	11593.5375
1689.69527	11458.6375
1692.95567	11362.5375
1696.2139	11290.4375
1699.46999	11206.1375
1702.72392	11142.5375
1705.97571	11106.4375
1709.22535	11074.5375
1712.47284	11052.8375
1715.71819	11006.2375
1718.96139	10991.4375
1722.20246	10949.9375
1725.44139	10895.0375
1728.67818	10817.1375
1731.91284	10749.1375
1735.14537	10682.3375
1738.37576	10649.4375
1741.60403	10612.6375
1744.83017	10531.3375
1748.05418	10538.0375
1751.27607	10510.2375
1754.49584	10481.6375
1757.71349	10484.6375
1760.92903	10454.4375
1764.14244	10460.7375
1767.35375	10450.0375
1770.56294	10414.6375
1773.77002	10413.2375
1776.97499	10351.5375
1780.17785	10313.0375
1783.37861	10296.5375
1786.57727	10283.9375
1789.77382	10237.6375
1792.96828	10208.6375
1796.16064	10179.7375
1799.3509	10161.1375
1802.53907	10101.8375
1805.72514	10087.4375
1808.90913	10037.4375
1812.09102	10012.5375
1815.27083	9995.6375
1818.44856	9967.2375
1821.6242	9964.4375
1824.79776	9899.4375
1827.96924	9881.5375
1831.13864	9885.9375
1834.30597	9860.7375
1837.47122	9859.7375
1840.6344	9836.2375
1843.7955	9815.2375
1846.95454	9818.0375
1850.11151	9812.6375
1853.26642	9765.7375
1856.41926	9754.2375
1859.57004	9766.2375
1862.71876	9748.6375
1865.86542	9732.4375
1869.01003	9720.4375
1872.15258	9686.3375
1875.29308	9689.7375
1878.43152	9657.4375
1881.56792	9635.3375
1884.70227	9611.8375
1887.83457	9577.6375
1890.96482	9583.4375
1894.09304	9556.2375
1897.21921	9531.4375
1900.34335	9534.5375
1903.46544	9502.6375
1906.58551	9500.4375
1909.70353	9468.6375
1912.81953	9438.7375
1915.93349	9425.4375
1919.04543	9405.9375
1922.15534	9359.9375
1925.26322	9375.3375
1928.36908	9341.0375
1931.47292	9331.7375
1934.57473	9305.2375
1937.67453	9300.1375
1940.77232	9247.5375
1943.86808	9208.9375
1946.96184	9177.6375
1950.05358	9149.1375
1953.14331	9136.7375
1956.23103	9074.0375
1959.31675	9036.2375
1962.40046	9005.7375
1965.48217	9005.9375
1968.56188	8934.2375
1971.63959	8933.7375
1974.7153	8890.2375
1977.78901	8863.1375
1980.86073	8818.9375
1983.93046	8792.7375
1986.99819	8771.0375
1990.06394	8729.7375
1993.1277	8713.1375
1996.18947	8657.0375
1999.24925	8667.7375
2002.30706	8644.1375
2005.36288	8580.6375
2008.41672	8539.1375
2011.46859	8515.1375
2014.51848	8495.0375
2017.56639	8477.3375
2020.61233	8460.5375
2023.6563	8423.2375
2026.6983	8355.1375
2029.73833	8337.6375
2032.7764	8320.6375
2035.8125	8320.2375
2038.84664	8300.9375
2041.87881	8281.2375
2044.90903	8249.4375
2047.93729	8237.9375
2050.96359	8215.8375
2053.98794	8194.1375
2057.01034	8185.2375
2060.03078	8183.9375
2063.04927	8171.6375
2066.06582	8175.9375
2069.08042	8183.4375
2072.09307	8165.0375
2075.10378	8111.8375
2078.11255	8139.4375
2081.11938	8138.5375
2084.12426	8103.7375
2087.12722	8107.2375
2090.12824	8086.8375
2093.12732	8097.3375
2096.12447	8098.3375
2099.11969	8075.5375
2102.11299	8063.9375
2105.10435	8055.8375
2108.09379	8063.1375
2111.08131	8063.5375
2114.0669	8078.4375
2117.05057	8041.8375
2120.03233	8068.8375
2123.01216	8071.7375
2125.99008	8085.2375
2128.96609	8051.5375
2131.94018	8076.8375
2134.91236	8090.5375
2137.88263	8092.2375
2140.851	8098.2375
2143.81746	8089.2375
2146.78201	8047.2375
2149.74466	8058.1375
2152.7054	8027.8375
2155.66425	8030.6375
2158.6212	7995.0375
2161.57625	8013.3375
2164.52941	7993.2375
2167.48067	7989.6375
2170.43004	7985.8375
2173.37752	7996.5375
2176.32311	7997.0375
2179.26681	7972.4375
2182.20863	7964.6375
2185.14856	7971.7375
2188.08661	7956.9375
2191.02278	7973.0375
2193.95707	7951.2375
2196.88948	7922.6375
2199.82001	7909.7375
2202.74867	7902.1375
2205.67545	7856.7375
2208.60037	7863.4375
2211.52341	7844.6375
2214.44458	7828.5375
2217.36388	7810.1375
2220.28132	7787.3375
2223.1969	7743.3375
2226.11061	7736.1375
2229.02246	7752.2375
2231.93245	7721.3375
2234.84058	7703.5375
2237.74686	7685.4375
2240.65128	7676.4375
2243.55385	7664.6375
2246.45456	7638.8375
2249.35343	7654.6375
2252.25044	7638.4375
2255.14561	7598.6375
2258.03893	7575.9375
2260.93041	7522.8375
2263.82004	7542.9375
2266.70783	7511.5375
2269.59378	7505.7375
2272.4779	7464.1375
2275.36017	7429.1375
2278.24061	7422.4375
2281.11922	7426.9375
2283.996	7399.3375
2286.87094	7372.8375
2289.74405	7360.6375
2292.61534	7350.0375
2295.4848	7319.4375
2298.35243	7330.3375
2301.21824	7321.5375
2304.08223	7320.6375
2306.94439	7326.1375
2309.80474	7299.7375
2312.66327	7278.8375
2315.51999	7268.5375
2318.37489	7267.7375
2321.22797	7229.1375
2324.07925	7228.5375
2326.92871	7221.1375
2329.77637	7199.2375
2332.62222	7189.4375
2335.46626	7171.0375
2338.3085	7149.2375
2341.14893	7158.0375
2343.98756	7149.2375
2346.8244	7125.0375
2349.65943	7134.6375
2352.49267	7107.3375
2355.32411	7089.0375
2358.15376	7114.8375
2360.98161	7096.3375
2363.80768	7115.9375
2366.63195	7110.8375
2369.45444	7090.2375
2372.27514	7080.5375
2375.09405	7059.0375
2377.91118	7034.0375
2380.72652	7028.9375
2383.54009	6998.3375
2386.35187	7006.6375
2389.16188	6972.0375
2391.97011	6973.4375
2394.77657	6933.5375
2397.58125	6926.6375
2400.38416	6893.1375
2403.18529	6883.0375
2405.98466	6869.0375
2408.78226	6864.7375
2411.57809	6857.1375
2414.37216	6858.1375
2417.16446	6847.1375
2419.955	6825.4375
2422.74378	6819.0375
2425.5308	6794.0375
2428.31606	6806.1375
2431.09956	6787.0375
2433.88131	6765.6375
2436.6613	6773.4375
2439.43954	6744.2375
2442.21603	6770.3375
2444.99077	6735.5375
2447.76377	6752.1375
2450.53501	6733.8375
2453.30451	6734.5375
2456.07226	6719.4375
2458.83827	6693.2375
2461.60254	6690.7375
2464.36507	6686.5375
2467.12586	6697.7375
2469.88492	6673.8375
2472.64224	6680.9375
2475.39782	6662.6375
2478.15167	6648.7375
2480.90379	6644.0375
2483.65417	6640.2375
2486.40283	6642.3375
2489.14976	6646.5375
2491.89497	6649.7375
2494.63845	6618.3375
2497.3802	6624.6375
2500.12024	6629.6375
2502.85855	6613.2375
2505.59514	6617.2375
2508.33002	6594.9375
2511.06318	6592.4375
2513.79462	6587.9375
2516.52435	6555.5375
2519.25237	6557.7375
2521.97867	6539.3375
2524.70327	6517.5375
2527.42616	6515.3375
2530.14734	6509.0375
2532.86681	6510.2375
2535.58458	6502.0375
2538.30065	6477.8375
2541.01501	6480.2375
2543.72768	6464.3375
2546.43864	6440.1375
2549.14791	6431.5375
2551.85548	6429.0375
2554.56136	6420.6375
2557.26554	6392.5375
2559.96803	6392.7375
2562.66883	6368.0375
2565.36794	6364.8375
2568.06536	6372.3375
2570.7611	6334.3375
2573.45514	6315.3375
2576.14751	6306.7375
2578.83819	6326.2375
2581.52719	6300.7375
2584.21451	6287.5375
2586.90015	6267.4375
2589.58411	6265.8375
2592.2664	6263.2375
2594.94701	6248.2375
2597.62594	6238.3375
2600.30321	6209.8375
2602.9788	6212.3375
2605.65273	6214.0375
2608.32498	6211.0375
2610.99557	6221.9375
2613.66449	6186.1375
2616.33175	6185.0375
2618.99734	6193.3375
2621.66128	6154.0375
2624.32355	6147.5375
2626.98416	6137.4375
2629.64311	6139.7375
2632.30041	6121.9375
2634.95605	6107.5375
2637.61004	6091.2375
2640.26238	6099.9375
2642.91306	6081.0375
2645.56209	6077.2375
2648.20948	6065.8375
2650.85521	6076.8375
2653.4993	6072.6375
2656.14175	6072.6375
2658.78255	6073.2375
2661.42171	6053.9375
2664.05923	6066.9375
2666.6951	6054.4375
2669.32934	6060.1375
2671.96194	6055.8375
2674.59291	6083.3375
2677.22224	6063.5375
2679.84993	6048.0375
2682.476	6034.2375
2685.10043	6037.4375
2687.72324	6027.2375
2690.34441	6051.0375
2692.96396	6029.9375
2695.58188	6033.8375
2698.19818	6041.2375
2700.81285	6034.3375
2703.4259	6033.9375
2706.03733	6034.3375
2708.64714	6036.2375
2711.25533	6031.9375
2713.86191	6044.5375
2716.46687	6034.0375
2719.07021	6043.3375
2721.67194	6031.2375
2724.27206	6020.8375
2726.87057	6023.6375
2729.46747	6033.3375
2732.06276	6023.8375
2734.65644	6004.5375
2737.24852	6015.7375
2739.83899	5993.9375
2742.42786	5970.4375
2745.01513	6001.5375
2747.60079	5969.6375
2750.18486	5956.1375
2752.76733	5946.6375
2755.3482	5940.8375
2757.92747	5925.5375
2760.50515	5929.3375
2763.08123	5909.6375
2765.65573	5912.2375
2768.22863	5910.4375
2770.79994	5889.9375
2773.36967	5896.8375
2775.9378	5885.4375
2778.50435	5878.4375
2781.06932	5884.3375
2783.6327	5861.4375
2786.1945	5838.3375
2788.75471	5852.1375
2791.31335	5848.2375
2793.87041	5851.6375
2796.42589	5816.9375
2798.97979	5822.4375
2801.53212	5802.1375
2804.08288	5788.2375
2806.63206	5773.5375
2809.17967	5780.6375
2811.72571	5767.6375
2814.27018	5760.0375
2816.81308	5728.0375
2819.35442	5715.3375
2821.89419	5703.9375
2824.43239	5716.0375
2826.96904	5710.3375
2829.50412	5731.5375
2832.03763	5688.5375
2834.56959	5670.3375
2837.1	5681.3375
2839.62884	5700.5375
2842.15613	5687.4375
2844.68186	5758.4375
2847.20604	5784.6375
2849.72867	5768.4375
2852.24974	5768.2375
2854.76927	5776.4375
2857.28724	5765.6375
2859.80367	5744.5375
2862.31855	5728.9375
2864.83189	5702.8375
2867.34368	5719.3375
2869.85393	5716.5375
2872.36264	5707.7375
2874.8698	5707.9375
2877.37543	5695.2375
2879.87952	5679.4375
2882.38207	5689.8375
2884.88308	5676.6375
2887.38256	5649.1375
2889.88051	5666.9375
2892.37692	5659.0375
2894.8718	5691.2375
2897.36515	5659.4375
2899.85698	5663.2375
2902.34727	5675.3375
2904.83604	5683.1375
2907.32328	5697.2375
2909.809	5678.0375
2912.29319	5685.4375
2914.77587	5687.3375
2917.25702	5694.7375
2919.73665	5668.7375
2922.21476	5666.8375
2924.69136	5661.3375
2927.16644	5660.2375
2929.64	5657.2375
2932.11205	5653.8375
2934.58258	5638.7375
2937.05161	5658.2375
2939.51912	5609.7375
2941.98513	5604.6375
2944.44962	5578.9375
2946.91261	5566.8375
2949.37409	5573.1375
2951.83407	5531.8375
2954.29254	5530.3375
2956.74951	5509.2375
2959.20498	5512.8375
2961.65895	5499.7375
2964.11142	5488.7375
2966.56239	5465.4375
2969.01186	5453.2375
2971.45984	5451.1375
2973.90632	5452.5375
2976.35131	5417.3375
2978.7948	5396.4375
2981.23681	5382.0375
2983.67732	5363.2375
2986.11635	5360.4375
2988.55388	5339.7375
2990.98993	5333.9375
2993.4245	5307.3375
2995.85758	5303.7375
2998.28917	5289.0375
3000.71928	5262.8375
3003.14791	5263.6375
3005.57506	5259.5375
3008.00073	5229.7375
3010.42493	5223.4375
3012.84764	5208.1375
3015.26888	5213.2375
3017.68865	5193.9375
3020.10694	5182.8375
3022.52376	5169.3375
3024.9391	5166.3375
3027.35298	5157.2375
3029.76539	5153.2375
3032.17632	5151.5375
3034.5858	5126.2375
3036.9938	5104.2375
3039.40034	5130.8375
3041.80542	5128.9375
3044.20903	5103.3375
3046.61118	5104.7375
3049.01187	5075.8375
3051.4111	5084.5375
3053.80888	5071.6375
3056.20519	5069.5375
3058.60005	5059.9375
3060.99345	5047.6375
3063.3854	5027.9375
3065.7759	5005.8375
3068.16494	5009.4375
3070.55254	4986.2375
3072.93868	4980.1375
3075.32338	4962.9375
