Data from AgNPs_FTO_APTES_UA_5uM_CRN_200uM_R6G_10uM_NaF_0.1M_Addition_RamanShift__19__16-22-01-788.txt Node

Date: Mon Feb 07 16:22:01 GMT 2022
User: TCL
Spectrometer: QEP01345
Trigger mode: 4
Integration Time (sec): 7.000000E0
Scans to average: 10
Electric dark correction enabled: true
Nonlinearity correction enabled: false
Boxcar width: 0
XAxis mode: Raman Shifts
Number of Pixels in Spectrum: 1044
>>>>>Begin Spectral Data<<<<<
46.04893	-1.675
50.45542	0.225
54.85868	-0.875
59.25871	0.125
63.6555	68.125
68.04907	69.625
72.43941	78.225
76.82654	74.325
81.21044	79.925
85.59113	75.825
89.96862	83.725
94.34289	88.125
98.71396	87.925
103.08183	88.325
107.4465	95.025
111.80798	96.625
116.16626	98.025
120.52136	104.625
124.87327	108.825
129.222	115.025
133.56755	126.225
137.90993	137.825
142.24913	152.925
146.58517	171.025
150.91804	200.425
155.24774	244.725
159.57429	308.925
163.89768	392.225
168.21792	525.125
172.53501	721.825
176.84895	1010.625
181.15975	1426.425
185.46741	1985.925
189.77193	2770.725
194.07331	3683.925
198.37157	4732.425
202.6667	5842.625
206.9587	6943.025
211.24758	8019.625
215.53334	9137.925
219.81599	10284.225
224.09553	11555.325
228.37195	12950.525
232.64527	14455.725
236.91549	16013.625
241.18261	17633.325
245.44663	19143.425
249.70755	20519.625
253.96539	21717.025
258.22014	22780.825
262.4718	23579.525
266.72039	24187.425
270.96589	24599.725
275.20832	24789.825
279.44768	24791.925
283.68397	24756.725
287.91719	24709.925
292.14735	24801.325
296.37445	24946.125
300.59849	25103.025
304.81948	25071.025
309.03742	24829.825
313.25231	24319.225
317.46415	23581.425
321.67296	22852.425
325.87872	22254.325
330.08145	21895.725
334.28114	21819.725
338.47781	21902.625
342.67145	22085.525
346.86207	22371.625
351.04966	22686.425
355.23424	22981.125
359.4158	23202.825
363.59435	23398.425
367.76989	23561.725
371.94243	23730.525
376.11196	23812.425
380.27849	23924.225
384.44203	24127.625
388.60257	24389.225
392.76012	24669.625
396.91468	24962.725
401.06626	25280.725
405.21485	25480.525
409.36047	25348.525
413.50311	25050.725
417.64277	24751.725
421.77947	24754.125
425.9132	24865.325
430.04396	24998.225
434.17176	25211.925
438.2966	25515.325
442.41849	26064.225
446.53742	26861.025
450.6534	27667.025
454.76644	28388.825
458.87653	28642.225
462.98368	28644.025
467.08789	28505.425
471.18916	28340.925
475.2875	28391.425
479.38291	28550.825
483.4754	28465.425
487.56496	27887.025
491.6516	27066.625
495.73531	26280.125
499.81612	25776.925
503.89401	25745.725
507.96899	25709.025
512.04106	25656.825
516.11023	25399.825
520.1765	25130.425
524.23987	24868.025
528.30034	24618.325
532.35792	24406.625
536.41261	24233.225
540.46441	24061.925
544.51333	24174.725
548.55936	24633.025
552.60252	25307.125
556.64279	26051.625
560.6802	26700.225
564.71473	27098.125
568.7464	27701.425
572.7752	28507.525
576.80114	29056.925
580.82422	29352.625
584.84444	29523.925
588.86181	29900.825
592.87633	30279.225
596.888	30408.525
600.89682	30136.425
604.9028	30261.925
608.90594	31470.525
612.90624	32699.525
616.90371	30521.125
620.89834	26222.325
624.89015	24427.125
628.87913	24354.425
632.86528	24623.925
636.84862	24687.025
640.82913	24398.925
644.80683	23853.325
648.78172	23306.725
652.75379	23077.725
656.72306	23187.825
660.68952	23382.925
664.65319	23292.325
668.61405	22959.025
672.57211	22903.025
676.52738	22963.425
680.47986	23027.825
684.42955	22977.925
688.37646	22892.725
692.32058	22922.125
696.26192	23013.625
700.20048	23291.325
704.13626	23384.525
708.06928	23497.125
711.99952	23393.825
715.927	23340.025
719.85171	23354.925
723.77365	23300.525
727.69284	23087.525
731.60928	22908.025
735.52295	22756.925
739.43388	22773.925
743.34206	22766.225
747.24749	22850.625
751.15017	23109.325
755.05012	23557.425
758.94733	24322.225
762.8418	25577.425
766.73354	27381.025
770.62254	28940.225
774.50882	29054.525
778.39237	27641.125
782.27321	25600.325
786.15132	24027.825
790.02671	23069.925
793.89938	22579.825
797.76935	22404.325
801.6366	22348.025
805.50115	22340.325
809.36299	22171.125
813.22213	22081.125
817.07857	22113.525
820.93231	22078.325
824.78336	21939.625
828.63172	21820.125
832.47738	21729.225
836.32036	21704.325
840.16066	21689.125
843.99827	21727.025
847.8332	21668.825
851.66546	21594.125
855.49504	21551.125
859.32195	21550.925
863.1462	21501.425
866.96777	21459.425
870.78668	21403.625
874.60293	21432.025
878.41652	21370.725
882.22745	21441.425
886.03573	21441.425
889.84136	21435.125
893.64433	21384.725
897.44466	21289.625
901.24235	21220.425
905.0374	21121.425
908.8298	21087.925
912.61957	21195.925
916.40671	21492.825
920.19121	21841.325
923.97308	22022.425
927.75233	21881.725
931.52895	21661.225
935.30295	21378.225
939.07433	20979.025
942.84309	20609.625
946.60924	20447.425
950.37278	20327.825
954.13371	20335.225
957.89203	20348.525
961.64774	20337.625
965.40086	20302.925
969.15137	20221.925
972.89929	20036.325
976.64461	19929.525
980.38733	19872.525
984.12747	19887.725
987.86502	19993.625
991.59999	20147.625
995.33237	20426.425
999.06217	20871.125
1002.78939	21416.225
1006.51404	21664.425
1010.23611	21865.925
1013.95561	22049.825
1017.67255	22130.425
1021.38692	21888.425
1025.09872	21628.525
1028.80796	21540.925
1032.51465	21782.825
1036.21877	22039.425
1039.92035	22122.725
1043.61937	22027.925
1047.31584	21858.625
1051.00976	21684.925
1054.70114	21684.325
1058.38998	21820.725
1062.07627	22158.225
1065.76003	22388.025
1069.44126	22600.025
1073.11995	22815.125
1076.79611	22981.625
1080.46974	23058.025
1084.14085	23127.325
1087.80943	23303.425
1091.47549	23560.325
1095.13903	23649.425
1098.80005	23501.025
1102.45857	23034.325
1106.11456	22614.825
1109.76805	22386.725
1113.41903	22449.325
1117.06751	22623.425
1120.71348	22880.625
1124.35696	23147.325
1127.99793	23477.625
1131.63641	23688.225
1135.2724	23579.425
1138.90589	23497.725
1142.5369	23514.525
1146.16542	23707.325
1149.79145	24070.525
1153.415	24544.725
1157.03607	25099.225
1160.65467	25932.225
1164.27079	27132.425
1167.88443	28648.125
1171.49561	30486.625
1175.10432	32740.025
1178.71056	35510.625
1182.31434	38044.925
1185.91565	39445.225
1189.51451	39541.125
1193.11091	38823.525
1196.70485	37624.925
1200.29634	36146.325
1203.88538	34909.325
1207.47197	34103.925
1211.05612	33457.725
1214.63782	32802.225
1218.21708	31952.225
1221.79391	31164.025
1225.36829	30498.625
1228.94024	29839.425
1232.50976	29136.825
1236.07685	28556.025
1239.6415	28335.725
1243.20374	28359.425
1246.76355	28626.725
1250.32093	29004.625
1253.8759	29553.325
1257.42845	30340.725
1260.97859	31145.625
1264.52631	31897.725
1268.07163	32710.425
1271.61453	33617.625
1275.15503	34646.225
1278.69312	35889.125
1282.22882	37029.425
1285.76211	38343.825
1289.29301	40010.525
1292.82151	42302.825
1296.34761	45082.225
1299.87133	48071.925
1303.39266	50948.325
1306.9116	53456.325
1310.42815	55556.725
1313.94233	56970.325
1317.45412	57396.725
1320.96354	57308.925
1324.47058	57138.125
1327.97525	56823.325
1331.47754	56542.825
1334.97747	56272.925
1338.47502	55992.625
1341.97022	55464.225
1345.46305	54466.525
1348.95352	53051.225
1352.44163	51602.225
1355.92738	50821.425
1359.41078	51167.625
1362.89183	51712.425
1366.37053	50648.825
1369.84688	47172.625
1373.32088	43059.925
1376.79254	40392.925
1380.26186	39696.025
1383.72883	40179.725
1387.19347	40931.325
1390.65578	41457.025
1394.11575	42064.525
1397.57339	42883.625
1401.0287	43881.725
1404.48168	44440.625
1407.93234	44146.225
1411.38068	42795.225
1414.82669	40594.725
1418.27039	38041.125
1421.71177	35680.525
1425.15083	33832.125
1428.58758	32788.925
1432.02203	32868.025
1435.45416	33702.325
1438.88399	35014.325
1442.31151	36159.825
1445.73673	37133.925
1449.15965	38090.925
1452.58027	38960.125
1455.9986	39671.625
1459.41463	40277.225
1462.82837	40761.725
1466.23982	41203.425
1469.64898	41411.925
1473.05586	41414.225
1476.46045	40949.325
1479.86276	40278.025
1483.26279	39404.725
1486.66054	38682.825
1490.05602	38383.325
1493.44922	38341.525
1496.84016	38442.925
1500.22882	38815.625
1503.61521	39728.325
1506.99934	40965.625
1510.38121	42091.325
1513.76081	42514.325
1517.13816	42070.825
1520.51324	41158.225
1523.88607	40479.925
1527.25665	40259.125
1530.62498	40406.225
1533.99105	40531.425
1537.35488	40396.625
1540.71647	39760.825
1544.07581	38737.325
1547.4329	37565.325
1550.78776	36532.925
1554.14038	35846.625
1557.49077	35473.925
1560.83892	35347.925
1564.18484	35313.925
1567.52853	35432.925
1570.86999	35778.325
1574.20922	36518.325
1577.54624	37472.125
1580.88103	38159.225
1584.2136	38868.625
1587.54395	40130.425
1590.87208	41788.325
1594.19801	43788.625
1597.52172	45579.225
1600.84321	45873.825
1604.16251	43803.425
1607.47959	40325.325
1610.79447	36659.425
1614.10715	33266.425
1617.41763	30482.025
1620.7259	28467.325
1624.03199	27395.525
1627.33587	27299.625
1630.63757	28193.325
1633.93707	30153.225
1637.23439	33384.225
1640.52951	37901.025
1643.82246	42988.525
1647.11321	46960.825
1650.40179	47625.025
1653.68819	44449.625
1656.97241	38674.025
1660.25446	32774.425
1663.53433	28106.925
1666.81203	24888.225
1670.08756	22891.325
1673.36092	21588.825
1676.63211	20769.825
1679.90115	20177.225
1683.16801	19733.325
1686.43272	19403.825
1689.69527	19091.525
1692.95567	18934.425
1696.2139	18798.825
1699.46999	18662.825
1702.72392	18568.825
1705.97571	18505.125
1709.22535	18414.925
1712.47284	18348.325
1715.71819	18320.225
1718.96139	18216.025
1722.20246	18149.025
1725.44139	18062.525
1728.67818	17954.625
1731.91284	17847.825
1735.14537	17724.825
1738.37576	17664.425
1741.60403	17575.625
1744.83017	17481.825
1748.05418	17496.025
1751.27607	17494.225
1754.49584	17449.525
1757.71349	17419.825
1760.92903	17384.325
1764.14244	17345.625
1767.35375	17298.025
1770.56294	17255.025
1773.77002	17189.325
1776.97499	17146.425
1780.17785	17068.325
1783.37861	17076.825
1786.57727	17035.825
1789.77382	16999.025
1792.96828	16956.925
1796.16064	16903.225
1799.3509	16862.125
1802.53907	16814.625
1805.72514	16761.425
1808.90913	16709.225
1812.09102	16696.125
1815.27083	16620.025
1818.44856	16615.525
1821.6242	16589.225
1824.79776	16550.825
1827.96924	16507.825
1831.13864	16485.425
1834.30597	16487.925
1837.47122	16451.025
1840.6344	16418.325
1843.7955	16442.725
1846.95454	16430.125
1850.11151	16413.425
1853.26642	16403.825
1856.41926	16350.925
1859.57004	16351.325
1862.71876	16328.725
1865.86542	16327.225
1869.01003	16298.325
1872.15258	16293.925
1875.29308	16281.325
1878.43152	16254.725
1881.56792	16291.425
1884.70227	16220.325
1887.83457	16246.925
1890.96482	16181.925
1894.09304	16158.525
1897.21921	16135.525
1900.34335	16119.725
1903.46544	16098.925
1906.58551	16067.825
1909.70353	16030.425
1912.81953	16040.525
1915.93349	16040.325
1919.04543	15965.325
1922.15534	15952.325
1925.26322	15925.125
1928.36908	15870.525
1931.47292	15863.325
1934.57473	15825.225
1937.67453	15796.625
1940.77232	15740.325
1943.86808	15651.125
1946.96184	15624.125
1950.05358	15537.025
1953.14331	15497.625
1956.23103	15429.725
1959.31675	15379.925
1962.40046	15365.725
1965.48217	15310.725
1968.56188	15258.925
1971.63959	15231.025
1974.7153	15183.825
1977.78901	15136.425
1980.86073	15050.625
1983.93046	15037.125
1986.99819	14970.725
1990.06394	14950.325
1993.1277	14891.625
1996.18947	14827.325
1999.24925	14790.925
2002.30706	14747.025
2005.36288	14725.825
2008.41672	14683.325
2011.46859	14626.725
2014.51848	14568.625
2017.56639	14536.725
2020.61233	14484.225
2023.6563	14436.725
2026.6983	14387.225
2029.73833	14383.625
2032.7764	14342.925
2035.8125	14329.125
2038.84664	14296.825
2041.87881	14288.425
2044.90903	14260.025
2047.93729	14230.525
2050.96359	14212.625
2053.98794	14190.325
2057.01034	14212.725
2060.03078	14172.025
2063.04927	14170.125
2066.06582	14173.525
2069.08042	14175.725
2072.09307	14143.825
2075.10378	14118.725
2078.11255	14099.825
2081.11938	14099.725
2084.12426	14086.025
2087.12722	14070.025
2090.12824	14067.325
2093.12732	14041.425
2096.12447	14051.425
2099.11969	14054.025
2102.11299	14040.325
2105.10435	14028.625
2108.09379	14027.025
2111.08131	14050.625
2114.0669	14047.725
2117.05057	14067.625
2120.03233	14078.425
2123.01216	14067.725
2125.99008	14079.625
2128.96609	14087.525
2131.94018	14089.425
2134.91236	14105.425
2137.88263	14127.125
2140.851	14119.825
2143.81746	14107.825
2146.78201	14078.925
2149.74466	14062.725
2152.7054	14094.325
2155.66425	14093.125
2158.6212	14079.725
2161.57625	14031.825
2164.52941	14032.525
2167.48067	14020.025
2170.43004	14028.325
2173.37752	14029.625
2176.32311	14064.825
2179.26681	14044.625
2182.20863	14071.625
2185.14856	14022.725
2188.08661	14020.625
2191.02278	14043.025
2193.95707	14005.525
2196.88948	14011.025
2199.82001	13962.525
2202.74867	13986.025
2205.67545	13913.025
2208.60037	13918.625
2211.52341	13882.125
2214.44458	13874.625
2217.36388	13853.325
2220.28132	13817.725
2223.1969	13760.925
2226.11061	13778.025
2229.02246	13774.625
2231.93245	13734.325
2234.84058	13705.025
2237.74686	13669.725
2240.65128	13634.425
2243.55385	13606.525
2246.45456	13632.225
2249.35343	13594.825
2252.25044	13567.525
2255.14561	13511.225
2258.03893	13500.225
2260.93041	13440.425
2263.82004	13420.425
2266.70783	13398.125
2269.59378	13353.225
2272.4779	13339.425
2275.36017	13272.225
2278.24061	13263.025
2281.11922	13235.225
2283.996	13235.925
2286.87094	13216.825
2289.74405	13167.825
2292.61534	13171.925
2295.4848	13143.125
2298.35243	13134.725
2301.21824	13156.425
2304.08223	13183.025
2306.94439	13181.925
2309.80474	13178.825
2312.66327	13161.925
2315.51999	13173.825
2318.37489	13128.625
2321.22797	13104.525
2324.07925	13103.025
2326.92871	13079.725
2329.77637	13081.025
2332.62222	13051.625
2335.46626	13039.025
2338.3085	13036.825
2341.14893	13021.825
2343.98756	13031.325
2346.8244	13034.025
2349.65943	13016.125
2352.49267	13001.925
2355.32411	13033.925
2358.15376	13009.325
2360.98161	13010.425
2363.80768	12992.225
2366.63195	12997.925
2369.45444	12970.725
2372.27514	12960.425
2375.09405	12912.925
2377.91118	12875.825
2380.72652	12867.225
2383.54009	12840.725
2386.35187	12831.525
2389.16188	12803.725
2391.97011	12733.725
2394.77657	12712.925
2397.58125	12687.725
2400.38416	12667.025
2403.18529	12651.725
2405.98466	12647.925
2408.78226	12619.825
2411.57809	12625.725
2414.37216	12616.925
2417.16446	12611.625
2419.955	12587.625
2422.74378	12583.825
2425.5308	12539.825
2428.31606	12554.525
2431.09956	12536.025
2433.88131	12497.825
2436.6613	12541.525
2439.43954	12560.125
2442.21603	12524.125
2444.99077	12495.225
2447.76377	12511.325
2450.53501	12487.025
2453.30451	12485.225
2456.07226	12465.525
2458.83827	12441.325
2461.60254	12437.025
2464.36507	12458.225
2467.12586	12481.325
2469.88492	12454.925
2472.64224	12444.825
2475.39782	12473.425
2478.15167	12469.925
2480.90379	12449.925
2483.65417	12463.125
2486.40283	12468.525
2489.14976	12492.225
2491.89497	12508.025
2494.63845	12508.925
2497.3802	12500.825
2500.12024	12512.225
2502.85855	12465.325
2505.59514	12453.425
2508.33002	12473.025
2511.06318	12446.425
2513.79462	12462.225
2516.52435	12449.225
2519.25237	12432.325
2521.97867	12407.425
2524.70327	12408.925
2527.42616	12398.325
2530.14734	12384.125
2532.86681	12379.825
2535.58458	12398.625
2538.30065	12387.825
2541.01501	12370.625
2543.72768	12342.225
2546.43864	12327.025
2549.14791	12308.725
2551.85548	12307.225
2554.56136	12264.125
2557.26554	12249.325
2559.96803	12246.925
2562.66883	12216.225
2565.36794	12217.925
2568.06536	12250.525
2570.7611	12221.925
2573.45514	12212.925
2576.14751	12206.425
2578.83819	12196.125
2581.52719	12185.125
2584.21451	12179.925
2586.90015	12190.525
2589.58411	12185.425
2592.2664	12181.925
2594.94701	12171.025
2597.62594	12173.125
2600.30321	12142.225
2602.9788	12144.225
2605.65273	12130.525
2608.32498	12160.725
2610.99557	12161.325
2613.66449	12148.725
2616.33175	12136.825
2618.99734	12152.725
2621.66128	12140.725
2624.32355	12165.925
2626.98416	12134.925
2629.64311	12142.825
2632.30041	12140.625
2634.95605	12140.525
2637.61004	12094.925
2640.26238	12097.725
2642.91306	12097.425
2645.56209	12083.225
2648.20948	12071.725
2650.85521	12113.025
2653.4993	12110.225
2656.14175	12089.725
2658.78255	12148.925
2661.42171	12098.525
2664.05923	12132.725
2666.6951	12119.025
2669.32934	12120.925
2671.96194	12127.925
2674.59291	12141.225
2677.22224	12136.325
2679.84993	12135.325
2682.476	12090.325
2685.10043	12102.225
2687.72324	12093.425
2690.34441	12111.825
2692.96396	12091.925
2695.58188	12095.425
2698.19818	12075.425
2700.81285	12082.325
2703.4259	12088.225
2706.03733	12110.325
2708.64714	12097.025
2711.25533	12109.525
2713.86191	12116.125
2716.46687	12133.625
2719.07021	12148.725
2721.67194	12133.725
2724.27206	12162.825
2726.87057	12185.425
2729.46747	12197.925
2732.06276	12210.525
2734.65644	12178.825
2737.24852	12192.125
2739.83899	12155.025
2742.42786	12168.825
2745.01513	12182.025
2747.60079	12160.525
2750.18486	12149.725
2752.76733	12150.625
2755.3482	12120.125
2757.92747	12104.025
2760.50515	12133.925
2763.08123	12142.725
2765.65573	12106.425
2768.22863	12108.025
2770.79994	12123.425
2773.36967	12120.325
2775.9378	12141.125
2778.50435	12145.325
2781.06932	12146.625
2783.6327	12135.425
2786.1945	12133.325
2788.75471	12107.625
2791.31335	12162.425
2793.87041	12117.425
2796.42589	12101.125
2798.97979	12091.925
2801.53212	12093.325
2804.08288	12048.725
2806.63206	12013.925
2809.17967	12000.125
2811.72571	11967.725
2814.27018	11957.425
2816.81308	11943.225
2819.35442	11903.225
2821.89419	11856.125
2824.43239	11858.025
2826.96904	11856.425
2829.50412	11858.225
2832.03763	11821.825
2834.56959	11818.725
2837.1	11805.125
2839.62884	11803.925
2842.15613	11842.225
2844.68186	11877.525
2847.20604	11886.125
2849.72867	11914.925
2852.24974	11928.925
2854.76927	11914.725
2857.28724	11888.925
2859.80367	11886.825
2862.31855	11838.325
2864.83189	11813.625
2867.34368	11781.425
2869.85393	11818.525
2872.36264	11821.325
2874.8698	11805.125
2877.37543	11820.825
2879.87952	11798.725
2882.38207	11780.025
2884.88308	11799.925
2887.38256	11799.225
2889.88051	11809.025
2892.37692	11821.225
2894.8718	11819.025
2897.36515	11845.025
2899.85698	11854.825
2902.34727	11881.525
2904.83604	11889.625
2907.32328	11918.925
2909.809	11933.225
2912.29319	11926.025
2914.77587	11920.025
2917.25702	11886.125
2919.73665	11897.825
2922.21476	11903.025
2924.69136	11897.125
2927.16644	11895.625
2929.64	11873.025
2932.11205	11870.225
2934.58258	11858.725
2937.05161	11835.625
2939.51912	11838.425
2941.98513	11800.325
2944.44962	11780.425
2946.91261	11754.025
2949.37409	11744.625
2951.83407	11726.525
2954.29254	11737.825
2956.74951	11709.925
2959.20498	11688.225
2961.65895	11645.725
2964.11142	11676.525
2966.56239	11640.425
2969.01186	11644.525
2971.45984	11620.525
2973.90632	11591.725
2976.35131	11574.125
2978.7948	11531.125
2981.23681	11525.625
2983.67732	11492.725
2986.11635	11439.125
2988.55388	11435.525
2990.98993	11396.325
2993.4245	11348.325
2995.85758	11322.825
2998.28917	11292.225
3000.71928	11280.625
3003.14791	11263.225
3005.57506	11277.425
3008.00073	11213.825
3010.42493	11175.125
3012.84764	11168.425
3015.26888	11159.625
3017.68865	11124.025
3020.10694	11109.725
3022.52376	11071.025
3024.9391	11072.225
3027.35298	11049.225
3029.76539	11045.025
3032.17632	11037.625
3034.5858	11042.425
3036.9938	11043.425
3039.40034	11030.325
3041.80542	11023.425
3044.20903	10998.125
3046.61118	11006.725
3049.01187	11004.325
3051.4111	10966.525
3053.80888	10935.725
3056.20519	10925.925
3058.60005	10891.525
3060.99345	10855.425
3063.3854	10806.225
3065.7759	10790.725
3068.16494	10727.825
3070.55254	10685.425
3072.93868	10684.025
3075.32338	10657.925
3077.70662	10603.125
3080.08842	10588.625
3082.46878	10589.325
3084.84769	10552.825
3087.22515	10552.525
3089.60118	10574.425
3091.97576	10565.325
3094.3489	10564.725
3096.72061	10563.625
3099.09087	10573.425
3101.4597	10558.325
3103.82709	10540.225
3106.19305	10518.825
3108.55757	10526.025
3110.92066	10499.725
3113.28232	10459.425
3115.64255	10427.725
3118.00134	10400.925
3120.35871	10430.825
3122.71466	10396.225
3125.06917	10353.925
3127.42226	10338.625
