Data from AgNPs_FTO_APTES_UA_5uM_CRN_0uM_R6G_10uM_NaF_0.1M_Addition_RamanShift__25__10-07-56-553.txt Node

Date: Mon Feb 07 10:07:56 GMT 2022
User: TCL
Spectrometer: QEP01345
Trigger mode: 4
Integration Time (sec): 7.000000E0
Scans to average: 10
Electric dark correction enabled: true
Nonlinearity correction enabled: false
Boxcar width: 0
XAxis mode: Raman Shifts
Number of Pixels in Spectrum: 1044
>>>>>Begin Spectral Data<<<<<
46.04893	-1.425
50.45542	-0.025
54.85868	-1.325
59.25871	0.975
63.6555	66.675
68.04907	72.675
72.43941	78.475
76.82654	78.275
81.21044	80.875
85.59113	87.375
89.96862	92.575
94.34289	89.475
98.71396	94.975
103.08183	99.475
107.4465	99.475
111.80798	102.375
116.16626	104.675
120.52136	109.475
124.87327	117.575
129.222	124.275
133.56755	130.875
137.90993	142.275
142.24913	155.275
146.58517	176.475
150.91804	206.875
155.24774	246.875
159.57429	313.275
163.89768	407.675
168.21792	548.975
172.53501	738.775
176.84895	1032.375
181.15975	1452.275
185.46741	2033.775
189.77193	2801.175
194.07331	3725.275
198.37157	4811.275
202.6667	5894.175
206.9587	7031.475
211.24758	8132.975
215.53334	9269.775
219.81599	10578.875
224.09553	12022.975
228.37195	13664.975
232.64527	15434.375
236.91549	17188.975
241.18261	18861.075
245.44663	20306.875
249.70755	21472.775
253.96539	22575.175
258.22014	23517.875
262.4718	24314.275
266.72039	24929.175
270.96589	25285.675
275.20832	25412.575
279.44768	25346.475
283.68397	25305.275
287.91719	25358.375
292.14735	25456.375
296.37445	25703.875
300.59849	26029.375
304.81948	26617.975
309.03742	26998.375
313.25231	26677.575
317.46415	25278.575
321.67296	23253.775
325.87872	21579.375
330.08145	20726.975
334.28114	20608.775
338.47781	20899.875
342.67145	21412.475
346.86207	22170.675
351.04966	23300.175
355.23424	24614.575
359.4158	25679.275
363.59435	26134.375
367.76989	26154.075
371.94243	26049.075
376.11196	25808.575
380.27849	25631.675
384.44203	25321.675
388.60257	25013.975
392.76012	24957.975
396.91468	25283.775
401.06626	26101.575
405.21485	26738.475
409.36047	26501.675
413.50311	25402.975
417.64277	24361.275
421.77947	23864.275
425.9132	23734.875
430.04396	23660.475
434.17176	23571.175
438.2966	23590.375
442.41849	23843.975
446.53742	24429.275
450.6534	25165.275
454.76644	25688.275
458.87653	25816.675
462.98368	25833.175
467.08789	25579.875
471.18916	25200.475
475.2875	24821.375
479.38291	24502.275
483.4754	24341.075
487.56496	24084.475
491.6516	23847.175
495.73531	23741.775
499.81612	23838.875
503.89401	24077.275
507.96899	24248.475
512.04106	24229.375
516.11023	24042.275
520.1765	23755.675
524.23987	23382.375
528.30034	22788.875
532.35792	22194.775
536.41261	21651.475
540.46441	21105.975
544.51333	20984.775
548.55936	21341.375
552.60252	22139.675
556.64279	23076.875
560.6802	23508.475
564.71473	23970.475
568.7464	25225.875
572.7752	26517.375
576.80114	26493.775
580.82422	26090.875
584.84444	25927.775
588.86181	25461.975
592.87633	24835.675
596.888	24737.775
600.89682	25471.575
604.9028	28339.275
608.90594	35332.775
612.90624	43915.275
616.90371	41779.875
620.89834	29321.575
624.89015	23346.075
628.87913	22293.575
632.86528	22468.475
636.84862	22685.775
640.82913	22238.575
644.80683	21073.475
648.78172	20138.775
652.75379	20057.775
656.72306	20898.675
660.68952	22044.675
664.65319	22146.775
668.61405	21314.675
672.57211	20791.375
676.52738	20658.975
680.47986	20492.075
684.42955	20210.675
688.37646	20036.675
692.32058	20078.375
696.26192	20312.575
700.20048	20666.175
704.13626	21082.375
708.06928	21267.375
711.99952	21103.675
715.927	20823.375
719.85171	20645.075
723.77365	20522.775
727.69284	20110.675
731.60928	19781.375
735.52295	19651.575
739.43388	19655.575
743.34206	19807.175
747.24749	20073.575
751.15017	20443.175
755.05012	21069.775
758.94733	22267.875
762.8418	24889.875
766.73354	29497.775
770.62254	34165.775
774.50882	35780.675
778.39237	33391.575
782.27321	28792.675
786.15132	24495.375
790.02671	21897.975
793.89938	20597.975
797.76935	19987.875
801.6366	19699.075
805.50115	19587.075
809.36299	19401.775
813.22213	19215.875
817.07857	19165.675
820.93231	19120.175
824.78336	19176.175
828.63172	19282.275
832.47738	19346.575
836.32036	19325.075
840.16066	19268.075
843.99827	19257.575
847.8332	19196.875
851.66546	19106.275
855.49504	19066.375
859.32195	19011.275
863.1462	18847.775
866.96777	18670.975
870.78668	18558.875
874.60293	18538.975
878.41652	18529.375
882.22745	18624.075
886.03573	18739.475
889.84136	18732.375
893.64433	18575.875
897.44466	18504.775
901.24235	18476.875
905.0374	18406.575
908.8298	18351.175
912.61957	18373.775
916.40671	18635.375
920.19121	19113.675
923.97308	19594.775
927.75233	19836.175
931.52895	19861.375
935.30295	19415.775
939.07433	18613.875
942.84309	17966.575
946.60924	17629.275
950.37278	17490.975
954.13371	17333.475
957.89203	17212.775
961.64774	17140.475
965.40086	17070.775
969.15137	17030.375
972.89929	16981.175
976.64461	16967.675
980.38733	16984.275
984.12747	17084.175
987.86502	17231.875
991.59999	17455.475
995.33237	17800.075
999.06217	18424.275
1002.78939	19327.775
1006.51404	20083.575
1010.23611	20641.875
1013.95561	20917.575
1017.67255	20874.575
1021.38692	20560.775
1025.09872	20327.075
1028.80796	20530.575
1032.51465	21123.475
1036.21877	21761.575
1039.92035	21837.475
1043.61937	21491.975
1047.31584	20864.575
1051.00976	20191.575
1054.70114	19895.575
1058.38998	19884.475
1062.07627	20054.675
1065.76003	20312.975
1069.44126	20733.175
1073.11995	21326.475
1076.79611	21784.775
1080.46974	21939.275
1084.14085	22270.775
1087.80943	22835.175
1091.47549	23215.375
1095.13903	23036.375
1098.80005	22209.375
1102.45857	21088.675
1106.11456	20209.575
1109.76805	19843.475
1113.41903	19939.775
1117.06751	20368.475
1120.71348	21103.875
1124.35696	21953.175
1127.99793	22807.275
1131.63641	23074.675
1135.2724	22422.975
1138.90589	21543.075
1142.5369	20972.275
1146.16542	20586.175
1149.79145	20468.475
1153.415	20521.975
1157.03607	20872.575
1160.65467	21453.075
1164.27079	22438.375
1167.88443	24073.875
1171.49561	26608.475
1175.10432	30473.375
1178.71056	35270.275
1182.31434	39006.675
1185.91565	40583.975
1189.51451	40304.675
1193.11091	38438.375
1196.70485	35503.075
1200.29634	32691.675
1203.88538	30388.375
1207.47197	28141.075
1211.05612	26366.475
1214.63782	25400.675
1218.21708	25240.675
1221.79391	25406.075
1225.36829	25473.575
1228.94024	25304.475
1232.50976	24844.575
1236.07685	24541.275
1239.6415	24506.275
1243.20374	24529.275
1246.76355	24662.075
1250.32093	25050.875
1253.8759	25760.875
1257.42845	26878.875
1260.97859	28047.575
1264.52631	29112.275
1268.07163	30164.875
1271.61453	31286.175
1275.15503	32402.375
1278.69312	33428.075
1282.22882	34098.375
1285.76211	34823.175
1289.29301	35895.375
1292.82151	37272.475
1296.34761	38985.875
1299.87133	41461.575
1303.39266	45003.075
1306.9116	49782.275
1310.42815	55235.675
1313.94233	59085.775
1317.45412	59359.675
1320.96354	57230.675
1324.47058	54693.375
1327.97525	52469.975
1331.47754	50850.375
1334.97747	49731.375
1338.47502	49242.675
1341.97022	49118.875
1345.46305	48906.575
1348.95352	48592.675
1352.44163	48733.575
1355.92738	50479.975
1359.41078	55114.075
1362.89183	60877.875
1366.37053	61052.475
1369.84688	54370.975
1373.32088	46401.775
1376.79254	40557.375
1380.26186	37251.375
1383.72883	35609.675
1387.19347	34703.775
1390.65578	34016.275
1394.11575	33588.375
1397.57339	33741.275
1401.0287	34422.775
1404.48168	35221.775
1407.93234	35857.275
1411.38068	35774.075
1414.82669	34945.775
1418.27039	33201.775
1421.71177	31335.375
1425.15083	29701.375
1428.58758	28621.275
1432.02203	28249.375
1435.45416	28460.575
1438.88399	28888.975
1442.31151	29274.775
1445.73673	29679.575
1449.15965	30330.875
1452.58027	30830.375
1455.9986	31146.875
1459.41463	31546.175
1462.82837	32278.675
1466.23982	33198.275
1469.64898	34073.375
1473.05586	34600.175
1476.46045	34859.975
1479.86276	35113.975
1483.26279	35437.375
1486.66054	35978.175
1490.05602	36763.675
1493.44922	37975.175
1496.84016	39727.375
1500.22882	42553.975
1503.61521	46372.975
1506.99934	50943.275
1510.38121	55672.075
1513.76081	58501.875
1517.13816	57161.975
1520.51324	52305.375
1523.88607	46692.575
1527.25665	42480.575
1530.62498	39729.775
1533.99105	37984.575
1537.35488	36838.975
1540.71647	36019.075
1544.07581	35354.675
1547.4329	34700.475
1550.78776	34053.575
1554.14038	33759.375
1557.49077	33877.875
1560.83892	34400.975
1564.18484	35170.175
1567.52853	35749.075
1570.86999	36054.875
1574.20922	36211.775
1577.54624	36137.875
1580.88103	34832.275
1584.2136	33007.075
1587.54395	32462.275
1590.87208	33605.275
1594.19801	36235.175
1597.52172	39495.075
1600.84321	41137.675
1604.16251	39558.275
1607.47959	36134.375
1610.79447	32343.175
1614.10715	28847.175
1617.41763	26082.375
1620.7259	24238.475
1624.03199	23251.875
1627.33587	23158.675
1630.63757	23712.375
1633.93707	25181.875
1637.23439	27469.975
1640.52951	30820.675
1643.82246	35182.075
1647.11321	39989.375
1650.40179	43542.975
1653.68819	43025.275
1656.97241	37772.275
1660.25446	30962.175
1663.53433	25446.775
1666.81203	21873.875
1670.08756	19801.175
1673.36092	18552.275
1676.63211	17769.775
1679.90115	17250.875
1683.16801	16844.275
1686.43272	16561.775
1689.69527	16363.975
1692.95567	16200.275
1696.2139	16103.175
1699.46999	16042.775
1702.72392	15954.375
1705.97571	15924.375
1709.22535	15868.575
1712.47284	15799.275
1715.71819	15793.775
1718.96139	15751.075
1722.20246	15696.375
1725.44139	15631.975
1728.67818	15504.975
1731.91284	15327.575
1735.14537	15211.775
1738.37576	15141.775
1741.60403	15074.975
1744.83017	14960.275
1748.05418	14965.175
1751.27607	14934.775
1754.49584	14852.775
1757.71349	14843.375
1760.92903	14830.975
1764.14244	14789.075
1767.35375	14787.775
1770.56294	14746.975
1773.77002	14674.475
1776.97499	14641.475
1780.17785	14600.975
1783.37861	14531.975
1786.57727	14535.275
1789.77382	14496.675
1792.96828	14483.475
1796.16064	14472.075
1799.3509	14411.175
1802.53907	14380.275
1805.72514	14336.775
1808.90913	14319.075
1812.09102	14251.875
1815.27083	14217.675
1818.44856	14210.175
1821.6242	14165.775
1824.79776	14140.975
1827.96924	14106.575
1831.13864	14109.675
1834.30597	14107.975
1837.47122	14081.675
1840.6344	14099.375
1843.7955	14111.275
1846.95454	14084.175
1850.11151	14062.075
1853.26642	14048.375
1856.41926	14043.275
1859.57004	14057.275
1862.71876	14023.975
1865.86542	14060.575
1869.01003	14054.275
1872.15258	14037.075
1875.29308	14041.675
1878.43152	13967.875
1881.56792	13975.775
1884.70227	13963.875
1887.83457	13958.475
1890.96482	13987.975
1894.09304	13984.275
1897.21921	13986.675
1900.34335	13999.675
1903.46544	13985.075
1906.58551	14003.075
1909.70353	13970.975
1912.81953	13974.175
1915.93349	13996.375
1919.04543	13975.675
1922.15534	13941.875
1925.26322	13917.975
1928.36908	13867.275
1931.47292	13812.375
1934.57473	13762.675
1937.67453	13723.475
1940.77232	13663.675
1943.86808	13591.675
1946.96184	13525.975
1950.05358	13466.575
1953.14331	13438.575
1956.23103	13423.275
1959.31675	13406.675
1962.40046	13323.275
1965.48217	13306.775
1968.56188	13263.175
1971.63959	13246.475
1974.7153	13197.775
1977.78901	13157.975
1980.86073	13092.275
1983.93046	13057.475
1986.99819	13027.575
1990.06394	12972.675
1993.1277	12920.375
1996.18947	12864.175
1999.24925	12824.175
2002.30706	12788.175
2005.36288	12773.575
2008.41672	12728.075
2011.46859	12684.875
2014.51848	12651.975
2017.56639	12627.975
2020.61233	12604.275
2023.6563	12563.575
2026.6983	12517.475
2029.73833	12509.375
2032.7764	12478.175
2035.8125	12477.775
2038.84664	12467.375
2041.87881	12421.775
2044.90903	12421.375
2047.93729	12402.575
2050.96359	12400.475
2053.98794	12353.675
2057.01034	12349.175
2060.03078	12369.575
2063.04927	12327.675
2066.06582	12301.475
2069.08042	12293.175
2072.09307	12268.775
2075.10378	12259.475
2078.11255	12250.175
2081.11938	12255.275
2084.12426	12218.975
2087.12722	12205.075
2090.12824	12225.775
2093.12732	12205.075
2096.12447	12196.975
2099.11969	12172.175
2102.11299	12184.175
2105.10435	12202.175
2108.09379	12189.775
2111.08131	12185.575
2114.0669	12203.775
2117.05057	12202.075
2120.03233	12202.875
2123.01216	12214.875
2125.99008	12267.475
2128.96609	12265.275
2131.94018	12259.275
2134.91236	12253.875
2137.88263	12252.875
2140.851	12280.375
2143.81746	12333.375
2146.78201	12290.475
2149.74466	12294.975
2152.7054	12304.775
2155.66425	12300.875
2158.6212	12285.275
2161.57625	12265.375
2164.52941	12281.275
2167.48067	12228.675
2170.43004	12252.075
2173.37752	12255.475
2176.32311	12240.475
2179.26681	12236.075
2182.20863	12251.075
2185.14856	12228.475
2188.08661	12222.575
2191.02278	12239.675
2193.95707	12249.175
2196.88948	12234.175
2199.82001	12224.375
2202.74867	12216.075
2205.67545	12224.175
2208.60037	12186.475
2211.52341	12208.375
2214.44458	12226.175
2217.36388	12209.375
2220.28132	12152.675
2223.1969	12146.775
2226.11061	12119.475
2229.02246	12077.175
2231.93245	12073.575
2234.84058	12013.375
2237.74686	11997.875
2240.65128	11971.375
2243.55385	11937.775
2246.45456	11957.075
2249.35343	11945.575
2252.25044	11918.775
2255.14561	11897.675
2258.03893	11915.875
2260.93041	11924.775
2263.82004	11895.775
2266.70783	11884.975
2269.59378	11816.275
2272.4779	11793.975
2275.36017	11776.775
2278.24061	11758.975
2281.11922	11712.575
2283.996	11715.575
2286.87094	11706.375
2289.74405	11712.975
2292.61534	11683.875
2295.4848	11636.975
2298.35243	11659.075
2301.21824	11652.575
2304.08223	11690.675
2306.94439	11669.875
2309.80474	11694.875
2312.66327	11692.875
2315.51999	11690.375
2318.37489	11713.875
2321.22797	11690.275
2324.07925	11675.575
2326.92871	11695.375
2329.77637	11706.975
2332.62222	11691.975
2335.46626	11670.175
2338.3085	11702.175
2341.14893	11719.975
2343.98756	11736.775
2346.8244	11757.775
2349.65943	11799.575
2352.49267	11823.975
2355.32411	11821.775
2358.15376	11808.975
2360.98161	11817.075
2363.80768	11804.475
2366.63195	11818.975
2369.45444	11806.975
2372.27514	11744.775
2375.09405	11720.675
2377.91118	11687.175
2380.72652	11630.375
2383.54009	11578.575
2386.35187	11572.575
2389.16188	11517.375
2391.97011	11513.275
2394.77657	11491.375
2397.58125	11443.475
2400.38416	11447.975
2403.18529	11401.175
2405.98466	11367.575
2408.78226	11329.875
2411.57809	11315.475
2414.37216	11318.875
2417.16446	11284.375
2419.955	11276.575
2422.74378	11239.975
2425.5308	11225.475
2428.31606	11235.375
2431.09956	11248.675
2433.88131	11216.775
2436.6613	11246.075
2439.43954	11227.375
2442.21603	11272.775
2444.99077	11244.175
2447.76377	11249.375
2450.53501	11228.575
2453.30451	11203.075
2456.07226	11237.775
2458.83827	11234.175
2461.60254	11237.075
2464.36507	11244.375
2467.12586	11228.275
2469.88492	11237.075
2472.64224	11223.375
2475.39782	11241.475
2478.15167	11286.775
2480.90379	11267.975
2483.65417	11257.175
2486.40283	11323.975
2489.14976	11366.875
2491.89497	11380.775
2494.63845	11423.575
2497.3802	11418.875
2500.12024	11395.475
2502.85855	11369.375
2505.59514	11331.875
2508.33002	11313.375
2511.06318	11288.775
2513.79462	11269.875
2516.52435	11274.875
2519.25237	11264.275
2521.97867	11226.675
2524.70327	11212.875
2527.42616	11176.175
2530.14734	11179.375
2532.86681	11191.775
2535.58458	11181.575
2538.30065	11187.475
2541.01501	11178.775
2543.72768	11161.475
2546.43864	11144.475
2549.14791	11138.575
2551.85548	11152.775
2554.56136	11123.375
2557.26554	11120.075
2559.96803	11130.675
2562.66883	11123.575
2565.36794	11124.775
2568.06536	11088.675
2570.7611	11060.375
2573.45514	11063.375
2576.14751	11066.675
2578.83819	11023.575
2581.52719	11066.175
2584.21451	11066.875
2586.90015	11054.775
2589.58411	11045.175
2592.2664	11069.975
2594.94701	11030.675
2597.62594	11073.375
2600.30321	11046.775
2602.9788	11037.575
2605.65273	11013.075
2608.32498	11066.875
2610.99557	11091.675
2613.66449	11062.175
2616.33175	11069.375
2618.99734	11088.775
2621.66128	11105.675
2624.32355	11105.975
2626.98416	11110.975
2629.64311	11102.175
2632.30041	11101.475
2634.95605	11090.175
2637.61004	11055.975
2640.26238	11073.675
2642.91306	11054.075
2645.56209	11031.975
2648.20948	11011.675
2650.85521	11028.575
2653.4993	10995.575
2656.14175	11015.175
2658.78255	10991.175
2661.42171	11009.975
2664.05923	11028.175
2666.6951	11026.475
2669.32934	11068.575
2671.96194	11081.675
2674.59291	11092.575
2677.22224	11093.875
2679.84993	11102.675
2682.476	11038.575
2685.10043	11056.075
2687.72324	11024.575
2690.34441	11010.275
2692.96396	11013.075
2695.58188	11015.775
2698.19818	10983.975
2700.81285	10999.575
2703.4259	11028.075
2706.03733	11049.475
2708.64714	11027.975
2711.25533	11015.075
2713.86191	11011.875
2716.46687	11028.775
2719.07021	11023.075
2721.67194	11047.775
2724.27206	11049.875
2726.87057	11056.075
2729.46747	11066.475
2732.06276	11073.175
2734.65644	11050.375
2737.24852	11066.875
2739.83899	11042.075
2742.42786	11043.275
2745.01513	10999.575
2747.60079	10998.775
2750.18486	10985.075
2752.76733	10988.175
2755.3482	10988.175
2757.92747	10981.875
2760.50515	10968.975
2763.08123	10946.175
2765.65573	10951.475
2768.22863	10935.475
2770.79994	10928.575
2773.36967	10962.875
2775.9378	10961.475
2778.50435	10982.875
2781.06932	10976.775
2783.6327	10973.775
2786.1945	10983.475
2788.75471	10982.175
2791.31335	10973.475
2793.87041	10971.575
2796.42589	10956.275
2798.97979	10967.475
2801.53212	10941.675
2804.08288	10927.275
2806.63206	10889.875
2809.17967	10935.675
2811.72571	10888.875
2814.27018	10900.175
2816.81308	10933.575
2819.35442	10894.075
2821.89419	10895.775
2824.43239	10913.675
2826.96904	10915.575
2829.50412	10936.075
2832.03763	10909.675
2834.56959	10927.975
2837.1	10923.275
2839.62884	10956.075
2842.15613	10978.775
2844.68186	11052.475
2847.20604	11096.875
2849.72867	11145.075
2852.24974	11141.675
2854.76927	11166.175
2857.28724	11145.675
2859.80367	11146.475
2862.31855	11116.275
2864.83189	11091.975
2867.34368	11102.075
2869.85393	11078.775
2872.36264	11051.375
2874.8698	11051.375
2877.37543	11060.675
2879.87952	11038.375
2882.38207	11065.975
2884.88308	11028.975
2887.38256	11050.575
2889.88051	11057.775
2892.37692	11060.875
2894.8718	11043.675
2897.36515	11055.175
2899.85698	11073.475
2902.34727	11098.875
2904.83604	11107.575
2907.32328	11137.475
2909.809	11142.575
2912.29319	11152.475
2914.77587	11158.375
2917.25702	11129.275
2919.73665	11138.175
2922.21476	11091.675
2924.69136	11093.575
2927.16644	11051.975
2929.64	11047.375
2932.11205	11015.975
2934.58258	10975.375
2937.05161	10971.975
2939.51912	10956.375
2941.98513	10898.275
2944.44962	10840.675
2946.91261	10781.375
2949.37409	10761.875
2951.83407	10738.075
2954.29254	10700.875
2956.74951	10672.075
2959.20498	10644.275
2961.65895	10656.575
2964.11142	10607.075
2966.56239	10613.475
2969.01186	10598.675
2971.45984	10557.475
2973.90632	10525.375
2976.35131	10530.775
2978.7948	10503.575
2981.23681	10470.375
2983.67732	10442.875
2986.11635	10424.275
2988.55388	10398.775
2990.98993	10374.775
2993.4245	10326.275
2995.85758	10325.275
2998.28917	10274.575
3000.71928	10235.075
3003.14791	10214.975
3005.57506	10200.375
3008.00073	10191.375
3010.42493	10188.775
3012.84764	10153.975
3015.26888	10148.175
3017.68865	10106.075
3020.10694	10103.675
3022.52376	10080.775
3024.9391	10048.975
3027.35298	10041.875
3029.76539	10013.475
3032.17632	10014.575
3034.5858	9992.675
3036.9938	10003.075
3039.40034	9976.875
3041.80542	9977.875
3044.20903	9982.075
3046.61118	9954.175
3049.01187	9960.275
3051.4111	9954.475
3053.80888	9905.375
3056.20519	9890.875
3058.60005	9867.175
3060.99345	9848.575
3063.3854	9820.575
3065.7759	9785.775
3068.16494	9775.475
3070.55254	9710.575
3072.93868	9687.575
3075.32338	9655.075
3077.70662	9629.475
3080.08842	9588.875
3082.46878	9587.275
3084.84769	9572.075
3087.22515	9574.375
3089.60118	9561.575
3091.97576	9550.575
3094.3489	9550.075
3096.72061	9551.375
3099.09087	9531.675
3101.4597	9502.575
3103.82709	9536.675
3106.19305	9510.675
3108.55757	9538.675
3110.92066	9491.675
3113.28232	9477.075
3115.64255	9455.975
3118.00134	9426.375
3120.35871	9441.575
3122.71466	9419.875
3125.06917	9427.775
3127.42226	9373.675
3129.77393	9409.575
3132.12417	9388.475
