Data from AgNPs_FTO_APTES_UA_5uM_CRN_500uM_R6G_10uM_NaF_0.1M_Addition_RamanShift__17__17-00-31-831.txt Node

Date: Mon Feb 07 17:00:31 GMT 2022
User: TCL
Spectrometer: QEP01345
Trigger mode: 4
Integration Time (sec): 7.000000E0
Scans to average: 10
Electric dark correction enabled: true
Nonlinearity correction enabled: false
Boxcar width: 0
XAxis mode: Raman Shifts
Number of Pixels in Spectrum: 1044
>>>>>Begin Spectral Data<<<<<
46.04893	-1.3375
50.45542	-0.5375
54.85868	0.5625
59.25871	0.3625
63.6555	59.3625
68.04907	60.1625
72.43941	64.6625
76.82654	63.5625
81.21044	65.4625
85.59113	67.3625
89.96862	75.2625
94.34289	73.3625
98.71396	78.1625
103.08183	81.8625
107.4465	83.6625
111.80798	84.5625
116.16626	87.9625
120.52136	93.8625
124.87327	98.2625
129.222	106.0625
133.56755	107.0625
137.90993	118.1625
142.24913	135.4625
146.58517	149.6625
150.91804	170.6625
155.24774	213.1625
159.57429	267.4625
163.89768	343.0625
168.21792	458.9625
172.53501	627.0625
176.84895	880.7625
181.15975	1237.2625
185.46741	1733.1625
189.77193	2394.4625
194.07331	3215.6625
198.37157	4142.5625
202.6667	5113.8625
206.9587	6074.0625
211.24758	7025.8625
215.53334	7992.3625
219.81599	8987.2625
224.09553	10099.5625
228.37195	11301.0625
232.64527	12628.3625
236.91549	14017.0625
241.18261	15405.7625
245.44663	16703.0625
249.70755	17898.9625
253.96539	18965.4625
258.22014	19823.8625
262.4718	20541.5625
266.72039	21070.0625
270.96589	21362.0625
275.20832	21513.9625
279.44768	21453.4625
283.68397	21360.7625
287.91719	21269.8625
292.14735	21338.3625
296.37445	21417.2625
300.59849	21521.4625
304.81948	21519.9625
309.03742	21363.8625
313.25231	21022.8625
317.46415	20441.6625
321.67296	19805.4625
325.87872	19302.0625
330.08145	18977.8625
334.28114	18985.0625
338.47781	19045.9625
342.67145	19242.8625
346.86207	19463.2625
351.04966	19765.3625
355.23424	20087.5625
359.4158	20358.9625
363.59435	20535.3625
367.76989	20655.8625
371.94243	20763.9625
376.11196	20884.6625
380.27849	20976.6625
384.44203	21109.3625
388.60257	21333.7625
392.76012	21554.5625
396.91468	21788.7625
401.06626	22110.5625
405.21485	22304.0625
409.36047	22179.7625
413.50311	21914.7625
417.64277	21682.3625
421.77947	21686.4625
425.9132	21789.6625
430.04396	21927.7625
434.17176	22136.7625
438.2966	22331.3625
442.41849	22723.8625
446.53742	23402.6625
450.6534	24131.5625
454.76644	24673.7625
458.87653	24916.5625
462.98368	24816.9625
467.08789	24588.2625
471.18916	24412.6625
475.2875	24326.0625
479.38291	24427.1625
483.4754	24370.6625
487.56496	24061.7625
491.6516	23426.5625
495.73531	22881.3625
499.81612	22466.9625
503.89401	22440.6625
507.96899	22497.4625
512.04106	22366.3625
516.11023	22136.3625
520.1765	21895.2625
524.23987	21679.0625
528.30034	21490.0625
532.35792	21276.6625
536.41261	21100.8625
540.46441	20937.0625
544.51333	21002.9625
548.55936	21348.2625
552.60252	21928.5625
556.64279	22579.3625
560.6802	23096.0625
564.71473	23497.6625
568.7464	24031.3625
572.7752	24785.2625
576.80114	25329.5625
580.82422	25640.5625
584.84444	25875.0625
588.86181	26190.8625
592.87633	26569.7625
596.888	26490.7625
600.89682	26057.5625
604.9028	26167.1625
608.90594	27404.4625
612.90624	28760.9625
616.90371	26888.4625
620.89834	22986.4625
624.89015	21313.1625
628.87913	21185.7625
632.86528	21433.4625
636.84862	21518.2625
640.82913	21198.0625
644.80683	20787.5625
648.78172	20365.0625
652.75379	20203.7625
656.72306	20304.6625
660.68952	20511.2625
664.65319	20406.3625
668.61405	20142.9625
672.57211	20063.6625
676.52738	20140.0625
680.47986	20200.4625
684.42955	20141.1625
688.37646	20047.4625
692.32058	20041.5625
696.26192	20199.3625
700.20048	20349.3625
704.13626	20504.6625
708.06928	20580.4625
711.99952	20494.0625
715.927	20423.1625
719.85171	20469.4625
723.77365	20406.8625
727.69284	20251.1625
731.60928	20055.5625
735.52295	20007.5625
739.43388	19968.8625
743.34206	19972.4625
747.24749	20036.6625
751.15017	20247.2625
755.05012	20609.5625
758.94733	21212.7625
762.8418	22315.7625
766.73354	23868.7625
770.62254	25365.8625
774.50882	25544.8625
778.39237	24332.5625
782.27321	22598.3625
786.15132	21159.3625
790.02671	20309.6625
793.89938	19872.2625
797.76935	19737.4625
801.6366	19645.2625
805.50115	19592.6625
809.36299	19511.5625
813.22213	19400.1625
817.07857	19367.9625
820.93231	19316.8625
824.78336	19209.5625
828.63172	19106.9625
832.47738	19028.5625
836.32036	18990.9625
840.16066	18971.6625
843.99827	18970.9625
847.8332	18963.8625
851.66546	18933.8625
855.49504	18911.5625
859.32195	18931.9625
863.1462	18886.7625
866.96777	18849.9625
870.78668	18782.3625
874.60293	18774.4625
878.41652	18817.0625
882.22745	18881.4625
886.03573	18880.9625
889.84136	18881.1625
893.64433	18803.9625
897.44466	18767.5625
901.24235	18688.8625
905.0374	18570.8625
908.8298	18529.3625
912.61957	18543.1625
916.40671	18791.5625
920.19121	19017.4625
923.97308	19214.9625
927.75233	19096.9625
931.52895	18946.3625
935.30295	18658.2625
939.07433	18326.3625
942.84309	18051.0625
946.60924	17916.1625
950.37278	17839.6625
954.13371	17780.9625
957.89203	17838.7625
961.64774	17800.6625
965.40086	17808.9625
969.15137	17687.8625
972.89929	17580.0625
976.64461	17437.1625
980.38733	17413.9625
984.12747	17405.9625
987.86502	17511.2625
991.59999	17692.8625
995.33237	17835.9625
999.06217	18200.6625
1002.78939	18581.7625
1006.51404	18921.4625
1010.23611	19151.1625
1013.95561	19263.9625
1017.67255	19343.9625
1021.38692	19173.7625
1025.09872	18841.5625
1028.80796	18706.1625
1032.51465	18774.8625
1036.21877	18979.2625
1039.92035	19025.9625
1043.61937	18971.9625
1047.31584	18889.3625
1051.00976	18828.9625
1054.70114	18830.4625
1058.38998	18935.6625
1062.07627	19167.9625
1065.76003	19388.1625
1069.44126	19579.2625
1073.11995	19757.2625
1076.79611	19935.8625
1080.46974	20047.5625
1084.14085	20095.7625
1087.80943	20264.4625
1091.47549	20422.9625
1095.13903	20573.8625
1098.80005	20429.0625
1102.45857	20002.9625
1106.11456	19651.0625
1109.76805	19437.5625
1113.41903	19444.5625
1117.06751	19678.0625
1120.71348	19918.7625
1124.35696	20123.4625
1127.99793	20478.9625
1131.63641	20670.2625
1135.2724	20558.7625
1138.90589	20397.3625
1142.5369	20380.7625
1146.16542	20567.3625
1149.79145	20791.8625
1153.415	21131.1625
1157.03607	21562.8625
1160.65467	22242.0625
1164.27079	23330.5625
1167.88443	24624.5625
1171.49561	26144.3625
1175.10432	28012.2625
1178.71056	30408.2625
1182.31434	32546.7625
1185.91565	33709.7625
1189.51451	33731.3625
1193.11091	33053.5625
1196.70485	31953.0625
1200.29634	30678.8625
1203.88538	29710.2625
1207.47197	29008.8625
1211.05612	28464.8625
1214.63782	27872.8625
1218.21708	27221.9625
1221.79391	26608.0625
1225.36829	26155.9625
1228.94024	25651.6625
1232.50976	25025.4625
1236.07685	24573.2625
1239.6415	24309.7625
1243.20374	24294.2625
1246.76355	24491.2625
1250.32093	24796.9625
1253.8759	25258.3625
1257.42845	25886.0625
1260.97859	26618.0625
1264.52631	27298.9625
1268.07163	27969.8625
1271.61453	28750.5625
1275.15503	29600.8625
1278.69312	30529.2625
1282.22882	31498.5625
1285.76211	32650.0625
1289.29301	34084.2625
1292.82151	35914.5625
1296.34761	38136.5625
1299.87133	40629.2625
1303.39266	43035.1625
1306.9116	45264.7625
1310.42815	47089.2625
1313.94233	48328.8625
1317.45412	48406.5625
1320.96354	48081.1625
1324.47058	47699.7625
1327.97525	47298.3625
1331.47754	46921.0625
1334.97747	46755.5625
1338.47502	46511.0625
1341.97022	46092.6625
1345.46305	45354.3625
1348.95352	44408.7625
1352.44163	43421.2625
1355.92738	43178.4625
1359.41078	43773.5625
1362.89183	44462.5625
1366.37053	43577.2625
1369.84688	40467.6625
1373.32088	36698.0625
1376.79254	34222.3625
1380.26186	33444.9625
1383.72883	33724.8625
1387.19347	34144.3625
1390.65578	34445.1625
1394.11575	34778.6625
1397.57339	35465.0625
1401.0287	36264.3625
1404.48168	36853.6625
1407.93234	36677.5625
1411.38068	35691.5625
1414.82669	34071.6625
1418.27039	32130.2625
1421.71177	30283.0625
1425.15083	28760.9625
1428.58758	27982.1625
1432.02203	28064.4625
1435.45416	28705.7625
1438.88399	29724.6625
1442.31151	30703.0625
1445.73673	31429.9625
1449.15965	32108.8625
1452.58027	32696.8625
1455.9986	33124.7625
1459.41463	33525.8625
1462.82837	33957.3625
1466.23982	34324.5625
1469.64898	34624.5625
1473.05586	34568.9625
1476.46045	34327.1625
1479.86276	33834.1625
1483.26279	33266.5625
1486.66054	32761.1625
1490.05602	32560.5625
1493.44922	32610.3625
1496.84016	32723.7625
1500.22882	33172.4625
1503.61521	33985.0625
1506.99934	35049.3625
1510.38121	36031.1625
1513.76081	36387.7625
1517.13816	35852.2625
1520.51324	34884.3625
1523.88607	34087.9625
1527.25665	33824.4625
1530.62498	33909.8625
1533.99105	33960.0625
1537.35488	33771.9625
1540.71647	33255.0625
1544.07581	32398.7625
1547.4329	31458.4625
1550.78776	30600.0625
1554.14038	30054.5625
1557.49077	29720.7625
1560.83892	29594.9625
1564.18484	29579.9625
1567.52853	29679.2625
1570.86999	29956.4625
1574.20922	30620.7625
1577.54624	31297.2625
1580.88103	31736.1625
1584.2136	32198.6625
1587.54395	33148.9625
1590.87208	34590.4625
1594.19801	36366.6625
1597.52172	38105.0625
1600.84321	38557.6625
1604.16251	36922.3625
1607.47959	33989.0625
1610.79447	30871.8625
1614.10715	27975.7625
1617.41763	25602.6625
1620.7259	23919.8625
1624.03199	23034.7625
1627.33587	22926.2625
1630.63757	23597.0625
1633.93707	25201.8625
1637.23439	27888.0625
1640.52951	31737.2625
1643.82246	36169.9625
1647.11321	39506.0625
1650.40179	40229.5625
1653.68819	37487.9625
1656.97241	32562.7625
1660.25446	27557.4625
1663.53433	23638.8625
1666.81203	21038.4625
1670.08756	19427.0625
1673.36092	18378.7625
1676.63211	17708.6625
1679.90115	17265.4625
1683.16801	16869.2625
1686.43272	16613.6625
1689.69527	16375.0625
1692.95567	16260.5625
1696.2139	16100.9625
1699.46999	15983.0625
1702.72392	15889.4625
1705.97571	15840.0625
1709.22535	15820.9625
1712.47284	15718.8625
1715.71819	15716.1625
1718.96139	15648.8625
1722.20246	15593.3625
1725.44139	15481.6625
1728.67818	15401.0625
1731.91284	15291.7625
1735.14537	15229.5625
1738.37576	15147.6625
1741.60403	15086.3625
1744.83017	15007.1625
1748.05418	14996.0625
1751.27607	14974.6625
1754.49584	14951.7625
1757.71349	14942.8625
1760.92903	14897.8625
1764.14244	14883.5625
1767.35375	14892.6625
1770.56294	14808.2625
1773.77002	14729.3625
1776.97499	14714.8625
1780.17785	14681.9625
1783.37861	14637.7625
1786.57727	14601.0625
1789.77382	14593.3625
1792.96828	14562.2625
1796.16064	14500.9625
1799.3509	14491.1625
1802.53907	14422.5625
1805.72514	14413.4625
1808.90913	14322.0625
1812.09102	14309.8625
1815.27083	14290.7625
1818.44856	14244.7625
1821.6242	14224.7625
1824.79776	14187.2625
1827.96924	14144.8625
1831.13864	14170.8625
1834.30597	14136.9625
1837.47122	14123.3625
1840.6344	14086.3625
1843.7955	14107.9625
1846.95454	14085.8625
1850.11151	14091.3625
1853.26642	14044.2625
1856.41926	14046.9625
1859.57004	14046.3625
1862.71876	14028.7625
1865.86542	14016.0625
1869.01003	13984.5625
1872.15258	13970.8625
1875.29308	13956.9625
1878.43152	13909.8625
1881.56792	13920.0625
1884.70227	13929.8625
1887.83457	13872.1625
1890.96482	13866.5625
1894.09304	13857.0625
1897.21921	13831.5625
1900.34335	13804.5625
1903.46544	13815.2625
1906.58551	13797.8625
1909.70353	13769.7625
1912.81953	13740.0625
1915.93349	13691.4625
1919.04543	13689.0625
1922.15534	13666.5625
1925.26322	13608.1625
1928.36908	13582.8625
1931.47292	13564.8625
1934.57473	13525.8625
1937.67453	13506.7625
1940.77232	13456.8625
1943.86808	13402.0625
1946.96184	13363.0625
1950.05358	13298.0625
1953.14331	13261.1625
1956.23103	13207.5625
1959.31675	13165.8625
1962.40046	13122.2625
1965.48217	13127.2625
1968.56188	13042.6625
1971.63959	12991.1625
1974.7153	12955.2625
1977.78901	12918.2625
1980.86073	12890.0625
1983.93046	12849.7625
1986.99819	12800.4625
1990.06394	12781.9625
1993.1277	12747.3625
1996.18947	12677.9625
1999.24925	12653.8625
2002.30706	12602.9625
2005.36288	12572.6625
2008.41672	12519.4625
2011.46859	12513.1625
2014.51848	12440.4625
2017.56639	12393.3625
2020.61233	12388.0625
2023.6563	12332.6625
2026.6983	12293.5625
2029.73833	12295.7625
2032.7764	12227.1625
2035.8125	12216.2625
2038.84664	12214.0625
2041.87881	12177.7625
2044.90903	12167.5625
2047.93729	12131.4625
2050.96359	12138.5625
2053.98794	12118.4625
2057.01034	12081.4625
2060.03078	12072.0625
2063.04927	12086.3625
2066.06582	12078.5625
2069.08042	12075.8625
2072.09307	12048.4625
2075.10378	12044.2625
2078.11255	11999.2625
2081.11938	12035.2625
2084.12426	12004.3625
2087.12722	11979.6625
2090.12824	11974.1625
2093.12732	11987.9625
2096.12447	11992.8625
2099.11969	11967.5625
2102.11299	11961.4625
2105.10435	11960.6625
2108.09379	11948.6625
2111.08131	11958.9625
2114.0669	11976.3625
2117.05057	11979.6625
2120.03233	11977.0625
2123.01216	11985.0625
2125.99008	12005.9625
2128.96609	12009.0625
2131.94018	12002.8625
2134.91236	12015.5625
2137.88263	12008.4625
2140.851	12007.9625
2143.81746	12009.4625
2146.78201	12005.9625
2149.74466	12009.0625
2152.7054	12029.8625
2155.66425	11983.7625
2158.6212	11971.2625
2161.57625	11967.8625
2164.52941	11958.6625
2167.48067	11946.5625
2170.43004	11933.7625
2173.37752	11951.4625
2176.32311	11968.6625
2179.26681	11936.5625
2182.20863	11949.9625
2185.14856	11935.5625
2188.08661	11937.1625
2191.02278	11955.3625
2193.95707	11905.6625
2196.88948	11892.0625
2199.82001	11867.4625
2202.74867	11878.6625
2205.67545	11868.2625
2208.60037	11871.0625
2211.52341	11825.6625
2214.44458	11814.8625
2217.36388	11760.6625
2220.28132	11737.4625
2223.1969	11725.2625
2226.11061	11714.9625
2229.02246	11681.8625
2231.93245	11648.8625
2234.84058	11632.4625
2237.74686	11576.8625
2240.65128	11587.8625
2243.55385	11566.9625
2246.45456	11573.3625
2249.35343	11534.0625
2252.25044	11517.2625
2255.14561	11470.4625
2258.03893	11443.2625
2260.93041	11428.6625
2263.82004	11393.8625
2266.70783	11377.5625
2269.59378	11348.9625
2272.4779	11323.6625
2275.36017	11258.6625
2278.24061	11264.0625
2281.11922	11234.0625
2283.996	11236.1625
2286.87094	11216.4625
2289.74405	11180.7625
2292.61534	11162.8625
2295.4848	11132.6625
2298.35243	11135.9625
2301.21824	11147.1625
2304.08223	11160.6625
2306.94439	11173.7625
2309.80474	11175.9625
2312.66327	11116.4625
2315.51999	11132.8625
2318.37489	11126.0625
2321.22797	11087.8625
2324.07925	11073.1625
2326.92871	11077.9625
2329.77637	11049.5625
2332.62222	11039.4625
2335.46626	11017.9625
2338.3085	11020.1625
2341.14893	11015.6625
2343.98756	10991.1625
2346.8244	10992.1625
2349.65943	11015.0625
2352.49267	10986.1625
2355.32411	11002.8625
2358.15376	11004.6625
2360.98161	10991.8625
2363.80768	10979.8625
2366.63195	10970.7625
2369.45444	10956.7625
2372.27514	10956.1625
2375.09405	10922.0625
2377.91118	10905.5625
2380.72652	10864.0625
2383.54009	10842.4625
2386.35187	10825.6625
2389.16188	10799.5625
2391.97011	10764.8625
2394.77657	10759.3625
2397.58125	10732.3625
2400.38416	10723.0625
2403.18529	10695.3625
2405.98466	10676.0625
2408.78226	10680.4625
2411.57809	10654.0625
2414.37216	10670.6625
2417.16446	10627.1625
2419.955	10627.3625
2422.74378	10609.2625
2425.5308	10602.9625
2428.31606	10575.6625
2431.09956	10577.8625
2433.88131	10539.5625
2436.6613	10577.3625
2439.43954	10564.8625
2442.21603	10583.6625
2444.99077	10549.5625
2447.76377	10538.4625
2450.53501	10523.2625
2453.30451	10518.5625
2456.07226	10527.9625
2458.83827	10505.1625
2461.60254	10500.0625
2464.36507	10490.3625
2467.12586	10520.6625
2469.88492	10507.5625
2472.64224	10503.7625
2475.39782	10484.7625
2478.15167	10527.6625
2480.90379	10505.9625
2483.65417	10508.1625
2486.40283	10491.4625
2489.14976	10517.9625
2491.89497	10523.0625
2494.63845	10512.0625
2497.3802	10526.7625
2500.12024	10515.6625
2502.85855	10516.8625
2505.59514	10508.6625
2508.33002	10464.1625
2511.06318	10479.9625
2513.79462	10481.9625
2516.52435	10453.6625
2519.25237	10448.0625
2521.97867	10426.2625
2524.70327	10403.3625
2527.42616	10411.9625
2530.14734	10415.1625
2532.86681	10388.8625
2535.58458	10405.0625
2538.30065	10395.4625
2541.01501	10386.4625
2543.72768	10390.4625
2546.43864	10357.6625
2549.14791	10352.0625
2551.85548	10326.3625
2554.56136	10328.2625
2557.26554	10304.3625
2559.96803	10290.8625
2562.66883	10280.0625
2565.36794	10280.0625
2568.06536	10256.6625
2570.7611	10264.7625
2573.45514	10232.8625
2576.14751	10237.1625
2578.83819	10207.4625
2581.52719	10222.0625
2584.21451	10208.6625
2586.90015	10216.8625
2589.58411	10213.1625
2592.2664	10207.4625
2594.94701	10170.3625
2597.62594	10169.2625
2600.30321	10157.2625
2602.9788	10144.4625
2605.65273	10130.5625
2608.32498	10178.6625
2610.99557	10162.9625
2613.66449	10171.9625
2616.33175	10159.9625
2618.99734	10153.6625
2621.66128	10175.7625
2624.32355	10130.0625
2626.98416	10127.9625
2629.64311	10116.8625
2632.30041	10157.4625
2634.95605	10118.5625
2637.61004	10099.8625
2640.26238	10091.4625
2642.91306	10071.4625
2645.56209	10079.2625
2648.20948	10098.3625
2650.85521	10078.8625
2653.4993	10098.8625
2656.14175	10077.0625
2658.78255	10142.0625
2661.42171	10114.5625
2664.05923	10124.2625
2666.6951	10105.8625
2669.32934	10144.6625
2671.96194	10106.6625
2674.59291	10107.8625
2677.22224	10107.5625
2679.84993	10108.0625
2682.476	10082.9625
2685.10043	10059.8625
2687.72324	10065.6625
2690.34441	10081.9625
2692.96396	10063.6625
2695.58188	10072.2625
2698.19818	10080.2625
2700.81285	10091.5625
2703.4259	10055.7625
2706.03733	10080.1625
2708.64714	10097.2625
2711.25533	10091.8625
2713.86191	10095.6625
2716.46687	10129.8625
2719.07021	10106.3625
2721.67194	10136.8625
2724.27206	10117.2625
2726.87057	10142.5625
2729.46747	10145.1625
2732.06276	10168.9625
2734.65644	10135.8625
2737.24852	10131.0625
2739.83899	10110.7625
2742.42786	10125.0625
2745.01513	10102.5625
2747.60079	10119.1625
2750.18486	10117.0625
2752.76733	10082.4625
2755.3482	10081.3625
2757.92747	10097.3625
2760.50515	10087.6625
2763.08123	10077.1625
2765.65573	10090.5625
2768.22863	10077.5625
2770.79994	10058.7625
2773.36967	10092.5625
2775.9378	10090.9625
2778.50435	10080.0625
2781.06932	10094.9625
2783.6327	10058.2625
2786.1945	10059.6625
2788.75471	10074.6625
2791.31335	10058.9625
2793.87041	10059.2625
2796.42589	10033.4625
2798.97979	10017.4625
2801.53212	9998.7625
2804.08288	9983.3625
2806.63206	9960.4625
2809.17967	9929.3625
2811.72571	9922.4625
2814.27018	9939.9625
2816.81308	9886.1625
2819.35442	9863.6625
2821.89419	9858.8625
2824.43239	9849.8625
2826.96904	9856.2625
2829.50412	9846.7625
2832.03763	9801.4625
2834.56959	9796.6625
2837.1	9810.3625
2839.62884	9839.8625
2842.15613	9822.0625
2844.68186	9875.3625
2847.20604	9900.8625
2849.72867	9908.7625
2852.24974	9897.3625
2854.76927	9880.7625
2857.28724	9880.0625
2859.80367	9873.4625
2862.31855	9834.2625
2864.83189	9822.5625
2867.34368	9811.7625
2869.85393	9812.7625
2872.36264	9812.3625
2874.8698	9801.6625
2877.37543	9818.5625
2879.87952	9776.8625
2882.38207	9806.9625
2884.88308	9793.8625
2887.38256	9797.7625
2889.88051	9810.5625
2892.37692	9788.0625
2894.8718	9822.8625
2897.36515	9825.0625
2899.85698	9846.5625
2902.34727	9867.0625
2904.83604	9844.8625
2907.32328	9870.8625
2909.809	9872.2625
2912.29319	9873.8625
2914.77587	9852.3625
2917.25702	9854.4625
2919.73665	9870.4625
2922.21476	9871.9625
2924.69136	9861.7625
2927.16644	9874.0625
2929.64	9857.6625
2932.11205	9845.6625
2934.58258	9830.7625
2937.05161	9823.5625
2939.51912	9824.3625
2941.98513	9791.1625
2944.44962	9775.3625
2946.91261	9721.7625
2949.37409	9755.0625
2951.83407	9735.3625
2954.29254	9713.6625
2956.74951	9705.5625
2959.20498	9694.4625
2961.65895	9650.8625
2964.11142	9635.1625
2966.56239	9631.2625
2969.01186	9624.5625
2971.45984	9598.7625
2973.90632	9602.3625
2976.35131	9554.8625
2978.7948	9532.7625
2981.23681	9504.7625
2983.67732	9489.6625
2986.11635	9458.8625
2988.55388	9416.4625
2990.98993	9412.2625
2993.4245	9389.6625
2995.85758	9353.9625
2998.28917	9355.6625
3000.71928	9312.9625
3003.14791	9307.2625
3005.57506	9294.0625
3008.00073	9247.0625
3010.42493	9255.5625
3012.84764	9255.9625
3015.26888	9213.4625
3017.68865	9200.8625
3020.10694	9169.0625
3022.52376	9141.2625
3024.9391	9154.3625
3027.35298	9134.5625
3029.76539	9133.5625
3032.17632	9116.6625
3034.5858	9098.1625
