Data from AgNPs_FTO_APTES_UA_5uM_CRN_1uM_R6G_10uM_NaF_0.1M_Addition_RamanShift__27__10-48-46-600.txt Node

Date: Mon Feb 07 10:48:46 GMT 2022
User: TCL
Spectrometer: QEP01345
Trigger mode: 4
Integration Time (sec): 7.000000E0
Scans to average: 10
Electric dark correction enabled: true
Nonlinearity correction enabled: false
Boxcar width: 0
XAxis mode: Raman Shifts
Number of Pixels in Spectrum: 1044
>>>>>Begin Spectral Data<<<<<
46.04893	0.525
50.45542	-1.175
54.85868	0.225
59.25871	-0.075
63.6555	76.325
68.04907	83.525
72.43941	89.425
76.82654	94.325
81.21044	95.325
85.59113	102.325
89.96862	104.525
94.34289	102.525
98.71396	109.425
103.08183	113.225
107.4465	118.725
111.80798	117.525
116.16626	123.425
120.52136	128.125
124.87327	134.025
129.222	140.625
133.56755	149.525
137.90993	162.825
142.24913	179.325
146.58517	202.325
150.91804	234.925
155.24774	283.625
159.57429	356.125
163.89768	461.925
168.21792	616.725
172.53501	840.325
176.84895	1171.725
181.15975	1644.325
185.46741	2299.025
189.77193	3188.425
194.07331	4281.325
198.37157	5499.025
202.6667	6792.725
206.9587	8073.825
211.24758	9389.725
215.53334	10730.125
219.81599	12225.125
224.09553	13915.325
228.37195	15822.725
232.64527	17858.725
236.91549	19874.325
241.18261	21800.225
245.44663	23376.725
249.70755	24653.225
253.96539	25759.725
258.22014	26765.425
262.4718	27676.925
266.72039	28391.825
270.96589	28741.025
275.20832	28884.325
279.44768	28756.925
283.68397	28519.525
287.91719	28445.525
292.14735	28587.025
296.37445	28964.525
300.59849	29678.825
304.81948	30607.325
309.03742	31266.925
313.25231	31121.925
317.46415	29715.125
321.67296	27516.925
325.87872	25618.325
330.08145	24706.425
334.28114	24508.325
338.47781	24847.925
342.67145	25476.525
346.86207	26414.625
351.04966	27869.925
355.23424	29523.925
359.4158	30802.725
363.59435	31353.025
367.76989	31429.725
371.94243	31177.325
376.11196	30945.925
380.27849	30671.125
384.44203	30382.825
388.60257	30050.825
392.76012	29999.125
396.91468	30401.025
401.06626	31269.525
405.21485	32000.825
409.36047	31610.825
413.50311	30208.625
417.64277	28846.525
421.77947	28195.225
425.9132	28008.025
430.04396	28000.125
434.17176	28099.025
438.2966	28326.925
442.41849	28932.025
446.53742	29827.025
450.6534	30825.725
454.76644	31543.525
458.87653	31721.125
462.98368	31498.625
467.08789	31040.125
471.18916	30398.825
475.2875	29687.825
479.38291	29240.725
483.4754	28928.125
487.56496	28581.925
491.6516	28202.325
495.73531	27910.525
499.81612	27846.625
503.89401	28064.425
507.96899	28278.625
512.04106	28397.625
516.11023	28465.525
520.1765	28416.325
524.23987	28157.425
528.30034	27612.925
532.35792	27009.425
536.41261	26379.625
540.46441	25755.125
544.51333	25569.725
548.55936	25917.425
552.60252	26783.425
556.64279	27732.925
560.6802	28271.325
564.71473	28819.125
568.7464	30150.925
572.7752	31403.925
576.80114	31169.225
580.82422	30577.025
584.84444	30405.525
588.86181	30305.325
592.87633	30374.025
596.888	30698.025
600.89682	31558.725
604.9028	34453.925
608.90594	42384.125
612.90624	52813.125
616.90371	50677.725
620.89834	35980.125
624.89015	28911.525
628.87913	27668.125
632.86528	27881.625
636.84862	27985.125
640.82913	27347.125
644.80683	25959.425
648.78172	24949.725
652.75379	24860.925
656.72306	25871.725
660.68952	27217.025
664.65319	27097.125
668.61405	25948.725
672.57211	25303.725
676.52738	25183.225
680.47986	25120.425
684.42955	24866.325
688.37646	24746.425
692.32058	24847.725
696.26192	25175.825
700.20048	25553.325
704.13626	25968.225
708.06928	26019.925
711.99952	25761.725
715.927	25549.825
719.85171	25559.825
723.77365	25436.425
727.69284	25014.025
731.60928	24670.625
735.52295	24572.325
739.43388	24679.225
743.34206	24873.325
747.24749	25089.625
751.15017	25425.425
755.05012	26096.325
758.94733	27515.425
762.8418	30502.825
766.73354	35620.525
770.62254	40878.225
774.50882	42786.325
778.39237	40313.825
782.27321	35041.725
786.15132	30072.225
790.02671	27038.225
793.89938	25643.925
797.76935	25088.625
801.6366	24831.625
805.50115	24614.625
809.36299	24446.525
813.22213	24242.725
817.07857	24199.625
820.93231	24184.325
824.78336	24181.725
828.63172	24314.825
832.47738	24407.325
836.32036	24413.125
840.16066	24360.025
843.99827	24325.325
847.8332	24261.925
851.66546	24109.925
855.49504	24082.825
859.32195	23975.825
863.1462	23768.125
866.96777	23629.825
870.78668	23558.925
874.60293	23558.525
878.41652	23623.425
882.22745	23752.025
886.03573	23901.625
889.84136	23851.925
893.64433	23647.025
897.44466	23587.625
901.24235	23606.425
905.0374	23522.825
908.8298	23444.725
912.61957	23436.425
916.40671	23689.925
920.19121	24176.025
923.97308	24637.425
927.75233	24998.325
931.52895	25077.125
935.30295	24674.525
939.07433	23827.925
942.84309	23085.325
946.60924	22710.325
950.37278	22503.625
954.13371	22353.025
957.89203	22240.225
961.64774	22111.525
965.40086	22076.125
969.15137	21994.625
972.89929	21926.525
976.64461	21889.725
980.38733	21969.325
984.12747	22036.025
987.86502	22265.525
991.59999	22594.225
995.33237	23077.025
999.06217	23922.525
1002.78939	25049.525
1006.51404	25930.125
1010.23611	26575.125
1013.95561	26959.525
1017.67255	26876.325
1021.38692	26409.125
1025.09872	25998.525
1028.80796	26086.225
1032.51465	26836.925
1036.21877	27546.925
1039.92035	27667.825
1043.61937	27273.125
1047.31584	26523.325
1051.00976	25777.525
1054.70114	25364.325
1058.38998	25273.325
1062.07627	25443.725
1065.76003	25674.725
1069.44126	25952.625
1073.11995	26403.025
1076.79611	26813.825
1080.46974	27141.625
1084.14085	27651.225
1087.80943	28404.325
1091.47549	28827.125
1095.13903	28517.425
1098.80005	27593.425
1102.45857	26559.025
1106.11456	25853.825
1109.76805	25662.925
1113.41903	26020.125
1117.06751	26656.625
1120.71348	27585.925
1124.35696	28668.925
1127.99793	29688.625
1131.63641	29785.725
1135.2724	28833.225
1138.90589	27648.325
1142.5369	26937.425
1146.16542	26580.525
1149.79145	26390.725
1153.415	26507.325
1157.03607	26936.725
1160.65467	27645.525
1164.27079	28899.525
1167.88443	30817.725
1171.49561	33679.425
1175.10432	38133.425
1178.71056	43869.325
1182.31434	48433.325
1185.91565	50304.525
1189.51451	49853.025
1193.11091	47196.825
1196.70485	43628.825
1200.29634	40466.125
1203.88538	38009.325
1207.47197	35580.325
1211.05612	33727.325
1214.63782	32633.425
1218.21708	32414.025
1221.79391	32475.025
1225.36829	32782.925
1228.94024	32799.925
1232.50976	32569.325
1236.07685	32314.025
1239.6415	32128.125
1243.20374	31913.325
1246.76355	31936.325
1250.32093	32336.025
1253.8759	33261.725
1257.42845	34558.825
1260.97859	35883.525
1264.52631	37088.825
1268.07163	38360.725
1271.61453	39685.925
1275.15503	40977.925
1278.69312	42164.625
1282.22882	43010.725
1285.76211	44205.825
1289.29301	45681.025
1292.82151	47375.725
1296.34761	49354.625
1299.87133	52082.225
1303.39266	56199.725
1306.9116	62138.425
1310.42815	68826.025
1313.94233	73510.425
1317.45412	73744.625
1320.96354	70720.225
1324.47058	66739.125
1327.97525	63225.725
1331.47754	60750.325
1334.97747	59440.225
1338.47502	59007.125
1341.97022	59193.525
1345.46305	59368.725
1348.95352	59822.125
1352.44163	60947.025
1355.92738	64092.725
1359.41078	70645.425
1362.89183	78097.425
1366.37053	77504.225
1369.84688	67907.325
1373.32088	57226.525
1376.79254	50117.625
1380.26186	46620.625
1383.72883	45124.025
1387.19347	44094.725
1390.65578	43064.525
1394.11575	42462.925
1397.57339	42731.125
1401.0287	43592.925
1404.48168	44616.525
1407.93234	45431.025
1411.38068	45569.625
1414.82669	44733.225
1418.27039	42923.025
1421.71177	40883.425
1425.15083	39183.325
1428.58758	38128.725
1432.02203	37931.325
1435.45416	38327.225
1438.88399	38777.425
1442.31151	39218.525
1445.73673	39726.725
1449.15965	40358.125
1452.58027	40711.625
1455.9986	40726.725
1459.41463	40955.725
1462.82837	41458.225
1466.23982	42317.225
1469.64898	43187.625
1473.05586	43662.925
1476.46045	43884.325
1479.86276	44128.125
1483.26279	44627.625
1486.66054	45302.025
1490.05602	46279.325
1493.44922	47688.425
1496.84016	49625.825
1500.22882	52625.925
1503.61521	56821.225
1506.99934	61991.825
1510.38121	67440.225
1513.76081	70730.325
1517.13816	69188.325
1520.51324	63233.925
1523.88607	56578.125
1527.25665	51554.425
1530.62498	48443.825
1533.99105	46479.125
1537.35488	45220.525
1540.71647	44425.325
1544.07581	43716.225
1547.4329	42969.725
1550.78776	42311.725
1554.14038	41943.825
1557.49077	42165.425
1560.83892	42652.325
1564.18484	43431.425
1567.52853	44107.425
1570.86999	44447.525
1574.20922	44812.825
1577.54624	44859.525
1580.88103	43592.225
1584.2136	41875.025
1587.54395	41747.425
1590.87208	43532.625
1594.19801	46875.825
1597.52172	50689.925
1600.84321	52272.925
1604.16251	50146.825
1607.47959	45797.125
1610.79447	41214.625
1614.10715	37002.625
1617.41763	33684.425
1620.7259	31617.725
1624.03199	30628.425
1627.33587	30611.825
1630.63757	31679.425
1633.93707	33784.625
1637.23439	37136.725
1640.52951	41607.125
1643.82246	47041.925
1647.11321	52499.925
1650.40179	55776.125
1653.68819	53899.025
1656.97241	46944.625
1660.25446	38685.825
1663.53433	32371.625
1666.81203	28436.925
1670.08756	26064.525
1673.36092	24650.325
1676.63211	23771.625
1679.90115	23174.625
1683.16801	22715.225
1686.43272	22352.225
1689.69527	22161.525
1692.95567	21999.725
1696.2139	21888.825
1699.46999	21823.825
1702.72392	21732.625
1705.97571	21635.125
1709.22535	21612.425
1712.47284	21596.125
1715.71819	21589.925
1718.96139	21574.225
1722.20246	21552.325
1725.44139	21445.925
1728.67818	21264.925
1731.91284	21091.225
1735.14537	20972.225
1738.37576	20823.925
1741.60403	20775.325
1744.83017	20660.825
1748.05418	20598.925
1751.27607	20518.225
1754.49584	20498.225
1757.71349	20467.125
1760.92903	20434.325
1764.14244	20453.425
1767.35375	20451.625
1770.56294	20417.625
1773.77002	20318.325
1776.97499	20283.225
1780.17785	20225.925
1783.37861	20169.525
1786.57727	20136.525
1789.77382	20143.525
1792.96828	20094.525
1796.16064	20100.925
1799.3509	20071.525
1802.53907	20022.725
1805.72514	19929.125
1808.90913	19904.625
1812.09102	19825.525
1815.27083	19800.125
1818.44856	19768.625
1821.6242	19749.425
1824.79776	19719.925
1827.96924	19690.425
1831.13864	19696.025
1834.30597	19672.625
1837.47122	19681.425
1840.6344	19653.425
1843.7955	19669.525
1846.95454	19694.025
1850.11151	19722.125
1853.26642	19696.625
1856.41926	19724.525
1859.57004	19766.725
1862.71876	19773.725
1865.86542	19738.625
1869.01003	19753.725
1872.15258	19763.725
1875.29308	19801.625
1878.43152	19874.025
1881.56792	19871.625
1884.70227	19871.225
1887.83457	19902.425
1890.96482	19955.525
1894.09304	19928.325
1897.21921	19926.425
1900.34335	19927.925
1903.46544	19957.425
1906.58551	19986.225
1909.70353	19979.625
1912.81953	19948.725
1915.93349	19982.125
1919.04543	19959.225
1922.15534	19913.125
1925.26322	19846.725
1928.36908	19802.325
1931.47292	19679.825
1934.57473	19607.325
1937.67453	19495.925
1940.77232	19341.325
1943.86808	19261.725
1946.96184	19101.725
1950.05358	19054.525
1953.14331	18968.125
1956.23103	18893.325
1959.31675	18820.225
1962.40046	18748.425
1965.48217	18706.125
1968.56188	18679.525
1971.63959	18583.925
1974.7153	18536.825
1977.78901	18480.625
1980.86073	18403.825
1983.93046	18333.725
1986.99819	18278.725
1990.06394	18214.625
1993.1277	18172.325
1996.18947	18116.325
1999.24925	18062.125
2002.30706	17972.725
2005.36288	17925.025
2008.41672	17882.525
2011.46859	17858.525
2014.51848	17805.625
2017.56639	17740.125
2020.61233	17690.425
2023.6563	17633.625
2026.6983	17577.425
2029.73833	17550.625
2032.7764	17540.025
2035.8125	17496.725
2038.84664	17457.325
2041.87881	17405.425
2044.90903	17412.325
2047.93729	17400.625
2050.96359	17364.325
2053.98794	17351.225
2057.01034	17338.725
2060.03078	17315.525
2063.04927	17308.625
2066.06582	17292.325
2069.08042	17270.025
2072.09307	17247.425
2075.10378	17223.125
2078.11255	17209.725
2081.11938	17191.525
2084.12426	17169.225
2087.12722	17173.725
2090.12824	17122.825
2093.12732	17138.325
2096.12447	17120.825
2099.11969	17163.725
2102.11299	17165.725
2105.10435	17131.725
2108.09379	17110.725
2111.08131	17146.125
2114.0669	17150.825
2117.05057	17155.925
2120.03233	17167.825
2123.01216	17173.525
2125.99008	17240.425
2128.96609	17230.325
2131.94018	17256.925
2134.91236	17269.325
2137.88263	17246.225
2140.851	17268.025
2143.81746	17267.625
2146.78201	17267.325
2149.74466	17248.425
2152.7054	17235.225
2155.66425	17219.825
2158.6212	17253.925
2161.57625	17196.025
2164.52941	17194.525
2167.48067	17194.425
2170.43004	17181.125
2173.37752	17167.425
2176.32311	17168.925
2179.26681	17192.625
2182.20863	17173.325
2185.14856	17197.025
2188.08661	17155.325
2191.02278	17197.125
2193.95707	17187.525
2196.88948	17141.725
2199.82001	17144.225
2202.74867	17132.025
2205.67545	17132.525
2208.60037	17132.925
2211.52341	17135.925
2214.44458	17150.625
2217.36388	17108.925
2220.28132	17062.725
2223.1969	17047.825
2226.11061	16971.625
2229.02246	16982.625
2231.93245	16932.725
2234.84058	16859.725
2237.74686	16879.125
2240.65128	16860.925
2243.55385	16780.325
2246.45456	16787.725
2249.35343	16777.925
2252.25044	16746.625
2255.14561	16724.625
2258.03893	16726.625
2260.93041	16727.025
2263.82004	16677.325
2266.70783	16644.625
2269.59378	16598.525
2272.4779	16526.325
2275.36017	16462.725
2278.24061	16465.225
2281.11922	16434.325
2283.996	16408.825
2286.87094	16424.325
2289.74405	16365.525
2292.61534	16364.025
2295.4848	16316.925
2298.35243	16325.325
2301.21824	16338.625
2304.08223	16343.125
2306.94439	16337.625
2309.80474	16390.625
2312.66327	16386.825
2315.51999	16400.825
2318.37489	16343.125
2321.22797	16353.425
2324.07925	16356.025
2326.92871	16367.025
2329.77637	16309.325
2332.62222	16286.925
2335.46626	16320.225
2338.3085	16315.925
2341.14893	16350.125
2343.98756	16381.925
2346.8244	16405.025
2349.65943	16419.525
2352.49267	16416.225
2355.32411	16419.525
2358.15376	16407.225
2360.98161	16405.425
2363.80768	16396.125
2366.63195	16429.125
2369.45444	16414.025
2372.27514	16362.825
2375.09405	16340.825
2377.91118	16285.625
2380.72652	16207.225
2383.54009	16157.425
2386.35187	16103.425
2389.16188	16042.625
2391.97011	16050.925
2394.77657	15994.025
2397.58125	15944.825
2400.38416	15931.625
2403.18529	15893.225
2405.98466	15873.225
2408.78226	15827.025
2411.57809	15776.825
2414.37216	15744.325
2417.16446	15770.625
2419.955	15744.925
2422.74378	15685.325
2425.5308	15692.225
2428.31606	15685.425
2431.09956	15699.225
2433.88131	15697.425
2436.6613	15728.225
2439.43954	15729.225
2442.21603	15695.825
2444.99077	15687.625
2447.76377	15703.225
2450.53501	15667.525
2453.30451	15658.825
2456.07226	15649.025
2458.83827	15663.025
2461.60254	15689.725
2464.36507	15665.825
2467.12586	15665.625
2469.88492	15667.225
2472.64224	15680.525
2475.39782	15714.825
2478.15167	15707.625
2480.90379	15767.625
2483.65417	15766.325
2486.40283	15804.025
2489.14976	15820.425
2491.89497	15829.425
2494.63845	15868.325
2497.3802	15884.525
2500.12024	15862.325
2502.85855	15828.825
2505.59514	15798.225
2508.33002	15760.625
2511.06318	15745.025
2513.79462	15674.825
2516.52435	15679.325
2519.25237	15657.825
2521.97867	15592.925
2524.70327	15598.825
2527.42616	15563.225
2530.14734	15571.325
2532.86681	15552.625
2535.58458	15579.925
2538.30065	15529.425
2541.01501	15534.325
2543.72768	15523.525
2546.43864	15532.325
2549.14791	15514.425
2551.85548	15534.825
2554.56136	15497.625
2557.26554	15515.925
2559.96803	15469.825
2562.66883	15466.925
2565.36794	15449.525
2568.06536	15433.825
2570.7611	15395.425
2573.45514	15427.525
2576.14751	15404.325
2578.83819	15368.525
2581.52719	15385.125
2584.21451	15380.225
2586.90015	15401.925
2589.58411	15376.325
2592.2664	15353.025
2594.94701	15355.625
2597.62594	15341.625
2600.30321	15330.125
2602.9788	15343.825
2605.65273	15344.125
2608.32498	15384.625
2610.99557	15376.125
2613.66449	15394.225
2616.33175	15376.225
2618.99734	15396.725
2621.66128	15393.125
2624.32355	15400.025
2626.98416	15384.325
2629.64311	15384.625
2632.30041	15422.125
2634.95605	15381.325
2637.61004	15361.725
2640.26238	15316.025
2642.91306	15314.725
2645.56209	15268.825
2648.20948	15250.725
2650.85521	15242.225
2653.4993	15227.225
2656.14175	15236.725
2658.78255	15236.325
2661.42171	15273.825
2664.05923	15291.725
2666.6951	15320.025
2669.32934	15334.825
2671.96194	15367.825
2674.59291	15382.025
2677.22224	15370.325
2679.84993	15371.125
2682.476	15346.725
2685.10043	15326.125
2687.72324	15288.425
2690.34441	15281.725
2692.96396	15301.725
2695.58188	15281.225
2698.19818	15232.925
2700.81285	15223.725
2703.4259	15229.025
2706.03733	15297.225
2708.64714	15276.825
2711.25533	15290.825
2713.86191	15284.325
2716.46687	15285.025
2719.07021	15250.025
2721.67194	15316.425
2724.27206	15304.025
2726.87057	15336.325
2729.46747	15318.425
2732.06276	15319.825
2734.65644	15307.725
2737.24852	15304.225
2739.83899	15294.525
2742.42786	15301.825
2745.01513	15252.525
2747.60079	15260.425
2750.18486	15250.625
2752.76733	15226.725
2755.3482	15185.125
2757.92747	15212.925
2760.50515	15153.825
2763.08123	15174.325
2765.65573	15174.025
2768.22863	15150.425
2770.79994	15162.525
2773.36967	15164.425
2775.9378	15179.425
2778.50435	15185.725
2781.06932	15139.225
2783.6327	15180.525
2786.1945	15183.825
2788.75471	15188.125
2791.31335	15175.325
2793.87041	15133.725
2796.42589	15105.425
2798.97979	15113.125
2801.53212	15061.225
2804.08288	15042.125
2806.63206	14987.625
2809.17967	15019.525
2811.72571	14974.425
2814.27018	14962.225
2816.81308	14952.925
2819.35442	14950.925
2821.89419	14956.425
2824.43239	14993.225
2826.96904	14980.525
2829.50412	15011.025
2832.03763	14968.825
2834.56959	14970.125
2837.1	14931.425
2839.62884	14979.525
2842.15613	14970.025
2844.68186	15064.525
2847.20604	15092.025
2849.72867	15129.025
2852.24974	15125.025
2854.76927	15117.225
2857.28724	15098.125
2859.80367	15100.125
2862.31855	15083.025
2864.83189	15047.725
2867.34368	15027.425
2869.85393	15024.525
2872.36264	15005.525
2874.8698	15007.525
2877.37543	14977.325
2879.87952	15013.225
2882.38207	15010.225
2884.88308	14993.525
2887.38256	14967.025
2889.88051	14945.525
2892.37692	14972.225
2894.8718	14981.525
2897.36515	14996.325
2899.85698	14983.225
2902.34727	15057.425
2904.83604	15027.125
2907.32328	15076.125
2909.809	15068.025
2912.29319	15100.225
2914.77587	15057.625
2917.25702	15066.225
2919.73665	15047.025
2922.21476	15049.625
2924.69136	15007.225
2927.16644	15009.325
2929.64	14962.625
2932.11205	14914.125
2934.58258	14863.525
2937.05161	14840.625
2939.51912	14858.525
2941.98513	14799.225
2944.44962	14761.425
2946.91261	14682.625
2949.37409	14674.725
2951.83407	14659.625
2954.29254	14628.125
2956.74951	14603.625
2959.20498	14559.725
2961.65895	14549.325
2964.11142	14548.825
2966.56239	14483.725
2969.01186	14479.425
2971.45984	14440.825
2973.90632	14434.025
2976.35131	14390.525
2978.7948	14352.725
2981.23681	14306.225
2983.67732	14316.225
2986.11635	14304.625
2988.55388	14213.625
2990.98993	14177.825
2993.4245	14155.525
2995.85758	14116.825
2998.28917	14077.525
3000.71928	14045.325
3003.14791	14050.925
3005.57506	13994.025
3008.00073	13989.425
3010.42493	13947.925
3012.84764	13979.025
3015.26888	13945.325
3017.68865	13888.625
3020.10694	13855.925
3022.52376	13836.625
3024.9391	13819.825
3027.35298	13792.825
3029.76539	13778.725
3032.17632	13766.525
3034.5858	13726.325
3036.9938	13706.725
3039.40034	13693.625
3041.80542	13704.225
3044.20903	13673.325
3046.61118	13653.325
3049.01187	13630.125
3051.4111	13590.625
3053.80888	13580.525
3056.20519	13538.925
3058.60005	13491.625
3060.99345	13463.725
3063.3854	13426.625
3065.7759	13390.225
3068.16494	13344.425
3070.55254	13300.625
3072.93868	13266.625
3075.32338	13197.825
3077.70662	13153.225
3080.08842	13117.725
3082.46878	13120.325
3084.84769	13071.925
3087.22515	13093.225
3089.60118	13073.325
3091.97576	13082.925
3094.3489	13085.725
3096.72061	13041.225
3099.09087	13036.825
3101.4597	13013.925
3103.82709	13028.125
3106.19305	12982.525
3108.55757	12980.525
3110.92066	12946.025
3113.28232	12892.625
3115.64255	12881.325
3118.00134	12860.325
3120.35871	12825.225
3122.71466	12815.725
3125.06917	12807.925
3127.42226	12735.125
