Data from AgNPs_FTO_APTES_UA_5uM_CRN_2uM_R6G_10uM_NaF_0.1M_Addition_RamanShift__0__10-56-56-610.txt Node

Date: Mon Feb 07 10:56:56 GMT 2022
User: TCL
Spectrometer: QEP01345
Trigger mode: 4
Integration Time (sec): 7.000000E0
Scans to average: 10
Electric dark correction enabled: true
Nonlinearity correction enabled: false
Boxcar width: 0
XAxis mode: Raman Shifts
Number of Pixels in Spectrum: 1044
>>>>>Begin Spectral Data<<<<<
46.04893	-0.0875
50.45542	-1.7875
54.85868	0.5125
59.25871	0.8125
63.6555	37.2125
68.04907	40.1125
72.43941	43.6125
76.82654	43.0125
81.21044	48.5125
85.59113	51.0125
89.96862	54.6125
94.34289	51.4125
98.71396	54.0125
103.08183	54.1125
107.4465	59.2125
111.80798	56.6125
116.16626	61.0125
120.52136	63.7125
124.87327	64.2125
129.222	65.8125
133.56755	71.2125
137.90993	76.6125
142.24913	85.2125
146.58517	94.2125
150.91804	114.2125
155.24774	135.1125
159.57429	168.7125
163.89768	214.1125
168.21792	293.5125
172.53501	392.2125
176.84895	536.1125
181.15975	767.2125
185.46741	1081.3125
189.77193	1484.1125
194.07331	1989.3125
198.37157	2577.0125
202.6667	3173.7125
206.9587	3787.8125
211.24758	4388.4125
215.53334	5000.2125
219.81599	5659.2125
224.09553	6407.0125
228.37195	7208.3125
232.64527	8083.1125
236.91549	8960.0125
241.18261	9863.0125
245.44663	10624.0125
249.70755	11289.5125
253.96539	11905.4125
258.22014	12411.6125
262.4718	12836.4125
266.72039	13175.7125
270.96589	13328.1125
275.20832	13287.8125
279.44768	13159.2125
283.68397	13007.0125
287.91719	12884.9125
292.14735	12822.1125
296.37445	12866.9125
300.59849	12985.3125
304.81948	13229.4125
309.03742	13413.6125
313.25231	13392.5125
317.46415	13145.0125
321.67296	12682.7125
325.87872	12250.2125
330.08145	12048.7125
334.28114	12043.0125
338.47781	12130.8125
342.67145	12293.5125
346.86207	12530.4125
351.04966	12882.2125
355.23424	13263.5125
359.4158	13582.0125
363.59435	13819.4125
367.76989	13908.4125
371.94243	13968.2125
376.11196	14000.2125
380.27849	14015.3125
384.44203	14022.7125
388.60257	14056.7125
392.76012	14110.2125
396.91468	14263.6125
401.06626	14535.5125
405.21485	14796.5125
409.36047	14746.5125
413.50311	14590.8125
417.64277	14468.0125
421.77947	14533.5125
425.9132	14696.2125
430.04396	14862.3125
434.17176	14940.2125
438.2966	14935.5125
442.41849	15046.0125
446.53742	15418.3125
450.6534	15907.9125
454.76644	16227.7125
458.87653	16174.3125
462.98368	15928.8125
467.08789	15537.6125
471.18916	15223.4125
475.2875	14889.8125
479.38291	14694.3125
483.4754	14617.7125
487.56496	14534.0125
491.6516	14433.5125
495.73531	14311.3125
499.81612	14220.9125
503.89401	14259.0125
507.96899	14241.6125
512.04106	14181.8125
516.11023	14088.1125
520.1765	14017.0125
524.23987	14006.5125
528.30034	13936.5125
532.35792	13843.3125
536.41261	13629.3125
540.46441	13341.0125
544.51333	13228.7125
548.55936	13301.6125
552.60252	13533.5125
556.64279	13907.5125
560.6802	14144.9125
564.71473	14305.0125
568.7464	14647.2125
572.7752	15031.9125
576.80114	15221.7125
580.82422	15404.8125
584.84444	15861.4125
588.86181	16502.8125
592.87633	17160.7125
596.888	17428.8125
600.89682	17091.1125
604.9028	17277.4125
608.90594	19071.4125
612.90624	21430.2125
616.90371	20447.5125
620.89834	16388.0125
624.89015	14425.4125
628.87913	14098.8125
632.86528	14090.4125
636.84862	13993.2125
640.82913	13685.8125
644.80683	13217.2125
648.78172	12943.1125
652.75379	12964.3125
656.72306	13259.0125
660.68952	13594.6125
664.65319	13553.0125
668.61405	13179.1125
672.57211	13045.0125
676.52738	13098.1125
680.47986	13056.7125
684.42955	12940.4125
688.37646	12897.5125
692.32058	13092.8125
696.26192	13428.5125
700.20048	13808.8125
704.13626	14082.8125
708.06928	14057.0125
711.99952	13863.7125
715.927	13756.3125
719.85171	13754.7125
723.77365	13648.6125
727.69284	13385.1125
731.60928	13180.9125
735.52295	13114.7125
739.43388	13147.8125
743.34206	13162.2125
747.24749	13242.0125
751.15017	13338.0125
755.05012	13530.8125
758.94733	13904.7125
762.8418	14692.3125
766.73354	16012.3125
770.62254	17339.1125
774.50882	17806.2125
778.39237	17219.0125
782.27321	15816.3125
786.15132	14533.0125
790.02671	13735.0125
793.89938	13394.5125
797.76935	13260.2125
801.6366	13217.4125
805.50115	13189.3125
809.36299	13094.8125
813.22213	12999.1125
817.07857	12927.8125
820.93231	12877.6125
824.78336	12848.5125
828.63172	12897.0125
832.47738	12914.7125
836.32036	12924.6125
840.16066	13022.1125
843.99827	13050.4125
847.8332	12990.1125
851.66546	12946.4125
855.49504	12896.5125
859.32195	12880.6125
863.1462	12821.7125
866.96777	12763.9125
870.78668	12723.8125
874.60293	12712.2125
878.41652	12719.5125
882.22745	12794.7125
886.03573	12855.5125
889.84136	12872.5125
893.64433	12777.5125
897.44466	12727.8125
901.24235	12663.8125
905.0374	12626.7125
908.8298	12601.2125
912.61957	12589.5125
916.40671	12706.4125
920.19121	12857.9125
923.97308	13091.6125
927.75233	13206.1125
931.52895	13261.8125
935.30295	13114.3125
939.07433	12804.6125
942.84309	12576.5125
946.60924	12464.2125
950.37278	12406.5125
954.13371	12341.6125
957.89203	12287.6125
961.64774	12214.4125
965.40086	12213.6125
969.15137	12204.1125
972.89929	12199.7125
976.64461	12197.5125
980.38733	12252.8125
984.12747	12316.4125
987.86502	12478.9125
991.59999	12612.7125
995.33237	12862.3125
999.06217	13255.2125
1002.78939	13704.0125
1006.51404	13977.1125
1010.23611	14114.8125
1013.95561	14235.3125
1017.67255	14254.7125
1021.38692	14006.4125
1025.09872	13801.2125
1028.80796	13895.3125
1032.51465	14335.9125
1036.21877	14814.7125
1039.92035	14909.0125
1043.61937	14709.0125
1047.31584	14309.7125
1051.00976	13909.2125
1054.70114	13666.1125
1058.38998	13566.5125
1062.07627	13565.6125
1065.76003	13599.1125
1069.44126	13689.2125
1073.11995	13877.2125
1076.79611	14145.9125
1080.46974	14319.0125
1084.14085	14531.1125
1087.80943	14750.1125
1091.47549	14909.6125
1095.13903	14854.5125
1098.80005	14574.3125
1102.45857	14240.0125
1106.11456	13986.2125
1109.76805	13943.4125
1113.41903	14001.6125
1117.06751	14089.4125
1120.71348	14290.0125
1124.35696	14525.6125
1127.99793	14798.5125
1131.63641	14840.2125
1135.2724	14637.3125
1138.90589	14395.5125
1142.5369	14264.6125
1146.16542	14206.2125
1149.79145	14248.6125
1153.415	14326.9125
1157.03607	14497.0125
1160.65467	14845.1125
1164.27079	15500.9125
1167.88443	16383.6125
1171.49561	17397.9125
1175.10432	18827.0125
1178.71056	20732.3125
1182.31434	22402.8125
1185.91565	23141.8125
1189.51451	22779.0125
1193.11091	21695.0125
1196.70485	20509.4125
1200.29634	19566.2125
1203.88538	18925.1125
1207.47197	18483.9125
1211.05612	18024.9125
1214.63782	17677.0125
1218.21708	17412.5125
1221.79391	17380.0125
1225.36829	17402.7125
1228.94024	17221.8125
1232.50976	16835.2125
1236.07685	16483.7125
1239.6415	16338.9125
1243.20374	16344.5125
1246.76355	16513.4125
1250.32093	16888.7125
1253.8759	17387.4125
1257.42845	17903.5125
1260.97859	18540.4125
1264.52631	19045.1125
1268.07163	19604.6125
1271.61453	20191.1125
1275.15503	20723.8125
1278.69312	21236.3125
1282.22882	21747.1125
1285.76211	22339.1125
1289.29301	23084.0125
1292.82151	24024.5125
1296.34761	25165.1125
1299.87133	26671.0125
1303.39266	28570.7125
1306.9116	30767.8125
1310.42815	32780.6125
1313.94233	33814.9125
1317.45412	33399.4125
1320.96354	31990.1125
1324.47058	30466.0125
1327.97525	29279.9125
1331.47754	28220.9125
1334.97747	27594.3125
1338.47502	27092.5125
1341.97022	26469.4125
1345.46305	25907.0125
1348.95352	25956.9125
1352.44163	26747.2125
1355.92738	28460.7125
1359.41078	30996.1125
1362.89183	33354.5125
1366.37053	33330.3125
1369.84688	30272.5125
1373.32088	26161.3125
1376.79254	23410.9125
1380.26186	22378.3125
1383.72883	22305.4125
1387.19347	22243.8125
1390.65578	21733.5125
1394.11575	21187.8125
1397.57339	21113.9125
1401.0287	21420.6125
1404.48168	21824.5125
1407.93234	21952.9125
1411.38068	21735.7125
1414.82669	21116.3125
1418.27039	20318.5125
1421.71177	19489.9125
1425.15083	18812.8125
1428.58758	18454.1125
1432.02203	18634.8125
1435.45416	19186.5125
1438.88399	19727.8125
1442.31151	20071.8125
1445.73673	20415.8125
1449.15965	20630.7125
1452.58027	20473.8125
1455.9986	20152.6125
1459.41463	19987.7125
1462.82837	20193.2125
1466.23982	20667.3125
1469.64898	21212.4125
1473.05586	21620.1125
1476.46045	21863.5125
1479.86276	22025.7125
1483.26279	21991.1125
1486.66054	22042.1125
1490.05602	22198.1125
1493.44922	22503.6125
1496.84016	22843.1125
1500.22882	23335.3125
1503.61521	24158.5125
1506.99934	25309.9125
1510.38121	26430.7125
1513.76081	26994.6125
1517.13816	26387.0125
1520.51324	24967.4125
1523.88607	23485.5125
1527.25665	22609.7125
1530.62498	22163.4125
1533.99105	21867.9125
1537.35488	21556.7125
1540.71647	21127.6125
1544.07581	20648.3125
1547.4329	20139.1125
1550.78776	19647.9125
1554.14038	19320.4125
1557.49077	19128.7125
1560.83892	19034.0125
1564.18484	19095.6125
1567.52853	19258.5125
1570.86999	19565.7125
1574.20922	19884.3125
1577.54624	20103.8125
1580.88103	19968.1125
1584.2136	19921.0125
1587.54395	20526.5125
1590.87208	21868.6125
1594.19801	23695.3125
1597.52172	25447.9125
1600.84321	26035.7125
1604.16251	24806.3125
1607.47959	22484.4125
1610.79447	20044.0125
1614.10715	17954.4125
1617.41763	16557.3125
1620.7259	15788.6125
1624.03199	15550.9125
1627.33587	15720.8125
1630.63757	16336.4125
1633.93707	17431.9125
1637.23439	19183.4125
1640.52951	21857.7125
1643.82246	25204.5125
1647.11321	28243.4125
1650.40179	29310.3125
1653.68819	27524.4125
1656.97241	23800.7125
1660.25446	20092.2125
1663.53433	17540.7125
1666.81203	15884.1125
1670.08756	14786.9125
1673.36092	14019.1125
1676.63211	13447.7125
1679.90115	13076.4125
1683.16801	12897.0125
1686.43272	12735.7125
1689.69527	12852.7125
1692.95567	13152.8125
1696.2139	13824.1125
1699.46999	14509.9125
1702.72392	14553.2125
1705.97571	13895.7125
1709.22535	13149.3125
1712.47284	12564.6125
1715.71819	12297.7125
1718.96139	12115.6125
1722.20246	12010.2125
1725.44139	11903.8125
1728.67818	11831.8125
1731.91284	11752.0125
1735.14537	11686.8125
1738.37576	11677.5125
1741.60403	11706.9125
1744.83017	11744.3125
1748.05418	11824.7125
1751.27607	11996.9125
1754.49584	12351.2125
1757.71349	12781.7125
1760.92903	13034.0125
1764.14244	12986.7125
1767.35375	12953.5125
1770.56294	12921.4125
1773.77002	12728.6125
1776.97499	12267.5125
1780.17785	11833.7125
1783.37861	11583.3125
1786.57727	11404.0125
1789.77382	11306.1125
1792.96828	11240.2125
1796.16064	11184.4125
1799.3509	11122.3125
1802.53907	11100.6125
1805.72514	11032.4125
1808.90913	10998.4125
1812.09102	10991.1125
1815.27083	10952.4125
1818.44856	10894.8125
1821.6242	10878.0125
1824.79776	10868.4125
1827.96924	10855.5125
1831.13864	10840.5125
1834.30597	10817.4125
1837.47122	10805.4125
1840.6344	10778.2125
1843.7955	10830.5125
1846.95454	10796.0125
1850.11151	10787.3125
1853.26642	10778.6125
1856.41926	10762.2125
1859.57004	10790.5125
1862.71876	10762.5125
1865.86542	10750.9125
1869.01003	10726.6125
1872.15258	10710.8125
1875.29308	10735.0125
1878.43152	10730.7125
1881.56792	10735.3125
1884.70227	10726.7125
1887.83457	10702.0125
1890.96482	10687.7125
1894.09304	10725.9125
1897.21921	10717.0125
1900.34335	10695.5125
1903.46544	10674.3125
1906.58551	10685.1125
1909.70353	10680.2125
1912.81953	10635.3125
1915.93349	10621.3125
1919.04543	10619.9125
1922.15534	10583.1125
1925.26322	10587.1125
1928.36908	10569.4125
1931.47292	10547.3125
1934.57473	10507.5125
1937.67453	10486.7125
1940.77232	10466.5125
1943.86808	10434.7125
1946.96184	10378.2125
1950.05358	10411.4125
1953.14331	10358.1125
1956.23103	10336.5125
1959.31675	10286.3125
1962.40046	10271.7125
1965.48217	10246.2125
1968.56188	10220.1125
1971.63959	10201.6125
1974.7153	10163.9125
1977.78901	10114.6125
1980.86073	10066.6125
1983.93046	10032.9125
1986.99819	10026.3125
1990.06394	10005.2125
1993.1277	9978.5125
1996.18947	9960.4125
1999.24925	9909.9125
2002.30706	9859.4125
2005.36288	9838.1125
2008.41672	9844.3125
2011.46859	9808.8125
2014.51848	9779.0125
2017.56639	9750.6125
2020.61233	9738.2125
2023.6563	9713.5125
2026.6983	9708.6125
2029.73833	9704.1125
2032.7764	9670.0125
2035.8125	9661.4125
2038.84664	9638.8125
2041.87881	9667.6125
2044.90903	9625.2125
2047.93729	9625.5125
2050.96359	9619.2125
2053.98794	9637.1125
2057.01034	9611.8125
2060.03078	9581.0125
2063.04927	9571.3125
2066.06582	9571.6125
2069.08042	9607.7125
2072.09307	9561.1125
2075.10378	9540.3125
2078.11255	9570.8125
2081.11938	9529.2125
2084.12426	9537.7125
2087.12722	9518.3125
2090.12824	9528.7125
2093.12732	9532.9125
2096.12447	9528.7125
2099.11969	9556.0125
2102.11299	9547.4125
2105.10435	9536.5125
2108.09379	9531.6125
2111.08131	9524.9125
2114.0669	9528.4125
2117.05057	9569.0125
2120.03233	9532.5125
2123.01216	9575.1125
2125.99008	9552.2125
2128.96609	9601.4125
2131.94018	9609.9125
2134.91236	9610.7125
2137.88263	9598.0125
2140.851	9603.2125
2143.81746	9613.6125
2146.78201	9635.9125
2149.74466	9622.9125
2152.7054	9614.3125
2155.66425	9601.6125
2158.6212	9624.5125
2161.57625	9580.2125
2164.52941	9613.8125
2167.48067	9583.0125
2170.43004	9605.2125
2173.37752	9595.1125
2176.32311	9619.8125
2179.26681	9593.2125
2182.20863	9595.4125
2185.14856	9586.1125
2188.08661	9620.6125
2191.02278	9615.7125
2193.95707	9615.2125
2196.88948	9610.8125
2199.82001	9611.5125
2202.74867	9607.0125
2205.67545	9573.7125
2208.60037	9587.0125
2211.52341	9571.9125
2214.44458	9577.8125
2217.36388	9560.6125
2220.28132	9538.4125
2223.1969	9503.6125
2226.11061	9501.0125
2229.02246	9472.5125
2231.93245	9466.4125
2234.84058	9470.8125
2237.74686	9439.1125
2240.65128	9446.0125
2243.55385	9459.1125
2246.45456	9414.1125
2249.35343	9403.9125
2252.25044	9399.1125
2255.14561	9399.4125
2258.03893	9463.3125
2260.93041	9621.5125
2263.82004	9453.1125
2266.70783	9360.8125
2269.59378	9323.2125
2272.4779	9280.4125
2275.36017	9264.0125
2278.24061	9230.7125
2281.11922	9214.8125
2283.996	9194.3125
2286.87094	9217.6125
2289.74405	9181.4125
2292.61534	9189.7125
2295.4848	9210.2125
2298.35243	9187.8125
2301.21824	9195.0125
2304.08223	9208.3125
2306.94439	9206.7125
2309.80474	9205.7125
2312.66327	9242.7125
2315.51999	9224.4125
2318.37489	9198.6125
2321.22797	9199.6125
2324.07925	9199.8125
2326.92871	9202.2125
2329.77637	9191.6125
2332.62222	9170.0125
2335.46626	9182.7125
2338.3085	9208.7125
2341.14893	9213.9125
2343.98756	9225.6125
2346.8244	9200.1125
2349.65943	9184.8125
2352.49267	9180.9125
2355.32411	9171.3125
2358.15376	9171.1125
2360.98161	9148.0125
2363.80768	9115.4125
2366.63195	9133.2125
2369.45444	9125.0125
2372.27514	9107.0125
2375.09405	9087.3125
2377.91118	9060.9125
2380.72652	9042.3125
2383.54009	9018.4125
2386.35187	9026.0125
2389.16188	8962.5125
2391.97011	8977.8125
2394.77657	8984.1125
2397.58125	8948.2125
2400.38416	8944.4125
2403.18529	8933.4125
2405.98466	8921.4125
2408.78226	8912.4125
2411.57809	8887.8125
2414.37216	8921.1125
2417.16446	8914.8125
2419.955	8883.7125
2422.74378	8867.1125
2425.5308	8834.4125
2428.31606	8839.4125
2431.09956	8844.5125
2433.88131	8830.6125
2436.6613	8852.8125
2439.43954	8842.2125
2442.21603	8844.1125
2444.99077	8835.9125
2447.76377	8813.9125
2450.53501	8814.0125
2453.30451	8796.2125
2456.07226	8778.9125
2458.83827	8794.8125
2461.60254	8800.0125
2464.36507	8789.0125
2467.12586	8774.3125
2469.88492	8797.7125
2472.64224	8822.9125
2475.39782	8945.1125
2478.15167	9038.3125
2480.90379	8892.7125
2483.65417	8890.7125
2486.40283	8868.4125
2489.14976	8853.6125
2491.89497	8869.7125
2494.63845	9008.3125
2497.3802	9073.8125
2500.12024	8927.1125
2502.85855	8879.8125
2505.59514	8824.8125
2508.33002	8804.2125
2511.06318	8800.9125
2513.79462	8775.6125
2516.52435	8743.0125
2519.25237	8762.7125
2521.97867	8753.2125
2524.70327	8766.9125
2527.42616	8762.0125
2530.14734	8750.8125
2532.86681	8758.8125
2535.58458	8758.7125
2538.30065	8729.0125
2541.01501	8702.9125
2543.72768	8716.6125
2546.43864	8702.6125
2549.14791	8721.4125
2551.85548	8683.3125
2554.56136	8695.4125
2557.26554	8681.3125
2559.96803	8666.9125
2562.66883	8653.2125
2565.36794	8676.8125
2568.06536	8650.4125
2570.7611	8642.1125
2573.45514	8656.6125
2576.14751	8636.4125
2578.83819	8614.0125
2581.52719	8635.4125
2584.21451	8630.0125
2586.90015	8615.5125
2589.58411	8617.2125
2592.2664	8604.5125
2594.94701	8595.5125
2597.62594	8578.8125
2600.30321	8587.4125
2602.9788	8558.7125
2605.65273	8579.1125
2608.32498	8575.6125
2610.99557	8591.3125
2613.66449	8583.4125
2616.33175	8565.0125
2618.99734	8558.7125
2621.66128	8543.9125
2624.32355	8529.9125
2626.98416	8541.5125
2629.64311	8538.5125
2632.30041	8539.0125
2634.95605	8513.1125
2637.61004	8502.7125
2640.26238	8453.3125
2642.91306	8417.9125
2645.56209	8429.8125
2648.20948	8472.0125
2650.85521	8438.7125
2653.4993	8431.5125
2656.14175	8404.8125
2658.78255	8422.0125
2661.42171	8433.7125
2664.05923	8434.2125
2666.6951	8429.6125
2669.32934	8465.6125
2671.96194	8465.3125
2674.59291	8502.5125
2677.22224	8499.1125
2679.84993	8496.1125
2682.476	8471.8125
2685.10043	8471.2125
2687.72324	8444.9125
2690.34441	8440.9125
2692.96396	8429.5125
2695.58188	8460.9125
2698.19818	8449.5125
2700.81285	8480.0125
2703.4259	8774.9125
2706.03733	9457.5125
2708.64714	9043.2125
2711.25533	8735.0125
2713.86191	8634.0125
2716.46687	8605.7125
2719.07021	8562.4125
2721.67194	8519.5125
2724.27206	8477.4125
2726.87057	8517.3125
2729.46747	8516.1125
2732.06276	8512.2125
2734.65644	8503.5125
2737.24852	8491.0125
2739.83899	8481.4125
2742.42786	8494.4125
2745.01513	8485.2125
2747.60079	8472.7125
2750.18486	8483.9125
2752.76733	8469.6125
2755.3482	8462.6125
2757.92747	8442.4125
2760.50515	8436.4125
2763.08123	8441.9125
2765.65573	8460.9125
2768.22863	8457.7125
2770.79994	8456.5125
2773.36967	8474.4125
2775.9378	8455.6125
2778.50435	8460.2125
2781.06932	8444.6125
2783.6327	8455.8125
2786.1945	8465.3125
2788.75471	8454.3125
2791.31335	8444.7125
2793.87041	8449.8125
2796.42589	8404.9125
2798.97979	8419.3125
2801.53212	8384.7125
2804.08288	8397.0125
2806.63206	8381.9125
2809.17967	8343.8125
2811.72571	8344.9125
2814.27018	8321.5125
2816.81308	8324.6125
2819.35442	8322.4125
2821.89419	8296.3125
2824.43239	8316.5125
2826.96904	8307.5125
2829.50412	8308.9125
2832.03763	8306.8125
2834.56959	8276.1125
2837.1	8268.5125
2839.62884	8279.1125
2842.15613	8291.6125
2844.68186	8341.7125
2847.20604	8339.4125
2849.72867	8332.7125
2852.24974	8367.9125
2854.76927	8488.0125
2857.28724	8657.1125
2859.80367	8488.4125
2862.31855	8420.0125
2864.83189	8387.9125
2867.34368	8365.6125
2869.85393	8327.3125
2872.36264	8298.9125
2874.8698	8285.3125
2877.37543	8272.0125
2879.87952	8283.7125
2882.38207	8280.1125
2884.88308	8257.9125
2887.38256	8282.9125
2889.88051	8272.6125
2892.37692	8279.4125
2894.8718	8285.4125
2897.36515	8304.7125
2899.85698	8292.2125
2902.34727	8322.8125
2904.83604	8329.3125
2907.32328	8361.8125
2909.809	8349.4125
2912.29319	8326.9125
2914.77587	8335.0125
2917.25702	8348.6125
2919.73665	8341.8125
2922.21476	8304.4125
2924.69136	8307.6125
2927.16644	8314.0125
2929.64	8287.2125
2932.11205	8276.3125
2934.58258	8231.8125
2937.05161	8267.6125
2939.51912	8242.3125
2941.98513	8222.4125
2944.44962	8210.1125
2946.91261	8202.2125
2949.37409	8201.4125
2951.83407	8173.2125
2954.29254	8156.6125
2956.74951	8165.9125
2959.20498	8176.8125
2961.65895	8176.5125
2964.11142	8144.2125
2966.56239	8102.5125
2969.01186	8144.2125
2971.45984	8103.2125
2973.90632	8102.3125
2976.35131	8063.4125
2978.7948	8058.7125
2981.23681	8042.2125
2983.67732	8050.6125
2986.11635	8034.8125
2988.55388	8002.5125
2990.98993	7986.2125
2993.4245	7980.8125
2995.85758	7947.0125
2998.28917	7917.4125
3000.71928	7905.9125
3003.14791	7910.4125
3005.57506	7899.6125
3008.00073	7874.0125
3010.42493	7876.8125
3012.84764	7878.6125
3015.26888	7863.1125
3017.68865	7853.0125
3020.10694	7832.6125
3022.52376	7805.2125
3024.9391	7812.2125
3027.35298	7781.8125
3029.76539	7795.4125
3032.17632	7789.1125
3034.5858	7777.6125
3036.9938	7765.0125
3039.40034	7759.2125
3041.80542	7745.4125
3044.20903	7754.3125
3046.61118	7747.0125
3049.01187	7731.8125
3051.4111	7746.1125
3053.80888	7703.5125
3056.20519	7712.5125
3058.60005	7688.4125
3060.99345	7677.1125
3063.3854	7642.4125
3065.7759	7645.7125
3068.16494	7616.8125
3070.55254	7616.3125
