Data from AgNPs_FTO_APTES_UA_5uM_CRN_2uM_R6G_10uM_NaF_0.1M_Addition_RamanShift__7__11-05-06-619.txt Node

Date: Mon Feb 07 11:05:06 GMT 2022
User: TCL
Spectrometer: QEP01345
Trigger mode: 4
Integration Time (sec): 7.000000E0
Scans to average: 10
Electric dark correction enabled: true
Nonlinearity correction enabled: false
Boxcar width: 0
XAxis mode: Raman Shifts
Number of Pixels in Spectrum: 1044
>>>>>Begin Spectral Data<<<<<
46.04893	-1.375
50.45542	-1.975
54.85868	1.425
59.25871	-0.675
63.6555	101.325
68.04907	110.125
72.43941	117.425
76.82654	119.325
81.21044	122.825
85.59113	127.925
89.96862	135.625
94.34289	137.425
98.71396	139.625
103.08183	143.325
107.4465	149.325
111.80798	150.725
116.16626	158.025
120.52136	164.625
124.87327	171.725
129.222	182.525
133.56755	197.025
137.90993	215.125
142.24913	237.525
146.58517	273.725
150.91804	319.625
155.24774	387.225
159.57429	485.525
163.89768	627.925
168.21792	846.225
172.53501	1155.725
176.84895	1608.425
181.15975	2265.425
185.46741	3176.625
189.77193	4383.525
194.07331	5846.625
198.37157	7532.125
202.6667	9296.725
206.9587	11040.625
211.24758	12731.925
215.53334	14490.225
219.81599	16332.625
224.09553	18407.225
228.37195	20673.625
232.64527	23048.325
236.91549	25622.725
241.18261	28200.325
245.44663	30466.325
249.70755	32526.825
253.96539	34367.425
258.22014	35830.625
262.4718	37052.825
266.72039	37855.625
270.96589	38246.525
275.20832	38260.125
279.44768	37931.125
283.68397	37583.225
287.91719	37277.825
292.14735	37078.425
296.37445	37036.125
300.59849	37089.725
304.81948	37363.625
309.03742	37470.525
313.25231	37360.425
317.46415	36915.025
321.67296	36214.825
325.87872	35525.425
330.08145	35160.625
334.28114	35016.025
338.47781	35141.925
342.67145	35503.525
346.86207	36062.025
351.04966	36715.225
355.23424	37437.825
359.4158	38088.725
363.59435	38641.525
367.76989	38985.325
371.94243	39121.325
376.11196	39072.225
380.27849	39070.025
384.44203	39112.325
388.60257	39437.725
392.76012	39993.925
396.91468	40679.825
401.06626	41407.225
405.21485	41861.825
409.36047	41758.225
413.50311	41401.625
417.64277	41572.725
421.77947	42104.425
425.9132	42517.025
430.04396	42720.825
434.17176	42867.625
438.2966	42843.325
442.41849	43247.025
446.53742	44407.425
450.6534	45685.725
454.76644	46497.225
458.87653	46636.025
462.98368	46188.425
467.08789	45340.025
471.18916	44402.925
475.2875	43384.425
479.38291	42914.025
483.4754	42615.525
487.56496	42310.325
491.6516	41737.625
495.73531	41137.825
499.81612	40761.125
503.89401	41058.025
507.96899	41309.325
512.04106	41282.625
516.11023	40817.825
520.1765	40045.825
524.23987	39376.125
528.30034	38812.525
532.35792	38321.325
536.41261	37751.725
540.46441	37240.925
544.51333	37110.925
548.55936	37504.525
552.60252	38406.125
556.64279	39639.325
560.6802	40652.025
564.71473	41280.725
568.7464	42314.825
572.7752	44174.925
576.80114	46681.925
580.82422	49494.725
584.84444	53185.725
588.86181	58095.625
592.87633	62216.525
596.888	61230.825
600.89682	55430.525
604.9028	51418.925
608.90594	52347.625
612.90624	54328.125
616.90371	50443.125
620.89834	42706.625
624.89015	39305.525
628.87913	39100.925
632.86528	39485.525
636.84862	39197.825
640.82913	38133.625
644.80683	36826.425
648.78172	36260.925
652.75379	36439.725
656.72306	36953.525
660.68952	37362.725
664.65319	36918.725
668.61405	36164.725
672.57211	36050.125
676.52738	36326.625
680.47986	36273.925
684.42955	35863.625
688.37646	35574.625
692.32058	35971.225
696.26192	36842.225
700.20048	37686.725
704.13626	38138.625
708.06928	38287.725
711.99952	38253.225
715.927	38296.225
719.85171	38466.125
723.77365	38139.125
727.69284	37146.325
731.60928	36304.425
735.52295	35942.825
739.43388	35906.925
743.34206	36095.525
747.24749	36485.525
751.15017	37056.225
755.05012	37952.225
758.94733	39289.425
762.8418	41279.225
766.73354	44045.725
770.62254	46360.025
774.50882	46112.925
778.39237	43645.225
782.27321	40739.025
786.15132	38388.525
790.02671	36924.625
793.89938	36134.525
797.76935	35898.225
801.6366	35824.325
805.50115	35840.425
809.36299	35669.525
813.22213	35303.925
817.07857	35026.925
820.93231	34671.325
824.78336	34392.425
828.63172	34078.025
832.47738	33983.825
836.32036	34004.825
840.16066	34007.525
843.99827	34101.625
847.8332	34117.225
851.66546	34101.425
855.49504	34223.325
859.32195	34123.925
863.1462	34019.525
866.96777	33906.725
870.78668	33823.325
874.60293	33786.225
878.41652	33798.225
882.22745	33923.225
886.03573	34020.325
889.84136	34025.125
893.64433	33856.325
897.44466	33728.025
901.24235	33608.625
905.0374	33514.925
908.8298	33473.025
912.61957	33584.725
916.40671	34032.225
920.19121	34779.925
923.97308	35520.125
927.75233	35744.425
931.52895	35180.225
935.30295	34202.325
939.07433	33279.225
942.84309	32664.625
946.60924	32340.825
950.37278	32294.625
954.13371	32343.125
957.89203	32356.425
961.64774	32379.125
965.40086	32440.225
969.15137	32471.025
972.89929	32239.925
976.64461	32073.925
980.38733	32016.425
984.12747	32120.425
987.86502	32209.225
991.59999	32483.125
995.33237	32891.225
999.06217	33629.325
1002.78939	34600.925
1006.51404	35739.825
1010.23611	36669.625
1013.95561	37241.825
1017.67255	37253.225
1021.38692	36599.825
1025.09872	35624.925
1028.80796	35108.325
1032.51465	35288.425
1036.21877	35804.525
1039.92035	36060.425
1043.61937	36062.425
1047.31584	35729.625
1051.00976	35465.025
1054.70114	35338.125
1058.38998	35534.425
1062.07627	35832.225
1065.76003	36387.925
1069.44126	37103.425
1073.11995	38018.125
1076.79611	38854.225
1080.46974	39120.125
1084.14085	39439.625
1087.80943	40080.025
1091.47549	40666.725
1095.13903	40860.225
1098.80005	40074.325
1102.45857	38592.925
1106.11456	37415.625
1109.76805	36825.925
1113.41903	36681.825
1117.06751	36792.325
1120.71348	37096.825
1124.35696	37594.525
1127.99793	38088.225
1131.63641	38516.325
1135.2724	38619.725
1138.90589	38747.125
1142.5369	39146.825
1146.16542	39761.925
1149.79145	40375.125
1153.415	40998.125
1157.03607	41989.725
1160.65467	43941.425
1164.27079	47030.025
1167.88443	50387.325
1171.49561	53250.225
1175.10432	56446.125
1178.71056	60718.225
1182.31434	64795.125
1185.91565	66514.925
1189.51451	65502.125
1193.11091	63379.725
1196.70485	60973.525
1200.29634	58929.025
1203.88538	57942.225
1207.47197	58250.025
1211.05612	58585.625
1214.63782	57702.925
1218.21708	55557.225
1221.79391	53016.125
1225.36829	51143.725
1228.94024	50020.625
1232.50976	48948.825
1236.07685	47903.425
1239.6415	47174.725
1243.20374	47034.825
1246.76355	47438.025
1250.32093	48473.125
1253.8759	49862.625
1257.42845	51537.025
1260.97859	53502.625
1264.52631	55515.425
1268.07163	57565.525
1271.61453	59710.325
1275.15503	62000.025
1278.69312	64640.625
1282.22882	67677.725
1285.76211	71361.925
1289.29301	75550.425
1292.82151	80200.425
1296.34761	85645.325
1299.87133	92188.725
1303.39266	98596.825
1306.9116	103616.725
1310.42815	106315.325
1313.94233	106722.225
1317.45412	104757.525
1320.96354	102164.825
1324.47058	100516.425
1327.97525	99921.525
1331.47754	99811.525
1334.97747	98830.825
1338.47502	96624.225
1341.97022	93495.125
1345.46305	90312.925
1348.95352	87864.825
1352.44163	87577.525
1355.92738	90167.625
1359.41078	95312.625
1362.89183	99432.125
1366.37053	99289.425
1369.84688	92373.725
1373.32088	81097.325
1376.79254	72628.925
1380.26186	69986.225
1383.72883	70775.125
1387.19347	71267.625
1390.65578	70261.525
1394.11575	69813.825
1397.57339	71126.625
1401.0287	73567.325
1404.48168	75592.725
1407.93234	75858.425
1411.38068	73656.725
1414.82669	69980.625
1418.27039	65858.025
1421.71177	62141.025
1425.15083	59228.425
1428.58758	58264.125
1432.02203	59405.525
1435.45416	62128.625
1438.88399	64936.025
1442.31151	66858.225
1445.73673	67659.125
1449.15965	67900.825
1452.58027	67483.725
1455.9986	66757.225
1459.41463	66867.825
1462.82837	67918.825
1466.23982	69662.525
1469.64898	71354.025
1473.05586	72384.925
1476.46045	72528.125
1479.86276	71780.525
1483.26279	70877.825
1486.66054	70357.225
1490.05602	70525.225
1493.44922	71041.925
1496.84016	71539.925
1500.22882	71981.325
1503.61521	72423.525
1506.99934	73271.425
1510.38121	73842.125
1513.76081	73852.025
1517.13816	73336.225
1520.51324	72812.325
1523.88607	73310.525
1527.25665	74442.225
1530.62498	75336.825
1533.99105	75049.825
1537.35488	73479.425
1540.71647	70800.425
1544.07581	67792.625
1547.4329	64893.725
1550.78776	62395.325
1554.14038	60520.525
1557.49077	59419.925
1560.83892	58577.225
1564.18484	58118.725
1567.52853	57948.225
1570.86999	58579.125
1574.20922	60134.525
1577.54624	61760.025
1580.88103	63069.325
1584.2136	65193.825
1587.54395	69341.925
1590.87208	75457.225
1594.19801	82298.625
1597.52172	87510.125
1600.84321	87701.925
1604.16251	81255.625
1607.47959	71581.825
1610.79447	62283.725
1614.10715	54922.325
1617.41763	49607.625
1620.7259	46423.325
1624.03199	45139.425
1627.33587	45539.025
1630.63757	47790.225
1633.93707	52502.825
1637.23439	60495.125
1640.52951	72264.425
1643.82246	86699.725
1647.11321	97939.025
1650.40179	98921.125
1653.68819	87925.625
1656.97241	71817.025
1660.25446	57625.525
1663.53433	47818.225
1666.81203	41781.725
1670.08756	38095.225
1673.36092	35863.825
1676.63211	34468.125
1679.90115	33473.625
1683.16801	32713.225
1686.43272	32154.725
1689.69527	31735.725
1692.95567	31458.425
1696.2139	31239.025
1699.46999	31048.525
1702.72392	30889.225
1705.97571	30754.425
1709.22535	30639.925
1712.47284	30551.725
1715.71819	30458.925
1718.96139	30373.925
1722.20246	30229.625
1725.44139	30076.525
1728.67818	29802.825
1731.91284	29563.225
1735.14537	29325.225
1738.37576	29153.625
1741.60403	29047.025
1744.83017	28899.125
1748.05418	28774.925
1751.27607	28654.725
1754.49584	28588.425
1757.71349	28556.425
1760.92903	28516.825
1764.14244	28490.125
1767.35375	28497.025
1770.56294	28416.725
1773.77002	28334.125
1776.97499	28220.825
1780.17785	28143.625
1783.37861	28088.525
1786.57727	28028.025
1789.77382	27972.025
1792.96828	27907.925
1796.16064	27866.725
1799.3509	27806.425
1802.53907	27721.625
1805.72514	27621.225
1808.90913	27527.125
1812.09102	27499.225
1815.27083	27410.125
1818.44856	27380.025
1821.6242	27359.825
1824.79776	27336.425
1827.96924	27293.925
1831.13864	27309.625
1834.30597	27312.525
1837.47122	27292.525
1840.6344	27273.125
1843.7955	27327.425
1846.95454	27344.525
1850.11151	27332.125
1853.26642	27249.025
1856.41926	27256.025
1859.57004	27282.025
1862.71876	27204.425
1865.86542	27139.625
1869.01003	27077.425
1872.15258	27079.425
1875.29308	26985.125
1878.43152	26971.925
1881.56792	26953.725
1884.70227	26953.025
1887.83457	26921.325
1890.96482	26857.425
1894.09304	26862.525
1897.21921	26833.225
1900.34335	26745.425
1903.46544	26689.025
1906.58551	26697.125
1909.70353	26603.625
1912.81953	26533.325
1915.93349	26520.725
1919.04543	26463.725
1922.15534	26332.325
1925.26322	26268.725
1928.36908	26188.825
1931.47292	26129.025
1934.57473	26005.825
1937.67453	25978.725
1940.77232	25856.225
1943.86808	25794.125
1946.96184	25733.325
1950.05358	25668.125
1953.14331	25627.425
1956.23103	25547.425
1959.31675	25473.025
1962.40046	25351.425
1965.48217	25266.425
1968.56188	25243.525
1971.63959	25123.225
1974.7153	25033.425
1977.78901	24923.225
1980.86073	24802.825
1983.93046	24747.725
1986.99819	24689.725
1990.06394	24624.425
1993.1277	24588.625
1996.18947	24504.325
1999.24925	24442.625
2002.30706	24337.225
2005.36288	24269.825
2008.41672	24171.525
2011.46859	24082.325
2014.51848	24065.825
2017.56639	23969.125
2020.61233	23933.525
2023.6563	23897.625
2026.6983	23836.625
2029.73833	23812.325
2032.7764	23730.425
2035.8125	23749.925
2038.84664	23650.725
2041.87881	23603.625
2044.90903	23593.825
2047.93729	23536.225
2050.96359	23543.325
2053.98794	23467.425
2057.01034	23476.325
2060.03078	23464.725
2063.04927	23493.825
2066.06582	23471.025
2069.08042	23394.225
2072.09307	23372.025
2075.10378	23307.225
2078.11255	23315.225
2081.11938	23298.125
2084.12426	23276.025
2087.12722	23218.025
2090.12824	23272.625
2093.12732	23234.625
2096.12447	23263.925
2099.11969	23302.425
2102.11299	23280.725
2105.10435	23208.825
2108.09379	23239.725
2111.08131	23253.925
2114.0669	23217.025
2117.05057	23253.525
2120.03233	23258.725
2123.01216	23287.325
2125.99008	23314.625
2128.96609	23302.725
2131.94018	23324.225
2134.91236	23312.325
2137.88263	23337.025
2140.851	23318.425
2143.81746	23303.825
2146.78201	23288.125
2149.74466	23256.425
2152.7054	23212.725
2155.66425	23224.925
2158.6212	23213.025
2161.57625	23179.125
2164.52941	23145.525
2167.48067	23169.325
2170.43004	23194.625
2173.37752	23186.825
2176.32311	23173.325
2179.26681	23135.725
2182.20863	23162.825
2185.14856	23196.425
2188.08661	23173.725
2191.02278	23179.525
2193.95707	23191.025
2196.88948	23132.725
2199.82001	23085.225
2202.74867	23032.925
2205.67545	23019.025
2208.60037	22979.525
2211.52341	22945.525
2214.44458	22917.725
2217.36388	22902.025
2220.28132	22852.025
2223.1969	22800.225
2226.11061	22806.625
2229.02246	22783.225
2231.93245	22812.525
2234.84058	22790.025
2237.74686	22726.025
2240.65128	22723.025
2243.55385	22704.725
2246.45456	22620.525
2249.35343	22552.025
2252.25044	22470.325
2255.14561	22375.625
2258.03893	22330.225
2260.93041	22234.025
2263.82004	22177.225
2266.70783	22134.825
2269.59378	22053.025
2272.4779	22002.625
2275.36017	21935.825
2278.24061	21923.425
2281.11922	21862.225
2283.996	21860.925
2286.87094	21836.025
2289.74405	21793.425
2292.61534	21803.025
2295.4848	21790.025
2298.35243	21766.925
2301.21824	21796.625
2304.08223	21752.125
2306.94439	21763.825
2309.80474	21826.125
2312.66327	21796.125
2315.51999	21778.525
2318.37489	21724.725
2321.22797	21657.625
2324.07925	21686.525
2326.92871	21633.125
2329.77637	21605.925
2332.62222	21579.225
2335.46626	21615.725
2338.3085	21570.225
2341.14893	21612.025
2343.98756	21606.325
2346.8244	21613.925
2349.65943	21610.925
2352.49267	21586.825
2355.32411	21608.425
2358.15376	21549.425
2360.98161	21528.525
2363.80768	21519.425
2366.63195	21566.025
2369.45444	21546.525
2372.27514	21501.225
2375.09405	21477.725
2377.91118	21380.725
2380.72652	21345.225
2383.54009	21270.425
2386.35187	21244.925
2389.16188	21191.225
2391.97011	21148.625
2394.77657	21130.825
2397.58125	21117.025
2400.38416	21061.925
2403.18529	21077.725
2405.98466	21031.725
2408.78226	20973.425
2411.57809	20979.425
2414.37216	20939.825
2417.16446	20985.925
2419.955	20991.625
2422.74378	20961.825
2425.5308	20884.925
2428.31606	20936.425
2431.09956	20882.225
2433.88131	20879.625
2436.6613	20908.225
2439.43954	20900.225
2442.21603	20934.725
2444.99077	20864.225
2447.76377	20897.325
2450.53501	20837.325
2453.30451	20819.425
2456.07226	20806.925
2458.83827	20846.625
2461.60254	20833.325
2464.36507	20817.725
2467.12586	20821.525
2469.88492	20798.825
2472.64224	20842.525
2475.39782	20883.725
2478.15167	20896.325
2480.90379	20853.625
2483.65417	20911.225
2486.40283	20893.125
2489.14976	20919.125
2491.89497	20909.925
2494.63845	20901.525
2497.3802	20909.725
2500.12024	20925.425
2502.85855	20889.525
2505.59514	20841.125
2508.33002	20849.425
2511.06318	20860.425
2513.79462	20824.025
2516.52435	20781.625
2519.25237	20842.525
2521.97867	20782.025
2524.70327	20814.025
2527.42616	20771.625
2530.14734	20779.025
2532.86681	20770.925
2535.58458	20791.525
2538.30065	20775.825
2541.01501	20800.425
2543.72768	20736.925
2546.43864	20760.125
2549.14791	20726.025
2551.85548	20709.125
2554.56136	20694.125
2557.26554	20665.825
2559.96803	20667.825
2562.66883	20674.025
2565.36794	20637.725
2568.06536	20620.525
2570.7611	20668.125
2573.45514	20665.025
2576.14751	20639.525
2578.83819	20615.025
2581.52719	20625.625
2584.21451	20626.625
2586.90015	20609.525
2589.58411	20627.825
2592.2664	20592.025
2594.94701	20568.625
2597.62594	20578.225
2600.30321	20535.625
2602.9788	20579.825
2605.65273	20563.325
2608.32498	20634.125
2610.99557	20605.525
2613.66449	20643.325
2616.33175	20579.725
2618.99734	20601.525
2621.66128	20589.025
2624.32355	20522.925
2626.98416	20545.525
2629.64311	20522.925
2632.30041	20521.125
2634.95605	20533.825
2637.61004	20506.725
2640.26238	20468.625
2642.91306	20460.825
2645.56209	20460.225
2648.20948	20479.025
2650.85521	20554.325
2653.4993	20574.125
2656.14175	20528.625
2658.78255	20577.225
2661.42171	20597.525
2664.05923	20626.225
2666.6951	20629.825
2669.32934	20675.025
2671.96194	20679.325
2674.59291	20658.125
2677.22224	20674.125
2679.84993	20663.025
2682.476	20653.825
2685.10043	20638.025
2687.72324	20605.825
2690.34441	20584.625
2692.96396	20608.525
2695.58188	20633.925
2698.19818	20592.125
2700.81285	20621.525
2703.4259	20628.625
2706.03733	20649.125
2708.64714	20648.725
2711.25533	20648.125
2713.86191	20681.125
2716.46687	20682.325
2719.07021	20691.925
2721.67194	20762.325
2724.27206	20735.125
2726.87057	20816.125
2729.46747	20840.125
2732.06276	20837.325
2734.65644	20829.225
2737.24852	20864.525
2739.83899	20811.125
2742.42786	20785.025
2745.01513	20805.325
2747.60079	20805.325
2750.18486	20801.225
2752.76733	20774.625
2755.3482	20726.225
2757.92747	20774.725
2760.50515	20741.425
2763.08123	20755.825
2765.65573	20727.225
2768.22863	20738.425
2770.79994	20749.225
2773.36967	20761.525
2775.9378	20809.825
2778.50435	20786.925
2781.06932	20775.125
2783.6327	20786.225
2786.1945	20788.525
2788.75471	20805.725
2791.31335	20771.425
2793.87041	20713.025
2796.42589	20667.425
2798.97979	20740.625
2801.53212	20687.925
2804.08288	20629.625
2806.63206	20526.125
2809.17967	20565.925
2811.72571	20524.325
2814.27018	20498.225
2816.81308	20411.925
2819.35442	20379.625
2821.89419	20331.225
2824.43239	20375.725
2826.96904	20338.525
2829.50412	20323.925
2832.03763	20274.925
2834.56959	20254.125
2837.1	20228.925
2839.62884	20229.625
2842.15613	20237.325
2844.68186	20322.025
2847.20604	20299.525
2849.72867	20286.625
2852.24974	20295.725
2854.76927	20297.625
2857.28724	20273.425
2859.80367	20248.525
2862.31855	20220.625
2864.83189	20176.425
2867.34368	20121.025
2869.85393	20125.425
2872.36264	20083.025
2874.8698	20053.925
2877.37543	20042.325
2879.87952	20063.325
2882.38207	20009.325
2884.88308	20048.825
2887.38256	20039.825
2889.88051	20065.325
2892.37692	20099.125
2894.8718	20108.025
2897.36515	20087.325
2899.85698	20127.825
2902.34727	20141.325
2904.83604	20165.225
2907.32328	20213.025
2909.809	20224.125
2912.29319	20198.725
2914.77587	20230.525
2917.25702	20175.025
2919.73665	20176.825
2922.21476	20180.425
2924.69136	20159.725
2927.16644	20149.225
2929.64	20121.925
2932.11205	20104.825
2934.58258	20049.125
2937.05161	20070.125
2939.51912	20102.825
2941.98513	20043.325
2944.44962	20018.425
2946.91261	19932.025
2949.37409	19965.825
2951.83407	19936.825
2954.29254	19921.125
2956.74951	19914.525
2959.20498	19862.925
2961.65895	19866.725
2964.11142	19829.725
2966.56239	19790.025
2969.01186	19768.925
2971.45984	19725.725
2973.90632	19716.125
2976.35131	19604.825
2978.7948	19552.125
2981.23681	19480.125
2983.67732	19532.225
2986.11635	19433.125
2988.55388	19367.025
2990.98993	19297.025
2993.4245	19214.325
2995.85758	19158.225
2998.28917	19128.025
3000.71928	19134.425
3003.14791	19071.725
3005.57506	19062.925
3008.00073	18985.325
3010.42493	18972.725
3012.84764	18927.625
3015.26888	18924.025
3017.68865	18837.925
3020.10694	18839.925
3022.52376	18747.225
3024.9391	18716.425
3027.35298	18676.825
3029.76539	18676.925
3032.17632	18681.225
3034.5858	18657.825
3036.9938	18637.125
3039.40034	18620.025
3041.80542	18651.825
3044.20903	18564.025
3046.61118	18598.925
3049.01187	18547.425
3051.4111	18533.925
3053.80888	18446.625
3056.20519	18415.525
3058.60005	18390.625
3060.99345	18341.925
3063.3854	18278.025
3065.7759	18187.125
3068.16494	18122.225
3070.55254	18057.225
3072.93868	18010.225
3075.32338	17973.425
3077.70662	17890.625
3080.08842	17853.325
3082.46878	17813.825
3084.84769	17789.825
3087.22515	17727.225
3089.60118	17738.225
3091.97576	17722.625
3094.3489	17714.525
3096.72061	17708.025
3099.09087	17697.625
3101.4597	17684.525
3103.82709	17653.225
3106.19305	17599.525
3108.55757	17554.425
3110.92066	17514.525
3113.28232	17504.425
3115.64255	17421.625
3118.00134	17393.225
3120.35871	17370.725
3122.71466	17331.125
3125.06917	17270.625
