Data from AgNPs_FTO_APTES_UA_5uM_CRN_0uM_R6G_10uM_NaF_0.1M_Addition_RamanShift__13__09-53-56-536.txt Node

Date: Mon Feb 07 09:53:56 GMT 2022
User: TCL
Spectrometer: QEP01345
Trigger mode: 4
Integration Time (sec): 7.000000E0
Scans to average: 10
Electric dark correction enabled: true
Nonlinearity correction enabled: false
Boxcar width: 0
XAxis mode: Raman Shifts
Number of Pixels in Spectrum: 1044
>>>>>Begin Spectral Data<<<<<
46.04893	-0.6
50.45542	-0.9
54.85868	-1.3
59.25871	1.2
63.6555	80.2
68.04907	87
72.43941	91.8
76.82654	91
81.21044	96
85.59113	102.1
89.96862	104.8
94.34289	105.7
98.71396	109.3
103.08183	111.7
107.4465	116.1
111.80798	120.7
116.16626	124.9
120.52136	132.2
124.87327	139.7
129.222	147.8
133.56755	158.1
137.90993	179.1
142.24913	196.1
146.58517	226
150.91804	270.6
155.24774	327
159.57429	414.4
163.89768	545.1
168.21792	725.8
172.53501	994
176.84895	1398.6
181.15975	1968.1
185.46741	2769.1
189.77193	3822.6
194.07331	5131
198.37157	6637.2
202.6667	8195.6
206.9587	9799
211.24758	11334.7
215.53334	12857.8
219.81599	14493.6
224.09553	16332.2
228.37195	18293.7
232.64527	20528.3
236.91549	22913.8
241.18261	25266.1
245.44663	27432.8
249.70755	29516.7
253.96539	31261.5
258.22014	32808.1
262.4718	33910.6
266.72039	34606.7
270.96589	34972.4
275.20832	35000.7
279.44768	34764.7
283.68397	34446.4
287.91719	34144.6
292.14735	33922.3
296.37445	33667.1
300.59849	33555.6
304.81948	33576.8
309.03742	33528.2
313.25231	33277.9
317.46415	32701
321.67296	31702.1
325.87872	30752.8
330.08145	30143.8
334.28114	29933.9
338.47781	30101.1
342.67145	30362.4
346.86207	30706.5
351.04966	31120.5
355.23424	31588.2
359.4158	32069.8
363.59435	32393.5
367.76989	32573.3
371.94243	32643.8
376.11196	32584.5
380.27849	32432.5
384.44203	32318
388.60257	32347.1
392.76012	32723.4
396.91468	33320.9
401.06626	34062.3
405.21485	34521.4
409.36047	34362.1
413.50311	33832.8
417.64277	33404.2
421.77947	33354
425.9132	33396.9
430.04396	33522.8
434.17176	33514.2
438.2966	33457
442.41849	33574.1
446.53742	33993.2
450.6534	34612.1
454.76644	35203
458.87653	35544.4
462.98368	35707.7
467.08789	35781.7
471.18916	35706.7
475.2875	35550.4
479.38291	35599.4
483.4754	35838.2
487.56496	35995.4
491.6516	35870.7
495.73531	35423.6
499.81612	35056.6
503.89401	34933.4
507.96899	34910
512.04106	34735.6
516.11023	34367.9
520.1765	33700.3
524.23987	33141.1
528.30034	32621.3
532.35792	32178.4
536.41261	31818
540.46441	31569.4
544.51333	31648.7
548.55936	32176.2
552.60252	33042.8
556.64279	33928.3
560.6802	34468.9
564.71473	34892.3
568.7464	35857.2
572.7752	37426.9
576.80114	39418.9
580.82422	41260.1
584.84444	42597.2
588.86181	43611.9
592.87633	44242
596.888	43666.8
600.89682	41784.1
604.9028	41025.6
608.90594	42769.6
612.90624	44816.9
616.90371	41972.3
620.89834	36023.1
624.89015	33379.4
628.87913	33246.9
632.86528	33884.1
636.84862	34189.6
640.82913	33595.3
644.80683	32432.4
648.78172	31536.4
652.75379	31251.5
656.72306	31432.1
660.68952	31820.6
664.65319	31907.8
668.61405	31602.9
672.57211	31526.9
676.52738	31529.1
680.47986	31438.1
684.42955	31167.8
688.37646	30997.2
692.32058	31106
696.26192	31474.7
700.20048	31888.8
704.13626	32289.6
708.06928	32720.8
711.99952	32804.9
715.927	32566.4
719.85171	32343.8
723.77365	31982.2
727.69284	31477.6
731.60928	30914.9
735.52295	30604.1
739.43388	30486.1
743.34206	30566.4
747.24749	30761.9
751.15017	31275.3
755.05012	31956.3
758.94733	33069.7
762.8418	34882.4
766.73354	37540.1
770.62254	39847.3
774.50882	39750.9
778.39237	37610.8
782.27321	35113.3
786.15132	33150.5
790.02671	31808.8
793.89938	30958.3
797.76935	30566.1
801.6366	30332.2
805.50115	30191.5
809.36299	30085
813.22213	29967.1
817.07857	29997.6
820.93231	30001.7
824.78336	29910.1
828.63172	29714.9
832.47738	29542.7
836.32036	29510.8
840.16066	29482.6
843.99827	29447.1
847.8332	29489.2
851.66546	29529.8
855.49504	29587.5
859.32195	29598
863.1462	29548
866.96777	29506.8
870.78668	29496.7
874.60293	29466
878.41652	29408.2
882.22745	29451.7
886.03573	29499.9
889.84136	29569.5
893.64433	29597.2
897.44466	29648.5
901.24235	29775
905.0374	29773
908.8298	29761.9
912.61957	29816.6
916.40671	30221.4
920.19121	30811.9
923.97308	31446.2
927.75233	31556.1
931.52895	31060.9
935.30295	30332.8
939.07433	29538
942.84309	28891.2
946.60924	28436
950.37278	28204.5
954.13371	28199.9
957.89203	28179.2
961.64774	28212.9
965.40086	28206.9
969.15137	28189.4
972.89929	28033.7
976.64461	27808.6
980.38733	27576.9
984.12747	27448.7
987.86502	27560.2
991.59999	27561.9
995.33237	27707.5
999.06217	27854.9
1002.78939	28150.5
1006.51404	28524.7
1010.23611	28915.5
1013.95561	29278.1
1017.67255	29359.4
1021.38692	29212.2
1025.09872	28951.3
1028.80796	28677.3
1032.51465	28458.8
1036.21877	28567.3
1039.92035	28697.6
1043.61937	28932.4
1047.31584	29130.4
1051.00976	29329.3
1054.70114	29628.5
1058.38998	29911.4
1062.07627	30200.8
1065.76003	30739.7
1069.44126	31412.1
1073.11995	32218.3
1076.79611	33023.6
1080.46974	33255.3
1084.14085	33210.6
1087.80943	33486.5
1091.47549	33986.2
1095.13903	34375.4
1098.80005	34182.1
1102.45857	33032.3
1106.11456	31763.2
1109.76805	30738.9
1113.41903	30260.3
1117.06751	30127.2
1120.71348	30264.6
1124.35696	30594.2
1127.99793	30994.1
1131.63641	31424.5
1135.2724	31573.4
1138.90589	31529.3
1142.5369	31603.9
1146.16542	31724.5
1149.79145	32057
1153.415	32490.5
1157.03607	33145.9
1160.65467	34040.2
1164.27079	35310.3
1167.88443	37092.6
1171.49561	39130.2
1175.10432	41710.7
1178.71056	44663.4
1182.31434	47332.1
1185.91565	49022.4
1189.51451	49513.4
1193.11091	48920
1196.70485	47220.5
1200.29634	45146.2
1203.88538	43564.9
1207.47197	42882.8
1211.05612	42589.4
1214.63782	42028.3
1218.21708	40815.7
1221.79391	39239.3
1225.36829	37881.3
1228.94024	37036.8
1232.50976	36539.1
1236.07685	36232.6
1239.6415	36101
1243.20374	36049.3
1246.76355	36193.9
1250.32093	36527.1
1253.8759	37195.8
1257.42845	38445.4
1260.97859	39787.8
1264.52631	41223.6
1268.07163	42604.7
1271.61453	43970.7
1275.15503	45404.9
1278.69312	47135.7
1282.22882	48989.3
1285.76211	51026.4
1289.29301	53137.4
1292.82151	55348.4
1296.34761	57839.7
1299.87133	60656.1
1303.39266	63329.8
1306.9116	65545
1310.42815	66959.4
1313.94233	67468.7
1317.45412	67285.8
1320.96354	67255.6
1324.47058	67924.2
1327.97525	68706.7
1331.47754	69162.2
1334.97747	68837.1
1338.47502	68020.6
1341.97022	67227.3
1345.46305	66445.7
1348.95352	65328.3
1352.44163	63574.8
1355.92738	62213.6
1359.41078	62124.7
1362.89183	63096.1
1366.37053	63200.2
1369.84688	60679.7
1373.32088	56221.6
1376.79254	52120
1380.26186	49731.4
1383.72883	48817.4
1387.19347	48520.4
1390.65578	48289.7
1394.11575	48136.2
1397.57339	48269.6
1401.0287	48642.6
1404.48168	48520.9
1407.93234	47619.8
1411.38068	45871
1414.82669	43653
1418.27039	41425
1421.71177	39428.3
1425.15083	38023.3
1428.58758	37381.7
1432.02203	37502.4
1435.45416	38344.7
1438.88399	39300.5
1442.31151	40257.7
1445.73673	41083.5
1449.15965	42055.2
1452.58027	42859.9
1455.9986	43339.8
1459.41463	43828.9
1462.82837	44500.1
1466.23982	45280.9
1469.64898	45942.5
1473.05586	46093
1476.46045	45954.3
1479.86276	45709.4
1483.26279	45727.6
1486.66054	46049.8
1490.05602	46840.8
1493.44922	47999.1
1496.84016	49721.7
1500.22882	51748.1
1503.61521	53959.1
1506.99934	56159.5
1510.38121	57838.8
1513.76081	58627.3
1517.13816	58269.5
1520.51324	57475.7
1523.88607	56691
1527.25665	56043.9
1530.62498	55310.4
1533.99105	54239.9
1537.35488	52742.4
1540.71647	50659.6
1544.07581	48460.9
1547.4329	46377.7
1550.78776	44852.9
1554.14038	43911.7
1557.49077	43553.5
1560.83892	43637.6
1564.18484	43766.6
1567.52853	43897.5
1570.86999	44087.3
1574.20922	44629.9
1577.54624	45268.4
1580.88103	45487.2
1584.2136	45812.2
1587.54395	46721.4
1590.87208	48416.7
1594.19801	50185.6
1597.52172	51454.3
1600.84321	50765.5
1604.16251	47795.5
1607.47959	44240.8
1610.79447	40942.2
1614.10715	37740.4
1617.41763	35125.3
1620.7259	33266.3
1624.03199	32281.8
1627.33587	32227
1630.63757	33124.2
1633.93707	35203.3
1637.23439	38843.3
1640.52951	44392.4
1643.82246	51358.5
1647.11321	57870
1650.40179	60871.4
1653.68819	58437.6
1656.97241	51650.8
1660.25446	43597.9
1663.53433	36891.2
1666.81203	32267.8
1670.08756	29404.3
1673.36092	27683
1676.63211	26545.1
1679.90115	25898.3
1683.16801	25299.5
1686.43272	24879.6
1689.69527	24575.9
1692.95567	24378.8
1696.2139	24157.5
1699.46999	24028.3
1702.72392	23861.4
1705.97571	23806.7
1709.22535	23687.8
1712.47284	23609.6
1715.71819	23508
1718.96139	23394.3
1722.20246	23297.1
1725.44139	23165.4
1728.67818	22990
1731.91284	22834.3
1735.14537	22658.3
1738.37576	22544.5
1741.60403	22478.1
1744.83017	22357
1748.05418	22278
1751.27607	22236.5
1754.49584	22186.9
1757.71349	22131.7
1760.92903	22083.1
1764.14244	22065.6
1767.35375	22058.5
1770.56294	21977
1773.77002	21889.5
1776.97499	21852.6
1780.17785	21800.9
1783.37861	21734.5
1786.57727	21677.9
1789.77382	21607.9
1792.96828	21565.4
1796.16064	21518.9
1799.3509	21437.1
1802.53907	21383.2
1805.72514	21258.3
1808.90913	21259.3
1812.09102	21137.3
1815.27083	21072.2
1818.44856	21037.9
1821.6242	20997.9
1824.79776	20975.7
1827.96924	20918.9
1831.13864	20874.4
1834.30597	20895.3
1837.47122	20859.3
1840.6344	20829.7
1843.7955	20825.4
1846.95454	20852
1850.11151	20821.3
1853.26642	20793
1856.41926	20770.4
1859.57004	20801.1
1862.71876	20744.4
1865.86542	20719.5
1869.01003	20659.4
1872.15258	20583.2
1875.29308	20518.1
1878.43152	20445.4
1881.56792	20391.3
1884.70227	20315.1
1887.83457	20321.4
1890.96482	20313.7
1894.09304	20264.6
1897.21921	20210.1
1900.34335	20153.3
1903.46544	20094.9
1906.58551	20069.9
1909.70353	20029.2
1912.81953	19990
1915.93349	19947.7
1919.04543	19884.5
1922.15534	19842.2
1925.26322	19802.8
1928.36908	19736.2
1931.47292	19658.7
1934.57473	19587.4
1937.67453	19502.9
1940.77232	19418.6
1943.86808	19343
1946.96184	19277.1
1950.05358	19207.4
1953.14331	19179.7
1956.23103	19142.5
1959.31675	19066.1
1962.40046	19014.7
1965.48217	18942.3
1968.56188	18866.3
1971.63959	18803.6
1974.7153	18697.3
1977.78901	18639.2
1980.86073	18583.7
1983.93046	18484.2
1986.99819	18417.9
1990.06394	18364.3
1993.1277	18313.6
1996.18947	18221.4
1999.24925	18176.2
2002.30706	18096.2
2005.36288	18036.3
2008.41672	17957.6
2011.46859	17890.7
2014.51848	17819.7
2017.56639	17780.3
2020.61233	17723.6
2023.6563	17678.7
2026.6983	17616.6
2029.73833	17581.9
2032.7764	17520.4
2035.8125	17469.2
2038.84664	17404.5
2041.87881	17358.6
2044.90903	17351.3
2047.93729	17281.8
2050.96359	17286.3
2053.98794	17245.7
2057.01034	17260.6
2060.03078	17249.9
2063.04927	17194.9
2066.06582	17190.5
2069.08042	17195.6
2072.09307	17187
2075.10378	17156.3
2078.11255	17182.5
2081.11938	17160.6
2084.12426	17095.2
2087.12722	17090
2090.12824	17079.4
2093.12732	17095.2
2096.12447	17078.6
2099.11969	17050.7
2102.11299	17069.9
2105.10435	16994.1
2108.09379	16997
2111.08131	17010.7
2114.0669	17000.3
2117.05057	17003
2120.03233	17016.9
2123.01216	17018.7
2125.99008	17064.4
2128.96609	17045.7
2131.94018	17038.5
2134.91236	17007.5
2137.88263	16976
2140.851	16982
2143.81746	16982.7
2146.78201	16985.7
2149.74466	16957.2
2152.7054	16945.6
2155.66425	16911.8
2158.6212	16888.6
2161.57625	16863.3
2164.52941	16824.7
2167.48067	16813.1
2170.43004	16827.6
2173.37752	16791.6
2176.32311	16748.4
2179.26681	16721.6
2182.20863	16748.4
2185.14856	16745.7
2188.08661	16729.1
2191.02278	16664.7
2193.95707	16678.3
2196.88948	16621
2199.82001	16582.5
2202.74867	16552.5
2205.67545	16494.8
2208.60037	16488.4
2211.52341	16480.1
2214.44458	16478.5
2217.36388	16404.8
2220.28132	16378.6
2223.1969	16346.1
2226.11061	16319.5
2229.02246	16281.5
2231.93245	16261.6
2234.84058	16258.3
2237.74686	16198.5
2240.65128	16167
2243.55385	16131.5
2246.45456	16084.6
2249.35343	16046.5
2252.25044	16013.8
2255.14561	15963
2258.03893	15904.6
2260.93041	15878.3
2263.82004	15845.5
2266.70783	15771.9
2269.59378	15726
2272.4779	15679.4
2275.36017	15639.5
2278.24061	15605.2
2281.11922	15579.4
2283.996	15537.1
2286.87094	15504.9
2289.74405	15494.5
2292.61534	15453.4
2295.4848	15394
2298.35243	15394.3
2301.21824	15380.4
2304.08223	15390
2306.94439	15318.6
2309.80474	15341
2312.66327	15293.2
2315.51999	15247.4
2318.37489	15239.6
2321.22797	15228.4
2324.07925	15196
2326.92871	15126
2329.77637	15108.5
2332.62222	15103.9
2335.46626	15066.2
2338.3085	15057.7
2341.14893	15038.7
2343.98756	15031.5
2346.8244	15046.8
2349.65943	15015.4
2352.49267	15041.7
2355.32411	15025.3
2358.15376	15039.4
2360.98161	14998.5
2363.80768	15006.4
2366.63195	15027.5
2369.45444	15015.3
2372.27514	14910.6
2375.09405	14914.1
2377.91118	14907.7
2380.72652	14836.4
2383.54009	14761.8
2386.35187	14755.2
2389.16188	14707.7
2391.97011	14657.3
2394.77657	14600.3
2397.58125	14584.2
2400.38416	14567.7
2403.18529	14503
2405.98466	14536
2408.78226	14459.1
2411.57809	14435.2
2414.37216	14384.2
2417.16446	14426.2
2419.955	14376.7
2422.74378	14377.9
2425.5308	14374.4
2428.31606	14329.4
2431.09956	14352.1
2433.88131	14337.3
2436.6613	14316.4
2439.43954	14321.4
2442.21603	14310.8
2444.99077	14301
2447.76377	14293.6
2450.53501	14262.5
2453.30451	14214.6
2456.07226	14231.7
2458.83827	14222.7
2461.60254	14198.7
2464.36507	14212.2
2467.12586	14184.8
2469.88492	14122.6
2472.64224	14121
2475.39782	14143.1
2478.15167	14088.4
2480.90379	14079.4
2483.65417	14092.9
2486.40283	14058.4
2489.14976	14094.1
2491.89497	14087.3
2494.63845	14091.4
2497.3802	14087.4
2500.12024	14054.5
2502.85855	14046.2
2505.59514	13998.8
2508.33002	13968.1
2511.06318	13963.6
2513.79462	13968.2
2516.52435	13888.5
2519.25237	13904.5
2521.97867	13867.9
2524.70327	13848.4
2527.42616	13806.8
2530.14734	13818.6
2532.86681	13829.4
2535.58458	13819.7
2538.30065	13792.2
2541.01501	13748.5
2543.72768	13727.2
2546.43864	13697
2549.14791	13641.6
2551.85548	13652
2554.56136	13629.9
2557.26554	13607.1
2559.96803	13567.6
2562.66883	13568.3
2565.36794	13572.2
2568.06536	13522.3
2570.7611	13493.9
2573.45514	13461.4
2576.14751	13441.2
2578.83819	13397.7
2581.52719	13377.9
2584.21451	13359.7
2586.90015	13390.3
2589.58411	13323.9
2592.2664	13315.7
2594.94701	13294.8
2597.62594	13287.5
2600.30321	13271.1
2602.9788	13261.2
2605.65273	13231.1
2608.32498	13231.5
2610.99557	13241.7
2613.66449	13229.5
2616.33175	13189.6
2618.99734	13156.6
2621.66128	13174.3
2624.32355	13109.3
2626.98416	13108.4
2629.64311	13082.7
2632.30041	13067.1
2634.95605	13073.9
2637.61004	13035.9
2640.26238	13016.5
2642.91306	13053.7
2645.56209	13013.2
2648.20948	13055.4
2650.85521	13019.2
2653.4993	13013.4
2656.14175	12984.7
2658.78255	12984.5
2661.42171	12986.4
2664.05923	12979.4
2666.6951	12955
2669.32934	12978.3
2671.96194	12968
2674.59291	12972.7
2677.22224	12965.7
2679.84993	12987
2682.476	12951.1
2685.10043	12967.7
2687.72324	12943.2
2690.34441	12916.1
2692.96396	12898.8
2695.58188	12908.4
2698.19818	12897.1
2700.81285	12887.9
2703.4259	12889.7
2706.03733	12922.6
2708.64714	12911.6
2711.25533	12911.4
2713.86191	12874.6
2716.46687	12877.8
2719.07021	12833.1
2721.67194	12843.6
2724.27206	12882.3
2726.87057	12917
2729.46747	12907.6
2732.06276	12900
2734.65644	12892.6
2737.24852	12878.4
2739.83899	12840.7
2742.42786	12837.7
2745.01513	12821.4
2747.60079	12803.3
2750.18486	12782.3
2752.76733	12756.6
2755.3482	12708
2757.92747	12708.4
2760.50515	12687.1
2763.08123	12671.6
2765.65573	12670.9
2768.22863	12683.5
2770.79994	12639.3
2773.36967	12648.9
2775.9378	12634.3
2778.50435	12634
2781.06932	12633.7
2783.6327	12609.3
2786.1945	12599.9
2788.75471	12591
2791.31335	12555.5
2793.87041	12546.2
2796.42589	12495.4
2798.97979	12478.9
2801.53212	12463.3
2804.08288	12460.8
2806.63206	12442.1
2809.17967	12384.6
2811.72571	12396
2814.27018	12335
2816.81308	12329.1
2819.35442	12295.7
2821.89419	12257.1
2824.43239	12268.5
2826.96904	12251.5
2829.50412	12263.3
2832.03763	12220.3
2834.56959	12196.4
2837.1	12214.3
2839.62884	12209
2842.15613	12206.1
2844.68186	12219.4
2847.20604	12232.7
2849.72867	12221.6
2852.24974	12209.1
2854.76927	12185.2
2857.28724	12197.9
2859.80367	12170
2862.31855	12159.4
2864.83189	12133.7
2867.34368	12127.6
2869.85393	12103.8
2872.36264	12061.2
2874.8698	12025.9
2877.37543	12014.4
2879.87952	12014.4
2882.38207	12017.6
2884.88308	12023.2
2887.38256	12016.5
2889.88051	12038.3
2892.37692	12013.7
2894.8718	11987.4
2897.36515	11981
2899.85698	12006.5
2902.34727	12050.7
2904.83604	12056.5
2907.32328	12059.3
2909.809	12047.6
2912.29319	12055.5
2914.77587	12074.4
2917.25702	12037.9
2919.73665	12024.7
2922.21476	11977.6
2924.69136	11973.9
2927.16644	11984.6
2929.64	11995.7
2932.11205	11954
2934.58258	11907.9
2937.05161	11922.1
2939.51912	11913.3
2941.98513	11853.8
2944.44962	11849.9
2946.91261	11760.9
2949.37409	11784.3
2951.83407	11773.7
2954.29254	11740.5
2956.74951	11717.6
2959.20498	11707.5
2961.65895	11684.3
2964.11142	11658.7
2966.56239	11665.8
2969.01186	11655.6
2971.45984	11610
2973.90632	11606
2976.35131	11579
2978.7948	11579.8
2981.23681	11545.1
2983.67732	11500.5
2986.11635	11458.2
2988.55388	11436.8
2990.98993	11410.4
2993.4245	11361.2
2995.85758	11328.3
2998.28917	11264.3
3000.71928	11250.5
3003.14791	11201.3
3005.57506	11201.3
3008.00073	11153.1
3010.42493	11123.9
3012.84764	11116.4
3015.26888	11114.7
3017.68865	11081
3020.10694	11031.8
3022.52376	10998.2
3024.9391	10970.6
3027.35298	10946.2
3029.76539	10921.9
3032.17632	10935.2
3034.5858	10928.2
3036.9938	10917.8
3039.40034	10898.3
3041.80542	10860.9
3044.20903	10877.2
3046.61118	10852.1
3049.01187	10829.9
3051.4111	10806.4
3053.80888	10783.8
3056.20519	10754.8
3058.60005	10706.5
3060.99345	10673.9
3063.3854	10648.2
3065.7759	10601.4
3068.16494	10579.5
3070.55254	10530.5
3072.93868	10487.5
3075.32338	10454.4
3077.70662	10423.5
3080.08842	10382.4
3082.46878	10373.2
3084.84769	10377.4
3087.22515	10358.3
3089.60118	10343
3091.97576	10323
3094.3489	10328.3
3096.72061	10332.8
3099.09087	10316.5
3101.4597	10278.3
3103.82709	10294.5
3106.19305	10289.3
3108.55757	10299
3110.92066	10233.1
3113.28232	10217.1
3115.64255	10190.3
3118.00134	10164.6
3120.35871	10138.5
3122.71466	10111
3125.06917	10112.6
3127.42226	10108.1
3129.77393	10077.2
3132.12417	10037.9
3134.47299	10058.5
3136.82039	10024.3
3139.16636	10032
3141.51092	10023.9
3143.85406	10018.9
3146.19579	9999.2
3148.53609	9983.7
3150.87499	9998.9
3153.21246	9990.8
3155.54853	9983.1
3157.88318	9998.6
3160.21642	10021.5
3162.54826	10017.6
3164.87868	10017.1
3167.2077	9994.6
3169.5353	10008.7
3171.86151	9987.5
3174.18631	9963.5
3176.5097	9951.8
3178.83169	9947.4
3181.15228	9932.9
3183.47147	9924.6
3185.78926	9916.4
3188.10565	9867.8
3190.42065	9847
3192.73424	9854.7
3195.04645	9842.2
3197.35725	9801.5
3199.66667	9780.3
3201.97469	9772
3204.28132	9758.6
3206.58656	9790
3208.8904	9786
3211.19287	9769.4
3213.49394	9799.1
3215.79363	9774.1
3218.09193	9765
3220.38884	9774.1
3222.68438	9790.6
3224.97853	9750.9
3227.2713	9725.9
3229.56269	9707.1
3231.8527	9708.9
3234.14133	9717.4
3236.42858	9673.3
3238.71446	9665.2
3240.99896	9625.2
3243.28209	9639.5
3245.56384	9607.8
3247.84423	9599
3250.12324	9573.6
3252.40088	9562.1
3254.67715	9522.1
3256.95205	9499.6
3259.22558	9521.3
3261.49775	9510
3263.76855	9498.5
3266.03799	9467
3268.30606	9456.3
3270.57277	9425.9
3272.83812	9421.5
3275.10211	9397.9
3277.36474	9379.6
3279.62601	9369.4
3281.88593	9349.6
3284.14448	9361.3
3286.40168	9363.5
3288.65753	9328.1
3290.91202	9339.8
3293.16516	9312.4
3295.41695	9301.3
3297.66738	9237.7
3299.91647	9194.2
3302.16421	9120
3304.4106	9067.8
3306.65564	9021.7
3308.89933	8942.5
3311.14169	8857.8
3313.38269	8766.6
3315.62236	8689.9
3317.86068	8634
3320.09766	8554.3
3322.3333	8465.5
3324.5676	8434.9
3326.80056	8295.9
3329.03219	8237.7
3331.26248	2.3
3333.49143	-1.1
3335.71905	0.2
