Data from AgNPs_FTO_APTES_UA_5uM_CRN_1uM_R6G_10uM_NaF_0.1M_Addition_RamanShift__14__10-33-36-583.txt Node

Date: Mon Feb 07 10:33:36 GMT 2022
User: TCL
Spectrometer: QEP01345
Trigger mode: 4
Integration Time (sec): 7.000000E0
Scans to average: 10
Electric dark correction enabled: true
Nonlinearity correction enabled: false
Boxcar width: 0
XAxis mode: Raman Shifts
Number of Pixels in Spectrum: 1044
>>>>>Begin Spectral Data<<<<<
46.04893	-1.1
50.45542	-1.4
54.85868	-0.7
59.25871	0.8
63.6555	98.5
68.04907	103
72.43941	108.2
76.82654	114.2
81.21044	114.4
85.59113	118
89.96862	127.7
94.34289	129.2
98.71396	130.6
103.08183	135.4
107.4465	141.4
111.80798	143.6
116.16626	150
120.52136	158.6
124.87327	165.3
129.222	176.6
133.56755	188.4
137.90993	208.7
142.24913	233.3
146.58517	269.1
150.91804	307.7
155.24774	379.7
159.57429	474.8
163.89768	622.7
168.21792	833.5
172.53501	1145
176.84895	1599.7
181.15975	2257.1
185.46741	3169.1
189.77193	4393.7
194.07331	5896.2
198.37157	7612.4
202.6667	9425.3
206.9587	11236.9
211.24758	12975.2
215.53334	14749.2
219.81599	16582.9
224.09553	18600.1
228.37195	20837.7
232.64527	23297.8
236.91549	25918.5
241.18261	28560.6
245.44663	31089.9
249.70755	33382.5
253.96539	35396.5
258.22014	37010.7
262.4718	38278.1
266.72039	39228.8
270.96589	39656.4
275.20832	39709.9
279.44768	39385.2
283.68397	39064.8
287.91719	38705.5
292.14735	38421.9
296.37445	38199.7
300.59849	38200.1
304.81948	38266.6
309.03742	38254.4
313.25231	38060.4
317.46415	37530.5
321.67296	36705.4
325.87872	35995
330.08145	35602.3
334.28114	35498.9
338.47781	35677.2
342.67145	35987.4
346.86207	36400.3
351.04966	37009.7
355.23424	37554.2
359.4158	38122.1
363.59435	38590.9
367.76989	38859.3
371.94243	39059.7
376.11196	39122.2
380.27849	39043.9
384.44203	39068.1
388.60257	39274.3
392.76012	39752.4
396.91468	40350.2
401.06626	41126.8
405.21485	41613.8
409.36047	41454.9
413.50311	40972.2
417.64277	40656.5
421.77947	40879.1
425.9132	41161
430.04396	41410.7
434.17176	41576.3
438.2966	41543.7
442.41849	41737.8
446.53742	42312.6
450.6534	43029
454.76644	43548.9
458.87653	43767.1
462.98368	43843.7
467.08789	43639.8
471.18916	43233.9
475.2875	42824.8
479.38291	42674.6
483.4754	42701.8
487.56496	42654.1
491.6516	42340.3
495.73531	41873.1
499.81612	41518.3
503.89401	41516.9
507.96899	41721.5
512.04106	41798.8
516.11023	41527.1
520.1765	40989.3
524.23987	40418.2
528.30034	39892.9
532.35792	39475.3
536.41261	39040.1
540.46441	38725.2
544.51333	38745.2
548.55936	39189.8
552.60252	39937.8
556.64279	40795.6
560.6802	41425
564.71473	41898
568.7464	42830.6
572.7752	44378.1
576.80114	46286.7
580.82422	48346.5
584.84444	50245.6
588.86181	52259.3
592.87633	54200.4
596.888	53911.3
600.89682	51040.3
604.9028	49316.8
608.90594	50773.7
612.90624	52895.8
616.90371	49994.6
620.89834	43642.6
624.89015	40862
628.87913	40723.7
632.86528	41320.5
636.84862	41377.9
640.82913	40641.2
644.80683	39503.6
648.78172	38764
652.75379	38537.2
656.72306	38907.8
660.68952	39361.4
664.65319	39269.9
668.61405	38881.4
672.57211	38753.7
676.52738	38835.9
680.47986	38756.1
684.42955	38431.5
688.37646	38176
692.32058	38439.5
696.26192	38907.5
700.20048	39420.7
704.13626	39806.8
708.06928	40104.3
711.99952	40157.7
715.927	40060.4
719.85171	39932.8
723.77365	39581.1
727.69284	38892.8
731.60928	38274
735.52295	37953.5
739.43388	37919.9
743.34206	38052.5
747.24749	38292.1
751.15017	38767.3
755.05012	39452.5
758.94733	40509.4
762.8418	42147.5
766.73354	44655.1
770.62254	46868.8
774.50882	47087
778.39237	45246
782.27321	42769.7
786.15132	40673.2
790.02671	39305.1
793.89938	38490.1
797.76935	38060.8
801.6366	37877.2
805.50115	37716.4
809.36299	37526.8
813.22213	37419.9
817.07857	37332.5
820.93231	37269.5
824.78336	37155.9
828.63172	36921.4
832.47738	36817.6
836.32036	36751.7
840.16066	36685.7
843.99827	36721
847.8332	36689.5
851.66546	36791.5
855.49504	36890.6
859.32195	36936.9
863.1462	36813.4
866.96777	36815.9
870.78668	36792.6
874.60293	36778.4
878.41652	36756.8
882.22745	36834.1
886.03573	36919.1
889.84136	36921.3
893.64433	36897.4
897.44466	36856.4
901.24235	36860.7
905.0374	36808
908.8298	36821.9
912.61957	36907.7
916.40671	37278.4
920.19121	37889.3
923.97308	38388.7
927.75233	38449.5
931.52895	37995.6
935.30295	37216.2
939.07433	36448.2
942.84309	35812
946.60924	35437.4
950.37278	35307.4
954.13371	35230.3
957.89203	35193.1
961.64774	35187.4
965.40086	35176.4
969.15137	35165.5
972.89929	34965.1
976.64461	34809
980.38733	34658.2
984.12747	34619.3
987.86502	34701.5
991.59999	34827
995.33237	34957.9
999.06217	35287
1002.78939	35729
1006.51404	36349.7
1010.23611	37034.4
1013.95561	37398.5
1017.67255	37510.8
1021.38692	37129.7
1025.09872	36657.8
1028.80796	36175.7
1032.51465	35944.9
1036.21877	35964.3
1039.92035	36113.2
1043.61937	36354.2
1047.31584	36503.7
1051.00976	36651.1
1054.70114	36871.5
1058.38998	37223.5
1062.07627	37590.1
1065.76003	38112.8
1069.44126	38733.5
1073.11995	39497.6
1076.79611	40157.4
1080.46974	40380
1084.14085	40556.4
1087.80943	40976.6
1091.47549	41458.8
1095.13903	41826.3
1098.80005	41388.3
1102.45857	40291.8
1106.11456	39223.6
1109.76805	38440.6
1113.41903	38145.4
1117.06751	38081.5
1120.71348	38422
1124.35696	38720.8
1127.99793	39138.6
1131.63641	39475.5
1135.2724	39525.2
1138.90589	39517.8
1142.5369	39631.9
1146.16542	39878.3
1149.79145	40207.9
1153.415	40606.6
1157.03607	41245.7
1160.65467	42324.1
1164.27079	44018.6
1167.88443	46100.2
1171.49561	48205.6
1175.10432	50560.3
1178.71056	53575.9
1182.31434	56340.9
1185.91565	58046.6
1189.51451	58349.2
1193.11091	57573.6
1196.70485	56002
1200.29634	54133.9
1203.88538	52842.1
1207.47197	52388.8
1211.05612	52238
1214.63782	51602.6
1218.21708	50125.5
1221.79391	48239
1225.36829	46758.9
1228.94024	45876.2
1232.50976	45380.7
1236.07685	45055.2
1239.6415	44868.9
1243.20374	44798.1
1246.76355	45018.3
1250.32093	45528.7
1253.8759	46328.2
1257.42845	47513
1260.97859	48943.5
1264.52631	50417.1
1268.07163	51890.6
1271.61453	53310.9
1275.15503	54846.4
1278.69312	56588
1282.22882	58500.8
1285.76211	60700.4
1289.29301	63052.4
1292.82151	65699.1
1296.34761	68820
1299.87133	72263.5
1303.39266	75754.8
1306.9116	78450.1
1310.42815	80070.9
1313.94233	80413.8
1317.45412	79757.7
1320.96354	79076.1
1324.47058	79018.9
1327.97525	79323.3
1331.47754	79647.3
1334.97747	79324.3
1338.47502	78745
1341.97022	77968
1345.46305	77272.2
1348.95352	76426.9
1352.44163	75593.7
1355.92738	75467.9
1359.41078	76646.5
1362.89183	78091.7
1366.37053	77395.9
1369.84688	73138
1373.32088	66831.7
1376.79254	61826.9
1380.26186	59741.1
1383.72883	59502.9
1387.19347	59375
1390.65578	58695.8
1394.11575	58198.3
1397.57339	58445.7
1401.0287	59315.8
1404.48168	59961.7
1407.93234	59616.3
1411.38068	58020.9
1414.82669	55615.1
1418.27039	53109.8
1421.71177	50886
1425.15083	49287.2
1428.58758	48741.1
1432.02203	49160.1
1435.45416	50368.6
1438.88399	51764.4
1442.31151	52841
1445.73673	53568.8
1449.15965	54179.7
1452.58027	54504.6
1455.9986	54777
1459.41463	55195.2
1462.82837	55971
1466.23982	56931.3
1469.64898	57776.5
1473.05586	58153.7
1476.46045	58034.4
1479.86276	57816.6
1483.26279	57587.4
1486.66054	57565.2
1490.05602	57991.9
1493.44922	58938.7
1496.84016	60302.9
1500.22882	61819.5
1503.61521	63473.3
1506.99934	65177.7
1510.38121	66410.1
1513.76081	66802.3
1517.13816	66286.9
1520.51324	65539.1
1523.88607	65095
1527.25665	64932.1
1530.62498	64599.6
1533.99105	63749.8
1537.35488	62189
1540.71647	60226
1544.07581	58013.4
1547.4329	55915.7
1550.78776	54280.3
1554.14038	53169.9
1557.49077	52772.4
1560.83892	52549.4
1564.18484	52496.6
1567.52853	52620.5
1570.86999	53023.2
1574.20922	53954
1577.54624	54919.2
1580.88103	55338.5
1584.2136	55992.9
1587.54395	57640.4
1590.87208	60219.5
1594.19801	63250.5
1597.52172	65710.2
1600.84321	65523.9
1604.16251	62027.1
1607.47959	57095.9
1610.79447	52446.2
1614.10715	48261.9
1617.41763	44936.8
1620.7259	42719.9
1624.03199	41646.8
1627.33587	41604
1630.63757	42839.9
1633.93707	45549
1637.23439	50169.1
1640.52951	57219.2
1643.82246	65830
1647.11321	73262.9
1650.40179	75182.2
1653.68819	70035.5
1656.97241	60818.2
1660.25446	51516.7
1663.53433	44526.1
1666.81203	39904
1670.08756	37123
1673.36092	35352.7
1676.63211	34203.1
1679.90115	33501.9
1683.16801	32936.8
1686.43272	32457.4
1689.69527	32077.7
1692.95567	31858
1696.2139	31695.7
1699.46999	31555.4
1702.72392	31405.9
1705.97571	31275.9
1709.22535	31178.1
1712.47284	31072.2
1715.71819	31013.3
1718.96139	30907.5
1722.20246	30801
1725.44139	30679.4
1728.67818	30486.4
1731.91284	30278.1
1735.14537	30121.9
1738.37576	29931.4
1741.60403	29832.6
1744.83017	29674.2
1748.05418	29625.8
1751.27607	29551.9
1754.49584	29430.5
1757.71349	29391.9
1760.92903	29366.9
1764.14244	29347
1767.35375	29331.6
1770.56294	29235.1
1773.77002	29167.5
1776.97499	29092.8
1780.17785	29005.1
1783.37861	29008.6
1786.57727	28930.7
1789.77382	28871.3
1792.96828	28817.1
1796.16064	28747.8
1799.3509	28635.3
1802.53907	28592.4
1805.72514	28488.5
1808.90913	28429.9
1812.09102	28348.7
1815.27083	28275.5
1818.44856	28256.4
1821.6242	28190.1
1824.79776	28149.4
1827.96924	28125.6
1831.13864	28129.1
1834.30597	28107.2
1837.47122	28065.3
1840.6344	28060.8
1843.7955	28078.6
1846.95454	28101.4
1850.11151	28109.4
1853.26642	28073
1856.41926	28066.6
1859.57004	28115.2
1862.71876	28050.4
1865.86542	27977.9
1869.01003	27899.3
1872.15258	27855.8
1875.29308	27779.2
1878.43152	27710.2
1881.56792	27676.8
1884.70227	27657.9
1887.83457	27612.7
1890.96482	27489.8
1894.09304	27479.6
1897.21921	27453.2
1900.34335	27369.8
1903.46544	27294.4
1906.58551	27225.2
1909.70353	27121.9
1912.81953	27099
1915.93349	27047.4
1919.04543	26983.4
1922.15534	26952.2
1925.26322	26876.5
1928.36908	26774.8
1931.47292	26681.3
1934.57473	26591.9
1937.67453	26479.7
1940.77232	26416.2
1943.86808	26350.5
1946.96184	26228.3
1950.05358	26143.3
1953.14331	26121.9
1956.23103	26047.3
1959.31675	25914.2
1962.40046	25811.2
1965.48217	25728.4
1968.56188	25685.1
1971.63959	25525.4
1974.7153	25450.2
1977.78901	25313.8
1980.86073	25234.8
1983.93046	25127
1986.99819	25092.7
1990.06394	24968.2
1993.1277	24943
1996.18947	24836.9
1999.24925	24757.7
2002.30706	24657
2005.36288	24597.7
2008.41672	24512.5
2011.46859	24447.2
2014.51848	24339.3
2017.56639	24243.2
2020.61233	24200.3
2023.6563	24115.9
2026.6983	24026.1
2029.73833	23993.3
2032.7764	23932.3
2035.8125	23879.2
2038.84664	23786.4
2041.87881	23730.4
2044.90903	23674
2047.93729	23597.6
2050.96359	23571.9
2053.98794	23500.9
2057.01034	23537.2
2060.03078	23530.5
2063.04927	23501.3
2066.06582	23488
2069.08042	23471.1
2072.09307	23439.2
2075.10378	23423.5
2078.11255	23412.7
2081.11938	23390.5
2084.12426	23366.6
2087.12722	23368.8
2090.12824	23314
2093.12732	23313
2096.12447	23308.7
2099.11969	23326
2102.11299	23284.8
2105.10435	23296.8
2108.09379	23256.3
2111.08131	23293.5
2114.0669	23261.4
2117.05057	23294.4
2120.03233	23284
2123.01216	23326.4
2125.99008	23305.1
2128.96609	23343.1
2131.94018	23359.6
2134.91236	23331.1
2137.88263	23356.4
2140.851	23329.6
2143.81746	23314.9
2146.78201	23277.6
2149.74466	23257.4
2152.7054	23227.2
2155.66425	23222.3
2158.6212	23193.4
2161.57625	23178.6
2164.52941	23119.5
2167.48067	23119.6
2170.43004	23116.2
2173.37752	23075.9
2176.32311	23094.4
2179.26681	23077.6
2182.20863	23059.3
2185.14856	23063.8
2188.08661	23058.8
2191.02278	23092.1
2193.95707	23022.4
2196.88948	22973.9
2199.82001	22892.8
2202.74867	22856.6
2205.67545	22860.3
2208.60037	22771.7
2211.52341	22752.4
2214.44458	22713.1
2217.36388	22695.8
2220.28132	22606.1
2223.1969	22548.1
2226.11061	22536.6
2229.02246	22509.6
2231.93245	22473.7
2234.84058	22416.3
2237.74686	22439.8
2240.65128	22453.5
2243.55385	22363.6
2246.45456	22299.4
2249.35343	22249
2252.25044	22191
2255.14561	22112.8
2258.03893	22047.1
2260.93041	22006.4
2263.82004	21950.6
2266.70783	21851.5
2269.59378	21797.3
2272.4779	21739.2
2275.36017	21633.1
2278.24061	21583.5
2281.11922	21581.8
2283.996	21539.7
2286.87094	21542.4
2289.74405	21459.3
2292.61534	21463.4
2295.4848	21360.1
2298.35243	21332.9
2301.21824	21323
2304.08223	21308.8
2306.94439	21287.9
2309.80474	21269.5
2312.66327	21296.5
2315.51999	21235.1
2318.37489	21176.2
2321.22797	21134.1
2324.07925	21131
2326.92871	21059.3
2329.77637	21005.6
2332.62222	20988.6
2335.46626	20961.1
2338.3085	20923.5
2341.14893	20947.4
2343.98756	20889.3
2346.8244	20925.7
2349.65943	20879.6
2352.49267	20852.2
2355.32411	20914.3
2358.15376	20873.5
2360.98161	20838.6
2363.80768	20845.9
2366.63195	20820.3
2369.45444	20830.5
2372.27514	20790.6
2375.09405	20764.5
2377.91118	20695.9
2380.72652	20621.8
2383.54009	20577.7
2386.35187	20525.2
2389.16188	20453.3
2391.97011	20415.8
2394.77657	20406.2
2397.58125	20337.9
2400.38416	20308.7
2403.18529	20267.4
2405.98466	20250.7
2408.78226	20183.3
2411.57809	20153.7
2414.37216	20195.7
2417.16446	20167.9
2419.955	20115
2422.74378	20096
2425.5308	20070.1
2428.31606	20056.4
2431.09956	20048.7
2433.88131	20019.2
2436.6613	20053
2439.43954	20012.6
2442.21603	20016.6
2444.99077	19970.4
2447.76377	19962.8
2450.53501	19927.7
2453.30451	19892.8
2456.07226	19840.2
2458.83827	19861.3
2461.60254	19851.3
2464.36507	19791.1
2467.12586	19768.2
2469.88492	19746.4
2472.64224	19763.4
2475.39782	19757.7
2478.15167	19808.9
2480.90379	19746.2
2483.65417	19750.7
2486.40283	19734.9
2489.14976	19765
2491.89497	19726.8
2494.63845	19722.3
2497.3802	19670.7
2500.12024	19691.6
2502.85855	19636.8
2505.59514	19623.5
2508.33002	19579.7
2511.06318	19554.8
2513.79462	19528.6
2516.52435	19507.1
2519.25237	19500.2
2521.97867	19498.1
2524.70327	19487.6
2527.42616	19424.3
2530.14734	19416.4
2532.86681	19408.2
2535.58458	19355.2
2538.30065	19331.7
2541.01501	19340.4
2543.72768	19317.4
2546.43864	19289.9
2549.14791	19238.1
2551.85548	19240.8
2554.56136	19171.8
2557.26554	19152.4
2559.96803	19136
2562.66883	19125.5
2565.36794	19101.7
2568.06536	19046.7
2570.7611	19011.7
2573.45514	19026.1
2576.14751	19007
2578.83819	18899.8
2581.52719	18911.6
2584.21451	18878.4
2586.90015	18865.5
2589.58411	18841.5
2592.2664	18788.1
2594.94701	18749
2597.62594	18780
2600.30321	18716.5
2602.9788	18705.1
2605.65273	18699.5
2608.32498	18714
2610.99557	18722.8
2613.66449	18700.3
2616.33175	18659.3
2618.99734	18630.2
2621.66128	18609.5
2624.32355	18578.5
2626.98416	18553.5
2629.64311	18534.8
2632.30041	18541.2
2634.95605	18478.5
2637.61004	18472.8
2640.26238	18470
2642.91306	18431.1
2645.56209	18413.7
2648.20948	18406.7
2650.85521	18425.2
2653.4993	18432.8
2656.14175	18466.4
2658.78255	18456.4
2661.42171	18399.1
2664.05923	18464.9
2666.6951	18467.4
2669.32934	18462
2671.96194	18448.9
2674.59291	18479
2677.22224	18471.3
2679.84993	18477.1
2682.476	18453.4
2685.10043	18437.9
2687.72324	18394.7
2690.34441	18391.5
2692.96396	18392.3
2695.58188	18393.3
2698.19818	18352.8
2700.81285	18357.4
2703.4259	18376.3
2706.03733	18396.1
2708.64714	18371.7
2711.25533	18357.2
2713.86191	18344.4
2716.46687	18391.1
2719.07021	18377.1
2721.67194	18392.9
2724.27206	18362.7
2726.87057	18389.3
2729.46747	18399.9
2732.06276	18404.6
2734.65644	18404.2
2737.24852	18399.4
2739.83899	18352.9
2742.42786	18341.9
2745.01513	18291.8
2747.60079	18296
2750.18486	18227.1
2752.76733	18233.5
2755.3482	18153.2
2757.92747	18199.2
2760.50515	18160
2763.08123	18142.2
2765.65573	18157
2768.22863	18135
2770.79994	18104.7
2773.36967	18120.2
2775.9378	18091.7
2778.50435	18119.1
2781.06932	18077.9
2783.6327	18073.5
2786.1945	18076
2788.75471	18047.9
2791.31335	17994
2793.87041	18012.7
2796.42589	17924.7
2798.97979	17887.7
2801.53212	17889.5
2804.08288	17831
2806.63206	17757.9
2809.17967	17757.7
2811.72571	17727.1
2814.27018	17680.8
2816.81308	17641.2
2819.35442	17608.5
2821.89419	17573.1
2824.43239	17554.3
2826.96904	17542.5
2829.50412	17571.8
2832.03763	17498.1
2834.56959	17459
2837.1	17434
2839.62884	17450.4
2842.15613	17432.3
2844.68186	17461.7
2847.20604	17482
2849.72867	17464.9
2852.24974	17469.8
2854.76927	17437
2857.28724	17434.8
2859.80367	17384.6
2862.31855	17389.6
2864.83189	17345.4
2867.34368	17266.7
2869.85393	17258.8
2872.36264	17209.3
2874.8698	17179.6
2877.37543	17152.4
2879.87952	17178.2
2882.38207	17147.3
2884.88308	17145.1
2887.38256	17110
2889.88051	17141.3
2892.37692	17112
2894.8718	17124.2
2897.36515	17134.6
2899.85698	17140.8
2902.34727	17209.4
2904.83604	17182
2907.32328	17171.8
2909.809	17135.9
2912.29319	17163.9
2914.77587	17193.8
2917.25702	17184.2
2919.73665	17121.1
2922.21476	17150.8
2924.69136	17103.4
2927.16644	17116.9
2929.64	17068.8
2932.11205	17086.9
2934.58258	17014
2937.05161	17020.8
2939.51912	17001.4
2941.98513	16962
2944.44962	16958.2
2946.91261	16867.2
2949.37409	16903.5
2951.83407	16844.8
2954.29254	16814
2956.74951	16783.9
2959.20498	16794.1
2961.65895	16767.9
2964.11142	16744.4
2966.56239	16718.3
2969.01186	16709
2971.45984	16678.9
2973.90632	16696.5
2976.35131	16639.7
2978.7948	16583.3
2981.23681	16556.5
2983.67732	16526.5
2986.11635	16495.4
2988.55388	16447
2990.98993	16389.8
2993.4245	16304.1
2995.85758	16261.8
2998.28917	16211.5
3000.71928	16148.7
3003.14791	16126.9
3005.57506	16079.5
3008.00073	16043.1
3010.42493	16023.8
3012.84764	15997.7
3015.26888	15952.7
3017.68865	15914.2
3020.10694	15921.6
3022.52376	15839.2
3024.9391	15840.6
3027.35298	15805.4
3029.76539	15813.9
3032.17632	15783.6
3034.5858	15710.9
3036.9938	15687.6
3039.40034	15690.8
3041.80542	15677.5
3044.20903	15624.7
3046.61118	15654.2
3049.01187	15559.9
3051.4111	15567.4
3053.80888	15540.2
3056.20519	15528.2
3058.60005	15438.6
3060.99345	15360.1
3063.3854	15360.3
3065.7759	15266.4
3068.16494	15247.4
3070.55254	15179.2
3072.93868	15156.1
3075.32338	15083.2
3077.70662	15060.5
3080.08842	15002.8
3082.46878	14977.6
3084.84769	14943.3
3087.22515	14940.1
3089.60118	14931.5
3091.97576	14930.4
3094.3489	14900.1
3096.72061	14886.3
3099.09087	14909.3
3101.4597	14877.5
3103.82709	14886
3106.19305	14835.2
3108.55757	14826.8
3110.92066	14774
3113.28232	14767.8
3115.64255	14705
3118.00134	14670.7
3120.35871	14641.1
3122.71466	14580.8
3125.06917	14554.8
3127.42226	14511.1
3129.77393	14491.7
3132.12417	14465.6
3134.47299	14461.6
3136.82039	14399.2
3139.16636	14402.6
3141.51092	14403
3143.85406	14420.2
3146.19579	14371
3148.53609	14373.4
3150.87499	14350.1
3153.21246	14348.6
3155.54853	14363.7
3157.88318	14353.3
3160.21642	14348.4
3162.54826	14341.4
3164.87868	14340.9
3167.2077	14319.5
3169.5353	14285.9
3171.86151	14311.7
3174.18631	14300.7
3176.5097	14263.6
3178.83169	14205
3181.15228	14198.3
3183.47147	14136.3
3185.78926	14124.3
3188.10565	14108
3190.42065	14091.3
3192.73424	14083.5
3195.04645	14066.3
3197.35725	14052.3
3199.66667	14005.1
3201.97469	13985.5
3204.28132	13956.2
3206.58656	13991
3208.8904	13959.7
3211.19287	13954.2
3213.49394	13953.1
3215.79363	13942.6
3218.09193	13931.2
3220.38884	13934.3
3222.68438	13923.2
3224.97853	13900.6
3227.2713	13890.9
3229.56269	13848.5
3231.8527	13886
3234.14133	13828.8
3236.42858	13810.7
3238.71446	13829.1
3240.99896	13744.8
3243.28209	13749
3245.56384	13753.7
3247.84423	13716.1
3250.12324	13650.3
3252.40088	13657.9
3254.67715	13605.8
3256.95205	13603.4
3259.22558	13587.6
3261.49775	13535.1
3263.76855	13532.9
3266.03799	13490.3
3268.30606	13464.9
3270.57277	13449
3272.83812	13386.4
3275.10211	13334.8
3277.36474	13339.8
3279.62601	13323.9
3281.88593	13315.4
3284.14448	13300.9
3286.40168	13313.5
3288.65753	13306.8
3290.91202	13302.5
3293.16516	13259.8
3295.41695	13220
3297.66738	13177.9
3299.91647	13105.7
3302.16421	12995.9
3304.4106	12897.3
3306.65564	12802.9
3308.89933	12699.6
3311.14169	12601
3313.38269	12479.4
3315.62236	12405.5
3317.86068	12283.1
3320.09766	12181.8
3322.3333	12103.9
3324.5676	12037
3326.80056	11835.7
3329.03219	11770.8
3331.26248	3.2
3333.49143	-1.4
3335.71905	0.4
