Data from AgNPs_FTO_APTES_UA_5uM_CRN_20uM_R6G_10uM_NaF_0.1M_Addition_RamanShift__21__13-27-26-784.txt Node

Date: Mon Feb 07 13:27:26 GMT 2022
User: TCL
Spectrometer: QEP01345
Trigger mode: 4
Integration Time (sec): 7.000000E0
Scans to average: 10
Electric dark correction enabled: true
Nonlinearity correction enabled: false
Boxcar width: 0
XAxis mode: Raman Shifts
Number of Pixels in Spectrum: 1044
>>>>>Begin Spectral Data<<<<<
46.04893	-0.4125
50.45542	-1.7125
54.85868	-0.8125
59.25871	-0.4125
63.6555	86.3875
68.04907	85.6875
72.43941	94.0875
76.82654	95.8875
81.21044	98.9875
85.59113	103.3875
89.96862	108.0875
94.34289	106.4875
98.71396	113.0875
103.08183	116.3875
107.4465	118.6875
111.80798	122.8875
116.16626	126.3875
120.52136	135.4875
124.87327	142.0875
129.222	151.8875
133.56755	163.2875
137.90993	179.2875
142.24913	198.2875
146.58517	227.9875
150.91804	264.2875
155.24774	321.0875
159.57429	410.5875
163.89768	528.5875
168.21792	709.2875
172.53501	973.9875
176.84895	1366.6875
181.15975	1923.1875
185.46741	2697.0875
189.77193	3719.8875
194.07331	4963.0875
198.37157	6356.7875
202.6667	7859.7875
206.9587	9332.3875
211.24758	10807.7875
215.53334	12245.6875
219.81599	13813.2875
224.09553	15563.2875
228.37195	17521.1875
232.64527	19611.3875
236.91549	21843.7875
241.18261	24038.6875
245.44663	26089.3875
249.70755	27857.9875
253.96539	29419.0875
258.22014	30808.3875
262.4718	31961.7875
266.72039	32868.4875
270.96589	33440.7875
275.20832	33722.1875
279.44768	33740.7875
283.68397	33679.9875
287.91719	33685.3875
292.14735	33842.3875
296.37445	34061.0875
300.59849	34300.5875
304.81948	34291.4875
309.03742	34022.3875
313.25231	33349.0875
317.46415	32207.5875
321.67296	31013.4875
325.87872	29947.4875
330.08145	29421.2875
334.28114	29337.7875
338.47781	29519.6875
342.67145	29910.0875
346.86207	30408.7875
351.04966	31067.8875
355.23424	31813.8875
359.4158	32348.6875
363.59435	32701.5875
367.76989	32838.1875
371.94243	32969.8875
376.11196	33064.6875
380.27849	33256.8875
384.44203	33437.0875
388.60257	33663.6875
392.76012	33953.3875
396.91468	34449.4875
401.06626	35025.9875
405.21485	35474.9875
409.36047	35260.9875
413.50311	34550.2875
417.64277	34046.2875
421.77947	33941.4875
425.9132	34135.8875
430.04396	34412.6875
434.17176	34670.5875
438.2966	35040.4875
442.41849	35725.9875
446.53742	36759.1875
450.6534	37989.0875
454.76644	39002.8875
458.87653	39358.6875
462.98368	39247.6875
467.08789	38864.5875
471.18916	38457.9875
475.2875	38186.7875
479.38291	38174.0875
483.4754	38003.3875
487.56496	37440.5875
491.6516	36497.9875
495.73531	35607.8875
499.81612	35091.2875
503.89401	35124.2875
507.96899	35177.4875
512.04106	35018.4875
516.11023	34643.1875
520.1765	34185.7875
524.23987	33728.7875
528.30034	33318.6875
532.35792	32973.9875
536.41261	32589.4875
540.46441	32297.8875
544.51333	32421.1875
548.55936	33014.1875
552.60252	33972.9875
556.64279	35047.3875
560.6802	35792.6875
564.71473	36305.3875
568.7464	37136.3875
572.7752	38174.2875
576.80114	38879.7875
580.82422	39284.5875
584.84444	39579.2875
588.86181	39959.2875
592.87633	40555.4875
596.888	40971.6875
600.89682	41022.1875
604.9028	42082.0875
608.90594	45514.7875
612.90624	49071.5875
616.90371	45718.2875
620.89834	37628.7875
624.89015	34201.5875
628.87913	33933.6875
632.86528	34156.4875
636.84862	33972.4875
640.82913	33269.5875
644.80683	32116.4875
648.78172	31202.6875
652.75379	30925.2875
656.72306	31238.7875
660.68952	31824.2875
664.65319	31754.5875
668.61405	31173.0875
672.57211	30968.9875
676.52738	30940.9875
680.47986	30962.5875
684.42955	30797.1875
688.37646	30718.1875
692.32058	30844.8875
696.26192	31182.4875
700.20048	31545.2875
704.13626	31883.5875
708.06928	31857.0875
711.99952	31583.3875
715.927	31488.3875
719.85171	31479.4875
723.77365	31367.9875
727.69284	31035.5875
731.60928	30684.7875
735.52295	30588.5875
739.43388	30653.0875
743.34206	30734.4875
747.24749	30935.8875
751.15017	31340.2875
755.05012	32058.7875
758.94733	33228.6875
762.8418	35418.0875
766.73354	38632.3875
770.62254	41639.9875
774.50882	41990.4875
778.39237	39524.3875
782.27321	35956.2875
786.15132	33173.9875
790.02671	31559.0875
793.89938	30752.5875
797.76935	30450.2875
801.6366	30438.9875
805.50115	30344.4875
809.36299	30192.5875
813.22213	29983.7875
817.07857	29954.5875
820.93231	29866.8875
824.78336	29732.3875
828.63172	29576.3875
832.47738	29451.2875
836.32036	29475.2875
840.16066	29618.3875
843.99827	29696.7875
847.8332	29609.6875
851.66546	29384.2875
855.49504	29311.3875
859.32195	29283.6875
863.1462	29127.2875
866.96777	28991.4875
870.78668	28895.2875
874.60293	28845.4875
878.41652	28858.7875
882.22745	28960.1875
886.03573	29019.3875
889.84136	29038.8875
893.64433	28931.7875
897.44466	28781.7875
901.24235	28642.1875
905.0374	28600.5875
908.8298	28495.9875
912.61957	28624.4875
916.40671	29012.6875
920.19121	29589.0875
923.97308	29969.1875
927.75233	29970.2875
931.52895	29684.3875
935.30295	29252.2875
939.07433	28551.4875
942.84309	28085.8875
946.60924	27799.7875
950.37278	27710.1875
954.13371	27591.4875
957.89203	27490.7875
961.64774	27475.9875
965.40086	27473.7875
969.15137	27322.0875
972.89929	27084.7875
976.64461	26930.3875
980.38733	26923.7875
984.12747	27060.6875
987.86502	27273.7875
991.59999	27688.1875
995.33237	28308.6875
999.06217	29267.5875
1002.78939	30434.1875
1006.51404	31178.3875
1010.23611	31552.4875
1013.95561	31855.3875
1017.67255	31884.3875
1021.38692	31466.5875
1025.09872	31082.7875
1028.80796	31214.9875
1032.51465	32116.2875
1036.21877	33004.2875
1039.92035	33160.6875
1043.61937	32703.3875
1047.31584	31869.8875
1051.00976	30953.6875
1054.70114	30566.2875
1058.38998	30576.8875
1062.07627	30908.1875
1065.76003	31257.5875
1069.44126	31551.7875
1073.11995	31809.9875
1076.79611	32141.3875
1080.46974	32297.3875
1084.14085	32509.0875
1087.80943	32916.2875
1091.47549	33324.2875
1095.13903	33308.7875
1098.80005	32910.4875
1102.45857	32156.5875
1106.11456	31491.2875
1109.76805	31266.0875
1113.41903	31399.6875
1117.06751	31710.0875
1120.71348	32136.7875
1124.35696	32641.5875
1127.99793	33079.9875
1131.63641	33327.2875
1135.2724	33027.7875
1138.90589	32804.0875
1142.5369	32678.8875
1146.16542	32823.3875
1149.79145	33091.9875
1153.415	33577.5875
1157.03607	34396.3875
1160.65467	35478.5875
1164.27079	37256.9875
1167.88443	39572.5875
1171.49561	42565.2875
1175.10432	46492.2875
1178.71056	51239.9875
1182.31434	55605.0875
1185.91565	58045.1875
1189.51451	58274.5875
1193.11091	56743.8875
1196.70485	54270.5875
1200.29634	51503.3875
1203.88538	49284.9875
1207.47197	47782.9875
1211.05612	46550.7875
1214.63782	45514.0875
1218.21708	44608.3875
1221.79391	43937.1875
1225.36829	43446.1875
1228.94024	42793.8875
1232.50976	41862.2875
1236.07685	41204.9875
1239.6415	40856.6875
1243.20374	40784.5875
1246.76355	40939.4875
1250.32093	41643.3875
1253.8759	42739.5875
1257.42845	44139.7875
1260.97859	45501.3875
1264.52631	46802.2875
1268.07163	48139.1875
1271.61453	49692.2875
1275.15503	51455.4875
1278.69312	53446.5875
1282.22882	55148.9875
1285.76211	56888.3875
1289.29301	58894.0875
1292.82151	61655.7875
1296.34761	65051.7875
1299.87133	69332.7875
1303.39266	73946.4875
1306.9116	78764.6875
1310.42815	83446.4875
1313.94233	86461.6875
1317.45412	87106.6875
1320.96354	86130.1875
1324.47058	84716.3875
1327.97525	83435.8875
1331.47754	82365.3875
1334.97747	81946.2875
1338.47502	81839.5875
1341.97022	81742.2875
1345.46305	80627.9875
1348.95352	78464.3875
1352.44163	76306.7875
1355.92738	75629.6875
1359.41078	77331.8875
1362.89183	79444.9875
1366.37053	77819.4875
1369.84688	71558.4875
1373.32088	64360.1875
1376.79254	59365.9875
1380.26186	57622.6875
1383.72883	57761.8875
1387.19347	58286.2875
1390.65578	58490.5875
1394.11575	59049.3875
1397.57339	60408.4875
1401.0287	62126.3875
1404.48168	63551.9875
1407.93234	64048.0875
1411.38068	63137.7875
1414.82669	60653.7875
1418.27039	57259.9875
1421.71177	53759.8875
1425.15083	50906.8875
1428.58758	49316.3875
1432.02203	49242.6875
1435.45416	50303.0875
1438.88399	51831.5875
1442.31151	53345.9875
1445.73673	54709.4875
1449.15965	56067.1875
1452.58027	57250.1875
1455.9986	57945.8875
1459.41463	58532.6875
1462.82837	59469.0875
1466.23982	60474.9875
1469.64898	61284.6875
1473.05586	61460.3875
1476.46045	60958.3875
1479.86276	60193.1875
1483.26279	59313.5875
1486.66054	58658.1875
1490.05602	58478.1875
1493.44922	58574.0875
1496.84016	58665.0875
1500.22882	59342.5875
1503.61521	60692.7875
1506.99934	62640.6875
1510.38121	64669.4875
1513.76081	65691.2875
1517.13816	64964.5875
1520.51324	62777.4875
1523.88607	60703.8875
1527.25665	59592.1875
1530.62498	59118.2875
1533.99105	58951.9875
1537.35488	58761.1875
1540.71647	58200.5875
1544.07581	57026.5875
1547.4329	55567.1875
1550.78776	54328.9875
1554.14038	53462.4875
1557.49077	53052.0875
1560.83892	52938.8875
1564.18484	52843.5875
1567.52853	52751.5875
1570.86999	52860.3875
1574.20922	53534.7875
1577.54624	54477.7875
1580.88103	54933.5875
1584.2136	55716.3875
1587.54395	57691.1875
1590.87208	60824.5875
1594.19801	64738.7875
1597.52172	68392.2875
1600.84321	69413.8875
1604.16251	66170.2875
1607.47959	60482.0875
1610.79447	54570.6875
1614.10715	49106.6875
1617.41763	44676.7875
1620.7259	41523.9875
1624.03199	39836.6875
1627.33587	39676.9875
1630.63757	40989.7875
1633.93707	44127.2875
1637.23439	48935.5875
1640.52951	55442.8875
1643.82246	62469.8875
1647.11321	67774.3875
1650.40179	68537.7875
1653.68819	63790.9875
1656.97241	55250.0875
1660.25446	46548.0875
1663.53433	39712.6875
1666.81203	35140.9875
1670.08756	32292.1875
1673.36092	30476.4875
1676.63211	29322.5875
1679.90115	28478.7875
1683.16801	27905.8875
1686.43272	27480.5875
1689.69527	27071.1875
1692.95567	26842.6875
1696.2139	26684.5875
1699.46999	26514.1875
1702.72392	26412.1875
1705.97571	26274.8875
1709.22535	26199.7875
1712.47284	26065.2875
1715.71819	26029.2875
1718.96139	25976.1875
1722.20246	25822.2875
1725.44139	25687.1875
1728.67818	25550.0875
1731.91284	25342.0875
1735.14537	25222.3875
1738.37576	25063.6875
1741.60403	24952.9875
1744.83017	24859.2875
1748.05418	24808.3875
1751.27607	24750.2875
1754.49584	24715.7875
1757.71349	24671.6875
1760.92903	24655.9875
1764.14244	24607.8875
1767.35375	24602.1875
1770.56294	24528.1875
1773.77002	24465.1875
1776.97499	24400.7875
1780.17785	24361.2875
1783.37861	24315.4875
1786.57727	24304.4875
1789.77382	24233.0875
1792.96828	24223.4875
1796.16064	24190.0875
1799.3509	24124.6875
1802.53907	24078.5875
1805.72514	23999.8875
1808.90913	23939.2875
1812.09102	23846.3875
1815.27083	23823.5875
1818.44856	23798.1875
1821.6242	23726.3875
1824.79776	23697.8875
1827.96924	23687.8875
1831.13864	23674.5875
1834.30597	23699.4875
1837.47122	23661.8875
1840.6344	23685.3875
1843.7955	23713.4875
1846.95454	23711.8875
1850.11151	23670.9875
1853.26642	23689.6875
1856.41926	23695.0875
1859.57004	23728.3875
1862.71876	23722.3875
1865.86542	23704.4875
1869.01003	23653.0875
1872.15258	23665.5875
1875.29308	23662.1875
1878.43152	23670.5875
1881.56792	23666.0875
1884.70227	23676.3875
1887.83457	23697.1875
1890.96482	23667.3875
1894.09304	23669.0875
1897.21921	23669.3875
1900.34335	23675.1875
1903.46544	23691.7875
1906.58551	23728.3875
1909.70353	23679.3875
1912.81953	23600.6875
1915.93349	23535.9875
1919.04543	23511.4875
1922.15534	23445.9875
1925.26322	23360.8875
1928.36908	23268.4875
1931.47292	23182.5875
1934.57473	23087.4875
1937.67453	23013.1875
1940.77232	22920.0875
1943.86808	22878.0875
1946.96184	22774.1875
1950.05358	22674.6875
1953.14331	22589.0875
1956.23103	22506.5875
1959.31675	22422.6875
1962.40046	22348.1875
1965.48217	22289.3875
1968.56188	22215.2875
1971.63959	22128.3875
1974.7153	22070.4875
1977.78901	22035.0875
1980.86073	21913.4875
1983.93046	21852.6875
1986.99819	21765.7875
1990.06394	21682.2875
1993.1277	21636.0875
1996.18947	21574.9875
1999.24925	21507.8875
2002.30706	21412.3875
2005.36288	21418.1875
2008.41672	21344.9875
2011.46859	21288.4875
2014.51848	21231.4875
2017.56639	21148.3875
2020.61233	21096.5875
2023.6563	21076.3875
2026.6983	21022.7875
2029.73833	20957.7875
2032.7764	20954.3875
2035.8125	20925.1875
2038.84664	20915.5875
2041.87881	20868.6875
2044.90903	20859.2875
2047.93729	20780.7875
2050.96359	20773.6875
2053.98794	20727.9875
2057.01034	20709.4875
2060.03078	20712.9875
2063.04927	20672.8875
2066.06582	20663.9875
2069.08042	20680.8875
2072.09307	20602.1875
2075.10378	20621.9875
2078.11255	20596.9875
2081.11938	20529.2875
2084.12426	20538.0875
2087.12722	20536.2875
2090.12824	20487.5875
2093.12732	20480.0875
2096.12447	20515.0875
2099.11969	20473.6875
2102.11299	20513.9875
2105.10435	20501.8875
2108.09379	20463.0875
2111.08131	20507.0875
2114.0669	20503.4875
2117.05057	20531.2875
2120.03233	20568.7875
2123.01216	20542.8875
2125.99008	20580.6875
2128.96609	20587.1875
2131.94018	20586.2875
2134.91236	20617.9875
2137.88263	20651.4875
2140.851	20655.9875
2143.81746	20636.7875
2146.78201	20613.0875
2149.74466	20579.4875
2152.7054	20609.8875
2155.66425	20597.5875
2158.6212	20589.1875
2161.57625	20581.7875
2164.52941	20561.5875
2167.48067	20605.0875
2170.43004	20575.4875
2173.37752	20553.6875
2176.32311	20546.0875
2179.26681	20572.0875
2182.20863	20556.0875
2185.14856	20600.1875
2188.08661	20565.0875
2191.02278	20588.5875
2193.95707	20600.9875
2196.88948	20579.7875
2199.82001	20544.4875
2202.74867	20502.2875
2205.67545	20533.3875
2208.60037	20514.2875
2211.52341	20486.9875
2214.44458	20487.2875
2217.36388	20476.9875
2220.28132	20416.9875
2223.1969	20347.1875
2226.11061	20332.7875
2229.02246	20303.7875
2231.93245	20224.4875
2234.84058	20184.3875
2237.74686	20135.6875
2240.65128	20115.6875
2243.55385	20088.2875
2246.45456	20073.7875
2249.35343	20058.9875
2252.25044	19996.6875
2255.14561	19990.8875
2258.03893	19953.8875
2260.93041	19918.1875
2263.82004	19859.2875
2266.70783	19830.0875
2269.59378	19764.8875
2272.4779	19694.5875
2275.36017	19651.0875
2278.24061	19641.9875
2281.11922	19587.6875
2283.996	19546.4875
2286.87094	19536.3875
2289.74405	19477.9875
2292.61534	19515.4875
2295.4848	19482.5875
2298.35243	19496.6875
2301.21824	19523.2875
2304.08223	19521.7875
2306.94439	19545.1875
2309.80474	19596.1875
2312.66327	19577.3875
2315.51999	19564.4875
2318.37489	19554.6875
2321.22797	19512.6875
2324.07925	19486.2875
2326.92871	19518.0875
2329.77637	19487.8875
2332.62222	19462.1875
2335.46626	19451.1875
2338.3085	19458.4875
2341.14893	19466.0875
2343.98756	19492.1875
2346.8244	19527.8875
2349.65943	19537.2875
2352.49267	19518.8875
2355.32411	19531.4875
2358.15376	19487.4875
2360.98161	19478.4875
2363.80768	19494.2875
2366.63195	19450.8875
2369.45444	19440.4875
2372.27514	19382.7875
2375.09405	19341.3875
2377.91118	19330.9875
2380.72652	19263.1875
2383.54009	19195.6875
2386.35187	19185.3875
2389.16188	19118.7875
2391.97011	19097.9875
2394.77657	19082.2875
2397.58125	19052.7875
2400.38416	19018.7875
2403.18529	18994.6875
2405.98466	18956.1875
2408.78226	18921.2875
2411.57809	18884.0875
2414.37216	18875.4875
2417.16446	18853.5875
2419.955	18818.6875
2422.74378	18778.3875
2425.5308	18755.8875
2428.31606	18724.2875
2431.09956	18719.1875
2433.88131	18723.1875
2436.6613	18758.8875
2439.43954	18740.3875
2442.21603	18742.1875
2444.99077	18721.7875
2447.76377	18725.7875
2450.53501	18713.5875
2453.30451	18719.9875
2456.07226	18697.3875
2458.83827	18695.7875
2461.60254	18712.0875
2464.36507	18715.5875
2467.12586	18705.6875
2469.88492	18686.4875
2472.64224	18744.7875
2475.39782	18783.2875
2478.15167	18808.0875
2480.90379	18754.0875
2483.65417	18794.9875
2486.40283	18809.9875
2489.14976	18846.3875
2491.89497	18837.3875
2494.63845	18905.8875
2497.3802	18890.0875
2500.12024	18912.7875
2502.85855	18882.9875
2505.59514	18868.8875
2508.33002	18846.2875
2511.06318	18878.4875
2513.79462	18837.2875
2516.52435	18825.7875
2519.25237	18812.2875
2521.97867	18810.2875
2524.70327	18753.7875
2527.42616	18757.3875
2530.14734	18803.9875
2532.86681	18763.8875
2535.58458	18751.7875
2538.30065	18773.2875
2541.01501	18742.1875
2543.72768	18716.6875
2546.43864	18726.9875
2549.14791	18718.8875
2551.85548	18700.2875
2554.56136	18686.3875
2557.26554	18641.8875
2559.96803	18666.5875
2562.66883	18642.1875
2565.36794	18615.6875
2568.06536	18579.1875
2570.7611	18572.1875
2573.45514	18596.5875
2576.14751	18602.1875
2578.83819	18584.5875
2581.52719	18577.0875
2584.21451	18593.3875
2586.90015	18609.8875
2589.58411	18606.4875
2592.2664	18621.3875
2594.94701	18624.9875
2597.62594	18622.0875
2600.30321	18608.7875
2602.9788	18608.1875
2605.65273	18599.7875
2608.32498	18631.5875
2610.99557	18591.7875
2613.66449	18612.2875
2616.33175	18638.9875
2618.99734	18665.4875
2621.66128	18664.5875
2624.32355	18686.3875
2626.98416	18700.1875
2629.64311	18693.1875
2632.30041	18726.9875
2634.95605	18682.5875
2637.61004	18670.1875
2640.26238	18673.0875
2642.91306	18626.3875
2645.56209	18605.2875
2648.20948	18599.0875
2650.85521	18662.5875
2653.4993	18600.6875
2656.14175	18606.4875
2658.78255	18640.0875
2661.42171	18656.0875
2664.05923	18671.7875
2666.6951	18701.8875
2669.32934	18736.9875
2671.96194	18719.2875
2674.59291	18717.2875
2677.22224	18730.5875
2679.84993	18696.9875
2682.476	18669.2875
2685.10043	18674.3875
2687.72324	18624.9875
2690.34441	18616.8875
2692.96396	18624.4875
2695.58188	18622.2875
2698.19818	18619.7875
2700.81285	18594.1875
2703.4259	18650.9875
2706.03733	18670.2875
2708.64714	18641.1875
2711.25533	18670.9875
2713.86191	18638.5875
2716.46687	18682.8875
2719.07021	18716.5875
2721.67194	18742.4875
2724.27206	18712.3875
2726.87057	18763.3875
2729.46747	18771.1875
2732.06276	18807.6875
2734.65644	18760.8875
2737.24852	18779.1875
2739.83899	18757.2875
2742.42786	18783.9875
2745.01513	18759.2875
2747.60079	18728.6875
2750.18486	18760.8875
2752.76733	18740.8875
2755.3482	18720.8875
2757.92747	18780.2875
2760.50515	18737.8875
2763.08123	18779.0875
2765.65573	18749.0875
2768.22863	18752.0875
2770.79994	18754.6875
2773.36967	18746.4875
2775.9378	18739.2875
2778.50435	18745.0875
2781.06932	18733.7875
2783.6327	18779.9875
2786.1945	18787.0875
2788.75471	18787.4875
2791.31335	18753.4875
2793.87041	18737.4875
2796.42589	18685.0875
2798.97979	18678.8875
2801.53212	18609.3875
2804.08288	18621.0875
2806.63206	18538.2875
2809.17967	18508.2875
2811.72571	18509.4875
2814.27018	18481.8875
2816.81308	18454.5875
2819.35442	18415.3875
2821.89419	18383.1875
2824.43239	18424.8875
2826.96904	18419.8875
2829.50412	18395.9875
2832.03763	18358.8875
2834.56959	18366.7875
2837.1	18319.9875
2839.62884	18291.7875
2842.15613	18336.5875
2844.68186	18384.6875
2847.20604	18420.2875
2849.72867	18403.9875
2852.24974	18388.2875
2854.76927	18395.2875
2857.28724	18417.8875
2859.80367	18354.2875
2862.31855	18362.3875
2864.83189	18281.7875
2867.34368	18289.4875
2869.85393	18286.9875
2872.36264	18243.4875
2874.8698	18240.1875
2877.37543	18241.5875
2879.87952	18210.2875
2882.38207	18236.3875
2884.88308	18229.4875
2887.38256	18242.5875
2889.88051	18263.0875
2892.37692	18265.8875
2894.8718	18272.7875
2897.36515	18292.3875
2899.85698	18309.7875
2902.34727	18366.8875
2904.83604	18416.5875
2907.32328	18411.7875
2909.809	18442.7875
2912.29319	18462.4875
2914.77587	18477.2875
2917.25702	18443.5875
2919.73665	18443.9875
2922.21476	18408.4875
2924.69136	18407.1875
2927.16644	18352.4875
2929.64	18340.1875
2932.11205	18287.5875
2934.58258	18239.9875
2937.05161	18249.8875
2939.51912	18242.8875
2941.98513	18217.4875
2944.44962	18226.6875
2946.91261	18114.7875
2949.37409	18115.2875
2951.83407	18105.5875
2954.29254	18115.2875
2956.74951	18071.3875
2959.20498	18077.7875
2961.65895	18017.0875
2964.11142	18007.1875
2966.56239	17979.3875
2969.01186	17943.9875
2971.45984	17926.0875
2973.90632	17932.8875
2976.35131	17887.2875
2978.7948	17854.9875
2981.23681	17794.9875
2983.67732	17766.7875
2986.11635	17705.5875
2988.55388	17668.0875
2990.98993	17659.8875
2993.4245	17586.6875
2995.85758	17552.9875
2998.28917	17488.3875
3000.71928	17463.6875
3003.14791	17446.4875
3005.57506	17405.9875
3008.00073	17319.0875
3010.42493	17220.7875
3012.84764	17290.8875
3015.26888	17283.2875
3017.68865	17228.2875
3020.10694	17208.1875
3022.52376	17161.4875
