Data from AgNPs_FTO_APTES_UA_5uM_CRN_2uM_R6G_10uM_NaF_0.1M_Addition_RamanShift__38__11-41-16-662.txt Node

Date: Mon Feb 07 11:41:16 GMT 2022
User: TCL
Spectrometer: QEP01345
Trigger mode: 4
Integration Time (sec): 7.000000E0
Scans to average: 10
Electric dark correction enabled: true
Nonlinearity correction enabled: false
Boxcar width: 0
XAxis mode: Raman Shifts
Number of Pixels in Spectrum: 1044
>>>>>Begin Spectral Data<<<<<
46.04893	-1.55
50.45542	-1.85
54.85868	-0.65
59.25871	-0.35
63.6555	99.25
68.04907	107.75
72.43941	114.05
76.82654	114.65
81.21044	119.95
85.59113	124.35
89.96862	129.25
94.34289	131.25
98.71396	132.75
103.08183	141.65
107.4465	143.85
111.80798	148.85
116.16626	151.15
120.52136	159.25
124.87327	173.45
129.222	182.25
133.56755	195.15
137.90993	209.95
142.24913	231.55
146.58517	273.05
150.91804	311.35
155.24774	377.25
159.57429	473.25
163.89768	615.35
168.21792	836.35
172.53501	1124.15
176.84895	1578.85
181.15975	2223.05
185.46741	3129.05
189.77193	4300.35
194.07331	5745.05
198.37157	7394.05
202.6667	9113.55
206.9587	10829.75
211.24758	12527.25
215.53334	14263.55
219.81599	16085.35
224.09553	18105.45
228.37195	20329.25
232.64527	22715.15
236.91549	25167.55
241.18261	27664.85
245.44663	29948.75
249.70755	32026.45
253.96539	33802.35
258.22014	35306.95
262.4718	36530.75
266.72039	37372.35
270.96589	37801.35
275.20832	37864.95
279.44768	37584.15
283.68397	37200.05
287.91719	36864.05
292.14735	36661.55
296.37445	36559.05
300.59849	36670.65
304.81948	36908.55
309.03742	36908.85
313.25231	36801.35
317.46415	36411.65
321.67296	35802.15
325.87872	35329.65
330.08145	35036.35
334.28114	34943.75
338.47781	35080.75
342.67145	35449.35
346.86207	35997.25
351.04966	36655.95
355.23424	37304.65
359.4158	37967.05
363.59435	38442.85
367.76989	38715.75
371.94243	38882.55
376.11196	38972.85
380.27849	39059.45
384.44203	39244.45
388.60257	39611.85
392.76012	40053.35
396.91468	40603.35
401.06626	41295.85
405.21485	41780.65
409.36047	41633.45
413.50311	41366.35
417.64277	41452.25
421.77947	41844.95
425.9132	42215.75
430.04396	42460.25
434.17176	42610.35
438.2966	42885.95
442.41849	43540.75
446.53742	45006.55
450.6534	46519.25
454.76644	47396.65
458.87653	47503.35
462.98368	46893.35
467.08789	45961.35
471.18916	44806.45
475.2875	43809.95
479.38291	43122.55
483.4754	42792.35
487.56496	42393.25
491.6516	41783.65
495.73531	41212.25
499.81612	40878.85
503.89401	41066.25
507.96899	41349.75
512.04106	41177.85
516.11023	40773.95
520.1765	40133.25
524.23987	39598.95
528.30034	39283.45
532.35792	38889.55
536.41261	38274.65
540.46441	37679.55
544.51333	37534.25
548.55936	37847.95
552.60252	38775.55
556.64279	40029.75
560.6802	41180.45
564.71473	41775.35
568.7464	42674.65
572.7752	44275.35
576.80114	46334.45
580.82422	48676.65
584.84444	51953.85
588.86181	56266.95
592.87633	59990.25
596.888	59609.55
600.89682	54822.55
604.9028	51403.05
608.90594	52295.85
612.90624	54253.85
616.90371	50637.15
620.89834	43182.45
624.89015	39942.55
628.87913	39567.95
632.86528	39719.05
636.84862	39310.15
640.82913	38307.75
644.80683	37171.35
648.78172	36652.25
652.75379	36809.65
656.72306	37345.55
660.68952	37790.05
664.65319	37413.35
668.61405	36686.75
672.57211	36618.45
676.52738	36835.55
680.47986	36817.25
684.42955	36394.15
688.37646	36149.35
692.32058	36532.75
696.26192	37374.05
700.20048	38247.05
704.13626	38631.65
708.06928	38639.05
711.99952	38469.25
715.927	38568.35
719.85171	38872.35
723.77365	38545.15
727.69284	37698.55
731.60928	36904.15
735.52295	36654.05
739.43388	36698.75
743.34206	36916.55
747.24749	37254.15
751.15017	37738.15
755.05012	38518.25
758.94733	39726.15
762.8418	41557.05
766.73354	44178.75
770.62254	46389.45
774.50882	46282.05
778.39237	44042.15
782.27321	41215.75
786.15132	38973.15
790.02671	37561.45
793.89938	36891.55
797.76935	36622.35
801.6366	36642.85
805.50115	36555.35
809.36299	36391.15
813.22213	36055.25
817.07857	35799.05
820.93231	35497.05
824.78336	35242.95
828.63172	35087.75
832.47738	35023.55
836.32036	35033.85
840.16066	35193.75
843.99827	35297.85
847.8332	35249.45
851.66546	35186.65
855.49504	35212.65
859.32195	35196.45
863.1462	35068.45
866.96777	34877.95
870.78668	34796.85
874.60293	34827.65
878.41652	34850.35
882.22745	34927.05
886.03573	35090.05
889.84136	35015.65
893.64433	34834.75
897.44466	34683.15
901.24235	34527.35
905.0374	34415.55
908.8298	34366.15
912.61957	34542.75
916.40671	34942.25
920.19121	35595.35
923.97308	36313.05
927.75233	36521.95
931.52895	36105.15
935.30295	35232.55
939.07433	34408.55
942.84309	33938.15
946.60924	33722.35
950.37278	33684.25
954.13371	33705.45
957.89203	33630.05
961.64774	33638.75
965.40086	33760.95
969.15137	33711.75
972.89929	33562.75
976.64461	33573.75
980.38733	33598.45
984.12747	33690.25
987.86502	33908.05
991.59999	34217.35
995.33237	34662.55
999.06217	35535.25
1002.78939	36814.75
1006.51404	37899.95
1010.23611	38818.25
1013.95561	39330.05
1017.67255	39272.15
1021.38692	38527.15
1025.09872	37514.75
1028.80796	37132.45
1032.51465	37748.95
1036.21877	38509.85
1039.92035	38802.65
1043.61937	38615.95
1047.31584	37982.45
1051.00976	37468.55
1054.70114	37193.95
1058.38998	37279.45
1062.07627	37494.95
1065.76003	37813.35
1069.44126	38415.35
1073.11995	39217.45
1076.79611	39880.65
1080.46974	40192.25
1084.14085	40504.75
1087.80943	41083.35
1091.47549	41535.45
1095.13903	41657.35
1098.80005	40962.95
1102.45857	39738.15
1106.11456	38813.65
1109.76805	38324.05
1113.41903	38231.95
1117.06751	38357.35
1120.71348	38708.75
1124.35696	39018.75
1127.99793	39434.35
1131.63641	39801.35
1135.2724	39941.95
1138.90589	40037.05
1142.5369	40362.65
1146.16542	40908.95
1149.79145	41553.35
1153.415	42126.85
1157.03607	43081.55
1160.65467	44799.95
1164.27079	47613.85
1167.88443	50759.05
1171.49561	53668.15
1175.10432	57007.35
1178.71056	61430.55
1182.31434	65567.35
1185.91565	67144.75
1189.51451	66019.15
1193.11091	63583.85
1196.70485	61274.95
1200.29634	59411.65
1203.88538	58523.55
1207.47197	58631.65
1211.05612	58611.55
1214.63782	57650.05
1218.21708	55728.25
1221.79391	53818.65
1225.36829	52517.65
1228.94024	51541.95
1232.50976	50344.95
1236.07685	49039.85
1239.6415	48246.95
1243.20374	48085.65
1246.76355	48596.95
1250.32093	49602.45
1253.8759	51040.55
1257.42845	52667.75
1260.97859	54484.15
1264.52631	56447.45
1268.07163	58502.45
1271.61453	60611.65
1275.15503	62844.65
1278.69312	65366.85
1282.22882	68113.95
1285.76211	71424.65
1289.29301	75193.35
1292.82151	79459.65
1296.34761	84695.85
1299.87133	90945.05
1303.39266	97287.55
1306.9116	102429.75
1310.42815	105743.75
1313.94233	106659.05
1317.45412	104979.55
1320.96354	102079.95
1324.47058	99697.75
1327.97525	98288.15
1331.47754	97422.25
1334.97747	96458.85
1338.47502	94501.25
1341.97022	91667.15
1345.46305	88354.75
1348.95352	85903.55
1352.44163	85841.25
1355.92738	88990.05
1359.41078	94343.65
1362.89183	98395.45
1366.37053	97820.95
1369.84688	90661.25
1373.32088	79789.15
1376.79254	71952.45
1380.26186	69606.95
1383.72883	70428.85
1387.19347	71041.65
1390.65578	70281.35
1394.11575	69948.35
1397.57339	71165.45
1401.0287	73278.65
1404.48168	74953.15
1407.93234	75231.15
1411.38068	73585.35
1414.82669	70501.25
1418.27039	66870.75
1421.71177	63200.65
1425.15083	60401.15
1428.58758	59246.05
1432.02203	60298.25
1435.45416	62828.75
1438.88399	65592.35
1442.31151	67487.95
1445.73673	68334.95
1449.15965	68653.35
1452.58027	68219.15
1455.9986	67488.25
1459.41463	67424.05
1462.82837	68438.75
1466.23982	70143.15
1469.64898	71907.75
1473.05586	72979.55
1476.46045	73128.45
1479.86276	72551.65
1483.26279	71547.15
1486.66054	70957.15
1490.05602	70978.35
1493.44922	71311.05
1496.84016	71363.55
1500.22882	71214.55
1503.61521	71392.95
1506.99934	71914.35
1510.38121	72389.45
1513.76081	72409.65
1517.13816	71740.85
1520.51324	70936.65
1523.88607	70923.05
1527.25665	71795.05
1530.62498	72696.55
1533.99105	72569.45
1537.35488	71390.45
1540.71647	69319.55
1544.07581	66795.45
1547.4329	64295.95
1550.78776	62149.75
1554.14038	60491.35
1557.49077	59453.35
1560.83892	58773.65
1564.18484	58301.65
1567.52853	58201.25
1570.86999	58765.15
1574.20922	60191.55
1577.54624	61733.55
1580.88103	62892.65
1584.2136	64887.95
1587.54395	68851.25
1590.87208	74673.95
1594.19801	81454.55
1597.52172	86689.15
1600.84321	87363.95
1604.16251	81535.75
1607.47959	72116.25
1610.79447	62799.95
1614.10715	55408.05
1617.41763	50314.55
1620.7259	47324.25
1624.03199	46219.15
1627.33587	46724.85
1630.63757	49024.65
1633.93707	53616.55
1637.23439	61047.95
1640.52951	72113.35
1643.82246	85322.35
1647.11321	95284.55
1650.40179	95453.85
1653.68819	84961.45
1656.97241	70011.85
1660.25446	56878.55
1663.53433	47830.05
1666.81203	42339.65
1670.08756	39038.55
1673.36092	36956.85
1676.63211	35662.95
1679.90115	34713.75
1683.16801	34021.95
1686.43272	33510.75
1689.69527	33166.05
1692.95567	32816.95
1696.2139	32642.15
1699.46999	32468.85
1702.72392	32313.15
1705.97571	32223.45
1709.22535	32077.25
1712.47284	31986.65
1715.71819	31995.35
1718.96139	31857.15
1722.20246	31771.75
1725.44139	31621.25
1728.67818	31384.55
1731.91284	31103.25
1735.14537	30911.05
1738.37576	30759.45
1741.60403	30652.35
1744.83017	30533.75
1748.05418	30382.85
1751.27607	30335.25
1754.49584	30256.55
1757.71349	30248.35
1760.92903	30184.15
1764.14244	30170.55
1767.35375	30153.35
1770.56294	30052.65
1773.77002	29941.85
1776.97499	29933.05
1780.17785	29815.95
1783.37861	29759.95
1786.57727	29711.35
1789.77382	29674.55
1792.96828	29625.35
1796.16064	29557.65
1799.3509	29494.35
1802.53907	29444.25
1805.72514	29314.45
1808.90913	29248.05
1812.09102	29187.35
1815.27083	29132.75
1818.44856	29086.45
1821.6242	29069.85
1824.79776	29051.25
1827.96924	29029.25
1831.13864	28962.25
1834.30597	28956.05
1837.47122	28994.55
1840.6344	28960.95
1843.7955	28920.75
1846.95454	28938.85
1850.11151	28950.35
1853.26642	28900.55
1856.41926	28874.95
1859.57004	28894.45
1862.71876	28851.15
1865.86542	28852.85
1869.01003	28779.85
1872.15258	28743.95
1875.29308	28738.95
1878.43152	28663.85
1881.56792	28669.65
1884.70227	28655.25
1887.83457	28621.95
1890.96482	28620.75
1894.09304	28581.35
1897.21921	28524.15
1900.34335	28477.65
1903.46544	28446.05
1906.58551	28427.35
1909.70353	28363.15
1912.81953	28292.05
1915.93349	28271.15
1919.04543	28177.95
1922.15534	28149.05
1925.26322	28099.25
1928.36908	27992.25
1931.47292	27930.45
1934.57473	27848.15
1937.67453	27788.95
1940.77232	27639.85
1943.86808	27577.35
1946.96184	27531.25
1950.05358	27488.55
1953.14331	27422.15
1956.23103	27321.95
1959.31675	27192.15
1962.40046	27153.75
1965.48217	27062.55
1968.56188	27007.15
1971.63959	26874.45
1974.7153	26784.45
1977.78901	26696.85
1980.86073	26605.15
1983.93046	26557.75
1986.99819	26433.55
1990.06394	26352.55
1993.1277	26347.85
1996.18947	26257.15
1999.24925	26194.65
2002.30706	26088.15
2005.36288	26008.05
2008.41672	25932.25
2011.46859	25892.35
2014.51848	25835.05
2017.56639	25759.85
2020.61233	25696.75
2023.6563	25662.45
2026.6983	25566.45
2029.73833	25540.85
2032.7764	25491.05
2035.8125	25471.95
2038.84664	25408.05
2041.87881	25363.95
2044.90903	25332.45
2047.93729	25342.55
2050.96359	25264.15
2053.98794	25238.45
2057.01034	25251.05
2060.03078	25236.25
2063.04927	25193.95
2066.06582	25213.35
2069.08042	25175.35
2072.09307	25132.25
2075.10378	25120.45
2078.11255	25060.95
2081.11938	25083.45
2084.12426	25037.75
2087.12722	25027.25
2090.12824	25041.75
2093.12732	25000.15
2096.12447	25028.05
2099.11969	25029.95
2102.11299	25022.65
2105.10435	25012.45
2108.09379	24972.45
2111.08131	25026.55
2114.0669	25047.85
2117.05057	25038.25
2120.03233	25042.15
2123.01216	25034.35
2125.99008	25109.45
2128.96609	25119.55
2131.94018	25105.35
2134.91236	25121.25
2137.88263	25141.05
2140.851	25155.85
2143.81746	25186.75
2146.78201	25135.95
2149.74466	25119.95
2152.7054	25074.15
2155.66425	25112.75
2158.6212	25024.45
2161.57625	24987.35
2164.52941	25008.05
2167.48067	24964.35
2170.43004	25033.15
2173.37752	25025.95
2176.32311	25032.35
2179.26681	25017.75
2182.20863	24972.35
2185.14856	24996.15
2188.08661	25065.85
2191.02278	25093.85
2193.95707	25057.05
2196.88948	25042.95
2199.82001	25007.45
2202.74867	24951.85
2205.67545	24947.55
2208.60037	24890.55
2211.52341	24848.75
2214.44458	24830.15
2217.36388	24816.05
2220.28132	24736.75
2223.1969	24677.35
2226.11061	24708.45
2229.02246	24665.95
2231.93245	24686.85
2234.84058	24651.05
2237.74686	24591.25
2240.65128	24626.65
2243.55385	24537.25
2246.45456	24477.45
2249.35343	24432.35
2252.25044	24404.45
2255.14561	24308.35
2258.03893	24323.45
2260.93041	24186.95
2263.82004	24149.75
2266.70783	24060.95
2269.59378	23945.55
2272.4779	23907.35
2275.36017	23869.35
2278.24061	23844.45
2281.11922	23794.15
2283.996	23742.25
2286.87094	23790.05
2289.74405	23764.25
2292.61534	23719.45
2295.4848	23698.45
2298.35243	23745.95
2301.21824	23742.65
2304.08223	23734.85
2306.94439	23795.15
2309.80474	23780.85
2312.66327	23744.85
2315.51999	23744.55
2318.37489	23715.85
2321.22797	23637.85
2324.07925	23682.15
2326.92871	23625.65
2329.77637	23635.75
2332.62222	23599.75
2335.46626	23569.15
2338.3085	23580.95
2341.14893	23576.25
2343.98756	23613.25
2346.8244	23625.85
2349.65943	23622.95
2352.49267	23589.05
2355.32411	23599.45
2358.15376	23555.55
2360.98161	23505.55
2363.80768	23437.25
2366.63195	23476.55
2369.45444	23466.15
2372.27514	23391.45
2375.09405	23381.65
2377.91118	23345.75
2380.72652	23289.15
2383.54009	23242.65
2386.35187	23223.05
2389.16188	23159.25
2391.97011	23148.25
2394.77657	23112.45
2397.58125	23075.45
2400.38416	23043.35
2403.18529	23014.25
2405.98466	22960.55
2408.78226	22977.75
2411.57809	22945.15
2414.37216	22926.95
2417.16446	22936.95
2419.955	22904.35
2422.74378	22926.05
2425.5308	22822.85
2428.31606	22818.25
2431.09956	22819.25
2433.88131	22804.15
2436.6613	22851.05
2439.43954	22846.35
2442.21603	22785.05
2444.99077	22795.75
2447.76377	22784.65
2450.53501	22782.95
2453.30451	22793.15
2456.07226	22759.25
2458.83827	22780.35
2461.60254	22803.45
2464.36507	22748.85
2467.12586	22711.95
2469.88492	22728.65
2472.64224	22752.05
2475.39782	22826.15
2478.15167	22831.35
2480.90379	22842.25
2483.65417	22850.25
2486.40283	22819.45
2489.14976	22858.45
2491.89497	22885.95
2494.63845	22864.75
2497.3802	22863.95
2500.12024	22900.75
2502.85855	22860.95
2505.59514	22855.65
2508.33002	22856.35
2511.06318	22804.65
2513.79462	22796.15
2516.52435	22763.95
2519.25237	22797.35
2521.97867	22810.35
2524.70327	22783.65
2527.42616	22742.65
2530.14734	22774.55
2532.86681	22789.95
2535.58458	22786.15
2538.30065	22770.95
2541.01501	22771.25
2543.72768	22761.55
2546.43864	22723.75
2549.14791	22716.05
2551.85548	22704.25
2554.56136	22703.45
2557.26554	22684.95
2559.96803	22661.85
2562.66883	22680.15
2565.36794	22641.25
2568.06536	22606.85
2570.7611	22603.35
2573.45514	22627.45
2576.14751	22615.75
2578.83819	22593.15
2581.52719	22595.15
2584.21451	22630.75
2586.90015	22607.05
2589.58411	22594.45
2592.2664	22641.25
2594.94701	22543.85
2597.62594	22587.55
2600.30321	22517.85
2602.9788	22565.35
2605.65273	22558.35
2608.32498	22599.75
2610.99557	22567.05
2613.66449	22600.65
2616.33175	22591.35
2618.99734	22598.85
2621.66128	22540.35
2624.32355	22508.05
2626.98416	22497.55
2629.64311	22524.25
2632.30041	22552.65
2634.95605	22513.05
2637.61004	22469.15
2640.26238	22443.55
2642.91306	22471.85
2645.56209	22460.35
2648.20948	22475.35
2650.85521	22504.05
2653.4993	22528.45
2656.14175	22522.35
2658.78255	22545.55
2661.42171	22577.25
2664.05923	22603.15
2666.6951	22614.95
2669.32934	22646.75
2671.96194	22685.15
2674.59291	22653.25
2677.22224	22689.65
2679.84993	22685.25
2682.476	22662.55
2685.10043	22648.55
2687.72324	22611.65
2690.34441	22579.25
2692.96396	22573.85
2695.58188	22606.55
2698.19818	22593.55
2700.81285	22628.65
2703.4259	22606.65
2706.03733	22647.85
2708.64714	22586.25
2711.25533	22630.05
2713.86191	22582.15
2716.46687	22625.75
2719.07021	22686.35
2721.67194	22747.45
2724.27206	22734.55
2726.87057	22774.45
2729.46747	22775.65
2732.06276	22837.65
2734.65644	22837.55
2737.24852	22826.65
2739.83899	22754.25
2742.42786	22753.05
2745.01513	22743.55
2747.60079	22759.45
2750.18486	22731.95
2752.76733	22731.55
2755.3482	22756.05
2757.92747	22739.75
2760.50515	22723.55
2763.08123	22759.05
2765.65573	22754.65
2768.22863	22727.85
2770.79994	22733.55
2773.36967	22722.25
2775.9378	22803.15
2778.50435	22777.75
2781.06932	22726.85
2783.6327	22752.45
2786.1945	22753.05
2788.75471	22780.05
2791.31335	22734.15
2793.87041	22705.25
2796.42589	22674.85
2798.97979	22648.95
2801.53212	22620.85
2804.08288	22586.25
2806.63206	22500.75
2809.17967	22482.75
2811.72571	22444.15
2814.27018	22376.55
2816.81308	22323.75
2819.35442	22303.75
2821.89419	22288.85
2824.43239	22271.05
2826.96904	22267.25
2829.50412	22245.45
2832.03763	22190.95
2834.56959	22158.25
2837.1	22138.35
2839.62884	22143.75
2842.15613	22128.95
2844.68186	22206.55
2847.20604	22184.75
2849.72867	22211.15
2852.24974	22225.15
2854.76927	22188.15
2857.28724	22188.85
2859.80367	22158.25
2862.31855	22100.15
2864.83189	22053.55
2867.34368	22001.35
2869.85393	22007.95
2872.36264	21956.05
2874.8698	21954.85
2877.37543	21956.65
2879.87952	21960.45
2882.38207	21926.75
2884.88308	21956.85
2887.38256	21967.55
2889.88051	21997.45
2892.37692	22019.75
2894.8718	22014.35
2897.36515	22030.85
2899.85698	22059.35
2902.34727	22107.15
2904.83604	22106.35
2907.32328	22123.35
2909.809	22110.55
2912.29319	22147.05
2914.77587	22179.55
2917.25702	22168.65
2919.73665	22118.65
2922.21476	22095.65
2924.69136	22106.25
2927.16644	22108.15
2929.64	22022.85
2932.11205	22056.65
2934.58258	21992.55
2937.05161	22007.75
2939.51912	22013.25
2941.98513	21990.45
2944.44962	21947.45
2946.91261	21867.05
2949.37409	21889.35
2951.83407	21845.35
2954.29254	21833.75
2956.74951	21814.05
2959.20498	21762.65
2961.65895	21741.35
2964.11142	21786.25
2966.56239	21701.95
2969.01186	21675.85
2971.45984	21666.35
2973.90632	21645.75
2976.35131	21582.35
2978.7948	21542.15
2981.23681	21479.75
2983.67732	21428.65
2986.11635	21364.95
2988.55388	21362.05
2990.98993	21257.65
2993.4245	21158.35
2995.85758	21092.55
2998.28917	21074.85
3000.71928	21059.55
3003.14791	21000.15
3005.57506	20973.75
3008.00073	20963.65
3010.42493	20929.95
3012.84764	20858.85
3015.26888	20885.85
3017.68865	20771.75
3020.10694	20726.95
3022.52376	20713.65
3024.9391	20691.05
3027.35298	20664.45
3029.76539	20644.25
3032.17632	20668.25
3034.5858	20565.75
3036.9938	20548.35
3039.40034	20552.25
3041.80542	20552.35
3044.20903	20572.85
3046.61118	20538.65
3049.01187	20476.85
3051.4111	20481.45
3053.80888	20441.55
3056.20519	20414.55
3058.60005	20312.95
3060.99345	20266.35
3063.3854	20182.95
3065.7759	20135.85
3068.16494	20062.75
3070.55254	20001.65
3072.93868	19911.75
3075.32338	19881.55
3077.70662	19830.55
3080.08842	19799.85
3082.46878	19730.15
3084.84769	19684.05
3087.22515	19701.35
3089.60118	19669.95
3091.97576	19665.85
3094.3489	19636.95
3096.72061	19628.95
3099.09087	19635.05
3101.4597	19570.25
3103.82709	19601.65
3106.19305	19538.55
3108.55757	19527.95
3110.92066	19460.45
3113.28232	19460.55
3115.64255	19400.55
3118.00134	19375.35
3120.35871	19338.65
3122.71466	19273.55
3125.06917	19195.15
3127.42226	19133.15
3129.77393	19170.85
3132.12417	19138.95
3134.47299	19122.85
3136.82039	19052.75
3139.16636	19085.95
3141.51092	19033.35
3143.85406	19065.45
3146.19579	19035.25
3148.53609	19013.05
3150.87499	19026.95
3153.21246	19004.25
3155.54853	18992.15
3157.88318	18964.95
3160.21642	18975.95
3162.54826	18980.75
3164.87868	18960.65
3167.2077	18960.65
3169.5353	18976.15
3171.86151	18942.95
3174.18631	18917.45
3176.5097	18892.25
3178.83169	18903.45
3181.15228	18891.65
3183.47147	18825.75
3185.78926	18824.35
3188.10565	18759.75
3190.42065	18725.65
3192.73424	18701.55
3195.04645	18718.55
3197.35725	18679.55
3199.66667	18629.75
3201.97469	18659.65
3204.28132	18598.65
3206.58656	18615.25
3208.8904	18597.55
3211.19287	18598.85
3213.49394	18630.05
3215.79363	18599.35
3218.09193	18590.15
3220.38884	18598.85
3222.68438	18585.35
3224.97853	18595.05
3227.2713	18609.25
3229.56269	18536.35
3231.8527	18524.55
3234.14133	18502.65
3236.42858	18487.65
