Data from AgNPs_FTO_APTES_UA_5uM_CRN_1000uM_R6G_10uM_NaF_0.1M_Addition_RamanShift__11__17-36-41-875.txt Node

Date: Mon Feb 07 17:36:41 GMT 2022
User: TCL
Spectrometer: QEP01345
Trigger mode: 4
Integration Time (sec): 7.000000E0
Scans to average: 10
Electric dark correction enabled: true
Nonlinearity correction enabled: false
Boxcar width: 0
XAxis mode: Raman Shifts
Number of Pixels in Spectrum: 1044
>>>>>Begin Spectral Data<<<<<
46.04893	-2.2
50.45542	0.4
54.85868	-0.1
59.25871	0.7
63.6555	48.8
68.04907	53.9
72.43941	56.2
76.82654	58.9
81.21044	58.1
85.59113	58.7
89.96862	66.6
94.34289	65
98.71396	69.3
103.08183	73.4
107.4465	74.3
111.80798	74
116.16626	78.9
120.52136	80.9
124.87327	86.1
129.222	90.3
133.56755	93.2
137.90993	101.9
142.24913	116.3
146.58517	128.9
150.91804	151.6
155.24774	186.8
159.57429	229.1
163.89768	291.6
168.21792	391.2
172.53501	537.3
176.84895	743.3
181.15975	1048.2
185.46741	1471.5
189.77193	2043.9
194.07331	2736.8
198.37157	3540.4
202.6667	4382.4
206.9587	5210.7
211.24758	6034.7
215.53334	6840.8
219.81599	7705
224.09553	8639.8
228.37195	9639
232.64527	10753.4
236.91549	11959.3
241.18261	13126.8
245.44663	14283.5
249.70755	15291.5
253.96539	16250.5
258.22014	16974.3
262.4718	17573.5
266.72039	18006.4
270.96589	18234.8
275.20832	18291.3
279.44768	18197.9
283.68397	18110.1
287.91719	17991.2
292.14735	17963.4
296.37445	17973.7
300.59849	18000.6
304.81948	18113.6
309.03742	18023.2
313.25231	17894.2
317.46415	17561.9
321.67296	17168.9
325.87872	16808
330.08145	16540.6
334.28114	16524.2
338.47781	16528.6
342.67145	16670.8
346.86207	16872.3
351.04966	17088
355.23424	17321
359.4158	17507.6
363.59435	17619.8
367.76989	17703.3
371.94243	17793.7
376.11196	17846
380.27849	17855.8
384.44203	17920.1
388.60257	18025.4
392.76012	18262.7
396.91468	18521.1
401.06626	18798.2
405.21485	18992.8
409.36047	18890.7
413.50311	18690.6
417.64277	18555.7
421.77947	18557.6
425.9132	18684
430.04396	18798.4
434.17176	18962.2
438.2966	19074.1
442.41849	19331
446.53742	19767.7
450.6534	20246.9
454.76644	20584.3
458.87653	20756.6
462.98368	20736.3
467.08789	20608.8
471.18916	20453.4
475.2875	20296
479.38291	20281.6
483.4754	20250.4
487.56496	20065.4
491.6516	19725.4
495.73531	19340.5
499.81612	19074.2
503.89401	19034.9
507.96899	19081.6
512.04106	19017.4
516.11023	18919.4
520.1765	18710.1
524.23987	18540.4
528.30034	18380.2
532.35792	18242
536.41261	18073.5
540.46441	17936.3
544.51333	17940.7
548.55936	18165.5
552.60252	18581.9
556.64279	19060.4
560.6802	19441.5
564.71473	19693.1
568.7464	20138.9
572.7752	20871.4
576.80114	21645.4
580.82422	22284.4
584.84444	22768.2
588.86181	23390
592.87633	24024
596.888	23926.4
600.89682	23020.4
604.9028	22439.1
608.90594	22973.4
612.90624	23787.6
616.90371	22359.8
620.89834	19553.4
624.89015	18316.2
628.87913	18299.5
632.86528	18491.7
636.84862	18578.2
640.82913	18282.3
644.80683	17858.4
648.78172	17599.9
652.75379	17545.2
656.72306	17627.2
660.68952	17819.4
664.65319	17741.6
668.61405	17538.2
672.57211	17521
676.52738	17584.3
680.47986	17613.7
684.42955	17574.1
688.37646	17500.8
692.32058	17507.5
696.26192	17629
700.20048	17841.5
704.13626	17935.4
708.06928	18079.4
711.99952	18101.3
715.927	18031.9
719.85171	17992.5
723.77365	17856.4
727.69284	17643.5
731.60928	17462.1
735.52295	17343.4
739.43388	17324.5
743.34206	17347.1
747.24749	17433.1
751.15017	17599.7
755.05012	17951
758.94733	18406.7
762.8418	19252.4
766.73354	20468.9
770.62254	21559.9
774.50882	21679.5
778.39237	20760.6
782.27321	19415.6
786.15132	18376.8
790.02671	17727
793.89938	17384.7
797.76935	17213.2
801.6366	17131.8
805.50115	17029.4
809.36299	16963
813.22213	16864.6
817.07857	16872.3
820.93231	16837.3
824.78336	16783.7
828.63172	16645.2
832.47738	16594.2
836.32036	16546.6
840.16066	16529
843.99827	16537.5
847.8332	16517.6
851.66546	16529.2
855.49504	16566.2
859.32195	16550.9
863.1462	16520.1
866.96777	16475.6
870.78668	16428.9
874.60293	16462.7
878.41652	16462.7
882.22745	16485.3
886.03573	16510.7
889.84136	16522.1
893.64433	16497.6
897.44466	16488.6
901.24235	16447.7
905.0374	16401.7
908.8298	16355
912.61957	16414.6
916.40671	16611.1
920.19121	16873.1
923.97308	17073.8
927.75233	17006.8
931.52895	16776
935.30295	16477.2
939.07433	16124.6
942.84309	15884
946.60924	15721.6
950.37278	15639.5
954.13371	15614.7
957.89203	15637.7
961.64774	15630.4
965.40086	15590.3
969.15137	15552.5
972.89929	15453.2
976.64461	15355
980.38733	15262
984.12747	15255.2
987.86502	15304
991.59999	15312.3
995.33237	15391.1
999.06217	15504.6
1002.78939	15704.9
1006.51404	15921.1
1010.23611	16150.3
1013.95561	16290.1
1017.67255	16397.4
1021.38692	16329.2
1025.09872	16116.3
1028.80796	15927.6
1032.51465	15837
1036.21877	15837.4
1039.92035	15913.6
1043.61937	16023.8
1047.31584	16103.8
1051.00976	16190.6
1054.70114	16284.4
1058.38998	16390.5
1062.07627	16566.7
1065.76003	16817.2
1069.44126	16990.1
1073.11995	17213.8
1076.79611	17409
1080.46974	17469.9
1084.14085	17502.8
1087.80943	17621.4
1091.47549	17817.3
1095.13903	17912.3
1098.80005	17778.9
1102.45857	17402.4
1106.11456	17029.6
1109.76805	16778
1113.41903	16699.8
1117.06751	16785.8
1120.71348	16962.1
1124.35696	17202.1
1127.99793	17497.3
1131.63641	17684.6
1135.2724	17592.7
1138.90589	17443.9
1142.5369	17510.4
1146.16542	17676.4
1149.79145	17917.6
1153.415	18138.6
1157.03607	18450.3
1160.65467	18949.9
1164.27079	19695
1167.88443	20623.4
1171.49561	21580.1
1175.10432	22767.8
1178.71056	24171.6
1182.31434	25596.8
1185.91565	26385.4
1189.51451	26511.5
1193.11091	26218.5
1196.70485	25604.4
1200.29634	24827.6
1203.88538	24261.1
1207.47197	23907.1
1211.05612	23694
1214.63782	23257.4
1218.21708	22580.9
1221.79391	21841.5
1225.36829	21277.5
1228.94024	20848.2
1232.50976	20555.5
1236.07685	20291.1
1239.6415	20059.8
1243.20374	20066.9
1246.76355	20159.3
1250.32093	20366.7
1253.8759	20723.6
1257.42845	21142.7
1260.97859	21719.1
1264.52631	22309.7
1268.07163	22802.4
1271.61453	23402.2
1275.15503	24020.5
1278.69312	24747.4
1282.22882	25518.3
1285.76211	26489.4
1289.29301	27704.5
1292.82151	29022.1
1296.34761	30680.8
1299.87133	32361.4
1303.39266	34009.2
1306.9116	35317.1
1310.42815	36246.6
1313.94233	36587.4
1317.45412	36411.2
1320.96354	35966.5
1324.47058	35625.5
1327.97525	35390.6
1331.47754	35244.8
1334.97747	35141.2
1338.47502	34986.8
1341.97022	34849.2
1345.46305	34731.6
1348.95352	34519.4
1352.44163	34296
1355.92738	34370
1359.41078	34916.7
1362.89183	35442.8
1366.37053	34914.1
1369.84688	32770.8
1373.32088	29811.1
1376.79254	27698.4
1380.26186	26854.2
1383.72883	26864.9
1387.19347	27058.1
1390.65578	26999.6
1394.11575	27021.1
1397.57339	27128.1
1401.0287	27464.4
1404.48168	27608.4
1407.93234	27334.3
1411.38068	26587.1
1414.82669	25507.5
1418.27039	24238.8
1421.71177	23139
1425.15083	22188.2
1428.58758	21683
1432.02203	21720.1
1435.45416	22133.8
1438.88399	22702.8
1442.31151	23140.2
1445.73673	23496.8
1449.15965	23866.6
1452.58027	24181.5
1455.9986	24385.1
1459.41463	24649.1
1462.82837	24928.9
1466.23982	25296.1
1469.64898	25616.1
1473.05586	25783.4
1476.46045	25809.9
1479.86276	25652
1483.26279	25468.2
1486.66054	25392.4
1490.05602	25496.1
1493.44922	25829.5
1496.84016	26312.6
1500.22882	26938.4
1503.61521	27732.5
1506.99934	28622.8
1510.38121	29339
1513.76081	29533.6
1517.13816	29169.9
1520.51324	28679.1
1523.88607	28366.4
1527.25665	28337.3
1530.62498	28341.1
1533.99105	28209.6
1537.35488	27780.5
1540.71647	27043.2
1544.07581	26160.2
1547.4329	25240.2
1550.78776	24486.3
1554.14038	23913.2
1557.49077	23553.9
1560.83892	23364.3
1564.18484	23343
1567.52853	23461.6
1570.86999	23721.9
1574.20922	24223.1
1577.54624	24667
1580.88103	24852.1
1584.2136	24946.9
1587.54395	25399.4
1590.87208	26308.2
1594.19801	27502.5
1597.52172	28669.8
1600.84321	28945
1604.16251	27865.6
1607.47959	25917.8
1610.79447	23903.2
1614.10715	21994.2
1617.41763	20409.3
1620.7259	19206.5
1624.03199	18523.2
1627.33587	18405.3
1630.63757	18752.7
1633.93707	19710.9
1637.23439	21495.1
1640.52951	24154.9
1643.82246	27539.7
1647.11321	30646.8
1650.40179	31947.3
1653.68819	30638.3
1656.97241	27269.5
1660.25446	23416.4
1663.53433	20217.8
1666.81203	17930.7
1670.08756	16452.4
1673.36092	15527.1
1676.63211	14920.4
1679.90115	14495.4
1683.16801	14183.1
1686.43272	13953.7
1689.69527	13768.9
1692.95567	13617.3
1696.2139	13534.4
1699.46999	13453.1
1702.72392	13354.2
1705.97571	13335.7
1709.22535	13298.2
1712.47284	13224.4
1715.71819	13177.3
1718.96139	13150.9
1722.20246	13062.4
1725.44139	13013.6
1728.67818	12891.9
1731.91284	12849
1735.14537	12780.8
1738.37576	12701.7
1741.60403	12661.5
1744.83017	12573.6
1748.05418	12558.3
1751.27607	12531.6
1754.49584	12526
1757.71349	12501.3
1760.92903	12480.9
1764.14244	12477.7
1767.35375	12459.3
1770.56294	12398.9
1773.77002	12376.8
1776.97499	12325
1780.17785	12303.6
1783.37861	12274
1786.57727	12225.7
1789.77382	12194.9
1792.96828	12118
1796.16064	12113.7
1799.3509	12097.6
1802.53907	12046.2
1805.72514	12000.6
1808.90913	11960.2
1812.09102	11919.9
1815.27083	11856.2
1818.44856	11856.2
1821.6242	11814.3
1824.79776	11787.3
1827.96924	11787.5
1831.13864	11773.4
1834.30597	11762
1837.47122	11709.9
1840.6344	11703
1843.7955	11698
1846.95454	11678.4
1850.11151	11683
1853.26642	11669
1856.41926	11639.5
1859.57004	11627.8
1862.71876	11620.2
1865.86542	11607.6
1869.01003	11576.3
1872.15258	11555.7
1875.29308	11531
1878.43152	11476.6
1881.56792	11490.2
1884.70227	11441.7
1887.83457	11446.9
1890.96482	11408.9
1894.09304	11388.3
1897.21921	11363.5
1900.34335	11357.3
1903.46544	11336.8
1906.58551	11348.6
1909.70353	11292.3
1912.81953	11261
1915.93349	11241.6
1919.04543	11193.9
1922.15534	11186.7
1925.26322	11146
1928.36908	11117.6
1931.47292	11089.2
1934.57473	11087.9
1937.67453	11044.5
1940.77232	11017.7
1943.86808	10970.9
1946.96184	10935.2
1950.05358	10896.9
1953.14331	10849.4
1956.23103	10832.8
1959.31675	10781.3
1962.40046	10730.1
1965.48217	10732.1
1968.56188	10672.4
1971.63959	10623.6
1974.7153	10597.6
1977.78901	10536.6
1980.86073	10505.8
1983.93046	10459.1
1986.99819	10422.7
1990.06394	10417.6
1993.1277	10386.2
1996.18947	10340
1999.24925	10296.4
2002.30706	10278.9
2005.36288	10218.6
2008.41672	10191.8
2011.46859	10127.6
2014.51848	10143.9
2017.56639	10095.7
2020.61233	10088.9
2023.6563	10035.4
2026.6983	9974.4
2029.73833	9953
2032.7764	9909
2035.8125	9914.1
2038.84664	9877
2041.87881	9856.6
2044.90903	9810.8
2047.93729	9820.1
2050.96359	9809.6
2053.98794	9790.3
2057.01034	9730.7
2060.03078	9735.6
2063.04927	9755.6
2066.06582	9741.4
2069.08042	9729.4
2072.09307	9746.5
2075.10378	9676.7
2078.11255	9694.8
2081.11938	9678.3
2084.12426	9689.9
2087.12722	9675.6
2090.12824	9641.1
2093.12732	9636.6
2096.12447	9637.1
2099.11969	9635
2102.11299	9639.1
2105.10435	9620.6
2108.09379	9609.5
2111.08131	9621.7
2114.0669	9621.9
2117.05057	9634.8
2120.03233	9632.2
2123.01216	9626.1
2125.99008	9641.2
2128.96609	9620.9
2131.94018	9619.4
2134.91236	9607.5
2137.88263	9616.1
2140.851	9621.4
2143.81746	9621.1
2146.78201	9609.6
2149.74466	9599.7
2152.7054	9576.5
2155.66425	9562.1
2158.6212	9540.8
2161.57625	9537.3
2164.52941	9524.7
2167.48067	9527.5
2170.43004	9510.1
2173.37752	9522.3
2176.32311	9502.3
2179.26681	9523.9
2182.20863	9493.7
2185.14856	9478.7
2188.08661	9491.4
2191.02278	9487.1
2193.95707	9463.2
2196.88948	9420
2199.82001	9423
2202.74867	9387.8
2205.67545	9385.4
2208.60037	9361.3
2211.52341	9357.2
2214.44458	9333.2
2217.36388	9277.1
2220.28132	9273.5
2223.1969	9247.3
2226.11061	9230.1
2229.02246	9220.4
2231.93245	9199.6
2234.84058	9181.8
2237.74686	9145.7
2240.65128	9136.7
2243.55385	9108.9
2246.45456	9117.8
2249.35343	9104.4
2252.25044	9085.7
2255.14561	9033.3
2258.03893	9017.1
2260.93041	8971.8
2263.82004	8960.1
2266.70783	8936
2269.59378	8918
2272.4779	8876.8
2275.36017	8829.3
2278.24061	8830.7
2281.11922	8803.7
2283.996	8793.4
2286.87094	8781.6
2289.74405	8752.4
2292.61534	8737.4
2295.4848	8711.8
2298.35243	8717.2
2301.21824	8711.7
2304.08223	8706.7
2306.94439	8703.2
2309.80474	8682.8
2312.66327	8665
2315.51999	8652.3
2318.37489	8629.7
2321.22797	8630
2324.07925	8594.9
2326.92871	8575.3
2329.77637	8571.7
2332.62222	8538.4
2335.46626	8547.9
2338.3085	8543.2
2341.14893	8502.1
2343.98756	8517.4
2346.8244	8514.1
2349.65943	8495.9
2352.49267	8466.6
2355.32411	8471
2358.15376	8479.7
2360.98161	8476.5
2363.80768	8460.3
2366.63195	8441.2
2369.45444	8432.1
2372.27514	8439.2
2375.09405	8414.7
2377.91118	8395.7
2380.72652	8385.4
2383.54009	8333.7
2386.35187	8349
2389.16188	8307.8
2391.97011	8281.5
2394.77657	8258.2
2397.58125	8252.9
2400.38416	8232.7
2403.18529	8207.8
2405.98466	8203.1
2408.78226	8192.4
2411.57809	8195.9
2414.37216	8169.7
2417.16446	8161.4
2419.955	8123.6
2422.74378	8132.9
2425.5308	8084.9
2428.31606	8089.1
2431.09956	8083.3
2433.88131	8048.6
2436.6613	8054.6
2439.43954	8065
2442.21603	8047.1
2444.99077	8033.6
2447.76377	8043.5
2450.53501	8021.2
2453.30451	8019.2
2456.07226	8021.4
2458.83827	8003.4
2461.60254	7986.8
2464.36507	7986.3
2467.12586	7988.7
2469.88492	7962.8
2472.64224	7995.3
2475.39782	7936.2
2478.15167	7951.3
2480.90379	7933.7
2483.65417	7966.6
2486.40283	7933
2489.14976	7933.1
2491.89497	7919.5
2494.63845	7919
2497.3802	7910.6
2500.12024	7921.4
2502.85855	7909.1
2505.59514	7897.9
2508.33002	7899.6
2511.06318	7892.2
2513.79462	7873.6
2516.52435	7869.4
2519.25237	7842.1
2521.97867	7824.2
2524.70327	7800.6
2527.42616	7801.3
2530.14734	7778.1
2532.86681	7786.9
2535.58458	7772.4
2538.30065	7761.6
2541.01501	7781.5
2543.72768	7750
2546.43864	7721.2
2549.14791	7725.9
2551.85548	7705.5
2554.56136	7710.6
2557.26554	7684.5
2559.96803	7678.7
2562.66883	7672.8
2565.36794	7634.3
2568.06536	7631.4
2570.7611	7619.4
2573.45514	7606.1
2576.14751	7584
2578.83819	7569.3
2581.52719	7571.1
2584.21451	7558.2
2586.90015	7562.2
2589.58411	7537.9
2592.2664	7518.1
2594.94701	7509.2
2597.62594	7518.3
2600.30321	7499.5
2602.9788	7485.1
2605.65273	7485.9
2608.32498	7499
2610.99557	7467.3
2613.66449	7464.6
2616.33175	7460.4
2618.99734	7450.6
2621.66128	7437.2
2624.32355	7422.8
2626.98416	7419.5
2629.64311	7401.7
2632.30041	7395.7
2634.95605	7384.8
2637.61004	7361.4
2640.26238	7367.1
2642.91306	7350.1
2645.56209	7331.9
2648.20948	7348.5
2650.85521	7347.4
2653.4993	7354.6
2656.14175	7341.9
2658.78255	7362.5
2661.42171	7347.7
2664.05923	7341.6
2666.6951	7362.2
2669.32934	7377.1
2671.96194	7347.8
2674.59291	7354.6
2677.22224	7330.5
2679.84993	7345.5
2682.476	7304
2685.10043	7309.4
2687.72324	7310.8
2690.34441	7305.5
2692.96396	7325.9
2695.58188	7316
2698.19818	7312.5
2700.81285	7309.7
2703.4259	7313.5
2706.03733	7309.8
2708.64714	7314.3
2711.25533	7313.6
2713.86191	7316.7
2716.46687	7308.1
2719.07021	7329.3
2721.67194	7315.6
2724.27206	7322.8
2726.87057	7314.1
2729.46747	7332.9
2732.06276	7295.1
2734.65644	7316.2
2737.24852	7320.8
2739.83899	7280.1
2742.42786	7288.3
2745.01513	7279.3
2747.60079	7240.7
2750.18486	7246.9
2752.76733	7242.7
2755.3482	7247.7
2757.92747	7247.8
2760.50515	7211.1
2763.08123	7208.9
2765.65573	7175.2
2768.22863	7178.7
2770.79994	7180.9
2773.36967	7181
2775.9378	7173.4
2778.50435	7153
2781.06932	7171.9
2783.6327	7134.9
2786.1945	7137
2788.75471	7167.7
2791.31335	7135.8
2793.87041	7125.1
2796.42589	7110.2
2798.97979	7103.5
2801.53212	7084.5
2804.08288	7081.9
2806.63206	7043.1
2809.17967	7063.7
2811.72571	7034.7
2814.27018	7022.1
2816.81308	6995.2
2819.35442	6998.7
2821.89419	6983.5
2824.43239	6977.1
2826.96904	6978.8
2829.50412	6971.3
2832.03763	6952.7
2834.56959	6949.8
2837.1	6947.5
2839.62884	6974.5
2842.15613	6974.4
2844.68186	7024.8
2847.20604	7063.2
2849.72867	7053.8
2852.24974	7083
2854.76927	7057.1
2857.28724	7038
2859.80367	7044.4
2862.31855	7001.7
2864.83189	6979.6
2867.34368	6986.7
2869.85393	6967.7
2872.36264	6940.2
2874.8698	6964.6
2877.37543	6945.5
2879.87952	6956.5
2882.38207	6944.9
2884.88308	6921.9
2887.38256	6934.9
2889.88051	6922.3
2892.37692	6918.3
2894.8718	6945.1
2897.36515	6929.9
2899.85698	6917.2
2902.34727	6935.8
2904.83604	6939.5
2907.32328	6946.8
2909.809	6954.3
2912.29319	6940.7
2914.77587	6948.4
2917.25702	6944.7
2919.73665	6929.1
2922.21476	6931.8
2924.69136	6913.9
2927.16644	6924.7
2929.64	6917.6
2932.11205	6905.4
2934.58258	6870
2937.05161	6879.8
2939.51912	6888.5
2941.98513	6844
2944.44962	6832.6
2946.91261	6787.4
2949.37409	6798.7
2951.83407	6787.8
2954.29254	6752.3
2956.74951	6749.4
2959.20498	6740.9
2961.65895	6721.7
2964.11142	6711
2966.56239	6698.5
2969.01186	6672.1
2971.45984	6669.8
2973.90632	6659.4
2976.35131	6639.3
2978.7948	6608.3
2981.23681	6582
2983.67732	6582
2986.11635	6557.9
2988.55388	6528.4
2990.98993	6519.5
2993.4245	6496.8
2995.85758	6469.4
2998.28917	6464.7
3000.71928	6425.4
3003.14791	6414.8
3005.57506	6411.6
3008.00073	6389.9
3010.42493	6372.9
3012.84764	6377.7
3015.26888	6367.9
3017.68865	6320.6
3020.10694	6313.7
3022.52376	6299.1
3024.9391	6306.8
3027.35298	6274.6
3029.76539	6282.7
3032.17632	6253.2
3034.5858	6244.1
3036.9938	6240
3039.40034	6249.8
3041.80542	6235.4
3044.20903	6224.9
3046.61118	6209.1
3049.01187	6183.1
3051.4111	6187.8
3053.80888	6161.3
3056.20519	6167.2
3058.60005	6123.7
3060.99345	6145.3
3063.3854	6129.8
3065.7759	6132.6
3068.16494	6088.7
3070.55254	6049.6
3072.93868	6038.9
3075.32338	6038.3
3077.70662	6021.3
3080.08842	5993.5
3082.46878	5988.2
3084.84769	5972.6
3087.22515	5952.8
3089.60118	5942.2
3091.97576	5945.9
3094.3489	5942.7
3096.72061	5950.7
3099.09087	5948.7
3101.4597	5943.5
3103.82709	5950.6
3106.19305	5917.1
3108.55757	5918.8
3110.92066	5892.3
3113.28232	5894.3
3115.64255	5870.8
3118.00134	5867.1
3120.35871	5842.1
3122.71466	5846.8
3125.06917	5828.9
3127.42226	5812.8
3129.77393	5802.8
3132.12417	5814.3
3134.47299	5802.7
3136.82039	5804.2
3139.16636	5802.7
3141.51092	5787
3143.85406	5784.3
3146.19579	5789.4
3148.53609	5785.1
3150.87499	5781.8
3153.21246	5775.6
3155.54853	5802.9
3157.88318	5805.9
3160.21642	5796.1
3162.54826	5807.4
3164.87868	5787.5
3167.2077	5800.6
3169.5353	5806.8
3171.86151	5792.1
3174.18631	5792.6
3176.5097	5768.4
3178.83169	5773.6
3181.15228	5771.6
3183.47147	5782.4
3185.78926	5743.8
3188.10565	5764.7
3190.42065	5734.7
3192.73424	5726.1
3195.04645	5741.3
3197.35725	5705.8
3199.66667	5707.6
3201.97469	5711.7
3204.28132	5698.7
3206.58656	5696.7
3208.8904	5711.9
3211.19287	5717.7
3213.49394	5726.7
3215.79363	5712.2
3218.09193	5709.5
3220.38884	5690.6
3222.68438	5702.4
3224.97853	5694.2
3227.2713	5678.1
3229.56269	5697
3231.8527	5675.9
3234.14133	5665.2
3236.42858	5649.7
3238.71446	5636.5
3240.99896	5636.6
3243.28209	5633.3
3245.56384	5633.4
3247.84423	5608.4
3250.12324	5587.4
3252.40088	5592.8
3254.67715	5575.1
3256.95205	5568.1
3259.22558	5556.6
3261.49775	5554.7
3263.76855	5524.5
3266.03799	5512.6
3268.30606	5508.3
3270.57277	5493.8
3272.83812	5484.6
3275.10211	5486.4
3277.36474	5457.8
3279.62601	5477.2
3281.88593	5470.2
3284.14448	5443.9
3286.40168	5459.8
3288.65753	5480.1
3290.91202	5458.9
3293.16516	5436.2
3295.41695	5419
3297.66738	5377
3299.91647	5336.9
3302.16421	5303.5
3304.4106	5270.2
3306.65564	5237.1
3308.89933	5215
3311.14169	5171.8
3313.38269	5129.3
3315.62236	5081
3317.86068	5050.4
3320.09766	5001.9
3322.3333	4981
3324.5676	4937.9
3326.80056	4859.7
3329.03219	4819.4
3331.26248	2.4
3333.49143	-0.6
3335.71905	-1.3
