Data from AgNPs_FTO_APTES_UA_5uM_CRN_200uM_R6G_10uM_NaF_0.1M_Addition_RamanShift__16__16-18-31-782.txt Node

Date: Mon Feb 07 16:18:31 GMT 2022
User: TCL
Spectrometer: QEP01345
Trigger mode: 4
Integration Time (sec): 7.000000E0
Scans to average: 10
Electric dark correction enabled: true
Nonlinearity correction enabled: false
Boxcar width: 0
XAxis mode: Raman Shifts
Number of Pixels in Spectrum: 1044
>>>>>Begin Spectral Data<<<<<
46.04893	-1.275
50.45542	-0.575
54.85868	-0.275
59.25871	-1.175
63.6555	68.925
68.04907	68.425
72.43941	76.925
76.82654	76.325
81.21044	80.125
85.59113	79.725
89.96862	88.125
94.34289	90.725
98.71396	91.525
103.08183	94.225
107.4465	97.125
111.80798	97.525
116.16626	100.825
120.52136	106.825
124.87327	111.925
129.222	122.925
133.56755	125.525
137.90993	135.025
142.24913	155.925
146.58517	174.725
150.91804	208.525
155.24774	251.525
159.57429	313.625
163.89768	406.925
168.21792	545.925
172.53501	749.925
176.84895	1043.025
181.15975	1482.725
185.46741	2073.525
189.77193	2871.125
194.07331	3854.525
198.37157	4970.225
202.6667	6159.925
206.9587	7325.625
211.24758	8443.025
215.53334	9611.625
219.81599	10833.025
224.09553	12158.025
228.37195	13606.425
232.64527	15184.425
236.91549	16878.325
241.18261	18541.425
245.44663	20113.525
249.70755	21573.925
253.96539	22813.125
258.22014	23882.725
262.4718	24760.425
266.72039	25374.125
270.96589	25848.725
275.20832	26039.125
279.44768	26043.125
283.68397	25955.225
287.91719	25953.225
292.14735	25966.825
296.37445	26179.725
300.59849	26329.825
304.81948	26351.725
309.03742	26122.625
313.25231	25664.525
317.46415	24906.625
321.67296	24049.825
325.87872	23366.325
330.08145	22985.725
334.28114	22939.025
338.47781	23010.125
342.67145	23280.425
346.86207	23570.525
351.04966	23923.925
355.23424	24275.125
359.4158	24569.625
363.59435	24742.425
367.76989	24890.125
371.94243	25054.925
376.11196	25162.525
380.27849	25235.325
384.44203	25412.625
388.60257	25635.625
392.76012	25897.125
396.91468	26168.225
401.06626	26569.825
405.21485	26791.925
409.36047	26669.725
413.50311	26254.125
417.64277	25831.125
421.77947	25694.525
425.9132	25741.925
430.04396	25817.825
434.17176	25979.625
438.2966	26261.825
442.41849	26666.825
446.53742	27289.125
450.6534	28040.925
454.76644	28567.425
458.87653	28802.125
462.98368	28880.025
467.08789	28849.925
471.18916	28772.725
475.2875	28735.425
479.38291	28806.725
483.4754	28685.425
487.56496	28231.625
491.6516	27588.925
495.73531	26996.725
499.81612	26613.325
503.89401	26655.525
507.96899	26668.225
512.04106	26630.725
516.11023	26525.825
520.1765	26360.325
524.23987	26073.125
528.30034	25818.525
532.35792	25574.825
536.41261	25394.525
540.46441	25258.925
544.51333	25333.225
548.55936	25762.225
552.60252	26428.025
556.64279	27086.925
560.6802	27601.425
564.71473	27934.125
568.7464	28441.125
572.7752	29156.925
576.80114	29652.025
580.82422	29974.325
584.84444	30079.825
588.86181	30132.125
592.87633	30122.625
596.888	30102.925
600.89682	29958.325
604.9028	30501.325
608.90594	32350.625
612.90624	34345.025
616.90371	32443.425
620.89834	27728.025
624.89015	25625.025
628.87913	25493.025
632.86528	25754.825
636.84862	25883.925
640.82913	25647.025
644.80683	25100.325
648.78172	24628.225
652.75379	24446.825
656.72306	24574.625
660.68952	24869.725
664.65319	24774.425
668.61405	24475.725
672.57211	24405.725
676.52738	24449.025
680.47986	24478.725
684.42955	24413.725
688.37646	24319.725
692.32058	24326.425
696.26192	24480.525
700.20048	24640.325
704.13626	24822.425
708.06928	24906.025
711.99952	24809.725
715.927	24727.025
719.85171	24753.425
723.77365	24686.025
727.69284	24477.925
731.60928	24240.825
735.52295	24109.925
739.43388	24066.425
743.34206	24049.525
747.24749	24179.925
751.15017	24383.025
755.05012	24777.225
758.94733	25490.225
762.8418	26762.225
766.73354	28747.225
770.62254	30613.425
774.50882	30994.325
778.39237	29627.125
782.27321	27473.725
786.15132	25720.125
790.02671	24651.925
793.89938	24087.525
797.76935	23899.025
801.6366	23803.725
805.50115	23692.825
809.36299	23582.525
813.22213	23478.225
817.07857	23490.125
820.93231	23487.725
824.78336	23433.425
828.63172	23294.825
832.47738	23208.725
836.32036	23180.225
840.16066	23143.025
843.99827	23172.825
847.8332	23162.925
851.66546	23073.625
855.49504	23075.925
859.32195	23073.925
863.1462	23049.825
866.96777	23008.125
870.78668	22907.125
874.60293	22948.325
878.41652	22934.725
882.22745	22982.425
886.03573	22987.125
889.84136	22977.425
893.64433	22974.125
897.44466	22905.425
901.24235	22822.425
905.0374	22693.525
908.8298	22661.925
912.61957	22735.625
916.40671	23004.725
920.19121	23291.925
923.97308	23452.225
927.75233	23352.225
931.52895	23134.225
935.30295	22874.525
939.07433	22529.025
942.84309	22187.625
946.60924	22009.525
950.37278	21892.125
954.13371	21809.025
957.89203	21823.225
961.64774	21817.625
965.40086	21753.125
969.15137	21713.225
972.89929	21583.425
976.64461	21460.525
980.38733	21390.725
984.12747	21446.325
987.86502	21546.025
991.59999	21700.825
995.33237	21891.925
999.06217	22194.725
1002.78939	22561.425
1006.51404	22807.025
1010.23611	23002.525
1013.95561	23143.725
1017.67255	23252.425
1021.38692	23110.225
1025.09872	22886.425
1028.80796	22752.625
1032.51465	22905.925
1036.21877	23151.625
1039.92035	23199.325
1043.61937	23195.425
1047.31584	23130.125
1051.00976	23092.125
1054.70114	23110.325
1058.38998	23222.425
1062.07627	23550.725
1065.76003	23860.125
1069.44126	24046.125
1073.11995	24283.325
1076.79611	24501.425
1080.46974	24549.525
1084.14085	24629.125
1087.80943	24823.425
1091.47549	25018.225
1095.13903	25096.525
1098.80005	24974.125
1102.45857	24538.025
1106.11456	24051.325
1109.76805	23799.625
1113.41903	23835.025
1117.06751	24028.625
1120.71348	24236.525
1124.35696	24582.025
1127.99793	24925.325
1131.63641	25165.525
1135.2724	24970.525
1138.90589	24732.025
1142.5369	24664.625
1146.16542	24749.425
1149.79145	24986.625
1153.415	25312.225
1157.03607	25742.125
1160.65467	26421.225
1164.27079	27401.025
1167.88443	28673.025
1171.49561	30267.925
1175.10432	32273.825
1178.71056	34839.125
1182.31434	37185.025
1185.91565	38606.225
1189.51451	38929.625
1193.11091	38382.025
1196.70485	37133.025
1200.29634	35615.725
1203.88538	34331.025
1207.47197	33354.125
1211.05612	32590.625
1214.63782	31926.025
1218.21708	31192.925
1221.79391	30454.925
1225.36829	29875.125
1228.94024	29402.925
1232.50976	28938.625
1236.07685	28582.225
1239.6415	28408.425
1243.20374	28468.525
1246.76355	28653.725
1250.32093	28971.525
1253.8759	29436.125
1257.42845	30096.725
1260.97859	30902.825
1264.52631	31574.025
1268.07163	32274.725
1271.61453	32969.825
1275.15503	33825.525
1278.69312	34703.625
1282.22882	35571.825
1285.76211	36577.525
1289.29301	37928.025
1292.82151	39662.925
1296.34761	41758.025
1299.87133	44055.425
1303.39266	46367.225
1306.9116	48625.725
1310.42815	50520.825
1313.94233	51716.625
1317.45412	51982.625
1320.96354	51693.125
1324.47058	51471.125
1327.97525	51134.225
1331.47754	50833.325
1334.97747	50667.425
1338.47502	50628.925
1341.97022	50628.225
1345.46305	50423.625
1348.95352	49829.325
1352.44163	48995.125
1355.92738	48539.925
1359.41078	49052.225
1362.89183	49847.225
1366.37053	48766.425
1369.84688	45229.025
1373.32088	41268.525
1376.79254	38744.225
1380.26186	37776.325
1383.72883	37867.125
1387.19347	38162.125
1390.65578	38402.825
1394.11575	38530.525
1397.57339	38819.625
1401.0287	39187.225
1404.48168	39325.025
1407.93234	38867.925
1411.38068	37886.925
1414.82669	36277.925
1418.27039	34485.825
1421.71177	32827.625
1425.15083	31541.425
1428.58758	30827.225
1432.02203	30847.725
1435.45416	31447.425
1438.88399	32309.025
1442.31151	33136.225
1445.73673	33768.625
1449.15965	34487.025
1452.58027	35151.925
1455.9986	35811.925
1459.41463	36299.925
1462.82837	36724.325
1466.23982	37055.625
1469.64898	37313.625
1473.05586	37358.025
1476.46045	37098.225
1479.86276	36651.125
1483.26279	36204.425
1486.66054	35886.225
1490.05602	35956.925
1493.44922	36254.425
1496.84016	36871.525
1500.22882	37994.325
1503.61521	39656.225
1506.99934	41499.125
1510.38121	43094.825
1513.76081	43631.125
1517.13816	42834.425
1520.51324	41354.125
1523.88607	40016.925
1527.25665	39248.725
1530.62498	38961.225
1533.99105	38748.925
1537.35488	38419.425
1540.71647	37705.525
1544.07581	36777.225
1547.4329	35826.925
1550.78776	35002.825
1554.14038	34510.825
1557.49077	34318.125
1560.83892	34244.525
1564.18484	34399.425
1567.52853	34605.325
1570.86999	34983.525
1574.20922	35619.325
1577.54624	36191.625
1580.88103	36393.625
1584.2136	36433.625
1587.54395	36916.125
1590.87208	37835.125
1594.19801	39128.825
1597.52172	40505.125
1600.84321	40785.125
1604.16251	39297.325
1607.47959	36920.925
1610.79447	34310.725
1614.10715	31756.925
1617.41763	29544.025
1620.7259	27842.925
1624.03199	26915.725
1627.33587	26674.025
1630.63757	27246.425
1633.93707	28572.525
1637.23439	30931.225
1640.52951	34416.925
1643.82246	38318.725
1647.11321	41765.925
1650.40179	42918.025
1653.68819	41003.925
1656.97241	36747.225
1660.25446	31900.125
1663.53433	27956.325
1666.81203	25150.325
1670.08756	23306.725
1673.36092	22142.525
1676.63211	21344.125
1679.90115	20846.025
1683.16801	20440.625
1686.43272	20110.325
1689.69527	19902.425
1692.95567	19794.325
1696.2139	19628.425
1699.46999	19512.425
1702.72392	19408.425
1705.97571	19341.825
1709.22535	19297.725
1712.47284	19238.625
1715.71819	19159.725
1718.96139	19131.525
1722.20246	19052.425
1725.44139	18946.825
1728.67818	18878.025
1731.91284	18752.525
1735.14537	18667.325
1738.37576	18572.425
1741.60403	18481.425
1744.83017	18420.125
1748.05418	18423.525
1751.27607	18388.625
1754.49584	18331.425
1757.71349	18336.625
1760.92903	18304.525
1764.14244	18271.825
1767.35375	18238.125
1770.56294	18187.325
1773.77002	18119.325
1776.97499	18066.825
1780.17785	18023.325
1783.37861	17979.125
1786.57727	17949.525
1789.77382	17911.925
1792.96828	17879.625
1796.16064	17830.925
1799.3509	17777.025
1802.53907	17718.825
1805.72514	17708.525
1808.90913	17637.625
1812.09102	17592.025
1815.27083	17511.525
1818.44856	17510.625
1821.6242	17451.925
1824.79776	17430.325
1827.96924	17397.225
1831.13864	17355.225
1834.30597	17360.525
1837.47122	17327.225
1840.6344	17292.325
1843.7955	17321.325
1846.95454	17290.425
1850.11151	17278.325
1853.26642	17267.825
1856.41926	17230.225
1859.57004	17204.125
1862.71876	17202.625
1865.86542	17153.325
1869.01003	17154.225
1872.15258	17112.225
1875.29308	17131.725
1878.43152	17079.225
1881.56792	17062.925
1884.70227	17041.625
1887.83457	16999.725
1890.96482	16994.225
1894.09304	16969.025
1897.21921	16897.425
1900.34335	16907.625
1903.46544	16884.025
1906.58551	16859.625
1909.70353	16833.025
1912.81953	16797.225
1915.93349	16768.825
1919.04543	16725.325
1922.15534	16720.725
1925.26322	16655.525
1928.36908	16639.325
1931.47292	16616.225
1934.57473	16635.025
1937.67453	16549.325
1940.77232	16517.425
1943.86808	16431.425
1946.96184	16358.125
1950.05358	16331.825
1953.14331	16286.325
1956.23103	16210.225
1959.31675	16184.025
1962.40046	16149.125
1965.48217	16059.825
1968.56188	16025.725
1971.63959	15958.125
1974.7153	15908.425
1977.78901	15886.425
1980.86073	15825.925
1983.93046	15797.925
1986.99819	15707.025
1990.06394	15704.225
1993.1277	15635.325
1996.18947	15545.625
1999.24925	15525.725
2002.30706	15477.425
2005.36288	15427.625
2008.41672	15402.425
2011.46859	15346.325
2014.51848	15259.125
2017.56639	15227.525
2020.61233	15204.525
2023.6563	15156.425
2026.6983	15090.125
2029.73833	15073.425
2032.7764	15047.125
2035.8125	15008.125
2038.84664	14972.725
2041.87881	14953.925
2044.90903	14930.825
2047.93729	14867.525
2050.96359	14864.425
2053.98794	14861.425
2057.01034	14838.425
2060.03078	14829.325
2063.04927	14829.825
2066.06582	14820.925
2069.08042	14807.225
2072.09307	14758.225
2075.10378	14752.025
2078.11255	14754.125
2081.11938	14764.325
2084.12426	14750.925
2087.12722	14702.525
2090.12824	14710.125
2093.12732	14709.325
2096.12447	14724.125
2099.11969	14689.025
2102.11299	14677.125
2105.10435	14686.725
2108.09379	14681.925
2111.08131	14695.825
2114.0669	14692.725
2117.05057	14720.225
2120.03233	14725.925
2123.01216	14750.725
2125.99008	14744.425
2128.96609	14730.625
2131.94018	14764.225
2134.91236	14765.725
2137.88263	14751.225
2140.851	14754.525
2143.81746	14762.725
2146.78201	14742.325
2149.74466	14751.525
2152.7054	14753.625
2155.66425	14733.525
2158.6212	14720.625
2161.57625	14695.225
2164.52941	14716.725
2167.48067	14691.225
2170.43004	14684.425
2173.37752	14700.425
2176.32311	14687.725
2179.26681	14692.425
2182.20863	14684.925
2185.14856	14686.925
2188.08661	14701.625
2191.02278	14674.425
2193.95707	14629.925
2196.88948	14610.325
2199.82001	14617.225
2202.74867	14587.425
2205.67545	14588.425
2208.60037	14547.225
2211.52341	14532.225
2214.44458	14505.925
2217.36388	14458.625
2220.28132	14441.125
2223.1969	14361.725
2226.11061	14398.425
2229.02246	14347.925
2231.93245	14337.425
2234.84058	14260.625
2237.74686	14256.625
2240.65128	14259.525
2243.55385	14222.525
2246.45456	14199.425
2249.35343	14213.825
2252.25044	14195.025
2255.14561	14109.125
2258.03893	14081.425
2260.93041	14029.625
2263.82004	14014.825
2266.70783	14000.925
2269.59378	13954.825
2272.4779	13931.725
2275.36017	13859.025
2278.24061	13856.625
2281.11922	13835.525
2283.996	13811.225
2286.87094	13799.325
2289.74405	13747.125
2292.61534	13749.325
2295.4848	13704.425
2298.35243	13733.925
2301.21824	13727.625
2304.08223	13719.725
2306.94439	13733.325
2309.80474	13702.225
2312.66327	13696.925
2315.51999	13706.225
2318.37489	13672.225
2321.22797	13644.725
2324.07925	13616.925
2326.92871	13617.325
2329.77637	13604.125
2332.62222	13567.125
2335.46626	13563.425
2338.3085	13558.925
2341.14893	13525.125
2343.98756	13522.025
2346.8244	13533.825
2349.65943	13498.425
2352.49267	13503.325
2355.32411	13508.525
2358.15376	13488.525
2360.98161	13486.825
2363.80768	13486.325
2366.63195	13479.525
2369.45444	13472.725
2372.27514	13430.925
2375.09405	13394.825
2377.91118	13376.925
2380.72652	13381.325
2383.54009	13331.025
2386.35187	13298.925
2389.16188	13274.525
2391.97011	13234.925
2394.77657	13177.825
2397.58125	13163.125
2400.38416	13136.625
2403.18529	13084.825
2405.98466	13112.725
2408.78226	13105.225
2411.57809	13070.925
2414.37216	13077.825
2417.16446	13050.125
2419.955	13048.225
2422.74378	13031.225
2425.5308	12994.525
2428.31606	13007.225
2431.09956	12977.025
2433.88131	12980.125
2436.6613	12979.425
2439.43954	13006.525
2442.21603	12936.225
2444.99077	12910.825
2447.76377	12905.425
2450.53501	12909.925
2453.30451	12902.925
2456.07226	12897.025
2458.83827	12887.625
2461.60254	12885.425
2464.36507	12850.825
2467.12586	12873.025
2469.88492	12851.225
2472.64224	12876.625
2475.39782	12838.425
2478.15167	12846.625
2480.90379	12835.425
2483.65417	12864.725
2486.40283	12845.125
2489.14976	12843.825
2491.89497	12884.125
2494.63845	12854.425
2497.3802	12866.525
2500.12024	12859.325
2502.85855	12817.325
2505.59514	12809.325
2508.33002	12771.225
2511.06318	12774.425
2513.79462	12772.525
2516.52435	12739.225
2519.25237	12756.525
2521.97867	12716.325
2524.70327	12711.425
2527.42616	12662.125
2530.14734	12684.025
2532.86681	12703.525
2535.58458	12711.325
2538.30065	12660.125
2541.01501	12660.525
2543.72768	12612.825
2546.43864	12607.225
2549.14791	12589.325
2551.85548	12582.525
2554.56136	12544.225
2557.26554	12520.425
2559.96803	12518.125
2562.66883	12508.525
2565.36794	12468.825
2568.06536	12476.025
2570.7611	12468.425
2573.45514	12444.025
2576.14751	12455.125
2578.83819	12403.025
2581.52719	12395.825
2584.21451	12389.225
2586.90015	12410.925
2589.58411	12375.625
2592.2664	12380.525
2594.94701	12361.725
2597.62594	12345.225
2600.30321	12312.725
2602.9788	12302.225
2605.65273	12284.225
2608.32498	12304.525
2610.99557	12280.225
2613.66449	12286.525
2616.33175	12260.225
2618.99734	12276.825
2621.66128	12282.225
2624.32355	12218.825
2626.98416	12253.925
2629.64311	12205.625
2632.30041	12226.825
2634.95605	12229.725
2637.61004	12170.325
2640.26238	12179.225
2642.91306	12162.325
2645.56209	12132.925
2648.20948	12166.925
2650.85521	12172.725
2653.4993	12151.725
2656.14175	12139.725
2658.78255	12198.225
2661.42171	12209.125
2664.05923	12163.125
2666.6951	12175.925
2669.32934	12198.125
2671.96194	12175.625
2674.59291	12193.325
2677.22224	12161.625
2679.84993	12172.625
2682.476	12129.325
2685.10043	12160.925
2687.72324	12138.225
2690.34441	12142.125
2692.96396	12126.125
2695.58188	12098.125
2698.19818	12108.125
2700.81285	12137.525
2703.4259	12126.425
2706.03733	12128.025
2708.64714	12144.125
2711.25533	12139.325
2713.86191	12130.525
2716.46687	12175.025
2719.07021	12165.525
2721.67194	12153.425
2724.27206	12166.025
2726.87057	12169.225
2729.46747	12190.125
2732.06276	12182.825
2734.65644	12169.425
2737.24852	12176.725
2739.83899	12146.025
2742.42786	12174.925
2745.01513	12119.525
2747.60079	12128.325
2750.18486	12095.925
2752.76733	12108.825
2755.3482	12042.825
2757.92747	12061.125
2760.50515	12054.025
2763.08123	12073.225
2765.65573	12053.925
2768.22863	12014.525
2770.79994	12037.625
2773.36967	12024.525
2775.9378	12044.025
2778.50435	12055.825
2781.06932	12021.325
2783.6327	12043.125
2786.1945	12007.025
2788.75471	11974.825
2791.31335	12010.525
2793.87041	11997.125
2796.42589	11963.025
2798.97979	11949.325
2801.53212	11914.025
2804.08288	11911.425
2806.63206	11871.125
2809.17967	11854.425
2811.72571	11832.225
2814.27018	11843.625
2816.81308	11772.125
2819.35442	11765.525
2821.89419	11719.025
2824.43239	11745.125
2826.96904	11741.425
2829.50412	11691.025
2832.03763	11675.625
2834.56959	11646.425
2837.1	11667.325
2839.62884	11701.125
2842.15613	11703.125
2844.68186	11745.325
2847.20604	11753.225
2849.72867	11774.725
2852.24974	11778.325
2854.76927	11749.425
2857.28724	11748.925
2859.80367	11733.225
2862.31855	11695.425
2864.83189	11660.525
2867.34368	11645.925
2869.85393	11651.425
2872.36264	11680.525
2874.8698	11670.425
2877.37543	11651.925
2879.87952	11635.125
2882.38207	11632.225
2884.88308	11644.925
2887.38256	11631.925
2889.88051	11610.025
2892.37692	11667.925
2894.8718	11640.025
2897.36515	11664.325
2899.85698	11644.525
2902.34727	11678.525
2904.83604	11669.625
2907.32328	11703.725
2909.809	11704.925
2912.29319	11699.825
2914.77587	11692.425
2917.25702	11668.425
2919.73665	11664.725
2922.21476	11693.325
2924.69136	11665.025
2927.16644	11701.225
2929.64	11659.425
2932.11205	11678.725
2934.58258	11628.025
2937.05161	11628.925
2939.51912	11600.725
2941.98513	11567.925
2944.44962	11555.325
2946.91261	11513.125
2949.37409	11517.225
2951.83407	11502.325
2954.29254	11470.425
2956.74951	11473.925
2959.20498	11473.125
2961.65895	11436.325
2964.11142	11428.725
2966.56239	11423.525
2969.01186	11408.425
2971.45984	11395.125
2973.90632	11412.525
2976.35131	11383.925
2978.7948	11339.825
2981.23681	11299.425
2983.67732	11286.025
2986.11635	11265.525
2988.55388	11231.125
2990.98993	11197.625
2993.4245	11169.825
2995.85758	11122.525
2998.28917	11123.425
3000.71928	11116.925
3003.14791	11081.625
3005.57506	11068.325
3008.00073	11018.425
3010.42493	11002.025
3012.84764	10997.625
3015.26888	10993.825
3017.68865	10945.225
3020.10694	10924.425
3022.52376	10889.325
3024.9391	10903.325
3027.35298	10875.325
3029.76539	10872.025
3032.17632	10858.025
3034.5858	10837.825
3036.9938	10859.725
3039.40034	10863.125
3041.80542	10825.425
3044.20903	10784.325
3046.61118	10822.525
3049.01187	10795.025
3051.4111	10777.125
3053.80888	10763.925
3056.20519	10714.125
3058.60005	10690.925
3060.99345	10660.425
3063.3854	10630.925
3065.7759	10596.325
3068.16494	10572.125
3070.55254	10521.025
3072.93868	10497.025
3075.32338	10485.925
3077.70662	10464.725
3080.08842	10407.525
3082.46878	10398.425
3084.84769	10402.425
3087.22515	10401.125
3089.60118	10415.225
3091.97576	10392.425
3094.3489	10386.525
3096.72061	10403.725
3099.09087	10433.425
3101.4597	10386.225
3103.82709	10383.825
3106.19305	10361.325
3108.55757	10385.825
3110.92066	10327.025
3113.28232	10310.125
3115.64255	10278.525
3118.00134	10249.625
3120.35871	10267.325
3122.71466	10249.925
3125.06917	10198.425
3127.42226	10186.425
