Data from AgNPs_FTO_APTES_UA_5uM_CRN_20uM_R6G_10uM_NaF_0.1M_Addition_RamanShift__13__13-18-06-773.txt Node

Date: Mon Feb 07 13:18:06 GMT 2022
User: TCL
Spectrometer: QEP01345
Trigger mode: 4
Integration Time (sec): 7.000000E0
Scans to average: 10
Electric dark correction enabled: true
Nonlinearity correction enabled: false
Boxcar width: 0
XAxis mode: Raman Shifts
Number of Pixels in Spectrum: 1044
>>>>>Begin Spectral Data<<<<<
46.04893	0.75
50.45542	-1.55
54.85868	-1.15
59.25871	-0.45
63.6555	78.45
68.04907	78.35
72.43941	87.75
76.82654	92.05
81.21044	89.05
85.59113	95.35
89.96862	102.95
94.34289	101.05
98.71396	100.95
103.08183	107.75
107.4465	110.75
111.80798	111.75
116.16626	121.05
120.52136	126.85
124.87327	131.55
129.222	140.35
133.56755	148.45
137.90993	163.25
142.24913	183.55
146.58517	215.15
150.91804	252.45
155.24774	306.35
159.57429	381.95
163.89768	492.15
168.21792	665.55
172.53501	907.55
176.84895	1279.65
181.15975	1804.15
185.46741	2540.05
189.77193	3508.15
194.07331	4701.85
198.37157	6067.45
202.6667	7518.45
206.9587	8937.85
211.24758	10328.25
215.53334	11697.15
219.81599	13127.65
224.09553	14711.15
228.37195	16477.65
232.64527	18373.55
236.91549	20373.05
241.18261	22388.75
245.44663	24379.05
249.70755	26120.35
253.96539	27705.35
258.22014	29018.25
262.4718	30073.55
266.72039	30731.75
270.96589	31179.35
275.20832	31310.65
279.44768	31218.45
283.68397	31111.45
287.91719	31003.25
292.14735	30894.95
296.37445	30950.55
300.59849	30998.25
304.81948	31074.45
309.03742	31021.65
313.25231	30714.05
317.46415	30066.85
321.67296	29358.75
325.87872	28681.65
330.08145	28350.75
334.28114	28274.25
338.47781	28451.65
342.67145	28691.95
346.86207	28962.65
351.04966	29295.35
355.23424	29601.25
359.4158	29930.25
363.59435	30194.45
367.76989	30329.55
371.94243	30456.05
376.11196	30484.55
380.27849	30494.45
384.44203	30586.95
388.60257	30715.05
392.76012	31137.45
396.91468	31652.55
401.06626	32196.25
405.21485	32544.25
409.36047	32446.65
413.50311	32072.35
417.64277	31835.15
421.77947	31835.15
425.9132	31941.05
430.04396	32172.55
434.17176	32278.55
438.2966	32468.65
442.41849	32774.25
446.53742	33340.35
450.6534	33996.95
454.76644	34498.65
458.87653	34687.15
462.98368	34740.85
467.08789	34699.45
471.18916	34483.25
475.2875	34263.85
479.38291	34238.25
483.4754	34237.65
487.56496	34028.05
491.6516	33596.85
495.73531	33052.35
499.81612	32581.75
503.89401	32572.65
507.96899	32672.45
512.04106	32749.35
516.11023	32602.05
520.1765	32315.05
524.23987	31909.85
528.30034	31481.45
532.35792	31134.45
536.41261	30861.05
540.46441	30688.85
544.51333	30757.65
548.55936	31106.85
552.60252	31809.05
556.64279	32461.25
560.6802	33026.15
564.71473	33521.15
568.7464	34317.15
572.7752	35616.35
576.80114	37215.25
580.82422	38584.15
584.84444	39434.55
588.86181	39923.55
592.87633	40334.25
596.888	40036.15
600.89682	38809.35
604.9028	38271.25
608.90594	39162.75
612.90624	40243.45
616.90371	37804.65
620.89834	33400.35
624.89015	31619.55
628.87913	31584.95
632.86528	31989.45
636.84862	32092.55
640.82913	31594.95
644.80683	30818.85
648.78172	30306.35
652.75379	30155.85
656.72306	30272.05
660.68952	30541.85
664.65319	30572.85
668.61405	30316.65
672.57211	30240.65
676.52738	30277.75
680.47986	30214.25
684.42955	30103.15
688.37646	30038.65
692.32058	30107.15
696.26192	30393.85
700.20048	30713.45
704.13626	30965.45
708.06928	31217.45
711.99952	31245.35
715.927	31123.65
719.85171	30970.95
723.77365	30683.35
727.69284	30248.25
731.60928	29852.85
735.52295	29631.55
739.43388	29545.65
743.34206	29582.05
747.24749	29718.65
751.15017	30064.15
755.05012	30620.05
758.94733	31435.45
762.8418	32792.55
766.73354	34761.85
770.62254	36373.35
774.50882	36400.05
778.39237	34874.15
782.27321	32832.55
786.15132	31334.05
790.02671	30318.55
793.89938	29680.75
797.76935	29312.15
801.6366	29199.55
805.50115	29095.95
809.36299	29008.45
813.22213	28897.35
817.07857	28867.65
820.93231	28882.45
824.78336	28824.85
828.63172	28677.55
832.47738	28522.05
836.32036	28450.45
840.16066	28393.15
843.99827	28408.55
847.8332	28405.65
851.66546	28419.15
855.49504	28458.25
859.32195	28455.85
863.1462	28377.85
866.96777	28322.15
870.78668	28300.65
874.60293	28265.15
878.41652	28236.65
882.22745	28243.45
886.03573	28335.05
889.84136	28346.25
893.64433	28343.45
897.44466	28272.25
901.24235	28203.15
905.0374	28160.65
908.8298	28196.55
912.61957	28351.45
916.40671	28674.95
920.19121	29175.85
923.97308	29479.95
927.75233	29246.95
931.52895	28827.55
935.30295	28324.55
939.07433	27857.65
942.84309	27469.35
946.60924	27206.95
950.37278	27026.85
954.13371	26985.55
957.89203	26962.65
961.64774	26992.45
965.40086	26984.35
969.15137	26958.95
972.89929	26854.15
976.64461	26677.95
980.38733	26605.65
984.12747	26569.85
987.86502	26613.05
991.59999	26714.15
995.33237	26788.85
999.06217	27051.75
1002.78939	27398.05
1006.51404	27759.25
1010.23611	28086.55
1013.95561	28372.85
1017.67255	28387.95
1021.38692	28242.25
1025.09872	27982.15
1028.80796	27672.05
1032.51465	27521.65
1036.21877	27588.15
1039.92035	27700.35
1043.61937	27859.85
1047.31584	28023.25
1051.00976	28159.95
1054.70114	28397.35
1058.38998	28727.05
1062.07627	29195.95
1065.76003	29647.55
1069.44126	30123.15
1073.11995	30540.15
1076.79611	30825.45
1080.46974	30895.45
1084.14085	30931.15
1087.80943	31116.95
1091.47549	31528.85
1095.13903	31736.15
1098.80005	31486.35
1102.45857	30774.65
1106.11456	29977.05
1109.76805	29496.45
1113.41903	29278.65
1117.06751	29341.35
1120.71348	29548.45
1124.35696	29848.75
1127.99793	30138.25
1131.63641	30408.65
1135.2724	30432.45
1138.90589	30450.15
1142.5369	30537.45
1146.16542	30817.95
1149.79145	31181.95
1153.415	31619.65
1157.03607	32093.95
1160.65467	32962.45
1164.27079	34246.95
1167.88443	35741.45
1171.49561	37313.15
1175.10432	39224.35
1178.71056	41460.65
1182.31434	43531.15
1185.91565	44909.85
1189.51451	45432.25
1193.11091	45177.25
1196.70485	44125.05
1200.29634	42586.05
1203.88538	41412.05
1207.47197	40894.65
1211.05612	40849.75
1214.63782	40410.55
1218.21708	39314.25
1221.79391	37827.95
1225.36829	36583.95
1228.94024	35795.95
1232.50976	35335.35
1236.07685	35156.85
1239.6415	35080.45
1243.20374	35152.35
1246.76355	35423.65
1250.32093	35829.85
1253.8759	36516.05
1257.42845	37455.45
1260.97859	38411.05
1264.52631	39492.35
1268.07163	40451.25
1271.61453	41429.15
1275.15503	42413.45
1278.69312	43588.85
1282.22882	44878.35
1285.76211	46369.55
1289.29301	48058.95
1292.82151	50116.95
1296.34761	52526.65
1299.87133	55088.15
1303.39266	57411.75
1306.9116	59145.25
1310.42815	60223.15
1313.94233	60551.75
1317.45412	60328.45
1320.96354	60151.35
1324.47058	60337.65
1327.97525	60725.45
1331.47754	61208.55
1334.97747	61503.75
1338.47502	61796.25
1341.97022	62083.85
1345.46305	62095.95
1348.95352	61495.95
1352.44163	60386.45
1355.92738	59339.25
1359.41078	58937.75
1362.89183	58862.95
1366.37053	57681.15
1369.84688	54537.35
1373.32088	50458.15
1376.79254	47441.05
1380.26186	46347.35
1383.72883	46487.45
1387.19347	46806.25
1390.65578	46644.25
1394.11575	46388.85
1397.57339	46381.35
1401.0287	46665.65
1404.48168	46727.55
1407.93234	46253.05
1411.38068	45043.95
1414.82669	43274.55
1418.27039	41364.15
1421.71177	39539.25
1425.15083	38242.25
1428.58758	37611.95
1432.02203	37780.55
1435.45416	38538.85
1438.88399	39581.15
1442.31151	40473.45
1445.73673	41222.15
1449.15965	41936.55
1452.58027	42622.95
1455.9986	43075.95
1459.41463	43531.15
1462.82837	44146.25
1466.23982	44763.85
1469.64898	45345.15
1473.05586	45589.45
1476.46045	45580.55
1479.86276	45336.15
1483.26279	45099.85
1486.66054	45039.45
1490.05602	45266.55
1493.44922	45813.65
1496.84016	46706.45
1500.22882	47927.25
1503.61521	49267.35
1506.99934	50568.55
1510.38121	51581.75
1513.76081	51792.05
1517.13816	51436.85
1520.51324	50898.65
1523.88607	50631.55
1527.25665	50698.45
1530.62498	50527.35
1533.99105	49977.45
1537.35488	49020.95
1540.71647	47534.75
1544.07581	45893.65
1547.4329	44290.25
1550.78776	43080.15
1554.14038	42305.95
1557.49077	41955.25
1560.83892	41806.65
1564.18484	41762.45
1567.52853	41853.05
1570.86999	42168.05
1574.20922	42990.35
1577.54624	43819.75
1580.88103	44271.35
1584.2136	44602.85
1587.54395	45369.55
1590.87208	46776.85
1594.19801	48417.45
1597.52172	49822.05
1600.84321	49503.15
1604.16251	47349.35
1607.47959	44238.95
1610.79447	41244.45
1614.10715	38385.05
1617.41763	35940.55
1620.7259	34085.75
1624.03199	33016.25
1627.33587	32850.45
1630.63757	33539.75
1633.93707	35504.05
1637.23439	38703.95
1640.52951	43390.45
1643.82246	49046.55
1647.11321	53888.95
1650.40179	55534.35
1653.68819	52863.75
1656.97241	47044.85
1660.25446	40724.15
1663.53433	35353.95
1666.81203	31582.55
1670.08756	29127.75
1673.36092	27622.35
1676.63211	26614.35
1679.90115	25956.35
1683.16801	25436.05
1686.43272	25057.95
1689.69527	24730.05
1692.95567	24511.05
1696.2139	24367.35
1699.46999	24236.35
1702.72392	24124.95
1705.97571	24015.45
1709.22535	23895.75
1712.47284	23818.75
1715.71819	23796.45
1718.96139	23690.15
1722.20246	23585.55
1725.44139	23470.45
1728.67818	23362.05
1731.91284	23219.45
1735.14537	23058.75
1738.37576	22916.55
1741.60403	22844.95
1744.83017	22737.95
1748.05418	22671.45
1751.27607	22625.85
1754.49584	22592.35
1757.71349	22544.75
1760.92903	22500.95
1764.14244	22472.85
1767.35375	22449.15
1770.56294	22404.55
1773.77002	22315.95
1776.97499	22256.85
1780.17785	22193.75
1783.37861	22179.65
1786.57727	22109.75
1789.77382	22055.35
1792.96828	22002.45
1796.16064	21956.55
1799.3509	21931.85
1802.53907	21864.55
1805.72514	21785.05
1808.90913	21701.45
1812.09102	21665.45
1815.27083	21603.75
1818.44856	21556.65
1821.6242	21491.05
1824.79776	21483.85
1827.96924	21444.75
1831.13864	21453.45
1834.30597	21431.55
1837.47122	21406.25
1840.6344	21400.15
1843.7955	21399.35
1846.95454	21397.55
1850.11151	21396.45
1853.26642	21351.55
1856.41926	21364.35
1859.57004	21319.45
1862.71876	21286.75
1865.86542	21250.55
1869.01003	21195.35
1872.15258	21170.05
1875.29308	21105.55
1878.43152	21025.65
1881.56792	20984.95
1884.70227	20894.95
1887.83457	20885.65
1890.96482	20877.05
1894.09304	20794.15
1897.21921	20813.15
1900.34335	20784.85
1903.46544	20729.05
1906.58551	20723.85
1909.70353	20677.55
1912.81953	20582.15
1915.93349	20580.05
1919.04543	20520.15
1922.15534	20488.45
1925.26322	20395.25
1928.36908	20352.65
1931.47292	20323.95
1934.57473	20251.85
1937.67453	20195.25
1940.77232	20119.15
1943.86808	20068.45
1946.96184	20007.55
1950.05358	19949.45
1953.14331	19897.25
1956.23103	19817.65
1959.31675	19741.45
1962.40046	19671.35
1965.48217	19660.25
1968.56188	19537.65
1971.63959	19468.95
1974.7153	19411.05
1977.78901	19383.35
1980.86073	19242.75
1983.93046	19177.35
1986.99819	19118.55
1990.06394	19056.25
1993.1277	19003.35
1996.18947	19035.45
1999.24925	18927.85
2002.30706	18843.65
2005.36288	18785.55
2008.41672	18713.65
2011.46859	18634.05
2014.51848	18620.85
2017.56639	18552.45
2020.61233	18453.85
2023.6563	18447.95
2026.6983	18346.85
2029.73833	18320.25
2032.7764	18232.15
2035.8125	18186.85
2038.84664	18129.05
2041.87881	18101.85
2044.90903	18087.05
2047.93729	18025.85
2050.96359	17996.35
2053.98794	17980.35
2057.01034	17970.75
2060.03078	17946.65
2063.04927	17921.15
2066.06582	17882.75
2069.08042	17865.35
2072.09307	17851.25
2075.10378	17826.95
2078.11255	17814.95
2081.11938	17819.45
2084.12426	17804.85
2087.12722	17787.55
2090.12824	17774.15
2093.12732	17757.05
2096.12447	17743.05
2099.11969	17762.25
2102.11299	17775.35
2105.10435	17725.05
2108.09379	17709.35
2111.08131	17708.05
2114.0669	17734.25
2117.05057	17759.65
2120.03233	17765.55
2123.01216	17797.45
2125.99008	17770.35
2128.96609	17785.45
2131.94018	17788.25
2134.91236	17781.45
2137.88263	17798.55
2140.851	17779.05
2143.81746	17769.55
2146.78201	17748.65
2149.74466	17722.25
2152.7054	17735.95
2155.66425	17670.75
2158.6212	17664.55
2161.57625	17655.75
2164.52941	17661.25
2167.48067	17656.35
2170.43004	17620.55
2173.37752	17614.05
2176.32311	17600.95
2179.26681	17613.05
2182.20863	17586.55
2185.14856	17609.85
2188.08661	17584.25
2191.02278	17586.85
2193.95707	17574.55
2196.88948	17520.45
2199.82001	17494.85
2202.74867	17471.25
2205.67545	17418.05
2208.60037	17402.75
2211.52341	17368.15
2214.44458	17347.85
2217.36388	17311.45
2220.28132	17262.55
2223.1969	17211.35
2226.11061	17217.15
2229.02246	17173.85
2231.93245	17107.75
2234.84058	17089.75
2237.74686	17054.95
2240.65128	17053.25
2243.55385	17003.05
2246.45456	16967.75
2249.35343	16915.75
2252.25044	16880.95
2255.14561	16858.35
2258.03893	16835.95
2260.93041	16734.75
2263.82004	16725.55
2266.70783	16666.65
2269.59378	16607.25
2272.4779	16552.65
2275.36017	16536.15
2278.24061	16500.35
2281.11922	16445.65
2283.996	16404.95
2286.87094	16388.65
2289.74405	16318.65
2292.61534	16325.65
2295.4848	16252.05
2298.35243	16283.75
2301.21824	16261.55
2304.08223	16251.25
2306.94439	16208.15
2309.80474	16254.65
2312.66327	16205.65
2315.51999	16170.35
2318.37489	16153.25
2321.22797	16098.05
2324.07925	16063.95
2326.92871	16059.95
2329.77637	16030.65
2332.62222	15979.45
2335.46626	15994.15
2338.3085	15969.45
2341.14893	15938.35
2343.98756	15938.75
2346.8244	15884.85
2349.65943	15892.35
2352.49267	15896.75
2355.32411	15895.55
2358.15376	15902.65
2360.98161	15877.55
2363.80768	15884.05
2366.63195	15875.75
2369.45444	15820.15
2372.27514	15800.45
2375.09405	15799.55
2377.91118	15797.95
2380.72652	15707.35
2383.54009	15690.05
2386.35187	15685.35
2389.16188	15621.65
2391.97011	15596.55
2394.77657	15533.15
2397.58125	15518.75
2400.38416	15464.35
2403.18529	15464.85
2405.98466	15434.35
2408.78226	15398.35
2411.57809	15401.45
2414.37216	15368.45
2417.16446	15377.85
2419.955	15349.25
2422.74378	15339.95
2425.5308	15307.75
2428.31606	15271.15
2431.09956	15302.05
2433.88131	15261.75
2436.6613	15255.55
2439.43954	15233.45
2442.21603	15220.75
2444.99077	15217.35
2447.76377	15186.75
2450.53501	15166.15
2453.30451	15186.75
2456.07226	15133.25
2458.83827	15128.15
2461.60254	15103.55
2464.36507	15081.05
2467.12586	15045.35
2469.88492	15051.25
2472.64224	15058.25
2475.39782	15048.65
2478.15167	15100.85
2480.90379	15041.15
2483.65417	15023.45
2486.40283	15037.55
2489.14976	15042.75
2491.89497	15029.55
2494.63845	15037.15
2497.3802	15047.05
2500.12024	15008.55
2502.85855	14962.15
2505.59514	14966.65
2508.33002	14937.05
2511.06318	14935.05
2513.79462	14922.85
2516.52435	14893.65
2519.25237	14917.85
2521.97867	14866.25
2524.70327	14856.45
2527.42616	14855.35
2530.14734	14839.45
2532.86681	14819.65
2535.58458	14813.85
2538.30065	14764.45
2541.01501	14766.25
2543.72768	14763.45
2546.43864	14743.55
2549.14791	14740.15
2551.85548	14681.35
2554.56136	14671.95
2557.26554	14617.25
2559.96803	14600.45
2562.66883	14599.55
2565.36794	14539.65
2568.06536	14547.45
2570.7611	14514.45
2573.45514	14512.35
2576.14751	14476.35
2578.83819	14402.15
2581.52719	14430.85
2584.21451	14403.85
2586.90015	14406.05
2589.58411	14383.35
2592.2664	14371.45
2594.94701	14351.65
2597.62594	14343.75
2600.30321	14309.95
2602.9788	14292.05
2605.65273	14264.55
2608.32498	14284.15
2610.99557	14272.85
2613.66449	14270.75
2616.33175	14271.35
2618.99734	14230.85
2621.66128	14223.75
2624.32355	14193.55
2626.98416	14182.55
2629.64311	14188.55
2632.30041	14185.15
2634.95605	14148.65
2637.61004	14130.65
2640.26238	14102.05
2642.91306	14109.55
2645.56209	14077.95
2648.20948	14122.05
2650.85521	14124.75
2653.4993	14133.75
2656.14175	14118.45
2658.78255	14113.15
2661.42171	14138.75
2664.05923	14125.55
2666.6951	14103.65
2669.32934	14155.65
2671.96194	14123.45
2674.59291	14125.25
2677.22224	14116.75
2679.84993	14154.65
2682.476	14109.55
2685.10043	14090.65
2687.72324	14076.35
2690.34441	14100.55
2692.96396	14073.05
2695.58188	14093.55
2698.19818	14102.05
2700.81285	14080.55
2703.4259	14095.15
2706.03733	14154.35
2708.64714	14069.05
2711.25533	14108.85
2713.86191	14077.85
2716.46687	14085.15
2719.07021	14089.65
2721.67194	14112.45
2724.27206	14107.95
2726.87057	14113.05
2729.46747	14118.45
2732.06276	14135.15
2734.65644	14119.65
2737.24852	14092.05
2739.83899	14048.55
2742.42786	14084.05
2745.01513	14046.45
2747.60079	14039.35
2750.18486	14051.05
2752.76733	14028.55
2755.3482	13984.55
2757.92747	13998.15
2760.50515	13975.25
2763.08123	14020.65
2765.65573	14003.35
2768.22863	13990.25
2770.79994	13954.65
2773.36967	13944.55
2775.9378	13937.25
2778.50435	13919.25
2781.06932	13910.75
2783.6327	13884.75
2786.1945	13890.75
2788.75471	13906.35
2791.31335	13861.95
2793.87041	13825.35
2796.42589	13793.45
2798.97979	13767.45
2801.53212	13744.65
2804.08288	13730.75
2806.63206	13664.25
2809.17967	13636.05
2811.72571	13632.45
2814.27018	13584.75
2816.81308	13547.95
2819.35442	13544.25
2821.89419	13498.55
2824.43239	13548.15
2826.96904	13519.25
2829.50412	13517.05
2832.03763	13472.95
2834.56959	13454.55
2837.1	13436.65
2839.62884	13431.65
2842.15613	13419.65
2844.68186	13447.95
2847.20604	13447.45
2849.72867	13492.25
2852.24974	13460.25
2854.76927	13451.45
2857.28724	13427.65
2859.80367	13439.75
2862.31855	13386.55
2864.83189	13369.45
2867.34368	13326.25
2869.85393	13320.25
2872.36264	13281.45
2874.8698	13242.55
2877.37543	13211.25
2879.87952	13228.35
2882.38207	13232.15
2884.88308	13189.65
2887.38256	13195.25
2889.88051	13189.35
2892.37692	13210.95
2894.8718	13220.75
2897.36515	13198.15
2899.85698	13193.25
2902.34727	13220.85
2904.83604	13217.95
2907.32328	13207.85
2909.809	13241.75
2912.29319	13260.85
2914.77587	13254.05
2917.25702	13244.25
2919.73665	13215.65
2922.21476	13222.45
2924.69136	13197.85
2927.16644	13202.65
2929.64	13168.85
2932.11205	13170.05
2934.58258	13112.95
2937.05161	13132.15
2939.51912	13124.05
2941.98513	13137.55
2944.44962	13080.95
2946.91261	13016.75
2949.37409	12983.15
2951.83407	12989.55
2954.29254	12991.25
2956.74951	12985.75
2959.20498	12957.95
2961.65895	12922.55
2964.11142	12915.95
2966.56239	12903.25
2969.01186	12876.15
2971.45984	12862.75
2973.90632	12886.45
2976.35131	12846.65
2978.7948	12819.55
2981.23681	12779.85
2983.67732	12754.05
2986.11635	12712.95
2988.55388	12697.45
2990.98993	12672.25
2993.4245	12618.75
2995.85758	12561.85
2998.28917	12532.45
3000.71928	12502.05
3003.14791	12483.85
3005.57506	12462.35
3008.00073	12391.95
3010.42493	12294.55
3012.84764	12388.55
3015.26888	12346.35
3017.68865	12323.65
3020.10694	12294.85
3022.52376	12252.75
3024.9391	12249.85
3027.35298	12214.55
3029.76539	12186.35
3032.17632	12161.45
3034.5858	12164.35
3036.9938	12145.35
3039.40034	12144.65
3041.80542	12145.75
3044.20903	12108.65
3046.61118	12094.15
3049.01187	12053.25
3051.4111	12053.85
3053.80888	12030.35
3056.20519	12012.45
3058.60005	11968.15
3060.99345	11945.55
3063.3854	11927.55
3065.7759	11863.85
3068.16494	11810.85
3070.55254	11764.95
3072.93868	11716.15
3075.32338	11685.25
3077.70662	11663.55
3080.08842	11631.45
3082.46878	11598.05
3084.84769	11592.05
3087.22515	11585.05
3089.60118	11568.15
3091.97576	11560.05
3094.3489	11550.35
3096.72061	11523.45
3099.09087	11526.75
3101.4597	11507.55
3103.82709	11530.65
3106.19305	11472.55
3108.55757	11480.75
3110.92066	11418.35
3113.28232	11434.25
3115.64255	11385.45
3118.00134	11387.05
3120.35871	11356.75
3122.71466	11332.85
3125.06917	11268.15
3127.42226	11245.65
3129.77393	11254.35
3132.12417	11210.65
3134.47299	11217.05
3136.82039	11187.95
3139.16636	11173.45
3141.51092	11166.95
3143.85406	11162.65
3146.19579	11153.25
3148.53609	11145.25
3150.87499	11128.95
3153.21246	11146.15
3155.54853	11159.65
3157.88318	11145.15
3160.21642	11160.35
3162.54826	11158.35
3164.87868	11146.95
3167.2077	11137.05
3169.5353	11143.15
3171.86151	11120.75
3174.18631	11124.45
3176.5097	11099.25
3178.83169	11081.65
3181.15228	11081.05
3183.47147	11052.65
3185.78926	11058.45
3188.10565	11013.85
3190.42065	10977.95
3192.73424	10955.85
3195.04645	10951.25
3197.35725	10946.65
3199.66667	10884.65
3201.97469	10939.55
3204.28132	10894.55
3206.58656	10892.25
3208.8904	10912.25
3211.19287	10888.35
3213.49394	10900.05
3215.79363	10894.95
3218.09193	10909.25
3220.38884	10885.45
3222.68438	10900.35
3224.97853	10853.35
3227.2713	10843.95
3229.56269	10815.45
3231.8527	10808.95
3234.14133	10799.15
3236.42858	10762.25
3238.71446	10748.05
