Data from AgNPs_FTO_APTES_UA_5uM_CRN_2uM_R6G_10uM_NaF_0.1M_Addition_RamanShift__22__11-22-36-640.txt Node

Date: Mon Feb 07 11:22:36 GMT 2022
User: TCL
Spectrometer: QEP01345
Trigger mode: 4
Integration Time (sec): 7.000000E0
Scans to average: 10
Electric dark correction enabled: true
Nonlinearity correction enabled: false
Boxcar width: 0
XAxis mode: Raman Shifts
Number of Pixels in Spectrum: 1044
>>>>>Begin Spectral Data<<<<<
46.04893	-1.225
50.45542	-2.825
54.85868	-1.125
59.25871	0.875
63.6555	103.075
68.04907	108.775
72.43941	113.675
76.82654	117.675
81.21044	118.775
85.59113	127.175
89.96862	128.775
94.34289	136.775
98.71396	140.375
103.08183	142.375
107.4465	147.375
111.80798	151.675
116.16626	158.275
120.52136	165.375
124.87327	167.175
129.222	182.675
133.56755	190.575
137.90993	210.775
142.24913	232.675
146.58517	264.075
150.91804	307.175
155.24774	372.975
159.57429	463.775
163.89768	594.975
168.21792	795.475
172.53501	1097.175
176.84895	1530.075
181.15975	2157.575
185.46741	3034.175
189.77193	4186.075
194.07331	5576.675
198.37157	7165.975
202.6667	8819.375
206.9587	10513.375
211.24758	12160.375
215.53334	13874.475
219.81599	15700.175
224.09553	17758.275
228.37195	20029.775
232.64527	22493.875
236.91549	25080.375
241.18261	27563.275
245.44663	29770.675
249.70755	31718.875
253.96539	33351.575
258.22014	34851.175
262.4718	36143.975
266.72039	37046.875
270.96589	37635.175
275.20832	37834.675
279.44768	37692.175
283.68397	37484.175
287.91719	37456.775
292.14735	37448.175
296.37445	37642.575
300.59849	38014.475
304.81948	38334.375
309.03742	38545.575
313.25231	38026.775
317.46415	36759.375
321.67296	34944.175
325.87872	33491.475
330.08145	32807.975
334.28114	32626.275
338.47781	32908.675
342.67145	33390.575
346.86207	34166.775
351.04966	35258.175
355.23424	36430.075
359.4158	37335.775
363.59435	37848.775
367.76989	38121.475
371.94243	38212.375
376.11196	38247.475
380.27849	38336.675
384.44203	38318.475
388.60257	38393.975
392.76012	38623.375
396.91468	39160.775
401.06626	39940.775
405.21485	40630.975
409.36047	40314.575
413.50311	39331.375
417.64277	38494.175
421.77947	38270.675
425.9132	38375.675
430.04396	38606.375
434.17176	38812.275
438.2966	39123.275
442.41849	39798.675
446.53742	40937.475
450.6534	42292.975
454.76644	43409.275
458.87653	43766.075
462.98368	43584.575
467.08789	42924.775
471.18916	42084.775
475.2875	41341.775
479.38291	40899.375
483.4754	40589.475
487.56496	40140.775
491.6516	39501.175
495.73531	38951.475
499.81612	38669.175
503.89401	38836.875
507.96899	38912.775
512.04106	38872.375
516.11023	38559.275
520.1765	38165.875
524.23987	37748.575
528.30034	37170.775
532.35792	36579.075
536.41261	35953.175
540.46441	35340.975
544.51333	35292.975
548.55936	35840.575
552.60252	37015.575
556.64279	38149.375
560.6802	38847.575
564.71473	39361.975
568.7464	40462.075
572.7752	41815.975
576.80114	42533.275
580.82422	42996.375
584.84444	43463.275
588.86181	43889.375
592.87633	44494.575
596.888	45158.775
600.89682	45583.075
604.9028	47597.575
608.90594	53589.975
612.90624	60530.875
616.90371	56744.875
620.89834	44390.075
624.89015	38856.375
628.87913	38303.475
632.86528	38399.375
636.84862	38053.475
640.82913	37109.775
644.80683	35564.775
648.78172	34374.675
652.75379	34131.075
656.72306	34841.575
660.68952	35921.375
664.65319	35895.175
668.61405	34899.275
672.57211	34448.875
676.52738	34427.575
680.47986	34345.975
684.42955	34089.075
688.37646	33929.875
692.32058	34146.875
696.26192	34577.375
700.20048	35127.775
704.13626	35507.675
708.06928	35460.175
711.99952	35075.075
715.927	34843.975
719.85171	34898.775
723.77365	34752.875
727.69284	34240.775
731.60928	33779.175
735.52295	33611.975
739.43388	33679.275
743.34206	33865.475
747.24749	34173.675
751.15017	34666.875
755.05012	35488.575
758.94733	37014.475
762.8418	39842.175
766.73354	44543.275
770.62254	49054.675
774.50882	50158.775
778.39237	47060.975
782.27321	42249.775
786.15132	38092.975
790.02671	35569.775
793.89938	34440.375
797.76935	34038.875
801.6366	33899.275
805.50115	33722.775
809.36299	33460.475
813.22213	33140.575
817.07857	32980.575
820.93231	32954.975
824.78336	32868.175
828.63172	32836.675
832.47738	32853.575
836.32036	32884.875
840.16066	33007.075
843.99827	33172.075
847.8332	33049.275
851.66546	32815.875
855.49504	32669.675
859.32195	32592.375
863.1462	32415.175
866.96777	32167.475
870.78668	32030.775
874.60293	31993.775
878.41652	31984.475
882.22745	32169.275
886.03573	32307.875
889.84136	32254.575
893.64433	32055.275
897.44466	31946.075
901.24235	31843.875
905.0374	31698.875
908.8298	31609.275
912.61957	31687.675
916.40671	32031.275
920.19121	32779.675
923.97308	33403.675
927.75233	33693.675
931.52895	33653.675
935.30295	33035.775
939.07433	32079.075
942.84309	31298.975
946.60924	30995.975
950.37278	30825.575
954.13371	30619.975
957.89203	30405.175
961.64774	30290.075
965.40086	30228.875
969.15137	30145.775
972.89929	30002.075
976.64461	29911.275
980.38733	29892.375
984.12747	30082.475
987.86502	30492.675
991.59999	31021.175
995.33237	31887.775
999.06217	33372.275
1002.78939	35114.475
1006.51404	36260.575
1010.23611	36823.275
1013.95561	37169.275
1017.67255	37126.475
1021.38692	36510.475
1025.09872	36032.975
1028.80796	36518.575
1032.51465	38066.675
1036.21877	39575.475
1039.92035	39802.075
1043.61937	38910.775
1047.31584	37397.075
1051.00976	35831.275
1054.70114	34968.075
1058.38998	34746.775
1062.07627	34897.175
1065.76003	35187.175
1069.44126	35477.575
1073.11995	36029.475
1076.79611	36525.875
1080.46974	36835.575
1084.14085	37309.975
1087.80943	37932.675
1091.47549	38406.075
1095.13903	38201.775
1098.80005	37399.075
1102.45857	36244.475
1106.11456	35419.375
1109.76805	35118.375
1113.41903	35359.175
1117.06751	35859.275
1120.71348	36520.575
1124.35696	37245.575
1127.99793	38007.175
1131.63641	38231.975
1135.2724	37764.475
1138.90589	37154.175
1142.5369	36750.775
1146.16542	36594.975
1149.79145	36607.275
1153.415	37014.375
1157.03607	37743.775
1160.65467	38897.875
1164.27079	40825.375
1167.88443	43588.175
1171.49561	47361.075
1175.10432	52486.875
1178.71056	58894.075
1182.31434	64637.575
1185.91565	67792.975
1189.51451	67933.975
1193.11091	65223.375
1196.70485	61259.575
1200.29634	57434.475
1203.88538	54429.475
1207.47197	51982.675
1211.05612	50161.275
1214.63782	48939.975
1218.21708	48294.475
1221.79391	48251.975
1225.36829	48313.675
1228.94024	47929.375
1232.50976	47032.675
1236.07685	46307.475
1239.6415	45724.575
1243.20374	45379.975
1246.76355	45420.275
1250.32093	46129.475
1253.8759	47547.575
1257.42845	49373.075
1260.97859	51200.175
1264.52631	52861.575
1268.07163	54729.575
1271.61453	56781.175
1275.15503	59120.375
1278.69312	61395.075
1282.22882	63380.575
1285.76211	65132.175
1289.29301	67190.275
1292.82151	69657.175
1296.34761	72975.975
1299.87133	77367.575
1303.39266	83137.475
1306.9116	90154.775
1310.42815	97327.275
1313.94233	101853.475
1317.45412	102193.475
1320.96354	99534.575
1324.47058	96170.175
1327.97525	93136.675
1331.47754	90981.775
1334.97747	89876.075
1338.47502	89586.275
1341.97022	89346.075
1345.46305	88318.875
1348.95352	86739.475
1352.44163	85602.975
1355.92738	86946.275
1359.41078	91864.875
1362.89183	97229.675
1366.37053	95729.375
1369.84688	86477.675
1373.32088	75915.075
1376.79254	68556.975
1380.26186	65222.275
1383.72883	64311.675
1387.19347	63846.475
1390.65578	63150.575
1394.11575	63098.975
1397.57339	64192.675
1401.0287	66038.575
1404.48168	67809.175
1407.93234	68789.275
1411.38068	68386.275
1414.82669	66542.375
1418.27039	63299.375
1421.71177	59844.475
1425.15083	56967.875
1428.58758	55380.975
1432.02203	55300.175
1435.45416	56259.975
1438.88399	57595.675
1442.31151	58841.875
1445.73673	59990.775
1449.15965	61096.575
1452.58027	61825.275
1455.9986	62148.475
1459.41463	62617.075
1462.82837	63628.375
1466.23982	64936.875
1469.64898	66180.775
1473.05586	66770.675
1476.46045	66733.775
1479.86276	66455.875
1483.26279	66282.475
1486.66054	66173.275
1490.05602	66621.875
1493.44922	67393.275
1496.84016	68332.275
1500.22882	69922.375
1503.61521	72506.375
1506.99934	76154.375
1510.38121	79795.375
1513.76081	81616.175
1517.13816	79923.475
1520.51324	75762.975
1523.88607	71357.475
1527.25665	68348.475
1530.62498	66630.875
1533.99105	65574.975
1537.35488	64900.475
1540.71647	64004.875
1544.07581	62917.275
1547.4329	61590.975
1550.78776	60326.075
1554.14038	59488.675
1557.49077	59124.175
1560.83892	59096.775
1564.18484	59210.975
1567.52853	59313.375
1570.86999	59480.575
1574.20922	59927.975
1577.54624	60466.875
1580.88103	60318.875
1584.2136	60240.875
1587.54395	62035.675
1590.87208	65704.575
1594.19801	70901.475
1597.52172	76079.075
1600.84321	77775.875
1604.16251	74055.475
1607.47959	67387.875
1610.79447	60232.075
1614.10715	53856.275
1617.41763	48753.175
1620.7259	45350.975
1624.03199	43666.175
1627.33587	43708.275
1630.63757	45372.675
1633.93707	48988.675
1637.23439	54453.275
1640.52951	61738.575
1643.82246	69775.575
1647.11321	76117.975
1650.40179	77636.975
1653.68819	72383.975
1656.97241	62288.275
1660.25446	51843.775
1663.53433	43862.175
1666.81203	38681.675
1670.08756	35532.475
1673.36092	33567.675
1676.63211	32227.675
1679.90115	31399.375
1683.16801	30767.675
1686.43272	30288.675
1689.69527	29907.775
1692.95567	29612.375
1696.2139	29481.075
1699.46999	29339.675
1702.72392	29201.875
1705.97571	29082.775
1709.22535	29047.575
1712.47284	28960.975
1715.71819	28912.075
1718.96139	28833.175
1722.20246	28720.975
1725.44139	28558.875
1728.67818	28371.375
1731.91284	28163.575
1735.14537	27982.975
1738.37576	27866.275
1741.60403	27691.975
1744.83017	27594.575
1748.05418	27487.375
1751.27607	27426.975
1754.49584	27423.575
1757.71349	27355.675
1760.92903	27307.275
1764.14244	27285.275
1767.35375	27264.675
1770.56294	27180.475
1773.77002	27148.975
1776.97499	27074.375
1780.17785	27003.975
1783.37861	26973.275
1786.57727	26911.375
1789.77382	26853.275
1792.96828	26851.275
1796.16064	26813.975
1799.3509	26760.475
1802.53907	26705.075
1805.72514	26663.075
1808.90913	26585.175
1812.09102	26522.275
1815.27083	26456.975
1818.44856	26413.275
1821.6242	26379.475
1824.79776	26354.475
1827.96924	26375.975
1831.13864	26330.075
1834.30597	26319.975
1837.47122	26339.475
1840.6344	26337.475
1843.7955	26390.975
1846.95454	26407.675
1850.11151	26395.975
1853.26642	26400.375
1856.41926	26485.575
1859.57004	26462.775
1862.71876	26448.575
1865.86542	26459.675
1869.01003	26442.675
1872.15258	26486.075
1875.29308	26424.475
1878.43152	26521.375
1881.56792	26598.975
1884.70227	26615.275
1887.83457	26618.475
1890.96482	26596.175
1894.09304	26615.075
1897.21921	26630.875
1900.34335	26623.475
1903.46544	26610.775
1906.58551	26660.175
1909.70353	26643.375
1912.81953	26608.975
1915.93349	26569.475
1919.04543	26511.475
1922.15534	26461.775
1925.26322	26336.475
1928.36908	26183.075
1931.47292	26062.075
1934.57473	25921.175
1937.67453	25820.675
1940.77232	25672.775
1943.86808	25532.175
1946.96184	25420.175
1950.05358	25281.875
1953.14331	25185.475
1956.23103	25092.175
1959.31675	24977.475
1962.40046	24910.675
1965.48217	24838.075
1968.56188	24804.775
1971.63959	24663.975
1974.7153	24568.475
1977.78901	24497.675
1980.86073	24401.375
1983.93046	24331.375
1986.99819	24246.775
1990.06394	24185.375
1993.1277	24119.875
1996.18947	24039.875
1999.24925	23927.975
2002.30706	23870.675
2005.36288	23817.875
2008.41672	23717.675
2011.46859	23684.975
2014.51848	23614.675
2017.56639	23540.475
2020.61233	23486.675
2023.6563	23448.675
2026.6983	23400.875
2029.73833	23368.575
2032.7764	23328.475
2035.8125	23290.675
2038.84664	23268.775
2041.87881	23267.275
2044.90903	23205.275
2047.93729	23184.175
2050.96359	23158.675
2053.98794	23125.775
2057.01034	23093.075
2060.03078	23053.675
2063.04927	23074.075
2066.06582	23016.975
2069.08042	23052.675
2072.09307	22966.975
2075.10378	22910.575
2078.11255	22892.875
2081.11938	22894.675
2084.12426	22871.275
2087.12722	22829.675
2090.12824	22798.275
2093.12732	22786.675
2096.12447	22785.475
2099.11969	22814.575
2102.11299	22825.575
2105.10435	22802.675
2108.09379	22787.075
2111.08131	22768.175
2114.0669	22774.475
2117.05057	22838.575
2120.03233	22814.275
2123.01216	22832.775
2125.99008	22875.875
2128.96609	22910.875
2131.94018	22871.475
2134.91236	22897.975
2137.88263	22916.275
2140.851	22917.975
2143.81746	22965.575
2146.78201	22928.975
2149.74466	22910.075
2152.7054	22928.975
2155.66425	22890.375
2158.6212	22854.975
2161.57625	22876.775
2164.52941	22833.075
2167.48067	22849.075
2170.43004	22859.075
2173.37752	22825.575
2176.32311	22846.375
2179.26681	22817.175
2182.20863	22839.875
2185.14856	22839.875
2188.08661	22863.775
2191.02278	22879.775
2193.95707	22874.375
2196.88948	22869.575
2199.82001	22839.375
2202.74867	22831.575
2205.67545	22842.275
2208.60037	22834.975
2211.52341	22834.075
2214.44458	22841.275
2217.36388	22763.975
2220.28132	22744.675
2223.1969	22659.375
2226.11061	22659.175
2229.02246	22645.775
2231.93245	22602.075
2234.84058	22535.675
2237.74686	22456.175
2240.65128	22442.675
2243.55385	22423.775
2246.45456	22383.275
2249.35343	22351.175
2252.25044	22305.175
2255.14561	22249.475
2258.03893	22255.575
2260.93041	22191.075
2263.82004	22159.975
2266.70783	22101.775
2269.59378	22015.675
2272.4779	21969.275
2275.36017	21859.975
2278.24061	21845.775
2281.11922	21805.675
2283.996	21792.175
2286.87094	21785.575
2289.74405	21774.975
2292.61534	21765.775
2295.4848	21746.675
2298.35243	21771.975
2301.21824	21773.875
2304.08223	21782.975
2306.94439	21797.775
2309.80474	21867.275
2312.66327	21901.175
2315.51999	21872.975
2318.37489	21853.175
2321.22797	21834.875
2324.07925	21844.575
2326.92871	21824.575
2329.77637	21817.175
2332.62222	21798.275
2335.46626	21807.075
2338.3085	21849.575
2341.14893	21865.375
2343.98756	21941.875
2346.8244	21937.975
2349.65943	21965.175
2352.49267	21955.475
2355.32411	21954.975
2358.15376	21968.775
2360.98161	21886.375
2363.80768	21851.875
2366.63195	21854.175
2369.45444	21838.475
2372.27514	21776.475
2375.09405	21747.575
2377.91118	21650.175
2380.72652	21562.775
2383.54009	21512.175
2386.35187	21455.675
2389.16188	21380.975
2391.97011	21389.875
2394.77657	21351.175
2397.58125	21297.175
2400.38416	21302.275
2403.18529	21237.675
2405.98466	21208.175
2408.78226	21099.875
2411.57809	21089.075
2414.37216	21083.875
2417.16446	21065.375
2419.955	21024.275
2422.74378	20961.575
2425.5308	20904.075
2428.31606	20928.775
2431.09956	20944.275
2433.88131	20921.075
2436.6613	20982.775
2439.43954	20967.575
2442.21603	20951.575
2444.99077	20967.975
2447.76377	20956.275
2450.53501	20913.875
2453.30451	20941.175
2456.07226	20911.475
2458.83827	20916.375
2461.60254	20965.975
2464.36507	20931.475
2467.12586	20920.375
2469.88492	20918.175
2472.64224	20986.375
2475.39782	21033.875
2478.15167	21037.075
2480.90379	21032.875
2483.65417	21110.775
2486.40283	21150.675
2489.14976	21158.775
2491.89497	21131.175
2494.63845	21228.175
2497.3802	21197.275
2500.12024	21235.775
2502.85855	21219.075
2505.59514	21169.075
2508.33002	21179.475
2511.06318	21109.175
2513.79462	21103.175
2516.52435	20989.675
2519.25237	21022.675
2521.97867	21033.075
2524.70327	20998.375
2527.42616	21001.875
2530.14734	20968.775
2532.86681	20989.075
2535.58458	21011.775
2538.30065	20982.875
2541.01501	20994.175
2543.72768	20961.375
2546.43864	20983.275
2549.14791	20960.575
2551.85548	20960.775
2554.56136	20932.275
2557.26554	20889.275
2559.96803	20858.175
2562.66883	20854.875
2565.36794	20844.675
2568.06536	20819.375
2570.7611	20811.975
2573.45514	20826.675
2576.14751	20836.475
2578.83819	20791.675
2581.52719	20822.175
2584.21451	20856.975
2586.90015	20857.675
2589.58411	20865.975
2592.2664	20864.375
2594.94701	20883.575
2597.62594	20851.875
2600.30321	20837.775
2602.9788	20873.975
2605.65273	20839.875
2608.32498	20904.875
2610.99557	20914.275
2613.66449	20943.875
2616.33175	20917.275
2618.99734	20940.075
2621.66128	20940.575
2624.32355	20957.475
2626.98416	20984.775
2629.64311	20977.175
2632.30041	21043.275
2634.95605	20970.675
2637.61004	20943.875
2640.26238	20889.575
2642.91306	20919.975
2645.56209	20865.475
2648.20948	20821.275
2650.85521	20842.575
2653.4993	20832.375
2656.14175	20815.575
2658.78255	20860.975
2661.42171	20922.875
2664.05923	20937.275
2666.6951	20911.075
2669.32934	20962.375
2671.96194	20968.875
2674.59291	20983.275
2677.22224	20969.775
2679.84993	20997.375
2682.476	20963.575
2685.10043	20934.975
2687.72324	20861.375
2690.34441	20863.775
2692.96396	20800.275
2695.58188	20826.275
2698.19818	20752.875
2700.81285	20792.075
2703.4259	20794.675
2706.03733	20868.575
2708.64714	20829.675
2711.25533	20852.975
2713.86191	20794.275
2716.46687	20819.575
2719.07021	20830.875
2721.67194	20877.075
2724.27206	20856.575
2726.87057	20903.575
2729.46747	20952.875
2732.06276	20937.775
2734.65644	20899.375
2737.24852	20937.875
2739.83899	20882.075
2742.42786	20936.675
2745.01513	20837.775
2747.60079	20899.875
2750.18486	20886.775
2752.76733	20870.875
2755.3482	20856.275
2757.92747	20873.575
2760.50515	20852.675
2763.08123	20856.575
2765.65573	20804.075
2768.22863	20843.375
2770.79994	20837.675
2773.36967	20861.675
2775.9378	20845.175
2778.50435	20826.075
2781.06932	20861.875
2783.6327	20868.375
2786.1945	20865.875
2788.75471	20912.775
2791.31335	20857.275
2793.87041	20815.275
2796.42589	20745.575
2798.97979	20746.075
2801.53212	20721.275
2804.08288	20691.575
2806.63206	20628.475
2809.17967	20612.475
2811.72571	20579.775
2814.27018	20598.875
2816.81308	20560.675
2819.35442	20509.675
2821.89419	20527.275
2824.43239	20555.375
2826.96904	20533.075
2829.50412	20534.675
2832.03763	20485.475
2834.56959	20448.175
2837.1	20444.575
2839.62884	20437.675
2842.15613	20421.875
2844.68186	20469.275
2847.20604	20488.275
2849.72867	20475.075
2852.24974	20475.275
2854.76927	20500.775
2857.28724	20454.575
2859.80367	20471.675
2862.31855	20430.075
2864.83189	20410.975
2867.34368	20384.175
2869.85393	20382.975
2872.36264	20330.775
2874.8698	20358.375
2877.37543	20339.175
2879.87952	20367.475
2882.38207	20350.575
2884.88308	20326.775
2887.38256	20380.175
2889.88051	20340.475
2892.37692	20372.775
2894.8718	20401.175
2897.36515	20400.675
2899.85698	20435.175
2902.34727	20476.475
2904.83604	20475.875
2907.32328	20544.675
2909.809	20561.675
2912.29319	20568.875
2914.77587	20533.775
2917.25702	20575.375
2919.73665	20530.675
2922.21476	20525.275
2924.69136	20511.375
2927.16644	20456.075
2929.64	20393.575
2932.11205	20348.475
2934.58258	20290.275
2937.05161	20309.375
2939.51912	20296.175
2941.98513	20296.075
2944.44962	20222.175
2946.91261	20126.775
2949.37409	20141.675
2951.83407	20133.675
2954.29254	20109.275
2956.74951	20096.075
2959.20498	20067.775
2961.65895	20024.775
2964.11142	20006.575
2966.56239	19952.875
2969.01186	19931.975
2971.45984	19891.275
2973.90632	19863.475
2976.35131	19782.975
2978.7948	19732.975
2981.23681	19713.275
2983.67732	19702.275
2986.11635	19623.975
2988.55388	19546.575
2990.98993	19517.175
2993.4245	19465.375
2995.85758	19387.175
2998.28917	19379.975
3000.71928	19351.175
3003.14791	19299.275
3005.57506	19294.975
3008.00073	19226.875
3010.42493	19213.575
3012.84764	19160.375
3015.26888	19155.275
3017.68865	19104.875
3020.10694	19057.575
3022.52376	19005.075
3024.9391	18979.275
3027.35298	18942.675
3029.76539	18945.975
3032.17632	18910.475
3034.5858	18865.475
3036.9938	18824.975
3039.40034	18828.975
3041.80542	18853.475
3044.20903	18864.675
3046.61118	18805.375
3049.01187	18785.175
3051.4111	18765.075
3053.80888	18720.175
3056.20519	18682.175
3058.60005	18591.675
3060.99345	18552.475
3063.3854	18505.275
3065.7759	18404.975
3068.16494	18383.075
3070.55254	18314.375
3072.93868	18282.075
3075.32338	18234.775
3077.70662	18158.575
3080.08842	18095.875
3082.46878	18053.575
3084.84769	18036.475
3087.22515	18033.275
3089.60118	18017.575
3091.97576	17988.975
3094.3489	17980.575
3096.72061	17951.975
3099.09087	17953.675
3101.4597	17928.075
3103.82709	17945.375
3106.19305	17901.075
3108.55757	17857.775
3110.92066	17816.375
3113.28232	17817.475
3115.64255	17753.775
3118.00134	17700.475
3120.35871	17704.875
3122.71466	17656.875
3125.06917	17590.475
