Data from AgNPs_FTO_APTES_UA_5uM_CRN_200uM_R6G_10uM_NaF_0.1M_Addition_RamanShift__25__16-29-01-794.txt Node

Date: Mon Feb 07 16:29:01 GMT 2022
User: TCL
Spectrometer: QEP01345
Trigger mode: 4
Integration Time (sec): 7.000000E0
Scans to average: 10
Electric dark correction enabled: true
Nonlinearity correction enabled: false
Boxcar width: 0
XAxis mode: Raman Shifts
Number of Pixels in Spectrum: 1044
>>>>>Begin Spectral Data<<<<<
46.04893	-0.425
50.45542	-0.625
54.85868	-0.225
59.25871	-1.225
63.6555	85.075
68.04907	89.675
72.43941	92.875
76.82654	95.475
81.21044	99.275
85.59113	99.375
89.96862	103.475
94.34289	108.575
98.71396	111.375
103.08183	111.275
107.4465	116.175
111.80798	122.675
116.16626	123.475
120.52136	132.775
124.87327	137.175
129.222	150.575
133.56755	157.275
137.90993	175.675
142.24913	197.175
146.58517	219.775
150.91804	258.875
155.24774	318.275
159.57429	400.675
163.89768	518.575
168.21792	692.875
172.53501	954.275
176.84895	1333.975
181.15975	1890.075
185.46741	2641.275
189.77193	3671.675
194.07331	4914.275
198.37157	6344.875
202.6667	7848.675
206.9587	9298.575
211.24758	10820.975
215.53334	12307.175
219.81599	13975.575
224.09553	15797.475
228.37195	17852.075
232.64527	19970.675
236.91549	22302.775
241.18261	24492.575
245.44663	26391.375
249.70755	28068.975
253.96539	29600.475
258.22014	30842.975
262.4718	31994.475
266.72039	32857.675
270.96589	33390.475
275.20832	33548.975
279.44768	33410.675
283.68397	33169.175
287.91719	33109.175
292.14735	33326.475
296.37445	33791.075
300.59849	34364.175
304.81948	34851.475
309.03742	34986.875
313.25231	34405.675
317.46415	33074.775
321.67296	31229.975
325.87872	29735.375
330.08145	28991.075
334.28114	29001.875
338.47781	29299.775
342.67145	29828.775
346.86207	30616.275
351.04966	31790.075
355.23424	33012.275
359.4158	33981.875
363.59435	34478.875
367.76989	34680.875
371.94243	34760.875
376.11196	34826.075
380.27849	34795.675
384.44203	34758.875
388.60257	34706.375
392.76012	34709.275
396.91468	35014.975
401.06626	35701.175
405.21485	36173.275
409.36047	35776.875
413.50311	34582.275
417.64277	33455.475
421.77947	32946.075
425.9132	32774.975
430.04396	32986.875
434.17176	33299.575
438.2966	33799.475
442.41849	34621.075
446.53742	35608.475
450.6534	36705.375
454.76644	37502.975
458.87653	37718.475
462.98368	37517.175
467.08789	37188.775
471.18916	36904.575
475.2875	36594.275
479.38291	36497.175
483.4754	36093.675
487.56496	35393.375
491.6516	34546.475
495.73531	33874.075
499.81612	33585.575
503.89401	33679.475
507.96899	33809.975
512.04106	33857.275
516.11023	33901.075
520.1765	33936.475
524.23987	33754.875
528.30034	33381.375
532.35792	32960.675
536.41261	32547.575
540.46441	32186.775
544.51333	32100.675
548.55936	32510.575
552.60252	33342.775
556.64279	34339.975
560.6802	35068.075
564.71473	35584.275
568.7464	36721.075
572.7752	37586.175
576.80114	37226.875
580.82422	36528.275
584.84444	36189.175
588.86181	36430.975
592.87633	36944.575
596.888	37363.975
600.89682	37858.475
604.9028	39732.975
608.90594	45633.275
612.90624	53444.675
616.90371	50956.875
620.89834	39222.175
624.89015	33803.075
628.87913	32988.875
632.86528	33265.175
636.84862	33377.575
640.82913	32797.775
644.80683	31687.275
648.78172	30851.075
652.75379	30678.175
656.72306	31344.475
660.68952	32275.775
664.65319	32096.175
668.61405	31213.875
672.57211	30776.975
676.52738	30754.075
680.47986	30795.575
684.42955	30645.175
688.37646	30555.375
692.32058	30643.175
696.26192	30904.075
700.20048	31159.975
704.13626	31424.675
708.06928	31361.375
711.99952	31191.075
715.927	31080.475
719.85171	31097.175
723.77365	31091.575
727.69284	30846.275
731.60928	30632.275
735.52295	30543.575
739.43388	30533.075
743.34206	30637.775
747.24749	30748.575
751.15017	30980.475
755.05012	31604.075
758.94733	32858.475
762.8418	35380.675
766.73354	39487.475
770.62254	43654.775
774.50882	45336.275
778.39237	43196.075
782.27321	38529.175
786.15132	34321.175
790.02671	31903.575
793.89938	30799.175
797.76935	30266.275
801.6366	30133.075
805.50115	30027.675
809.36299	29894.375
813.22213	29817.775
817.07857	29844.675
820.93231	29872.975
824.78336	29811.575
828.63172	29824.675
832.47738	29832.575
836.32036	29763.375
840.16066	29658.875
843.99827	29608.675
847.8332	29534.175
851.66546	29411.075
855.49504	29362.775
859.32195	29405.175
863.1462	29288.475
866.96777	29155.175
870.78668	29079.475
874.60293	29103.875
878.41652	29128.275
882.22745	29269.775
886.03573	29314.675
889.84136	29234.575
893.64433	29141.275
897.44466	29097.575
901.24235	28994.975
905.0374	28894.775
908.8298	28787.475
912.61957	28890.175
916.40671	29153.775
920.19121	29483.875
923.97308	29641.775
927.75233	29739.975
931.52895	29720.975
935.30295	29486.875
939.07433	28847.975
942.84309	28327.875
946.60924	27988.175
950.37278	27780.675
954.13371	27703.675
957.89203	27620.875
961.64774	27561.775
965.40086	27484.775
969.15137	27379.975
972.89929	27236.575
976.64461	27151.375
980.38733	27079.875
984.12747	27154.575
987.86502	27321.375
991.59999	27582.275
995.33237	28002.975
999.06217	28638.575
1002.78939	29390.975
1006.51404	29950.675
1010.23611	30379.575
1013.95561	30693.175
1017.67255	30668.575
1021.38692	30343.775
1025.09872	29925.875
1028.80796	29824.775
1032.51465	30103.775
1036.21877	30579.975
1039.92035	30657.975
1043.61937	30538.375
1047.31584	30248.175
1051.00976	29912.975
1054.70114	29785.775
1058.38998	29835.675
1062.07627	30126.275
1065.76003	30381.075
1069.44126	30533.375
1073.11995	30747.575
1076.79611	31010.075
1080.46974	31289.575
1084.14085	31734.875
1087.80943	32240.575
1091.47549	32510.475
1095.13903	32349.775
1098.80005	31783.775
1102.45857	31072.975
1106.11456	30678.775
1109.76805	30682.675
1113.41903	31100.275
1117.06751	31792.475
1120.71348	32684.575
1124.35696	33558.175
1127.99793	34281.975
1131.63641	34244.275
1135.2724	33321.975
1138.90589	32389.275
1142.5369	31875.375
1146.16542	31668.475
1149.79145	31775.175
1153.415	32029.075
1157.03607	32457.075
1160.65467	33272.975
1164.27079	34520.075
1167.88443	36324.575
1171.49561	38883.075
1175.10432	42607.575
1178.71056	47435.175
1182.31434	51466.675
1185.91565	53195.775
1189.51451	52755.875
1193.11091	50908.975
1196.70485	48395.075
1200.29634	46081.175
1203.88538	44168.375
1207.47197	42280.275
1211.05612	40699.375
1214.63782	39604.075
1218.21708	38960.775
1221.79391	38577.575
1225.36829	38223.575
1228.94024	37713.575
1232.50976	37143.075
1236.07685	36719.575
1239.6415	36606.275
1243.20374	36715.075
1246.76355	37087.375
1250.32093	37602.675
1253.8759	38334.375
1257.42845	39406.375
1260.97859	40507.875
1264.52631	41415.275
1268.07163	42398.275
1271.61453	43452.875
1275.15503	44502.175
1278.69312	45395.675
1282.22882	46193.375
1285.76211	47244.775
1289.29301	48867.175
1292.82151	50961.875
1296.34761	53453.375
1299.87133	56678.675
1303.39266	60827.675
1306.9116	65972.375
1310.42815	71278.375
1313.94233	74543.975
1317.45412	74307.075
1320.96354	71959.475
1324.47058	69391.275
1327.97525	66844.575
1331.47754	65280.475
1334.97747	64761.075
1338.47502	65050.775
1341.97022	65604.375
1345.46305	65907.575
1348.95352	65881.775
1352.44163	66054.975
1355.92738	67925.975
1359.41078	72710.075
1362.89183	77628.775
1366.37053	75539.875
1369.84688	66543.475
1373.32088	57750.175
1376.79254	52311.375
1380.26186	50013.775
1383.72883	49434.875
1387.19347	49402.675
1390.65578	49408.775
1394.11575	49720.575
1397.57339	50513.175
1401.0287	51757.175
1404.48168	52920.275
1407.93234	53471.975
1411.38068	53143.675
1414.82669	51593.375
1418.27039	49109.375
1421.71177	46533.575
1425.15083	44371.675
1428.58758	43001.575
1432.02203	42828.875
1435.45416	43321.275
1438.88399	44144.675
1442.31151	44956.975
1445.73673	45743.375
1449.15965	46729.875
1452.58027	47570.075
1455.9986	48283.175
1459.41463	48920.675
1462.82837	49683.775
1466.23982	50525.775
1469.64898	51096.075
1473.05586	51275.975
1476.46045	50996.475
1479.86276	50667.575
1483.26279	50306.075
1486.66054	50171.475
1490.05602	50521.575
1493.44922	51158.575
1496.84016	52235.375
1500.22882	54380.175
1503.61521	57806.675
1506.99934	62377.375
1510.38121	66700.375
1513.76081	68522.075
1517.13816	66358.775
1520.51324	61197.075
1523.88607	56165.375
1527.25665	52867.375
1530.62498	51162.275
1533.99105	50355.875
1537.35488	49975.375
1540.71647	49567.675
1544.07581	48949.275
1547.4329	48315.075
1550.78776	47632.475
1554.14038	47156.475
1557.49077	47118.275
1560.83892	47390.475
1564.18484	47896.475
1567.52853	48540.675
1570.86999	48932.975
1574.20922	49501.275
1577.54624	49796.675
1580.88103	49137.275
1584.2136	48292.075
1587.54395	48676.575
1590.87208	50421.475
1594.19801	53236.575
1597.52172	56309.375
1600.84321	57491.575
1604.16251	55506.575
1607.47959	51431.975
1610.79447	47034.275
1614.10715	42737.575
1617.41763	39263.575
1620.7259	36915.475
1624.03199	35646.375
1627.33587	35467.075
1630.63757	36324.975
1633.93707	38352.475
1637.23439	41562.075
1640.52951	46231.875
1643.82246	51941.675
1647.11321	57423.675
1650.40179	60045.575
1653.68819	57493.575
1656.97241	50303.975
1660.25446	42579.575
1663.53433	36713.575
1666.81203	32860.475
1670.08756	30544.575
1673.36092	29074.375
1676.63211	28145.275
1679.90115	27508.075
1683.16801	26993.675
1686.43272	26631.375
1689.69527	26338.675
1692.95567	26187.775
1696.2139	26017.775
1699.46999	25914.375
1702.72392	25792.875
1705.97571	25700.275
1709.22535	25669.975
1712.47284	25620.775
1715.71819	25572.175
1718.96139	25535.875
1722.20246	25443.375
1725.44139	25345.775
1728.67818	25194.775
1731.91284	25060.875
1735.14537	24947.175
1738.37576	24840.275
1741.60403	24744.675
1744.83017	24637.775
1748.05418	24574.375
1751.27607	24555.275
1754.49584	24496.775
1757.71349	24495.375
1760.92903	24429.475
1764.14244	24383.275
1767.35375	24392.375
1770.56294	24307.175
1773.77002	24230.675
1776.97499	24161.275
1780.17785	24115.475
1783.37861	24044.175
1786.57727	24090.275
1789.77382	24033.675
1792.96828	24015.175
1796.16064	23963.875
1799.3509	23898.675
1802.53907	23852.375
1805.72514	23795.775
1808.90913	23699.475
1812.09102	23674.675
1815.27083	23639.675
1818.44856	23561.475
1821.6242	23536.275
1824.79776	23480.175
1827.96924	23447.875
1831.13864	23421.475
1834.30597	23389.375
1837.47122	23362.675
1840.6344	23345.275
1843.7955	23357.875
1846.95454	23335.975
1850.11151	23313.475
1853.26642	23266.975
1856.41926	23269.475
1859.57004	23268.075
1862.71876	23278.775
1865.86542	23257.475
1869.01003	23230.075
1872.15258	23239.075
1875.29308	23251.675
1878.43152	23218.575
1881.56792	23207.575
1884.70227	23226.275
1887.83457	23208.175
1890.96482	23189.175
1894.09304	23123.275
1897.21921	23146.775
1900.34335	23094.675
1903.46544	23070.175
1906.58551	23097.075
1909.70353	23079.175
1912.81953	23038.475
1915.93349	23016.475
1919.04543	23029.475
1922.15534	22956.975
1925.26322	22899.575
1928.36908	22869.575
1931.47292	22836.275
1934.57473	22792.175
1937.67453	22756.275
1940.77232	22628.575
1943.86808	22528.575
1946.96184	22425.275
1950.05358	22331.975
1953.14331	22269.275
1956.23103	22178.875
1959.31675	22123.375
1962.40046	22078.175
1965.48217	22040.075
1968.56188	21933.275
1971.63959	21864.575
1974.7153	21872.575
1977.78901	21772.575
1980.86073	21710.675
1983.93046	21661.075
1986.99819	21547.175
1990.06394	21504.575
1993.1277	21407.975
1996.18947	21353.175
1999.24925	21274.975
2002.30706	21230.175
2005.36288	21199.475
2008.41672	21145.175
2011.46859	21066.475
2014.51848	20986.875
2017.56639	20942.675
2020.61233	20867.875
2023.6563	20810.875
2026.6983	20735.775
2029.73833	20704.575
2032.7764	20652.975
2035.8125	20651.575
2038.84664	20580.375
2041.87881	20561.475
2044.90903	20539.275
2047.93729	20478.875
2050.96359	20440.975
2053.98794	20453.075
2057.01034	20422.475
2060.03078	20395.775
2063.04927	20405.075
2066.06582	20377.675
2069.08042	20361.575
2072.09307	20334.175
2075.10378	20309.375
2078.11255	20279.975
2081.11938	20271.675
2084.12426	20249.575
2087.12722	20243.275
2090.12824	20220.075
2093.12732	20222.875
2096.12447	20200.875
2099.11969	20198.675
2102.11299	20173.875
2105.10435	20218.475
2108.09379	20193.775
2111.08131	20184.375
2114.0669	20203.675
2117.05057	20222.675
2120.03233	20258.975
2123.01216	20241.375
2125.99008	20281.175
2128.96609	20302.175
2131.94018	20300.375
2134.91236	20300.175
2137.88263	20311.675
2140.851	20307.375
2143.81746	20339.075
2146.78201	20315.475
2149.74466	20318.575
2152.7054	20298.975
2155.66425	20265.175
2158.6212	20278.375
2161.57625	20208.375
2164.52941	20209.375
2167.48067	20227.775
2170.43004	20248.075
2173.37752	20219.175
2176.32311	20273.675
2179.26681	20282.475
2182.20863	20234.175
2185.14856	20258.675
2188.08661	20232.275
2191.02278	20235.175
2193.95707	20203.575
2196.88948	20157.875
2199.82001	20157.175
2202.74867	20137.875
2205.67545	20097.675
2208.60037	20077.575
2211.52341	20056.475
2214.44458	20032.775
2217.36388	19982.275
2220.28132	19946.175
2223.1969	19868.275
2226.11061	19872.875
2229.02246	19886.475
2231.93245	19824.975
2234.84058	19740.975
2237.74686	19712.975
2240.65128	19680.475
2243.55385	19645.375
2246.45456	19684.575
2249.35343	19672.975
2252.25044	19617.975
2255.14561	19554.675
2258.03893	19535.775
2260.93041	19501.675
2263.82004	19432.875
2266.70783	19406.475
2269.59378	19342.175
2272.4779	19311.275
2275.36017	19260.875
2278.24061	19210.575
2281.11922	19232.075
2283.996	19195.675
2286.87094	19154.075
2289.74405	19045.675
2292.61534	19062.375
2295.4848	19038.575
2298.35243	19052.075
2301.21824	19039.875
2304.08223	19093.475
2306.94439	19097.875
2309.80474	19087.275
2312.66327	19049.975
2315.51999	19070.975
2318.37489	19032.175
2321.22797	18982.575
2324.07925	18972.575
2326.92871	18957.675
2329.77637	18947.675
2332.62222	18915.075
2335.46626	18902.375
2338.3085	18906.675
2341.14893	18924.275
2343.98756	18917.075
2346.8244	18899.275
2349.65943	18890.275
2352.49267	18878.775
2355.32411	18908.575
2358.15376	18892.975
2360.98161	18897.175
2363.80768	18912.175
2366.63195	18910.075
2369.45444	18889.875
2372.27514	18837.475
2375.09405	18788.175
2377.91118	18708.375
2380.72652	18682.975
2383.54009	18673.275
2386.35187	18646.375
2389.16188	18532.775
2391.97011	18482.375
2394.77657	18449.475
2397.58125	18420.475
2400.38416	18347.375
2403.18529	18328.975
2405.98466	18304.875
2408.78226	18273.975
2411.57809	18296.075
2414.37216	18260.975
2417.16446	18240.675
2419.955	18222.075
2422.74378	18196.175
2425.5308	18143.175
2428.31606	18145.675
2431.09956	18150.275
2433.88131	18120.175
2436.6613	18134.775
2439.43954	18174.675
2442.21603	18132.975
2444.99077	18099.275
2447.76377	18096.275
2450.53501	18086.175
2453.30451	18068.475
2456.07226	18061.175
2458.83827	18053.775
2461.60254	18007.475
2464.36507	18006.975
2467.12586	18026.075
2469.88492	18001.475
2472.64224	18008.675
2475.39782	18042.575
2478.15167	18057.175
2480.90379	18060.275
2483.65417	18074.575
2486.40283	18077.075
2489.14976	18100.675
2491.89497	18113.175
2494.63845	18136.875
2497.3802	18157.175
2500.12024	18142.975
2502.85855	18110.575
2505.59514	18077.575
2508.33002	18041.275
2511.06318	17988.575
2513.79462	18004.775
2516.52435	17916.675
2519.25237	17918.875
2521.97867	17874.475
2524.70327	17846.775
2527.42616	17814.175
2530.14734	17839.075
2532.86681	17813.175
2535.58458	17837.575
2538.30065	17795.975
2541.01501	17821.875
2543.72768	17782.475
2546.43864	17753.675
2549.14791	17741.275
2551.85548	17729.975
2554.56136	17667.175
2557.26554	17659.175
2559.96803	17646.375
2562.66883	17585.975
2565.36794	17597.175
2568.06536	17605.975
2570.7611	17584.275
2573.45514	17548.275
2576.14751	17518.375
2578.83819	17517.775
2581.52719	17524.275
2584.21451	17477.275
2586.90015	17495.075
2589.58411	17487.875
2592.2664	17490.375
2594.94701	17437.175
2597.62594	17447.075
2600.30321	17419.775
2602.9788	17405.275
2605.65273	17381.975
2608.32498	17445.875
2610.99557	17442.775
2613.66449	17421.375
2616.33175	17418.275
2618.99734	17420.875
2621.66128	17379.575
2624.32355	17403.775
2626.98416	17390.775
2629.64311	17364.275
2632.30041	17372.775
2634.95605	17351.375
2637.61004	17313.375
2640.26238	17287.275
2642.91306	17299.175
2645.56209	17241.375
2648.20948	17298.275
2650.85521	17302.675
2653.4993	17297.175
2656.14175	17255.475
2658.78255	17316.175
2661.42171	17316.475
2664.05923	17308.475
2666.6951	17327.275
2669.32934	17320.275
2671.96194	17313.575
2674.59291	17337.675
2677.22224	17323.775
2679.84993	17320.175
2682.476	17286.175
2685.10043	17275.875
2687.72324	17257.875
2690.34441	17260.775
2692.96396	17269.075
2695.58188	17233.575
2698.19818	17236.375
2700.81285	17261.775
2703.4259	17273.575
2706.03733	17279.775
2708.64714	17270.075
2711.25533	17288.875
2713.86191	17271.275
2716.46687	17350.075
2719.07021	17335.775
2721.67194	17347.075
2724.27206	17339.575
2726.87057	17354.275
2729.46747	17405.775
2732.06276	17397.575
2734.65644	17316.575
2737.24852	17334.975
2739.83899	17301.275
2742.42786	17306.275
2745.01513	17288.475
2747.60079	17269.875
2750.18486	17272.775
2752.76733	17257.675
2755.3482	17199.675
2757.92747	17197.175
2760.50515	17188.375
2763.08123	17205.175
2765.65573	17226.675
2768.22863	17191.975
2770.79994	17164.075
2773.36967	17192.175
2775.9378	17189.275
2778.50435	17181.875
2781.06932	17168.175
2783.6327	17166.475
2786.1945	17163.475
2788.75471	17160.775
2791.31335	17151.375
2793.87041	17115.775
2796.42589	17073.775
2798.97979	17102.475
2801.53212	17094.175
2804.08288	17037.175
2806.63206	16984.375
2809.17967	16964.375
2811.72571	16941.175
2814.27018	16927.575
2816.81308	16901.375
2819.35442	16860.075
2821.89419	16831.175
2824.43239	16853.275
2826.96904	16820.675
2829.50412	16846.975
2832.03763	16776.675
2834.56959	16733.575
2837.1	16741.175
2839.62884	16765.275
2842.15613	16806.875
2844.68186	16862.075
2847.20604	16870.675
2849.72867	16878.775
2852.24974	16891.375
2854.76927	16853.275
2857.28724	16838.175
2859.80367	16830.675
2862.31855	16793.675
2864.83189	16784.175
2867.34368	16732.075
2869.85393	16776.975
2872.36264	16745.975
2874.8698	16781.275
2877.37543	16767.675
2879.87952	16735.775
2882.38207	16738.675
2884.88308	16732.475
2887.38256	16759.075
2889.88051	16725.075
2892.37692	16737.875
2894.8718	16745.875
2897.36515	16783.475
2899.85698	16744.475
2902.34727	16764.675
2904.83604	16793.175
2907.32328	16839.575
2909.809	16808.075
2912.29319	16801.975
2914.77587	16803.575
2917.25702	16781.175
2919.73665	16739.475
2922.21476	16767.475
2924.69136	16749.575
2927.16644	16734.875
2929.64	16708.475
2932.11205	16694.275
2934.58258	16632.075
2937.05161	16654.775
2939.51912	16610.675
2941.98513	16584.175
2944.44962	16547.275
2946.91261	16460.475
2949.37409	16501.675
2951.83407	16438.975
2954.29254	16434.975
2956.74951	16404.475
2959.20498	16392.075
2961.65895	16360.475
2964.11142	16344.675
2966.56239	16328.475
2969.01186	16333.075
2971.45984	16264.675
2973.90632	16276.875
2976.35131	16228.675
2978.7948	16162.275
2981.23681	16155.675
2983.67732	16104.575
2986.11635	16065.075
2988.55388	16027.775
2990.98993	16024.875
2993.4245	15944.875
2995.85758	15889.275
2998.28917	15915.775
3000.71928	15858.875
3003.14791	15844.275
3005.57506	15803.475
3008.00073	15741.375
3010.42493	15733.775
3012.84764	15706.375
3015.26888	15698.575
3017.68865	15616.975
3020.10694	15621.775
3022.52376	15571.275
3024.9391	15571.675
3027.35298	15530.775
3029.76539	15534.475
3032.17632	15505.775
3034.5858	15481.575
3036.9938	15470.075
3039.40034	15478.275
3041.80542	15460.875
3044.20903	15405.075
3046.61118	15428.775
3049.01187	15368.375
3051.4111	15349.875
3053.80888	15347.875
3056.20519	15292.675
3058.60005	15231.775
3060.99345	15205.575
3063.3854	15153.675
3065.7759	15058.775
3068.16494	15023.075
3070.55254	14965.975
3072.93868	14946.375
3075.32338	14890.475
3077.70662	14846.175
3080.08842	14800.175
3082.46878	14786.975
3084.84769	14765.275
3087.22515	14762.775
3089.60118	14765.175
3091.97576	14720.475
3094.3489	14734.175
3096.72061	14731.175
3099.09087	14729.075
3101.4597	14696.275
3103.82709	14682.375
3106.19305	14653.975
3108.55757	14656.075
3110.92066	14587.175
3113.28232	14575.075
3115.64255	14502.275
3118.00134	14476.375
3120.35871	14502.175
3122.71466	14466.475
3125.06917	14404.875
3127.42226	14400.775
