Data from AgNPs_FTO_APTES_UA_5uM_CRN_0uM_R6G_10uM_NaF_0.1M_Addition_RamanShift__19__10-00-56-545.txt Node

Date: Mon Feb 07 10:00:56 GMT 2022
User: TCL
Spectrometer: QEP01345
Trigger mode: 4
Integration Time (sec): 7.000000E0
Scans to average: 10
Electric dark correction enabled: true
Nonlinearity correction enabled: false
Boxcar width: 0
XAxis mode: Raman Shifts
Number of Pixels in Spectrum: 1044
>>>>>Begin Spectral Data<<<<<
46.04893	-1.525
50.45542	-1.025
54.85868	0.175
59.25871	0.875
63.6555	81.675
68.04907	83.475
72.43941	89.475
76.82654	92.275
81.21044	90.075
85.59113	100.475
89.96862	103.475
94.34289	104.275
98.71396	112.175
103.08183	110.875
107.4465	114.475
111.80798	115.875
116.16626	124.875
120.52136	129.075
124.87327	136.375
129.222	145.675
133.56755	152.875
137.90993	170.975
142.24913	190.075
146.58517	219.975
150.91804	258.175
155.24774	314.375
159.57429	400.275
163.89768	526.675
168.21792	706.975
172.53501	971.375
176.84895	1359.775
181.15975	1902.675
185.46741	2686.075
189.77193	3664.775
194.07331	4903.875
198.37157	6281.975
202.6667	7769.575
206.9587	9188.575
211.24758	10622.875
215.53334	12115.175
219.81599	13736.875
224.09553	15549.575
228.37195	17580.675
232.64527	19774.175
236.91549	21992.775
241.18261	24183.075
245.44663	26112.475
249.70755	27806.975
253.96539	29391.175
258.22014	30730.675
262.4718	31829.875
266.72039	32726.375
270.96589	33245.075
275.20832	33528.075
279.44768	33564.375
283.68397	33586.075
287.91719	33830.775
292.14735	34081.275
296.37445	34167.475
300.59849	34204.575
304.81948	34313.375
309.03742	34333.475
313.25231	33808.275
317.46415	32455.275
321.67296	30647.675
325.87872	28959.075
330.08145	27981.575
334.28114	27663.075
338.47781	27826.075
342.67145	28146.275
346.86207	28670.475
351.04966	29377.175
355.23424	30162.675
359.4158	30827.575
363.59435	31188.775
367.76989	31292.075
371.94243	31385.975
376.11196	31340.775
380.27849	31231.675
384.44203	31183.375
388.60257	31235.475
392.76012	31527.875
396.91468	32053.275
401.06626	32812.475
405.21485	33310.975
409.36047	33146.875
413.50311	32570.875
417.64277	32094.575
421.77947	32126.575
425.9132	32251.175
430.04396	32381.275
434.17176	32278.875
438.2966	32053.275
442.41849	32082.175
446.53742	32573.675
450.6534	33466.975
454.76644	34326.775
458.87653	34740.475
462.98368	34656.175
467.08789	34333.075
471.18916	33909.375
475.2875	33530.975
479.38291	33695.175
483.4754	34032.675
487.56496	34070.775
491.6516	33878.075
495.73531	33489.075
499.81612	33385.775
503.89401	33665.075
507.96899	33747.975
512.04106	33214.075
516.11023	32202.075
520.1765	31060.175
524.23987	30027.175
528.30034	29208.275
532.35792	28567.175
536.41261	27997.875
540.46441	27575.975
544.51333	27652.975
548.55936	28388.475
552.60252	29669.675
556.64279	30947.675
560.6802	31720.375
564.71473	32249.875
568.7464	33484.675
572.7752	35431.575
576.80114	37188.975
580.82422	38749.075
584.84444	40075.475
588.86181	40197.175
592.87633	39000.275
596.888	37460.075
600.89682	36719.075
604.9028	38330.575
608.90594	43470.675
612.90624	48739.775
616.90371	44887.075
620.89834	34432.675
624.89015	29552.975
628.87913	28795.775
632.86528	29097.575
636.84862	29169.775
640.82913	28561.575
644.80683	27357.575
648.78172	26437.975
652.75379	26206.275
656.72306	26649.275
660.68952	27305.675
664.65319	27262.775
668.61405	26579.275
672.57211	26329.475
676.52738	26297.275
680.47986	26201.975
684.42955	25861.775
688.37646	25555.675
692.32058	25634.875
696.26192	26039.375
700.20048	26640.475
704.13626	27210.975
708.06928	27520.275
711.99952	27387.375
715.927	27140.775
719.85171	27158.075
723.77365	27027.975
727.69284	26512.375
731.60928	25939.775
735.52295	25647.175
739.43388	25575.075
743.34206	25724.775
747.24749	26030.275
751.15017	26598.775
755.05012	27551.075
758.94733	29047.075
762.8418	31787.375
766.73354	36135.175
770.62254	40126.575
774.50882	40209.175
778.39237	36514.275
782.27321	32236.675
786.15132	28934.475
790.02671	26953.575
793.89938	25964.675
797.76935	25511.675
801.6366	25457.175
805.50115	25402.575
809.36299	25182.475
813.22213	24822.375
817.07857	24643.975
820.93231	24456.375
824.78336	24312.075
828.63172	24089.975
832.47738	23973.075
836.32036	23985.575
840.16066	24022.675
843.99827	24170.775
847.8332	24188.075
851.66546	24061.875
855.49504	24009.975
859.32195	23966.975
863.1462	23783.475
866.96777	23639.175
870.78668	23460.275
874.60293	23391.875
878.41652	23256.475
882.22745	23285.275
886.03573	23377.475
889.84136	23434.975
893.64433	23344.975
897.44466	23338.975
901.24235	23243.975
905.0374	23108.775
908.8298	22956.975
912.61957	22974.175
916.40671	23393.875
920.19121	24252.375
923.97308	25001.675
927.75233	25171.975
931.52895	24741.675
935.30295	23891.275
939.07433	22909.175
942.84309	22174.775
946.60924	21829.475
950.37278	21777.975
954.13371	21755.075
957.89203	21711.275
961.64774	21658.675
965.40086	21603.975
969.15137	21539.875
972.89929	21366.275
976.64461	21157.675
980.38733	21052.675
984.12747	21067.975
987.86502	21231.875
991.59999	21499.575
995.33237	22004.975
999.06217	22870.075
1002.78939	23978.175
1006.51404	24760.675
1010.23611	25179.575
1013.95561	25559.375
1017.67255	25592.875
1021.38692	25275.275
1025.09872	24945.275
1028.80796	25205.875
1032.51465	26323.875
1036.21877	27355.875
1039.92035	27467.575
1043.61937	26895.375
1047.31584	25905.875
1051.00976	24947.775
1054.70114	24540.475
1058.38998	24613.175
1062.07627	24951.575
1065.76003	25460.875
1069.44126	26121.175
1073.11995	27157.775
1076.79611	28076.875
1080.46974	28236.575
1084.14085	28285.575
1087.80943	28796.875
1091.47549	29447.075
1095.13903	29683.675
1098.80005	29205.875
1102.45857	27650.375
1106.11456	26005.075
1109.76805	24959.175
1113.41903	24627.075
1117.06751	24689.975
1120.71348	24978.475
1124.35696	25488.575
1127.99793	26168.575
1131.63641	26719.875
1135.2724	26845.675
1138.90589	26677.875
1142.5369	26598.975
1146.16542	26688.275
1149.79145	26850.575
1153.415	27241.975
1157.03607	28088.075
1160.65467	29550.075
1164.27079	31995.775
1167.88443	34827.175
1171.49561	38177.875
1175.10432	42368.975
1178.71056	47568.175
1182.31434	52170.575
1185.91565	54707.975
1189.51451	54951.675
1193.11091	53100.675
1196.70485	49970.775
1200.29634	46634.575
1203.88538	44271.175
1207.47197	42655.275
1211.05612	41334.575
1214.63782	39959.375
1218.21708	38572.375
1221.79391	37384.475
1225.36829	36542.675
1228.94024	35570.975
1232.50976	34373.975
1236.07685	33393.475
1239.6415	32987.075
1243.20374	32922.175
1246.76355	33220.375
1250.32093	34011.575
1253.8759	35320.375
1257.42845	37176.475
1260.97859	39173.875
1264.52631	40912.375
1268.07163	42653.075
1271.61453	44568.275
1275.15503	46645.975
1278.69312	48771.275
1282.22882	50698.675
1285.76211	52720.775
1289.29301	55220.675
1292.82151	58499.575
1296.34761	62569.875
1299.87133	67773.275
1303.39266	73529.875
1306.9116	79261.975
1310.42815	83751.075
1313.94233	86022.775
1317.45412	85806.875
1320.96354	84845.075
1324.47058	84540.375
1327.97525	84781.375
1331.47754	84785.275
1334.97747	83926.875
1338.47502	82477.175
1341.97022	80574.775
1345.46305	78227.575
1348.95352	75122.775
1352.44163	72014.175
1355.92738	70934.475
1359.41078	72988.175
1362.89183	76308.475
1366.37053	76582.775
1369.84688	71652.775
1373.32088	64030.775
1376.79254	57404.975
1380.26186	53831.075
1383.72883	52631.175
1387.19347	52555.375
1390.65578	52427.675
1394.11575	52559.175
1397.57339	53576.575
1401.0287	55320.775
1404.48168	56830.075
1407.93234	56810.575
1411.38068	54890.475
1414.82669	51591.775
1418.27039	47605.975
1421.71177	43922.075
1425.15083	40970.775
1428.58758	39278.875
1432.02203	39084.375
1435.45416	40321.075
1438.88399	42202.675
1442.31151	44024.875
1445.73673	45511.275
1449.15965	46859.975
1452.58027	47818.175
1455.9986	48281.175
1459.41463	48678.975
1462.82837	49724.575
1466.23982	51219.975
1469.64898	52698.475
1473.05586	53583.675
1476.46045	53860.675
1479.86276	53478.275
1483.26279	52653.375
1486.66054	52157.475
1490.05602	52249.175
1493.44922	52754.675
1496.84016	53675.775
1500.22882	55332.975
1503.61521	57773.875
1506.99934	60954.675
1510.38121	64250.075
1513.76081	66225.075
1517.13816	65705.275
1520.51324	63449.975
1523.88607	60958.675
1527.25665	59063.075
1530.62498	57805.675
1533.99105	56665.075
1537.35488	55539.975
1540.71647	54061.675
1544.07581	52091.475
1547.4329	49867.975
1550.78776	47871.675
1554.14038	46440.875
1557.49077	45893.775
1560.83892	45930.875
1564.18484	46470.575
1567.52853	46710.375
1570.86999	46853.475
1574.20922	47328.575
1577.54624	47856.775
1580.88103	47675.075
1584.2136	47720.375
1587.54395	49461.475
1590.87208	53281.575
1594.19801	58266.275
1597.52172	62830.175
1600.84321	63653.375
1604.16251	59069.775
1607.47959	52140.775
1610.79447	45535.875
1614.10715	39866.975
1617.41763	35378.775
1620.7259	32364.075
1624.03199	30756.275
1627.33587	30579.875
1630.63757	31852.675
1633.93707	34680.075
1637.23439	39570.475
1640.52951	46723.775
1643.82246	55482.975
1647.11321	63294.575
1650.40179	66453.875
1653.68819	62848.675
1656.97241	53915.275
1660.25446	43511.575
1663.53433	34991.675
1666.81203	29245.875
1670.08756	25667.275
1673.36092	23490.575
1676.63211	22081.475
1679.90115	21159.075
1683.16801	20468.875
1686.43272	19954.975
1689.69527	19600.075
1692.95567	19331.875
1696.2139	19129.375
1699.46999	18920.675
1702.72392	18814.675
1705.97571	18710.775
1709.22535	18580.675
1712.47284	18482.875
1715.71819	18402.975
1718.96139	18252.875
1722.20246	18107.775
1725.44139	17978.275
1728.67818	17793.075
1731.91284	17624.175
1735.14537	17426.375
1738.37576	17317.775
1741.60403	17163.475
1744.83017	17137.875
1748.05418	17029.375
1751.27607	16969.975
1754.49584	16903.475
1757.71349	16855.575
1760.92903	16782.375
1764.14244	16767.675
1767.35375	16775.375
1770.56294	16738.475
1773.77002	16689.775
1776.97499	16623.475
1780.17785	16533.475
1783.37861	16500.975
1786.57727	16447.975
1789.77382	16408.875
1792.96828	16380.875
1796.16064	16325.975
1799.3509	16273.475
1802.53907	16244.875
1805.72514	16155.375
1808.90913	16081.675
1812.09102	16042.475
1815.27083	16002.475
1818.44856	15940.175
1821.6242	15909.975
1824.79776	15861.675
1827.96924	15890.975
1831.13864	15855.775
1834.30597	15873.775
1837.47122	15894.275
1840.6344	15877.775
1843.7955	15886.775
1846.95454	15871.575
1850.11151	15890.475
1853.26642	15838.375
1856.41926	15836.675
1859.57004	15841.075
1862.71876	15820.275
1865.86542	15772.475
1869.01003	15781.775
1872.15258	15735.175
1875.29308	15660.375
1878.43152	15650.175
1881.56792	15620.175
1884.70227	15629.675
1887.83457	15623.275
1890.96482	15637.475
1894.09304	15582.375
1897.21921	15566.475
1900.34335	15544.975
1903.46544	15527.975
1906.58551	15506.675
1909.70353	15469.675
1912.81953	15427.075
1915.93349	15393.875
1919.04543	15347.475
1922.15534	15305.375
1925.26322	15240.675
1928.36908	15207.675
1931.47292	15134.875
1934.57473	15075.775
1937.67453	15029.175
1940.77232	14950.075
1943.86808	14888.175
1946.96184	14832.375
1950.05358	14779.175
1953.14331	14741.175
1956.23103	14729.075
1959.31675	14664.375
1962.40046	14578.675
1965.48217	14575.675
1968.56188	14533.175
1971.63959	14488.875
1974.7153	14434.775
1977.78901	14386.675
1980.86073	14317.375
1983.93046	14277.075
1986.99819	14208.875
1990.06394	14133.375
1993.1277	14137.875
1996.18947	14077.775
1999.24925	14014.775
2002.30706	13944.775
2005.36288	13903.775
2008.41672	13863.775
2011.46859	13825.075
2014.51848	13807.475
2017.56639	13780.575
2020.61233	13718.575
2023.6563	13699.975
2026.6983	13665.775
2029.73833	13659.075
2032.7764	13662.875
2035.8125	13640.475
2038.84664	13605.875
2041.87881	13575.875
2044.90903	13538.175
2047.93729	13514.175
2050.96359	13509.275
2053.98794	13500.975
2057.01034	13516.075
2060.03078	13506.775
2063.04927	13459.775
2066.06582	13441.575
2069.08042	13437.975
2072.09307	13420.875
2075.10378	13413.675
2078.11255	13377.875
2081.11938	13367.675
2084.12426	13333.675
2087.12722	13341.575
2090.12824	13323.575
2093.12732	13325.875
2096.12447	13289.475
2099.11969	13306.375
2102.11299	13293.675
2105.10435	13300.775
2108.09379	13286.775
2111.08131	13331.275
2114.0669	13307.875
2117.05057	13326.175
2120.03233	13337.275
2123.01216	13318.775
2125.99008	13325.675
2128.96609	13342.475
2131.94018	13338.075
2134.91236	13346.475
2137.88263	13345.675
2140.851	13326.775
2143.81746	13350.875
2146.78201	13337.375
2149.74466	13334.175
2152.7054	13338.675
2155.66425	13320.775
2158.6212	13324.675
2161.57625	13289.375
2164.52941	13284.975
2167.48067	13282.275
2170.43004	13286.775
2173.37752	13264.875
2176.32311	13259.575
2179.26681	13268.675
2182.20863	13262.675
2185.14856	13256.475
2188.08661	13226.875
2191.02278	13226.075
2193.95707	13234.575
2196.88948	13214.275
2199.82001	13177.975
2202.74867	13173.775
2205.67545	13181.375
2208.60037	13197.875
2211.52341	13172.175
2214.44458	13220.575
2217.36388	13196.275
2220.28132	13156.975
2223.1969	13144.575
2226.11061	13134.775
2229.02246	13101.375
2231.93245	13084.175
2234.84058	13010.275
2237.74686	12991.375
2240.65128	12968.075
2243.55385	12905.075
2246.45456	12879.975
2249.35343	12855.475
2252.25044	12815.975
2255.14561	12820.475
2258.03893	12786.975
2260.93041	12793.475
2263.82004	12766.775
2266.70783	12742.875
2269.59378	12701.375
2272.4779	12630.975
2275.36017	12591.175
2278.24061	12571.375
2281.11922	12543.175
2283.996	12552.875
2286.87094	12551.375
2289.74405	12516.075
2292.61534	12495.975
2295.4848	12498.675
2298.35243	12500.675
2301.21824	12502.075
2304.08223	12532.575
2306.94439	12541.075
2309.80474	12557.575
2312.66327	12575.375
2315.51999	12580.575
2318.37489	12584.175
2321.22797	12579.375
2324.07925	12609.675
2326.92871	12570.575
2329.77637	12575.775
2332.62222	12550.775
2335.46626	12597.175
2338.3085	12608.175
2341.14893	12622.375
2343.98756	12659.775
2346.8244	12705.075
2349.65943	12696.975
2352.49267	12717.075
2355.32411	12738.475
2358.15376	12740.075
2360.98161	12711.575
2363.80768	12704.375
2366.63195	12678.475
2369.45444	12652.175
2372.27514	12614.975
2375.09405	12571.475
2377.91118	12534.975
2380.72652	12454.075
2383.54009	12421.575
2386.35187	12415.175
2389.16188	12389.775
2391.97011	12366.275
2394.77657	12353.775
2397.58125	12303.475
2400.38416	12320.475
2403.18529	12264.875
2405.98466	12249.875
2408.78226	12187.275
2411.57809	12176.075
2414.37216	12140.675
2417.16446	12138.575
2419.955	12095.075
2422.74378	12104.475
2425.5308	12072.275
2428.31606	12056.175
2431.09956	12061.975
2433.88131	12065.975
2436.6613	12092.275
2439.43954	12087.375
2442.21603	12105.075
2444.99077	12078.575
2447.76377	12087.575
2450.53501	12089.675
2453.30451	12103.675
2456.07226	12091.775
2458.83827	12087.075
2461.60254	12095.075
2464.36507	12150.175
2467.12586	12125.375
2469.88492	12094.475
2472.64224	12118.375
2475.39782	12145.675
2478.15167	12182.775
2480.90379	12136.575
2483.65417	12202.275
2486.40283	12211.475
2489.14976	12272.075
2491.89497	12273.475
2494.63845	12312.275
2497.3802	12309.075
2500.12024	12295.475
2502.85855	12280.575
2505.59514	12272.875
2508.33002	12235.975
2511.06318	12222.775
2513.79462	12217.575
2516.52435	12212.875
2519.25237	12225.975
2521.97867	12207.275
2524.70327	12161.975
2527.42616	12153.375
2530.14734	12164.575
2532.86681	12185.575
2535.58458	12188.375
2538.30065	12157.275
2541.01501	12157.975
2543.72768	12148.275
2546.43864	12140.175
2549.14791	12138.675
2551.85548	12126.975
2554.56136	12124.775
2557.26554	12098.175
2559.96803	12084.475
2562.66883	12100.775
2565.36794	12111.175
2568.06536	12074.575
2570.7611	12063.175
2573.45514	12091.375
2576.14751	12088.675
2578.83819	12075.575
2581.52719	12090.875
2584.21451	12090.575
2586.90015	12100.575
2589.58411	12111.575
2592.2664	12092.375
2594.94701	12115.775
2597.62594	12116.275
2600.30321	12107.875
2602.9788	12125.275
2605.65273	12162.875
2608.32498	12195.275
2610.99557	12186.075
2613.66449	12177.175
2616.33175	12178.975
2618.99734	12207.675
2621.66128	12206.775
2624.32355	12220.475
2626.98416	12227.375
2629.64311	12246.275
2632.30041	12240.075
2634.95605	12237.175
2637.61004	12207.775
2640.26238	12203.275
2642.91306	12188.875
2645.56209	12186.775
2648.20948	12159.075
2650.85521	12176.475
2653.4993	12193.475
2656.14175	12150.775
2658.78255	12176.775
2661.42171	12193.875
2664.05923	12197.675
2666.6951	12188.875
2669.32934	12212.475
2671.96194	12244.975
2674.59291	12217.875
2677.22224	12234.775
2679.84993	12215.575
2682.476	12181.175
2685.10043	12168.675
2687.72324	12137.775
2690.34441	12107.875
2692.96396	12133.475
2695.58188	12103.875
2698.19818	12086.175
2700.81285	12093.675
2703.4259	12111.275
2706.03733	12126.075
2708.64714	12117.275
2711.25533	12095.375
2713.86191	12079.175
2716.46687	12103.475
2719.07021	12106.675
2721.67194	12137.675
2724.27206	12139.175
2726.87057	12176.775
2729.46747	12189.075
2732.06276	12196.775
2734.65644	12176.975
2737.24852	12178.175
2739.83899	12148.975
2742.42786	12161.875
2745.01513	12148.275
2747.60079	12183.975
2750.18486	12151.275
2752.76733	12099.175
2755.3482	12104.075
2757.92747	12146.675
2760.50515	12113.175
2763.08123	12129.475
2765.65573	12112.175
2768.22863	12112.875
2770.79994	12105.775
2773.36967	12134.175
2775.9378	12163.375
2778.50435	12158.075
2781.06932	12176.375
2783.6327	12177.775
2786.1945	12191.075
2788.75471	12191.075
2791.31335	12184.875
2793.87041	12174.075
2796.42589	12155.275
2798.97979	12166.775
2801.53212	12122.975
2804.08288	12124.675
2806.63206	12099.175
2809.17967	12114.575
2811.72571	12095.075
2814.27018	12093.175
2816.81308	12068.975
2819.35442	12025.775
2821.89419	12028.775
2824.43239	12009.275
2826.96904	11999.975
2829.50412	12033.175
2832.03763	12002.975
2834.56959	11979.875
2837.1	12007.375
2839.62884	12003.775
2842.15613	12019.075
2844.68186	12023.075
2847.20604	12079.875
2849.72867	12092.175
2852.24974	12070.575
2854.76927	12075.375
2857.28724	12063.675
2859.80367	12068.475
2862.31855	12059.475
2864.83189	12053.675
2867.34368	12059.275
2869.85393	12031.375
2872.36264	12005.775
2874.8698	12024.975
2877.37543	12026.775
2879.87952	12035.875
2882.38207	12020.975
2884.88308	12027.875
2887.38256	12037.975
2889.88051	12053.975
2892.37692	12073.475
2894.8718	12088.075
2897.36515	12103.275
2899.85698	12118.875
2902.34727	12179.775
2904.83604	12209.275
2907.32328	12186.875
2909.809	12205.475
2912.29319	12233.575
2914.77587	12232.775
2917.25702	12236.175
2919.73665	12187.675
2922.21476	12194.375
2924.69136	12222.375
2927.16644	12157.875
2929.64	12140.875
2932.11205	12110.275
2934.58258	12094.575
2937.05161	12071.675
2939.51912	12067.775
2941.98513	12045.975
2944.44962	11999.075
2946.91261	11950.175
2949.37409	11930.375
2951.83407	11919.775
2954.29254	11858.875
2956.74951	11861.575
2959.20498	11841.575
2961.65895	11835.675
2964.11142	11804.575
2966.56239	11790.175
2969.01186	11753.275
2971.45984	11733.975
2973.90632	11719.575
2976.35131	11699.375
2978.7948	11644.775
2981.23681	11647.675
2983.67732	11608.675
2986.11635	11563.575
2988.55388	11553.575
2990.98993	11478.975
2993.4245	11462.675
2995.85758	11422.175
2998.28917	11391.375
3000.71928	11331.575
3003.14791	11313.475
3005.57506	11290.975
3008.00073	11264.575
3010.42493	11271.675
3012.84764	11233.675
3015.26888	11200.675
3017.68865	11160.775
3020.10694	11133.975
3022.52376	11106.275
3024.9391	11094.975
3027.35298	11085.775
3029.76539	11068.275
3032.17632	11071.175
3034.5858	11072.775
3036.9938	11050.475
3039.40034	11061.575
3041.80542	11089.075
3044.20903	11062.875
3046.61118	11073.075
3049.01187	11023.375
3051.4111	11045.075
3053.80888	11019.275
3056.20519	10961.775
3058.60005	10937.375
3060.99345	10890.675
3063.3854	10869.175
3065.7759	10809.275
3068.16494	10823.975
3070.55254	10757.375
3072.93868	10716.575
3075.32338	10660.475
3077.70662	10651.975
3080.08842	10591.775
3082.46878	10603.575
3084.84769	10577.575
3087.22515	10599.175
3089.60118	10582.075
3091.97576	10551.075
3094.3489	10544.075
3096.72061	10552.875
3099.09087	10555.075
3101.4597	10538.475
3103.82709	10548.775
3106.19305	10545.475
3108.55757	10545.875
3110.92066	10498.775
3113.28232	10484.175
3115.64255	10469.275
3118.00134	10447.375
3120.35871	10450.575
3122.71466	10407.175
3125.06917	10406.075
3127.42226	10377.975
