Data from AgNPs_FTO_APTES_UA_5uM_CRN_1000uM_R6G_10uM_NaF_0.1M_Addition_RamanShift__22__17-49-31-890.txt Node

Date: Mon Feb 07 17:49:31 GMT 2022
User: TCL
Spectrometer: QEP01345
Trigger mode: 4
Integration Time (sec): 7.000000E0
Scans to average: 10
Electric dark correction enabled: true
Nonlinearity correction enabled: false
Boxcar width: 0
XAxis mode: Raman Shifts
Number of Pixels in Spectrum: 1044
>>>>>Begin Spectral Data<<<<<
46.04893	-1.825
50.45542	-0.225
54.85868	1.175
59.25871	0.975
63.6555	50.475
68.04907	53.275
72.43941	58.075
76.82654	62.175
81.21044	58.375
85.59113	60.375
89.96862	64.075
94.34289	66.375
98.71396	68.175
103.08183	71.975
107.4465	73.375
111.80798	75.575
116.16626	77.175
120.52136	81.375
124.87327	84.175
129.222	88.575
133.56755	94.375
137.90993	106.175
142.24913	112.175
146.58517	128.375
150.91804	147.975
155.24774	187.075
159.57429	229.375
163.89768	293.975
168.21792	399.975
172.53501	538.975
176.84895	760.375
181.15975	1064.875
185.46741	1495.275
189.77193	2059.675
194.07331	2753.975
198.37157	3567.575
202.6667	4401.375
206.9587	5248.675
211.24758	6072.075
215.53334	6897.475
219.81599	7779.775
224.09553	8769.475
228.37195	9840.875
232.64527	10993.775
236.91549	12231.775
241.18261	13415.575
245.44663	14539.375
249.70755	15580.175
253.96539	16457.375
258.22014	17231.575
262.4718	17847.975
266.72039	18282.875
270.96589	18534.875
275.20832	18588.175
279.44768	18541.675
283.68397	18398.375
287.91719	18321.775
292.14735	18284.775
296.37445	18334.275
300.59849	18406.675
304.81948	18464.675
309.03742	18386.675
313.25231	18073.575
317.46415	17648.075
321.67296	17113.575
325.87872	16681.175
330.08145	16461.075
334.28114	16453.175
338.47781	16551.875
342.67145	16729.675
346.86207	16945.575
351.04966	17262.875
355.23424	17627.975
359.4158	17910.475
363.59435	18095.175
367.76989	18260.775
371.94243	18406.875
376.11196	18519.075
380.27849	18563.475
384.44203	18726.775
388.60257	18854.075
392.76012	19034.075
396.91468	19247.575
401.06626	19503.375
405.21485	19731.075
409.36047	19628.675
413.50311	19397.875
417.64277	19200.675
421.77947	19180.075
425.9132	19284.275
430.04396	19491.075
434.17176	19710.075
438.2966	20011.975
442.41849	20529.575
446.53742	21278.775
450.6534	22130.675
454.76644	22672.575
458.87653	22808.975
462.98368	22535.475
467.08789	22086.375
471.18916	21772.975
475.2875	21583.775
479.38291	21586.375
483.4754	21533.175
487.56496	21296.875
491.6516	20777.275
495.73531	20264.275
499.81612	19876.575
503.89401	19806.775
507.96899	19783.775
512.04106	19634.175
516.11023	19428.475
520.1765	19202.975
524.23987	19104.575
528.30034	18985.775
532.35792	18927.975
536.41261	18752.675
540.46441	18526.475
544.51333	18494.475
548.55936	18671.775
552.60252	19157.875
556.64279	19814.675
560.6802	20345.375
564.71473	20736.375
568.7464	21265.375
572.7752	21899.575
576.80114	22193.975
580.82422	22296.075
584.84444	22488.575
588.86181	23090.675
592.87633	23859.575
596.888	24099.175
600.89682	23545.375
604.9028	23364.875
608.90594	24550.775
612.90624	26059.875
616.90371	24389.975
620.89834	20521.375
624.89015	18802.475
628.87913	18589.775
632.86528	18748.375
636.84862	18795.375
640.82913	18613.575
644.80683	18115.775
648.78172	17726.075
652.75379	17593.175
656.72306	17661.475
660.68952	17946.475
664.65319	17843.675
668.61405	17589.675
672.57211	17566.775
676.52738	17642.475
680.47986	17682.975
684.42955	17560.275
688.37646	17471.575
692.32058	17503.675
696.26192	17595.075
700.20048	17765.775
704.13626	17902.475
708.06928	17922.775
711.99952	17810.075
715.927	17752.375
719.85171	17776.075
723.77365	17796.275
727.69284	17682.875
731.60928	17602.875
735.52295	17585.075
739.43388	17591.475
743.34206	17613.875
747.24749	17638.775
751.15017	17790.875
755.05012	18004.375
758.94733	18572.875
762.8418	19483.575
766.73354	20930.875
770.62254	22325.275
774.50882	22689.475
778.39237	21650.375
782.27321	19996.675
786.15132	18585.275
790.02671	17723.875
793.89938	17300.075
797.76935	17176.575
801.6366	17130.775
805.50115	17118.275
809.36299	17049.975
813.22213	16936.775
817.07857	16892.975
820.93231	16813.975
824.78336	16737.975
828.63172	16655.475
832.47738	16620.275
836.32036	16598.675
840.16066	16570.175
843.99827	16557.875
847.8332	16505.075
851.66546	16448.775
855.49504	16443.775
859.32195	16454.075
863.1462	16493.875
866.96777	16435.875
870.78668	16412.575
874.60293	16422.275
878.41652	16413.075
882.22745	16450.875
886.03573	16497.375
889.84136	16481.175
893.64433	16454.675
897.44466	16355.275
901.24235	16292.275
905.0374	16180.275
908.8298	16093.175
912.61957	16070.875
916.40671	16222.775
920.19121	16437.175
923.97308	16591.175
927.75233	16567.675
931.52895	16445.075
935.30295	16222.975
939.07433	15935.075
942.84309	15688.175
946.60924	15559.875
950.37278	15494.875
954.13371	15470.775
957.89203	15484.475
961.64774	15448.175
965.40086	15414.375
969.15137	15345.975
972.89929	15281.375
976.64461	15135.075
980.38733	15072.075
984.12747	15092.175
987.86502	15189.775
991.59999	15300.975
995.33237	15532.275
999.06217	15921.975
1002.78939	16346.975
1006.51404	16673.375
1010.23611	16907.975
1013.95561	17072.775
1017.67255	17078.775
1021.38692	16818.375
1025.09872	16449.875
1028.80796	16249.275
1032.51465	16257.075
1036.21877	16414.575
1039.92035	16434.875
1043.61937	16461.975
1047.31584	16342.075
1051.00976	16288.175
1054.70114	16230.375
1058.38998	16272.475
1062.07627	16420.975
1065.76003	16584.775
1069.44126	16732.975
1073.11995	16858.975
1076.79611	17013.475
1080.46974	17055.875
1084.14085	17207.675
1087.80943	17395.275
1091.47549	17565.175
1095.13903	17656.775
1098.80005	17480.575
1102.45857	17147.475
1106.11456	16863.075
1109.76805	16783.975
1113.41903	16864.575
1117.06751	17059.175
1120.71348	17331.675
1124.35696	17609.475
1127.99793	17894.175
1131.63641	18076.575
1135.2724	17963.975
1138.90589	17742.675
1142.5369	17730.475
1146.16542	17814.375
1149.79145	17978.175
1153.415	18204.575
1157.03607	18533.675
1160.65467	19102.275
1164.27079	19962.675
1167.88443	21133.275
1171.49561	22563.575
1175.10432	24360.175
1178.71056	26588.475
1182.31434	28616.175
1185.91565	29540.875
1189.51451	29300.575
1193.11091	28500.975
1196.70485	27529.575
1200.29634	26517.375
1203.88538	25711.975
1207.47197	25057.975
1211.05612	24502.575
1214.63782	24041.575
1218.21708	23663.775
1221.79391	23354.575
1225.36829	22983.575
1228.94024	22423.175
1232.50976	21734.175
1236.07685	21220.875
1239.6415	20967.975
1243.20374	20926.975
1246.76355	21071.575
1250.32093	21393.575
1253.8759	21811.775
1257.42845	22397.375
1260.97859	23000.175
1264.52631	23609.075
1268.07163	24225.375
1271.61453	24894.275
1275.15503	25578.575
1278.69312	26311.675
1282.22882	27111.275
1285.76211	28052.875
1289.29301	29341.475
1292.82151	30965.275
1296.34761	33013.375
1299.87133	35248.775
1303.39266	37544.075
1306.9116	39847.975
1310.42815	41972.075
1313.94233	43444.475
1317.45412	43722.475
1320.96354	43140.875
1324.47058	42404.575
1327.97525	41573.175
1331.47754	41005.475
1334.97747	40765.775
1338.47502	40821.275
1341.97022	40553.275
1345.46305	39766.875
1348.95352	38773.775
1352.44163	38188.475
1355.92738	38341.775
1359.41078	39316.775
1362.89183	40379.075
1366.37053	39720.975
1369.84688	36662.775
1373.32088	32709.575
1376.79254	29973.875
1380.26186	29063.975
1383.72883	29219.975
1387.19347	29511.975
1390.65578	29751.775
1394.11575	30150.775
1397.57339	31031.075
1401.0287	32314.675
1404.48168	33335.175
1407.93234	33715.275
1411.38068	33335.575
1414.82669	32050.375
1418.27039	30114.875
1421.71177	28212.675
1425.15083	26486.075
1428.58758	25518.275
1432.02203	25492.575
1435.45416	26103.975
1438.88399	27034.175
1442.31151	27961.075
1445.73673	28695.675
1449.15965	29465.675
1452.58027	30018.375
1455.9986	30301.375
1459.41463	30446.075
1462.82837	30879.075
1466.23982	31445.175
1469.64898	31966.175
1473.05586	32162.875
1476.46045	32059.575
1479.86276	31651.775
1483.26279	31074.175
1486.66054	30543.675
1490.05602	30180.275
1493.44922	29914.175
1496.84016	29510.175
1500.22882	29294.575
1503.61521	29508.475
1506.99934	30141.775
1510.38121	30877.975
1513.76081	31198.475
1517.13816	30647.875
1520.51324	29664.775
1523.88607	28778.775
1527.25665	28441.975
1530.62498	28557.775
1533.99105	28782.175
1537.35488	28851.575
1540.71647	28637.475
1544.07581	28150.675
1547.4329	27521.375
1550.78776	26823.675
1554.14038	26181.975
1557.49077	25834.175
1560.83892	25646.275
1564.18484	25567.575
1567.52853	25632.575
1570.86999	25848.175
1574.20922	26286.075
1577.54624	26827.675
1580.88103	27092.475
1584.2136	27527.675
1587.54395	28525.175
1590.87208	30190.375
1594.19801	32323.875
1597.52172	34455.775
1600.84321	35406.175
1604.16251	34179.575
1607.47959	31249.675
1610.79447	27827.475
1614.10715	24697.675
1617.41763	22256.975
1620.7259	20615.475
1624.03199	19799.475
1627.33587	19666.575
1630.63757	20267.075
1633.93707	21726.375
1637.23439	24214.275
1640.52951	27768.075
1643.82246	32098.475
1647.11321	35555.175
1650.40179	36232.375
1653.68819	33620.975
1656.97241	28775.275
1660.25446	23963.075
1663.53433	20434.675
1666.81203	18079.275
1670.08756	16641.475
1673.36092	15751.775
1676.63211	15202.075
1679.90115	14798.975
1683.16801	14487.575
1686.43272	14250.975
1689.69527	14034.675
1692.95567	13917.975
1696.2139	13811.775
1699.46999	13727.675
1702.72392	13654.975
1705.97571	13607.775
1709.22535	13549.375
1712.47284	13507.975
1715.71819	13461.275
1718.96139	13456.675
1722.20246	13358.875
1725.44139	13294.575
1728.67818	13206.575
1731.91284	13135.975
1735.14537	13044.275
1738.37576	12997.475
1741.60403	12979.875
1744.83017	12930.375
1748.05418	12896.675
1751.27607	12886.075
1754.49584	12846.975
1757.71349	12823.375
1760.92903	12788.375
1764.14244	12731.075
1767.35375	12768.175
1770.56294	12695.075
1773.77002	12650.075
1776.97499	12619.275
1780.17785	12611.775
1783.37861	12586.675
1786.57727	12565.775
1789.77382	12534.775
1792.96828	12520.275
1796.16064	12480.775
1799.3509	12436.575
1802.53907	12418.375
1805.72514	12354.075
1808.90913	12331.975
1812.09102	12298.675
1815.27083	12243.975
1818.44856	12224.775
1821.6242	12213.075
1824.79776	12181.175
1827.96924	12169.075
1831.13864	12136.775
1834.30597	12124.475
1837.47122	12089.875
1840.6344	12080.075
1843.7955	12083.375
1846.95454	12079.975
1850.11151	12099.475
1853.26642	12061.975
1856.41926	12041.675
1859.57004	12056.875
1862.71876	12037.475
1865.86542	12018.075
1869.01003	12021.375
1872.15258	12025.575
1875.29308	11999.375
1878.43152	11999.375
1881.56792	12016.775
1884.70227	11946.675
1887.83457	11982.775
1890.96482	11977.975
1894.09304	11945.975
1897.21921	11934.975
1900.34335	11921.875
1903.46544	11929.075
1906.58551	11903.475
1909.70353	11910.075
1912.81953	11848.975
1915.93349	11817.375
1919.04543	11828.475
1922.15534	11780.975
1925.26322	11767.675
1928.36908	11731.975
1931.47292	11699.175
1934.57473	11676.775
1937.67453	11629.875
1940.77232	11597.375
1943.86808	11578.875
1946.96184	11509.075
1950.05358	11473.875
1953.14331	11440.675
1956.23103	11400.275
1959.31675	11340.975
1962.40046	11322.875
1965.48217	11296.675
1968.56188	11246.475
1971.63959	11194.875
1974.7153	11175.675
1977.78901	11125.975
1980.86073	11082.375
1983.93046	11071.575
1986.99819	11025.275
1990.06394	10977.975
1993.1277	10960.275
1996.18947	10920.675
1999.24925	10866.175
2002.30706	10836.175
2005.36288	10834.175
2008.41672	10804.675
2011.46859	10762.475
2014.51848	10721.675
2017.56639	10701.575
2020.61233	10676.475
2023.6563	10639.175
2026.6983	10603.975
2029.73833	10561.275
2032.7764	10555.475
2035.8125	10514.575
2038.84664	10534.275
2041.87881	10529.875
2044.90903	10518.075
2047.93729	10470.875
2050.96359	10464.375
2053.98794	10453.375
2057.01034	10488.075
2060.03078	10423.975
2063.04927	10399.075
2066.06582	10408.675
2069.08042	10403.975
2072.09307	10373.475
2075.10378	10384.075
2078.11255	10337.675
2081.11938	10361.675
2084.12426	10328.775
2087.12722	10330.075
2090.12824	10308.575
2093.12732	10295.175
2096.12447	10314.075
2099.11969	10297.975
2102.11299	10274.875
2105.10435	10270.075
2108.09379	10283.875
2111.08131	10294.175
2114.0669	10281.375
2117.05057	10258.975
2120.03233	10304.275
2123.01216	10270.875
2125.99008	10304.775
2128.96609	10282.275
2131.94018	10285.175
2134.91236	10289.575
2137.88263	10314.975
2140.851	10330.175
2143.81746	10311.875
2146.78201	10309.075
2149.74466	10292.775
2152.7054	10311.175
2155.66425	10268.275
2158.6212	10268.875
2161.57625	10252.775
2164.52941	10257.775
2167.48067	10245.375
2170.43004	10251.275
2173.37752	10226.775
2176.32311	10248.075
2179.26681	10248.375
2182.20863	10223.975
2185.14856	10235.975
2188.08661	10238.675
2191.02278	10241.375
2193.95707	10199.275
2196.88948	10219.275
2199.82001	10173.775
2202.74867	10181.675
2205.67545	10146.375
2208.60037	10136.875
2211.52341	10133.675
2214.44458	10108.375
2217.36388	10078.175
2220.28132	10021.375
2223.1969	9994.075
2226.11061	9993.175
2229.02246	9996.575
2231.93245	9985.575
2234.84058	9950.875
2237.74686	9909.575
2240.65128	9906.575
2243.55385	9924.275
2246.45456	9868.375
2249.35343	9873.175
2252.25044	9862.675
2255.14561	9813.775
2258.03893	9800.975
2260.93041	9767.375
2263.82004	9758.875
2266.70783	9704.875
2269.59378	9706.175
2272.4779	9674.775
2275.36017	9635.575
2278.24061	9585.175
2281.11922	9602.975
2283.996	9577.075
2286.87094	9586.575
2289.74405	9540.575
2292.61534	9523.875
2295.4848	9530.275
2298.35243	9549.175
2301.21824	9530.675
2304.08223	9519.075
2306.94439	9530.075
2309.80474	9525.075
2312.66327	9507.375
2315.51999	9515.375
2318.37489	9501.275
2321.22797	9470.475
2324.07925	9441.375
2326.92871	9435.875
2329.77637	9432.075
2332.62222	9417.475
2335.46626	9406.675
2338.3085	9404.775
2341.14893	9405.175
2343.98756	9402.775
2346.8244	9410.775
2349.65943	9355.175
2352.49267	9386.475
2355.32411	9372.475
2358.15376	9386.675
2360.98161	9366.175
2363.80768	9356.675
2366.63195	9372.775
2369.45444	9327.575
2372.27514	9335.575
2375.09405	9312.275
2377.91118	9259.775
2380.72652	9254.275
2383.54009	9231.275
2386.35187	9243.975
2389.16188	9170.775
2391.97011	9173.575
2394.77657	9169.575
2397.58125	9144.075
2400.38416	9124.275
2403.18529	9113.775
2405.98466	9103.675
2408.78226	9100.275
2411.57809	9072.475
2414.37216	9048.675
2417.16446	9046.575
2419.955	9027.375
2422.74378	9006.775
2425.5308	9008.075
2428.31606	9003.275
2431.09956	8993.975
2433.88131	8982.375
2436.6613	8973.675
2439.43954	8981.975
2442.21603	8928.775
2444.99077	8935.775
2447.76377	8954.375
2450.53501	8945.275
2453.30451	8939.175
2456.07226	8937.175
2458.83827	8939.175
2461.60254	8933.275
2464.36507	8929.475
2467.12586	8914.775
2469.88492	8914.875
2472.64224	8925.275
2475.39782	8934.075
2478.15167	8911.575
2480.90379	8920.075
2483.65417	8923.675
2486.40283	8934.775
2489.14976	8930.975
2491.89497	8917.275
2494.63845	8929.075
2497.3802	8931.975
2500.12024	8949.275
2502.85855	8894.275
2505.59514	8923.375
2508.33002	8910.975
2511.06318	8885.875
2513.79462	8887.475
2516.52435	8884.175
2519.25237	8869.375
2521.97867	8835.675
2524.70327	8834.075
2527.42616	8826.575
2530.14734	8839.375
2532.86681	8816.375
2535.58458	8833.375
2538.30065	8830.375
2541.01501	8810.575
2543.72768	8770.075
2546.43864	8778.575
2549.14791	8773.575
2551.85548	8779.475
2554.56136	8745.375
2557.26554	8748.075
2559.96803	8714.675
2562.66883	8714.875
2565.36794	8718.175
2568.06536	8699.875
2570.7611	8691.775
2573.45514	8686.775
2576.14751	8655.875
2578.83819	8675.275
2581.52719	8675.275
2584.21451	8660.575
2586.90015	8672.275
2589.58411	8668.875
2592.2664	8654.975
2594.94701	8638.075
2597.62594	8641.475
2600.30321	8625.975
2602.9788	8631.775
2605.65273	8623.275
2608.32498	8636.275
2610.99557	8656.475
2613.66449	8649.575
2616.33175	8639.175
2618.99734	8609.675
2621.66128	8619.075
2624.32355	8617.175
2626.98416	8615.475
2629.64311	8617.175
2632.30041	8603.875
2634.95605	8583.575
2637.61004	8598.975
2640.26238	8581.275
2642.91306	8586.175
2645.56209	8563.375
2648.20948	8589.275
2650.85521	8586.475
2653.4993	8592.475
2656.14175	8600.475
2658.78255	8604.775
2661.42171	8598.075
2664.05923	8618.275
2666.6951	8599.175
2669.32934	8605.375
2671.96194	8602.775
2674.59291	8586.675
2677.22224	8604.075
2679.84993	8589.175
2682.476	8576.375
2685.10043	8574.375
2687.72324	8561.175
2690.34441	8557.375
2692.96396	8564.375
2695.58188	8575.475
2698.19818	8577.475
2700.81285	8578.175
2703.4259	8561.975
2706.03733	8567.175
2708.64714	8571.875
2711.25533	8603.275
2713.86191	8583.075
2716.46687	8608.175
2719.07021	8603.975
2721.67194	8607.275
2724.27206	8576.375
2726.87057	8610.075
2729.46747	8611.375
2732.06276	8613.375
2734.65644	8623.075
2737.24852	8585.975
2739.83899	8588.375
2742.42786	8597.375
2745.01513	8608.575
2747.60079	8596.775
2750.18486	8581.375
2752.76733	8585.875
2755.3482	8574.375
2757.92747	8575.675
2760.50515	8555.975
2763.08123	8569.375
2765.65573	8556.675
2768.22863	8555.675
2770.79994	8556.175
2773.36967	8551.575
2775.9378	8554.975
2778.50435	8568.675
2781.06932	8579.375
2783.6327	8544.975
2786.1945	8560.975
2788.75471	8564.975
2791.31335	8555.175
2793.87041	8553.975
2796.42589	8540.675
2798.97979	8533.975
2801.53212	8496.875
2804.08288	8477.875
2806.63206	8459.675
2809.17967	8478.775
2811.72571	8451.175
2814.27018	8430.175
2816.81308	8411.975
2819.35442	8429.675
2821.89419	8374.875
2824.43239	8377.875
2826.96904	8391.075
2829.50412	8377.775
2832.03763	8353.175
2834.56959	8352.275
2837.1	8356.275
2839.62884	8348.975
2842.15613	8374.875
2844.68186	8391.775
2847.20604	8405.175
2849.72867	8393.375
2852.24974	8407.975
2854.76927	8380.375
2857.28724	8396.175
2859.80367	8378.175
2862.31855	8353.875
2864.83189	8342.375
2867.34368	8358.875
2869.85393	8309.975
2872.36264	8306.175
2874.8698	8338.575
2877.37543	8337.975
2879.87952	8340.475
2882.38207	8325.575
2884.88308	8328.775
2887.38256	8341.775
2889.88051	8336.875
2892.37692	8328.975
2894.8718	8336.975
2897.36515	8335.675
2899.85698	8361.375
2902.34727	8368.875
2904.83604	8376.475
2907.32328	8396.475
2909.809	8413.675
2912.29319	8410.775
2914.77587	8400.675
2917.25702	8388.975
2919.73665	8389.375
2922.21476	8392.875
2924.69136	8392.275
2927.16644	8384.475
2929.64	8364.875
2932.11205	8379.875
2934.58258	8325.075
2937.05161	8338.475
2939.51912	8333.175
2941.98513	8311.475
2944.44962	8294.975
2946.91261	8287.975
2949.37409	8272.875
2951.83407	8242.375
2954.29254	8213.675
2956.74951	8206.375
2959.20498	8209.075
2961.65895	8189.975
2964.11142	8165.375
2966.56239	8142.175
2969.01186	8147.375
2971.45984	8109.775
2973.90632	8102.175
2976.35131	8073.875
2978.7948	8050.375
2981.23681	8023.575
2983.67732	8006.775
2986.11635	7981.475
2988.55388	7963.875
2990.98993	7937.775
2993.4245	7933.975
2995.85758	7882.575
2998.28917	7876.475
3000.71928	7873.575
3003.14791	7848.775
3005.57506	7848.575
3008.00073	7798.875
3010.42493	7794.075
3012.84764	7758.975
3015.26888	7773.975
3017.68865	7732.875
3020.10694	7733.875
3022.52376	7726.575
3024.9391	7695.875
3027.35298	7694.875
3029.76539	7674.775
3032.17632	7664.975
3034.5858	7649.975
3036.9938	7640.775
3039.40034	7670.075
3041.80542	7660.675
3044.20903	7638.275
3046.61118	7645.075
3049.01187	7611.475
3051.4111	7613.975
3053.80888	7581.875
3056.20519	7581.375
3058.60005	7560.175
3060.99345	7548.375
3063.3854	7495.275
3065.7759	7498.075
3068.16494	7470.875
3070.55254	7419.975
3072.93868	7405.275
3075.32338	7379.775
3077.70662	7358.175
3080.08842	7360.275
3082.46878	7328.275
3084.84769	7315.875
3087.22515	7312.975
3089.60118	7305.575
3091.97576	7284.175
3094.3489	7314.175
3096.72061	7319.075
3099.09087	7281.775
3101.4597	7284.175
3103.82709	7285.175
3106.19305	7265.475
3108.55757	7288.975
3110.92066	7234.875
3113.28232	7251.275
3115.64255	7199.275
3118.00134	7181.875
3120.35871	7158.975
3122.71466	7169.675
3125.06917	7133.475
3127.42226	7128.975
3129.77393	7120.675
3132.12417	7103.875
3134.47299	7110.675
3136.82039	7088.575
3139.16636	7095.675
3141.51092	7090.475
3143.85406	7073.575
3146.19579	7080.375
3148.53609	7061.775
3150.87499	7063.775
3153.21246	7075.275
3155.54853	7080.775
3157.88318	7068.275
3160.21642	7078.875
3162.54826	7081.275
3164.87868	7075.075
3167.2077	7074.975
3169.5353	7087.075
