Data from AgNPs_FTO_APTES_UA_5uM_CRN_50uM_R6G_10uM_NaF_0.1M_Addition_RamanShift__2__13-44-56-804.txt Node

Date: Mon Feb 07 13:44:56 GMT 2022
User: TCL
Spectrometer: QEP01345
Trigger mode: 4
Integration Time (sec): 7.000000E0
Scans to average: 10
Electric dark correction enabled: true
Nonlinearity correction enabled: false
Boxcar width: 0
XAxis mode: Raman Shifts
Number of Pixels in Spectrum: 1044
>>>>>Begin Spectral Data<<<<<
46.04893	-0.525
50.45542	-1.525
54.85868	-0.825
59.25871	-0.425
63.6555	79.175
68.04907	84.175
72.43941	88.375
76.82654	93.575
81.21044	93.075
85.59113	96.675
89.96862	104.175
94.34289	104.475
98.71396	106.875
103.08183	112.575
107.4465	115.775
111.80798	119.475
116.16626	123.575
120.52136	129.975
124.87327	135.175
129.222	143.875
133.56755	153.775
137.90993	165.575
142.24913	186.175
146.58517	214.875
150.91804	249.475
155.24774	302.175
159.57429	376.675
163.89768	496.275
168.21792	654.975
172.53501	900.875
176.84895	1259.175
181.15975	1770.475
185.46741	2476.275
189.77193	3419.175
194.07331	4573.275
198.37157	5888.275
202.6667	7266.575
206.9587	8636.775
211.24758	9971.075
215.53334	11378.575
219.81599	12825.275
224.09553	14435.775
228.37195	16193.775
232.64527	18065.075
236.91549	20035.575
241.18261	21994.275
245.44663	23845.975
249.70755	25429.575
253.96539	26844.875
258.22014	28074.675
262.4718	29095.175
266.72039	29863.275
270.96589	30275.275
275.20832	30385.375
279.44768	30196.675
283.68397	29989.875
287.91719	29802.775
292.14735	29721.475
296.37445	29808.975
300.59849	29911.475
304.81948	30071.375
309.03742	30032.475
313.25231	29816.675
317.46415	29186.575
321.67296	28516.075
325.87872	27820.075
330.08145	27509.575
334.28114	27431.675
338.47781	27528.375
342.67145	27737.775
346.86207	28191.475
351.04966	28684.775
355.23424	29242.175
359.4158	29736.275
363.59435	30130.375
367.76989	30327.875
371.94243	30543.575
376.11196	30625.075
380.27849	30753.875
384.44203	30897.875
388.60257	31118.475
392.76012	31502.375
396.91468	31998.675
401.06626	32451.875
405.21485	32813.375
409.36047	32707.875
413.50311	32357.175
417.64277	32113.575
421.77947	32243.475
425.9132	32335.575
430.04396	32516.875
434.17176	32764.675
438.2966	33034.675
442.41849	33766.775
446.53742	34895.475
450.6534	36257.875
454.76644	37164.075
458.87653	37398.475
462.98368	37100.975
467.08789	36477.875
471.18916	35833.875
475.2875	35324.975
479.38291	35156.775
483.4754	35112.175
487.56496	34677.075
491.6516	33978.875
495.73531	33167.075
499.81612	32558.175
503.89401	32528.475
507.96899	32537.575
512.04106	32397.775
516.11023	32019.475
520.1765	31618.475
524.23987	31229.875
528.30034	30954.875
532.35792	30732.775
536.41261	30400.475
540.46441	29913.075
544.51333	29942.375
548.55936	30306.575
552.60252	31093.875
556.64279	32106.675
560.6802	32928.975
564.71473	33516.175
568.7464	34422.675
572.7752	35727.275
576.80114	36826.575
580.82422	37796.175
584.84444	39147.575
588.86181	40778.375
592.87633	42166.575
596.888	41877.775
600.89682	40028.175
604.9028	39257.275
608.90594	41173.975
612.90624	43338.175
616.90371	40524.275
620.89834	34134.975
624.89015	31366.275
628.87913	31084.275
632.86528	31222.175
636.84862	30958.975
640.82913	30248.175
644.80683	29456.675
648.78172	28873.975
652.75379	28887.775
656.72306	29224.575
660.68952	29603.275
664.65319	29404.375
668.61405	28868.175
672.57211	28739.375
676.52738	28840.975
680.47986	28857.775
684.42955	28596.075
688.37646	28509.475
692.32058	28679.975
696.26192	29179.775
700.20048	29673.675
704.13626	29956.575
708.06928	29969.475
711.99952	29807.675
715.927	29878.975
719.85171	30069.575
723.77365	29949.675
727.69284	29444.975
731.60928	29043.375
735.52295	28878.075
739.43388	28855.775
743.34206	28956.775
747.24749	29187.075
751.15017	29575.875
755.05012	30182.775
758.94733	31151.675
762.8418	32783.975
766.73354	35061.975
770.62254	37031.875
774.50882	37136.675
778.39237	35214.675
782.27321	32754.075
786.15132	30709.275
790.02671	29597.075
793.89938	29012.675
797.76935	28798.775
801.6366	28752.075
805.50115	28700.675
809.36299	28584.675
813.22213	28401.975
817.07857	28235.675
820.93231	28084.075
824.78336	27941.875
828.63172	27781.275
832.47738	27716.175
836.32036	27792.575
840.16066	27941.875
843.99827	28112.975
847.8332	27992.175
851.66546	27852.275
855.49504	27785.975
859.32195	27731.675
863.1462	27634.975
866.96777	27478.175
870.78668	27377.975
874.60293	27347.475
878.41652	27340.075
882.22745	27450.975
886.03573	27544.375
889.84136	27524.875
893.64433	27380.775
897.44466	27235.375
901.24235	27115.575
905.0374	27079.275
908.8298	27057.375
912.61957	27184.275
916.40671	27571.075
920.19121	28106.975
923.97308	28531.575
927.75233	28577.875
931.52895	28258.575
935.30295	27757.475
939.07433	27178.375
942.84309	26840.775
946.60924	26597.075
950.37278	26541.375
954.13371	26516.875
957.89203	26424.975
961.64774	26423.975
965.40086	26372.375
969.15137	26320.675
972.89929	26180.875
976.64461	26061.575
980.38733	26096.275
984.12747	26156.075
987.86502	26400.575
991.59999	26727.075
995.33237	27235.875
999.06217	28090.975
1002.78939	29052.575
1006.51404	29743.075
1010.23611	30105.075
1013.95561	30358.775
1017.67255	30345.075
1021.38692	29925.475
1025.09872	29493.275
1028.80796	29568.975
1032.51465	30401.775
1036.21877	31320.375
1039.92035	31651.875
1043.61937	31340.675
1047.31584	30589.775
1051.00976	29792.875
1054.70114	29311.175
1058.38998	29229.975
1062.07627	29376.475
1065.76003	29546.175
1069.44126	29840.975
1073.11995	30273.475
1076.79611	30586.075
1080.46974	30821.475
1084.14085	31071.275
1087.80943	31477.575
1091.47549	31830.275
1095.13903	31885.675
1098.80005	31447.575
1102.45857	30745.075
1106.11456	30122.375
1109.76805	29880.575
1113.41903	29924.475
1117.06751	30063.675
1120.71348	30400.475
1124.35696	30694.175
1127.99793	31080.175
1131.63641	31311.775
1135.2724	31295.475
1138.90589	31244.275
1142.5369	31409.875
1146.16542	31805.875
1149.79145	32198.775
1153.415	32781.875
1157.03607	33567.575
1160.65467	34926.675
1164.27079	37070.275
1167.88443	39406.375
1171.49561	41836.475
1175.10432	44804.475
1178.71056	48551.875
1182.31434	51977.075
1185.91565	53466.675
1189.51451	52801.175
1193.11091	50997.375
1196.70485	49137.375
1200.29634	47410.375
1203.88538	46544.975
1207.47197	46142.675
1211.05612	45684.475
1214.63782	44700.175
1218.21708	43336.175
1221.79391	42124.275
1225.36829	41179.075
1228.94024	40310.175
1232.50976	39253.075
1236.07685	38349.575
1239.6415	37974.975
1243.20374	38075.475
1246.76355	38517.075
1250.32093	39317.775
1253.8759	40251.575
1257.42845	41457.275
1260.97859	42690.175
1264.52631	43932.575
1268.07163	45382.975
1271.61453	46907.175
1275.15503	48603.875
1278.69312	50450.875
1282.22882	52359.475
1285.76211	54548.475
1289.29301	57289.775
1292.82151	60640.775
1296.34761	64842.675
1299.87133	69770.975
1303.39266	74673.475
1306.9116	78858.875
1310.42815	81673.775
1313.94233	82663.775
1317.45412	81957.475
1320.96354	80313.275
1324.47058	78789.675
1327.97525	77510.275
1331.47754	76592.275
1334.97747	75864.075
1338.47502	74590.275
1341.97022	72687.275
1345.46305	70371.175
1348.95352	68639.675
1352.44163	68348.175
1355.92738	69915.375
1359.41078	73115.075
1362.89183	75586.275
1366.37053	74476.475
1369.84688	68675.475
1373.32088	61013.375
1376.79254	55726.575
1380.26186	54281.875
1383.72883	54985.575
1387.19347	55664.375
1390.65578	55435.275
1394.11575	55585.675
1397.57339	56638.975
1401.0287	58268.175
1404.48168	59491.075
1407.93234	59529.975
1411.38068	57936.775
1414.82669	55337.275
1418.27039	52229.475
1421.71177	49098.575
1425.15083	46609.675
1428.58758	45354.375
1432.02203	45798.375
1435.45416	47403.175
1438.88399	49466.875
1442.31151	51142.075
1445.73673	52268.675
1449.15965	53001.475
1452.58027	53313.475
1455.9986	53206.575
1459.41463	53188.375
1462.82837	53710.675
1466.23982	54726.375
1469.64898	55699.475
1473.05586	56360.975
1476.46045	56577.075
1479.86276	56076.675
1483.26279	55204.275
1486.66054	54636.675
1490.05602	54559.375
1493.44922	54698.475
1496.84016	54664.875
1500.22882	54929.975
1503.61521	55489.375
1506.99934	56474.375
1510.38121	57455.975
1513.76081	57880.975
1517.13816	57215.575
1520.51324	55999.175
1523.88607	55296.175
1527.25665	55402.075
1530.62498	55903.575
1533.99105	56076.975
1537.35488	55556.375
1540.71647	54329.775
1544.07581	52625.375
1547.4329	50751.575
1550.78776	49080.375
1554.14038	47958.675
1557.49077	47270.975
1560.83892	46809.575
1564.18484	46540.075
1567.52853	46651.375
1570.86999	47179.975
1574.20922	48334.175
1577.54624	49592.175
1580.88103	50681.275
1584.2136	52022.575
1587.54395	54687.375
1590.87208	58451.875
1594.19801	62705.075
1597.52172	65930.375
1600.84321	66269.075
1604.16251	62246.475
1607.47959	55795.775
1610.79447	49381.375
1614.10715	43986.575
1617.41763	40158.075
1620.7259	37894.275
1624.03199	36912.975
1627.33587	37302.275
1630.63757	38937.475
1633.93707	42174.775
1637.23439	47358.375
1640.52951	54612.575
1643.82246	63143.375
1647.11321	69668.375
1650.40179	70179.375
1653.68819	63803.975
1656.97241	53813.775
1660.25446	44468.675
1663.53433	37734.475
1666.81203	33470.275
1670.08756	30843.275
1673.36092	29244.375
1676.63211	28205.475
1679.90115	27511.175
1683.16801	26976.275
1686.43272	26601.975
1689.69527	26307.975
1692.95567	26064.775
1696.2139	25876.575
1699.46999	25792.375
1702.72392	25602.075
1705.97571	25559.375
1709.22535	25462.975
1712.47284	25420.775
1715.71819	25357.075
1718.96139	25253.375
1722.20246	25121.475
1725.44139	25052.075
1728.67818	24894.875
1731.91284	24718.875
1735.14537	24560.275
1738.37576	24430.275
1741.60403	24348.875
1744.83017	24267.075
1748.05418	24183.075
1751.27607	24140.975
1754.49584	24119.375
1757.71349	24106.975
1760.92903	24105.275
1764.14244	24055.075
1767.35375	24035.575
1770.56294	23993.775
1773.77002	23968.975
1776.97499	23880.475
1780.17785	23812.975
1783.37861	23785.775
1786.57727	23769.575
1789.77382	23713.275
1792.96828	23716.775
1796.16064	23621.375
1799.3509	23612.575
1802.53907	23517.575
1805.72514	23468.075
1808.90913	23412.175
1812.09102	23346.875
1815.27083	23312.075
1818.44856	23239.475
1821.6242	23247.975
1824.79776	23218.875
1827.96924	23196.175
1831.13864	23161.375
1834.30597	23167.475
1837.47122	23143.775
1840.6344	23161.275
1843.7955	23147.775
1846.95454	23141.075
1850.11151	23104.175
1853.26642	23076.875
1856.41926	23108.575
1859.57004	23065.675
1862.71876	23055.075
1865.86542	23067.675
1869.01003	23015.175
1872.15258	23001.975
1875.29308	22968.075
1878.43152	22963.875
1881.56792	22954.475
1884.70227	22934.475
1887.83457	22939.075
1890.96482	22903.775
1894.09304	22813.875
1897.21921	22838.875
1900.34335	22869.375
1903.46544	22866.475
1906.58551	22830.775
1909.70353	22780.275
1912.81953	22741.875
1915.93349	22717.275
1919.04543	22710.075
1922.15534	22637.075
1925.26322	22571.175
1928.36908	22527.075
1931.47292	22506.775
1934.57473	22460.275
1937.67453	22389.175
1940.77232	22327.175
1943.86808	22260.975
1946.96184	22230.975
1950.05358	22141.275
1953.14331	22073.775
1956.23103	22015.275
1959.31675	21959.575
1962.40046	21923.175
1965.48217	21848.175
1968.56188	21811.875
1971.63959	21698.675
1974.7153	21635.075
1977.78901	21607.275
1980.86073	21457.375
1983.93046	21454.375
1986.99819	21372.275
1990.06394	21322.275
1993.1277	21303.575
1996.18947	21268.075
1999.24925	21210.875
2002.30706	21128.175
2005.36288	21065.075
2008.41672	21009.475
2011.46859	20952.375
2014.51848	20923.175
2017.56639	20842.075
2020.61233	20797.875
2023.6563	20775.475
2026.6983	20706.975
2029.73833	20696.675
2032.7764	20653.575
2035.8125	20641.575
2038.84664	20624.775
2041.87881	20596.775
2044.90903	20576.475
2047.93729	20518.775
2050.96359	20521.275
2053.98794	20480.975
2057.01034	20497.375
2060.03078	20485.375
2063.04927	20427.775
2066.06582	20436.975
2069.08042	20424.475
2072.09307	20421.775
2075.10378	20345.975
2078.11255	20345.375
2081.11938	20323.375
2084.12426	20329.275
2087.12722	20366.875
2090.12824	20304.575
2093.12732	20289.175
2096.12447	20328.075
2099.11969	20307.175
2102.11299	20326.575
2105.10435	20327.675
2108.09379	20317.875
2111.08131	20338.275
2114.0669	20325.775
2117.05057	20394.075
2120.03233	20417.675
2123.01216	20424.075
2125.99008	20406.275
2128.96609	20434.875
2131.94018	20448.775
2134.91236	20441.375
2137.88263	20505.275
2140.851	20515.075
2143.81746	20557.275
2146.78201	20479.275
2149.74466	20475.375
2152.7054	20506.875
2155.66425	20465.375
2158.6212	20433.075
2161.57625	20470.775
2164.52941	20484.375
2167.48067	20435.975
2170.43004	20505.675
2173.37752	20435.375
2176.32311	20475.575
2179.26681	20459.675
2182.20863	20489.175
2185.14856	20492.875
2188.08661	20490.675
2191.02278	20538.775
2193.95707	20521.475
2196.88948	20502.675
2199.82001	20472.875
2202.74867	20479.975
2205.67545	20451.075
2208.60037	20433.875
2211.52341	20414.875
2214.44458	20429.475
2217.36388	20413.275
2220.28132	20341.375
2223.1969	20329.975
2226.11061	20305.175
2229.02246	20283.575
2231.93245	20231.975
2234.84058	20161.975
2237.74686	20156.175
2240.65128	20127.075
2243.55385	20108.075
2246.45456	20104.275
2249.35343	20045.675
2252.25044	20029.675
2255.14561	19945.175
2258.03893	19992.475
2260.93041	19894.875
2263.82004	19865.375
2266.70783	19862.675
2269.59378	19746.375
2272.4779	19730.575
2275.36017	19671.575
2278.24061	19643.675
2281.11922	19628.675
2283.996	19594.975
2286.87094	19569.875
2289.74405	19552.975
2292.61534	19561.475
2295.4848	19589.975
2298.35243	19551.375
2301.21824	19604.675
2304.08223	19615.275
2306.94439	19643.775
2309.80474	19650.475
2312.66327	19637.975
2315.51999	19656.575
2318.37489	19623.975
2321.22797	19612.875
2324.07925	19597.975
2326.92871	19579.175
2329.77637	19562.875
2332.62222	19539.575
2335.46626	19548.575
2338.3085	19561.975
2341.14893	19522.875
2343.98756	19530.475
2346.8244	19561.375
2349.65943	19575.375
2352.49267	19535.475
2355.32411	19592.375
2358.15376	19562.775
2360.98161	19528.375
2363.80768	19503.775
2366.63195	19517.075
2369.45444	19477.475
2372.27514	19433.075
2375.09405	19388.275
2377.91118	19352.675
2380.72652	19324.075
2383.54009	19268.375
2386.35187	19268.775
2389.16188	19239.175
2391.97011	19249.375
2394.77657	19210.875
2397.58125	19186.175
2400.38416	19159.575
2403.18529	19160.275
2405.98466	19108.375
2408.78226	19044.675
2411.57809	19036.375
2414.37216	19045.275
2417.16446	19031.575
2419.955	19042.375
2422.74378	19015.475
2425.5308	18978.575
2428.31606	18958.875
2431.09956	18996.175
2433.88131	18977.675
2436.6613	19006.375
2439.43954	18994.275
2442.21603	19017.875
2444.99077	18967.375
2447.76377	18968.975
2450.53501	18955.675
2453.30451	18963.875
2456.07226	18959.275
2458.83827	18955.075
2461.60254	18987.275
2464.36507	18994.275
2467.12586	18959.375
2469.88492	18998.475
2472.64224	19043.475
2475.39782	19068.575
2478.15167	19076.075
2480.90379	19042.175
2483.65417	19061.675
2486.40283	19117.675
2489.14976	19178.075
2491.89497	19138.875
2494.63845	19151.175
2497.3802	19152.775
2500.12024	19173.775
2502.85855	19171.475
2505.59514	19132.975
2508.33002	19106.675
2511.06318	19113.075
2513.79462	19105.875
2516.52435	19072.975
2519.25237	19085.275
2521.97867	19075.275
2524.70327	19084.975
2527.42616	19071.275
2530.14734	19099.475
2532.86681	19106.175
2535.58458	19134.775
2538.30065	19103.375
2541.01501	19073.175
2543.72768	19113.075
2546.43864	19081.075
2549.14791	19071.075
2551.85548	19064.675
2554.56136	19045.875
2557.26554	19033.075
2559.96803	19024.475
2562.66883	19016.975
2565.36794	19012.575
2568.06536	19005.075
2570.7611	18994.575
2573.45514	19003.575
2576.14751	19031.075
2578.83819	18952.075
2581.52719	18995.675
2584.21451	18984.175
2586.90015	19000.875
2589.58411	19009.575
2592.2664	19035.175
2594.94701	19033.575
2597.62594	19001.675
2600.30321	19005.375
2602.9788	18989.275
2605.65273	18990.575
2608.32498	19020.575
2610.99557	19014.075
2613.66449	19033.375
2616.33175	19071.875
2618.99734	19035.575
2621.66128	19010.175
2624.32355	19040.475
2626.98416	19012.575
2629.64311	19041.375
2632.30041	19042.575
2634.95605	19003.975
2637.61004	19034.575
2640.26238	19010.075
2642.91306	18993.975
2645.56209	18955.675
2648.20948	18995.475
2650.85521	18995.675
2653.4993	19005.775
2656.14175	19009.475
2658.78255	19053.575
2661.42171	19097.675
2664.05923	19120.875
2666.6951	19141.575
2669.32934	19144.275
2671.96194	19136.675
2674.59291	19161.875
2677.22224	19160.675
2679.84993	19157.875
2682.476	19137.275
2685.10043	19152.875
2687.72324	19113.475
2690.34441	19078.275
2692.96396	19074.275
2695.58188	19105.575
2698.19818	19088.975
2700.81285	19140.375
2703.4259	19158.175
2706.03733	19237.275
2708.64714	19192.275
2711.25533	19163.675
2713.86191	19197.875
2716.46687	19229.175
2719.07021	19231.075
2721.67194	19271.175
2724.27206	19306.475
2726.87057	19322.175
2729.46747	19387.075
2732.06276	19392.175
2734.65644	19392.375
2737.24852	19364.375
2739.83899	19348.875
2742.42786	19361.975
2745.01513	19301.975
2747.60079	19326.675
2750.18486	19343.075
2752.76733	19307.975
2755.3482	19307.975
2757.92747	19369.375
2760.50515	19365.175
2763.08123	19347.675
2765.65573	19378.675
2768.22863	19423.075
2770.79994	19378.575
2773.36967	19381.575
2775.9378	19384.075
2778.50435	19428.375
2781.06932	19378.075
2783.6327	19415.375
2786.1945	19445.975
2788.75471	19443.075
2791.31335	19387.675
2793.87041	19367.875
2796.42589	19333.475
2798.97979	19316.475
2801.53212	19306.075
2804.08288	19262.875
2806.63206	19219.275
2809.17967	19191.675
2811.72571	19150.775
2814.27018	19173.375
2816.81308	19143.575
2819.35442	19080.375
2821.89419	19076.975
2824.43239	19067.675
2826.96904	19082.675
2829.50412	19075.375
2832.03763	19038.075
2834.56959	19016.175
2837.1	19038.175
2839.62884	19035.375
2842.15613	19045.475
2844.68186	19073.975
2847.20604	19108.875
2849.72867	19131.475
2852.24974	19135.975
2854.76927	19136.675
2857.28724	19098.475
2859.80367	19097.475
2862.31855	19116.075
2864.83189	19047.475
2867.34368	18984.175
2869.85393	19047.475
2872.36264	19019.975
2874.8698	18993.675
2877.37543	18956.775
2879.87952	18974.675
2882.38207	19015.875
2884.88308	18987.575
2887.38256	19014.175
2889.88051	19027.975
2892.37692	19069.475
2894.8718	19081.775
2897.36515	19091.775
2899.85698	19116.775
2902.34727	19170.675
2904.83604	19159.175
2907.32328	19263.975
2909.809	19182.875
2912.29319	19209.675
2914.77587	19224.875
2917.25702	19222.175
2919.73665	19216.475
2922.21476	19192.575
2924.69136	19226.475
2927.16644	19218.875
2929.64	19179.675
2932.11205	19162.175
2934.58258	19127.875
2937.05161	19144.975
2939.51912	19123.275
2941.98513	19110.275
2944.44962	19074.575
2946.91261	19042.675
2949.37409	19046.075
2951.83407	19004.275
2954.29254	19008.075
2956.74951	18985.475
2959.20498	18976.975
2961.65895	18978.675
2964.11142	18973.075
2966.56239	18935.475
2969.01186	18951.475
2971.45984	18914.975
2973.90632	18929.175
2976.35131	18922.575
2978.7948	18857.075
2981.23681	18802.075
2983.67732	18762.875
2986.11635	18732.475
2988.55388	18663.475
2990.98993	18650.375
2993.4245	18625.375
2995.85758	18580.675
2998.28917	18479.475
3000.71928	18478.675
3003.14791	18484.575
3005.57506	18433.675
3008.00073	18390.675
3010.42493	18297.075
3012.84764	18349.875
3015.26888	18351.475
3017.68865	18263.575
3020.10694	18270.375
3022.52376	18253.475
3024.9391	18245.175
3027.35298	18196.675
3029.76539	18197.175
3032.17632	18196.875
3034.5858	18147.975
3036.9938	18148.075
3039.40034	18188.775
3041.80542	18175.675
3044.20903	18125.075
3046.61118	18106.975
3049.01187	18093.675
3051.4111	18122.475
3053.80888	18093.175
3056.20519	18038.775
3058.60005	17982.375
3060.99345	17970.275
3063.3854	17951.275
3065.7759	17858.475
3068.16494	17820.275
3070.55254	17738.875
3072.93868	17736.775
3075.32338	17666.275
3077.70662	17640.575
3080.08842	17608.975
3082.46878	17569.975
3084.84769	17563.575
3087.22515	17581.975
3089.60118	17539.475
3091.97576	17559.875
3094.3489	17533.175
3096.72061	17530.175
3099.09087	17569.475
3101.4597	17526.575
3103.82709	17559.175
3106.19305	17519.075
3108.55757	17501.075
3110.92066	17441.375
3113.28232	17425.475
3115.64255	17422.775
3118.00134	17375.675
3120.35871	17358.775
3122.71466	17373.275
3125.06917	17281.575
3127.42226	17232.975
