Data from AgNPs_FTO_APTES_UA_5uM_CRN_10uM_R6G_10uM_NaF_0.1M_Addition_RamanShift__14__12-39-36-729.txt Node

Date: Mon Feb 07 12:39:36 GMT 2022
User: TCL
Spectrometer: QEP01345
Trigger mode: 4
Integration Time (sec): 7.000000E0
Scans to average: 10
Electric dark correction enabled: true
Nonlinearity correction enabled: false
Boxcar width: 0
XAxis mode: Raman Shifts
Number of Pixels in Spectrum: 1044
>>>>>Begin Spectral Data<<<<<
46.04893	0.4125
50.45542	-2.4875
54.85868	-0.9875
59.25871	0.1125
63.6555	85.3125
68.04907	89.8125
72.43941	94.2125
76.82654	99.6125
81.21044	100.8125
85.59113	100.8125
89.96862	109.2125
94.34289	113.0125
98.71396	114.7125
103.08183	120.7125
107.4465	124.3125
111.80798	126.8125
116.16626	132.1125
120.52136	140.5125
124.87327	145.5125
129.222	156.1125
133.56755	167.7125
137.90993	181.9125
142.24913	201.2125
146.58517	229.7125
150.91804	271.2125
155.24774	330.0125
159.57429	412.6125
163.89768	540.1125
168.21792	715.3125
172.53501	984.3125
176.84895	1367.1125
181.15975	1949.3125
185.46741	2732.1125
189.77193	3765.6125
194.07331	5039.8125
198.37157	6486.8125
202.6667	8054.1125
206.9587	9564.6125
211.24758	11077.8125
215.53334	12496.1125
219.81599	14032.2125
224.09553	15693.7125
228.37195	17605.9125
232.64527	19613.2125
236.91549	21736.6125
241.18261	23899.4125
245.44663	25985.9125
249.70755	27892.8125
253.96539	29574.1125
258.22014	31024.9125
262.4718	32073.2125
266.72039	32837.9125
270.96589	33282.8125
275.20832	33407.7125
279.44768	33300.3125
283.68397	33145.5125
287.91719	33023.8125
292.14735	32980.3125
296.37445	32920.2125
300.59849	32959.0125
304.81948	33029.6125
309.03742	32989.2125
313.25231	32621.8125
317.46415	32024.5125
321.67296	31271.5125
325.87872	30590.2125
330.08145	30292.8125
334.28114	30267.5125
338.47781	30399.1125
342.67145	30657.2125
346.86207	30991.9125
351.04966	31320.2125
355.23424	31661.8125
359.4158	31990.6125
363.59435	32284.2125
367.76989	32411.8125
371.94243	32522.7125
376.11196	32605.7125
380.27849	32602.9125
384.44203	32611.3125
388.60257	32799.2125
392.76012	33194.2125
396.91468	33757.3125
401.06626	34385.8125
405.21485	34774.9125
409.36047	34649.2125
413.50311	34245.9125
417.64277	34033.8125
421.77947	34128.9125
425.9132	34288.7125
430.04396	34494.7125
434.17176	34631.9125
438.2966	34841.0125
442.41849	35209.6125
446.53742	35802.8125
450.6534	36540.4125
454.76644	37026.1125
458.87653	37322.7125
462.98368	37322.6125
467.08789	37226.3125
471.18916	36998.2125
475.2875	36736.3125
479.38291	36732.3125
483.4754	36623.8125
487.56496	36365.5125
491.6516	35958.0125
495.73531	35308.6125
499.81612	34898.0125
503.89401	34852.7125
507.96899	34967.6125
512.04106	35060.3125
516.11023	34939.5125
520.1765	34590.2125
524.23987	34146.9125
528.30034	33617.7125
532.35792	33251.2125
536.41261	32923.2125
540.46441	32732.9125
544.51333	32769.8125
548.55936	33194.8125
552.60252	33865.8125
556.64279	34576.2125
560.6802	35217.0125
564.71473	35769.5125
568.7464	36632.5125
572.7752	38054.4125
576.80114	39827.7125
580.82422	41371.5125
584.84444	42387.4125
588.86181	43243.5125
592.87633	43996.0125
596.888	43737.3125
600.89682	42342.3125
604.9028	41443.4125
608.90594	42133.9125
612.90624	42940.7125
616.90371	40260.0125
620.89834	35708.4125
624.89015	33862.9125
628.87913	33837.0125
632.86528	34182.3125
636.84862	34249.4125
640.82913	33622.2125
644.80683	32867.7125
648.78172	32330.6125
652.75379	32159.7125
656.72306	32228.7125
660.68952	32546.1125
664.65319	32581.4125
668.61405	32263.7125
672.57211	32244.7125
676.52738	32274.7125
680.47986	32203.8125
684.42955	32031.3125
688.37646	31969.5125
692.32058	32110.2125
696.26192	32374.6125
700.20048	32704.9125
704.13626	33022.3125
708.06928	33344.1125
711.99952	33346.3125
715.927	33247.8125
719.85171	33065.1125
723.77365	32753.0125
727.69284	32216.7125
731.60928	31798.1125
735.52295	31517.8125
739.43388	31439.0125
743.34206	31415.1125
747.24749	31595.5125
751.15017	32039.9125
755.05012	32617.8125
758.94733	33566.6125
762.8418	34940.8125
766.73354	36993.5125
770.62254	38687.5125
774.50882	38597.7125
778.39237	36970.4125
782.27321	34905.1125
786.15132	33314.9125
790.02671	32282.7125
793.89938	31552.6125
797.76935	31228.3125
801.6366	31059.4125
805.50115	30915.5125
809.36299	30808.7125
813.22213	30711.7125
817.07857	30659.5125
820.93231	30672.9125
824.78336	30587.8125
828.63172	30413.3125
832.47738	30213.4125
836.32036	30161.4125
840.16066	30140.0125
843.99827	30129.2125
847.8332	30108.4125
851.66546	30142.9125
855.49504	30237.2125
859.32195	30228.0125
863.1462	30105.5125
866.96777	30019.4125
870.78668	29984.8125
874.60293	29979.6125
878.41652	29922.1125
882.22745	29992.6125
886.03573	30103.1125
889.84136	30086.2125
893.64433	30031.9125
897.44466	29980.2125
901.24235	29946.1125
905.0374	29891.8125
908.8298	29923.0125
912.61957	30017.5125
916.40671	30427.4125
920.19121	30996.9125
923.97308	31294.6125
927.75233	31157.2125
931.52895	30632.0125
935.30295	30078.9125
939.07433	29470.0125
942.84309	29091.3125
946.60924	28794.7125
950.37278	28657.6125
954.13371	28582.4125
957.89203	28633.1125
961.64774	28684.8125
965.40086	28691.4125
969.15137	28593.4125
972.89929	28466.2125
976.64461	28334.5125
980.38733	28174.2125
984.12747	28183.6125
987.86502	28246.9125
991.59999	28341.5125
995.33237	28485.5125
999.06217	28743.7125
1002.78939	29114.4125
1006.51404	29545.5125
1010.23611	30001.0125
1013.95561	30287.3125
1017.67255	30348.9125
1021.38692	30057.0125
1025.09872	29722.0125
1028.80796	29408.7125
1032.51465	29294.1125
1036.21877	29282.2125
1039.92035	29415.6125
1043.61937	29570.4125
1047.31584	29685.3125
1051.00976	29905.2125
1054.70114	30137.2125
1058.38998	30511.7125
1062.07627	30966.5125
1065.76003	31495.5125
1069.44126	31979.9125
1073.11995	32462.2125
1076.79611	32769.2125
1080.46974	32894.8125
1084.14085	32942.3125
1087.80943	33207.3125
1091.47549	33574.0125
1095.13903	33881.1125
1098.80005	33628.7125
1102.45857	32734.0125
1106.11456	31859.6125
1109.76805	31342.7125
1113.41903	31195.7125
1117.06751	31242.9125
1120.71348	31463.5125
1124.35696	31742.0125
1127.99793	32035.5125
1131.63641	32315.9125
1135.2724	32342.8125
1138.90589	32430.2125
1142.5369	32582.4125
1146.16542	32848.4125
1149.79145	33315.2125
1153.415	33852.5125
1157.03607	34494.4125
1160.65467	35441.2125
1164.27079	36790.3125
1167.88443	38509.2125
1171.49561	40278.1125
1175.10432	42367.5125
1178.71056	44788.3125
1182.31434	47072.2125
1185.91565	48575.4125
1189.51451	49008.9125
1193.11091	48738.1125
1196.70485	47522.6125
1200.29634	45837.7125
1203.88538	44707.5125
1207.47197	44354.6125
1211.05612	44357.1125
1214.63782	43864.6125
1218.21708	42575.1125
1221.79391	40950.7125
1225.36829	39521.6125
1228.94024	38657.0125
1232.50976	38126.9125
1236.07685	37847.1125
1239.6415	37724.6125
1243.20374	37742.1125
1246.76355	38066.5125
1250.32093	38516.8125
1253.8759	39268.4125
1257.42845	40347.5125
1260.97859	41447.1125
1264.52631	42595.1125
1268.07163	43803.8125
1271.61453	44890.2125
1275.15503	46058.8125
1278.69312	47472.5125
1282.22882	48958.2125
1285.76211	50666.1125
1289.29301	52735.1125
1292.82151	55000.1125
1296.34761	57777.4125
1299.87133	60742.2125
1303.39266	63414.3125
1306.9116	65415.4125
1310.42815	66598.5125
1313.94233	66792.4125
1317.45412	66546.5125
1320.96354	66337.2125
1324.47058	66616.1125
1327.97525	67187.1125
1331.47754	67664.7125
1334.97747	68033.4125
1338.47502	68232.4125
1341.97022	68341.0125
1345.46305	68185.1125
1348.95352	67408.4125
1352.44163	66065.6125
1355.92738	64696.6125
1359.41078	64111.0125
1362.89183	63994.6125
1366.37053	62745.3125
1369.84688	59385.1125
1373.32088	55062.9125
1376.79254	51718.7125
1380.26186	50557.7125
1383.72883	50779.5125
1387.19347	51168.2125
1390.65578	51027.0125
1394.11575	50817.7125
1397.57339	50903.3125
1401.0287	51354.3125
1404.48168	51621.4125
1407.93234	51089.7125
1411.38068	49738.4125
1414.82669	47734.6125
1418.27039	45455.2125
1421.71177	43385.3125
1425.15083	41906.2125
1428.58758	41240.0125
1432.02203	41466.6125
1435.45416	42454.3125
1438.88399	43674.1125
1442.31151	44783.8125
1445.73673	45611.9125
1449.15965	46383.2125
1452.58027	47071.3125
1455.9986	47582.1125
1459.41463	48067.2125
1462.82837	48720.4125
1466.23982	49462.9125
1469.64898	49942.8125
1473.05586	50218.0125
1476.46045	50136.1125
1479.86276	49816.6125
1483.26279	49453.3125
1486.66054	49343.0125
1490.05602	49581.9125
1493.44922	50175.1125
1496.84016	51049.3125
1500.22882	52159.0125
1503.61521	53378.1125
1506.99934	54574.6125
1510.38121	55444.9125
1513.76081	55654.9125
1517.13816	55453.5125
1520.51324	55179.2125
1523.88607	55148.7125
1527.25665	55297.3125
1530.62498	55324.1125
1533.99105	54814.6125
1537.35488	53703.3125
1540.71647	52084.9125
1544.07581	50164.6125
1547.4329	48293.0125
1550.78776	46956.7125
1554.14038	46067.9125
1557.49077	45627.3125
1560.83892	45352.4125
1564.18484	45318.3125
1567.52853	45319.3125
1570.86999	45740.9125
1574.20922	46685.5125
1577.54624	47669.7125
1580.88103	48297.0125
1584.2136	48890.5125
1587.54395	50047.7125
1590.87208	51738.2125
1594.19801	53698.9125
1597.52172	55269.2125
1600.84321	54959.8125
1604.16251	52300.4125
1607.47959	48785.0125
1610.79447	45267.4125
1614.10715	41929.9125
1617.41763	39072.7125
1620.7259	36941.0125
1624.03199	35813.1125
1627.33587	35688.7125
1630.63757	36614.8125
1633.93707	38894.0125
1637.23439	42770.8125
1640.52951	48414.9125
1643.82246	54986.0125
1647.11321	60461.4125
1650.40179	62004.2125
1653.68819	58453.4125
1656.97241	51608.2125
1660.25446	44148.0125
1663.53433	38152.9125
1666.81203	33971.3125
1670.08756	31257.8125
1673.36092	29525.6125
1676.63211	28457.4125
1679.90115	27773.3125
1683.16801	27155.5125
1686.43272	26707.1125
1689.69527	26418.0125
1692.95567	26186.2125
1696.2139	25998.3125
1699.46999	25815.7125
1702.72392	25647.8125
1705.97571	25577.8125
1709.22535	25500.7125
1712.47284	25423.5125
1715.71819	25298.2125
1718.96139	25235.7125
1722.20246	25148.3125
1725.44139	24977.1125
1728.67818	24850.6125
1731.91284	24684.2125
1735.14537	24537.7125
1738.37576	24392.1125
1741.60403	24283.3125
1744.83017	24190.0125
1748.05418	24089.2125
1751.27607	24032.4125
1754.49584	23977.2125
1757.71349	23931.4125
1760.92903	23905.0125
1764.14244	23845.9125
1767.35375	23818.9125
1770.56294	23781.0125
1773.77002	23697.3125
1776.97499	23648.5125
1780.17785	23559.4125
1783.37861	23536.7125
1786.57727	23462.2125
1789.77382	23408.9125
1792.96828	23369.4125
1796.16064	23319.7125
1799.3509	23248.2125
1802.53907	23168.6125
1805.72514	23076.9125
1808.90913	23019.2125
1812.09102	22981.1125
1815.27083	22888.8125
1818.44856	22860.6125
1821.6242	22788.1125
1824.79776	22802.3125
1827.96924	22768.0125
1831.13864	22737.7125
1834.30597	22739.1125
1837.47122	22769.1125
1840.6344	22754.9125
1843.7955	22790.1125
1846.95454	22765.0125
1850.11151	22701.7125
1853.26642	22683.6125
1856.41926	22683.9125
1859.57004	22639.3125
1862.71876	22578.5125
1865.86542	22577.0125
1869.01003	22512.1125
1872.15258	22414.3125
1875.29308	22344.9125
1878.43152	22316.1125
1881.56792	22294.4125
1884.70227	22240.8125
1887.83457	22184.0125
1890.96482	22139.7125
1894.09304	22112.5125
1897.21921	22074.7125
1900.34335	22056.9125
1903.46544	21997.6125
1906.58551	21962.3125
1909.70353	21920.3125
1912.81953	21816.3125
1915.93349	21803.6125
1919.04543	21745.1125
1922.15534	21697.3125
1925.26322	21642.9125
1928.36908	21589.3125
1931.47292	21554.0125
1934.57473	21461.1125
1937.67453	21354.1125
1940.77232	21311.9125
1943.86808	21243.7125
1946.96184	21135.9125
1950.05358	21107.6125
1953.14331	21057.7125
1956.23103	21006.8125
1959.31675	20902.0125
1962.40046	20851.4125
1965.48217	20724.4125
1968.56188	20672.8125
1971.63959	20633.6125
1974.7153	20533.3125
1977.78901	20489.3125
1980.86073	20361.9125
1983.93046	20283.1125
1986.99819	20212.5125
1990.06394	20180.6125
1993.1277	20161.0125
1996.18947	20048.1125
1999.24925	20016.7125
2002.30706	19942.4125
2005.36288	19854.1125
2008.41672	19791.9125
2011.46859	19721.3125
2014.51848	19634.9125
2017.56639	19593.7125
2020.61233	19555.3125
2023.6563	19436.5125
2026.6983	19420.3125
2029.73833	19330.5125
2032.7764	19292.2125
2035.8125	19221.2125
2038.84664	19156.4125
2041.87881	19104.5125
2044.90903	19075.3125
2047.93729	19037.6125
2050.96359	19015.0125
2053.98794	18973.4125
2057.01034	18964.2125
2060.03078	18952.7125
2063.04927	18923.7125
2066.06582	18940.1125
2069.08042	18932.5125
2072.09307	18911.2125
2075.10378	18900.0125
2078.11255	18848.9125
2081.11938	18831.1125
2084.12426	18804.2125
2087.12722	18798.6125
2090.12824	18743.7125
2093.12732	18750.5125
2096.12447	18755.3125
2099.11969	18749.0125
2102.11299	18769.5125
2105.10435	18765.9125
2108.09379	18735.3125
2111.08131	18720.2125
2114.0669	18756.0125
2117.05057	18783.6125
2120.03233	18794.1125
2123.01216	18765.2125
2125.99008	18789.9125
2128.96609	18778.3125
2131.94018	18783.6125
2134.91236	18743.2125
2137.88263	18753.1125
2140.851	18784.4125
2143.81746	18737.2125
2146.78201	18740.0125
2149.74466	18725.6125
2152.7054	18688.0125
2155.66425	18664.1125
2158.6212	18645.8125
2161.57625	18671.7125
2164.52941	18638.4125
2167.48067	18630.4125
2170.43004	18643.0125
2173.37752	18610.7125
2176.32311	18571.9125
2179.26681	18595.0125
2182.20863	18552.3125
2185.14856	18578.4125
2188.08661	18577.0125
2191.02278	18577.2125
2193.95707	18513.2125
2196.88948	18477.4125
2199.82001	18465.7125
2202.74867	18426.1125
2205.67545	18346.9125
2208.60037	18373.6125
2211.52341	18310.2125
2214.44458	18302.1125
2217.36388	18247.6125
2220.28132	18187.6125
2223.1969	18173.8125
2226.11061	18133.8125
2229.02246	18100.5125
2231.93245	18051.0125
2234.84058	18028.7125
2237.74686	17991.3125
2240.65128	17980.4125
2243.55385	17942.6125
2246.45456	17913.8125
2249.35343	17851.0125
2252.25044	17830.1125
2255.14561	17754.9125
2258.03893	17724.6125
2260.93041	17673.6125
2263.82004	17619.0125
2266.70783	17602.7125
2269.59378	17525.1125
2272.4779	17445.3125
2275.36017	17389.1125
2278.24061	17357.1125
2281.11922	17315.0125
2283.996	17278.8125
2286.87094	17265.4125
2289.74405	17205.7125
2292.61534	17188.0125
2295.4848	17152.5125
2298.35243	17123.0125
2301.21824	17146.1125
2304.08223	17129.5125
2306.94439	17079.9125
2309.80474	17107.7125
2312.66327	17074.4125
2315.51999	17006.9125
2318.37489	17013.2125
2321.22797	16957.2125
2324.07925	16951.8125
2326.92871	16897.2125
2329.77637	16869.8125
2332.62222	16805.1125
2335.46626	16800.9125
2338.3085	16842.3125
2341.14893	16785.7125
2343.98756	16801.3125
2346.8244	16768.9125
2349.65943	16756.4125
2352.49267	16768.2125
2355.32411	16762.5125
2358.15376	16736.6125
2360.98161	16747.3125
2363.80768	16734.8125
2366.63195	16725.0125
2369.45444	16686.1125
2372.27514	16673.4125
2375.09405	16635.6125
2377.91118	16636.5125
2380.72652	16548.5125
2383.54009	16539.4125
2386.35187	16502.3125
2389.16188	16429.0125
2391.97011	16380.9125
2394.77657	16374.5125
2397.58125	16357.9125
2400.38416	16315.0125
2403.18529	16277.2125
2405.98466	16276.7125
2408.78226	16239.1125
2411.57809	16213.9125
2414.37216	16195.1125
2417.16446	16199.1125
2419.955	16170.4125
2422.74378	16173.5125
2425.5308	16103.0125
2428.31606	16106.2125
2431.09956	16115.0125
2433.88131	16070.3125
2436.6613	16098.4125
2439.43954	16052.0125
2442.21603	16013.1125
2444.99077	16025.9125
2447.76377	16000.4125
2450.53501	15983.9125
2453.30451	15951.3125
2456.07226	15959.4125
2458.83827	15951.5125
2461.60254	15941.7125
2464.36507	15898.2125
2467.12586	15849.7125
2469.88492	15903.0125
2472.64224	15870.2125
2475.39782	15907.2125
2478.15167	15888.4125
2480.90379	15865.1125
2483.65417	15855.2125
2486.40283	15842.5125
2489.14976	15858.2125
2491.89497	15860.2125
2494.63845	15868.7125
2497.3802	15809.0125
2500.12024	15837.5125
2502.85855	15825.7125
2505.59514	15774.8125
2508.33002	15774.1125
2511.06318	15751.0125
2513.79462	15754.1125
2516.52435	15751.5125
2519.25237	15708.1125
2521.97867	15703.7125
2524.70327	15704.0125
2527.42616	15674.2125
2530.14734	15672.7125
2532.86681	15624.5125
2535.58458	15635.1125
2538.30065	15618.0125
2541.01501	15608.0125
2543.72768	15603.9125
2546.43864	15585.8125
2549.14791	15490.5125
2551.85548	15516.9125
2554.56136	15489.7125
2557.26554	15432.8125
2559.96803	15416.6125
2562.66883	15427.7125
2565.36794	15390.4125
2568.06536	15374.6125
2570.7611	15336.0125
2573.45514	15314.8125
2576.14751	15312.8125
2578.83819	15271.8125
2581.52719	15268.6125
2584.21451	15235.0125
2586.90015	15258.9125
2589.58411	15216.9125
2592.2664	15215.8125
2594.94701	15207.6125
2597.62594	15171.0125
2600.30321	15160.3125
2602.9788	15142.6125
2605.65273	15140.2125
2608.32498	15141.1125
2610.99557	15108.6125
2613.66449	15104.0125
2616.33175	15081.2125
2618.99734	15092.1125
2621.66128	15085.0125
2624.32355	15031.6125
2626.98416	15021.7125
2629.64311	15029.1125
2632.30041	15018.0125
2634.95605	14963.1125
2637.61004	14982.0125
2640.26238	14951.1125
2642.91306	14952.6125
2645.56209	14969.1125
2648.20948	14964.2125
2650.85521	14979.6125
2653.4993	14972.8125
2656.14175	14957.2125
2658.78255	14969.9125
2661.42171	14968.5125
2664.05923	14961.8125
2666.6951	14960.8125
2669.32934	14982.1125
2671.96194	14980.9125
2674.59291	14994.7125
2677.22224	14995.0125
2679.84993	14984.1125
2682.476	14981.1125
2685.10043	15001.5125
2687.72324	14964.9125
2690.34441	14958.1125
2692.96396	14944.9125
2695.58188	14946.8125
2698.19818	14943.2125
2700.81285	14959.3125
2703.4259	14972.0125
2706.03733	14978.6125
2708.64714	14939.1125
2711.25533	14929.0125
2713.86191	14916.6125
2716.46687	14952.7125
2719.07021	14930.7125
2721.67194	14971.1125
2724.27206	14955.7125
2726.87057	14960.1125
2729.46747	14982.8125
2732.06276	14992.1125
2734.65644	14996.4125
2737.24852	14984.7125
2739.83899	14949.2125
2742.42786	14978.9125
2745.01513	14930.8125
2747.60079	14886.9125
2750.18486	14883.5125
2752.76733	14881.9125
2755.3482	14864.2125
2757.92747	14835.1125
2760.50515	14853.3125
2763.08123	14864.9125
2765.65573	14841.8125
2768.22863	14832.1125
2770.79994	14790.9125
2773.36967	14783.0125
2775.9378	14804.5125
2778.50435	14734.0125
2781.06932	14757.7125
2783.6327	14769.3125
2786.1945	14756.7125
2788.75471	14769.5125
2791.31335	14726.0125
2793.87041	14684.6125
2796.42589	14630.1125
2798.97979	14633.7125
2801.53212	14569.7125
2804.08288	14591.0125
2806.63206	14517.1125
2809.17967	14514.0125
2811.72571	14484.2125
2814.27018	14452.4125
2816.81308	14415.1125
2819.35442	14385.0125
2821.89419	14326.4125
2824.43239	14394.6125
2826.96904	14344.5125
2829.50412	14327.6125
2832.03763	14294.5125
2834.56959	14299.5125
2837.1	14258.5125
2839.62884	14258.5125
2842.15613	14253.5125
2844.68186	14309.8125
2847.20604	14276.6125
2849.72867	14275.8125
2852.24974	14276.7125
2854.76927	14286.7125
2857.28724	14264.9125
2859.80367	14232.5125
2862.31855	14193.3125
2864.83189	14179.7125
2867.34368	14132.3125
2869.85393	14142.0125
2872.36264	14084.6125
2874.8698	14040.7125
2877.37543	14022.3125
2879.87952	14051.2125
2882.38207	14033.7125
2884.88308	14037.6125
2887.38256	14011.5125
2889.88051	14001.1125
2892.37692	14003.3125
2894.8718	13985.5125
2897.36515	14017.3125
2899.85698	13984.3125
2902.34727	14032.1125
2904.83604	14031.6125
2907.32328	14065.6125
2909.809	14032.0125
2912.29319	14054.3125
2914.77587	14037.2125
2917.25702	14032.5125
2919.73665	14025.4125
2922.21476	14031.1125
2924.69136	14003.4125
2927.16644	13997.3125
2929.64	13977.3125
2932.11205	13929.7125
2934.58258	13886.5125
2937.05161	13928.0125
2939.51912	13943.1125
2941.98513	13896.8125
2944.44962	13875.9125
2946.91261	13818.8125
2949.37409	13803.2125
2951.83407	13804.4125
2954.29254	13770.7125
2956.74951	13756.7125
2959.20498	13720.2125
2961.65895	13699.3125
2964.11142	13705.4125
2966.56239	13691.0125
2969.01186	13674.4125
2971.45984	13662.3125
2973.90632	13665.1125
2976.35131	13601.4125
2978.7948	13581.2125
2981.23681	13568.9125
2983.67732	13509.0125
2986.11635	13489.0125
2988.55388	13450.5125
2990.98993	13433.1125
2993.4245	13388.6125
2995.85758	13289.5125
2998.28917	13264.1125
3000.71928	13253.9125
3003.14791	13222.0125
3005.57506	13204.8125
3008.00073	13129.5125
3010.42493	13021.5125
3012.84764	13059.1125
3015.26888	13069.6125
3017.68865	13043.9125
3020.10694	13014.8125
3022.52376	12975.9125
