Data from AgNPs_FTO_APTES_UA_5uM_CRN_1uM_R6G_10uM_NaF_0.1M_Addition_RamanShift__4__10-21-56-569.txt Node

Date: Mon Feb 07 10:21:56 GMT 2022
User: TCL
Spectrometer: QEP01345
Trigger mode: 4
Integration Time (sec): 7.000000E0
Scans to average: 10
Electric dark correction enabled: true
Nonlinearity correction enabled: false
Boxcar width: 0
XAxis mode: Raman Shifts
Number of Pixels in Spectrum: 1044
>>>>>Begin Spectral Data<<<<<
46.04893	-1.225
50.45542	-1.125
54.85868	-1.025
59.25871	0.575
63.6555	90.475
68.04907	96.875
72.43941	99.375
76.82654	103.575
81.21044	109.475
85.59113	112.075
89.96862	114.475
94.34289	117.175
98.71396	118.775
103.08183	121.575
107.4465	126.575
111.80798	128.275
116.16626	140.375
120.52136	141.675
124.87327	150.775
129.222	156.075
133.56755	166.175
137.90993	184.675
142.24913	198.175
146.58517	228.575
150.91804	264.575
155.24774	315.275
159.57429	398.275
163.89768	514.075
168.21792	689.775
172.53501	943.475
176.84895	1312.975
181.15975	1846.975
185.46741	2597.875
189.77193	3579.475
194.07331	4773.075
198.37157	6142.575
202.6667	7566.375
206.9587	9000.875
211.24758	10419.275
215.53334	11880.875
219.81599	13420.075
224.09553	15171.575
228.37195	17093.675
232.64527	19122.575
236.91549	21207.575
241.18261	23265.075
245.44663	25138.275
249.70755	26828.275
253.96539	28261.475
258.22014	29384.275
262.4718	30377.375
266.72039	31037.975
270.96589	31422.775
275.20832	31429.475
279.44768	31170.075
283.68397	30850.875
287.91719	30622.575
292.14735	30501.275
296.37445	30499.175
300.59849	30704.275
304.81948	30936.175
309.03742	31030.575
313.25231	30920.775
317.46415	30471.075
321.67296	29762.175
325.87872	29222.675
330.08145	28855.875
334.28114	28779.775
338.47781	28883.375
342.67145	29180.975
346.86207	29648.675
351.04966	30257.475
355.23424	30922.675
359.4158	31571.275
363.59435	32094.475
367.76989	32445.875
371.94243	32654.375
376.11196	32800.675
380.27849	32894.375
384.44203	33008.675
388.60257	33269.975
392.76012	33648.975
396.91468	34087.075
401.06626	34660.775
405.21485	35163.075
409.36047	35171.375
413.50311	34969.175
417.64277	35087.075
421.77947	35463.275
425.9132	35746.375
430.04396	35910.275
434.17176	36047.675
438.2966	36096.875
442.41849	36500.175
446.53742	37635.075
450.6534	39005.575
454.76644	39965.775
458.87653	40082.875
462.98368	39478.075
467.08789	38609.275
471.18916	37589.075
475.2875	36641.975
479.38291	36098.875
483.4754	35957.675
487.56496	35795.975
491.6516	35453.375
495.73531	35032.675
499.81612	34930.175
503.89401	35153.975
507.96899	35280.475
512.04106	35012.775
516.11023	34459.575
520.1765	33829.675
524.23987	33428.875
528.30034	33143.775
532.35792	32764.175
536.41261	32205.075
540.46441	31603.175
544.51333	31429.875
548.55936	31786.075
552.60252	32601.975
556.64279	33618.475
560.6802	34481.675
564.71473	35042.275
568.7464	35879.675
572.7752	37297.375
576.80114	38853.075
580.82422	40715.775
584.84444	43410.575
588.86181	46597.075
592.87633	48756.775
596.888	47893.775
600.89682	44284.875
604.9028	42734.575
608.90594	45364.275
612.90624	48625.275
616.90371	45657.975
620.89834	38055.875
624.89015	34560.375
628.87913	34082.375
632.86528	33974.975
636.84862	33446.475
640.82913	32426.775
644.80683	31435.675
648.78172	30927.175
652.75379	31062.375
656.72306	31552.575
660.68952	32095.075
664.65319	31819.175
668.61405	31193.475
672.57211	31153.275
676.52738	31311.475
680.47986	31291.075
684.42955	30861.175
688.37646	30674.975
692.32058	31081.175
696.26192	31922.675
700.20048	32713.775
704.13626	33091.675
708.06928	32924.875
711.99952	32628.375
715.927	32725.275
719.85171	33190.675
723.77365	33054.175
727.69284	32277.375
731.60928	31470.275
735.52295	31181.975
739.43388	31237.175
743.34206	31404.375
747.24749	31717.575
751.15017	32147.475
755.05012	32764.975
758.94733	33850.375
762.8418	35536.775
766.73354	38002.275
770.62254	40213.375
774.50882	40387.875
778.39237	38571.275
782.27321	35855.075
786.15132	33685.975
790.02671	32349.075
793.89938	31827.675
797.76935	31735.775
801.6366	31771.175
805.50115	31771.475
809.36299	31581.575
813.22213	31246.275
817.07857	30924.575
820.93231	30668.075
824.78336	30489.875
828.63172	30393.375
832.47738	30391.475
836.32036	30572.675
840.16066	30867.575
843.99827	31111.975
847.8332	31029.475
851.66546	30719.275
855.49504	30618.875
859.32195	30629.475
863.1462	30414.775
866.96777	30230.975
870.78668	30110.875
874.60293	30036.575
878.41652	30070.675
882.22745	30229.675
886.03573	30387.275
889.84136	30388.475
893.64433	30197.075
897.44466	30024.175
901.24235	29869.175
905.0374	29770.475
908.8298	29739.575
912.61957	29870.075
916.40671	30230.675
920.19121	30958.675
923.97308	31722.875
927.75233	32183.275
931.52895	31977.775
935.30295	31287.275
939.07433	30479.175
942.84309	29930.375
946.60924	29795.075
950.37278	29758.575
954.13371	29698.375
957.89203	29482.675
961.64774	29319.275
965.40086	29404.475
969.15137	29372.675
972.89929	29227.975
976.64461	29237.175
980.38733	29326.875
984.12747	29562.275
987.86502	29871.575
991.59999	30428.575
995.33237	31192.375
999.06217	32631.275
1002.78939	34376.975
1006.51404	35505.475
1010.23611	36076.375
1013.95561	36413.275
1017.67255	36250.675
1021.38692	35507.375
1025.09872	34983.875
1028.80796	35650.375
1032.51465	37644.575
1036.21877	39610.775
1039.92035	40106.575
1043.61937	39274.375
1047.31584	37561.575
1051.00976	35693.375
1054.70114	34496.175
1058.38998	33987.975
1062.07627	33813.075
1065.76003	33896.575
1069.44126	34165.475
1073.11995	34877.975
1076.79611	35600.175
1080.46974	36035.275
1084.14085	36421.875
1087.80943	36841.575
1091.47549	37170.175
1095.13903	37062.375
1098.80005	36328.175
1102.45857	35196.075
1106.11456	34436.175
1109.76805	33993.675
1113.41903	33922.675
1117.06751	33960.775
1120.71348	34227.975
1124.35696	34534.975
1127.99793	34968.375
1131.63641	35340.675
1135.2724	35412.975
1138.90589	35421.675
1142.5369	35573.075
1146.16542	35906.475
1149.79145	36219.075
1153.415	36630.375
1157.03607	37423.175
1160.65467	39049.375
1164.27079	41686.275
1167.88443	44655.575
1171.49561	47360.875
1175.10432	50460.775
1178.71056	55001.075
1182.31434	59443.675
1185.91565	61576.975
1189.51451	60718.075
1193.11091	58221.375
1196.70485	55535.675
1200.29634	53439.475
1203.88538	52606.375
1207.47197	52556.375
1211.05612	52222.675
1214.63782	51128.375
1218.21708	49579.575
1221.79391	48198.375
1225.36829	47124.875
1228.94024	45988.675
1232.50976	44401.775
1236.07685	43051.975
1239.6415	42309.975
1243.20374	42264.375
1246.76355	42902.375
1250.32093	44036.475
1253.8759	45546.175
1257.42845	47208.175
1260.97859	49042.775
1264.52631	50906.075
1268.07163	52951.675
1271.61453	55186.675
1275.15503	57608.975
1278.69312	60187.675
1282.22882	62638.775
1285.76211	65225.375
1289.29301	68190.775
1292.82151	71825.375
1296.34761	76583.275
1299.87133	82932.775
1303.39266	89947.675
1306.9116	96103.375
1310.42815	100009.775
1313.94233	100669.875
1317.45412	97969.575
1320.96354	93909.075
1324.47058	90619.275
1327.97525	88592.075
1331.47754	87354.875
1334.97747	86300.275
1338.47502	84232.875
1341.97022	81005.975
1345.46305	77571.075
1348.95352	75572.475
1352.44163	76379.775
1355.92738	80463.075
1359.41078	86716.075
1362.89183	91347.775
1366.37053	91008.575
1369.84688	83931.975
1373.32088	73230.475
1376.79254	65334.875
1380.26186	62485.775
1383.72883	62630.975
1387.19347	62630.875
1390.65578	61585.575
1394.11575	61090.375
1397.57339	62202.875
1401.0287	64252.175
1404.48168	66057.175
1407.93234	66727.675
1411.38068	65279.775
1414.82669	62533.375
1418.27039	59292.875
1421.71177	56030.075
1425.15083	53402.175
1428.58758	52355.075
1432.02203	53311.575
1435.45416	55692.775
1438.88399	58123.475
1442.31151	59821.975
1445.73673	60579.775
1449.15965	60804.475
1452.58027	60390.575
1455.9986	59430.475
1459.41463	59084.575
1462.82837	59909.075
1466.23982	61728.875
1469.64898	63653.075
1473.05586	65003.375
1476.46045	65437.675
1479.86276	65222.775
1483.26279	64297.575
1486.66054	63545.675
1490.05602	63398.775
1493.44922	63519.375
1496.84016	63310.175
1500.22882	63118.475
1503.61521	63469.975
1506.99934	64384.375
1510.38121	65310.975
1513.76081	65614.375
1517.13816	64743.675
1520.51324	63538.175
1523.88607	62826.075
1527.25665	63269.375
1530.62498	64093.675
1533.99105	64223.075
1537.35488	63524.475
1540.71647	62040.275
1544.07581	60060.275
1547.4329	57953.375
1550.78776	56002.975
1554.14038	54480.475
1557.49077	53368.975
1560.83892	52475.475
1564.18484	51884.975
1567.52853	51787.775
1570.86999	52164.175
1574.20922	53191.875
1577.54624	54298.075
1580.88103	55137.175
1584.2136	56965.875
1587.54395	60919.875
1590.87208	67151.275
1594.19801	74213.475
1597.52172	79956.275
1600.84321	80886.675
1604.16251	75160.275
1607.47959	65804.675
1610.79447	56717.075
1614.10715	49587.475
1617.41763	44806.375
1620.7259	42160.275
1624.03199	41111.075
1627.33587	41696.175
1630.63757	43701.775
1633.93707	47431.175
1637.23439	53408.475
1640.52951	62266.375
1643.82246	73242.675
1647.11321	82048.775
1650.40179	82579.275
1653.68819	73681.075
1656.97241	60839.675
1660.25446	49503.275
1663.53433	41937.075
1666.81203	37385.275
1670.08756	34689.975
1673.36092	32981.675
1676.63211	31895.275
1679.90115	31177.075
1683.16801	30604.175
1686.43272	30174.875
1689.69527	29885.875
1692.95567	29618.175
1696.2139	29516.775
1699.46999	29391.975
1702.72392	29273.075
1705.97571	29144.175
1709.22535	29092.075
1712.47284	29038.775
1715.71819	29008.175
1718.96139	28905.975
1722.20246	28825.575
1725.44139	28734.675
1728.67818	28537.775
1731.91284	28334.175
1735.14537	28127.875
1738.37576	28007.475
1741.60403	27850.975
1744.83017	27792.675
1748.05418	27694.175
1751.27607	27654.375
1754.49584	27575.875
1757.71349	27573.775
1760.92903	27529.475
1764.14244	27522.175
1767.35375	27524.875
1770.56294	27470.775
1773.77002	27412.475
1776.97499	27331.875
1780.17785	27343.075
1783.37861	27306.375
1786.57727	27284.175
1789.77382	27290.675
1792.96828	27223.475
1796.16064	27112.575
1799.3509	27080.575
1802.53907	27026.675
1805.72514	26942.075
1808.90913	26912.275
1812.09102	26849.175
1815.27083	26801.575
1818.44856	26742.975
1821.6242	26748.975
1824.79776	26666.575
1827.96924	26699.075
1831.13864	26652.175
1834.30597	26685.075
1837.47122	26658.075
1840.6344	26641.075
1843.7955	26649.275
1846.95454	26709.075
1850.11151	26665.575
1853.26642	26605.675
1856.41926	26655.975
1859.57004	26614.475
1862.71876	26653.775
1865.86542	26595.075
1869.01003	26539.075
1872.15258	26554.275
1875.29308	26544.975
1878.43152	26534.775
1881.56792	26529.575
1884.70227	26582.075
1887.83457	26491.475
1890.96482	26483.675
1894.09304	26474.475
1897.21921	26449.875
1900.34335	26455.375
1903.46544	26404.575
1906.58551	26381.175
1909.70353	26307.575
1912.81953	26320.775
1915.93349	26279.075
1919.04543	26275.275
1922.15534	26207.775
1925.26322	26178.175
1928.36908	26144.675
1931.47292	26068.375
1934.57473	25980.075
1937.67453	25904.075
1940.77232	25812.275
1943.86808	25750.775
1946.96184	25674.775
1950.05358	25629.675
1953.14331	25599.875
1956.23103	25548.475
1959.31675	25482.975
1962.40046	25404.775
1965.48217	25363.875
1968.56188	25303.775
1971.63959	25144.875
1974.7153	25128.875
1977.78901	25048.375
1980.86073	25007.875
1983.93046	24953.875
1986.99819	24863.075
1990.06394	24772.375
1993.1277	24748.075
1996.18947	24667.675
1999.24925	24609.475
2002.30706	24513.875
2005.36288	24459.175
2008.41672	24420.875
2011.46859	24354.975
2014.51848	24294.175
2017.56639	24274.775
2020.61233	24215.175
2023.6563	24190.975
2026.6983	24153.375
2029.73833	24078.375
2032.7764	24091.775
2035.8125	24104.475
2038.84664	24056.275
2041.87881	24036.775
2044.90903	23955.475
2047.93729	23983.275
2050.96359	23966.375
2053.98794	23939.275
2057.01034	23967.275
2060.03078	23952.075
2063.04927	23920.075
2066.06582	23904.675
2069.08042	23893.675
2072.09307	23841.575
2075.10378	23840.875
2078.11255	23791.975
2081.11938	23849.275
2084.12426	23770.675
2087.12722	23745.475
2090.12824	23759.175
2093.12732	23760.775
2096.12447	23792.475
2099.11969	23793.775
2102.11299	23775.075
2105.10435	23814.375
2108.09379	23785.575
2111.08131	23819.675
2114.0669	23838.475
2117.05057	23849.675
2120.03233	23840.975
2123.01216	23911.175
2125.99008	23934.775
2128.96609	23935.175
2131.94018	23968.375
2134.91236	23962.975
2137.88263	24011.575
2140.851	23964.175
2143.81746	24038.175
2146.78201	24041.175
2149.74466	24048.175
2152.7054	24029.875
2155.66425	23993.375
2158.6212	23986.775
2161.57625	23990.775
2164.52941	24008.675
2167.48067	24004.875
2170.43004	24005.875
2173.37752	24030.875
2176.32311	24008.775
2179.26681	24033.975
2182.20863	24024.675
2185.14856	24075.875
2188.08661	24097.375
2191.02278	24144.775
2193.95707	24101.175
2196.88948	24108.075
2199.82001	24085.775
2202.74867	24087.175
2205.67545	24075.575
2208.60037	24083.875
2211.52341	24078.775
2214.44458	24081.475
2217.36388	24040.075
2220.28132	24031.175
2223.1969	23998.275
2226.11061	23963.675
2229.02246	23918.175
2231.93245	23909.775
2234.84058	23912.475
2237.74686	23864.675
2240.65128	23867.775
2243.55385	23812.275
2246.45456	23795.775
2249.35343	23745.275
2252.25044	23663.575
2255.14561	23560.275
2258.03893	23528.375
2260.93041	23473.275
2263.82004	23468.675
2266.70783	23414.575
2269.59378	23397.575
2272.4779	23286.875
2275.36017	23246.775
2278.24061	23252.775
2281.11922	23206.675
2283.996	23226.275
2286.87094	23188.475
2289.74405	23211.175
2292.61534	23235.875
2295.4848	23195.275
2298.35243	23235.475
2301.21824	23277.575
2304.08223	23349.575
2306.94439	23381.575
2309.80474	23415.675
2312.66327	23428.775
2315.51999	23438.875
2318.37489	23381.075
2321.22797	23414.275
2324.07925	23457.875
2326.92871	23366.075
2329.77637	23349.075
2332.62222	23348.175
2335.46626	23374.375
2338.3085	23379.975
2341.14893	23421.075
2343.98756	23429.875
2346.8244	23472.675
2349.65943	23466.475
2352.49267	23418.375
2355.32411	23421.575
2358.15376	23412.375
2360.98161	23291.975
2363.80768	23280.775
2366.63195	23296.575
2369.45444	23211.775
2372.27514	23196.675
2375.09405	23142.775
2377.91118	23114.675
2380.72652	23033.475
2383.54009	23006.375
2386.35187	22979.675
2389.16188	22985.375
2391.97011	22951.275
2394.77657	22923.475
2397.58125	22928.075
2400.38416	22891.775
2403.18529	22839.775
2405.98466	22847.475
2408.78226	22751.575
2411.57809	22741.275
2414.37216	22753.375
2417.16446	22734.875
2419.955	22670.575
2422.74378	22659.475
2425.5308	22632.875
2428.31606	22625.375
2431.09956	22624.775
2433.88131	22598.375
2436.6613	22617.275
2439.43954	22649.175
2442.21603	22665.775
2444.99077	22637.875
2447.76377	22692.975
2450.53501	22623.275
2453.30451	22681.175
2456.07226	22609.475
2458.83827	22612.475
2461.60254	22641.175
2464.36507	22669.675
2467.12586	22702.675
2469.88492	22672.675
2472.64224	22734.475
2475.39782	22820.575
2478.15167	22854.875
2480.90379	22865.875
2483.65417	22894.475
2486.40283	22860.275
2489.14976	22935.375
2491.89497	22918.975
2494.63845	22943.575
2497.3802	22897.475
2500.12024	22926.475
2502.85855	22894.175
2505.59514	22923.775
2508.33002	22876.275
2511.06318	22855.775
2513.79462	22828.975
2516.52435	22842.175
2519.25237	22835.275
2521.97867	22840.675
2524.70327	22826.275
2527.42616	22807.875
2530.14734	22849.975
2532.86681	22872.675
2535.58458	22856.875
2538.30065	22814.075
2541.01501	22834.575
2543.72768	22847.275
2546.43864	22875.275
2549.14791	22786.575
2551.85548	22850.275
2554.56136	22850.675
2557.26554	22796.775
2559.96803	22817.075
2562.66883	22830.175
2565.36794	22863.475
2568.06536	22901.675
2570.7611	22814.475
2573.45514	22858.475
2576.14751	22877.275
2578.83819	22857.175
2581.52719	22857.775
2584.21451	22886.975
2586.90015	22857.975
2589.58411	22893.375
2592.2664	22903.175
2594.94701	22859.375
2597.62594	22863.475
2600.30321	22869.375
2602.9788	22877.275
2605.65273	22884.275
2608.32498	22946.975
2610.99557	22955.375
2613.66449	22953.375
2616.33175	22931.175
2618.99734	22977.475
2621.66128	22946.575
2624.32355	22901.175
2626.98416	22918.075
2629.64311	22946.975
2632.30041	22935.575
2634.95605	22929.575
2637.61004	22886.575
2640.26238	22851.675
2642.91306	22819.075
2645.56209	22795.175
2648.20948	22778.975
2650.85521	22835.875
2653.4993	22858.375
2656.14175	22856.075
2658.78255	22909.675
2661.42171	22907.775
2664.05923	22976.675
2666.6951	22973.475
2669.32934	23028.075
2671.96194	23005.475
2674.59291	23007.275
2677.22224	23023.575
2679.84993	23046.575
2682.476	22931.875
2685.10043	22960.875
2687.72324	22924.175
2690.34441	22900.075
2692.96396	22881.675
2695.58188	22887.875
2698.19818	22851.975
2700.81285	22872.475
2703.4259	22878.875
2706.03733	22919.975
2708.64714	22919.475
2711.25533	22960.375
2713.86191	22959.675
2716.46687	23033.175
2719.07021	23000.475
2721.67194	23042.975
2724.27206	23083.975
2726.87057	23088.775
2729.46747	23107.975
2732.06276	23129.575
2734.65644	23150.875
2737.24852	23186.075
2739.83899	23157.475
2742.42786	23155.475
2745.01513	23113.675
2747.60079	23121.175
2750.18486	23080.775
2752.76733	23096.975
2755.3482	23043.075
2757.92747	23074.675
2760.50515	23046.875
2763.08123	23100.175
2765.65573	23122.675
2768.22863	23133.675
2770.79994	23113.175
2773.36967	23171.375
2775.9378	23201.275
2778.50435	23204.575
2781.06932	23182.575
2783.6327	23200.075
2786.1945	23249.575
2788.75471	23237.375
2791.31335	23208.375
2793.87041	23173.875
2796.42589	23077.775
2798.97979	23120.175
2801.53212	23082.475
2804.08288	23016.075
2806.63206	22975.475
2809.17967	22968.575
2811.72571	22930.975
2814.27018	22933.275
2816.81308	22849.575
2819.35442	22802.875
2821.89419	22796.175
2824.43239	22854.175
2826.96904	22819.875
2829.50412	22810.675
2832.03763	22771.675
2834.56959	22789.875
2837.1	22782.675
2839.62884	22770.475
2842.15613	22780.075
2844.68186	22852.575
2847.20604	22842.775
2849.72867	22848.075
2852.24974	22871.275
2854.76927	22851.675
2857.28724	22880.075
2859.80367	22871.775
2862.31855	22816.675
2864.83189	22788.175
2867.34368	22762.975
2869.85393	22758.875
2872.36264	22739.175
2874.8698	22748.875
2877.37543	22775.475
2879.87952	22775.375
2882.38207	22800.675
2884.88308	22785.275
2887.38256	22833.175
2889.88051	22837.775
2892.37692	22860.875
2894.8718	22913.875
2897.36515	22950.375
2899.85698	22956.375
2902.34727	23028.575
2904.83604	23041.275
2907.32328	23066.175
2909.809	23063.475
2912.29319	23084.975
2914.77587	23067.975
2917.25702	23029.475
2919.73665	22991.475
2922.21476	23042.275
2924.69136	23004.275
2927.16644	23017.075
2929.64	22917.075
2932.11205	22942.875
2934.58258	22890.175
2937.05161	22892.675
2939.51912	22883.975
2941.98513	22838.475
2944.44962	22835.975
2946.91261	22765.875
2949.37409	22789.775
2951.83407	22714.575
2954.29254	22710.875
2956.74951	22676.075
2959.20498	22680.775
2961.65895	22675.475
2964.11142	22669.075
2966.56239	22603.875
2969.01186	22585.375
2971.45984	22568.575
2973.90632	22591.075
2976.35131	22512.775
2978.7948	22444.275
2981.23681	22390.475
2983.67732	22350.675
2986.11635	22323.375
2988.55388	22255.475
2990.98993	22194.875
2993.4245	22154.675
2995.85758	22048.375
2998.28917	22043.275
3000.71928	22026.675
3003.14791	21961.575
3005.57506	21940.675
3008.00073	21898.175
3010.42493	21947.475
3012.84764	21872.975
3015.26888	21877.375
3017.68865	21772.575
3020.10694	21750.475
3022.52376	21698.675
3024.9391	21683.675
3027.35298	21684.375
3029.76539	21713.475
3032.17632	21633.975
3034.5858	21618.275
3036.9938	21643.975
3039.40034	21645.475
3041.80542	21619.475
3044.20903	21614.175
3046.61118	21583.675
3049.01187	21565.075
3051.4111	21568.575
3053.80888	21500.775
3056.20519	21489.175
3058.60005	21433.275
3060.99345	21423.275
3063.3854	21328.475
3065.7759	21261.075
3068.16494	21214.575
3070.55254	21161.875
3072.93868	21130.675
3075.32338	21085.675
3077.70662	21014.875
3080.08842	20925.275
3082.46878	20915.875
3084.84769	20902.375
3087.22515	20944.575
3089.60118	20927.375
3091.97576	20919.575
3094.3489	20946.375
3096.72061	20923.675
3099.09087	20917.775
3101.4597	20900.875
3103.82709	20904.575
3106.19305	20829.675
3108.55757	20837.275
3110.92066	20765.775
3113.28232	20804.175
3115.64255	20706.775
3118.00134	20669.375
3120.35871	20660.175
3122.71466	20606.375
3125.06917	20539.075
3127.42226	20482.975
