Data from AgNPs_FTO_APTES_UA_5uM_CRN_100uM_R6G_10uM_NaF_0.1M_Addition_RamanShift__18__14-57-16-888.txt Node

Date: Mon Feb 07 14:57:16 GMT 2022
User: TCL
Spectrometer: QEP01345
Trigger mode: 4
Integration Time (sec): 7.000000E0
Scans to average: 10
Electric dark correction enabled: true
Nonlinearity correction enabled: false
Boxcar width: 0
XAxis mode: Raman Shifts
Number of Pixels in Spectrum: 1044
>>>>>Begin Spectral Data<<<<<
46.04893	-0.725
50.45542	-0.725
54.85868	-1.625
59.25871	-0.125
63.6555	60.975
68.04907	64.075
72.43941	65.975
76.82654	67.575
81.21044	68.975
85.59113	72.775
89.96862	75.375
94.34289	76.975
98.71396	80.975
103.08183	83.075
107.4465	89.475
111.80798	87.975
116.16626	90.575
120.52136	98.575
124.87327	100.875
129.222	107.775
133.56755	114.175
137.90993	126.775
142.24913	138.275
146.58517	161.175
150.91804	183.375
155.24774	222.775
159.57429	281.175
163.89768	365.275
168.21792	483.375
172.53501	661.375
176.84895	923.875
181.15975	1310.575
185.46741	1853.175
189.77193	2548.575
194.07331	3400.375
198.37157	4374.175
202.6667	5432.475
206.9587	6436.675
211.24758	7439.375
215.53334	8447.375
219.81599	9519.875
224.09553	10656.675
228.37195	11952.375
232.64527	13320.475
236.91549	14781.975
241.18261	16241.175
245.44663	17639.575
249.70755	18904.775
253.96539	20025.675
258.22014	20995.975
262.4718	21781.775
266.72039	22386.975
270.96589	22747.475
275.20832	22881.775
279.44768	22861.375
283.68397	22823.275
287.91719	22850.275
292.14735	22871.875
296.37445	22894.675
300.59849	23008.175
304.81948	22980.875
309.03742	22757.375
313.25231	22283.175
317.46415	21642.075
321.67296	20943.775
325.87872	20398.075
330.08145	20116.775
334.28114	20014.775
338.47781	20095.175
342.67145	20225.175
346.86207	20510.375
351.04966	20837.075
355.23424	21169.575
359.4158	21427.475
363.59435	21631.275
367.76989	21781.775
371.94243	21834.675
376.11196	21938.675
380.27849	22063.175
384.44203	22217.575
388.60257	22353.375
392.76012	22657.175
396.91468	22900.475
401.06626	23297.675
405.21485	23549.075
409.36047	23444.175
413.50311	23181.575
417.64277	22950.475
421.77947	22952.275
425.9132	23065.375
430.04396	23239.675
434.17176	23418.275
438.2966	23613.475
442.41849	24023.275
446.53742	24650.975
450.6534	25355.175
454.76644	25950.275
458.87653	26255.975
462.98368	26247.775
467.08789	26163.275
471.18916	26022.975
475.2875	25995.575
479.38291	26133.175
483.4754	26084.275
487.56496	25710.575
491.6516	25019.075
495.73531	24374.275
499.81612	23977.975
503.89401	23921.275
507.96899	23952.675
512.04106	23853.175
516.11023	23610.775
520.1765	23233.175
524.23987	22921.075
528.30034	22618.175
532.35792	22435.475
536.41261	22248.375
540.46441	22113.375
544.51333	22206.175
548.55936	22602.775
552.60252	23255.175
556.64279	23875.075
560.6802	24383.475
564.71473	24747.175
568.7464	25320.575
572.7752	26163.275
576.80114	26783.275
580.82422	27206.575
584.84444	27510.375
588.86181	27737.875
592.87633	27942.175
596.888	27914.775
600.89682	27743.775
604.9028	28053.375
608.90594	29336.275
612.90624	30336.875
616.90371	28251.675
620.89834	24355.375
624.89015	22786.575
628.87913	22789.775
632.86528	23049.375
636.84862	23071.675
640.82913	22699.375
644.80683	22117.575
648.78172	21634.875
652.75379	21424.875
656.72306	21490.275
660.68952	21676.175
664.65319	21567.675
668.61405	21313.975
672.57211	21241.175
676.52738	21295.775
680.47986	21345.775
684.42955	21257.875
688.37646	21192.375
692.32058	21244.575
696.26192	21360.875
700.20048	21638.175
704.13626	21792.075
708.06928	21873.075
711.99952	21772.875
715.927	21722.675
719.85171	21682.175
723.77365	21614.575
727.69284	21408.275
731.60928	21188.175
735.52295	21092.675
739.43388	21051.475
743.34206	21075.175
747.24749	21164.675
751.15017	21379.875
755.05012	21874.775
758.94733	22547.975
762.8418	23717.875
766.73354	25365.175
770.62254	26803.575
774.50882	26797.575
778.39237	25378.875
782.27321	23569.675
786.15132	22214.175
790.02671	21387.275
793.89938	20977.575
797.76935	20831.775
801.6366	20846.675
805.50115	20790.475
809.36299	20670.175
813.22213	20569.475
817.07857	20519.975
820.93231	20493.775
824.78336	20359.275
828.63172	20205.975
832.47738	20134.475
836.32036	20093.775
840.16066	20137.075
843.99827	20195.775
847.8332	20126.675
851.66546	20024.175
855.49504	19986.075
859.32195	19984.175
863.1462	19951.175
866.96777	19886.975
870.78668	19837.675
874.60293	19835.175
878.41652	19750.875
882.22745	19797.975
886.03573	19876.975
889.84136	19871.975
893.64433	19835.675
897.44466	19734.775
901.24235	19638.275
905.0374	19631.975
908.8298	19590.075
912.61957	19662.975
916.40671	19901.475
920.19121	20247.375
923.97308	20466.375
927.75233	20353.375
931.52895	20113.575
935.30295	19851.575
939.07433	19451.975
942.84309	19156.875
946.60924	18983.875
950.37278	18916.575
954.13371	18891.675
957.89203	18854.275
961.64774	18835.875
965.40086	18847.675
969.15137	18727.175
972.89929	18590.775
976.64461	18499.375
980.38733	18407.775
984.12747	18451.875
987.86502	18557.075
991.59999	18722.975
995.33237	19037.575
999.06217	19503.575
1002.78939	19981.875
1006.51404	20287.275
1010.23611	20446.375
1013.95561	20598.975
1017.67255	20666.975
1021.38692	20476.775
1025.09872	20247.875
1028.80796	20254.775
1032.51465	20605.675
1036.21877	21017.375
1039.92035	21116.075
1043.61937	20932.275
1047.31584	20632.775
1051.00976	20395.975
1054.70114	20306.575
1058.38998	20465.075
1062.07627	20686.175
1065.76003	20965.275
1069.44126	21084.475
1073.11995	21315.075
1076.79611	21448.175
1080.46974	21564.475
1084.14085	21624.375
1087.80943	21834.075
1091.47549	22059.575
1095.13903	22227.175
1098.80005	22072.175
1102.45857	21647.175
1106.11456	21163.175
1109.76805	20935.175
1113.41903	20953.475
1117.06751	21053.975
1120.71348	21272.975
1124.35696	21508.775
1127.99793	21757.975
1131.63641	21936.975
1135.2724	21924.375
1138.90589	21819.075
1142.5369	21873.675
1146.16542	22085.675
1149.79145	22364.575
1153.415	22801.575
1157.03607	23336.075
1160.65467	24126.275
1164.27079	25334.175
1167.88443	26786.375
1171.49561	28516.575
1175.10432	30605.775
1178.71056	33037.075
1182.31434	35321.675
1185.91565	36692.875
1189.51451	36872.175
1193.11091	36242.575
1196.70485	35122.875
1200.29634	33700.675
1203.88538	32577.575
1207.47197	31928.375
1211.05612	31455.675
1214.63782	30801.675
1218.21708	29985.375
1221.79391	29209.475
1225.36829	28589.075
1228.94024	28011.875
1232.50976	27357.575
1236.07685	26837.575
1239.6415	26638.775
1243.20374	26661.675
1246.76355	26844.875
1250.32093	27240.375
1253.8759	27850.175
1257.42845	28656.475
1260.97859	29462.575
1264.52631	30196.375
1268.07163	30981.975
1271.61453	31890.375
1275.15503	32910.875
1278.69312	34128.475
1282.22882	35354.775
1285.76211	36590.175
1289.29301	38018.575
1292.82151	40041.575
1296.34761	42537.775
1299.87133	45306.975
1303.39266	48049.575
1306.9116	50556.175
1310.42815	52622.675
1313.94233	53782.875
1317.45412	53874.175
1320.96354	53582.675
1324.47058	53385.375
1327.97525	53322.875
1331.47754	53119.675
1334.97747	53005.375
1338.47502	52780.975
1341.97022	52351.275
1345.46305	51449.075
1348.95352	50007.475
1352.44163	48546.675
1355.92738	47665.675
1359.41078	47786.675
1362.89183	48158.875
1366.37053	47117.575
1369.84688	44082.975
1373.32088	40356.075
1376.79254	37889.575
1380.26186	37169.675
1383.72883	37610.975
1387.19347	38243.575
1390.65578	38634.975
1394.11575	38978.475
1397.57339	39729.675
1401.0287	40692.575
1404.48168	41301.975
1407.93234	41115.475
1411.38068	39948.575
1414.82669	38029.575
1418.27039	35710.975
1421.71177	33575.175
1425.15083	31909.175
1428.58758	30879.275
1432.02203	30898.675
1435.45416	31679.375
1438.88399	32883.575
1442.31151	33979.775
1445.73673	34933.275
1449.15965	35850.675
1452.58027	36663.575
1455.9986	37201.875
1459.41463	37684.975
1462.82837	38161.975
1466.23982	38624.475
1469.64898	38927.575
1473.05586	38911.275
1476.46045	38585.575
1479.86276	37998.875
1483.26279	37199.075
1486.66054	36576.575
1490.05602	36279.475
1493.44922	36207.875
1496.84016	36267.775
1500.22882	36664.175
1503.61521	37339.075
1506.99934	38310.675
1510.38121	39306.875
1513.76081	39697.275
1517.13816	39360.775
1520.51324	38715.475
1523.88607	38145.975
1527.25665	38088.475
1530.62498	38158.375
1533.99105	38257.075
1537.35488	38088.375
1540.71647	37536.775
1544.07581	36623.875
1547.4329	35538.375
1550.78776	34573.875
1554.14038	33925.975
1557.49077	33547.975
1560.83892	33404.875
1564.18484	33341.275
1567.52853	33368.975
1570.86999	33641.275
1574.20922	34314.475
1577.54624	35126.075
1580.88103	35795.875
1584.2136	36513.175
1587.54395	37719.275
1590.87208	39556.675
1594.19801	41503.075
1597.52172	43243.875
1600.84321	43466.575
1604.16251	41356.675
1607.47959	38047.775
1610.79447	34518.175
1614.10715	31387.975
1617.41763	28784.775
1620.7259	26937.775
1624.03199	25942.675
1627.33587	25790.275
1630.63757	26540.175
1633.93707	28412.675
1637.23439	31487.975
1640.52951	35699.175
1643.82246	40361.875
1647.11321	43939.075
1650.40179	44523.275
1653.68819	41556.975
1656.97241	36224.575
1660.25446	30795.075
1663.53433	26398.075
1666.81203	23443.475
1670.08756	21523.475
1673.36092	20279.875
1676.63211	19491.875
1679.90115	18916.475
1683.16801	18502.675
1686.43272	18168.675
1689.69527	17950.875
1692.95567	17806.275
1696.2139	17651.575
1699.46999	17542.775
1702.72392	17406.675
1705.97571	17335.075
1709.22535	17266.375
1712.47284	17216.075
1715.71819	17176.375
1718.96139	17080.675
1722.20246	17000.375
1725.44139	16939.375
1728.67818	16800.675
1731.91284	16701.875
1735.14537	16600.675
1738.37576	16492.075
1741.60403	16453.875
1744.83017	16373.675
1748.05418	16331.375
1751.27607	16342.075
1754.49584	16300.175
1757.71349	16308.775
1760.92903	16277.475
1764.14244	16279.275
1767.35375	16182.175
1770.56294	16165.875
1773.77002	16098.475
1776.97499	16055.575
1780.17785	16009.075
1783.37861	15961.275
1786.57727	15941.975
1789.77382	15910.675
1792.96828	15891.675
1796.16064	15836.375
1799.3509	15782.375
1802.53907	15758.475
1805.72514	15693.975
1808.90913	15627.975
1812.09102	15573.175
1815.27083	15553.275
1818.44856	15519.975
1821.6242	15509.475
1824.79776	15494.375
1827.96924	15428.675
1831.13864	15471.975
1834.30597	15419.575
1837.47122	15399.475
1840.6344	15398.275
1843.7955	15414.475
1846.95454	15396.275
1850.11151	15405.075
1853.26642	15362.675
1856.41926	15364.975
1859.57004	15398.675
1862.71876	15369.775
1865.86542	15360.675
1869.01003	15326.475
1872.15258	15280.275
1875.29308	15289.075
1878.43152	15230.175
1881.56792	15271.175
1884.70227	15234.375
1887.83457	15198.475
1890.96482	15192.875
1894.09304	15211.175
1897.21921	15169.575
1900.34335	15154.075
1903.46544	15132.975
1906.58551	15147.075
1909.70353	15109.475
1912.81953	15079.275
1915.93349	15033.275
1919.04543	15002.475
1922.15534	14993.675
1925.26322	14939.975
1928.36908	14864.675
1931.47292	14836.075
1934.57473	14828.975
1937.67453	14793.975
1940.77232	14737.475
1943.86808	14733.175
1946.96184	14633.475
1950.05358	14617.175
1953.14331	14579.775
1956.23103	14529.975
1959.31675	14478.875
1962.40046	14422.975
1965.48217	14380.475
1968.56188	14342.475
1971.63959	14288.975
1974.7153	14254.575
1977.78901	14182.975
1980.86073	14167.175
1983.93046	14083.775
1986.99819	14054.975
1990.06394	14010.475
1993.1277	14000.575
1996.18947	13915.075
1999.24925	13860.075
2002.30706	13838.575
2005.36288	13796.575
2008.41672	13766.175
2011.46859	13714.075
2014.51848	13697.875
2017.56639	13675.175
2020.61233	13633.275
2023.6563	13582.975
2026.6983	13537.875
2029.73833	13495.275
2032.7764	13487.175
2035.8125	13468.675
2038.84664	13448.875
2041.87881	13430.075
2044.90903	13399.275
2047.93729	13356.975
2050.96359	13354.875
2053.98794	13360.775
2057.01034	13350.775
2060.03078	13352.675
2063.04927	13303.975
2066.06582	13309.575
2069.08042	13278.675
2072.09307	13277.275
2075.10378	13236.575
2078.11255	13239.275
2081.11938	13253.175
2084.12426	13248.875
2087.12722	13216.875
2090.12824	13196.775
2093.12732	13196.075
2096.12447	13199.675
2099.11969	13184.575
2102.11299	13197.175
2105.10435	13199.975
2108.09379	13198.175
2111.08131	13207.875
2114.0669	13243.675
2117.05057	13251.975
2120.03233	13256.175
2123.01216	13246.875
2125.99008	13274.575
2128.96609	13248.475
2131.94018	13276.875
2134.91236	13274.275
2137.88263	13282.775
2140.851	13284.575
2143.81746	13279.175
2146.78201	13279.475
2149.74466	13276.175
2152.7054	13255.575
2155.66425	13255.075
2158.6212	13246.375
2161.57625	13227.375
2164.52941	13226.075
2167.48067	13241.775
2170.43004	13221.475
2173.37752	13202.875
2176.32311	13178.675
2179.26681	13228.475
2182.20863	13196.875
2185.14856	13217.875
2188.08661	13209.675
2191.02278	13204.675
2193.95707	13199.775
2196.88948	13204.475
2199.82001	13190.875
2202.74867	13185.675
2205.67545	13122.275
2208.60037	13125.675
2211.52341	13114.275
2214.44458	13108.575
2217.36388	13094.175
2220.28132	13090.175
2223.1969	13045.275
2226.11061	13008.575
2229.02246	12996.675
2231.93245	12961.675
2234.84058	12948.375
2237.74686	12886.075
2240.65128	12884.875
2243.55385	12850.975
2246.45456	12854.575
2249.35343	12802.775
2252.25044	12789.575
2255.14561	12758.075
2258.03893	12757.575
2260.93041	12716.675
2263.82004	12700.075
2266.70783	12670.475
2269.59378	12583.175
2272.4779	12569.475
2275.36017	12545.575
2278.24061	12531.075
2281.11922	12502.675
2283.996	12507.875
2286.87094	12490.575
2289.74405	12448.375
2292.61534	12460.275
2295.4848	12403.475
2298.35243	12429.475
2301.21824	12415.675
2304.08223	12435.475
2306.94439	12415.575
2309.80474	12435.775
2312.66327	12462.675
2315.51999	12449.975
2318.37489	12418.775
2321.22797	12416.375
2324.07925	12392.275
2326.92871	12381.475
2329.77637	12377.475
2332.62222	12330.075
2335.46626	12327.375
2338.3085	12337.675
2341.14893	12333.475
2343.98756	12330.975
2346.8244	12359.375
2349.65943	12334.875
2352.49267	12316.175
2355.32411	12358.175
2358.15376	12330.175
2360.98161	12281.375
2363.80768	12286.175
2366.63195	12325.675
2369.45444	12289.475
2372.27514	12277.975
2375.09405	12263.475
2377.91118	12226.675
2380.72652	12150.875
2383.54009	12153.575
2386.35187	12150.375
2389.16188	12101.475
2391.97011	12081.575
2394.77657	12074.275
2397.58125	12031.675
2400.38416	12039.475
2403.18529	11996.175
2405.98466	11969.675
2408.78226	11952.975
2411.57809	11942.075
2414.37216	11928.675
2417.16446	11933.275
2419.955	11906.975
2422.74378	11906.375
2425.5308	11885.575
2428.31606	11884.275
2431.09956	11891.775
2433.88131	11843.975
2436.6613	11868.475
2439.43954	11884.975
2442.21603	11863.075
2444.99077	11821.375
2447.76377	11867.375
2450.53501	11837.775
2453.30451	11828.475
2456.07226	11846.775
2458.83827	11847.675
2461.60254	11800.275
2464.36507	11814.975
2467.12586	11797.075
2469.88492	11844.475
2472.64224	11819.875
2475.39782	11842.675
2478.15167	11832.275
2480.90379	11817.175
2483.65417	11834.275
2486.40283	11846.275
2489.14976	11862.675
2491.89497	11871.575
2494.63845	11894.375
2497.3802	11878.575
2500.12024	11887.275
2502.85855	11864.275
2505.59514	11861.275
2508.33002	11832.575
2511.06318	11831.475
2513.79462	11800.975
2516.52435	11795.275
2519.25237	11821.875
2521.97867	11825.075
2524.70327	11805.675
2527.42616	11788.775
2530.14734	11788.275
2532.86681	11786.575
2535.58458	11796.675
2538.30065	11758.575
2541.01501	11782.375
2543.72768	11751.875
2546.43864	11757.275
2549.14791	11729.275
2551.85548	11759.175
2554.56136	11717.575
2557.26554	11710.775
2559.96803	11677.475
2562.66883	11655.475
2565.36794	11655.975
2568.06536	11641.475
2570.7611	11629.875
2573.45514	11625.375
2576.14751	11613.275
2578.83819	11605.075
2581.52719	11608.775
2584.21451	11618.675
2586.90015	11625.375
2589.58411	11611.975
2592.2664	11596.175
2594.94701	11603.875
2597.62594	11597.575
2600.30321	11598.575
2602.9788	11569.575
2605.65273	11594.375
2608.32498	11582.375
2610.99557	11582.575
2613.66449	11602.475
2616.33175	11606.675
2618.99734	11596.275
2621.66128	11606.075
2624.32355	11581.875
2626.98416	11582.975
2629.64311	11593.175
2632.30041	11606.675
2634.95605	11584.175
2637.61004	11591.475
2640.26238	11608.775
2642.91306	11567.375
2645.56209	11516.575
2648.20948	11545.175
2650.85521	11535.775
2653.4993	11556.975
2656.14175	11566.375
2658.78255	11561.275
2661.42171	11597.275
2664.05923	11585.375
2666.6951	11597.175
2669.32934	11596.175
2671.96194	11610.775
2674.59291	11607.575
2677.22224	11585.475
2679.84993	11621.975
2682.476	11579.975
2685.10043	11579.975
2687.72324	11525.175
2690.34441	11539.375
2692.96396	11516.375
2695.58188	11530.275
2698.19818	11534.075
2700.81285	11539.775
2703.4259	11588.375
2706.03733	11634.775
2708.64714	11599.375
2711.25533	11594.875
2713.86191	11597.875
2716.46687	11635.975
2719.07021	11608.675
2721.67194	11626.175
2724.27206	11604.475
2726.87057	11620.775
2729.46747	11624.175
2732.06276	11646.575
2734.65644	11653.775
2737.24852	11642.875
2739.83899	11639.275
2742.42786	11634.375
2745.01513	11617.775
2747.60079	11620.375
2750.18486	11625.175
2752.76733	11619.175
2755.3482	11581.975
2757.92747	11599.875
2760.50515	11612.775
2763.08123	11621.975
2765.65573	11591.375
2768.22863	11598.275
2770.79994	11598.875
2773.36967	11636.575
2775.9378	11635.075
2778.50435	11621.175
2781.06932	11620.575
2783.6327	11640.375
2786.1945	11645.575
2788.75471	11624.775
2791.31335	11642.975
2793.87041	11619.175
2796.42589	11575.475
2798.97979	11546.775
2801.53212	11540.575
2804.08288	11506.075
2806.63206	11470.575
2809.17967	11477.675
2811.72571	11474.875
2814.27018	11431.175
2816.81308	11402.875
2819.35442	11383.175
2821.89419	11386.975
2824.43239	11398.175
2826.96904	11357.175
2829.50412	11363.775
2832.03763	11307.775
2834.56959	11331.375
2837.1	11339.275
2839.62884	11342.175
2842.15613	11334.275
2844.68186	11406.175
2847.20604	11400.775
2849.72867	11381.675
2852.24974	11389.975
2854.76927	11414.275
2857.28724	11402.175
2859.80367	11379.675
2862.31855	11337.675
2864.83189	11321.875
2867.34368	11305.475
2869.85393	11316.575
2872.36264	11309.675
2874.8698	11294.675
2877.37543	11293.775
2879.87952	11279.775
2882.38207	11281.275
2884.88308	11291.875
2887.38256	11297.575
2889.88051	11293.875
2892.37692	11309.075
2894.8718	11320.075
2897.36515	11346.475
2899.85698	11341.175
2902.34727	11372.875
2904.83604	11374.675
2907.32328	11400.975
2909.809	11415.975
2912.29319	11415.875
2914.77587	11434.275
2917.25702	11414.775
2919.73665	11400.875
2922.21476	11437.975
2924.69136	11424.175
2927.16644	11407.875
2929.64	11392.175
2932.11205	11376.875
2934.58258	11343.875
2937.05161	11372.775
2939.51912	11345.775
2941.98513	11349.675
2944.44962	11330.875
2946.91261	11268.175
2949.37409	11288.975
2951.83407	11262.575
2954.29254	11232.175
2956.74951	11256.875
2959.20498	11235.275
2961.65895	11191.975
2964.11142	11204.375
2966.56239	11161.075
2969.01186	11186.775
2971.45984	11140.675
2973.90632	11132.275
2976.35131	11108.975
2978.7948	11082.275
2981.23681	11049.475
2983.67732	11038.775
2986.11635	11020.075
2988.55388	10970.775
2990.98993	10949.975
2993.4245	10912.975
2995.85758	10900.875
2998.28917	10848.775
3000.71928	10821.175
3003.14791	10789.275
3005.57506	10777.775
3008.00073	10730.075
3010.42493	10663.575
3012.84764	10721.275
3015.26888	10714.575
3017.68865	10672.875
3020.10694	10692.975
3022.52376	10644.275
3024.9391	10630.275
3027.35298	10648.375
3029.76539	10609.575
3032.17632	10611.975
3034.5858	10598.075
3036.9938	10600.375
3039.40034	10589.675
3041.80542	10619.275
3044.20903	10591.175
3046.61118	10595.075
3049.01187	10551.775
3051.4111	10551.475
3053.80888	10558.375
3056.20519	10507.275
3058.60005	10449.475
3060.99345	10465.775
3063.3854	10422.675
3065.7759	10385.075
3068.16494	10349.375
3070.55254	10320.475
3072.93868	10281.575
3075.32338	10273.375
3077.70662	10237.475
3080.08842	10209.975
3082.46878	10225.275
3084.84769	10176.975
3087.22515	10195.675
3089.60118	10207.775
3091.97576	10182.875
3094.3489	10181.775
3096.72061	10179.875
3099.09087	10167.775
3101.4597	10147.275
3103.82709	10167.775
3106.19305	10165.775
3108.55757	10154.375
3110.92066	10116.775
3113.28232	10117.575
3115.64255	10102.475
3118.00134	10065.875
3120.35871	10070.475
3122.71466	10043.075
3125.06917	9996.175
3127.42226	9966.675
