Data from AgNPs_FTO_APTES_UA_5uM_CRN_1000uM_R6G_10uM_NaF_0.1M_Addition_RamanShift__5__17-29-41-866.txt Node

Date: Mon Feb 07 17:29:41 GMT 2022
User: TCL
Spectrometer: QEP01345
Trigger mode: 4
Integration Time (sec): 7.000000E0
Scans to average: 10
Electric dark correction enabled: true
Nonlinearity correction enabled: false
Boxcar width: 0
XAxis mode: Raman Shifts
Number of Pixels in Spectrum: 1044
>>>>>Begin Spectral Data<<<<<
46.04893	-1.9125
50.45542	-0.1125
54.85868	-0.6125
59.25871	-1.3125
63.6555	58.2875
68.04907	61.5875
72.43941	65.6875
76.82654	64.9875
81.21044	68.6875
85.59113	66.9875
89.96862	73.0875
94.34289	74.7875
98.71396	78.5875
103.08183	81.8875
107.4465	85.2875
111.80798	82.5875
116.16626	86.8875
120.52136	93.9875
124.87327	96.9875
129.222	103.2875
133.56755	106.6875
137.90993	115.5875
142.24913	131.7875
146.58517	147.3875
150.91804	175.3875
155.24774	213.8875
159.57429	269.1875
163.89768	348.2875
168.21792	464.6875
172.53501	637.2875
176.84895	892.0875
181.15975	1262.2875
185.46741	1771.7875
189.77193	2439.8875
194.07331	3266.7875
198.37157	4215.0875
202.6667	5202.4875
206.9587	6167.1875
211.24758	7131.2875
215.53334	8115.2875
219.81599	9142.3875
224.09553	10276.1875
228.37195	11513.4875
232.64527	12828.0875
236.91549	14214.3875
241.18261	15646.6875
245.44663	16938.5875
249.70755	18160.7875
253.96539	19166.1875
258.22014	20064.5875
262.4718	20772.6875
266.72039	21304.1875
270.96589	21568.8875
275.20832	21629.1875
279.44768	21559.1875
283.68397	21418.1875
287.91719	21254.2875
292.14735	21210.8875
296.37445	21254.2875
300.59849	21299.4875
304.81948	21431.7875
309.03742	21395.3875
313.25231	21142.6875
317.46415	20737.9875
321.67296	20244.0875
325.87872	19723.6875
330.08145	19505.1875
334.28114	19417.8875
338.47781	19497.7875
342.67145	19658.1875
346.86207	19939.6875
351.04966	20290.0875
355.23424	20576.7875
359.4158	20812.3875
363.59435	21072.1875
367.76989	21223.1875
371.94243	21343.3875
376.11196	21397.0875
380.27849	21408.4875
384.44203	21543.3875
388.60257	21730.1875
392.76012	21960.7875
396.91468	22213.8875
401.06626	22514.4875
405.21485	22704.1875
409.36047	22585.5875
413.50311	22280.4875
417.64277	22114.5875
421.77947	22142.3875
425.9132	22256.7875
430.04396	22441.1875
434.17176	22620.5875
438.2966	22792.2875
442.41849	23199.2875
446.53742	23863.9875
450.6534	24653.0875
454.76644	25154.5875
458.87653	25292.2875
462.98368	25128.0875
467.08789	24850.7875
471.18916	24524.6875
475.2875	24351.8875
479.38291	24399.2875
483.4754	24307.9875
487.56496	24044.0875
491.6516	23494.0875
495.73531	22960.2875
499.81612	22511.8875
503.89401	22503.1875
507.96899	22467.5875
512.04106	22418.0875
516.11023	22246.5875
520.1765	21959.5875
524.23987	21759.2875
528.30034	21559.2875
532.35792	21390.5875
536.41261	21167.2875
540.46441	20901.8875
544.51333	20943.3875
548.55936	21179.8875
552.60252	21762.5875
556.64279	22391.6875
560.6802	22993.3875
564.71473	23347.8875
568.7464	23894.9875
572.7752	24747.4875
576.80114	25537.7875
580.82422	26089.2875
584.84444	26742.8875
588.86181	27752.3875
592.87633	28596.0875
596.888	28446.0875
600.89682	27196.4875
604.9028	26517.9875
608.90594	27449.8875
612.90624	28756.8875
616.90371	26968.4875
620.89834	23001.3875
624.89015	21227.2875
628.87913	21023.7875
632.86528	21209.2875
636.84862	21205.9875
640.82913	20942.9875
644.80683	20478.6875
648.78172	20153.3875
652.75379	20092.4875
656.72306	20240.7875
660.68952	20467.3875
664.65319	20286.5875
668.61405	20002.8875
672.57211	19886.5875
676.52738	19987.8875
680.47986	20014.4875
684.42955	19948.9875
688.37646	19839.5875
692.32058	19888.4875
696.26192	20075.9875
700.20048	20310.3875
704.13626	20501.1875
708.06928	20537.8875
711.99952	20502.9875
715.927	20502.9875
719.85171	20486.5875
723.77365	20416.8875
727.69284	20179.7875
731.60928	19945.8875
735.52295	19869.4875
739.43388	19873.5875
743.34206	19886.3875
747.24749	20000.0875
751.15017	20196.6875
755.05012	20546.6875
758.94733	21155.5875
762.8418	22199.0875
766.73354	23789.8875
770.62254	25149.3875
774.50882	25340.0875
778.39237	24153.9875
782.27321	22435.6875
786.15132	21021.7875
790.02671	20216.3875
793.89938	19805.2875
797.76935	19632.9875
801.6366	19579.2875
805.50115	19516.6875
809.36299	19411.2875
813.22213	19255.9875
817.07857	19241.9875
820.93231	19143.2875
824.78336	19037.6875
828.63172	18858.2875
832.47738	18811.1875
836.32036	18779.4875
840.16066	18793.7875
843.99827	18798.0875
847.8332	18752.5875
851.66546	18743.3875
855.49504	18725.4875
859.32195	18705.8875
863.1462	18640.5875
866.96777	18595.2875
870.78668	18554.1875
874.60293	18570.6875
878.41652	18559.2875
882.22745	18659.4875
886.03573	18670.9875
889.84136	18670.3875
893.64433	18625.7875
897.44466	18561.2875
901.24235	18504.0875
905.0374	18413.7875
908.8298	18360.9875
912.61957	18373.2875
916.40671	18566.0875
920.19121	18898.9875
923.97308	19111.3875
927.75233	19052.5875
931.52895	18826.8875
935.30295	18473.6875
939.07433	18091.9875
942.84309	17818.1875
946.60924	17656.2875
950.37278	17581.7875
954.13371	17544.6875
957.89203	17610.9875
961.64774	17589.4875
965.40086	17567.0875
969.15137	17458.3875
972.89929	17333.5875
976.64461	17227.8875
980.38733	17122.4875
984.12747	17133.9875
987.86502	17218.9875
991.59999	17276.3875
995.33237	17423.4875
999.06217	17724.8875
1002.78939	18058.7875
1006.51404	18393.8875
1010.23611	18683.3875
1013.95561	18917.9875
1017.67255	19014.2875
1021.38692	18841.3875
1025.09872	18458.8875
1028.80796	18196.1875
1032.51465	18172.8875
1036.21877	18311.8875
1039.92035	18417.3875
1043.61937	18447.9875
1047.31584	18439.3875
1051.00976	18392.9875
1054.70114	18398.0875
1058.38998	18505.7875
1062.07627	18711.0875
1065.76003	18937.7875
1069.44126	19090.8875
1073.11995	19328.1875
1076.79611	19522.8875
1080.46974	19644.4875
1084.14085	19719.6875
1087.80943	19931.2875
1091.47549	20107.2875
1095.13903	20200.9875
1098.80005	19949.4875
1102.45857	19546.9875
1106.11456	19135.3875
1109.76805	18964.5875
1113.41903	19019.0875
1117.06751	19166.1875
1120.71348	19448.3875
1124.35696	19698.7875
1127.99793	20073.1875
1131.63641	20279.9875
1135.2724	20143.7875
1138.90589	19971.1875
1142.5369	20030.0875
1146.16542	20249.1875
1149.79145	20556.0875
1153.415	20876.5875
1157.03607	21331.0875
1160.65467	22068.8875
1164.27079	23262.2875
1167.88443	24659.1875
1171.49561	26167.6875
1175.10432	27956.5875
1178.71056	30184.3875
1182.31434	32228.1875
1185.91565	33129.9875
1189.51451	32775.9875
1193.11091	31795.4875
1196.70485	30704.1875
1200.29634	29570.7875
1203.88538	28867.3875
1207.47197	28484.3875
1211.05612	28196.5875
1214.63782	27620.6875
1218.21708	26733.8875
1221.79391	25920.8875
1225.36829	25342.1875
1228.94024	24935.0875
1232.50976	24430.5875
1236.07685	23904.6875
1239.6415	23587.4875
1243.20374	23560.9875
1246.76355	23717.7875
1250.32093	24036.8875
1253.8759	24473.6875
1257.42845	25124.7875
1260.97859	25799.3875
1264.52631	26550.1875
1268.07163	27285.7875
1271.61453	28043.3875
1275.15503	28872.0875
1278.69312	29851.2875
1282.22882	31001.1875
1285.76211	32368.8875
1289.29301	34134.5875
1292.82151	36255.3875
1296.34761	38791.2875
1299.87133	41493.8875
1303.39266	44071.9875
1306.9116	46313.3875
1310.42815	47927.3875
1313.94233	48786.6875
1317.45412	48510.6875
1320.96354	47584.6875
1324.47058	46767.7875
1327.97525	46067.8875
1331.47754	45469.7875
1334.97747	45059.0875
1338.47502	44435.3875
1341.97022	43732.5875
1345.46305	42869.9875
1348.95352	42200.0875
1352.44163	41962.4875
1355.92738	42734.0875
1359.41078	44250.1875
1362.89183	45583.6875
1366.37053	44934.0875
1369.84688	41518.0875
1373.32088	36871.3875
1376.79254	33835.5875
1380.26186	32984.7875
1383.72883	33244.8875
1387.19347	33634.5875
1390.65578	33680.2875
1394.11575	33879.3875
1397.57339	34523.9875
1401.0287	35312.7875
1404.48168	35839.8875
1407.93234	35595.3875
1411.38068	34534.4875
1414.82669	32874.5875
1418.27039	30968.5875
1421.71177	29241.3875
1425.15083	27807.5875
1428.58758	27114.8875
1432.02203	27320.8875
1435.45416	28115.6875
1438.88399	29197.5875
1442.31151	29977.7875
1445.73673	30535.2875
1449.15965	30997.6875
1452.58027	31287.1875
1455.9986	31345.5875
1459.41463	31512.2875
1462.82837	31924.5875
1466.23982	32322.5875
1469.64898	32827.9875
1473.05586	33032.6875
1476.46045	33018.0875
1479.86276	32620.3875
1483.26279	32145.3875
1486.66054	31774.6875
1490.05602	31775.2875
1493.44922	31921.7875
1496.84016	32213.3875
1500.22882	32665.8875
1503.61521	33380.4875
1506.99934	34433.2875
1510.38121	35336.7875
1513.76081	35678.9875
1517.13816	35077.4875
1520.51324	34177.0875
1523.88607	33631.7875
1527.25665	33593.6875
1530.62498	33807.7875
1533.99105	33822.2875
1537.35488	33417.6875
1540.71647	32694.0875
1544.07581	31552.9875
1547.4329	30373.4875
1550.78776	29385.0875
1554.14038	28611.4875
1557.49077	28189.3875
1560.83892	27913.5875
1564.18484	27910.1875
1567.52853	28039.3875
1570.86999	28488.2875
1574.20922	29265.3875
1577.54624	30015.0875
1580.88103	30549.3875
1584.2136	31039.4875
1587.54395	32097.5875
1590.87208	33752.7875
1594.19801	35732.1875
1597.52172	37558.3875
1600.84321	37919.4875
1604.16251	35996.3875
1607.47959	32702.9875
1610.79447	29311.6875
1614.10715	26321.6875
1617.41763	24128.4875
1620.7259	22633.2875
1624.03199	21920.9875
1627.33587	21960.3875
1630.63757	22820.9875
1633.93707	24575.2875
1637.23439	27530.5875
1640.52951	31802.3875
1643.82246	36950.8875
1647.11321	41053.5875
1650.40179	41713.8875
1653.68819	38291.4875
1656.97241	32492.0875
1660.25446	26923.1875
1663.53433	22797.2875
1666.81203	20173.9875
1670.08756	18509.0875
1673.36092	17504.5875
1676.63211	16858.7875
1679.90115	16408.0875
1683.16801	16046.4875
1686.43272	15760.9875
1689.69527	15564.0875
1692.95567	15433.2875
1696.2139	15323.3875
1699.46999	15180.0875
1702.72392	15134.1875
1705.97571	15085.2875
1709.22535	14983.9875
1712.47284	14953.9875
1715.71819	14890.7875
1718.96139	14861.1875
1722.20246	14772.3875
1725.44139	14699.4875
1728.67818	14592.7875
1731.91284	14520.6875
1735.14537	14418.4875
1738.37576	14327.6875
1741.60403	14255.2875
1744.83017	14187.7875
1748.05418	14154.1875
1751.27607	14171.4875
1754.49584	14126.4875
1757.71349	14088.7875
1760.92903	14074.7875
1764.14244	14065.2875
1767.35375	14038.4875
1770.56294	13998.9875
1773.77002	13943.2875
1776.97499	13910.4875
1780.17785	13862.0875
1783.37861	13837.7875
1786.57727	13783.2875
1789.77382	13762.8875
1792.96828	13722.8875
1796.16064	13684.6875
1799.3509	13666.0875
1802.53907	13613.3875
1805.72514	13549.5875
1808.90913	13505.8875
1812.09102	13452.9875
1815.27083	13408.0875
1818.44856	13411.5875
1821.6242	13372.8875
1824.79776	13329.7875
1827.96924	13299.0875
1831.13864	13288.3875
1834.30597	13295.0875
1837.47122	13261.2875
1840.6344	13229.4875
1843.7955	13256.6875
1846.95454	13214.4875
1850.11151	13186.4875
1853.26642	13163.8875
1856.41926	13144.3875
1859.57004	13156.5875
1862.71876	13149.6875
1865.86542	13121.7875
1869.01003	13120.1875
1872.15258	13088.0875
1875.29308	13079.5875
1878.43152	13036.1875
1881.56792	13029.3875
1884.70227	13038.0875
1887.83457	13003.2875
1890.96482	12972.7875
1894.09304	12933.7875
1897.21921	12943.4875
1900.34335	12903.4875
1903.46544	12900.3875
1906.58551	12916.6875
1909.70353	12873.1875
1912.81953	12836.6875
1915.93349	12796.0875
1919.04543	12766.3875
1922.15534	12727.0875
1925.26322	12697.7875
1928.36908	12658.1875
1931.47292	12641.9875
1934.57473	12617.2875
1937.67453	12581.9875
1940.77232	12541.9875
1943.86808	12500.7875
1946.96184	12436.0875
1950.05358	12410.3875
1953.14331	12368.0875
1956.23103	12328.5875
1959.31675	12268.3875
1962.40046	12256.0875
1965.48217	12179.6875
1968.56188	12153.2875
1971.63959	12105.3875
1974.7153	12072.4875
1977.78901	12002.4875
1980.86073	11969.4875
1983.93046	11930.2875
1986.99819	11886.6875
1990.06394	11869.4875
1993.1277	11827.3875
1996.18947	11768.0875
1999.24925	11735.4875
2002.30706	11708.9875
2005.36288	11675.8875
2008.41672	11648.9875
2011.46859	11603.8875
2014.51848	11556.3875
2017.56639	11524.2875
2020.61233	11522.1875
2023.6563	11461.0875
2026.6983	11402.1875
2029.73833	11374.6875
2032.7764	11351.2875
2035.8125	11361.8875
2038.84664	11330.3875
2041.87881	11299.5875
2044.90903	11262.9875
2047.93729	11247.2875
2050.96359	11225.8875
2053.98794	11208.9875
2057.01034	11195.8875
2060.03078	11187.0875
2063.04927	11170.2875
2066.06582	11184.8875
2069.08042	11178.4875
2072.09307	11176.6875
2075.10378	11151.2875
2078.11255	11108.6875
2081.11938	11128.6875
2084.12426	11118.5875
2087.12722	11088.6875
2090.12824	11071.1875
2093.12732	11077.8875
2096.12447	11088.5875
2099.11969	11073.3875
2102.11299	11034.4875
2105.10435	11032.3875
2108.09379	11039.2875
2111.08131	11071.6875
2114.0669	11064.4875
2117.05057	11074.4875
2120.03233	11072.4875
2123.01216	11079.5875
2125.99008	11087.1875
2128.96609	11064.2875
2131.94018	11047.9875
2134.91236	11066.4875
2137.88263	11059.1875
2140.851	11065.5875
2143.81746	11058.1875
2146.78201	11052.2875
2149.74466	11051.6875
2152.7054	11028.6875
2155.66425	11004.8875
2158.6212	10992.4875
2161.57625	10963.9875
2164.52941	10968.6875
2167.48067	10958.6875
2170.43004	10953.2875
2173.37752	10950.8875
2176.32311	10968.8875
2179.26681	10978.5875
2182.20863	10938.0875
2185.14856	10972.1875
2188.08661	10964.8875
2191.02278	10929.6875
2193.95707	10940.6875
2196.88948	10911.0875
2199.82001	10898.0875
2202.74867	10848.3875
2205.67545	10839.5875
2208.60037	10839.3875
2211.52341	10793.8875
2214.44458	10782.7875
2217.36388	10752.4875
2220.28132	10726.1875
2223.1969	10703.5875
2226.11061	10695.3875
2229.02246	10681.8875
2231.93245	10649.3875
2234.84058	10613.4875
2237.74686	10597.9875
2240.65128	10605.8875
2243.55385	10559.6875
2246.45456	10567.6875
2249.35343	10547.8875
2252.25044	10518.6875
2255.14561	10473.2875
2258.03893	10444.0875
2260.93041	10417.4875
2263.82004	10382.7875
2266.70783	10365.9875
2269.59378	10355.8875
2272.4779	10293.5875
2275.36017	10244.0875
2278.24061	10245.9875
2281.11922	10232.5875
2283.996	10224.8875
2286.87094	10203.6875
2289.74405	10154.4875
2292.61534	10137.2875
2295.4848	10167.1875
2298.35243	10159.9875
2301.21824	10137.8875
2304.08223	10159.3875
2306.94439	10137.2875
2309.80474	10132.9875
2312.66327	10123.9875
2315.51999	10099.9875
2318.37489	10089.1875
2321.22797	10076.3875
2324.07925	10041.6875
2326.92871	10033.0875
2329.77637	10041.6875
2332.62222	10011.6875
2335.46626	10022.1875
2338.3085	9989.3875
2341.14893	9986.4875
2343.98756	9989.7875
2346.8244	9987.1875
2349.65943	9966.6875
2352.49267	9953.4875
2355.32411	9937.4875
2358.15376	9945.3875
2360.98161	9951.3875
2363.80768	9948.7875
2366.63195	9936.5875
2369.45444	9928.9875
2372.27514	9916.0875
2375.09405	9897.6875
2377.91118	9854.5875
2380.72652	9856.9875
2383.54009	9821.7875
2386.35187	9785.8875
2389.16188	9748.8875
2391.97011	9737.3875
2394.77657	9724.6875
2397.58125	9707.0875
2400.38416	9688.6875
2403.18529	9655.7875
2405.98466	9658.6875
2408.78226	9645.5875
2411.57809	9637.0875
2414.37216	9629.7875
2417.16446	9610.7875
2419.955	9598.2875
2422.74378	9577.0875
2425.5308	9590.1875
2428.31606	9555.2875
2431.09956	9545.4875
2433.88131	9543.1875
2436.6613	9543.4875
2439.43954	9534.8875
2442.21603	9522.2875
2444.99077	9505.7875
2447.76377	9499.2875
2450.53501	9521.1875
2453.30451	9503.8875
2456.07226	9508.6875
2458.83827	9483.8875
2461.60254	9476.4875
2464.36507	9483.3875
2467.12586	9475.1875
2469.88492	9471.5875
2472.64224	9492.9875
2475.39782	9472.8875
2478.15167	9460.7875
2480.90379	9459.7875
2483.65417	9481.5875
2486.40283	9470.8875
2489.14976	9467.0875
2491.89497	9444.5875
2494.63845	9468.3875
2497.3802	9448.1875
2500.12024	9480.0875
2502.85855	9445.6875
2505.59514	9435.5875
2508.33002	9419.4875
2511.06318	9417.1875
2513.79462	9401.2875
2516.52435	9396.6875
2519.25237	9376.6875
2521.97867	9348.5875
2524.70327	9347.2875
2527.42616	9350.3875
2530.14734	9323.0875
2532.86681	9342.8875
2535.58458	9353.4875
2538.30065	9324.3875
2541.01501	9317.1875
2543.72768	9293.1875
2546.43864	9308.5875
2549.14791	9283.6875
2551.85548	9265.6875
2554.56136	9266.2875
2557.26554	9254.1875
2559.96803	9232.9875
2562.66883	9212.0875
2565.36794	9202.9875
2568.06536	9210.8875
2570.7611	9204.9875
2573.45514	9173.7875
2576.14751	9178.0875
2578.83819	9187.7875
2581.52719	9180.4875
2584.21451	9153.0875
2586.90015	9155.7875
2589.58411	9154.4875
2592.2664	9138.8875
2594.94701	9134.5875
2597.62594	9117.1875
2600.30321	9128.1875
2602.9788	9123.9875
2605.65273	9119.6875
2608.32498	9133.9875
2610.99557	9138.4875
2613.66449	9120.5875
2616.33175	9109.5875
2618.99734	9083.6875
2621.66128	9101.7875
2624.32355	9076.2875
2626.98416	9064.6875
2629.64311	9062.9875
2632.30041	9039.7875
2634.95605	9051.8875
2637.61004	9030.7875
2640.26238	9024.1875
2642.91306	9025.1875
2645.56209	8983.2875
2648.20948	9042.2875
2650.85521	9032.6875
2653.4993	9024.6875
2656.14175	9009.9875
2658.78255	9044.4875
2661.42171	9027.5875
2664.05923	9053.2875
2666.6951	9033.8875
2669.32934	9076.5875
2671.96194	9064.2875
2674.59291	9019.3875
2677.22224	9008.5875
2679.84993	9024.8875
2682.476	9013.8875
2685.10043	9015.9875
2687.72324	9016.8875
2690.34441	8998.3875
2692.96396	9000.7875
2695.58188	9012.2875
2698.19818	9016.1875
2700.81285	9000.2875
2703.4259	8994.3875
2706.03733	9020.7875
2708.64714	9013.5875
2711.25533	9026.3875
2713.86191	9034.0875
2716.46687	9048.7875
2719.07021	9018.3875
2721.67194	9046.0875
2724.27206	9061.2875
2726.87057	9044.0875
2729.46747	9065.5875
2732.06276	9078.3875
2734.65644	9046.0875
2737.24852	9059.5875
2739.83899	9033.9875
2742.42786	9025.7875
2745.01513	9019.3875
2747.60079	9016.5875
2750.18486	9016.6875
2752.76733	8993.4875
2755.3482	8999.5875
2757.92747	8993.8875
2760.50515	8997.5875
2763.08123	8979.4875
2765.65573	8961.7875
2768.22863	8972.0875
2770.79994	8962.9875
2773.36967	8972.0875
2775.9378	8989.2875
2778.50435	8972.2875
2781.06932	8965.5875
2783.6327	8952.9875
2786.1945	8963.0875
2788.75471	8957.9875
2791.31335	8961.1875
2793.87041	8939.2875
2796.42589	8927.4875
2798.97979	8914.5875
2801.53212	8879.4875
2804.08288	8882.7875
2806.63206	8842.6875
2809.17967	8849.2875
2811.72571	8826.7875
2814.27018	8827.3875
2816.81308	8784.5875
2819.35442	8768.9875
2821.89419	8775.2875
2824.43239	8755.7875
2826.96904	8749.0875
2829.50412	8754.4875
2832.03763	8725.6875
2834.56959	8734.1875
2837.1	8728.7875
2839.62884	8735.9875
2842.15613	8779.0875
2844.68186	8816.3875
2847.20604	8852.4875
2849.72867	8873.1875
2852.24974	8880.1875
2854.76927	8843.0875
2857.28724	8844.8875
2859.80367	8815.9875
2862.31855	8794.3875
2864.83189	8788.7875
2867.34368	8768.5875
2869.85393	8770.3875
2872.36264	8765.4875
2874.8698	8751.4875
2877.37543	8765.8875
2879.87952	8729.7875
2882.38207	8723.9875
2884.88308	8711.9875
2887.38256	8733.5875
2889.88051	8734.2875
2892.37692	8720.9875
2894.8718	8750.9875
2897.36515	8759.8875
2899.85698	8733.7875
2902.34727	8766.7875
2904.83604	8766.1875
2907.32328	8805.6875
2909.809	8788.5875
2912.29319	8786.8875
2914.77587	8780.5875
2917.25702	8781.5875
2919.73665	8766.8875
2922.21476	8754.7875
2924.69136	8760.0875
2927.16644	8785.1875
2929.64	8757.0875
2932.11205	8746.7875
2934.58258	8707.0875
2937.05161	8727.2875
2939.51912	8687.9875
2941.98513	8691.4875
2944.44962	8667.6875
2946.91261	8602.3875
2949.37409	8619.4875
2951.83407	8598.2875
2954.29254	8584.3875
2956.74951	8583.7875
2959.20498	8575.4875
2961.65895	8521.4875
2964.11142	8521.7875
2966.56239	8501.7875
2969.01186	8488.8875
2971.45984	8476.5875
2973.90632	8459.4875
2976.35131	8431.9875
2978.7948	8389.6875
2981.23681	8380.0875
2983.67732	8362.9875
2986.11635	8337.1875
2988.55388	8303.2875
2990.98993	8269.7875
2993.4245	8265.6875
2995.85758	8225.3875
2998.28917	8214.6875
3000.71928	8184.1875
3003.14791	8180.2875
3005.57506	8159.2875
3008.00073	8113.0875
3010.42493	8112.2875
3012.84764	8081.8875
3015.26888	8081.5875
3017.68865	8067.4875
3020.10694	8063.5875
3022.52376	8022.4875
3024.9391	8025.2875
3027.35298	7977.7875
3029.76539	7986.1875
3032.17632	7970.8875
3034.5858	7948.0875
3036.9938	7967.2875
3039.40034	7963.8875
3041.80542	7956.6875
3044.20903	7949.5875
3046.61118	7968.1875
3049.01187	7922.8875
3051.4111	7922.0875
3053.80888	7904.6875
