Data from AgNPs_FTO_APTES_UA_5uM_CRN_100uM_R6G_10uM_NaF_0.1M_Addition_RamanShift__8__14-45-36-874.txt Node

Date: Mon Feb 07 14:45:36 GMT 2022
User: TCL
Spectrometer: QEP01345
Trigger mode: 4
Integration Time (sec): 7.000000E0
Scans to average: 10
Electric dark correction enabled: true
Nonlinearity correction enabled: false
Boxcar width: 0
XAxis mode: Raman Shifts
Number of Pixels in Spectrum: 1044
>>>>>Begin Spectral Data<<<<<
46.04893	0.2125
50.45542	-1.9875
54.85868	-0.6875
59.25871	1.0125
63.6555	66.4125
68.04907	68.6125
72.43941	74.8125
76.82654	74.7125
81.21044	73.4125
85.59113	78.2125
89.96862	81.1125
94.34289	82.4125
98.71396	83.6125
103.08183	91.3125
107.4465	93.7125
111.80798	93.5125
116.16626	99.7125
120.52136	105.7125
124.87327	107.3125
129.222	116.8125
133.56755	125.2125
137.90993	135.2125
142.24913	150.9125
146.58517	176.0125
150.91804	201.5125
155.24774	250.5125
159.57429	316.2125
163.89768	403.2125
168.21792	542.2125
172.53501	746.2125
176.84895	1042.0125
181.15975	1468.5125
185.46741	2077.3125
189.77193	2868.5125
194.07331	3810.4125
198.37157	4933.7125
202.6667	6089.2125
206.9587	7249.6125
211.24758	8363.8125
215.53334	9459.7125
219.81599	10644.2125
224.09553	11971.2125
228.37195	13364.1125
232.64527	14895.6125
236.91549	16466.8125
241.18261	18132.0125
245.44663	19667.1125
249.70755	21094.3125
253.96539	22359.2125
258.22014	23423.1125
262.4718	24317.2125
266.72039	24944.8125
270.96589	25285.8125
275.20832	25416.1125
279.44768	25357.8125
283.68397	25291.9125
287.91719	25184.2125
292.14735	25178.9125
296.37445	25261.2125
300.59849	25391.8125
304.81948	25427.1125
309.03742	25286.0125
313.25231	25030.6125
317.46415	24443.7125
321.67296	23771.5125
325.87872	23211.9125
330.08145	22888.2125
334.28114	22813.2125
338.47781	22875.8125
342.67145	23056.4125
346.86207	23366.4125
351.04966	23588.6125
355.23424	23928.8125
359.4158	24227.6125
363.59435	24477.5125
367.76989	24662.9125
371.94243	24748.2125
376.11196	24799.4125
380.27849	24831.8125
384.44203	24925.4125
388.60257	25050.5125
392.76012	25381.7125
396.91468	25780.5125
401.06626	26213.6125
405.21485	26462.3125
409.36047	26414.2125
413.50311	26178.3125
417.64277	26060.3125
421.77947	26164.7125
425.9132	26346.5125
430.04396	26517.3125
434.17176	26651.2125
438.2966	26752.2125
442.41849	27128.2125
446.53742	27747.3125
450.6534	28516.9125
454.76644	29061.2125
458.87653	29310.3125
462.98368	29337.4125
467.08789	29148.6125
471.18916	28975.3125
475.2875	28831.0125
479.38291	28925.7125
483.4754	28892.3125
487.56496	28511.2125
491.6516	27825.1125
495.73531	27123.1125
499.81612	26658.4125
503.89401	26560.8125
507.96899	26718.0125
512.04106	26720.0125
516.11023	26496.7125
520.1765	26104.8125
524.23987	25647.4125
528.30034	25231.8125
532.35792	24965.6125
536.41261	24746.7125
540.46441	24582.9125
544.51333	24673.8125
548.55936	25098.6125
552.60252	25688.8125
556.64279	26413.1125
560.6802	26991.1125
564.71473	27500.4125
568.7464	28305.6125
572.7752	29570.2125
576.80114	30934.8125
580.82422	32050.7125
584.84444	33011.7125
588.86181	34041.0125
592.87633	34768.6125
596.888	34072.3125
600.89682	32475.9125
604.9028	31654.5125
608.90594	32080.5125
612.90624	32659.9125
616.90371	30438.9125
620.89834	26622.5125
624.89015	25055.2125
628.87913	24985.4125
632.86528	25301.5125
636.84862	25318.8125
640.82913	24905.4125
644.80683	24360.9125
648.78172	23965.3125
652.75379	23861.1125
656.72306	24054.0125
660.68952	24233.6125
664.65319	24072.2125
668.61405	23793.7125
672.57211	23775.4125
676.52738	23821.5125
680.47986	23826.9125
684.42955	23708.4125
688.37646	23650.2125
692.32058	23742.2125
696.26192	24019.1125
700.20048	24340.1125
704.13626	24563.3125
708.06928	24754.1125
711.99952	24793.8125
715.927	24710.0125
719.85171	24654.5125
723.77365	24433.2125
727.69284	24106.3125
731.60928	23746.2125
735.52295	23572.6125
739.43388	23513.3125
743.34206	23507.7125
747.24749	23712.1125
751.15017	24040.7125
755.05012	24552.8125
758.94733	25353.1125
762.8418	26544.7125
766.73354	28193.3125
770.62254	29524.3125
774.50882	29255.5125
778.39237	27784.2125
782.27321	26049.3125
786.15132	24725.8125
790.02671	23915.3125
793.89938	23489.5125
797.76935	23229.4125
801.6366	23195.1125
805.50115	23155.8125
809.36299	23095.6125
813.22213	22954.2125
817.07857	22926.0125
820.93231	22900.8125
824.78336	22684.6125
828.63172	22442.4125
832.47738	22308.2125
836.32036	22269.9125
840.16066	22203.5125
843.99827	22229.3125
847.8332	22206.0125
851.66546	22228.5125
855.49504	22258.0125
859.32195	22256.2125
863.1462	22173.6125
866.96777	22139.3125
870.78668	22086.4125
874.60293	22044.2125
878.41652	22010.3125
882.22745	22023.4125
886.03573	22061.0125
889.84136	22098.8125
893.64433	22057.4125
897.44466	22018.6125
901.24235	21958.2125
905.0374	21865.9125
908.8298	21887.6125
912.61957	22054.7125
916.40671	22376.6125
920.19121	22834.3125
923.97308	23084.6125
927.75233	22830.6125
931.52895	22403.0125
935.30295	21952.4125
939.07433	21499.3125
942.84309	21205.7125
946.60924	21018.0125
950.37278	20911.2125
954.13371	20937.8125
957.89203	20973.7125
961.64774	21025.6125
965.40086	21015.5125
969.15137	20903.0125
972.89929	20717.3125
976.64461	20559.1125
980.38733	20426.9125
984.12747	20408.0125
987.86502	20484.8125
991.59999	20510.5125
995.33237	20666.8125
999.06217	20835.2125
1002.78939	21174.3125
1006.51404	21489.2125
1010.23611	21859.1125
1013.95561	22135.2125
1017.67255	22158.2125
1021.38692	22008.8125
1025.09872	21705.8125
1028.80796	21451.1125
1032.51465	21364.1125
1036.21877	21373.5125
1039.92035	21464.2125
1043.61937	21620.4125
1047.31584	21717.9125
1051.00976	21840.8125
1054.70114	22010.5125
1058.38998	22221.9125
1062.07627	22608.1125
1065.76003	23028.6125
1069.44126	23377.3125
1073.11995	23715.0125
1076.79611	23955.3125
1080.46974	24028.7125
1084.14085	24079.8125
1087.80943	24271.4125
1091.47549	24584.5125
1095.13903	24784.0125
1098.80005	24580.8125
1102.45857	23932.0125
1106.11456	23258.8125
1109.76805	22876.7125
1113.41903	22818.3125
1117.06751	22893.7125
1120.71348	23150.4125
1124.35696	23406.7125
1127.99793	23721.0125
1131.63641	23936.3125
1135.2724	23987.8125
1138.90589	24005.3125
1142.5369	24247.5125
1146.16542	24584.6125
1149.79145	25070.9125
1153.415	25568.5125
1157.03607	26178.0125
1160.65467	27175.8125
1164.27079	28745.4125
1167.88443	30472.0125
1171.49561	32189.4125
1175.10432	33985.3125
1178.71056	36049.2125
1182.31434	37983.4125
1185.91565	39024.3125
1189.51451	39039.5125
1193.11091	38461.7125
1196.70485	37444.5125
1200.29634	36283.8125
1203.88538	35650.5125
1207.47197	35673.0125
1211.05612	35697.8125
1214.63782	35110.2125
1218.21708	33745.0125
1221.79391	32053.3125
1225.36829	30713.0125
1228.94024	29870.8125
1232.50976	29334.9125
1236.07685	28997.2125
1239.6415	28923.3125
1243.20374	28957.3125
1246.76355	29198.0125
1250.32093	29710.4125
1253.8759	30340.1125
1257.42845	31140.2125
1260.97859	32041.2125
1264.52631	32941.1125
1268.07163	33834.7125
1271.61453	34822.3125
1275.15503	35900.8125
1278.69312	37249.6125
1282.22882	38839.6125
1285.76211	40654.2125
1289.29301	42843.4125
1292.82151	45571.5125
1296.34761	48730.0125
1299.87133	52060.4125
1303.39266	54946.9125
1306.9116	56880.0125
1310.42815	57831.3125
1313.94233	57878.1125
1317.45412	57509.3125
1320.96354	57333.1125
1324.47058	57426.1125
1327.97525	57825.9125
1331.47754	58023.0125
1334.97747	57849.3125
1338.47502	57329.8125
1341.97022	56501.8125
1345.46305	55371.9125
1348.95352	54127.2125
1352.44163	53036.4125
1355.92738	52563.6125
1359.41078	52928.7125
1362.89183	53260.0125
1366.37053	52267.7125
1369.84688	49021.5125
1373.32088	44708.3125
1376.79254	41677.6125
1380.26186	40958.7125
1383.72883	41791.5125
1387.19347	42482.4125
1390.65578	42572.5125
1394.11575	42586.2125
1397.57339	43083.4125
1401.0287	43915.6125
1404.48168	44374.3125
1407.93234	43806.9125
1411.38068	42254.8125
1414.82669	39928.5125
1418.27039	37434.4125
1421.71177	35189.3125
1425.15083	33573.7125
1428.58758	32805.5125
1432.02203	33073.7125
1435.45416	34241.3125
1438.88399	35637.2125
1442.31151	36851.8125
1445.73673	37659.9125
1449.15965	38364.5125
1452.58027	38827.2125
1455.9986	39075.2125
1459.41463	39374.3125
1462.82837	39823.8125
1466.23982	40355.4125
1469.64898	40722.1125
1473.05586	40953.6125
1476.46045	40727.5125
1479.86276	40249.6125
1483.26279	39565.8125
1486.66054	39219.3125
1490.05602	39126.5125
1493.44922	39347.7125
1496.84016	39672.6125
1500.22882	40193.0125
1503.61521	40920.1125
1506.99934	41719.0125
1510.38121	42490.1125
1513.76081	42883.3125
1517.13816	42834.6125
1520.51324	42826.9125
1523.88607	43079.5125
1527.25665	43724.5125
1530.62498	44136.9125
1533.99105	44072.7125
1537.35488	43326.3125
1540.71647	42001.0125
1544.07581	40349.4125
1547.4329	38651.9125
1550.78776	37303.8125
1554.14038	36329.3125
1557.49077	35680.5125
1560.83892	35366.1125
1564.18484	35180.8125
1567.52853	35270.9125
1570.86999	35736.0125
1574.20922	36820.3125
1577.54624	37964.5125
1580.88103	38897.1125
1584.2136	39924.4125
1587.54395	41463.0125
1590.87208	43398.5125
1594.19801	45440.8125
1597.52172	47012.4125
1600.84321	46689.3125
1604.16251	43926.5125
1607.47959	40066.2125
1610.79447	36377.8125
1614.10715	33080.7125
1617.41763	30457.0125
1620.7259	28592.9125
1624.03199	27639.1125
1627.33587	27674.8125
1630.63757	28665.8125
1633.93707	30949.3125
1637.23439	34662.4125
1640.52951	40002.5125
1643.82246	46216.1125
1647.11321	50962.7125
1650.40179	51593.4125
1653.68819	47560.8125
1656.97241	40790.6125
1660.25446	34039.2125
1663.53433	28859.2125
1666.81203	25388.0125
1670.08756	23145.4125
1673.36092	21725.1125
1676.63211	20868.3125
1679.90115	20250.2125
1683.16801	19791.3125
1686.43272	19402.9125
1689.69527	19167.4125
1692.95567	18967.2125
1696.2139	18841.4125
1699.46999	18709.4125
1702.72392	18561.7125
1705.97571	18476.6125
1709.22535	18375.2125
1712.47284	18321.4125
1715.71819	18438.8125
1718.96139	18226.5125
1722.20246	18060.6125
1725.44139	17966.3125
1728.67818	17845.3125
1731.91284	17687.3125
1735.14537	17584.0125
1738.37576	17503.5125
1741.60403	17421.2125
1744.83017	17306.1125
1748.05418	17244.9125
1751.27607	17211.1125
1754.49584	17199.2125
1757.71349	17159.5125
1760.92903	17165.8125
1764.14244	17149.1125
1767.35375	17094.6125
1770.56294	17045.3125
1773.77002	16973.6125
1776.97499	16913.6125
1780.17785	16881.8125
1783.37861	16838.6125
1786.57727	16794.9125
1789.77382	16737.4125
1792.96828	16713.6125
1796.16064	16668.7125
1799.3509	16573.3125
1802.53907	16530.2125
1805.72514	16474.9125
1808.90913	16436.7125
1812.09102	16355.4125
1815.27083	16322.4125
1818.44856	16299.4125
1821.6242	16269.3125
1824.79776	16240.7125
1827.96924	16200.1125
1831.13864	16193.9125
1834.30597	16194.0125
1837.47122	16188.2125
1840.6344	16145.2125
1843.7955	16159.4125
1846.95454	16091.0125
1850.11151	16091.0125
1853.26642	16075.7125
1856.41926	16061.2125
1859.57004	16042.0125
1862.71876	16008.4125
1865.86542	16002.6125
1869.01003	15968.9125
1872.15258	15929.6125
1875.29308	15913.3125
1878.43152	15842.5125
1881.56792	15842.9125
1884.70227	15801.0125
1887.83457	15794.6125
1890.96482	15782.7125
1894.09304	15722.7125
1897.21921	15703.2125
1900.34335	15675.6125
1903.46544	15651.1125
1906.58551	15646.8125
1909.70353	15602.4125
1912.81953	15549.3125
1915.93349	15527.8125
1919.04543	15492.4125
1922.15534	15446.8125
1925.26322	15423.2125
1928.36908	15333.7125
1931.47292	15314.2125
1934.57473	15259.9125
1937.67453	15234.7125
1940.77232	15152.0125
1943.86808	15137.4125
1946.96184	15093.9125
1950.05358	15010.5125
1953.14331	14989.2125
1956.23103	14951.5125
1959.31675	14920.5125
1962.40046	14851.0125
1965.48217	14801.8125
1968.56188	14729.5125
1971.63959	14650.3125
1974.7153	14614.4125
1977.78901	14571.6125
1980.86073	14485.5125
1983.93046	14464.7125
1986.99819	14377.9125
1990.06394	14331.2125
1993.1277	14325.2125
1996.18947	14296.6125
1999.24925	14244.0125
2002.30706	14179.5125
2005.36288	14117.5125
2008.41672	14073.9125
2011.46859	14067.1125
2014.51848	13979.8125
2017.56639	13940.8125
2020.61233	13891.6125
2023.6563	13843.5125
2026.6983	13829.2125
2029.73833	13777.1125
2032.7764	13734.7125
2035.8125	13704.9125
2038.84664	13671.4125
2041.87881	13657.5125
2044.90903	13652.4125
2047.93729	13594.6125
2050.96359	13595.3125
2053.98794	13545.0125
2057.01034	13559.6125
2060.03078	13544.6125
2063.04927	13505.0125
2066.06582	13521.6125
2069.08042	13472.4125
2072.09307	13497.0125
2075.10378	13433.7125
2078.11255	13405.1125
2081.11938	13433.8125
2084.12426	13434.9125
2087.12722	13422.2125
2090.12824	13367.3125
2093.12732	13378.2125
2096.12447	13383.7125
2099.11969	13360.5125
2102.11299	13361.4125
2105.10435	13343.8125
2108.09379	13324.6125
2111.08131	13356.0125
2114.0669	13360.1125
2117.05057	13366.7125
2120.03233	13375.1125
2123.01216	13414.0125
2125.99008	13383.0125
2128.96609	13376.1125
2131.94018	13376.3125
2134.91236	13376.0125
2137.88263	13359.8125
2140.851	13343.9125
2143.81746	13387.1125
2146.78201	13324.4125
2149.74466	13338.1125
2152.7054	13306.3125
2155.66425	13318.4125
2158.6212	13248.0125
2161.57625	13257.9125
2164.52941	13260.3125
2167.48067	13259.8125
2170.43004	13236.0125
2173.37752	13232.2125
2176.32311	13248.3125
2179.26681	13189.4125
2182.20863	13186.0125
2185.14856	13208.7125
2188.08661	13193.0125
2191.02278	13170.6125
2193.95707	13206.7125
2196.88948	13157.1125
2199.82001	13123.0125
2202.74867	13110.6125
2205.67545	13079.1125
2208.60037	13039.6125
2211.52341	13032.4125
2214.44458	13040.8125
2217.36388	12996.0125
2220.28132	12969.2125
2223.1969	12919.9125
2226.11061	12891.6125
2229.02246	12890.5125
2231.93245	12850.7125
2234.84058	12826.8125
2237.74686	12782.5125
2240.65128	12784.1125
2243.55385	12752.6125
2246.45456	12757.0125
2249.35343	12670.7125
2252.25044	12646.3125
2255.14561	12623.3125
2258.03893	12595.4125
2260.93041	12579.5125
2263.82004	12534.0125
2266.70783	12486.5125
2269.59378	12437.7125
2272.4779	12382.9125
2275.36017	12336.0125
2278.24061	12325.8125
2281.11922	12302.1125
2283.996	12282.3125
2286.87094	12255.4125
2289.74405	12231.6125
2292.61534	12209.2125
2295.4848	12192.4125
2298.35243	12178.8125
2301.21824	12174.4125
2304.08223	12164.3125
2306.94439	12163.6125
2309.80474	12151.5125
2312.66327	12136.5125
2315.51999	12128.4125
2318.37489	12080.2125
2321.22797	12073.8125
2324.07925	12073.5125
2326.92871	12030.7125
2329.77637	12013.7125
2332.62222	11978.8125
2335.46626	11985.4125
2338.3085	11956.0125
2341.14893	11957.7125
2343.98756	11947.2125
2346.8244	11967.0125
2349.65943	11946.5125
2352.49267	11939.2125
2355.32411	11928.5125
2358.15376	11900.6125
2360.98161	11898.7125
2363.80768	11906.2125
2366.63195	11904.5125
2369.45444	11885.7125
2372.27514	11878.2125
2375.09405	11837.1125
2377.91118	11805.5125
2380.72652	11770.6125
2383.54009	11753.9125
2386.35187	11741.5125
2389.16188	11697.9125
2391.97011	11647.8125
2394.77657	11640.3125
2397.58125	11615.2125
2400.38416	11583.1125
2403.18529	11550.0125
2405.98466	11558.1125
2408.78226	11556.0125
2411.57809	11544.1125
2414.37216	11527.9125
2417.16446	11527.5125
2419.955	11511.6125
2422.74378	11522.0125
2425.5308	11483.0125
2428.31606	11469.3125
2431.09956	11454.6125
2433.88131	11439.8125
2436.6613	11453.5125
2439.43954	11460.1125
2442.21603	11432.8125
2444.99077	11399.8125
2447.76377	11411.1125
2450.53501	11386.5125
2453.30451	11388.2125
2456.07226	11392.9125
2458.83827	11377.6125
2461.60254	11349.1125
2464.36507	11338.5125
2467.12586	11341.2125
2469.88492	11332.9125
2472.64224	11336.7125
2475.39782	11349.6125
2478.15167	11341.5125
2480.90379	11313.1125
2483.65417	11325.1125
2486.40283	11323.6125
2489.14976	11351.5125
2491.89497	11319.8125
2494.63845	11345.0125
2497.3802	11353.4125
2500.12024	11334.1125
2502.85855	11322.1125
2505.59514	11325.0125
2508.33002	11286.4125
2511.06318	11298.5125
2513.79462	11262.9125
2516.52435	11249.4125
2519.25237	11257.4125
2521.97867	11246.1125
2524.70327	11226.9125
2527.42616	11213.4125
2530.14734	11223.0125
2532.86681	11203.5125
2535.58458	11188.8125
2538.30065	11156.8125
2541.01501	11155.3125
2543.72768	11172.1125
2546.43864	11151.5125
2549.14791	11101.8125
2551.85548	11115.5125
2554.56136	11095.6125
2557.26554	11076.9125
2559.96803	11056.0125
2562.66883	11057.2125
2565.36794	11038.3125
2568.06536	10996.1125
2570.7611	11027.0125
2573.45514	11033.3125
2576.14751	10987.0125
2578.83819	10962.0125
2581.52719	10978.8125
2584.21451	10949.6125
2586.90015	10971.7125
2589.58411	10963.8125
2592.2664	10943.1125
2594.94701	10912.7125
2597.62594	10914.5125
2600.30321	10913.3125
2602.9788	10915.3125
2605.65273	10914.7125
2608.32498	10898.4125
2610.99557	10896.8125
2613.66449	10900.5125
2616.33175	10908.4125
2618.99734	10902.9125
2621.66128	10898.0125
2624.32355	10898.5125
2626.98416	10871.4125
2629.64311	10875.1125
2632.30041	10859.1125
2634.95605	10857.4125
2637.61004	10848.8125
2640.26238	10831.9125
2642.91306	10825.4125
2645.56209	10821.0125
2648.20948	10822.6125
2650.85521	10833.0125
2653.4993	10839.6125
2656.14175	10843.2125
2658.78255	10851.8125
2661.42171	10850.5125
2664.05923	10871.9125
2666.6951	10863.7125
2669.32934	10908.0125
2671.96194	10853.1125
2674.59291	10834.1125
2677.22224	10857.5125
2679.84993	10869.3125
2682.476	10833.8125
2685.10043	10849.2125
2687.72324	10836.0125
2690.34441	10829.4125
2692.96396	10805.6125
2695.58188	10845.6125
2698.19818	10805.5125
2700.81285	10871.1125
2703.4259	10855.6125
2706.03733	10899.9125
2708.64714	10846.7125
2711.25533	10877.3125
2713.86191	10848.4125
2716.46687	10877.1125
2719.07021	10870.8125
2721.67194	10887.9125
2724.27206	10885.0125
2726.87057	10882.6125
2729.46747	10899.9125
2732.06276	10898.9125
2734.65644	10895.9125
2737.24852	10877.1125
2739.83899	10877.0125
2742.42786	10885.6125
2745.01513	10874.2125
2747.60079	10861.7125
2750.18486	10879.6125
2752.76733	10830.4125
2755.3482	10821.7125
2757.92747	10827.7125
2760.50515	10808.9125
2763.08123	10833.4125
2765.65573	10834.0125
2768.22863	10810.8125
2770.79994	10801.1125
2773.36967	10785.7125
2775.9378	10809.0125
2778.50435	10804.8125
2781.06932	10817.1125
2783.6327	10813.4125
2786.1945	10800.8125
2788.75471	10812.7125
2791.31335	10799.5125
2793.87041	10758.0125
2796.42589	10751.9125
2798.97979	10737.5125
2801.53212	10751.6125
2804.08288	10716.2125
2806.63206	10656.6125
2809.17967	10677.6125
2811.72571	10621.1125
2814.27018	10598.0125
2816.81308	10549.9125
2819.35442	10559.3125
2821.89419	10535.3125
2824.43239	10547.0125
2826.96904	10521.0125
2829.50412	10516.0125
2832.03763	10488.6125
2834.56959	10489.3125
2837.1	10493.8125
2839.62884	10510.8125
2842.15613	10508.5125
2844.68186	10573.0125
2847.20604	10546.6125
2849.72867	10554.0125
2852.24974	10574.4125
2854.76927	10581.9125
2857.28724	10575.9125
2859.80367	10560.9125
2862.31855	10483.6125
2864.83189	10485.1125
2867.34368	10471.1125
2869.85393	10462.6125
2872.36264	10440.4125
2874.8698	10422.4125
2877.37543	10402.8125
2879.87952	10376.6125
2882.38207	10384.6125
2884.88308	10393.7125
2887.38256	10387.5125
2889.88051	10380.0125
2892.37692	10416.7125
2894.8718	10411.9125
2897.36515	10418.8125
2899.85698	10411.1125
2902.34727	10442.7125
2904.83604	10426.5125
2907.32328	10448.4125
2909.809	10436.8125
2912.29319	10424.8125
2914.77587	10416.8125
2917.25702	10433.3125
2919.73665	10421.8125
2922.21476	10427.0125
2924.69136	10423.3125
2927.16644	10421.1125
2929.64	10421.2125
2932.11205	10379.6125
2934.58258	10358.6125
2937.05161	10385.0125
2939.51912	10373.7125
2941.98513	10362.8125
2944.44962	10314.7125
2946.91261	10264.9125
2949.37409	10262.8125
2951.83407	10206.2125
2954.29254	10219.4125
2956.74951	10211.0125
2959.20498	10192.3125
2961.65895	10166.8125
2964.11142	10173.0125
2966.56239	10135.6125
2969.01186	10132.6125
2971.45984	10102.2125
2973.90632	10113.0125
2976.35131	10071.2125
2978.7948	10047.6125
2981.23681	10039.2125
2983.67732	10000.5125
2986.11635	9968.6125
2988.55388	9933.0125
2990.98993	9887.9125
2993.4245	9893.1125
2995.85758	9809.8125
2998.28917	9793.2125
3000.71928	9778.3125
3003.14791	9737.0125
3005.57506	9749.0125
3008.00073	9678.2125
3010.42493	9575.1125
3012.84764	9670.6125
3015.26888	9628.0125
3017.68865	9588.1125
3020.10694	9580.8125
3022.52376	9566.0125
3024.9391	9575.5125
