Data from AgNPs_FTO_APTES_UA_5uM_CRN_100uM_R6G_10uM_NaF_0.1M_Addition_RamanShift__13__14-51-26-881.txt Node

Date: Mon Feb 07 14:51:26 GMT 2022
User: TCL
Spectrometer: QEP01345
Trigger mode: 4
Integration Time (sec): 7.000000E0
Scans to average: 10
Electric dark correction enabled: true
Nonlinearity correction enabled: false
Boxcar width: 0
XAxis mode: Raman Shifts
Number of Pixels in Spectrum: 1044
>>>>>Begin Spectral Data<<<<<
46.04893	0.6125
50.45542	-0.9875
54.85868	-1.0875
59.25871	-0.3875
63.6555	54.0125
68.04907	61.1125
72.43941	61.0125
76.82654	64.6125
81.21044	66.9125
85.59113	70.8125
89.96862	72.8125
94.34289	73.7125
98.71396	74.2125
103.08183	79.9125
107.4465	79.8125
111.80798	83.9125
116.16626	89.2125
120.52136	88.7125
124.87327	94.8125
129.222	102.7125
133.56755	112.7125
137.90993	117.8125
142.24913	128.4125
146.58517	149.8125
150.91804	174.7125
155.24774	206.4125
159.57429	265.0125
163.89768	339.2125
168.21792	458.9125
172.53501	627.1125
176.84895	869.7125
181.15975	1237.0125
185.46741	1737.5125
189.77193	2415.4125
194.07331	3237.0125
198.37157	4184.1125
202.6667	5185.4125
206.9587	6165.8125
211.24758	7122.0125
215.53334	8066.0125
219.81599	9091.4125
224.09553	10160.6125
228.37195	11342.2125
232.64527	12629.9125
236.91549	14009.4125
241.18261	15425.3125
245.44663	16796.6125
249.70755	18045.0125
253.96539	19212.0125
258.22014	20119.4125
262.4718	20890.4125
266.72039	21425.9125
270.96589	21691.8125
275.20832	21775.4125
279.44768	21787.0125
283.68397	21700.0125
287.91719	21656.5125
292.14735	21555.3125
296.37445	21545.7125
300.59849	21617.9125
304.81948	21564.0125
309.03742	21460.0125
313.25231	21211.3125
317.46415	20782.7125
321.67296	20297.1125
325.87872	19874.3125
330.08145	19683.0125
334.28114	19646.6125
338.47781	19754.5125
342.67145	19935.5125
346.86207	20103.8125
351.04966	20327.2125
355.23424	20570.2125
359.4158	20692.3125
363.59435	20854.2125
367.76989	20991.0125
371.94243	21067.8125
376.11196	21111.2125
380.27849	21158.2125
384.44203	21204.0125
388.60257	21314.2125
392.76012	21543.6125
396.91468	21856.1125
401.06626	22249.3125
405.21485	22493.9125
409.36047	22519.8125
413.50311	22325.2125
417.64277	22189.4125
421.77947	22240.3125
425.9132	22300.8125
430.04396	22412.3125
434.17176	22546.5125
438.2966	22719.2125
442.41849	22916.0125
446.53742	23257.2125
450.6534	23724.3125
454.76644	24012.1125
458.87653	24203.8125
462.98368	24249.1125
467.08789	24165.8125
471.18916	24060.9125
475.2875	23991.5125
479.38291	23885.5125
483.4754	23832.4125
487.56496	23686.5125
491.6516	23421.0125
495.73531	23121.2125
499.81612	22883.0125
503.89401	22866.4125
507.96899	22927.8125
512.04106	22985.4125
516.11023	22944.7125
520.1765	22746.3125
524.23987	22530.1125
528.30034	22252.0125
532.35792	22116.9125
536.41261	21949.5125
540.46441	21800.7125
544.51333	21857.6125
548.55936	22123.2125
552.60252	22622.5125
556.64279	22987.5125
560.6802	23354.5125
564.71473	23614.8125
568.7464	24043.2125
572.7752	24719.2125
576.80114	25622.5125
580.82422	26405.4125
584.84444	26972.5125
588.86181	27229.8125
592.87633	27295.7125
596.888	27134.4125
600.89682	26712.1125
604.9028	26495.1125
608.90594	26985.4125
612.90624	27553.1125
616.90371	26095.7125
620.89834	23486.9125
624.89015	22404.8125
628.87913	22394.7125
632.86528	22603.4125
636.84862	22703.9125
640.82913	22467.5125
644.80683	22061.0125
648.78172	21795.1125
652.75379	21645.2125
656.72306	21776.9125
660.68952	21963.9125
664.65319	21923.6125
668.61405	21773.2125
672.57211	21777.6125
676.52738	21798.5125
680.47986	21783.0125
684.42955	21721.0125
688.37646	21662.3125
692.32058	21727.0125
696.26192	21883.9125
700.20048	22084.9125
704.13626	22265.3125
708.06928	22433.1125
711.99952	22439.8125
715.927	22339.8125
719.85171	22240.7125
723.77365	22062.7125
727.69284	21822.5125
731.60928	21596.4125
735.52295	21462.2125
739.43388	21360.6125
743.34206	21399.8125
747.24749	21514.2125
751.15017	21710.3125
755.05012	22058.9125
758.94733	22593.2125
762.8418	23432.9125
766.73354	24647.8125
770.62254	25761.5125
774.50882	25749.6125
778.39237	24735.7125
782.27321	23515.9125
786.15132	22543.4125
790.02671	21886.2125
793.89938	21467.3125
797.76935	21270.0125
801.6366	21184.5125
805.50115	21120.4125
809.36299	21037.2125
813.22213	20970.2125
817.07857	20961.0125
820.93231	20969.3125
824.78336	20890.7125
828.63172	20871.3125
832.47738	20774.8125
836.32036	20722.0125
840.16066	20698.3125
843.99827	20682.5125
847.8332	20686.4125
851.66546	20681.7125
855.49504	20724.9125
859.32195	20726.4125
863.1462	20639.1125
866.96777	20619.9125
870.78668	20641.6125
874.60293	20628.7125
878.41652	20609.0125
882.22745	20623.1125
886.03573	20648.3125
889.84136	20675.1125
893.64433	20648.6125
897.44466	20631.6125
901.24235	20615.1125
905.0374	20552.4125
908.8298	20555.8125
912.61957	20655.4125
916.40671	20890.2125
920.19121	21219.5125
923.97308	21364.3125
927.75233	21200.8125
931.52895	20933.9125
935.30295	20655.5125
939.07433	20336.9125
942.84309	20134.9125
946.60924	19955.9125
950.37278	19833.2125
954.13371	19770.4125
957.89203	19740.6125
961.64774	19742.9125
965.40086	19745.0125
969.15137	19675.2125
972.89929	19582.2125
976.64461	19498.7125
980.38733	19445.6125
984.12747	19416.2125
987.86502	19466.7125
991.59999	19512.7125
995.33237	19581.1125
999.06217	19694.6125
1002.78939	19840.6125
1006.51404	20032.6125
1010.23611	20274.8125
1013.95561	20378.9125
1017.67255	20417.5125
1021.38692	20342.9125
1025.09872	20196.4125
1028.80796	20070.2125
1032.51465	20042.0125
1036.21877	20064.3125
1039.92035	20109.2125
1043.61937	20267.1125
1047.31584	20327.5125
1051.00976	20423.7125
1054.70114	20593.7125
1058.38998	20755.5125
1062.07627	21080.4125
1065.76003	21396.3125
1069.44126	21659.7125
1073.11995	21850.2125
1076.79611	22045.3125
1080.46974	22083.4125
1084.14085	22105.9125
1087.80943	22159.9125
1091.47549	22360.0125
1095.13903	22518.4125
1098.80005	22446.8125
1102.45857	22065.6125
1106.11456	21542.1125
1109.76805	21213.0125
1113.41903	21096.0125
1117.06751	21109.1125
1120.71348	21234.2125
1124.35696	21415.3125
1127.99793	21645.0125
1131.63641	21854.2125
1135.2724	21813.7125
1138.90589	21754.0125
1142.5369	21797.8125
1146.16542	21914.3125
1149.79145	22167.0125
1153.415	22379.0125
1157.03607	22694.1125
1160.65467	23150.9125
1164.27079	23947.0125
1167.88443	24791.8125
1171.49561	25765.9125
1175.10432	26846.1125
1178.71056	28093.0125
1182.31434	29364.6125
1185.91565	30314.7125
1189.51451	30785.6125
1193.11091	30796.7125
1196.70485	30235.9125
1200.29634	29348.2125
1203.88538	28614.5125
1207.47197	28149.1125
1211.05612	27979.5125
1214.63782	27606.5125
1218.21708	26951.9125
1221.79391	26085.5125
1225.36829	25340.9125
1228.94024	24835.9125
1232.50976	24588.7125
1236.07685	24508.9125
1239.6415	24491.5125
1243.20374	24577.3125
1246.76355	24711.8125
1250.32093	24920.1125
1253.8759	25271.9125
1257.42845	25857.2125
1260.97859	26423.2125
1264.52631	26972.8125
1268.07163	27488.6125
1271.61453	28039.9125
1275.15503	28594.9125
1278.69312	29230.2125
1282.22882	29982.6125
1285.76211	30785.4125
1289.29301	31645.7125
1292.82151	32699.0125
1296.34761	34058.8125
1299.87133	35462.4125
1303.39266	36832.7125
1306.9116	37968.4125
1310.42815	38729.4125
1313.94233	38884.4125
1317.45412	38792.9125
1320.96354	38754.9125
1324.47058	38922.5125
1327.97525	39134.0125
1331.47754	39454.0125
1334.97747	39775.9125
1338.47502	40082.7125
1341.97022	40502.0125
1345.46305	40726.2125
1348.95352	40548.6125
1352.44163	39998.4125
1355.92738	39361.7125
1359.41078	38940.9125
1362.89183	38736.0125
1366.37053	37884.7125
1369.84688	35936.3125
1373.32088	33559.5125
1376.79254	31716.2125
1380.26186	30943.7125
1383.72883	30904.7125
1387.19347	30964.5125
1390.65578	30849.8125
1394.11575	30729.4125
1397.57339	30670.6125
1401.0287	30881.9125
1404.48168	30927.6125
1407.93234	30709.6125
1411.38068	30086.0125
1414.82669	29107.9125
1418.27039	27908.7125
1421.71177	26855.0125
1425.15083	25951.0125
1428.58758	25473.6125
1432.02203	25457.8125
1435.45416	25846.1125
1438.88399	26355.3125
1442.31151	26850.7125
1445.73673	27239.4125
1449.15965	27678.5125
1452.58027	28085.5125
1455.9986	28394.7125
1459.41463	28780.4125
1462.82837	29141.8125
1466.23982	29580.5125
1469.64898	29986.9125
1473.05586	30217.2125
1476.46045	30263.6125
1479.86276	30237.2125
1483.26279	30167.3125
1486.66054	30124.0125
1490.05602	30290.2125
1493.44922	30608.1125
1496.84016	31138.9125
1500.22882	31890.8125
1503.61521	32780.2125
1506.99934	33619.8125
1510.38121	34253.3125
1513.76081	34419.4125
1517.13816	34227.4125
1520.51324	33824.1125
1523.88607	33594.0125
1527.25665	33533.9125
1530.62498	33436.1125
1533.99105	33063.8125
1537.35488	32581.5125
1540.71647	31792.2125
1544.07581	30883.0125
1547.4329	29951.7125
1550.78776	29215.9125
1554.14038	28677.4125
1557.49077	28380.3125
1560.83892	28265.5125
1564.18484	28311.7125
1567.52853	28424.0125
1570.86999	28543.4125
1574.20922	28899.2125
1577.54624	29285.7125
1580.88103	29373.4125
1584.2136	29411.6125
1587.54395	29769.9125
1590.87208	30479.4125
1594.19801	31409.2125
1597.52172	32380.1125
1600.84321	32447.6125
1604.16251	31423.6125
1607.47959	29896.5125
1610.79447	28108.3125
1614.10715	26501.9125
1617.41763	24954.0125
1620.7259	23807.5125
1624.03199	23030.6125
1627.33587	22785.8125
1630.63757	22972.5125
1633.93707	23870.0125
1637.23439	25446.5125
1640.52951	27821.2125
1643.82246	30771.9125
1647.11321	33552.8125
1650.40179	34969.3125
1653.68819	34093.5125
1656.97241	31385.2125
1660.25446	27945.9125
1663.53433	24820.7125
1666.81203	22441.3125
1670.08756	20830.0125
1673.36092	19741.5125
1676.63211	19040.7125
1679.90115	18561.5125
1683.16801	18233.5125
1686.43272	17965.7125
1689.69527	17800.0125
1692.95567	17636.4125
1696.2139	17537.6125
1699.46999	17479.8125
1702.72392	17399.1125
1705.97571	17273.4125
1709.22535	17237.2125
1712.47284	17229.4125
1715.71819	17163.4125
1718.96139	17092.7125
1722.20246	17015.9125
1725.44139	16948.7125
1728.67818	16852.1125
1731.91284	16736.8125
1735.14537	16663.5125
1738.37576	16594.8125
1741.60403	16549.6125
1744.83017	16461.0125
1748.05418	16427.9125
1751.27607	16405.5125
1754.49584	16338.8125
1757.71349	16357.0125
1760.92903	16323.0125
1764.14244	16349.7125
1767.35375	16298.7125
1770.56294	16268.6125
1773.77002	16222.6125
1776.97499	16142.8125
1780.17785	16099.3125
1783.37861	16112.6125
1786.57727	16055.8125
1789.77382	16044.9125
1792.96828	16018.8125
1796.16064	15949.5125
1799.3509	15910.0125
1802.53907	15839.3125
1805.72514	15774.4125
1808.90913	15733.9125
1812.09102	15710.9125
1815.27083	15657.5125
1818.44856	15616.1125
1821.6242	15591.9125
1824.79776	15561.1125
1827.96924	15511.0125
1831.13864	15528.3125
1834.30597	15507.6125
1837.47122	15463.7125
1840.6344	15499.7125
1843.7955	15472.4125
1846.95454	15488.1125
1850.11151	15428.9125
1853.26642	15438.2125
1856.41926	15402.5125
1859.57004	15399.4125
1862.71876	15382.5125
1865.86542	15328.3125
1869.01003	15311.2125
1872.15258	15286.0125
1875.29308	15281.5125
1878.43152	15208.7125
1881.56792	15193.8125
1884.70227	15159.1125
1887.83457	15139.7125
1890.96482	15070.2125
1894.09304	15078.8125
1897.21921	15042.1125
1900.34335	15034.6125
1903.46544	15015.6125
1906.58551	15005.7125
1909.70353	14966.7125
1912.81953	14899.0125
1915.93349	14908.7125
1919.04543	14853.0125
1922.15534	14849.9125
1925.26322	14765.7125
1928.36908	14744.6125
1931.47292	14718.4125
1934.57473	14692.0125
1937.67453	14649.2125
1940.77232	14610.1125
1943.86808	14542.4125
1946.96184	14522.0125
1950.05358	14472.3125
1953.14331	14418.4125
1956.23103	14383.3125
1959.31675	14339.2125
1962.40046	14292.5125
1965.48217	14216.4125
1968.56188	14221.5125
1971.63959	14107.3125
1974.7153	14092.9125
1977.78901	14022.9125
1980.86073	13974.2125
1983.93046	13931.1125
1986.99819	13875.9125
1990.06394	13862.7125
1993.1277	13814.7125
1996.18947	13764.2125
1999.24925	13685.9125
2002.30706	13670.3125
2005.36288	13620.5125
2008.41672	13572.8125
2011.46859	13545.6125
2014.51848	13493.3125
2017.56639	13441.0125
2020.61233	13386.4125
2023.6563	13340.9125
2026.6983	13317.2125
2029.73833	13275.2125
2032.7764	13215.2125
2035.8125	13194.4125
2038.84664	13140.4125
2041.87881	13134.0125
2044.90903	13115.5125
2047.93729	13062.9125
2050.96359	13061.0125
2053.98794	13027.3125
2057.01034	13026.5125
2060.03078	13032.0125
2063.04927	12977.5125
2066.06582	12995.9125
2069.08042	12990.3125
2072.09307	12978.9125
2075.10378	12948.0125
2078.11255	12906.8125
2081.11938	12942.4125
2084.12426	12943.0125
2087.12722	12894.8125
2090.12824	12882.3125
2093.12732	12889.1125
2096.12447	12896.1125
2099.11969	12837.2125
2102.11299	12861.2125
2105.10435	12854.0125
2108.09379	12855.1125
2111.08131	12861.7125
2114.0669	12855.1125
2117.05057	12886.5125
2120.03233	12899.1125
2123.01216	12878.3125
2125.99008	12890.2125
2128.96609	12919.6125
2131.94018	12887.3125
2134.91236	12893.0125
2137.88263	12913.0125
2140.851	12908.7125
2143.81746	12927.2125
2146.78201	12890.3125
2149.74466	12900.0125
2152.7054	12873.4125
2155.66425	12844.7125
2158.6212	12873.2125
2161.57625	12796.3125
2164.52941	12832.8125
2167.48067	12805.4125
2170.43004	12798.6125
2173.37752	12783.6125
2176.32311	12758.3125
2179.26681	12774.3125
2182.20863	12771.3125
2185.14856	12740.3125
2188.08661	12755.6125
2191.02278	12765.3125
2193.95707	12738.5125
2196.88948	12722.2125
2199.82001	12695.3125
2202.74867	12688.9125
2205.67545	12646.8125
2208.60037	12635.9125
2211.52341	12612.1125
2214.44458	12594.3125
2217.36388	12573.9125
2220.28132	12547.1125
2223.1969	12501.8125
2226.11061	12498.1125
2229.02246	12460.5125
2231.93245	12428.6125
2234.84058	12403.6125
2237.74686	12367.3125
2240.65128	12342.4125
2243.55385	12315.7125
2246.45456	12294.1125
2249.35343	12254.0125
2252.25044	12298.4125
2255.14561	12233.0125
2258.03893	12228.2125
2260.93041	12186.5125
2263.82004	12133.2125
2266.70783	12122.8125
2269.59378	12016.8125
2272.4779	12016.5125
2275.36017	11993.5125
2278.24061	11962.7125
2281.11922	11915.5125
2283.996	11908.6125
2286.87094	11867.5125
2289.74405	11887.0125
2292.61534	11837.9125
2295.4848	11845.9125
2298.35243	11806.3125
2301.21824	11793.8125
2304.08223	11799.0125
2306.94439	11769.6125
2309.80474	11754.7125
2312.66327	11762.4125
2315.51999	11748.3125
2318.37489	11709.8125
2321.22797	11679.4125
2324.07925	11662.6125
2326.92871	11645.3125
2329.77637	11636.4125
2332.62222	11597.7125
2335.46626	11578.6125
2338.3085	11559.3125
2341.14893	11547.9125
2343.98756	11556.7125
2346.8244	11543.1125
2349.65943	11518.2125
2352.49267	11493.8125
2355.32411	11517.9125
2358.15376	11503.0125
2360.98161	11460.9125
2363.80768	11480.7125
2366.63195	11495.4125
2369.45444	11464.7125
2372.27514	11473.7125
2375.09405	11433.4125
2377.91118	11411.2125
2380.72652	11339.8125
2383.54009	11362.9125
2386.35187	11338.9125
2389.16188	11304.9125
2391.97011	11241.8125
2394.77657	11231.3125
2397.58125	11222.8125
2400.38416	11168.6125
2403.18529	11164.9125
2405.98466	11123.7125
2408.78226	11103.6125
2411.57809	11112.4125
2414.37216	11097.6125
2417.16446	11102.7125
2419.955	11094.3125
2422.74378	11080.7125
2425.5308	11032.4125
2428.31606	11034.3125
2431.09956	11028.9125
2433.88131	11005.1125
2436.6613	11009.2125
2439.43954	10981.7125
2442.21603	10978.1125
2444.99077	10958.0125
2447.76377	10938.9125
2450.53501	10934.8125
2453.30451	10909.7125
2456.07226	10916.6125
2458.83827	10896.8125
2461.60254	10890.7125
2464.36507	10865.4125
2467.12586	10873.1125
2469.88492	10850.5125
2472.64224	10866.5125
2475.39782	10846.7125
2478.15167	10843.5125
2480.90379	10790.3125
2483.65417	10794.1125
2486.40283	10809.1125
2489.14976	10821.9125
2491.89497	10777.4125
2494.63845	10808.0125
2497.3802	10788.5125
2500.12024	10775.1125
2502.85855	10791.7125
2505.59514	10747.5125
2508.33002	10739.9125
2511.06318	10743.5125
2513.79462	10711.1125
2516.52435	10713.5125
2519.25237	10722.5125
2521.97867	10685.4125
2524.70327	10669.1125
2527.42616	10629.9125
2530.14734	10659.3125
2532.86681	10634.6125
2535.58458	10633.6125
2538.30065	10599.0125
2541.01501	10582.7125
2543.72768	10576.3125
2546.43864	10544.1125
2549.14791	10514.9125
2551.85548	10532.9125
2554.56136	10489.1125
2557.26554	10477.1125
2559.96803	10462.4125
2562.66883	10439.7125
2565.36794	10434.4125
2568.06536	10381.1125
2570.7611	10370.9125
2573.45514	10362.1125
2576.14751	10335.7125
2578.83819	10295.3125
2581.52719	10335.2125
2584.21451	10284.5125
2586.90015	10308.8125
2589.58411	10272.4125
2592.2664	10223.9125
2594.94701	10228.6125
2597.62594	10220.8125
2600.30321	10200.8125
2602.9788	10173.6125
2605.65273	10172.7125
2608.32498	10169.0125
2610.99557	10152.9125
2613.66449	10158.4125
2616.33175	10118.9125
2618.99734	10157.4125
2621.66128	10088.7125
2624.32355	10103.0125
2626.98416	10073.8125
2629.64311	10058.4125
2632.30041	10064.3125
2634.95605	10027.6125
2637.61004	10038.5125
2640.26238	10028.0125
2642.91306	10012.1125
2645.56209	10013.5125
2648.20948	10028.9125
2650.85521	9999.4125
2653.4993	10021.5125
2656.14175	9988.3125
2658.78255	10006.8125
2661.42171	9974.3125
2664.05923	10000.4125
2666.6951	9992.4125
2669.32934	10030.1125
2671.96194	10011.4125
2674.59291	9993.2125
2677.22224	9975.7125
2679.84993	10011.2125
2682.476	9969.4125
2685.10043	9957.4125
2687.72324	9966.1125
2690.34441	9950.5125
2692.96396	9936.8125
2695.58188	9949.8125
2698.19818	9953.9125
2700.81285	9961.7125
2703.4259	9961.7125
2706.03733	10012.1125
2708.64714	9981.6125
2711.25533	9996.5125
2713.86191	9971.2125
2716.46687	9982.0125
2719.07021	9976.5125
2721.67194	9958.8125
2724.27206	9940.3125
2726.87057	9953.5125
2729.46747	9962.3125
2732.06276	9963.0125
2734.65644	9971.4125
2737.24852	9955.0125
2739.83899	9928.2125
2742.42786	9942.6125
2745.01513	9906.9125
2747.60079	9900.3125
2750.18486	9883.8125
2752.76733	9865.2125
2755.3482	9831.1125
2757.92747	9854.4125
2760.50515	9826.4125
2763.08123	9830.2125
2765.65573	9830.8125
2768.22863	9825.6125
2770.79994	9783.4125
2773.36967	9795.0125
2775.9378	9803.4125
2778.50435	9745.6125
2781.06932	9741.6125
2783.6327	9778.8125
2786.1945	9771.6125
2788.75471	9775.5125
2791.31335	9725.0125
2793.87041	9719.7125
2796.42589	9698.4125
2798.97979	9665.3125
2801.53212	9655.5125
2804.08288	9633.8125
2806.63206	9599.5125
2809.17967	9575.6125
2811.72571	9564.5125
2814.27018	9540.9125
2816.81308	9519.4125
2819.35442	9518.0125
2821.89419	9459.0125
2824.43239	9498.8125
2826.96904	9461.6125
2829.50412	9461.1125
2832.03763	9433.0125
2834.56959	9426.7125
2837.1	9424.2125
2839.62884	9422.5125
2842.15613	9434.0125
2844.68186	9467.6125
2847.20604	9498.8125
2849.72867	9489.6125
2852.24974	9487.7125
2854.76927	9465.8125
2857.28724	9463.3125
2859.80367	9434.2125
2862.31855	9428.6125
2864.83189	9391.0125
2867.34368	9383.5125
2869.85393	9379.2125
2872.36264	9348.6125
2874.8698	9336.6125
2877.37543	9316.7125
2879.87952	9303.8125
2882.38207	9303.8125
2884.88308	9319.7125
2887.38256	9303.4125
2889.88051	9302.1125
2892.37692	9306.1125
2894.8718	9294.1125
2897.36515	9293.2125
2899.85698	9268.5125
2902.34727	9309.3125
2904.83604	9305.4125
2907.32328	9300.8125
2909.809	9288.4125
2912.29319	9295.3125
2914.77587	9291.4125
2917.25702	9274.1125
2919.73665	9281.1125
2922.21476	9310.0125
2924.69136	9278.9125
2927.16644	9280.0125
2929.64	9251.0125
2932.11205	9235.9125
2934.58258	9238.8125
2937.05161	9229.7125
2939.51912	9245.6125
2941.98513	9223.0125
2944.44962	9196.1125
2946.91261	9137.7125
2949.37409	9145.3125
2951.83407	9119.9125
2954.29254	9101.6125
2956.74951	9096.1125
2959.20498	9100.9125
2961.65895	9066.6125
2964.11142	9072.9125
2966.56239	9050.7125
2969.01186	9047.2125
2971.45984	9042.3125
2973.90632	9029.2125
2976.35131	9015.6125
2978.7948	8992.0125
2981.23681	8971.8125
2983.67732	8949.4125
2986.11635	8928.0125
2988.55388	8906.0125
2990.98993	8877.6125
2993.4245	8840.5125
2995.85758	8822.4125
2998.28917	8811.9125
3000.71928	8769.4125
3003.14791	8733.1125
3005.57506	8751.7125
3008.00073	8717.2125
3010.42493	8591.9125
3012.84764	8676.7125
3015.26888	8678.1125
3017.68865	8636.2125
3020.10694	8645.6125
3022.52376	8603.1125
3024.9391	8594.2125
3027.35298	8599.2125
3029.76539	8557.9125
3032.17632	8559.9125
3034.5858	8534.4125
3036.9938	8535.7125
3039.40034	8521.1125
3041.80542	8530.5125
