Data from AgNPs_FTO_APTES_UA_5uM_CRN_1000uM_R6G_10uM_NaF_0.1M_Addition_RamanShift__27__17-55-21-897.txt Node

Date: Mon Feb 07 17:55:21 GMT 2022
User: TCL
Spectrometer: QEP01345
Trigger mode: 4
Integration Time (sec): 7.000000E0
Scans to average: 10
Electric dark correction enabled: true
Nonlinearity correction enabled: false
Boxcar width: 0
XAxis mode: Raman Shifts
Number of Pixels in Spectrum: 1044
>>>>>Begin Spectral Data<<<<<
46.04893	-1.7875
50.45542	0.6125
54.85868	1.3125
59.25871	-0.4875
63.6555	54.0125
68.04907	57.3125
72.43941	63.0125
76.82654	62.1125
81.21044	61.7125
85.59113	63.3125
89.96862	65.6125
94.34289	70.4125
98.71396	69.1125
103.08183	75.2125
107.4465	77.8125
111.80798	79.3125
116.16626	80.6125
120.52136	85.8125
124.87327	89.5125
129.222	95.6125
133.56755	99.8125
137.90993	109.7125
142.24913	124.6125
146.58517	139.2125
150.91804	163.0125
155.24774	197.1125
159.57429	253.2125
163.89768	322.5125
168.21792	434.4125
172.53501	594.3125
176.84895	829.7125
181.15975	1170.6125
185.46741	1647.9125
189.77193	2270.9125
194.07331	3043.1125
198.37157	3925.4125
202.6667	4877.7125
206.9587	5807.4125
211.24758	6760.5125
215.53334	7734.7125
219.81599	8780.8125
224.09553	10008.1125
228.37195	11307.7125
232.64527	12733.4125
236.91549	14145.4125
241.18261	15501.7125
245.44663	16686.1125
249.70755	17662.8125
253.96539	18523.7125
258.22014	19254.7125
262.4718	19909.7125
266.72039	20338.6125
270.96589	20544.0125
275.20832	20568.6125
279.44768	20405.0125
283.68397	20184.4125
287.91719	20011.1125
292.14735	20080.0125
296.37445	20374.2125
300.59849	20897.6125
304.81948	21515.7125
309.03742	21872.0125
313.25231	21710.9125
317.46415	20812.3125
321.67296	19460.6125
325.87872	18299.5125
330.08145	17771.0125
334.28114	17752.3125
338.47781	17936.4125
342.67145	18343.3125
346.86207	19007.7125
351.04966	19903.5125
355.23424	20924.1125
359.4158	21723.0125
363.59435	22043.5125
367.76989	22146.6125
371.94243	22127.1125
376.11196	22064.2125
380.27849	21962.7125
384.44203	21860.6125
388.60257	21698.6125
392.76012	21618.9125
396.91468	21770.8125
401.06626	22270.9125
405.21485	22638.0125
409.36047	22347.0125
413.50311	21398.4125
417.64277	20524.1125
421.77947	20072.3125
425.9132	19936.8125
430.04396	20032.1125
434.17176	20248.6125
438.2966	20601.1125
442.41849	21173.2125
446.53742	21958.7125
450.6534	22803.2125
454.76644	23325.2125
458.87653	23352.5125
462.98368	23015.0125
467.08789	22608.5125
471.18916	22200.5125
475.2875	21918.3125
479.38291	21728.4125
483.4754	21432.6125
487.56496	21035.6125
491.6516	20550.1125
495.73531	20138.8125
499.81612	19930.3125
503.89401	20026.6125
507.96899	20171.9125
512.04106	20248.4125
516.11023	20351.0125
520.1765	20376.7125
524.23987	20328.2125
528.30034	20123.0125
532.35792	19864.2125
536.41261	19558.0125
540.46441	19189.1125
544.51333	18990.8125
548.55936	19218.4125
552.60252	19654.4125
556.64279	20355.7125
560.6802	20915.7125
564.71473	21395.3125
568.7464	22362.7125
572.7752	23072.0125
576.80114	22667.0125
580.82422	21808.7125
584.84444	21465.2125
588.86181	21675.2125
592.87633	22230.3125
596.888	22592.3125
600.89682	22591.1125
604.9028	23868.8125
608.90594	28576.9125
612.90624	35257.1125
616.90371	33745.4125
620.89834	24457.9125
624.89015	20037.9125
628.87913	19283.0125
632.86528	19384.3125
636.84862	19589.0125
640.82913	19230.1125
644.80683	18463.3125
648.78172	17827.3125
652.75379	17782.0125
656.72306	18282.1125
660.68952	19068.3125
664.65319	18955.5125
668.61405	18259.7125
672.57211	17884.2125
676.52738	17898.6125
680.47986	17924.3125
684.42955	17768.3125
688.37646	17628.9125
692.32058	17652.4125
696.26192	17787.7125
700.20048	18038.9125
704.13626	18167.3125
708.06928	18157.8125
711.99952	17968.5125
715.927	17893.8125
719.85171	17967.2125
723.77365	17957.0125
727.69284	17861.2125
731.60928	17715.4125
735.52295	17683.6125
739.43388	17727.6125
743.34206	17762.9125
747.24749	17813.9125
751.15017	17941.4125
755.05012	18246.8125
758.94733	19037.9125
762.8418	20810.0125
766.73354	23876.1125
770.62254	27102.7125
774.50882	28586.8125
778.39237	27316.4125
782.27321	23876.3125
786.15132	20662.5125
790.02671	18747.9125
793.89938	17856.1125
797.76935	17523.0125
801.6366	17346.0125
805.50115	17260.1125
809.36299	17167.7125
813.22213	17121.2125
817.07857	17088.1125
820.93231	17094.7125
824.78336	17098.9125
828.63172	17135.3125
832.47738	17094.7125
836.32036	17037.4125
840.16066	16922.0125
843.99827	16889.5125
847.8332	16813.1125
851.66546	16736.7125
855.49504	16751.5125
859.32195	16724.8125
863.1462	16676.7125
866.96777	16637.3125
870.78668	16586.6125
874.60293	16595.7125
878.41652	16638.3125
882.22745	16739.3125
886.03573	16809.4125
889.84136	16766.7125
893.64433	16649.9125
897.44466	16597.3125
901.24235	16573.7125
905.0374	16442.3125
908.8298	16374.2125
912.61957	16303.2125
916.40671	16452.0125
920.19121	16616.2125
923.97308	16828.0125
927.75233	16884.7125
931.52895	17003.3125
935.30295	16792.7125
939.07433	16382.7125
942.84309	15967.4125
946.60924	15723.1125
950.37278	15583.7125
954.13371	15540.9125
957.89203	15511.7125
961.64774	15455.9125
965.40086	15392.1125
969.15137	15315.8125
972.89929	15241.0125
976.64461	15207.4125
980.38733	15189.8125
984.12747	15189.2125
987.86502	15305.0125
991.59999	15414.4125
995.33237	15647.0125
999.06217	16079.7125
1002.78939	16584.1125
1006.51404	17015.6125
1010.23611	17343.5125
1013.95561	17506.9125
1017.67255	17417.5125
1021.38692	17049.6125
1025.09872	16692.3125
1028.80796	16518.3125
1032.51465	16564.4125
1036.21877	16780.3125
1039.92035	16848.5125
1043.61937	16835.5125
1047.31584	16746.3125
1051.00976	16635.4125
1054.70114	16542.5125
1058.38998	16568.4125
1062.07627	16643.9125
1065.76003	16774.1125
1069.44126	16848.9125
1073.11995	16979.2125
1076.79611	17176.1125
1080.46974	17415.6125
1084.14085	17780.1125
1087.80943	18268.2125
1091.47549	18470.6125
1095.13903	18312.5125
1098.80005	17842.1125
1102.45857	17386.4125
1106.11456	17139.5125
1109.76805	17195.7125
1113.41903	17475.7125
1117.06751	18004.6125
1120.71348	18725.5125
1124.35696	19421.4125
1127.99793	20086.4125
1131.63641	20038.3125
1135.2724	19298.8125
1138.90589	18535.7125
1142.5369	18069.1125
1146.16542	17905.0125
1149.79145	17843.8125
1153.415	17896.0125
1157.03607	18102.2125
1160.65467	18551.1125
1164.27079	19305.8125
1167.88443	20527.1125
1171.49561	22271.3125
1175.10432	24953.0125
1178.71056	28331.8125
1182.31434	31062.9125
1185.91565	31957.1125
1189.51451	31209.9125
1193.11091	29600.9125
1196.70485	27737.8125
1200.29634	26249.2125
1203.88538	25033.5125
1207.47197	23726.9125
1211.05612	22702.9125
1214.63782	22089.9125
1218.21708	21896.2125
1221.79391	21837.6125
1225.36829	21633.1125
1228.94024	21212.2125
1232.50976	20717.0125
1236.07685	20446.1125
1239.6415	20361.5125
1243.20374	20423.4125
1246.76355	20580.1125
1250.32093	20911.4125
1253.8759	21403.8125
1257.42845	22077.8125
1260.97859	22745.2125
1264.52631	23437.4125
1268.07163	24131.0125
1271.61453	24790.1125
1275.15503	25338.3125
1278.69312	25714.3125
1282.22882	26158.3125
1285.76211	27032.5125
1289.29301	27935.3125
1292.82151	29194.5125
1296.34761	30830.7125
1299.87133	32895.6125
1303.39266	35624.1125
1306.9116	39396.5125
1310.42815	43499.4125
1313.94233	45829.0125
1317.45412	45376.5125
1320.96354	43071.2125
1324.47058	40580.7125
1327.97525	38281.4125
1331.47754	36763.8125
1334.97747	36228.7125
1338.47502	36405.2125
1341.97022	36870.5125
1345.46305	37257.9125
1348.95352	37755.6125
1352.44163	38810.1125
1355.92738	41180.4125
1359.41078	45473.8125
1362.89183	49568.2125
1366.37053	48171.6125
1369.84688	41467.6125
1373.32088	34700.1125
1376.79254	30624.3125
1380.26186	28739.1125
1383.72883	28112.3125
1387.19347	27813.6125
1390.65578	27526.5125
1394.11575	27474.1125
1397.57339	27939.3125
1401.0287	28790.6125
1404.48168	29655.4125
1407.93234	30128.5125
1411.38068	30043.3125
1414.82669	29314.7125
1418.27039	27970.4125
1421.71177	26475.5125
1425.15083	25122.3125
1428.58758	24354.5125
1432.02203	24355.0125
1435.45416	24706.6125
1438.88399	25160.7125
1442.31151	25548.2125
1445.73673	26030.0125
1449.15965	26607.1125
1452.58027	26994.6125
1455.9986	27148.3125
1459.41463	27338.6125
1462.82837	27772.1125
1466.23982	28437.9125
1469.64898	29061.7125
1473.05586	29311.4125
1476.46045	29273.8125
1479.86276	29157.8125
1483.26279	29145.1125
1486.66054	29173.1125
1490.05602	29466.3125
1493.44922	29944.5125
1496.84016	30564.4125
1500.22882	31953.1125
1503.61521	34472.8125
1506.99934	37854.5125
1510.38121	41279.7125
1513.76081	42816.0125
1517.13816	40912.5125
1520.51324	36724.2125
1523.88607	32624.0125
1527.25665	29975.5125
1530.62498	28658.5125
1533.99105	28070.1125
1537.35488	27743.1125
1540.71647	27569.6125
1544.07581	27224.2125
1547.4329	26885.1125
1550.78776	26498.5125
1554.14038	26240.8125
1557.49077	26169.8125
1560.83892	26354.5125
1564.18484	26798.4125
1567.52853	27340.2125
1570.86999	27716.6125
1574.20922	28095.4125
1577.54624	28198.7125
1580.88103	27389.4125
1584.2136	26487.7125
1587.54395	26451.6125
1590.87208	27491.1125
1594.19801	29487.2125
1597.52172	31830.9125
1600.84321	33007.4125
1604.16251	31893.6125
1607.47959	29247.9125
1610.79447	26103.0125
1614.10715	23259.9125
1617.41763	21079.8125
1620.7259	19674.3125
1624.03199	18985.2125
1627.33587	18932.8125
1630.63757	19471.4125
1633.93707	20685.6125
1637.23439	22744.9125
1640.52951	25898.7125
1643.82246	30041.5125
1647.11321	34143.1125
1650.40179	36289.4125
1653.68819	34481.4125
1656.97241	29370.4125
1660.25446	24001.1125
1663.53433	20075.3125
1666.81203	17708.6125
1670.08756	16328.0125
1673.36092	15510.0125
1676.63211	14967.6125
1679.90115	14587.1125
1683.16801	14312.4125
1686.43272	14057.5125
1689.69527	13917.9125
1692.95567	13787.7125
1696.2139	13730.6125
1699.46999	13655.0125
1702.72392	13582.1125
1705.97571	13550.0125
1709.22535	13532.1125
1712.47284	13488.0125
1715.71819	13468.6125
1718.96139	13485.3125
1722.20246	13414.7125
1725.44139	13329.3125
1728.67818	13225.9125
1731.91284	13126.9125
1735.14537	13052.2125
1738.37576	12974.6125
1741.60403	12929.3125
1744.83017	12894.0125
1748.05418	12856.3125
1751.27607	12836.1125
1754.49584	12808.6125
1757.71349	12768.1125
1760.92903	12713.3125
1764.14244	12737.6125
1767.35375	12697.4125
1770.56294	12656.8125
1773.77002	12594.5125
1776.97499	12579.9125
1780.17785	12552.6125
1783.37861	12542.1125
1786.57727	12482.5125
1789.77382	12489.3125
1792.96828	12463.8125
1796.16064	12421.2125
1799.3509	12413.9125
1802.53907	12360.0125
1805.72514	12324.9125
1808.90913	12287.0125
1812.09102	12250.0125
1815.27083	12215.4125
1818.44856	12185.0125
1821.6242	12144.7125
1824.79776	12142.1125
1827.96924	12129.2125
1831.13864	12075.0125
1834.30597	12034.8125
1837.47122	12051.8125
1840.6344	12011.2125
1843.7955	12038.5125
1846.95454	12019.3125
1850.11151	11999.2125
1853.26642	11965.9125
1856.41926	11972.9125
1859.57004	11984.9125
1862.71876	11981.8125
1865.86542	11977.1125
1869.01003	11991.8125
1872.15258	11962.0125
1875.29308	11947.8125
1878.43152	11924.9125
1881.56792	11946.9125
1884.70227	11935.8125
1887.83457	11949.3125
1890.96482	11905.5125
1894.09304	11904.9125
1897.21921	11907.5125
1900.34335	11898.2125
1903.46544	11894.0125
1906.58551	11878.3125
1909.70353	11870.8125
1912.81953	11842.0125
1915.93349	11804.4125
1919.04543	11814.8125
1922.15534	11777.2125
1925.26322	11754.1125
1928.36908	11739.2125
1931.47292	11706.1125
1934.57473	11670.4125
1937.67453	11617.2125
1940.77232	11584.5125
1943.86808	11532.8125
1946.96184	11457.1125
1950.05358	11423.5125
1953.14331	11401.0125
1956.23103	11340.6125
1959.31675	11317.6125
1962.40046	11295.1125
1965.48217	11267.0125
1968.56188	11234.5125
1971.63959	11170.8125
1974.7153	11161.0125
1977.78901	11111.8125
1980.86073	11076.7125
1983.93046	11008.7125
1986.99819	10972.5125
1990.06394	10961.6125
1993.1277	10915.9125
1996.18947	10869.6125
1999.24925	10845.6125
2002.30706	10801.1125
2005.36288	10754.4125
2008.41672	10735.3125
2011.46859	10702.4125
2014.51848	10681.0125
2017.56639	10661.4125
2020.61233	10606.4125
2023.6563	10596.2125
2026.6983	10532.8125
2029.73833	10494.7125
2032.7764	10497.3125
2035.8125	10466.7125
2038.84664	10453.8125
2041.87881	10436.8125
2044.90903	10430.3125
2047.93729	10411.6125
2050.96359	10403.5125
2053.98794	10370.2125
2057.01034	10356.6125
2060.03078	10335.3125
2063.04927	10336.1125
2066.06582	10366.9125
2069.08042	10332.3125
2072.09307	10320.3125
2075.10378	10276.0125
2078.11255	10260.2125
2081.11938	10254.2125
2084.12426	10246.2125
2087.12722	10242.1125
2090.12824	10229.9125
2093.12732	10225.7125
2096.12447	10232.0125
2099.11969	10255.3125
2102.11299	10206.0125
2105.10435	10207.4125
2108.09379	10192.2125
2111.08131	10220.8125
2114.0669	10208.8125
2117.05057	10232.6125
2120.03233	10228.2125
2123.01216	10244.8125
2125.99008	10246.5125
2128.96609	10220.5125
2131.94018	10230.1125
2134.91236	10260.1125
2137.88263	10271.3125
2140.851	10224.7125
2143.81746	10254.9125
2146.78201	10255.0125
2149.74466	10226.3125
2152.7054	10215.7125
2155.66425	10180.1125
2158.6212	10165.7125
2161.57625	10191.3125
2164.52941	10166.4125
2167.48067	10162.3125
2170.43004	10150.3125
2173.37752	10174.2125
2176.32311	10168.7125
2179.26681	10132.4125
2182.20863	10160.1125
2185.14856	10177.3125
2188.08661	10152.7125
2191.02278	10154.9125
2193.95707	10113.4125
2196.88948	10088.8125
2199.82001	10077.4125
2202.74867	10057.6125
2205.67545	10055.2125
2208.60037	10040.8125
2211.52341	10030.2125
2214.44458	10029.7125
2217.36388	9971.2125
2220.28132	9962.0125
2223.1969	9932.3125
2226.11061	9899.8125
2229.02246	9891.1125
2231.93245	9867.5125
2234.84058	9850.8125
2237.74686	9824.5125
2240.65128	9824.1125
2243.55385	9803.4125
2246.45456	9805.3125
2249.35343	9783.7125
2252.25044	9782.8125
2255.14561	9761.9125
2258.03893	9737.9125
2260.93041	9713.1125
2263.82004	9709.2125
2266.70783	9679.0125
2269.59378	9633.6125
2272.4779	9636.9125
2275.36017	9586.5125
2278.24061	9568.5125
2281.11922	9547.0125
2283.996	9560.8125
2286.87094	9532.7125
2289.74405	9483.8125
2292.61534	9458.5125
2295.4848	9466.5125
2298.35243	9473.6125
2301.21824	9438.1125
2304.08223	9452.3125
2306.94439	9467.6125
2309.80474	9439.4125
2312.66327	9462.9125
2315.51999	9463.6125
2318.37489	9448.5125
2321.22797	9432.4125
2324.07925	9394.2125
2326.92871	9384.3125
2329.77637	9372.2125
2332.62222	9348.8125
2335.46626	9373.8125
2338.3085	9348.4125
2341.14893	9360.2125
2343.98756	9361.0125
2346.8244	9350.4125
2349.65943	9329.7125
2352.49267	9339.8125
2355.32411	9356.0125
2358.15376	9359.1125
2360.98161	9370.2125
2363.80768	9365.3125
2366.63195	9363.2125
2369.45444	9341.2125
2372.27514	9349.1125
2375.09405	9306.0125
2377.91118	9292.2125
2380.72652	9257.4125
2383.54009	9221.5125
2386.35187	9203.6125
2389.16188	9165.2125
2391.97011	9132.2125
2394.77657	9107.8125
2397.58125	9109.1125
2400.38416	9049.8125
2403.18529	9063.4125
2405.98466	9058.2125
2408.78226	9012.9125
2411.57809	9009.7125
2414.37216	8959.4125
2417.16446	8969.8125
2419.955	8950.5125
2422.74378	8942.3125
2425.5308	8927.0125
2428.31606	8943.7125
2431.09956	8920.7125
2433.88131	8911.7125
2436.6613	8914.4125
2439.43954	8903.1125
2442.21603	8899.1125
2444.99077	8904.8125
2447.76377	8912.3125
2450.53501	8903.8125
2453.30451	8894.8125
2456.07226	8896.7125
2458.83827	8890.8125
2461.60254	8889.8125
2464.36507	8880.8125
2467.12586	8856.5125
2469.88492	8874.2125
2472.64224	8876.6125
2475.39782	8884.8125
2478.15167	8913.5125
2480.90379	8897.9125
2483.65417	8918.3125
2486.40283	8918.1125
2489.14976	8940.4125
2491.89497	8939.6125
2494.63845	8936.0125
2497.3802	8905.0125
2500.12024	8906.1125
2502.85855	8895.0125
2505.59514	8889.3125
2508.33002	8867.4125
2511.06318	8853.8125
2513.79462	8807.9125
2516.52435	8813.0125
2519.25237	8783.0125
2521.97867	8736.7125
2524.70327	8729.1125
2527.42616	8730.1125
2530.14734	8724.0125
2532.86681	8725.3125
2535.58458	8733.0125
2538.30065	8710.7125
2541.01501	8716.3125
2543.72768	8692.7125
2546.43864	8672.4125
2549.14791	8664.9125
2551.85548	8679.6125
2554.56136	8666.9125
2557.26554	8652.0125
2559.96803	8627.7125
2562.66883	8616.3125
2565.36794	8606.3125
2568.06536	8613.0125
2570.7611	8593.9125
2573.45514	8582.9125
2576.14751	8567.8125
2578.83819	8559.9125
2581.52719	8574.2125
2584.21451	8556.5125
2586.90015	8543.8125
2589.58411	8529.7125
2592.2664	8515.2125
2594.94701	8508.9125
2597.62594	8507.1125
2600.30321	8523.0125
2602.9788	8526.6125
2605.65273	8501.3125
2608.32498	8498.5125
2610.99557	8510.6125
2613.66449	8526.4125
2616.33175	8521.5125
2618.99734	8494.8125
2621.66128	8477.7125
2624.32355	8471.1125
2626.98416	8463.3125
2629.64311	8462.2125
2632.30041	8453.0125
2634.95605	8449.2125
2637.61004	8445.9125
2640.26238	8428.9125
2642.91306	8396.5125
2645.56209	8404.8125
2648.20948	8417.1125
2650.85521	8395.9125
2653.4993	8405.8125
2656.14175	8398.0125
2658.78255	8427.2125
2661.42171	8423.0125
2664.05923	8431.5125
2666.6951	8439.2125
2669.32934	8464.2125
2671.96194	8462.3125
2674.59291	8453.4125
2677.22224	8437.1125
2679.84993	8431.2125
2682.476	8393.7125
2685.10043	8400.2125
2687.72324	8378.8125
2690.34441	8382.4125
2692.96396	8391.5125
2695.58188	8403.2125
2698.19818	8379.1125
2700.81285	8396.2125
2703.4259	8412.4125
2706.03733	8390.8125
2708.64714	8409.4125
2711.25533	8412.7125
2713.86191	8411.3125
2716.46687	8433.0125
2719.07021	8410.6125
2721.67194	8452.7125
2724.27206	8410.5125
2726.87057	8425.2125
2729.46747	8446.2125
2732.06276	8439.2125
2734.65644	8416.5125
2737.24852	8404.0125
2739.83899	8389.5125
2742.42786	8389.1125
2745.01513	8368.0125
2747.60079	8353.9125
2750.18486	8366.6125
2752.76733	8361.7125
2755.3482	8341.0125
2757.92747	8340.0125
2760.50515	8316.8125
2763.08123	8355.9125
2765.65573	8309.3125
2768.22863	8284.7125
2770.79994	8303.7125
2773.36967	8311.6125
2775.9378	8314.9125
2778.50435	8318.0125
2781.06932	8309.8125
2783.6327	8306.5125
2786.1945	8287.3125
2788.75471	8311.5125
2791.31335	8307.6125
2793.87041	8302.5125
2796.42589	8250.4125
2798.97979	8283.6125
2801.53212	8245.9125
2804.08288	8232.8125
2806.63206	8231.9125
2809.17967	8216.7125
2811.72571	8178.8125
2814.27018	8189.7125
2816.81308	8194.7125
2819.35442	8188.1125
2821.89419	8179.1125
2824.43239	8172.5125
2826.96904	8190.8125
2829.50412	8194.1125
2832.03763	8182.9125
2834.56959	8152.6125
2837.1	8142.7125
2839.62884	8166.2125
2842.15613	8168.8125
2844.68186	8220.1125
2847.20604	8237.5125
2849.72867	8275.2125
2852.24974	8262.3125
2854.76927	8262.3125
2857.28724	8249.9125
2859.80367	8212.5125
2862.31855	8219.0125
2864.83189	8229.3125
2867.34368	8187.5125
2869.85393	8203.5125
2872.36264	8194.9125
2874.8698	8193.8125
2877.37543	8207.5125
2879.87952	8210.2125
2882.38207	8188.0125
2884.88308	8176.1125
2887.38256	8186.3125
2889.88051	8186.5125
2892.37692	8179.7125
2894.8718	8174.2125
2897.36515	8179.2125
2899.85698	8170.3125
2902.34727	8212.5125
2904.83604	8202.2125
2907.32328	8215.7125
2909.809	8222.6125
2912.29319	8198.6125
2914.77587	8209.7125
2917.25702	8208.8125
2919.73665	8174.8125
2922.21476	8177.4125
2924.69136	8175.1125
2927.16644	8169.0125
2929.64	8177.7125
2932.11205	8144.6125
2934.58258	8117.1125
2937.05161	8096.3125
2939.51912	8079.9125
2941.98513	8061.1125
2944.44962	8029.0125
2946.91261	8003.7125
2949.37409	7991.8125
2951.83407	7941.2125
2954.29254	7955.4125
2956.74951	7932.7125
2959.20498	7921.2125
2961.65895	7922.8125
2964.11142	7880.9125
2966.56239	7871.7125
2969.01186	7851.8125
2971.45984	7839.3125
2973.90632	7825.0125
2976.35131	7780.5125
2978.7948	7778.5125
2981.23681	7749.7125
2983.67732	7728.8125
2986.11635	7716.2125
2988.55388	7690.5125
2990.98993	7658.9125
2993.4245	7656.8125
2995.85758	7634.2125
2998.28917	7622.9125
3000.71928	7596.8125
3003.14791	7576.7125
3005.57506	7587.1125
3008.00073	7565.5125
3010.42493	7550.5125
3012.84764	7524.4125
3015.26888	7545.7125
3017.68865	7500.8125
3020.10694	7483.8125
3022.52376	7460.9125
3024.9391	7463.2125
3027.35298	7436.6125
3029.76539	7423.8125
3032.17632	7417.9125
3034.5858	7412.5125
3036.9938	7386.5125
3039.40034	7389.5125
3041.80542	7369.0125
3044.20903	7372.3125
3046.61118	7369.8125
3049.01187	7321.7125
3051.4111	7331.3125
3053.80888	7326.4125
3056.20519	7326.3125
3058.60005	7272.7125
3060.99345	7276.8125
