Data from AgNPs_FTO_APTES_UA_5uM_CRN_50uM_R6G_10uM_NaF_0.1M_Addition_RamanShift__9__13-53-06-814.txt Node

Date: Mon Feb 07 13:53:06 GMT 2022
User: TCL
Spectrometer: QEP01345
Trigger mode: 4
Integration Time (sec): 7.000000E0
Scans to average: 10
Electric dark correction enabled: true
Nonlinearity correction enabled: false
Boxcar width: 0
XAxis mode: Raman Shifts
Number of Pixels in Spectrum: 1044
>>>>>Begin Spectral Data<<<<<
46.04893	0.3125
50.45542	-0.7875
54.85868	-1.0875
59.25871	0.3125
63.6555	77.9125
68.04907	81.7125
72.43941	89.1125
76.82654	89.1125
81.21044	95.0125
85.59113	96.9125
89.96862	98.3125
94.34289	102.9125
98.71396	108.0125
103.08183	110.6125
107.4465	112.3125
111.80798	114.0125
116.16626	122.5125
120.52136	127.2125
124.87327	134.9125
129.222	145.6125
133.56755	154.0125
137.90993	169.7125
142.24913	189.2125
146.58517	216.6125
150.91804	256.9125
155.24774	309.0125
159.57429	397.2125
163.89768	509.7125
168.21792	693.8125
172.53501	937.2125
176.84895	1313.2125
181.15975	1858.0125
185.46741	2608.5125
189.77193	3597.3125
194.07331	4820.3125
198.37157	6208.5125
202.6667	7675.5125
206.9587	9136.0125
211.24758	10547.0125
215.53334	11945.0125
219.81599	13435.7125
224.09553	15071.0125
228.37195	16852.8125
232.64527	18779.6125
236.91549	20775.4125
241.18261	22836.9125
245.44663	24770.6125
249.70755	26527.9125
253.96539	28045.3125
258.22014	29389.2125
262.4718	30414.7125
266.72039	31217.4125
270.96589	31639.2125
275.20832	31779.3125
279.44768	31672.4125
283.68397	31460.3125
287.91719	31338.0125
292.14735	31301.8125
296.37445	31318.3125
300.59849	31437.1125
304.81948	31558.6125
309.03742	31517.1125
313.25231	31218.3125
317.46415	30535.3125
321.67296	29758.7125
325.87872	29141.5125
330.08145	28767.7125
334.28114	28662.0125
338.47781	28752.2125
342.67145	28987.7125
346.86207	29301.7125
351.04966	29718.5125
355.23424	30130.0125
359.4158	30502.7125
363.59435	30838.9125
367.76989	31059.1125
371.94243	31150.8125
376.11196	31204.3125
380.27849	31214.1125
384.44203	31288.2125
388.60257	31480.5125
392.76012	31896.4125
396.91468	32440.4125
401.06626	32999.5125
405.21485	33393.7125
409.36047	33250.0125
413.50311	32875.7125
417.64277	32753.6125
421.77947	32932.2125
425.9132	33175.6125
430.04396	33344.0125
434.17176	33521.0125
438.2966	33712.1125
442.41849	34154.4125
446.53742	35029.6125
450.6534	35923.1125
454.76644	36605.0125
458.87653	36844.0125
462.98368	36870.0125
467.08789	36555.9125
471.18916	36225.5125
475.2875	35969.2125
479.38291	35985.3125
483.4754	36037.5125
487.56496	35632.7125
491.6516	34843.0125
495.73531	33921.6125
499.81612	33277.8125
503.89401	33164.4125
507.96899	33296.5125
512.04106	33344.7125
516.11023	33022.6125
520.1765	32553.2125
524.23987	31985.6125
528.30034	31452.6125
532.35792	31103.5125
536.41261	30779.2125
540.46441	30562.8125
544.51333	30606.5125
548.55936	31044.6125
552.60252	31816.9125
556.64279	32663.4125
560.6802	33473.4125
564.71473	34205.4125
568.7464	35270.3125
572.7752	36968.8125
576.80114	38904.2125
580.82422	40590.3125
584.84444	42077.4125
588.86181	43866.5125
592.87633	45291.3125
596.888	44564.4125
600.89682	41924.9125
604.9028	40206.2125
608.90594	40526.5125
612.90624	41104.9125
616.90371	38184.2125
620.89834	33354.9125
624.89015	31360.6125
628.87913	31338.0125
632.86528	31711.3125
636.84862	31647.2125
640.82913	30984.2125
644.80683	30211.7125
648.78172	29722.1125
652.75379	29670.2125
656.72306	29880.9125
660.68952	30068.1125
664.65319	29914.1125
668.61405	29528.8125
672.57211	29476.9125
676.52738	29579.1125
680.47986	29589.7125
684.42955	29380.3125
688.37646	29217.8125
692.32058	29397.0125
696.26192	29823.2125
700.20048	30258.9125
704.13626	30568.2125
708.06928	30779.5125
711.99952	30870.4125
715.927	30828.0125
719.85171	30789.8125
723.77365	30475.9125
727.69284	29906.5125
731.60928	29441.5125
735.52295	29169.7125
739.43388	29142.1125
743.34206	29148.4125
747.24749	29408.6125
751.15017	29849.3125
755.05012	30511.8125
758.94733	31533.3125
762.8418	33060.1125
766.73354	35077.9125
770.62254	36540.7125
774.50882	36368.6125
778.39237	34562.3125
782.27321	32341.5125
786.15132	30736.8125
790.02671	29731.9125
793.89938	29106.3125
797.76935	28815.5125
801.6366	28734.8125
805.50115	28690.5125
809.36299	28578.5125
813.22213	28451.5125
817.07857	28393.5125
820.93231	28313.4125
824.78336	28081.1125
828.63172	27846.5125
832.47738	27597.6125
836.32036	27538.3125
840.16066	27545.5125
843.99827	27564.5125
847.8332	27545.9125
851.66546	27592.1125
855.49504	27629.1125
859.32195	27630.5125
863.1462	27505.0125
866.96777	27408.1125
870.78668	27362.6125
874.60293	27300.3125
878.41652	27228.0125
882.22745	27301.4125
886.03573	27353.4125
889.84136	27331.8125
893.64433	27278.3125
897.44466	27217.2125
901.24235	27143.5125
905.0374	27127.6125
908.8298	27122.7125
912.61957	27284.7125
916.40671	27707.5125
920.19121	28308.8125
923.97308	28726.3125
927.75233	28511.3125
931.52895	27923.0125
935.30295	27219.7125
939.07433	26611.6125
942.84309	26226.1125
946.60924	25983.0125
950.37278	25856.1125
954.13371	25878.6125
957.89203	25956.4125
961.64774	25987.7125
965.40086	26016.0125
969.15137	25941.4125
972.89929	25684.9125
976.64461	25475.0125
980.38733	25324.6125
984.12747	25361.4125
987.86502	25382.1125
991.59999	25528.3125
995.33237	25653.4125
999.06217	25964.7125
1002.78939	26407.0125
1006.51404	26898.7125
1010.23611	27357.0125
1013.95561	27722.1125
1017.67255	27784.5125
1021.38692	27531.5125
1025.09872	27092.1125
1028.80796	26703.8125
1032.51465	26636.6125
1036.21877	26727.6125
1039.92035	26884.5125
1043.61937	27058.2125
1047.31584	27123.8125
1051.00976	27181.3125
1054.70114	27397.8125
1058.38998	27643.2125
1062.07627	28104.0125
1065.76003	28615.3125
1069.44126	29139.3125
1073.11995	29637.7125
1076.79611	30008.9125
1080.46974	30052.4125
1084.14085	30173.8125
1087.80943	30521.0125
1091.47549	30862.5125
1095.13903	31120.4125
1098.80005	30802.3125
1102.45857	29889.4125
1106.11456	29037.8125
1109.76805	28599.2125
1113.41903	28446.1125
1117.06751	28580.4125
1120.71348	28846.6125
1124.35696	29171.2125
1127.99793	29528.0125
1131.63641	29837.2125
1135.2724	29949.9125
1138.90589	30056.8125
1142.5369	30372.1125
1146.16542	30859.5125
1149.79145	31467.2125
1153.415	32129.6125
1157.03607	32921.6125
1160.65467	34280.5125
1164.27079	36345.9125
1167.88443	38568.4125
1171.49561	40601.2125
1175.10432	42864.9125
1178.71056	45515.1125
1182.31434	48050.7125
1185.91565	49265.4125
1189.51451	49074.3125
1193.11091	48191.5125
1196.70485	46897.3125
1200.29634	45385.8125
1203.88538	44729.4125
1207.47197	44996.6125
1211.05612	45348.2125
1214.63782	44711.5125
1218.21708	42889.3125
1221.79391	40673.3125
1225.36829	38916.3125
1228.94024	37827.5125
1232.50976	37122.1125
1236.07685	36654.5125
1239.6415	36394.7125
1243.20374	36487.5125
1246.76355	36845.6125
1250.32093	37443.6125
1253.8759	38261.2125
1257.42845	39320.8125
1260.97859	40512.1125
1264.52631	41728.7125
1268.07163	43019.0125
1271.61453	44324.8125
1275.15503	45833.1125
1278.69312	47641.0125
1282.22882	49760.5125
1285.76211	52301.3125
1289.29301	55288.8125
1292.82151	58880.7125
1296.34761	63006.6125
1299.87133	67531.1125
1303.39266	71375.5125
1306.9116	73982.1125
1310.42815	75023.4125
1313.94233	75065.4125
1317.45412	74435.0125
1320.96354	73890.5125
1324.47058	73855.7125
1327.97525	74332.1125
1331.47754	74528.2125
1334.97747	74282.3125
1338.47502	73390.8125
1341.97022	72072.7125
1345.46305	70398.6125
1348.95352	68611.7125
1352.44163	67177.9125
1355.92738	66823.2125
1359.41078	67676.2125
1362.89183	68480.8125
1366.37053	67484.6125
1369.84688	63370.5125
1373.32088	57517.3125
1376.79254	53355.1125
1380.26186	52402.1125
1383.72883	53398.0125
1387.19347	54510.7125
1390.65578	54554.6125
1394.11575	54639.8125
1397.57339	55308.5125
1401.0287	56463.2125
1404.48168	57187.4125
1407.93234	56606.5125
1411.38068	54537.1125
1414.82669	51557.8125
1418.27039	48324.6125
1421.71177	45378.7125
1425.15083	43186.0125
1428.58758	42191.2125
1432.02203	42583.0125
1435.45416	44137.8125
1438.88399	46055.8125
1442.31151	47537.5125
1445.73673	48657.2125
1449.15965	49469.5125
1452.58027	50043.0125
1455.9986	50323.0125
1459.41463	50593.8125
1462.82837	51088.7125
1466.23982	51816.8125
1469.64898	52463.3125
1473.05586	52748.5125
1476.46045	52584.6125
1479.86276	51955.6125
1483.26279	51187.4125
1486.66054	50820.9125
1490.05602	50826.8125
1493.44922	51147.6125
1496.84016	51581.9125
1500.22882	52149.9125
1503.61521	52815.6125
1506.99934	53632.0125
1510.38121	54333.6125
1513.76081	54691.4125
1517.13816	54687.3125
1520.51324	54784.1125
1523.88607	55285.9125
1527.25665	56230.1125
1530.62498	56887.0125
1533.99105	56714.2125
1537.35488	55619.0125
1540.71647	53709.9125
1544.07581	51381.7125
1547.4329	49071.0125
1550.78776	47214.5125
1554.14038	45986.7125
1557.49077	45276.0125
1560.83892	44758.8125
1564.18484	44636.0125
1567.52853	44627.1125
1570.86999	45233.2125
1574.20922	46663.7125
1577.54624	48319.9125
1580.88103	49614.7125
1584.2136	51067.0125
1587.54395	53257.0125
1590.87208	56232.0125
1594.19801	59235.2125
1597.52172	61400.1125
1600.84321	60861.5125
1604.16251	56933.3125
1607.47959	51447.1125
1610.79447	46223.2125
1614.10715	41808.3125
1617.41763	38437.0125
1620.7259	36112.2125
1624.03199	35025.1125
1627.33587	35192.7125
1630.63757	36606.3125
1633.93707	39780.6125
1637.23439	44902.1125
1640.52951	52307.8125
1643.82246	60886.2125
1647.11321	67719.9125
1650.40179	68836.8125
1653.68819	63223.1125
1656.97241	53788.7125
1660.25446	44457.0125
1663.53433	37318.1125
1666.81203	32564.0125
1670.08756	29587.0125
1673.36092	27742.7125
1676.63211	26559.2125
1679.90115	25698.9125
1683.16801	25132.4125
1686.43272	24698.9125
1689.69527	24329.0125
1692.95567	24073.4125
1696.2139	23866.4125
1699.46999	23756.0125
1702.72392	23580.9125
1705.97571	23457.2125
1709.22535	23335.5125
1712.47284	23292.4125
1715.71819	23183.1125
1718.96139	23060.8125
1722.20246	22937.3125
1725.44139	22841.3125
1728.67818	22677.0125
1731.91284	22508.4125
1735.14537	22314.8125
1738.37576	22172.4125
1741.60403	22054.3125
1744.83017	21934.5125
1748.05418	21874.3125
1751.27607	21852.3125
1754.49584	21832.8125
1757.71349	21761.1125
1760.92903	21739.2125
1764.14244	21712.9125
1767.35375	21709.4125
1770.56294	21638.9125
1773.77002	21546.0125
1776.97499	21507.0125
1780.17785	21416.8125
1783.37861	21373.1125
1786.57727	21277.3125
1789.77382	21224.0125
1792.96828	21213.9125
1796.16064	21133.2125
1799.3509	21095.9125
1802.53907	21042.5125
1805.72514	20942.0125
1808.90913	20890.5125
1812.09102	20779.6125
1815.27083	20750.1125
1818.44856	20717.2125
1821.6242	20664.0125
1824.79776	20636.1125
1827.96924	20640.0125
1831.13864	20607.5125
1834.30597	20598.3125
1837.47122	20568.1125
1840.6344	20581.8125
1843.7955	20563.1125
1846.95454	20550.9125
1850.11151	20519.1125
1853.26642	20481.9125
1856.41926	20471.7125
1859.57004	20477.7125
1862.71876	20450.2125
1865.86542	20393.4125
1869.01003	20328.8125
1872.15258	20260.6125
1875.29308	20293.7125
1878.43152	20234.5125
1881.56792	20201.2125
1884.70227	20151.6125
1887.83457	20120.6125
1890.96482	20078.7125
1894.09304	20051.2125
1897.21921	20003.9125
1900.34335	20010.5125
1903.46544	19972.7125
1906.58551	19957.6125
1909.70353	19915.9125
1912.81953	19829.2125
1915.93349	19792.8125
1919.04543	19756.7125
1922.15534	19693.5125
1925.26322	19647.0125
1928.36908	19591.6125
1931.47292	19529.8125
1934.57473	19474.0125
1937.67453	19455.5125
1940.77232	19378.1125
1943.86808	19281.2125
1946.96184	19264.9125
1950.05358	19224.9125
1953.14331	19179.6125
1956.23103	19099.2125
1959.31675	19027.9125
1962.40046	18935.1125
1965.48217	18885.2125
1968.56188	18798.3125
1971.63959	18702.8125
1974.7153	18632.7125
1977.78901	18636.7125
1980.86073	18546.3125
1983.93046	18449.5125
1986.99819	18408.7125
1990.06394	18342.8125
1993.1277	18301.0125
1996.18947	18235.9125
1999.24925	18207.3125
2002.30706	18120.2125
2005.36288	18073.6125
2008.41672	18040.3125
2011.46859	17957.4125
2014.51848	17918.2125
2017.56639	17841.2125
2020.61233	17786.2125
2023.6563	17762.6125
2026.6983	17684.1125
2029.73833	17628.0125
2032.7764	17554.2125
2035.8125	17509.2125
2038.84664	17520.2125
2041.87881	17489.0125
2044.90903	17465.0125
2047.93729	17421.9125
2050.96359	17391.4125
2053.98794	17344.9125
2057.01034	17328.4125
2060.03078	17313.7125
2063.04927	17273.2125
2066.06582	17298.5125
2069.08042	17276.9125
2072.09307	17236.7125
2075.10378	17210.8125
2078.11255	17158.1125
2081.11938	17167.3125
2084.12426	17168.7125
2087.12722	17159.5125
2090.12824	17121.6125
2093.12732	17121.3125
2096.12447	17111.3125
2099.11969	17130.2125
2102.11299	17131.1125
2105.10435	17097.8125
2108.09379	17105.2125
2111.08131	17126.7125
2114.0669	17106.2125
2117.05057	17125.7125
2120.03233	17119.8125
2123.01216	17136.0125
2125.99008	17142.6125
2128.96609	17082.4125
2131.94018	17144.8125
2134.91236	17112.8125
2137.88263	17110.2125
2140.851	17103.2125
2143.81746	17095.8125
2146.78201	17064.3125
2149.74466	17050.9125
2152.7054	17052.3125
2155.66425	17045.6125
2158.6212	17012.9125
2161.57625	16986.3125
2164.52941	16983.7125
2167.48067	16984.5125
2170.43004	16952.0125
2173.37752	16947.1125
2176.32311	16928.2125
2179.26681	16944.7125
2182.20863	16923.7125
2185.14856	16955.5125
2188.08661	16951.3125
2191.02278	16939.8125
2193.95707	16889.8125
2196.88948	16844.8125
2199.82001	16833.1125
2202.74867	16807.4125
2205.67545	16782.4125
2208.60037	16742.5125
2211.52341	16706.2125
2214.44458	16672.0125
2217.36388	16666.6125
2220.28132	16624.4125
2223.1969	16602.3125
2226.11061	16572.5125
2229.02246	16525.8125
2231.93245	16512.7125
2234.84058	16463.4125
2237.74686	16432.8125
2240.65128	16431.1125
2243.55385	16394.3125
2246.45456	16382.6125
2249.35343	16297.5125
2252.25044	16238.8125
2255.14561	16201.2125
2258.03893	16170.5125
2260.93041	16116.1125
2263.82004	16058.4125
2266.70783	16028.9125
2269.59378	15952.9125
2272.4779	15909.1125
2275.36017	15869.8125
2278.24061	15834.3125
2281.11922	15781.5125
2283.996	15765.9125
2286.87094	15729.6125
2289.74405	15702.5125
2292.61534	15683.0125
2295.4848	15694.9125
2298.35243	15672.7125
2301.21824	15646.2125
2304.08223	15631.6125
2306.94439	15633.5125
2309.80474	15615.9125
2312.66327	15620.1125
2315.51999	15567.6125
2318.37489	15534.2125
2321.22797	15507.5125
2324.07925	15503.1125
2326.92871	15462.6125
2329.77637	15431.3125
2332.62222	15406.6125
2335.46626	15393.7125
2338.3085	15363.7125
2341.14893	15348.2125
2343.98756	15347.6125
2346.8244	15355.2125
2349.65943	15353.5125
2352.49267	15361.9125
2355.32411	15349.4125
2358.15376	15327.0125
2360.98161	15339.1125
2363.80768	15319.4125
2366.63195	15323.7125
2369.45444	15316.7125
2372.27514	15287.9125
2375.09405	15245.8125
2377.91118	15201.4125
2380.72652	15141.4125
2383.54009	15127.7125
2386.35187	15115.3125
2389.16188	15033.4125
2391.97011	15040.3125
2394.77657	14990.5125
2397.58125	14956.1125
2400.38416	14952.2125
2403.18529	14905.7125
2405.98466	14920.1125
2408.78226	14902.4125
2411.57809	14868.4125
2414.37216	14870.3125
2417.16446	14871.3125
2419.955	14824.1125
2422.74378	14817.2125
2425.5308	14784.8125
2428.31606	14791.7125
2431.09956	14785.7125
2433.88131	14736.9125
2436.6613	14781.7125
2439.43954	14785.0125
2442.21603	14741.3125
2444.99077	14696.7125
2447.76377	14739.3125
2450.53501	14709.7125
2453.30451	14695.7125
2456.07226	14683.2125
2458.83827	14671.3125
2461.60254	14671.1125
2464.36507	14676.3125
2467.12586	14642.7125
2469.88492	14659.0125
2472.64224	14654.5125
2475.39782	14645.6125
2478.15167	14673.3125
2480.90379	14625.0125
2483.65417	14630.1125
2486.40283	14620.1125
2489.14976	14638.0125
2491.89497	14608.8125
2494.63845	14649.7125
2497.3802	14648.5125
2500.12024	14643.0125
2502.85855	14597.7125
2505.59514	14591.0125
2508.33002	14591.5125
2511.06318	14587.7125
2513.79462	14552.6125
2516.52435	14554.9125
2519.25237	14549.9125
2521.97867	14555.9125
2524.70327	14522.6125
2527.42616	14490.1125
2530.14734	14520.2125
2532.86681	14510.1125
2535.58458	14524.5125
2538.30065	14471.5125
2541.01501	14501.2125
2543.72768	14451.7125
2546.43864	14468.8125
2549.14791	14425.7125
2551.85548	14399.5125
2554.56136	14394.8125
2557.26554	14379.1125
2559.96803	14357.3125
2562.66883	14337.0125
2565.36794	14333.3125
2568.06536	14281.3125
2570.7611	14314.1125
2573.45514	14280.6125
2576.14751	14240.6125
2578.83819	14233.0125
2581.52719	14233.7125
2584.21451	14253.7125
2586.90015	14269.3125
2589.58411	14251.2125
2592.2664	14252.7125
2594.94701	14226.2125
2597.62594	14217.0125
2600.30321	14179.2125
2602.9788	14201.8125
2605.65273	14198.7125
2608.32498	14204.5125
2610.99557	14201.6125
2613.66449	14190.7125
2616.33175	14212.6125
2618.99734	14189.1125
2621.66128	14163.6125
2624.32355	14170.3125
2626.98416	14146.2125
2629.64311	14135.6125
2632.30041	14149.3125
2634.95605	14128.9125
2637.61004	14122.0125
2640.26238	14105.4125
2642.91306	14104.3125
2645.56209	14097.4125
2648.20948	14114.6125
2650.85521	14158.1125
2653.4993	14133.1125
2656.14175	14133.8125
2658.78255	14158.3125
2661.42171	14183.3125
2664.05923	14195.8125
2666.6951	14180.9125
2669.32934	14187.4125
2671.96194	14160.1125
2674.59291	14192.0125
2677.22224	14187.5125
2679.84993	14185.7125
2682.476	14183.9125
2685.10043	14173.6125
2687.72324	14183.3125
2690.34441	14142.2125
2692.96396	14127.8125
2695.58188	14169.5125
2698.19818	14146.7125
2700.81285	14160.4125
2703.4259	14200.5125
2706.03733	14229.3125
2708.64714	14165.4125
2711.25533	14185.8125
2713.86191	14175.7125
2716.46687	14209.5125
2719.07021	14210.5125
2721.67194	14240.0125
2724.27206	14243.1125
2726.87057	14261.3125
2729.46747	14290.3125
2732.06276	14299.1125
2734.65644	14290.5125
2737.24852	14277.4125
2739.83899	14243.6125
2742.42786	14266.5125
2745.01513	14233.9125
2747.60079	14227.3125
2750.18486	14246.4125
2752.76733	14168.6125
2755.3482	14191.6125
2757.92747	14197.2125
2760.50515	14173.4125
2763.08123	14188.0125
2765.65573	14208.2125
2768.22863	14209.7125
2770.79994	14188.8125
2773.36967	14206.7125
2775.9378	14181.6125
2778.50435	14170.1125
2781.06932	14135.7125
2783.6327	14150.6125
2786.1945	14189.7125
2788.75471	14167.3125
2791.31335	14117.0125
2793.87041	14109.2125
2796.42589	14105.1125
2798.97979	14066.3125
2801.53212	14073.8125
2804.08288	14050.6125
2806.63206	13984.1125
2809.17967	13999.3125
2811.72571	13935.6125
2814.27018	13941.4125
2816.81308	13901.9125
2819.35442	13871.9125
2821.89419	13819.0125
2824.43239	13865.3125
2826.96904	13817.6125
2829.50412	13843.8125
2832.03763	13775.4125
2834.56959	13803.5125
2837.1	13776.4125
2839.62884	13778.4125
2842.15613	13774.1125
2844.68186	13775.7125
2847.20604	13800.3125
2849.72867	13825.7125
2852.24974	13823.0125
2854.76927	13813.1125
2857.28724	13821.3125
2859.80367	13798.5125
2862.31855	13768.1125
2864.83189	13745.7125
2867.34368	13696.4125
2869.85393	13665.4125
2872.36264	13653.0125
2874.8698	13594.1125
2877.37543	13574.5125
2879.87952	13622.9125
2882.38207	13611.1125
2884.88308	13587.5125
2887.38256	13578.6125
2889.88051	13587.8125
2892.37692	13597.8125
2894.8718	13581.8125
2897.36515	13595.3125
2899.85698	13624.5125
2902.34727	13622.0125
2904.83604	13638.8125
2907.32328	13663.4125
2909.809	13624.5125
2912.29319	13652.7125
2914.77587	13666.5125
2917.25702	13655.6125
2919.73665	13663.5125
2922.21476	13643.2125
2924.69136	13618.0125
2927.16644	13618.2125
2929.64	13595.8125
2932.11205	13598.2125
2934.58258	13553.6125
2937.05161	13574.6125
2939.51912	13544.1125
2941.98513	13550.3125
2944.44962	13517.2125
2946.91261	13451.4125
2949.37409	13451.9125
2951.83407	13444.8125
2954.29254	13413.7125
2956.74951	13381.4125
2959.20498	13374.5125
2961.65895	13347.1125
2964.11142	13332.0125
2966.56239	13326.6125
2969.01186	13321.1125
2971.45984	13263.6125
2973.90632	13316.8125
2976.35131	13253.8125
2978.7948	13229.6125
2981.23681	13164.2125
2983.67732	13161.3125
2986.11635	13108.7125
2988.55388	13041.0125
2990.98993	13021.9125
2993.4245	12976.8125
2995.85758	12932.3125
2998.28917	12869.7125
3000.71928	12850.3125
3003.14791	12835.8125
3005.57506	12796.3125
3008.00073	12732.3125
3010.42493	12638.8125
3012.84764	12699.8125
3015.26888	12671.9125
3017.68865	12617.8125
3020.10694	12611.2125
3022.52376	12546.3125
