Data from AgNPs_FTO_APTES_UA_5uM_CRN_500uM_R6G_10uM_NaF_0.1M_Addition_RamanShift__10__16-52-21-822.txt Node

Date: Mon Feb 07 16:52:21 GMT 2022
User: TCL
Spectrometer: QEP01345
Trigger mode: 4
Integration Time (sec): 7.000000E0
Scans to average: 10
Electric dark correction enabled: true
Nonlinearity correction enabled: false
Boxcar width: 0
XAxis mode: Raman Shifts
Number of Pixels in Spectrum: 1044
>>>>>Begin Spectral Data<<<<<
46.04893	-0.675
50.45542	-1.375
54.85868	-0.675
59.25871	-0.175
63.6555	67.325
68.04907	69.125
72.43941	73.225
76.82654	72.925
81.21044	75.425
85.59113	74.525
89.96862	80.025
94.34289	84.425
98.71396	85.725
103.08183	88.425
107.4465	92.225
111.80798	96.125
116.16626	98.025
120.52136	105.025
124.87327	106.625
129.222	116.625
133.56755	123.825
137.90993	133.925
142.24913	147.225
146.58517	167.325
150.91804	197.625
155.24774	243.925
159.57429	301.425
163.89768	391.325
168.21792	521.825
172.53501	713.225
176.84895	1004.025
181.15975	1406.525
185.46741	1979.125
189.77193	2739.825
194.07331	3671.725
198.37157	4719.425
202.6667	5839.025
206.9587	6939.225
211.24758	8034.325
215.53334	9114.225
219.81599	10277.525
224.09553	11496.525
228.37195	12848.625
232.64527	14339.625
236.91549	15907.325
241.18261	17498.725
245.44663	19006.825
249.70755	20374.525
253.96539	21584.125
258.22014	22635.525
262.4718	23386.525
266.72039	24015.125
270.96589	24331.325
275.20832	24464.825
279.44768	24415.225
283.68397	24245.625
287.91719	24166.025
292.14735	24143.725
296.37445	24231.125
300.59849	24340.125
304.81948	24426.525
309.03742	24328.125
313.25231	24071.525
317.46415	23585.525
321.67296	23004.125
325.87872	22436.925
330.08145	22194.225
334.28114	22072.125
338.47781	22111.825
342.67145	22290.225
346.86207	22581.325
351.04966	22847.925
355.23424	23124.725
359.4158	23370.725
363.59435	23579.225
367.76989	23738.825
371.94243	23880.825
376.11196	23953.725
380.27849	23948.225
384.44203	24081.725
388.60257	24311.325
392.76012	24607.425
396.91468	24971.625
401.06626	25343.025
405.21485	25521.825
409.36047	25468.925
413.50311	25162.425
417.64277	24997.325
421.77947	25075.325
425.9132	25236.725
430.04396	25398.925
434.17176	25580.025
438.2966	25714.625
442.41849	26084.925
446.53742	26700.525
450.6534	27429.525
454.76644	27901.725
458.87653	28116.225
462.98368	28137.925
467.08789	27994.625
471.18916	27847.525
475.2875	27811.025
479.38291	27852.225
483.4754	27795.125
487.56496	27453.525
491.6516	26820.725
495.73531	26154.325
499.81612	25701.425
503.89401	25626.325
507.96899	25715.025
512.04106	25705.625
516.11023	25537.425
520.1765	25277.525
524.23987	24944.225
528.30034	24698.525
532.35792	24482.125
536.41261	24213.525
540.46441	24105.525
544.51333	24155.625
548.55936	24488.525
552.60252	25095.725
556.64279	25793.325
560.6802	26386.725
564.71473	26826.825
568.7464	27505.025
572.7752	28569.025
576.80114	29716.425
580.82422	30533.625
584.84444	31304.125
588.86181	32269.725
592.87633	33048.925
596.888	32587.725
600.89682	31080.225
604.9028	30206.025
608.90594	30763.825
612.90624	31636.125
616.90371	29679.225
620.89834	26008.925
624.89015	24455.625
628.87913	24382.725
632.86528	24723.525
636.84862	24739.525
640.82913	24393.225
644.80683	23845.425
648.78172	23529.125
652.75379	23454.025
656.72306	23566.125
660.68952	23733.425
664.65319	23646.925
668.61405	23330.125
672.57211	23307.725
676.52738	23373.925
680.47986	23457.725
684.42955	23380.625
688.37646	23296.325
692.32058	23325.825
696.26192	23512.025
700.20048	23799.925
704.13626	23966.925
708.06928	24166.925
711.99952	24180.625
715.927	24143.325
719.85171	24098.525
723.77365	23939.125
727.69284	23633.825
731.60928	23319.825
735.52295	23198.725
739.43388	23158.425
743.34206	23190.325
747.24749	23323.025
751.15017	23591.025
755.05012	24041.425
758.94733	24748.425
762.8418	25871.425
766.73354	27386.925
770.62254	28679.925
774.50882	28693.225
778.39237	27459.225
782.27321	25769.725
786.15132	24440.125
790.02671	23619.525
793.89938	23139.025
797.76935	22966.525
801.6366	22876.625
805.50115	22863.825
809.36299	22736.725
813.22213	22627.325
817.07857	22612.625
820.93231	22551.925
824.78336	22432.325
828.63172	22254.025
832.47738	22153.425
836.32036	22078.825
840.16066	22060.325
843.99827	22049.325
847.8332	22030.625
851.66546	22046.025
855.49504	22079.325
859.32195	22087.125
863.1462	22040.025
866.96777	21955.925
870.78668	21896.225
874.60293	21921.025
878.41652	21897.825
882.22745	21987.925
886.03573	21986.225
889.84136	21989.325
893.64433	21941.325
897.44466	21893.425
901.24235	21825.225
905.0374	21787.825
908.8298	21735.325
912.61957	21888.825
916.40671	22177.325
920.19121	22563.225
923.97308	22757.825
927.75233	22593.125
931.52895	22268.525
935.30295	21839.925
939.07433	21456.525
942.84309	21107.125
946.60924	20906.025
950.37278	20830.425
954.13371	20825.025
957.89203	20863.725
961.64774	20872.725
965.40086	20811.325
969.15137	20751.525
972.89929	20572.325
976.64461	20417.825
980.38733	20308.125
984.12747	20290.025
987.86502	20397.925
991.59999	20442.825
995.33237	20521.425
999.06217	20709.625
1002.78939	21004.125
1006.51404	21284.225
1010.23611	21634.125
1013.95561	21916.825
1017.67255	21967.825
1021.38692	21857.625
1025.09872	21560.925
1028.80796	21238.525
1032.51465	21154.525
1036.21877	21173.725
1039.92035	21238.425
1043.61937	21329.325
1047.31584	21465.725
1051.00976	21587.425
1054.70114	21746.625
1058.38998	21970.325
1062.07627	22284.025
1065.76003	22627.325
1069.44126	22893.325
1073.11995	23158.025
1076.79611	23451.025
1080.46974	23547.725
1084.14085	23553.825
1087.80943	23674.725
1091.47549	23883.625
1095.13903	24036.425
1098.80005	23881.425
1102.45857	23367.625
1106.11456	22803.825
1109.76805	22458.425
1113.41903	22415.625
1117.06751	22554.725
1120.71348	22812.625
1124.35696	23082.625
1127.99793	23438.925
1131.63641	23704.325
1135.2724	23620.125
1138.90589	23520.325
1142.5369	23666.825
1146.16542	23965.825
1149.79145	24386.625
1153.415	24793.425
1157.03607	25261.325
1160.65467	26053.225
1164.27079	27318.425
1167.88443	28772.825
1171.49561	30323.625
1175.10432	32037.725
1178.71056	34146.525
1182.31434	36107.725
1185.91565	37133.825
1189.51451	37156.525
1193.11091	36589.325
1196.70485	35624.125
1200.29634	34473.425
1203.88538	33731.425
1207.47197	33443.425
1211.05612	33354.525
1214.63782	32823.325
1218.21708	31709.225
1221.79391	30369.525
1225.36829	29318.625
1228.94024	28715.125
1232.50976	28257.425
1236.07685	27910.425
1239.6415	27677.925
1243.20374	27711.425
1246.76355	27895.725
1250.32093	28295.025
1253.8759	28746.425
1257.42845	29458.125
1260.97859	30272.725
1264.52631	31067.525
1268.07163	31868.025
1271.61453	32686.225
1275.15503	33637.825
1278.69312	34867.625
1282.22882	36138.625
1285.76211	37718.925
1289.29301	39659.925
1292.82151	41991.025
1296.34761	44726.925
1299.87133	47543.125
1303.39266	50127.225
1306.9116	52034.425
1310.42815	53149.725
1313.94233	53542.625
1317.45412	53342.425
1320.96354	52813.725
1324.47058	52586.025
1327.97525	52493.725
1331.47754	52412.325
1334.97747	52224.625
1338.47502	51642.025
1341.97022	50950.525
1345.46305	50249.425
1348.95352	49485.225
1352.44163	48738.425
1355.92738	48706.425
1359.41078	49492.025
1362.89183	50079.525
1366.37053	49042.525
1369.84688	45826.025
1373.32088	41795.425
1376.79254	38997.025
1380.26186	38230.025
1383.72883	38672.725
1387.19347	39219.325
1390.65578	39248.125
1394.11575	39365.025
1397.57339	39803.825
1401.0287	40341.025
1404.48168	40590.125
1407.93234	40030.925
1411.38068	38660.325
1414.82669	36712.125
1418.27039	34636.825
1421.71177	32747.325
1425.15083	31325.525
1428.58758	30605.925
1432.02203	30848.925
1435.45416	31685.225
1438.88399	32822.625
1442.31151	33774.725
1445.73673	34310.225
1449.15965	34857.625
1452.58027	35297.125
1455.9986	35622.725
1459.41463	35970.225
1462.82837	36341.825
1466.23982	36717.025
1469.64898	37141.125
1473.05586	37242.525
1476.46045	37068.725
1479.86276	36649.725
1483.26279	36131.025
1486.66054	35792.425
1490.05602	35801.425
1493.44922	36132.325
1496.84016	36533.925
1500.22882	37263.325
1503.61521	38263.725
1506.99934	39359.325
1510.38121	40248.325
1513.76081	40543.525
1517.13816	40203.525
1520.51324	39846.525
1523.88607	39827.525
1527.25665	40095.525
1530.62498	40395.325
1533.99105	40309.525
1537.35488	39666.325
1540.71647	38522.625
1544.07581	37129.125
1547.4329	35704.325
1550.78776	34515.625
1554.14038	33652.625
1557.49077	33154.525
1560.83892	32804.425
1564.18484	32757.225
1567.52853	32890.825
1570.86999	33381.425
1574.20922	34300.025
1577.54624	35311.125
1580.88103	35916.225
1584.2136	36463.425
1587.54395	37541.325
1590.87208	39040.825
1594.19801	40823.125
1597.52172	42362.025
1600.84321	42494.025
1604.16251	40410.125
1607.47959	37067.125
1610.79447	33744.525
1614.10715	30827.925
1617.41763	28421.925
1620.7259	26733.325
1624.03199	25914.725
1627.33587	25867.425
1630.63757	26703.325
1633.93707	28577.225
1637.23439	31681.125
1640.52951	36186.625
1643.82246	41529.125
1647.11321	45838.825
1650.40179	46877.925
1653.68819	43681.325
1656.97241	37950.525
1660.25446	32015.825
1663.53433	27430.625
1666.81203	24226.725
1670.08756	22217.825
1673.36092	20941.425
1676.63211	20181.225
1679.90115	19630.425
1683.16801	19173.325
1686.43272	18826.325
1689.69527	18608.825
1692.95567	18418.625
1696.2139	18291.525
1699.46999	18148.125
1702.72392	18027.125
1705.97571	17956.425
1709.22535	17903.825
1712.47284	17830.125
1715.71819	17789.125
1718.96139	17732.225
1722.20246	17664.125
1725.44139	17547.325
1728.67818	17419.825
1731.91284	17324.925
1735.14537	17201.325
1738.37576	17123.725
1741.60403	17060.825
1744.83017	16981.725
1748.05418	16889.325
1751.27607	16850.225
1754.49584	16852.925
1757.71349	16819.725
1760.92903	16774.925
1764.14244	16755.425
1767.35375	16739.625
1770.56294	16680.825
1773.77002	16618.025
1776.97499	16565.125
1780.17785	16495.125
1783.37861	16482.225
1786.57727	16449.525
1789.77382	16406.525
1792.96828	16344.525
1796.16064	16324.425
1799.3509	16246.525
1802.53907	16261.025
1805.72514	16151.125
1808.90913	16126.425
1812.09102	16077.025
1815.27083	15981.825
1818.44856	15966.225
1821.6242	15935.725
1824.79776	15877.925
1827.96924	15890.625
1831.13864	15880.025
1834.30597	15864.825
1837.47122	15850.725
1840.6344	15832.725
1843.7955	15817.225
1846.95454	15769.225
1850.11151	15796.525
1853.26642	15716.825
1856.41926	15728.225
1859.57004	15717.725
1862.71876	15661.525
1865.86542	15631.525
1869.01003	15595.725
1872.15258	15578.525
1875.29308	15560.625
1878.43152	15518.525
1881.56792	15492.725
1884.70227	15496.825
1887.83457	15457.825
1890.96482	15394.625
1894.09304	15367.025
1897.21921	15351.925
1900.34335	15315.825
1903.46544	15296.125
1906.58551	15257.725
1909.70353	15233.825
1912.81953	15172.925
1915.93349	15141.025
1919.04543	15137.025
1922.15534	15083.325
1925.26322	15057.225
1928.36908	15002.925
1931.47292	14995.425
1934.57473	14947.325
1937.67453	14926.325
1940.77232	14856.625
1943.86808	14776.425
1946.96184	14750.125
1950.05358	14704.525
1953.14331	14625.625
1956.23103	14568.625
1959.31675	14528.225
1962.40046	14500.025
1965.48217	14406.825
1968.56188	14374.025
1971.63959	14318.525
1974.7153	14253.225
1977.78901	14210.125
1980.86073	14177.025
1983.93046	14106.325
1986.99819	14080.525
1990.06394	14019.525
1993.1277	14009.025
1996.18947	13925.325
1999.24925	13904.825
2002.30706	13819.025
2005.36288	13762.325
2008.41672	13724.525
2011.46859	13678.725
2014.51848	13649.825
2017.56639	13594.525
2020.61233	13546.525
2023.6563	13484.125
2026.6983	13449.325
2029.73833	13415.025
2032.7764	13370.425
2035.8125	13343.425
2038.84664	13334.325
2041.87881	13301.225
2044.90903	13227.825
2047.93729	13210.125
2050.96359	13189.525
2053.98794	13175.925
2057.01034	13160.725
2060.03078	13173.725
2063.04927	13144.225
2066.06582	13125.025
2069.08042	13148.725
2072.09307	13126.425
2075.10378	13085.825
2078.11255	13079.125
2081.11938	13088.125
2084.12426	13029.325
2087.12722	13034.125
2090.12824	13011.725
2093.12732	13005.025
2096.12447	12988.425
2099.11969	12984.025
2102.11299	12974.825
2105.10435	12974.725
2108.09379	12960.925
2111.08131	12954.825
2114.0669	12976.925
2117.05057	12967.425
2120.03233	12983.325
2123.01216	12971.925
2125.99008	12977.325
2128.96609	12960.325
2131.94018	12962.225
2134.91236	12948.425
2137.88263	12967.025
2140.851	12973.125
2143.81746	12947.725
2146.78201	12931.025
2149.74466	12924.825
2152.7054	12959.225
2155.66425	12874.125
2158.6212	12859.525
2161.57625	12851.025
2164.52941	12825.025
2167.48067	12813.325
2170.43004	12801.125
2173.37752	12812.325
2176.32311	12821.425
2179.26681	12818.525
2182.20863	12802.125
2185.14856	12824.625
2188.08661	12816.325
2191.02278	12790.025
2193.95707	12778.525
2196.88948	12732.525
2199.82001	12702.925
2202.74867	12704.025
2205.67545	12660.625
2208.60037	12633.225
2211.52341	12588.725
2214.44458	12574.725
2217.36388	12544.925
2220.28132	12519.625
2223.1969	12450.625
2226.11061	12451.325
2229.02246	12446.425
2231.93245	12399.025
2234.84058	12377.625
2237.74686	12357.325
2240.65128	12354.325
2243.55385	12321.225
2246.45456	12322.425
2249.35343	12281.325
2252.25044	12254.425
2255.14561	12194.525
2258.03893	12152.225
2260.93041	12092.525
2263.82004	12071.725
2266.70783	12029.225
2269.59378	12012.625
2272.4779	11965.625
2275.36017	11934.925
2278.24061	11890.925
2281.11922	11864.225
2283.996	11837.025
2286.87094	11859.125
2289.74405	11794.025
2292.61534	11757.125
2295.4848	11744.725
2298.35243	11747.925
2301.21824	11769.725
2304.08223	11758.225
2306.94439	11750.325
2309.80474	11749.625
2312.66327	11705.525
2315.51999	11675.225
2318.37489	11685.925
2321.22797	11616.025
2324.07925	11610.325
2326.92871	11563.925
2329.77637	11540.725
2332.62222	11546.725
2335.46626	11543.425
2338.3085	11535.125
2341.14893	11518.025
2343.98756	11500.225
2346.8244	11467.125
2349.65943	11459.525
2352.49267	11481.725
2355.32411	11473.325
2358.15376	11428.825
2360.98161	11449.525
2363.80768	11445.225
2366.63195	11432.325
2369.45444	11420.525
2372.27514	11400.925
2375.09405	11360.325
2377.91118	11317.325
2380.72652	11319.125
2383.54009	11282.725
2386.35187	11271.325
2389.16188	11249.225
2391.97011	11210.225
2394.77657	11160.725
2397.58125	11129.425
2400.38416	11139.225
2403.18529	11100.925
2405.98466	11093.825
2408.78226	11082.425
2411.57809	11080.425
2414.37216	11082.325
2417.16446	11059.525
2419.955	11024.025
2422.74378	11008.125
2425.5308	11016.225
2428.31606	10995.925
2431.09956	10970.525
2433.88131	10948.325
2436.6613	10934.625
2439.43954	10970.825
2442.21603	10951.625
2444.99077	10903.825
2447.76377	10925.425
2450.53501	10877.425
2453.30451	10878.425
2456.07226	10875.125
2458.83827	10840.725
2461.60254	10837.925
2464.36507	10825.825
2467.12586	10825.925
2469.88492	10808.025
2472.64224	10825.625
2475.39782	10826.325
2478.15167	10803.525
2480.90379	10818.725
2483.65417	10802.525
2486.40283	10815.725
2489.14976	10787.325
2491.89497	10783.525
2494.63845	10811.525
2497.3802	10758.125
2500.12024	10766.725
2502.85855	10733.125
2505.59514	10745.425
2508.33002	10727.825
2511.06318	10710.725
2513.79462	10716.825
2516.52435	10686.925
2519.25237	10682.125
2521.97867	10664.125
2524.70327	10672.025
2527.42616	10637.725
2530.14734	10620.425
2532.86681	10634.425
2535.58458	10634.625
2538.30065	10603.625
2541.01501	10599.825
2543.72768	10583.825
2546.43864	10573.825
2549.14791	10530.725
2551.85548	10536.225
2554.56136	10489.425
2557.26554	10507.725
2559.96803	10469.825
2562.66883	10463.425
2565.36794	10460.525
2568.06536	10439.725
2570.7611	10429.025
2573.45514	10405.625
2576.14751	10405.225
2578.83819	10373.625
2581.52719	10366.125
2584.21451	10378.125
2586.90015	10354.625
2589.58411	10335.325
2592.2664	10304.725
2594.94701	10314.925
2597.62594	10305.825
2600.30321	10276.925
2602.9788	10293.125
2605.65273	10283.425
2608.32498	10309.825
2610.99557	10283.725
2613.66449	10278.625
2616.33175	10258.625
2618.99734	10254.025
2621.66128	10212.225
2624.32355	10234.525
2626.98416	10224.525
2629.64311	10167.425
2632.30041	10184.625
2634.95605	10199.925
2637.61004	10131.125
2640.26238	10166.125
2642.91306	10135.825
2645.56209	10133.825
2648.20948	10166.725
2650.85521	10164.125
2653.4993	10156.825
2656.14175	10151.525
2658.78255	10195.725
2661.42171	10160.825
2664.05923	10150.825
2666.6951	10155.725
2669.32934	10154.725
2671.96194	10174.625
2674.59291	10138.025
2677.22224	10145.925
2679.84993	10132.625
2682.476	10119.525
2685.10043	10126.825
2687.72324	10108.725
2690.34441	10079.125
2692.96396	10087.825
2695.58188	10104.525
2698.19818	10087.925
2700.81285	10132.525
2703.4259	10120.625
2706.03733	10118.625
2708.64714	10103.825
2711.25533	10092.625
2713.86191	10111.525
2716.46687	10110.625
2719.07021	10112.925
2721.67194	10112.125
2724.27206	10129.225
2726.87057	10126.325
2729.46747	10137.925
2732.06276	10164.925
2734.65644	10130.825
2737.24852	10092.825
2739.83899	10119.925
2742.42786	10122.325
2745.01513	10097.225
2747.60079	10099.225
2750.18486	10066.725
2752.76733	10074.025
2755.3482	10060.625
2757.92747	10026.625
2760.50515	10009.725
2763.08123	10027.725
2765.65573	9987.225
2768.22863	10024.325
2770.79994	10000.525
2773.36967	10007.425
2775.9378	10023.025
2778.50435	10009.525
2781.06932	10011.225
2783.6327	9984.725
2786.1945	9950.125
2788.75471	9975.325
2791.31335	9969.325
2793.87041	9962.325
2796.42589	9933.525
2798.97979	9916.325
2801.53212	9882.625
2804.08288	9889.925
2806.63206	9844.925
2809.17967	9813.825
2811.72571	9810.925
2814.27018	9792.825
2816.81308	9795.525
2819.35442	9757.625
2821.89419	9722.225
2824.43239	9727.525
2826.96904	9701.025
2829.50412	9714.925
2832.03763	9695.525
2834.56959	9683.925
2837.1	9668.825
2839.62884	9710.825
2842.15613	9727.225
2844.68186	9748.625
2847.20604	9775.125
2849.72867	9801.025
2852.24974	9798.325
2854.76927	9770.225
2857.28724	9764.525
2859.80367	9742.625
2862.31855	9699.325
2864.83189	9691.025
2867.34368	9661.525
2869.85393	9654.825
2872.36264	9640.625
2874.8698	9655.925
2877.37543	9644.325
2879.87952	9610.625
2882.38207	9607.325
2884.88308	9619.625
2887.38256	9607.325
2889.88051	9591.325
2892.37692	9624.925
2894.8718	9611.325
2897.36515	9610.525
2899.85698	9613.225
2902.34727	9647.125
2904.83604	9619.025
2907.32328	9655.025
2909.809	9648.025
2912.29319	9610.725
2914.77587	9624.925
2917.25702	9614.925
2919.73665	9600.125
2922.21476	9621.325
2924.69136	9605.225
2927.16644	9637.125
2929.64	9622.625
2932.11205	9590.025
2934.58258	9575.625
2937.05161	9585.225
2939.51912	9526.525
2941.98513	9516.025
2944.44962	9499.325
2946.91261	9460.625
2949.37409	9447.325
2951.83407	9456.325
2954.29254	9427.625
2956.74951	9407.125
2959.20498	9391.425
2961.65895	9359.925
2964.11142	9361.025
2966.56239	9321.525
2969.01186	9348.225
2971.45984	9304.825
2973.90632	9283.325
2976.35131	9253.125
2978.7948	9223.625
2981.23681	9197.325
2983.67732	9195.125
2986.11635	9151.025
2988.55388	9112.225
2990.98993	9085.225
2993.4245	9051.125
2995.85758	9004.925
2998.28917	8988.125
3000.71928	8971.525
3003.14791	8928.625
3005.57506	8923.025
3008.00073	8875.725
3010.42493	8888.425
3012.84764	8859.125
3015.26888	8856.225
3017.68865	8786.625
3020.10694	8804.125
3022.52376	8770.025
3024.9391	8760.225
3027.35298	8741.225
3029.76539	8730.525
3032.17632	8735.425
3034.5858	8701.825
3036.9938	8715.125
3039.40034	8701.225
3041.80542	8689.325
3044.20903	8671.125
3046.61118	8682.925
3049.01187	8637.725
3051.4111	8635.225
3053.80888	8598.425
3056.20519	8575.925
3058.60005	8580.425
3060.99345	8535.425
3063.3854	8509.425
3065.7759	8457.825
3068.16494	8429.025
3070.55254	8394.225
3072.93868	8383.725
3075.32338	8352.925
3077.70662	8329.525
3080.08842	8284.025
3082.46878	8292.525
3084.84769	8263.125
3087.22515	8256.625
3089.60118	8240.225
3091.97576	8254.125
3094.3489	8262.725
3096.72061	8243.125
3099.09087	8235.325
3101.4597	8218.525
3103.82709	8181.925
3106.19305	8179.425
3108.55757	8197.725
3110.92066	8152.325
3113.28232	8137.925
3115.64255	8108.025
3118.00134	8082.425
3120.35871	8089.625
3122.71466	8078.625
3125.06917	8037.125
3127.42226	8016.925
3129.77393	8018.725
3132.12417	7991.325
3134.47299	7996.225
3136.82039	7999.725
3139.16636	8004.525
3141.51092	7975.525
3143.85406	7975.425
