Data from AgNPs_FTO_APTES_UA_5uM_CRN_0uM_R6G_10uM_NaF_0.1M_Addition_RamanShift__18__09-59-46-543.txt Node

Date: Mon Feb 07 09:59:46 GMT 2022
User: TCL
Spectrometer: QEP01345
Trigger mode: 4
Integration Time (sec): 7.000000E0
Scans to average: 10
Electric dark correction enabled: true
Nonlinearity correction enabled: false
Boxcar width: 0
XAxis mode: Raman Shifts
Number of Pixels in Spectrum: 1044
>>>>>Begin Spectral Data<<<<<
46.04893	0.6125
50.45542	-0.4875
54.85868	-0.6875
59.25871	0.1125
63.6555	73.7125
68.04907	80.2125
72.43941	82.6125
76.82654	85.3125
81.21044	86.7125
85.59113	92.6125
89.96862	98.1125
94.34289	98.3125
98.71396	102.1125
103.08183	102.7125
107.4465	108.6125
111.80798	109.2125
116.16626	116.8125
120.52136	120.2125
124.87327	130.0125
129.222	140.0125
133.56755	146.2125
137.90993	167.1125
142.24913	179.2125
146.58517	209.0125
150.91804	242.5125
155.24774	300.9125
159.57429	379.5125
163.89768	499.2125
168.21792	669.8125
172.53501	915.4125
176.84895	1281.7125
181.15975	1814.9125
185.46741	2539.3125
189.77193	3486.0125
194.07331	4643.9125
198.37157	5971.9125
202.6667	7342.4125
206.9587	8708.5125
211.24758	10092.8125
215.53334	11483.9125
219.81599	13035.6125
224.09553	14725.2125
228.37195	16669.7125
232.64527	18763.3125
236.91549	20876.6125
241.18261	22934.6125
245.44663	24723.3125
249.70755	26397.2125
253.96539	27874.8125
258.22014	29128.5125
262.4718	30237.0125
266.72039	31070.7125
270.96589	31519.9125
275.20832	31727.5125
279.44768	31740.7125
283.68397	31833.6125
287.91719	32001.5125
292.14735	32218.2125
296.37445	32337.9125
300.59849	32364.4125
304.81948	32448.3125
309.03742	32455.4125
313.25231	32021.5125
317.46415	30785.6125
321.67296	28994.1125
325.87872	27438.7125
330.08145	26524.4125
334.28114	26255.6125
338.47781	26408.5125
342.67145	26703.0125
346.86207	27210.7125
351.04966	27865.0125
355.23424	28619.8125
359.4158	29238.4125
363.59435	29580.4125
367.76989	29710.1125
371.94243	29756.6125
376.11196	29753.8125
380.27849	29644.1125
384.44203	29563.6125
388.60257	29630.1125
392.76012	29900.1125
396.91468	30365.3125
401.06626	31100.7125
405.21485	31644.2125
409.36047	31457.7125
413.50311	30971.8125
417.64277	30626.0125
421.77947	30637.6125
425.9132	30608.8125
430.04396	30643.5125
434.17176	30563.9125
438.2966	30386.4125
442.41849	30342.7125
446.53742	30867.3125
450.6534	31669.7125
454.76644	32547.1125
458.87653	32883.7125
462.98368	32821.7125
467.08789	32514.4125
471.18916	32126.2125
475.2875	31836.6125
479.38291	31924.9125
483.4754	32245.6125
487.56496	32328.8125
491.6516	32120.8125
495.73531	31805.5125
499.81612	31666.0125
503.89401	31863.4125
507.96899	31959.6125
512.04106	31489.6125
516.11023	30555.7125
520.1765	29447.0125
524.23987	28512.2125
528.30034	27733.2125
532.35792	27138.4125
536.41261	26595.2125
540.46441	26227.7125
544.51333	26247.4125
548.55936	26960.9125
552.60252	28211.4125
556.64279	29389.1125
560.6802	30088.6125
564.71473	30587.8125
568.7464	31738.5125
572.7752	33537.1125
576.80114	35161.2125
580.82422	36668.2125
584.84444	37866.7125
588.86181	38080.5125
592.87633	36975.0125
596.888	35517.2125
600.89682	34791.5125
604.9028	36343.4125
608.90594	41148.0125
612.90624	46053.0125
616.90371	42437.7125
620.89834	32675.7125
624.89015	28012.1125
628.87913	27355.8125
632.86528	27653.2125
636.84862	27745.2125
640.82913	27168.4125
644.80683	25979.7125
648.78172	25102.8125
652.75379	24936.8125
656.72306	25304.4125
660.68952	25957.3125
664.65319	25936.0125
668.61405	25282.8125
672.57211	25025.7125
676.52738	24997.3125
680.47986	24951.2125
684.42955	24604.6125
688.37646	24361.4125
692.32058	24386.6125
696.26192	24796.8125
700.20048	25328.2125
704.13626	25850.7125
708.06928	26203.9125
711.99952	26016.1125
715.927	25849.1125
719.85171	25862.6125
723.77365	25728.8125
727.69284	25254.5125
731.60928	24667.3125
735.52295	24372.9125
739.43388	24326.1125
743.34206	24486.2125
747.24749	24770.5125
751.15017	25268.8125
755.05012	26129.4125
758.94733	27568.7125
762.8418	30191.4125
766.73354	34246.0125
770.62254	37932.2125
774.50882	38021.7125
778.39237	34653.2125
782.27321	30523.2125
786.15132	27495.1125
790.02671	25639.5125
793.89938	24677.5125
797.76935	24282.3125
801.6366	24195.1125
805.50115	24152.0125
809.36299	23909.7125
813.22213	23626.3125
817.07857	23443.8125
820.93231	23334.0125
824.78336	23126.3125
828.63172	22957.7125
832.47738	22830.2125
836.32036	22823.8125
840.16066	22913.3125
843.99827	22983.6125
847.8332	22988.2125
851.66546	22875.9125
855.49504	22872.0125
859.32195	22810.8125
863.1462	22674.7125
866.96777	22517.6125
870.78668	22356.8125
874.60293	22264.0125
878.41652	22194.2125
882.22745	22201.1125
886.03573	22296.2125
889.84136	22352.5125
893.64433	22280.2125
897.44466	22232.5125
901.24235	22198.6125
905.0374	22043.0125
908.8298	21885.1125
912.61957	21895.9125
916.40671	22310.4125
920.19121	23098.2125
923.97308	23776.3125
927.75233	23943.5125
931.52895	23541.2125
935.30295	22743.7125
939.07433	21800.2125
942.84309	21146.5125
946.60924	20806.9125
950.37278	20756.5125
954.13371	20728.8125
957.89203	20681.2125
961.64774	20653.2125
965.40086	20587.0125
969.15137	20551.8125
972.89929	20382.5125
976.64461	20205.2125
980.38733	20130.3125
984.12747	20102.4125
987.86502	20255.5125
991.59999	20507.3125
995.33237	20923.6125
999.06217	21720.0125
1002.78939	22765.7125
1006.51404	23485.3125
1010.23611	23891.6125
1013.95561	24199.8125
1017.67255	24270.2125
1021.38692	23975.6125
1025.09872	23642.7125
1028.80796	23868.7125
1032.51465	24809.5125
1036.21877	25781.9125
1039.92035	25905.5125
1043.61937	25329.5125
1047.31584	24448.5125
1051.00976	23712.1125
1054.70114	23290.2125
1058.38998	23394.4125
1062.07627	23720.0125
1065.76003	24183.9125
1069.44126	24858.9125
1073.11995	25763.3125
1076.79611	26639.5125
1080.46974	26813.8125
1084.14085	26866.4125
1087.80943	27386.9125
1091.47549	27905.4125
1095.13903	28218.5125
1098.80005	27772.0125
1102.45857	26313.5125
1106.11456	24757.0125
1109.76805	23775.6125
1113.41903	23421.1125
1117.06751	23446.1125
1120.71348	23772.3125
1124.35696	24232.7125
1127.99793	24844.9125
1131.63641	25408.1125
1135.2724	25488.8125
1138.90589	25365.7125
1142.5369	25260.1125
1146.16542	25343.9125
1149.79145	25536.4125
1153.415	25897.9125
1157.03607	26645.8125
1160.65467	28058.8125
1164.27079	30246.9125
1167.88443	32970.2125
1171.49561	36072.4125
1175.10432	39979.1125
1178.71056	44838.4125
1182.31434	49192.9125
1185.91565	51571.8125
1189.51451	51776.0125
1193.11091	50191.9125
1196.70485	47251.5125
1200.29634	44096.2125
1203.88538	41896.2125
1207.47197	40372.4125
1211.05612	39103.3125
1214.63782	37848.7125
1218.21708	36474.4125
1221.79391	35360.7125
1225.36829	34560.3125
1228.94024	33716.3125
1232.50976	32549.7125
1236.07685	31668.1125
1239.6415	31256.4125
1243.20374	31173.2125
1246.76355	31524.3125
1250.32093	32256.9125
1253.8759	33454.7125
1257.42845	35179.8125
1260.97859	37027.6125
1264.52631	38709.1125
1268.07163	40370.5125
1271.61453	42160.2125
1275.15503	44124.0125
1278.69312	46082.3125
1282.22882	47907.6125
1285.76211	49751.4125
1289.29301	52166.0125
1292.82151	55109.9125
1296.34761	59011.0125
1299.87133	63849.4125
1303.39266	69257.6125
1306.9116	74466.8125
1310.42815	78656.3125
1313.94233	80753.9125
1317.45412	80647.2125
1320.96354	79741.4125
1324.47058	79465.8125
1327.97525	79644.5125
1331.47754	79672.1125
1334.97747	78964.8125
1338.47502	77673.9125
1341.97022	75917.6125
1345.46305	73629.5125
1348.95352	70726.0125
1352.44163	67855.7125
1355.92738	66804.8125
1359.41078	68666.2125
1362.89183	71760.9125
1366.37053	72012.2125
1369.84688	67401.9125
1373.32088	60293.6125
1376.79254	54159.1125
1380.26186	50777.0125
1383.72883	49709.8125
1387.19347	49512.5125
1390.65578	49448.5125
1394.11575	49550.6125
1397.57339	50432.9125
1401.0287	52053.4125
1404.48168	53413.3125
1407.93234	53405.9125
1411.38068	51652.1125
1414.82669	48502.4125
1418.27039	44788.2125
1421.71177	41407.9125
1425.15083	38651.1125
1428.58758	37031.2125
1432.02203	36942.2125
1435.45416	38079.8125
1438.88399	39839.2125
1442.31151	41489.4125
1445.73673	42937.4125
1449.15965	44220.1125
1452.58027	45071.5125
1455.9986	45469.7125
1459.41463	45932.5125
1462.82837	46890.9125
1466.23982	48271.9125
1469.64898	49623.7125
1473.05586	50521.4125
1476.46045	50611.9125
1479.86276	50290.1125
1483.26279	49530.9125
1486.66054	49122.6125
1490.05602	49229.0125
1493.44922	49813.6125
1496.84016	50668.7125
1500.22882	52233.1125
1503.61521	54581.3125
1506.99934	57624.0125
1510.38121	60687.9125
1513.76081	62493.3125
1517.13816	62009.6125
1520.51324	59951.2125
1523.88607	57506.5125
1527.25665	55724.6125
1530.62498	54502.0125
1533.99105	53481.9125
1537.35488	52359.1125
1540.71647	50998.6125
1544.07581	49016.6125
1547.4329	47033.6125
1550.78776	45158.4125
1554.14038	43800.3125
1557.49077	43278.3125
1560.83892	43406.4125
1564.18484	43815.2125
1567.52853	44069.6125
1570.86999	44280.7125
1574.20922	44690.2125
1577.54624	45230.4125
1580.88103	45017.8125
1584.2136	44980.2125
1587.54395	46714.6125
1590.87208	50186.7125
1594.19801	54818.9125
1597.52172	58945.0125
1600.84321	59666.7125
1604.16251	55471.5125
1607.47959	49044.2125
1610.79447	42925.8125
1614.10715	37681.0125
1617.41763	33444.3125
1620.7259	30555.4125
1624.03199	29093.7125
1627.33587	28935.7125
1630.63757	30100.5125
1633.93707	32730.7125
1637.23439	37330.5125
1640.52951	43998.9125
1643.82246	52249.7125
1647.11321	59567.3125
1650.40179	62631.7125
1653.68819	59277.2125
1656.97241	50866.0125
1660.25446	41140.3125
1663.53433	33175.7125
1666.81203	27655.9125
1670.08756	24281.1125
1673.36092	22297.8125
1676.63211	20972.7125
1679.90115	20089.7125
1683.16801	19413.7125
1686.43272	18977.0125
1689.69527	18646.5125
1692.95567	18401.4125
1696.2139	18203.2125
1699.46999	18032.2125
1702.72392	17896.7125
1705.97571	17824.5125
1709.22535	17718.4125
1712.47284	17606.2125
1715.71819	17507.8125
1718.96139	17386.6125
1722.20246	17230.2125
1725.44139	17104.2125
1728.67818	16952.0125
1731.91284	16766.1125
1735.14537	16617.0125
1738.37576	16482.5125
1741.60403	16408.9125
1744.83017	16295.3125
1748.05418	16261.2125
1751.27607	16152.1125
1754.49584	16105.2125
1757.71349	16083.7125
1760.92903	16013.0125
1764.14244	16003.6125
1767.35375	16000.7125
1770.56294	15938.0125
1773.77002	15881.8125
1776.97499	15838.9125
1780.17785	15762.1125
1783.37861	15733.0125
1786.57727	15688.7125
1789.77382	15635.9125
1792.96828	15628.1125
1796.16064	15563.7125
1799.3509	15528.3125
1802.53907	15466.2125
1805.72514	15389.7125
1808.90913	15332.3125
1812.09102	15284.9125
1815.27083	15228.3125
1818.44856	15184.9125
1821.6242	15148.0125
1824.79776	15153.0125
1827.96924	15135.1125
1831.13864	15149.3125
1834.30597	15152.9125
1837.47122	15123.7125
1840.6344	15132.1125
1843.7955	15140.3125
1846.95454	15130.8125
1850.11151	15146.3125
1853.26642	15113.1125
1856.41926	15100.6125
1859.57004	15126.3125
1862.71876	15085.9125
1865.86542	15049.8125
1869.01003	15013.8125
1872.15258	14999.0125
1875.29308	14970.1125
1878.43152	14913.8125
1881.56792	14919.3125
1884.70227	14869.8125
1887.83457	14900.5125
1890.96482	14898.1125
1894.09304	14864.3125
1897.21921	14847.8125
1900.34335	14830.8125
1903.46544	14811.5125
1906.58551	14771.3125
1909.70353	14739.2125
1912.81953	14731.7125
1915.93349	14667.7125
1919.04543	14664.0125
1922.15534	14617.1125
1925.26322	14546.3125
1928.36908	14463.3125
1931.47292	14436.8125
1934.57473	14356.6125
1937.67453	14289.0125
1940.77232	14260.7125
1943.86808	14189.5125
1946.96184	14148.7125
1950.05358	14087.1125
1953.14331	14045.4125
1956.23103	14030.0125
1959.31675	14001.0125
1962.40046	13905.1125
1965.48217	13878.5125
1968.56188	13853.8125
1971.63959	13803.4125
1974.7153	13773.1125
1977.78901	13733.7125
1980.86073	13676.8125
1983.93046	13587.4125
1986.99819	13554.1125
1990.06394	13535.0125
1993.1277	13478.1125
1996.18947	13415.6125
1999.24925	13371.3125
2002.30706	13298.5125
2005.36288	13275.0125
2008.41672	13249.9125
2011.46859	13188.0125
2014.51848	13165.4125
2017.56639	13114.0125
2020.61233	13089.5125
2023.6563	13081.2125
2026.6983	13045.5125
2029.73833	13036.0125
2032.7764	13026.2125
2035.8125	12994.8125
2038.84664	12971.0125
2041.87881	12953.5125
2044.90903	12921.0125
2047.93729	12887.9125
2050.96359	12886.1125
2053.98794	12861.7125
2057.01034	12897.6125
2060.03078	12874.1125
2063.04927	12844.9125
2066.06582	12795.5125
2069.08042	12833.3125
2072.09307	12783.6125
2075.10378	12755.7125
2078.11255	12732.7125
2081.11938	12755.9125
2084.12426	12703.5125
2087.12722	12711.7125
2090.12824	12693.9125
2093.12732	12679.1125
2096.12447	12684.7125
2099.11969	12677.1125
2102.11299	12691.8125
2105.10435	12693.3125
2108.09379	12665.0125
2111.08131	12690.1125
2114.0669	12693.4125
2117.05057	12706.9125
2120.03233	12686.3125
2123.01216	12692.9125
2125.99008	12711.9125
2128.96609	12714.6125
2131.94018	12734.1125
2134.91236	12718.5125
2137.88263	12724.3125
2140.851	12733.9125
2143.81746	12734.3125
2146.78201	12730.9125
2149.74466	12722.0125
2152.7054	12726.6125
2155.66425	12717.7125
2158.6212	12691.6125
2161.57625	12677.7125
2164.52941	12684.6125
2167.48067	12659.5125
2170.43004	12662.6125
2173.37752	12660.0125
2176.32311	12639.6125
2179.26681	12650.8125
2182.20863	12642.7125
2185.14856	12641.2125
2188.08661	12616.7125
2191.02278	12628.9125
2193.95707	12629.8125
2196.88948	12621.3125
2199.82001	12596.5125
2202.74867	12548.7125
2205.67545	12560.9125
2208.60037	12568.1125
2211.52341	12606.1125
2214.44458	12605.5125
2217.36388	12563.8125
2220.28132	12554.1125
2223.1969	12536.4125
2226.11061	12521.8125
2229.02246	12500.9125
2231.93245	12496.8125
2234.84058	12445.1125
2237.74686	12381.6125
2240.65128	12361.0125
2243.55385	12306.8125
2246.45456	12291.0125
2249.35343	12289.1125
2252.25044	12245.7125
2255.14561	12217.7125
2258.03893	12206.5125
2260.93041	12209.4125
2263.82004	12165.0125
2266.70783	12114.7125
2269.59378	12073.5125
2272.4779	12066.9125
2275.36017	12012.8125
2278.24061	12016.8125
2281.11922	11988.0125
2283.996	11972.3125
2286.87094	11977.7125
2289.74405	11960.3125
2292.61534	11932.6125
2295.4848	11936.9125
2298.35243	11922.9125
2301.21824	11936.8125
2304.08223	11971.4125
2306.94439	12003.7125
2309.80474	11994.3125
2312.66327	11994.8125
2315.51999	12012.4125
2318.37489	11993.6125
2321.22797	12008.4125
2324.07925	12012.1125
2326.92871	11984.0125
2329.77637	11975.7125
2332.62222	11959.1125
2335.46626	11987.9125
2338.3085	12019.6125
2341.14893	12025.7125
2343.98756	12052.9125
2346.8244	12076.0125
2349.65943	12105.7125
2352.49267	12118.7125
2355.32411	12142.4125
2358.15376	12135.5125
2360.98161	12087.9125
2363.80768	12101.9125
2366.63195	12087.7125
2369.45444	12067.3125
2372.27514	12016.0125
2375.09405	11959.6125
2377.91118	11956.1125
2380.72652	11916.3125
2383.54009	11845.6125
2386.35187	11866.8125
2389.16188	11816.2125
2391.97011	11795.3125
2394.77657	11757.8125
2397.58125	11726.7125
2400.38416	11715.1125
2403.18529	11685.9125
2405.98466	11685.9125
2408.78226	11617.6125
2411.57809	11604.8125
2414.37216	11579.5125
2417.16446	11584.4125
2419.955	11519.5125
2422.74378	11557.1125
2425.5308	11527.1125
2428.31606	11506.3125
2431.09956	11523.3125
2433.88131	11512.6125
2436.6613	11527.2125
2439.43954	11549.4125
2442.21603	11541.3125
2444.99077	11535.7125
2447.76377	11565.9125
2450.53501	11536.1125
2453.30451	11536.4125
2456.07226	11522.2125
2458.83827	11537.8125
2461.60254	11543.2125
2464.36507	11565.5125
2467.12586	11568.6125
2469.88492	11555.6125
2472.64224	11575.7125
2475.39782	11583.1125
2478.15167	11597.4125
2480.90379	11594.4125
2483.65417	11640.5125
2486.40283	11661.7125
2489.14976	11680.3125
2491.89497	11698.4125
2494.63845	11726.3125
2497.3802	11705.8125
2500.12024	11696.3125
2502.85855	11730.8125
2505.59514	11700.8125
2508.33002	11670.5125
2511.06318	11649.7125
2513.79462	11635.6125
2516.52435	11630.0125
2519.25237	11653.2125
2521.97867	11639.2125
2524.70327	11619.4125
2527.42616	11594.4125
2530.14734	11592.0125
2532.86681	11601.5125
2535.58458	11631.8125
2538.30065	11616.8125
2541.01501	11579.6125
2543.72768	11575.4125
2546.43864	11556.1125
2549.14791	11542.3125
2551.85548	11552.3125
2554.56136	11552.9125
2557.26554	11524.0125
2559.96803	11525.6125
2562.66883	11546.2125
2565.36794	11541.4125
2568.06536	11507.1125
2570.7611	11512.3125
2573.45514	11495.6125
2576.14751	11507.0125
2578.83819	11495.8125
2581.52719	11522.4125
2584.21451	11512.2125
2586.90015	11530.7125
2589.58411	11515.2125
2592.2664	11537.0125
2594.94701	11528.7125
2597.62594	11547.8125
2600.30321	11534.9125
2602.9788	11533.5125
2605.65273	11555.2125
2608.32498	11576.7125
2610.99557	11573.5125
2613.66449	11595.6125
2616.33175	11585.3125
2618.99734	11605.3125
2621.66128	11622.6125
2624.32355	11622.4125
2626.98416	11634.0125
2629.64311	11645.1125
2632.30041	11638.1125
2634.95605	11635.8125
2637.61004	11621.3125
2640.26238	11588.2125
2642.91306	11592.9125
2645.56209	11596.5125
2648.20948	11586.6125
2650.85521	11563.7125
2653.4993	11588.4125
2656.14175	11581.8125
2658.78255	11580.1125
2661.42171	11577.2125
2664.05923	11609.7125
2666.6951	11610.6125
2669.32934	11625.8125
2671.96194	11640.6125
2674.59291	11651.3125
2677.22224	11623.3125
2679.84993	11611.4125
2682.476	11582.2125
2685.10043	11576.5125
2687.72324	11543.2125
2690.34441	11523.6125
2692.96396	11535.5125
2695.58188	11512.1125
2698.19818	11504.5125
2700.81285	11499.7125
2703.4259	11528.0125
2706.03733	11544.2125
2708.64714	11527.7125
2711.25533	11536.9125
2713.86191	11516.4125
2716.46687	11535.4125
2719.07021	11529.9125
2721.67194	11564.7125
2724.27206	11553.1125
2726.87057	11589.1125
2729.46747	11610.9125
2732.06276	11637.7125
2734.65644	11604.5125
2737.24852	11596.6125
2739.83899	11567.4125
2742.42786	11591.5125
2745.01513	11572.7125
2747.60079	11579.9125
2750.18486	11579.0125
2752.76733	11549.0125
2755.3482	11536.1125
2757.92747	11528.7125
2760.50515	11545.8125
2763.08123	11530.5125
2765.65573	11511.6125
2768.22863	11532.8125
2770.79994	11539.2125
2773.36967	11545.3125
2775.9378	11570.5125
2778.50435	11581.1125
2781.06932	11594.1125
2783.6327	11610.5125
2786.1945	11614.0125
2788.75471	11609.4125
2791.31335	11580.0125
2793.87041	11602.6125
2796.42589	11580.5125
2798.97979	11572.5125
2801.53212	11521.3125
2804.08288	11523.0125
2806.63206	11518.5125
2809.17967	11509.8125
2811.72571	11487.0125
2814.27018	11509.3125
2816.81308	11484.2125
2819.35442	11466.1125
2821.89419	11456.5125
2824.43239	11441.3125
2826.96904	11450.2125
2829.50412	11442.2125
2832.03763	11429.9125
2834.56959	11393.6125
2837.1	11396.1125
2839.62884	11431.4125
2842.15613	11417.8125
2844.68186	11456.6125
2847.20604	11490.9125
2849.72867	11478.3125
2852.24974	11496.2125
2854.76927	11493.2125
2857.28724	11504.4125
2859.80367	11488.9125
2862.31855	11493.6125
2864.83189	11478.7125
2867.34368	11441.5125
2869.85393	11469.0125
2872.36264	11427.5125
2874.8698	11455.7125
2877.37543	11419.5125
2879.87952	11454.2125
2882.38207	11444.6125
2884.88308	11432.7125
2887.38256	11429.8125
2889.88051	11469.5125
2892.37692	11476.3125
2894.8718	11483.6125
2897.36515	11503.9125
2899.85698	11506.5125
2902.34727	11572.4125
2904.83604	11597.4125
2907.32328	11593.0125
2909.809	11612.5125
2912.29319	11648.6125
2914.77587	11665.7125
2917.25702	11634.0125
2919.73665	11636.8125
2922.21476	11585.1125
2924.69136	11597.4125
2927.16644	11570.6125
2929.64	11546.2125
2932.11205	11529.8125
2934.58258	11494.2125
2937.05161	11482.0125
2939.51912	11489.5125
2941.98513	11466.3125
2944.44962	11402.6125
2946.91261	11356.9125
2949.37409	11382.9125
2951.83407	11335.1125
2954.29254	11318.6125
2956.74951	11285.6125
2959.20498	11297.9125
2961.65895	11240.9125
2964.11142	11238.7125
2966.56239	11213.2125
2969.01186	11196.5125
2971.45984	11177.9125
2973.90632	11156.2125
2976.35131	11129.9125
2978.7948	11095.0125
2981.23681	11088.2125
2983.67732	11060.3125
2986.11635	11009.8125
2988.55388	10991.3125
2990.98993	10947.8125
2993.4245	10920.8125
2995.85758	10892.4125
2998.28917	10840.1125
3000.71928	10797.4125
3003.14791	10785.2125
3005.57506	10778.6125
3008.00073	10721.7125
3010.42493	10706.3125
3012.84764	10699.6125
3015.26888	10658.9125
3017.68865	10629.5125
3020.10694	10622.3125
3022.52376	10575.7125
