Data from AgNPs_FTO_APTES_UA_5uM_CRN_50uM_R6G_10uM_NaF_0.1M_Addition_RamanShift__12__13-56-36-818.txt Node

Date: Mon Feb 07 13:56:36 GMT 2022
User: TCL
Spectrometer: QEP01345
Trigger mode: 4
Integration Time (sec): 7.000000E0
Scans to average: 10
Electric dark correction enabled: true
Nonlinearity correction enabled: false
Boxcar width: 0
XAxis mode: Raman Shifts
Number of Pixels in Spectrum: 1044
>>>>>Begin Spectral Data<<<<<
46.04893	-1.025
50.45542	-0.225
54.85868	0.975
59.25871	0.275
63.6555	67.675
68.04907	70.375
72.43941	74.475
76.82654	78.375
81.21044	78.775
85.59113	82.175
89.96862	85.775
94.34289	86.675
98.71396	87.175
103.08183	92.575
107.4465	96.775
111.80798	95.875
116.16626	104.375
120.52136	109.575
124.87327	112.975
129.222	121.475
133.56755	129.075
137.90993	141.575
142.24913	154.375
146.58517	176.275
150.91804	208.075
155.24774	249.675
159.57429	320.875
163.89768	408.875
168.21792	553.675
172.53501	760.575
176.84895	1052.475
181.15975	1496.375
185.46741	2098.275
189.77193	2892.475
194.07331	3892.775
198.37157	5007.975
202.6667	6218.775
206.9587	7411.575
211.24758	8562.375
215.53334	9712.475
219.81599	10882.675
224.09553	12154.775
228.37195	13614.275
232.64527	15162.775
236.91549	16832.775
241.18261	18537.775
245.44663	20178.875
249.70755	21628.075
253.96539	22967.675
258.22014	24091.875
262.4718	25005.975
266.72039	25609.775
270.96589	25900.775
275.20832	26027.475
279.44768	26011.075
283.68397	25842.575
287.91719	25760.375
292.14735	25648.175
296.37445	25666.375
300.59849	25714.775
304.81948	25723.475
309.03742	25629.975
313.25231	25388.675
317.46415	24887.775
321.67296	24309.475
325.87872	23814.675
330.08145	23564.175
334.28114	23523.575
338.47781	23660.975
342.67145	23857.275
346.86207	24135.475
351.04966	24390.475
355.23424	24639.875
359.4158	24867.675
363.59435	25072.175
367.76989	25182.975
371.94243	25291.975
376.11196	25362.675
380.27849	25420.975
384.44203	25421.175
388.60257	25567.975
392.76012	25857.475
396.91468	26317.975
401.06626	26732.875
405.21485	27059.675
409.36047	27046.375
413.50311	26794.375
417.64277	26651.575
421.77947	26674.375
425.9132	26810.475
430.04396	26924.475
434.17176	27087.175
438.2966	27241.875
442.41849	27600.475
446.53742	28017.175
450.6534	28545.075
454.76644	28866.275
458.87653	29111.475
462.98368	29156.075
467.08789	29070.975
471.18916	28899.975
475.2875	28716.875
479.38291	28631.675
483.4754	28580.375
487.56496	28431.075
491.6516	28053.575
495.73531	27596.775
499.81612	27304.075
503.89401	27293.275
507.96899	27413.175
512.04106	27453.875
516.11023	27346.975
520.1765	27117.475
524.23987	26766.575
528.30034	26416.675
532.35792	26165.175
536.41261	25970.375
540.46441	25784.975
544.51333	25863.175
548.55936	26183.475
552.60252	26709.975
556.64279	27224.175
560.6802	27663.475
564.71473	28062.175
568.7464	28592.575
572.7752	29633.175
576.80114	30841.375
580.82422	31934.675
584.84444	32812.075
588.86181	33354.975
592.87633	33749.675
596.888	33620.675
600.89682	32836.675
604.9028	32234.075
608.90594	32707.675
612.90624	33222.675
616.90371	31258.575
620.89834	27972.475
624.89015	26633.175
628.87913	26646.375
632.86528	26940.475
636.84862	26972.375
640.82913	26564.075
644.80683	26032.575
648.78172	25666.175
652.75379	25495.675
656.72306	25615.675
660.68952	25798.075
664.65319	25834.075
668.61405	25648.075
672.57211	25633.675
676.52738	25613.775
680.47986	25619.275
684.42955	25523.575
688.37646	25444.975
692.32058	25495.775
696.26192	25720.275
700.20048	25981.175
704.13626	26206.675
708.06928	26360.275
711.99952	26428.775
715.927	26353.675
719.85171	26267.075
723.77365	25998.575
727.69284	25603.275
731.60928	25349.975
735.52295	25136.075
739.43388	25071.475
743.34206	25088.775
747.24749	25242.675
751.15017	25476.975
755.05012	25913.575
758.94733	26601.675
762.8418	27616.475
766.73354	29120.675
770.62254	30423.075
774.50882	30455.975
778.39237	29176.075
782.27321	27645.475
786.15132	26406.675
790.02671	25654.075
793.89938	25147.675
797.76935	24876.075
801.6366	24784.075
805.50115	24683.775
809.36299	24606.075
813.22213	24511.775
817.07857	24495.975
820.93231	24486.475
824.78336	24427.175
828.63172	24302.775
832.47738	24220.575
836.32036	24140.075
840.16066	24114.475
843.99827	24112.875
847.8332	24099.175
851.66546	24124.475
855.49504	24173.775
859.32195	24156.575
863.1462	24082.675
866.96777	24046.775
870.78668	24026.075
874.60293	24016.075
878.41652	23961.475
882.22745	23995.075
886.03573	24035.275
889.84136	24069.475
893.64433	24054.375
897.44466	23987.375
901.24235	23911.575
905.0374	23906.775
908.8298	23934.275
912.61957	24031.475
916.40671	24295.775
920.19121	24745.075
923.97308	24954.775
927.75233	24772.775
931.52895	24368.775
935.30295	24032.275
939.07433	23601.075
942.84309	23290.675
946.60924	23103.275
950.37278	22969.375
954.13371	22946.975
957.89203	22918.275
961.64774	22944.975
965.40086	22919.775
969.15137	22864.875
972.89929	22777.375
976.64461	22668.975
980.38733	22575.275
984.12747	22537.475
987.86502	22594.675
991.59999	22667.075
995.33237	22736.875
999.06217	22938.175
1002.78939	23180.775
1006.51404	23405.475
1010.23611	23705.775
1013.95561	23939.575
1017.67255	24002.375
1021.38692	23820.975
1025.09872	23647.975
1028.80796	23427.775
1032.51465	23315.375
1036.21877	23335.575
1039.92035	23450.275
1043.61937	23577.175
1047.31584	23672.775
1051.00976	23821.475
1054.70114	24011.475
1058.38998	24261.975
1062.07627	24599.875
1065.76003	25026.275
1069.44126	25325.575
1073.11995	25657.375
1076.79611	25930.775
1080.46974	25897.575
1084.14085	25974.375
1087.80943	26164.275
1091.47549	26430.375
1095.13903	26605.175
1098.80005	26470.475
1102.45857	25918.775
1106.11456	25226.375
1109.76805	24836.775
1113.41903	24684.575
1117.06751	24732.275
1120.71348	24871.475
1124.35696	25100.975
1127.99793	25373.475
1131.63641	25601.275
1135.2724	25605.975
1138.90589	25607.875
1142.5369	25695.075
1146.16542	25920.275
1149.79145	26174.675
1153.415	26564.175
1157.03607	26967.875
1160.65467	27677.575
1164.27079	28657.675
1167.88443	29873.175
1171.49561	31111.675
1175.10432	32481.375
1178.71056	34148.275
1182.31434	35737.275
1185.91565	36857.675
1189.51451	37221.175
1193.11091	37070.475
1196.70485	36285.475
1200.29634	35181.175
1203.88538	34328.475
1207.47197	33993.875
1211.05612	33908.275
1214.63782	33585.175
1218.21708	32747.275
1221.79391	31469.375
1225.36829	30460.975
1228.94024	29834.075
1232.50976	29463.475
1236.07685	29306.175
1239.6415	29287.075
1243.20374	29357.775
1246.76355	29524.075
1250.32093	29906.075
1253.8759	30407.975
1257.42845	31128.775
1260.97859	31920.975
1264.52631	32628.975
1268.07163	33398.375
1271.61453	34146.475
1275.15503	34950.775
1278.69312	35905.975
1282.22882	36874.675
1285.76211	37975.275
1289.29301	39306.875
1292.82151	40857.375
1296.34761	42706.375
1299.87133	44696.275
1303.39266	46522.975
1306.9116	48049.675
1310.42815	48836.875
1313.94233	49079.275
1317.45412	48923.275
1320.96354	48842.575
1324.47058	48983.375
1327.97525	49360.575
1331.47754	49686.575
1334.97747	50130.275
1338.47502	50407.875
1341.97022	50724.275
1345.46305	50811.275
1348.95352	50378.975
1352.44163	49436.175
1355.92738	48550.575
1359.41078	48244.875
1362.89183	47985.775
1366.37053	47029.375
1369.84688	44599.475
1373.32088	41422.775
1376.79254	39056.275
1380.26186	38044.375
1383.72883	38135.275
1387.19347	38357.175
1390.65578	38260.875
1394.11575	38026.275
1397.57339	38095.675
1401.0287	38445.275
1404.48168	38670.275
1407.93234	38384.975
1411.38068	37503.375
1414.82669	36131.475
1418.27039	34514.875
1421.71177	33091.475
1425.15083	31933.875
1428.58758	31319.375
1432.02203	31318.475
1435.45416	31922.475
1438.88399	32699.675
1442.31151	33387.475
1445.73673	34053.775
1449.15965	34575.675
1452.58027	35143.975
1455.9986	35537.375
1459.41463	35987.675
1462.82837	36482.975
1466.23982	37034.475
1469.64898	37541.875
1473.05586	37836.775
1476.46045	37962.475
1479.86276	37818.075
1483.26279	37628.375
1486.66054	37623.275
1490.05602	37756.075
1493.44922	38216.775
1496.84016	38812.275
1500.22882	39629.175
1503.61521	40548.875
1506.99934	41464.875
1510.38121	42010.275
1513.76081	42195.675
1517.13816	41964.775
1520.51324	41580.675
1523.88607	41434.775
1527.25665	41417.975
1530.62498	41387.175
1533.99105	40985.875
1537.35488	40221.575
1540.71647	39157.675
1544.07581	37877.275
1547.4329	36626.275
1550.78776	35651.575
1554.14038	35067.975
1557.49077	34704.075
1560.83892	34529.175
1564.18484	34466.475
1567.52853	34587.075
1570.86999	34826.175
1574.20922	35382.075
1577.54624	36006.075
1580.88103	36243.775
1584.2136	36490.975
1587.54395	37154.575
1590.87208	38301.575
1594.19801	39718.975
1597.52172	40953.175
1600.84321	40968.675
1604.16251	39424.975
1607.47959	37031.275
1610.79447	34627.175
1614.10715	32322.375
1617.41763	30296.775
1620.7259	28744.175
1624.03199	27848.275
1627.33587	27618.075
1630.63757	28055.875
1633.93707	29423.775
1637.23439	31781.175
1640.52951	35345.175
1643.82246	39668.275
1647.11321	43570.875
1650.40179	45204.175
1653.68819	43574.575
1656.97241	39327.775
1660.25446	34443.475
1663.53433	30128.975
1666.81203	26975.175
1670.08756	24867.675
1673.36092	23525.675
1676.63211	22599.175
1679.90115	22030.775
1683.16801	21618.275
1686.43272	21265.575
1689.69527	21032.575
1692.95567	20855.375
1696.2139	20738.075
1699.46999	20631.375
1702.72392	20493.475
1705.97571	20411.375
1709.22535	20330.875
1712.47284	20282.275
1715.71819	20233.575
1718.96139	20154.775
1722.20246	20066.575
1725.44139	19989.475
1728.67818	19860.975
1731.91284	19761.475
1735.14537	19638.075
1738.37576	19523.875
1741.60403	19458.775
1744.83017	19343.375
1748.05418	19339.375
1751.27607	19285.675
1754.49584	19265.475
1757.71349	19250.275
1760.92903	19254.575
1764.14244	19163.675
1767.35375	19170.475
1770.56294	19126.275
1773.77002	19073.575
1776.97499	18984.375
1780.17785	18959.275
1783.37861	18911.875
1786.57727	18861.675
1789.77382	18805.075
1792.96828	18795.175
1796.16064	18714.475
1799.3509	18683.875
1802.53907	18615.675
1805.72514	18569.075
1808.90913	18537.675
1812.09102	18437.475
1815.27083	18421.175
1818.44856	18396.475
1821.6242	18367.975
1824.79776	18319.875
1827.96924	18289.375
1831.13864	18270.475
1834.30597	18254.075
1837.47122	18230.775
1840.6344	18217.875
1843.7955	18224.475
1846.95454	18221.375
1850.11151	18190.375
1853.26642	18160.675
1856.41926	18159.275
1859.57004	18151.375
1862.71876	18137.775
1865.86542	18081.675
1869.01003	18048.075
1872.15258	18020.975
1875.29308	17950.675
1878.43152	17928.775
1881.56792	17916.675
1884.70227	17897.375
1887.83457	17851.975
1890.96482	17809.975
1894.09304	17751.675
1897.21921	17750.475
1900.34335	17704.575
1903.46544	17693.775
1906.58551	17690.775
1909.70353	17641.975
1912.81953	17562.075
1915.93349	17555.375
1919.04543	17531.375
1922.15534	17489.175
1925.26322	17393.175
1928.36908	17375.975
1931.47292	17328.775
1934.57473	17287.975
1937.67453	17268.575
1940.77232	17161.775
1943.86808	17118.975
1946.96184	17078.875
1950.05358	17039.575
1953.14331	16997.775
1956.23103	16932.275
1959.31675	16878.075
1962.40046	16814.875
1965.48217	16760.975
1968.56188	16685.575
1971.63959	16624.175
1974.7153	16602.175
1977.78901	16522.375
1980.86073	16446.075
1983.93046	16421.875
1986.99819	16327.775
1990.06394	16305.175
1993.1277	16260.275
1996.18947	16192.975
1999.24925	16156.075
2002.30706	16118.275
2005.36288	16049.475
2008.41672	16018.275
2011.46859	15914.175
2014.51848	15896.375
2017.56639	15834.675
2020.61233	15781.375
2023.6563	15740.475
2026.6983	15673.075
2029.73833	15619.475
2032.7764	15621.275
2035.8125	15543.375
2038.84664	15514.375
2041.87881	15481.575
2044.90903	15451.475
2047.93729	15390.275
2050.96359	15402.775
2053.98794	15370.975
2057.01034	15356.675
2060.03078	15333.675
2063.04927	15295.775
2066.06582	15292.275
2069.08042	15297.975
2072.09307	15256.875
2075.10378	15200.975
2078.11255	15219.675
2081.11938	15204.375
2084.12426	15185.175
2087.12722	15202.275
2090.12824	15185.775
2093.12732	15172.575
2096.12447	15145.575
2099.11969	15146.875
2102.11299	15187.175
2105.10435	15160.175
2108.09379	15145.675
2111.08131	15142.875
2114.0669	15152.775
2117.05057	15180.475
2120.03233	15178.275
2123.01216	15163.275
2125.99008	15161.075
2128.96609	15179.075
2131.94018	15213.875
2134.91236	15170.475
2137.88263	15176.475
2140.851	15203.475
2143.81746	15184.075
2146.78201	15163.375
2149.74466	15172.575
2152.7054	15147.875
2155.66425	15127.575
2158.6212	15127.275
2161.57625	15111.975
2164.52941	15081.375
2167.48067	15119.475
2170.43004	15070.075
2173.37752	15083.575
2176.32311	15078.875
2179.26681	15082.175
2182.20863	15056.775
2185.14856	15035.575
2188.08661	15022.375
2191.02278	15054.875
2193.95707	15029.175
2196.88948	14963.275
2199.82001	14963.375
2202.74867	14952.475
2205.67545	14926.575
2208.60037	14884.975
2211.52341	14855.975
2214.44458	14850.175
2217.36388	14812.275
2220.28132	14767.775
2223.1969	14733.675
2226.11061	14692.175
2229.02246	14672.675
2231.93245	14656.775
2234.84058	14601.775
2237.74686	14574.975
2240.65128	14557.375
2243.55385	14526.475
2246.45456	14511.375
2249.35343	14498.775
2252.25044	14470.175
2255.14561	14403.675
2258.03893	14384.675
2260.93041	14342.775
2263.82004	14309.075
2266.70783	14266.575
2269.59378	14208.475
2272.4779	14194.375
2275.36017	14122.675
2278.24061	14118.475
2281.11922	14069.475
2283.996	14030.875
2286.87094	14017.075
2289.74405	13997.075
2292.61534	13984.975
2295.4848	13942.375
2298.35243	13915.575
2301.21824	13926.275
2304.08223	13880.175
2306.94439	13871.475
2309.80474	13901.075
2312.66327	13887.575
2315.51999	13860.575
2318.37489	13802.875
2321.22797	13778.275
2324.07925	13770.475
2326.92871	13725.275
2329.77637	13685.775
2332.62222	13648.775
2335.46626	13661.775
2338.3085	13655.375
2341.14893	13636.075
2343.98756	13633.675
2346.8244	13589.875
2349.65943	13589.475
2352.49267	13554.375
2355.32411	13555.775
2358.15376	13583.175
2360.98161	13580.975
2363.80768	13550.175
2366.63195	13564.775
2369.45444	13538.275
2372.27514	13496.275
2375.09405	13476.275
2377.91118	13444.075
2380.72652	13405.575
2383.54009	13370.175
2386.35187	13393.875
2389.16188	13358.775
2391.97011	13322.075
2394.77657	13290.475
2397.58125	13242.675
2400.38416	13248.175
2403.18529	13196.075
2405.98466	13188.275
2408.78226	13159.375
2411.57809	13140.675
2414.37216	13132.075
2417.16446	13112.675
2419.955	13122.275
2422.74378	13103.375
2425.5308	13056.275
2428.31606	13077.975
2431.09956	13060.975
2433.88131	13026.375
2436.6613	13027.975
2439.43954	13013.675
2442.21603	12997.175
2444.99077	12991.375
2447.76377	12982.975
2450.53501	12973.275
2453.30451	12946.475
2456.07226	12920.675
2458.83827	12947.075
2461.60254	12925.875
2464.36507	12880.875
2467.12586	12848.075
2469.88492	12859.975
2472.64224	12864.575
2475.39782	12878.275
2478.15167	12860.975
2480.90379	12825.675
2483.65417	12814.575
2486.40283	12814.575
2489.14976	12810.975
2491.89497	12819.075
2494.63845	12813.575
2497.3802	12804.375
2500.12024	12790.875
2502.85855	12772.175
2505.59514	12746.175
2508.33002	12724.075
2511.06318	12747.675
2513.79462	12731.475
2516.52435	12726.575
2519.25237	12707.975
2521.97867	12711.275
2524.70327	12707.675
2527.42616	12633.275
2530.14734	12639.175
2532.86681	12646.075
2535.58458	12632.375
2538.30065	12618.375
2541.01501	12590.875
2543.72768	12587.075
2546.43864	12558.875
2549.14791	12557.975
2551.85548	12543.175
2554.56136	12504.375
2557.26554	12485.175
2559.96803	12468.975
2562.66883	12440.875
2565.36794	12404.675
2568.06536	12373.475
2570.7611	12375.775
2573.45514	12333.075
2576.14751	12336.475
2578.83819	12270.775
2581.52719	12308.075
2584.21451	12263.275
2586.90015	12246.775
2589.58411	12241.775
2592.2664	12245.175
2594.94701	12228.175
2597.62594	12189.275
2600.30321	12172.875
2602.9788	12179.675
2605.65273	12164.975
2608.32498	12172.475
2610.99557	12149.575
2613.66449	12138.975
2616.33175	12130.975
2618.99734	12117.275
2621.66128	12101.375
2624.32355	12078.575
2626.98416	12051.375
2629.64311	12046.375
2632.30041	12045.175
2634.95605	12040.875
2637.61004	12033.475
2640.26238	12022.875
2642.91306	12008.875
2645.56209	11997.175
2648.20948	12008.375
2650.85521	12025.075
2653.4993	11994.575
2656.14175	11990.175
2658.78255	12014.975
2661.42171	12028.475
2664.05923	12029.875
2666.6951	12027.975
2669.32934	12027.975
2671.96194	12037.975
2674.59291	12024.275
2677.22224	12029.075
2679.84993	12034.775
2682.476	12000.275
2685.10043	12006.175
2687.72324	11985.275
2690.34441	11983.275
2692.96396	11961.775
2695.58188	11985.075
2698.19818	11964.875
2700.81285	11983.075
2703.4259	12002.875
2706.03733	12023.975
2708.64714	12026.475
2711.25533	12002.375
2713.86191	11954.975
2716.46687	12003.175
2719.07021	11968.775
2721.67194	12022.875
2724.27206	12006.375
2726.87057	12014.975
2729.46747	12021.275
2732.06276	12034.675
2734.65644	12014.975
2737.24852	12024.075
2739.83899	11963.575
2742.42786	11970.675
2745.01513	11926.075
2747.60079	11931.275
2750.18486	11907.475
2752.76733	11930.375
2755.3482	11876.375
2757.92747	11886.975
2760.50515	11875.575
2763.08123	11882.875
2765.65573	11871.775
2768.22863	11883.575
2770.79994	11821.075
2773.36967	11846.675
2775.9378	11813.675
2778.50435	11805.975
2781.06932	11796.975
2783.6327	11800.575
2786.1945	11784.375
2788.75471	11805.575
2791.31335	11769.475
2793.87041	11695.875
2796.42589	11687.175
2798.97979	11720.875
2801.53212	11684.375
2804.08288	11668.275
2806.63206	11608.075
2809.17967	11588.575
2811.72571	11560.075
2814.27018	11550.075
2816.81308	11538.075
2819.35442	11489.375
2821.89419	11479.775
2824.43239	11473.975
2826.96904	11474.975
2829.50412	11440.675
2832.03763	11425.575
2834.56959	11414.375
2837.1	11400.675
2839.62884	11405.075
2842.15613	11403.875
2844.68186	11412.675
2847.20604	11430.475
2849.72867	11451.275
2852.24974	11428.475
2854.76927	11434.175
2857.28724	11436.275
2859.80367	11382.375
2862.31855	11377.275
2864.83189	11350.775
2867.34368	11322.475
2869.85393	11324.575
2872.36264	11283.375
2874.8698	11244.175
2877.37543	11239.875
2879.87952	11237.375
2882.38207	11244.375
2884.88308	11216.975
2887.38256	11199.075
2889.88051	11232.075
2892.37692	11220.875
2894.8718	11179.275
2897.36515	11214.275
2899.85698	11216.075
2902.34727	11209.675
2904.83604	11223.875
2907.32328	11246.175
2909.809	11243.175
2912.29319	11233.175
2914.77587	11230.675
2917.25702	11239.875
2919.73665	11237.275
2922.21476	11217.475
2924.69136	11220.675
2927.16644	11207.375
2929.64	11183.575
2932.11205	11166.675
2934.58258	11118.875
2937.05161	11147.875
2939.51912	11148.175
2941.98513	11140.275
2944.44962	11085.775
2946.91261	11036.375
2949.37409	11051.075
2951.83407	11049.875
2954.29254	11033.375
2956.74951	10990.075
2959.20498	10992.975
2961.65895	10980.175
2964.11142	10973.475
2966.56239	10931.075
2969.01186	10945.675
2971.45984	10904.875
2973.90632	10926.675
2976.35131	10885.375
2978.7948	10891.375
2981.23681	10863.775
2983.67732	10831.675
2986.11635	10809.575
2988.55388	10773.875
2990.98993	10752.875
2993.4245	10706.175
2995.85758	10671.875
2998.28917	10638.375
3000.71928	10623.975
3003.14791	10599.475
3005.57506	10559.375
3008.00073	10536.975
3010.42493	10429.175
3012.84764	10476.775
3015.26888	10475.775
3017.68865	10426.875
3020.10694	10418.275
3022.52376	10388.675
3024.9391	10375.075
3027.35298	10394.675
3029.76539	10362.975
3032.17632	10336.575
3034.5858	10327.375
3036.9938	10308.375
3039.40034	10293.775
3041.80542	10277.475
3044.20903	10275.675
3046.61118	10256.975
3049.01187	10233.775
3051.4111	10225.275
3053.80888	10192.875
3056.20519	10182.375
3058.60005	10168.775
3060.99345	10121.975
3063.3854	10094.475
3065.7759	10058.175
3068.16494	10034.875
3070.55254	9995.375
3072.93868	9957.575
3075.32338	9932.775
3077.70662	9907.675
3080.08842	9895.975
3082.46878	9866.675
3084.84769	9841.975
3087.22515	9848.275
3089.60118	9835.275
3091.97576	9828.675
3094.3489	9823.175
3096.72061	9818.575
3099.09087	9811.475
3101.4597	9787.975
3103.82709	9796.275
3106.19305	9796.675
3108.55757	9780.075
3110.92066	9748.575
3113.28232	9730.875
3115.64255	9694.075
3118.00134	9693.975
3120.35871	9682.675
3122.71466	9649.475
3125.06917	9626.975
3127.42226	9590.575
3129.77393	9592.975
3132.12417	9542.875
