Data from AgNPs_FTO_APTES_UA_5uM_CRN_100uM_R6G_10uM_NaF_0.1M_Addition_RamanShift__28__15-08-56-901.txt Node

Date: Mon Feb 07 15:08:56 GMT 2022
User: TCL
Spectrometer: QEP01345
Trigger mode: 4
Integration Time (sec): 7.000000E0
Scans to average: 10
Electric dark correction enabled: true
Nonlinearity correction enabled: false
Boxcar width: 0
XAxis mode: Raman Shifts
Number of Pixels in Spectrum: 1044
>>>>>Begin Spectral Data<<<<<
46.04893	-0.4875
50.45542	-0.6875
54.85868	-0.7875
59.25871	0.1125
63.6555	72.4125
68.04907	72.4125
72.43941	78.1125
76.82654	81.0125
81.21044	82.0125
85.59113	85.3125
89.96862	90.6125
94.34289	91.4125
98.71396	93.1125
103.08183	95.9125
107.4465	100.0125
111.80798	104.3125
116.16626	104.4125
120.52136	117.2125
124.87327	117.6125
129.222	124.6125
133.56755	134.4125
137.90993	147.8125
142.24913	160.5125
146.58517	189.5125
150.91804	220.9125
155.24774	265.7125
159.57429	337.9125
163.89768	441.9125
168.21792	589.8125
172.53501	802.5125
176.84895	1121.5125
181.15975	1584.5125
185.46741	2230.6125
189.77193	3084.0125
194.07331	4128.6125
198.37157	5323.3125
202.6667	6576.5125
206.9587	7835.8125
211.24758	9075.6125
215.53334	10356.6125
219.81599	11758.1125
224.09553	13357.9125
228.37195	15131.5125
232.64527	17003.2125
236.91549	18896.9125
241.18261	20751.0125
245.44663	22340.2125
249.70755	23685.5125
253.96539	24836.1125
258.22014	25914.5125
262.4718	26874.3125
266.72039	27589.3125
270.96589	28028.0125
275.20832	28154.0125
279.44768	28028.6125
283.68397	27856.3125
287.91719	27714.7125
292.14735	27849.1125
296.37445	28234.2125
300.59849	28952.4125
304.81948	29547.2125
309.03742	29898.6125
313.25231	29551.2125
317.46415	28277.3125
321.67296	26501.4125
325.87872	24993.4125
330.08145	24255.8125
334.28114	24218.9125
338.47781	24483.4125
342.67145	25011.1125
346.86207	25851.0125
351.04966	27043.8125
355.23424	28318.7125
359.4158	29325.3125
363.59435	29810.5125
367.76989	29997.7125
371.94243	29960.6125
376.11196	29920.4125
380.27849	29829.9125
384.44203	29697.1125
388.60257	29504.3125
392.76012	29480.6125
396.91468	29757.5125
401.06626	30389.8125
405.21485	30937.3125
409.36047	30571.2125
413.50311	29359.3125
417.64277	28255.5125
421.77947	27666.4125
425.9132	27472.3125
430.04396	27564.6125
434.17176	27781.4125
438.2966	28171.4125
442.41849	28848.6125
446.53742	29759.8125
450.6534	30725.6125
454.76644	31371.1125
458.87653	31579.8125
462.98368	31381.5125
467.08789	30976.5125
471.18916	30617.3125
475.2875	30242.5125
479.38291	30017.4125
483.4754	29690.6125
487.56496	29151.7125
491.6516	28525.0125
495.73531	28087.9125
499.81612	27812.1125
503.89401	27952.4125
507.96899	28113.2125
512.04106	28274.6125
516.11023	28396.6125
520.1765	28444.2125
524.23987	28234.2125
528.30034	27774.7125
532.35792	27386.4125
536.41261	27023.8125
540.46441	26587.3125
544.51333	26477.5125
548.55936	26836.5125
552.60252	27547.2125
556.64279	28410.5125
560.6802	28925.7125
564.71473	29446.9125
568.7464	30531.1125
572.7752	31484.9125
576.80114	31067.0125
580.82422	30270.2125
584.84444	30008.6125
588.86181	30050.2125
592.87633	30354.3125
596.888	30721.4125
600.89682	31157.2125
604.9028	33288.4125
608.90594	39497.4125
612.90624	47997.9125
616.90371	46027.2125
620.89834	34080.5125
624.89015	28556.8125
628.87913	27674.2125
632.86528	27818.4125
636.84862	27964.0125
640.82913	27419.5125
644.80683	26343.6125
648.78172	25561.9125
652.75379	25438.9125
656.72306	26139.0125
660.68952	27132.0125
664.65319	27055.3125
668.61405	26081.6125
672.57211	25597.1125
676.52738	25548.1125
680.47986	25587.9125
684.42955	25443.1125
688.37646	25336.3125
692.32058	25403.7125
696.26192	25645.0125
700.20048	25996.2125
704.13626	26198.6125
708.06928	26158.3125
711.99952	25942.7125
715.927	25847.5125
719.85171	25933.1125
723.77365	25888.8125
727.69284	25655.7125
731.60928	25413.1125
735.52295	25366.5125
739.43388	25408.9125
743.34206	25479.2125
747.24749	25608.3125
751.15017	25861.1125
755.05012	26401.0125
758.94733	27547.7125
762.8418	29934.4125
766.73354	33995.7125
770.62254	38178.0125
774.50882	39944.6125
778.39237	37963.1125
782.27321	33470.5125
786.15132	29367.6125
790.02671	26958.4125
793.89938	25862.8125
797.76935	25433.6125
801.6366	25225.2125
805.50115	25105.4125
809.36299	25021.5125
813.22213	24923.7125
817.07857	24956.1125
820.93231	24958.4125
824.78336	24980.2125
828.63172	24968.3125
832.47738	24997.2125
836.32036	24919.8125
840.16066	24861.8125
843.99827	24799.4125
847.8332	24670.5125
851.66546	24580.8125
855.49504	24581.3125
859.32195	24525.7125
863.1462	24429.6125
866.96777	24371.6125
870.78668	24295.1125
874.60293	24323.5125
878.41652	24321.5125
882.22745	24466.7125
886.03573	24546.9125
889.84136	24530.2125
893.64433	24345.0125
897.44466	24315.8125
901.24235	24257.4125
905.0374	24195.5125
908.8298	24139.1125
912.61957	24148.3125
916.40671	24397.5125
920.19121	24664.8125
923.97308	24903.4125
927.75233	24996.9125
931.52895	25056.2125
935.30295	24835.8125
939.07433	24231.3125
942.84309	23658.9125
946.60924	23362.9125
950.37278	23169.0125
954.13371	23106.0125
957.89203	23008.1125
961.64774	22986.7125
965.40086	22956.0125
969.15137	22820.6125
972.89929	22720.3125
976.64461	22663.6125
980.38733	22649.4125
984.12747	22696.6125
987.86502	22896.4125
991.59999	23073.5125
995.33237	23420.9125
999.06217	24044.8125
1002.78939	24781.8125
1006.51404	25391.5125
1010.23611	25714.7125
1013.95561	26021.0125
1017.67255	25971.4125
1021.38692	25588.3125
1025.09872	25243.5125
1028.80796	25177.8125
1032.51465	25570.8125
1036.21877	25967.5125
1039.92035	26088.6125
1043.61937	25922.5125
1047.31584	25635.1125
1051.00976	25274.7125
1054.70114	25111.0125
1058.38998	25162.3125
1062.07627	25389.8125
1065.76003	25567.7125
1069.44126	25665.4125
1073.11995	25835.0125
1076.79611	26065.1125
1080.46974	26367.1125
1084.14085	26809.4125
1087.80943	27340.5125
1091.47549	27648.7125
1095.13903	27475.3125
1098.80005	26845.6125
1102.45857	26215.6125
1106.11456	25842.7125
1109.76805	25820.0125
1113.41903	26211.7125
1117.06751	26876.5125
1120.71348	27718.7125
1124.35696	28555.7125
1127.99793	29258.0125
1131.63641	29204.5125
1135.2724	28364.5125
1138.90589	27400.3125
1142.5369	26874.8125
1146.16542	26564.9125
1149.79145	26535.3125
1153.415	26773.6125
1157.03607	27125.7125
1160.65467	27761.9125
1164.27079	28809.5125
1167.88443	30470.0125
1171.49561	32816.0125
1175.10432	36372.5125
1178.71056	40915.8125
1182.31434	44505.0125
1185.91565	45752.4125
1189.51451	45129.1125
1193.11091	43129.9125
1196.70485	40624.9125
1200.29634	38523.1125
1203.88538	36783.8125
1207.47197	35021.3125
1211.05612	33606.7125
1214.63782	32631.0125
1218.21708	32133.8125
1221.79391	31899.3125
1225.36829	31748.9125
1228.94024	31464.9125
1232.50976	31100.8125
1236.07685	30871.8125
1239.6415	30820.9125
1243.20374	30913.8125
1246.76355	31150.8125
1250.32093	31650.8125
1253.8759	32351.8125
1257.42845	33357.1125
1260.97859	34336.9125
1264.52631	35175.5125
1268.07163	36051.9125
1271.61453	36975.7125
1275.15503	37820.3125
1278.69312	38537.4125
1282.22882	39181.7125
1285.76211	40050.4125
1289.29301	41360.2125
1292.82151	43015.4125
1296.34761	44989.4125
1299.87133	47599.7125
1303.39266	51185.8125
1306.9116	55979.5125
1310.42815	61255.5125
1313.94233	64600.3125
1317.45412	64338.0125
1320.96354	61879.5125
1324.47058	58944.0125
1327.97525	56307.1125
1331.47754	54566.4125
1334.97747	53860.8125
1338.47502	54031.7125
1341.97022	54730.2125
1345.46305	55108.9125
1348.95352	55372.8125
1352.44163	56122.0125
1355.92738	58557.1125
1359.41078	63744.3125
1362.89183	69227.7125
1366.37053	67647.9125
1369.84688	58874.6125
1373.32088	50125.3125
1376.79254	44747.2125
1380.26186	42484.7125
1383.72883	41815.6125
1387.19347	41571.8125
1390.65578	41246.3125
1394.11575	41147.6125
1397.57339	41688.4125
1401.0287	42659.0125
1404.48168	43641.6125
1407.93234	44164.0125
1411.38068	44047.5125
1414.82669	42912.6125
1418.27039	41163.9125
1421.71177	39165.9125
1425.15083	37352.1125
1428.58758	36298.2125
1432.02203	36177.9125
1435.45416	36638.2125
1438.88399	37226.3125
1442.31151	37858.5125
1445.73673	38457.8125
1449.15965	39196.9125
1452.58027	39833.0125
1455.9986	40186.4125
1459.41463	40551.3125
1462.82837	41159.3125
1466.23982	41854.7125
1469.64898	42430.4125
1473.05586	42644.6125
1476.46045	42493.1125
1479.86276	42366.2125
1483.26279	42426.3125
1486.66054	42617.7125
1490.05602	43120.2125
1493.44922	43840.6125
1496.84016	45143.2125
1500.22882	47402.6125
1503.61521	50767.6125
1506.99934	55120.3125
1510.38121	59696.1125
1513.76081	62022.4125
1517.13816	60171.3125
1520.51324	54969.4125
1523.88607	49502.5125
1527.25665	45844.2125
1530.62498	43792.2125
1533.99105	42711.2125
1537.35488	42110.3125
1540.71647	41684.2125
1544.07581	41238.2125
1547.4329	40657.9125
1550.78776	40246.2125
1554.14038	39912.0125
1557.49077	40006.5125
1560.83892	40336.5125
1564.18484	40968.8125
1567.52853	41582.7125
1570.86999	41991.4125
1574.20922	42477.0125
1577.54624	42593.1125
1580.88103	41751.9125
1584.2136	40730.4125
1587.54395	40720.9125
1590.87208	42181.8125
1594.19801	44642.8125
1597.52172	47427.7125
1600.84321	48459.5125
1604.16251	46672.3125
1607.47959	43201.8125
1610.79447	39366.9125
1614.10715	35775.9125
1617.41763	32938.0125
1620.7259	31007.8125
1624.03199	30032.7125
1627.33587	29971.6125
1630.63757	30708.2125
1633.93707	32479.5125
1637.23439	35238.6125
1640.52951	39129.1125
1643.82246	44012.1125
1647.11321	48884.1125
1650.40179	51638.5125
1653.68819	49617.3125
1656.97241	43278.3125
1660.25446	36267.5125
1663.53433	30999.1125
1666.81203	27778.2125
1670.08756	25765.7125
1673.36092	24570.4125
1676.63211	23785.7125
1679.90115	23252.0125
1683.16801	22880.9125
1686.43272	22551.5125
1689.69527	22304.0125
1692.95567	22157.1125
1696.2139	22057.4125
1699.46999	21979.3125
1702.72392	21910.1125
1705.97571	21854.3125
1709.22535	21745.5125
1712.47284	21748.0125
1715.71819	21756.3125
1718.96139	21707.0125
1722.20246	21608.4125
1725.44139	21554.8125
1728.67818	21413.7125
1731.91284	21292.5125
1735.14537	21139.6125
1738.37576	21068.4125
1741.60403	20983.2125
1744.83017	20906.5125
1748.05418	20844.0125
1751.27607	20819.0125
1754.49584	20788.0125
1757.71349	20791.5125
1760.92903	20739.1125
1764.14244	20727.2125
1767.35375	20709.3125
1770.56294	20644.9125
1773.77002	20572.7125
1776.97499	20549.0125
1780.17785	20472.6125
1783.37861	20452.8125
1786.57727	20453.9125
1789.77382	20438.0125
1792.96828	20391.2125
1796.16064	20355.3125
1799.3509	20321.0125
1802.53907	20259.1125
1805.72514	20192.9125
1808.90913	20145.4125
1812.09102	20096.7125
1815.27083	20039.6125
1818.44856	20003.7125
1821.6242	19988.0125
1824.79776	19935.6125
1827.96924	19907.5125
1831.13864	19877.4125
1834.30597	19909.8125
1837.47122	19886.4125
1840.6344	19887.1125
1843.7955	19860.7125
1846.95454	19844.6125
1850.11151	19864.5125
1853.26642	19852.9125
1856.41926	19850.5125
1859.57004	19883.3125
1862.71876	19874.2125
1865.86542	19806.8125
1869.01003	19818.3125
1872.15258	19845.5125
1875.29308	19810.8125
1878.43152	19832.5125
1881.56792	19820.4125
1884.70227	19828.8125
1887.83457	19791.5125
1890.96482	19781.2125
1894.09304	19773.9125
1897.21921	19768.1125
1900.34335	19763.5125
1903.46544	19777.3125
1906.58551	19794.5125
1909.70353	19793.6125
1912.81953	19762.4125
1915.93349	19746.6125
1919.04543	19719.9125
1922.15534	19692.9125
1925.26322	19648.2125
1928.36908	19570.8125
1931.47292	19520.9125
1934.57473	19437.4125
1937.67453	19404.7125
1940.77232	19306.6125
1943.86808	19250.4125
1946.96184	19164.9125
1950.05358	19111.1125
1953.14331	19069.0125
1956.23103	19003.5125
1959.31675	18959.4125
1962.40046	18885.4125
1965.48217	18809.1125
1968.56188	18760.4125
1971.63959	18709.3125
1974.7153	18665.8125
1977.78901	18590.6125
1980.86073	18500.4125
1983.93046	18456.3125
1986.99819	18383.5125
1990.06394	18345.1125
1993.1277	18309.1125
1996.18947	18243.5125
1999.24925	18174.9125
2002.30706	18125.5125
2005.36288	18082.6125
2008.41672	18036.7125
2011.46859	17984.2125
2014.51848	17932.2125
2017.56639	17907.5125
2020.61233	17833.8125
2023.6563	17751.8125
2026.6983	17749.8125
2029.73833	17686.2125
2032.7764	17664.8125
2035.8125	17658.5125
2038.84664	17601.6125
2041.87881	17594.5125
2044.90903	17535.1125
2047.93729	17524.8125
2050.96359	17509.7125
2053.98794	17478.9125
2057.01034	17463.3125
2060.03078	17472.0125
2063.04927	17401.6125
2066.06582	17421.6125
2069.08042	17417.9125
2072.09307	17362.1125
2075.10378	17341.2125
2078.11255	17312.3125
2081.11938	17317.6125
2084.12426	17278.2125
2087.12722	17304.5125
2090.12824	17274.7125
2093.12732	17268.4125
2096.12447	17280.3125
2099.11969	17295.8125
2102.11299	17277.4125
2105.10435	17280.6125
2108.09379	17248.3125
2111.08131	17272.9125
2114.0669	17308.8125
2117.05057	17297.0125
2120.03233	17301.2125
2123.01216	17326.2125
2125.99008	17365.8125
2128.96609	17341.9125
2131.94018	17352.6125
2134.91236	17374.9125
2137.88263	17368.9125
2140.851	17410.7125
2143.81746	17429.7125
2146.78201	17386.4125
2149.74466	17381.3125
2152.7054	17371.6125
2155.66425	17350.9125
2158.6212	17331.3125
2161.57625	17332.9125
2164.52941	17341.8125
2167.48067	17282.6125
2170.43004	17309.7125
2173.37752	17280.7125
2176.32311	17276.4125
2179.26681	17288.4125
2182.20863	17317.7125
2185.14856	17308.2125
2188.08661	17306.0125
2191.02278	17344.5125
2193.95707	17317.7125
2196.88948	17267.8125
2199.82001	17279.1125
2202.74867	17247.5125
2205.67545	17234.2125
2208.60037	17217.9125
2211.52341	17190.4125
2214.44458	17193.8125
2217.36388	17187.5125
2220.28132	17106.0125
2223.1969	17092.6125
2226.11061	17078.9125
2229.02246	17033.0125
2231.93245	16971.8125
2234.84058	16932.7125
2237.74686	16911.3125
2240.65128	16862.1125
2243.55385	16871.5125
2246.45456	16835.2125
2249.35343	16808.4125
2252.25044	16802.9125
2255.14561	16777.9125
2258.03893	16782.1125
2260.93041	16763.6125
2263.82004	16756.4125
2266.70783	16674.6125
2269.59378	16594.3125
2272.4779	16572.6125
2275.36017	16530.6125
2278.24061	16520.6125
2281.11922	16473.2125
2283.996	16463.8125
2286.87094	16443.8125
2289.74405	16420.7125
2292.61534	16398.8125
2295.4848	16359.6125
2298.35243	16326.8125
2301.21824	16318.1125
2304.08223	16325.2125
2306.94439	16334.8125
2309.80474	16343.6125
2312.66327	16343.3125
2315.51999	16364.0125
2318.37489	16354.4125
2321.22797	16308.9125
2324.07925	16320.6125
2326.92871	16275.7125
2329.77637	16256.5125
2332.62222	16208.0125
2335.46626	16229.8125
2338.3085	16236.5125
2341.14893	16236.4125
2343.98756	16267.6125
2346.8244	16293.4125
2349.65943	16245.0125
2352.49267	16290.3125
2355.32411	16263.7125
2358.15376	16251.0125
2360.98161	16248.3125
2363.80768	16268.6125
2366.63195	16252.7125
2369.45444	16246.4125
2372.27514	16246.3125
2375.09405	16176.9125
2377.91118	16134.3125
2380.72652	16052.1125
2383.54009	16021.3125
2386.35187	16013.0125
2389.16188	15951.3125
2391.97011	15915.0125
2394.77657	15882.6125
2397.58125	15824.5125
2400.38416	15817.3125
2403.18529	15777.5125
2405.98466	15747.7125
2408.78226	15718.3125
2411.57809	15691.5125
2414.37216	15659.9125
2417.16446	15655.0125
2419.955	15639.3125
2422.74378	15642.2125
2425.5308	15570.6125
2428.31606	15589.6125
2431.09956	15597.1125
2433.88131	15587.4125
2436.6613	15598.9125
2439.43954	15585.7125
2442.21603	15588.7125
2444.99077	15571.0125
2447.76377	15544.7125
2450.53501	15539.3125
2453.30451	15549.9125
2456.07226	15539.2125
2458.83827	15529.5125
2461.60254	15531.6125
2464.36507	15513.4125
2467.12586	15479.2125
2469.88492	15472.1125
2472.64224	15512.2125
2475.39782	15522.0125
2478.15167	15525.7125
2480.90379	15526.4125
2483.65417	15551.8125
2486.40283	15620.2125
2489.14976	15608.4125
2491.89497	15626.7125
2494.63845	15640.9125
2497.3802	15632.6125
2500.12024	15611.2125
2502.85855	15606.8125
2505.59514	15515.8125
2508.33002	15535.4125
2511.06318	15512.1125
2513.79462	15471.7125
2516.52435	15420.9125
2519.25237	15427.1125
2521.97867	15406.1125
2524.70327	15351.6125
2527.42616	15354.2125
2530.14734	15344.6125
2532.86681	15333.1125
2535.58458	15306.0125
2538.30065	15316.0125
2541.01501	15330.9125
2543.72768	15285.2125
2546.43864	15270.9125
2549.14791	15253.1125
2551.85548	15261.1125
2554.56136	15258.7125
2557.26554	15214.2125
2559.96803	15205.0125
2562.66883	15189.1125
2565.36794	15153.7125
2568.06536	15136.3125
2570.7611	15100.6125
2573.45514	15119.9125
2576.14751	15107.7125
2578.83819	15074.7125
2581.52719	15076.2125
2584.21451	15098.6125
2586.90015	15064.5125
2589.58411	15055.2125
2592.2664	15033.0125
2594.94701	15045.1125
2597.62594	15033.2125
2600.30321	15010.4125
2602.9788	15008.9125
2605.65273	15000.3125
2608.32498	14981.9125
2610.99557	14987.1125
2613.66449	14999.9125
2616.33175	15017.8125
2618.99734	15012.8125
2621.66128	15000.5125
2624.32355	14986.1125
2626.98416	14971.6125
2629.64311	14970.4125
2632.30041	14958.8125
2634.95605	14960.8125
2637.61004	14932.4125
2640.26238	14895.6125
2642.91306	14911.3125
2645.56209	14849.5125
2648.20948	14853.7125
2650.85521	14869.7125
2653.4993	14894.4125
2656.14175	14859.8125
2658.78255	14870.3125
2661.42171	14869.2125
2664.05923	14904.4125
2666.6951	14908.7125
2669.32934	14953.3125
2671.96194	14936.0125
2674.59291	14957.9125
2677.22224	14956.6125
2679.84993	14979.0125
2682.476	14922.7125
2685.10043	14943.3125
2687.72324	14887.7125
2690.34441	14906.1125
2692.96396	14849.3125
2695.58188	14888.8125
2698.19818	14857.5125
2700.81285	14888.6125
2703.4259	14916.6125
2706.03733	14973.3125
2708.64714	14937.4125
2711.25533	14943.9125
2713.86191	14939.4125
2716.46687	14946.1125
2719.07021	14970.3125
2721.67194	14977.5125
2724.27206	14993.2125
2726.87057	14962.7125
2729.46747	14969.9125
2732.06276	14968.3125
2734.65644	14967.5125
2737.24852	14946.5125
2739.83899	14936.3125
2742.42786	14942.4125
2745.01513	14914.3125
2747.60079	14894.1125
2750.18486	14903.2125
2752.76733	14882.7125
2755.3482	14845.1125
2757.92747	14834.4125
2760.50515	14830.2125
2763.08123	14870.4125
2765.65573	14832.4125
2768.22863	14838.8125
2770.79994	14837.8125
2773.36967	14835.9125
2775.9378	14823.6125
2778.50435	14808.5125
2781.06932	14798.4125
2783.6327	14851.0125
2786.1945	14838.3125
2788.75471	14834.6125
2791.31335	14815.7125
2793.87041	14772.9125
2796.42589	14737.8125
2798.97979	14760.3125
2801.53212	14692.9125
2804.08288	14681.0125
2806.63206	14648.0125
2809.17967	14626.0125
2811.72571	14576.1125
2814.27018	14580.3125
2816.81308	14579.5125
2819.35442	14541.3125
2821.89419	14546.9125
2824.43239	14543.4125
2826.96904	14520.1125
2829.50412	14540.9125
2832.03763	14514.3125
2834.56959	14482.5125
2837.1	14500.3125
2839.62884	14490.5125
2842.15613	14518.0125
2844.68186	14545.8125
2847.20604	14578.8125
2849.72867	14601.6125
2852.24974	14623.4125
2854.76927	14624.9125
2857.28724	14592.3125
2859.80367	14579.0125
2862.31855	14563.3125
2864.83189	14512.5125
2867.34368	14527.0125
2869.85393	14555.8125
2872.36264	14506.8125
2874.8698	14489.3125
2877.37543	14482.2125
2879.87952	14448.4125
2882.38207	14475.1125
2884.88308	14424.4125
2887.38256	14479.0125
2889.88051	14474.4125
2892.37692	14486.8125
2894.8718	14461.4125
2897.36515	14463.7125
2899.85698	14444.4125
2902.34727	14497.1125
2904.83604	14508.5125
2907.32328	14535.8125
2909.809	14512.2125
2912.29319	14517.7125
2914.77587	14541.8125
2917.25702	14534.4125
2919.73665	14508.7125
2922.21476	14507.7125
2924.69136	14513.6125
2927.16644	14476.5125
2929.64	14458.4125
2932.11205	14408.5125
2934.58258	14378.1125
2937.05161	14405.3125
2939.51912	14358.0125
2941.98513	14346.1125
2944.44962	14281.6125
2946.91261	14219.9125
2949.37409	14256.7125
2951.83407	14210.7125
2954.29254	14196.1125
2956.74951	14176.6125
2959.20498	14155.1125
2961.65895	14147.8125
2964.11142	14106.2125
2966.56239	14086.3125
2969.01186	14096.5125
2971.45984	14047.9125
2973.90632	14062.5125
2976.35131	14025.6125
2978.7948	14001.8125
2981.23681	13945.5125
2983.67732	13910.9125
2986.11635	13870.2125
2988.55388	13812.0125
2990.98993	13789.0125
2993.4245	13768.4125
2995.85758	13706.9125
2998.28917	13692.2125
3000.71928	13673.7125
3003.14791	13658.2125
3005.57506	13621.3125
3008.00073	13597.5125
3010.42493	13468.6125
3012.84764	13538.0125
3015.26888	13534.3125
3017.68865	13486.9125
3020.10694	13474.3125
3022.52376	13440.3125
