Data from AgNPs_FTO_APTES_UA_5uM_CRN_2uM_R6G_10uM_NaF_0.1M_Addition_RamanShift__2__10-59-16-613.txt Node

Date: Mon Feb 07 10:59:16 GMT 2022
User: TCL
Spectrometer: QEP01345
Trigger mode: 4
Integration Time (sec): 7.000000E0
Scans to average: 10
Electric dark correction enabled: true
Nonlinearity correction enabled: false
Boxcar width: 0
XAxis mode: Raman Shifts
Number of Pixels in Spectrum: 1044
>>>>>Begin Spectral Data<<<<<
46.04893	-2.325
50.45542	-1.925
54.85868	-1.225
59.25871	-0.325
63.6555	107.075
68.04907	112.875
72.43941	119.075
76.82654	122.175
81.21044	127.175
85.59113	134.175
89.96862	134.375
94.34289	139.675
98.71396	144.675
103.08183	147.675
107.4465	153.875
111.80798	157.475
116.16626	160.175
120.52136	170.875
124.87327	172.375
129.222	184.875
133.56755	198.675
137.90993	216.275
142.24913	231.875
146.58517	267.475
150.91804	302.975
155.24774	367.675
159.57429	462.575
163.89768	591.175
168.21792	786.475
172.53501	1077.175
176.84895	1498.975
181.15975	2100.975
185.46741	2953.175
189.77193	4076.575
194.07331	5447.775
198.37157	6985.275
202.6667	8614.675
206.9587	10287.475
211.24758	11878.575
215.53334	13556.875
219.81599	15312.075
224.09553	17260.175
228.37195	19448.575
232.64527	21777.275
236.91549	24145.375
241.18261	26530.075
245.44663	28683.975
249.70755	30532.175
253.96539	32209.075
258.22014	33640.475
262.4718	34777.375
266.72039	35517.775
270.96589	35931.675
275.20832	35901.875
279.44768	35619.675
283.68397	35248.275
287.91719	34943.875
292.14735	34771.275
296.37445	34713.675
300.59849	34916.875
304.81948	35240.475
309.03742	35385.275
313.25231	35279.375
317.46415	34780.775
321.67296	34030.675
325.87872	33379.675
330.08145	33036.075
334.28114	32935.675
338.47781	33131.575
342.67145	33473.775
346.86207	33999.975
351.04966	34751.675
355.23424	35457.275
359.4158	36212.175
363.59435	36701.075
367.76989	37093.175
371.94243	37385.575
376.11196	37489.975
380.27849	37581.275
384.44203	37800.275
388.60257	38144.475
392.76012	38513.575
396.91468	38963.475
401.06626	39634.575
405.21485	40123.675
409.36047	40111.375
413.50311	39863.675
417.64277	39839.575
421.77947	40141.575
425.9132	40438.475
430.04396	40654.275
434.17176	40794.175
438.2966	40956.175
442.41849	41598.775
446.53742	42990.175
450.6534	44608.975
454.76644	45624.975
458.87653	45628.275
462.98368	44926.175
467.08789	43840.175
471.18916	42738.375
475.2875	41595.275
479.38291	40955.875
483.4754	40601.175
487.56496	40323.875
491.6516	39881.175
495.73531	39505.875
499.81612	39369.975
503.89401	39672.475
507.96899	39835.875
512.04106	39546.075
516.11023	39126.275
520.1765	38567.375
524.23987	38247.775
528.30034	38056.775
532.35792	37743.575
536.41261	37056.075
540.46441	36350.175
544.51333	36119.875
548.55936	36457.575
552.60252	37344.075
556.64279	38488.275
560.6802	39544.275
564.71473	40042.075
568.7464	40755.675
572.7752	42191.375
576.80114	43714.975
580.82422	45679.575
584.84444	48468.175
588.86181	51922.275
592.87633	54627.675
596.888	54217.875
600.89682	50485.875
604.9028	48628.875
608.90594	51443.775
612.90624	55218.975
616.90371	51815.575
620.89834	43275.675
624.89015	39308.275
628.87913	38715.075
632.86528	38651.575
636.84862	38145.475
640.82913	37086.575
644.80683	36020.575
648.78172	35450.075
652.75379	35530.775
656.72306	36156.575
660.68952	36716.475
664.65319	36405.975
668.61405	35655.375
672.57211	35541.575
676.52738	35806.675
680.47986	35723.375
684.42955	35255.875
688.37646	35065.675
692.32058	35461.475
696.26192	36354.675
700.20048	37253.575
704.13626	37589.875
708.06928	37431.475
711.99952	37129.075
715.927	37237.075
719.85171	37673.375
723.77365	37562.575
727.69284	36644.875
731.60928	35883.375
735.52295	35675.975
739.43388	35743.175
743.34206	35948.475
747.24749	36239.375
751.15017	36621.075
755.05012	37359.275
758.94733	38425.375
762.8418	40381.475
766.73354	43241.675
770.62254	45818.675
774.50882	46185.075
778.39237	44083.975
782.27321	41096.275
786.15132	38540.975
790.02671	36990.975
793.89938	36284.475
797.76935	36124.875
801.6366	36156.675
805.50115	36131.175
809.36299	35907.875
813.22213	35468.875
817.07857	35130.975
820.93231	34877.875
824.78336	34658.975
828.63172	34615.875
832.47738	34610.975
836.32036	34772.475
840.16066	35033.975
843.99827	35290.375
847.8332	35151.075
851.66546	34939.475
855.49504	34811.775
859.32195	34843.675
863.1462	34683.575
866.96777	34479.075
870.78668	34340.475
874.60293	34297.475
878.41652	34368.775
882.22745	34576.375
886.03573	34737.175
889.84136	34670.775
893.64433	34446.775
897.44466	34301.875
901.24235	34123.375
905.0374	34011.375
908.8298	33958.975
912.61957	34075.975
916.40671	34449.075
920.19121	35060.575
923.97308	35827.175
927.75233	36255.875
931.52895	36095.575
935.30295	35401.275
939.07433	34571.775
942.84309	33981.775
946.60924	33786.675
950.37278	33733.275
954.13371	33626.975
957.89203	33518.975
961.64774	33387.575
965.40086	33405.375
969.15137	33410.575
972.89929	33317.975
976.64461	33316.075
980.38733	33485.375
984.12747	33699.675
987.86502	34035.075
991.59999	34595.075
995.33237	35357.575
999.06217	36750.575
1002.78939	38324.575
1006.51404	39512.475
1010.23611	40106.075
1013.95561	40521.375
1017.67255	40503.475
1021.38692	39728.075
1025.09872	38931.775
1028.80796	39321.275
1032.51465	40937.875
1036.21877	42685.475
1039.92035	43082.675
1043.61937	42447.275
1047.31584	41001.275
1051.00976	39397.675
1054.70114	38443.275
1058.38998	38047.275
1062.07627	37934.175
1065.76003	38051.975
1069.44126	38440.075
1073.11995	39180.275
1076.79611	39928.175
1080.46974	40402.975
1084.14085	40838.375
1087.80943	41388.175
1091.47549	41755.575
1095.13903	41664.475
1098.80005	40857.075
1102.45857	39715.875
1106.11456	38906.475
1109.76805	38598.875
1113.41903	38564.875
1117.06751	38672.775
1120.71348	38994.275
1124.35696	39339.775
1127.99793	39841.875
1131.63641	40177.975
1135.2724	40197.075
1138.90589	40098.175
1142.5369	40274.075
1146.16542	40566.475
1149.79145	40947.275
1153.415	41340.375
1157.03607	42087.575
1160.65467	43825.275
1164.27079	46599.075
1167.88443	49777.175
1171.49561	52855.675
1175.10432	56542.375
1178.71056	61688.575
1182.31434	66616.775
1185.91565	68869.875
1189.51451	67729.675
1193.11091	64793.875
1196.70485	61753.975
1200.29634	59354.575
1203.88538	58152.975
1207.47197	57668.775
1211.05612	57178.475
1214.63782	56059.775
1218.21708	54537.675
1221.79391	53218.775
1225.36829	52395.175
1228.94024	51413.375
1232.50976	49948.675
1236.07685	48547.375
1239.6415	47747.575
1243.20374	47722.475
1246.76355	48235.375
1250.32093	49386.475
1253.8759	50882.175
1257.42845	52578.975
1260.97859	54557.975
1264.52631	56459.075
1268.07163	58601.975
1271.61453	60901.375
1275.15503	63348.075
1278.69312	65877.375
1282.22882	68366.775
1285.76211	71174.275
1289.29301	74419.575
1292.82151	78186.975
1296.34761	83076.575
1299.87133	89413.675
1303.39266	96497.875
1306.9116	103051.475
1310.42815	107527.075
1313.94233	108937.475
1317.45412	106729.275
1320.96354	102619.875
1324.47058	98968.775
1327.97525	96368.675
1331.47754	94944.975
1334.97747	93693.875
1338.47502	91655.575
1341.97022	88564.375
1345.46305	85215.075
1348.95352	83472.275
1352.44163	84680.475
1355.92738	89267.275
1359.41078	96106.475
1362.89183	101139.475
1366.37053	100403.375
1369.84688	92231.175
1373.32088	80424.375
1376.79254	71962.675
1380.26186	68981.475
1383.72883	69247.875
1387.19347	69049.875
1390.65578	67768.275
1394.11575	67257.875
1397.57339	68225.275
1401.0287	70305.575
1404.48168	72209.175
1407.93234	72851.875
1411.38068	71617.875
1414.82669	69073.975
1418.27039	65810.175
1421.71177	62498.875
1425.15083	59761.975
1428.58758	58614.675
1432.02203	59653.475
1435.45416	62156.075
1438.88399	64613.275
1442.31151	66322.075
1445.73673	67051.975
1449.15965	67326.575
1452.58027	66837.775
1455.9986	65816.675
1459.41463	65465.475
1462.82837	66362.975
1466.23982	68203.875
1469.64898	70284.775
1473.05586	71645.675
1476.46045	72143.575
1479.86276	71941.575
1483.26279	71088.375
1486.66054	70613.275
1490.05602	70660.975
1493.44922	70998.075
1496.84016	70941.075
1500.22882	71041.175
1503.61521	71681.475
1506.99934	72856.175
1510.38121	74068.875
1513.76081	74277.875
1517.13816	73107.075
1520.51324	71199.775
1523.88607	69887.975
1527.25665	69924.375
1530.62498	70477.875
1533.99105	70457.975
1537.35488	69613.975
1540.71647	68087.675
1544.07581	66083.875
1547.4329	63942.075
1550.78776	61965.275
1554.14038	60336.975
1557.49077	59285.575
1560.83892	58414.475
1564.18484	57965.875
1567.52853	57929.875
1570.86999	58411.975
1574.20922	59491.175
1577.54624	60685.675
1580.88103	61463.575
1584.2136	63051.875
1587.54395	66866.875
1590.87208	72929.075
1594.19801	80140.975
1597.52172	86217.875
1600.84321	87439.675
1604.16251	81983.875
1607.47959	72524.975
1610.79447	62986.275
1614.10715	55332.875
1617.41763	50112.775
1620.7259	47199.575
1624.03199	46036.275
1627.33587	46641.175
1630.63757	48784.075
1633.93707	52874.275
1637.23439	59540.875
1640.52951	69426.375
1643.82246	81442.775
1647.11321	91059.175
1650.40179	91621.575
1653.68819	81988.075
1656.97241	67823.575
1660.25446	55540.575
1663.53433	47151.575
1666.81203	42144.975
1670.08756	39170.575
1673.36092	37301.175
1676.63211	36124.175
1679.90115	35340.475
1683.16801	34697.575
1686.43272	34203.575
1689.69527	33882.875
1692.95567	33653.975
1696.2139	33472.275
1699.46999	33359.375
1702.72392	33202.975
1705.97571	33100.875
1709.22535	33005.475
1712.47284	32982.475
1715.71819	32912.075
1718.96139	32898.775
1722.20246	32755.475
1725.44139	32620.575
1728.67818	32395.175
1731.91284	32153.675
1735.14537	32007.575
1738.37576	31842.975
1741.60403	31682.075
1744.83017	31583.875
1748.05418	31494.675
1751.27607	31402.175
1754.49584	31380.775
1757.71349	31340.875
1760.92903	31299.675
1764.14244	31289.775
1767.35375	31294.275
1770.56294	31258.275
1773.77002	31172.375
1776.97499	31167.275
1780.17785	31026.075
1783.37861	31005.475
1786.57727	30974.275
1789.77382	30940.175
1792.96828	30920.575
1796.16064	30838.375
1799.3509	30779.575
1802.53907	30743.875
1805.72514	30688.075
1808.90913	30604.675
1812.09102	30507.575
1815.27083	30449.475
1818.44856	30450.075
1821.6242	30387.975
1824.79776	30408.575
1827.96924	30367.075
1831.13864	30359.375
1834.30597	30398.975
1837.47122	30357.975
1840.6344	30324.575
1843.7955	30376.875
1846.95454	30417.975
1850.11151	30416.175
1853.26642	30363.975
1856.41926	30348.075
1859.57004	30399.875
1862.71876	30369.275
1865.86542	30311.475
1869.01003	30266.675
1872.15258	30243.575
1875.29308	30290.175
1878.43152	30219.075
1881.56792	30251.575
1884.70227	30222.975
1887.83457	30209.975
1890.96482	30159.775
1894.09304	30124.075
1897.21921	30112.975
1900.34335	30067.575
1903.46544	30045.775
1906.58551	30025.075
1909.70353	29989.475
1912.81953	29934.375
1915.93349	29938.775
1919.04543	29842.375
1922.15534	29765.175
1925.26322	29730.475
1928.36908	29677.375
1931.47292	29604.975
1934.57473	29474.175
1937.67453	29395.875
1940.77232	29301.275
1943.86808	29212.875
1946.96184	29162.575
1950.05358	29136.375
1953.14331	29063.775
1956.23103	29000.475
1959.31675	28885.375
1962.40046	28860.975
1965.48217	28746.575
1968.56188	28688.175
1971.63959	28607.475
1974.7153	28489.575
1977.78901	28446.275
1980.86073	28378.775
1983.93046	28244.375
1986.99819	28189.675
1990.06394	28121.875
1993.1277	28076.275
1996.18947	27961.475
1999.24925	27912.175
2002.30706	27823.775
2005.36288	27703.475
2008.41672	27660.775
2011.46859	27598.275
2014.51848	27566.275
2017.56639	27443.175
2020.61233	27424.575
2023.6563	27417.475
2026.6983	27341.775
2029.73833	27360.075
2032.7764	27295.975
2035.8125	27260.575
2038.84664	27226.375
2041.87881	27219.175
2044.90903	27182.775
2047.93729	27118.575
2050.96359	27131.375
2053.98794	27095.075
2057.01034	27097.275
2060.03078	27085.575
2063.04927	27079.175
2066.06582	27077.075
2069.08042	27059.075
2072.09307	27011.475
2075.10378	26952.375
2078.11255	26936.175
2081.11938	26941.375
2084.12426	26922.675
2087.12722	26926.175
2090.12824	26906.775
2093.12732	26896.775
2096.12447	26929.775
2099.11969	26969.675
2102.11299	26958.775
2105.10435	26876.775
2108.09379	26944.375
2111.08131	26962.575
2114.0669	26948.875
2117.05057	26999.775
2120.03233	27004.275
2123.01216	27068.475
2125.99008	27070.975
2128.96609	27083.175
2131.94018	27100.875
2134.91236	27154.975
2137.88263	27174.575
2140.851	27193.075
2143.81746	27205.575
2146.78201	27198.075
2149.74466	27221.275
2152.7054	27179.675
2155.66425	27205.575
2158.6212	27141.375
2161.57625	27128.375
2164.52941	27149.875
2167.48067	27112.775
2170.43004	27153.775
2173.37752	27162.275
2176.32311	27145.675
2179.26681	27155.375
2182.20863	27142.075
2185.14856	27179.075
2188.08661	27180.175
2191.02278	27236.075
2193.95707	27248.775
2196.88948	27219.875
2199.82001	27182.375
2202.74867	27186.475
2205.67545	27194.375
2208.60037	27130.475
2211.52341	27162.675
2214.44458	27168.375
2217.36388	27131.175
2220.28132	27090.575
2223.1969	27023.075
2226.11061	27007.375
2229.02246	26973.075
2231.93245	26958.575
2234.84058	26938.475
2237.74686	26918.875
2240.65128	26893.075
2243.55385	26835.275
2246.45456	26811.975
2249.35343	26742.075
2252.25044	26699.075
2255.14561	26616.775
2258.03893	26560.475
2260.93041	26469.875
2263.82004	26455.575
2266.70783	26389.575
2269.59378	26314.775
2272.4779	26255.175
2275.36017	26212.075
2278.24061	26143.975
2281.11922	26147.175
2283.996	26141.575
2286.87094	26151.275
2289.74405	26106.175
2292.61534	26136.775
2295.4848	26105.175
2298.35243	26170.675
2301.21824	26171.875
2304.08223	26190.175
2306.94439	26244.775
2309.80474	26295.675
2312.66327	26345.075
2315.51999	26314.275
2318.37489	26248.075
2321.22797	26238.375
2324.07925	26277.175
2326.92871	26256.075
2329.77637	26183.675
2332.62222	26146.575
2335.46626	26236.575
2338.3085	26208.975
2341.14893	26240.175
2343.98756	26292.675
2346.8244	26257.375
2349.65943	26240.575
2352.49267	26249.175
2355.32411	26228.475
2358.15376	26193.675
2360.98161	26174.475
2363.80768	26074.975
2366.63195	26127.875
2369.45444	26069.275
2372.27514	26052.875
2375.09405	26002.075
2377.91118	25918.575
2380.72652	25866.375
2383.54009	25851.375
2386.35187	25823.675
2389.16188	25763.575
2391.97011	25759.675
2394.77657	25730.575
2397.58125	25689.875
2400.38416	25659.775
2403.18529	25633.175
2405.98466	25592.275
2408.78226	25565.275
2411.57809	25512.675
2414.37216	25489.775
2417.16446	25569.175
2419.955	25496.075
2422.74378	25441.775
2425.5308	25405.375
2428.31606	25438.375
2431.09956	25407.975
2433.88131	25427.275
2436.6613	25454.175
2439.43954	25466.775
2442.21603	25450.675
2444.99077	25409.475
2447.76377	25395.575
2450.53501	25355.275
2453.30451	25355.875
2456.07226	25380.275
2458.83827	25381.775
2461.60254	25395.975
2464.36507	25403.775
2467.12586	25383.475
2469.88492	25402.375
2472.64224	25425.975
2475.39782	25499.375
2478.15167	25560.875
2480.90379	25530.575
2483.65417	25550.075
2486.40283	25565.375
2489.14976	25616.975
2491.89497	25586.675
2494.63845	25615.075
2497.3802	25638.375
2500.12024	25648.275
2502.85855	25573.075
2505.59514	25609.075
2508.33002	25587.075
2511.06318	25547.775
2513.79462	25501.175
2516.52435	25494.575
2519.25237	25557.575
2521.97867	25552.775
2524.70327	25538.875
2527.42616	25513.975
2530.14734	25515.275
2532.86681	25568.375
2535.58458	25582.475
2538.30065	25524.875
2541.01501	25528.675
2543.72768	25480.375
2546.43864	25477.275
2549.14791	25409.375
2551.85548	25495.175
2554.56136	25496.275
2557.26554	25456.975
2559.96803	25467.875
2562.66883	25452.675
2565.36794	25441.975
2568.06536	25466.975
2570.7611	25438.375
2573.45514	25448.075
2576.14751	25455.675
2578.83819	25436.375
2581.52719	25443.175
2584.21451	25421.675
2586.90015	25473.675
2589.58411	25451.275
2592.2664	25466.375
2594.94701	25366.475
2597.62594	25378.075
2600.30321	25366.875
2602.9788	25381.575
2605.65273	25399.375
2608.32498	25430.075
2610.99557	25464.875
2613.66449	25444.175
2616.33175	25443.975
2618.99734	25490.575
2621.66128	25416.075
2624.32355	25382.675
2626.98416	25397.575
2629.64311	25402.875
2632.30041	25428.675
2634.95605	25401.575
2637.61004	25339.175
2640.26238	25307.375
2642.91306	25303.475
2645.56209	25274.975
2648.20948	25286.675
2650.85521	25335.875
2653.4993	25328.675
2656.14175	25287.575
2658.78255	25369.175
2661.42171	25372.775
2664.05923	25481.075
2666.6951	25426.775
2669.32934	25516.975
2671.96194	25496.375
2674.59291	25536.775
2677.22224	25498.775
2679.84993	25506.575
2682.476	25498.875
2685.10043	25478.675
2687.72324	25400.975
2690.34441	25400.475
2692.96396	25390.975
2695.58188	25405.775
2698.19818	25394.075
2700.81285	25417.875
2703.4259	25378.775
2706.03733	25459.175
2708.64714	25483.975
2711.25533	25503.375
2713.86191	25452.575
2716.46687	25509.375
2719.07021	25523.375
2721.67194	25572.375
2724.27206	25589.475
2726.87057	25590.875
2729.46747	25621.175
2732.06276	25670.475
2734.65644	25632.675
2737.24852	25662.675
2739.83899	25650.575
2742.42786	25673.875
2745.01513	25594.575
2747.60079	25628.375
2750.18486	25628.375
2752.76733	25634.075
2755.3482	25599.075
2757.92747	25607.875
2760.50515	25620.875
2763.08123	25604.475
2765.65573	25626.775
2768.22863	25589.175
2770.79994	25582.775
2773.36967	25647.875
2775.9378	25677.275
2778.50435	25688.075
2781.06932	25665.375
2783.6327	25665.575
2786.1945	25663.875
2788.75471	25715.175
2791.31335	25674.675
2793.87041	25680.675
2796.42589	25569.175
2798.97979	25583.975
2801.53212	25526.975
2804.08288	25476.275
2806.63206	25411.475
2809.17967	25379.075
2811.72571	25333.275
2814.27018	25302.575
2816.81308	25241.575
2819.35442	25225.175
2821.89419	25201.075
2824.43239	25208.175
2826.96904	25217.275
2829.50412	25219.175
2832.03763	25157.175
2834.56959	25161.675
2837.1	25109.375
2839.62884	25131.275
2842.15613	25116.075
2844.68186	25263.875
2847.20604	25196.475
2849.72867	25199.275
2852.24974	25215.775
2854.76927	25180.675
2857.28724	25184.775
2859.80367	25159.675
2862.31855	25129.075
2864.83189	25115.075
2867.34368	25043.575
2869.85393	25046.875
2872.36264	24983.075
2874.8698	25007.675
2877.37543	25023.375
2879.87952	25012.575
2882.38207	25036.775
2884.88308	25036.075
2887.38256	25078.375
2889.88051	25067.675
2892.37692	25123.375
2894.8718	25152.375
2897.36515	25197.275
2899.85698	25168.675
2902.34727	25315.475
2904.83604	25335.075
2907.32328	25346.875
2909.809	25339.675
2912.29319	25353.475
2914.77587	25365.575
2917.25702	25341.575
2919.73665	25340.175
2922.21476	25273.175
2924.69136	25254.275
2927.16644	25295.475
2929.64	25204.475
2932.11205	25200.975
2934.58258	25066.275
2937.05161	25144.375
2939.51912	25147.675
2941.98513	25144.475
2944.44962	25074.775
2946.91261	25002.475
2949.37409	25044.375
2951.83407	25040.475
2954.29254	25012.175
2956.74951	25002.275
2959.20498	24999.375
2961.65895	24957.875
2964.11142	24913.675
2966.56239	24882.975
2969.01186	24845.175
2971.45984	24805.075
2973.90632	24823.175
2976.35131	24739.875
2978.7948	24676.175
2981.23681	24654.875
2983.67732	24621.675
2986.11635	24583.675
2988.55388	24508.075
2990.98993	24448.475
2993.4245	24375.775
2995.85758	24311.675
2998.28917	24273.175
3000.71928	24268.675
3003.14791	24217.375
3005.57506	24229.875
3008.00073	24110.275
3010.42493	24147.575
3012.84764	24084.375
3015.26888	24080.575
3017.68865	24025.875
3020.10694	23981.675
3022.52376	23943.575
3024.9391	23901.775
3027.35298	23850.875
3029.76539	23876.475
3032.17632	23846.375
3034.5858	23807.775
3036.9938	23799.975
3039.40034	23831.175
3041.80542	23788.675
3044.20903	23767.875
3046.61118	23785.275
3049.01187	23715.375
3051.4111	23708.775
3053.80888	23648.075
3056.20519	23659.175
3058.60005	23607.875
3060.99345	23570.475
3063.3854	23481.975
3065.7759	23412.275
3068.16494	23368.375
3070.55254	23275.375
3072.93868	23240.075
3075.32338	23177.875
3077.70662	23166.975
3080.08842	23068.475
3082.46878	23031.575
3084.84769	23000.775
3087.22515	23003.875
3089.60118	22978.575
3091.97576	23002.675
3094.3489	22994.075
3096.72061	23008.475
3099.09087	23004.775
3101.4597	22941.375
3103.82709	22936.875
3106.19305	22915.275
3108.55757	22873.275
3110.92066	22815.775
3113.28232	22808.275
3115.64255	22708.675
3118.00134	22667.675
3120.35871	22682.575
3122.71466	22584.875
3125.06917	22559.175
