Data from AgNPs_FTO_APTES_UA_5uM_CRN_50uM_R6G_10uM_NaF_0.1M_Addition_RamanShift__19__14-04-46-827.txt Node

Date: Mon Feb 07 14:04:46 GMT 2022
User: TCL
Spectrometer: QEP01345
Trigger mode: 4
Integration Time (sec): 7.000000E0
Scans to average: 10
Electric dark correction enabled: true
Nonlinearity correction enabled: false
Boxcar width: 0
XAxis mode: Raman Shifts
Number of Pixels in Spectrum: 1044
>>>>>Begin Spectral Data<<<<<
46.04893	-1.4
50.45542	-0.5
54.85868	-1
59.25871	0.3
63.6555	68.6
68.04907	77.4
72.43941	80.8
76.82654	80.4
81.21044	83.1
85.59113	86.4
89.96862	89.5
94.34289	89.3
98.71396	93.8
103.08183	99.3
107.4465	100.9
111.80798	101.5
116.16626	106.5
120.52136	114.2
124.87327	117.1
129.222	126.5
133.56755	133.7
137.90993	145.4
142.24913	163.3
146.58517	188.7
150.91804	214.8
155.24774	259.7
159.57429	323.1
163.89768	418
168.21792	570.6
172.53501	771.4
176.84895	1074.3
181.15975	1502.9
185.46741	2114.6
189.77193	2933.6
194.07331	3900
198.37157	5016.5
202.6667	6212.8
206.9587	7366.4
211.24758	8533.6
215.53334	9681.4
219.81599	10888.7
224.09553	12245.5
228.37195	13682.2
232.64527	15298.3
236.91549	16965.9
241.18261	18693.2
245.44663	20358.4
249.70755	21833.7
253.96539	23104.7
258.22014	24223.8
262.4718	25167.5
266.72039	25881
270.96589	26313.8
275.20832	26467.4
279.44768	26518.7
283.68397	26476.1
287.91719	26434.7
292.14735	26511.7
296.37445	26560.1
300.59849	26648.8
304.81948	26624.5
309.03742	26338.8
313.25231	25877
317.46415	25140.8
321.67296	24283.4
325.87872	23614.1
330.08145	23273.1
334.28114	23209.1
338.47781	23310.3
342.67145	23530.4
346.86207	23840.4
351.04966	24227.4
355.23424	24611.2
359.4158	24927.3
363.59435	25171.2
367.76989	25346.2
371.94243	25446.2
376.11196	25586.5
380.27849	25724.8
384.44203	25855.5
388.60257	26043.5
392.76012	26391.2
396.91468	26774.3
401.06626	27187.3
405.21485	27445.3
409.36047	27382.2
413.50311	27046.8
417.64277	26768.7
421.77947	26741.9
425.9132	26898.2
430.04396	27107.6
434.17176	27268.5
438.2966	27504.1
442.41849	27985.3
446.53742	28659.8
450.6534	29526.3
454.76644	30247.7
458.87653	30622.3
462.98368	30644.8
467.08789	30447.9
471.18916	30268.3
475.2875	30161.8
479.38291	30280.1
483.4754	30237.1
487.56496	29790.1
491.6516	29064.5
495.73531	28330.9
499.81612	27924.9
503.89401	27861.6
507.96899	27910.4
512.04106	27726.5
516.11023	27473.5
520.1765	27087.8
524.23987	26694
528.30034	26347.7
532.35792	26117.6
536.41261	25901.3
540.46441	25730.4
544.51333	25887.8
548.55936	26349.7
552.60252	27069
556.64279	27796.7
560.6802	28369.1
564.71473	28698.2
568.7464	29263.3
572.7752	30103.4
576.80114	30812.4
580.82422	31333.8
584.84444	31700.3
588.86181	32054.1
592.87633	32327.8
596.888	32499
600.89682	32404.4
604.9028	32969.4
608.90594	34572.7
612.90624	35936.1
616.90371	33388.1
620.89834	28750.7
624.89015	26832.3
628.87913	26851
632.86528	27090.2
636.84862	27040.3
640.82913	26547.8
644.80683	25824.4
648.78172	25239.8
652.75379	24957.4
656.72306	25049.2
660.68952	25346.4
664.65319	25287.6
668.61405	24937.5
672.57211	24802.6
676.52738	24834.3
680.47986	24889.6
684.42955	24735.1
688.37646	24677.1
692.32058	24741.3
696.26192	24983.6
700.20048	25278.3
704.13626	25496.1
708.06928	25496.7
711.99952	25383.9
715.927	25306.2
719.85171	25304.9
723.77365	25200.8
727.69284	24978.5
731.60928	24711.4
735.52295	24618.8
739.43388	24575.2
743.34206	24647.6
747.24749	24744.6
751.15017	25024.1
755.05012	25516.6
758.94733	26412.2
762.8418	27788.9
766.73354	29770.1
770.62254	31409.3
774.50882	31435.5
778.39237	29797.2
782.27321	27610.1
786.15132	25944.1
790.02671	25020.8
793.89938	24537.8
797.76935	24371.1
801.6366	24349
805.50115	24330.4
809.36299	24241.6
813.22213	24060.6
817.07857	23988.4
820.93231	23910.3
824.78336	23793.1
828.63172	23667.6
832.47738	23513.7
836.32036	23561
840.16066	23604.2
843.99827	23754.2
847.8332	23690.5
851.66546	23525.5
855.49504	23452.7
859.32195	23469.5
863.1462	23376.7
866.96777	23317.7
870.78668	23183.5
874.60293	23193.5
878.41652	23189.8
882.22745	23393.6
886.03573	23305.7
889.84136	23267.6
893.64433	23203.2
897.44466	23105.9
901.24235	23007
905.0374	22935.7
908.8298	22891.7
912.61957	23007.1
916.40671	23312.4
920.19121	23752.1
923.97308	24020.3
927.75233	23952.6
931.52895	23711.3
935.30295	23346.3
939.07433	22916.9
942.84309	22516.3
946.60924	22390.9
950.37278	22276.2
954.13371	22219.9
957.89203	22160.8
961.64774	22173
965.40086	22156.9
969.15137	21995.6
972.89929	21876.2
976.64461	21733.2
980.38733	21680.1
984.12747	21732
987.86502	21918.8
991.59999	22178.8
995.33237	22570.8
999.06217	23177.5
1002.78939	23954.1
1006.51404	24322.5
1010.23611	24464.8
1013.95561	24615.7
1017.67255	24691.2
1021.38692	24522.8
1025.09872	24255.4
1028.80796	24360.4
1032.51465	24972.9
1036.21877	25624
1039.92035	25742
1043.61937	25451.7
1047.31584	24881.8
1051.00976	24391.1
1054.70114	24186
1058.38998	24336.6
1062.07627	24591.5
1065.76003	24856.5
1069.44126	25085.6
1073.11995	25260.8
1076.79611	25442.4
1080.46974	25536.6
1084.14085	25662.1
1087.80943	25940.2
1091.47549	26241.3
1095.13903	26361.9
1098.80005	26160
1102.45857	25601.5
1106.11456	25106
1109.76805	24870.2
1113.41903	24868.2
1117.06751	25035.3
1120.71348	25263.7
1124.35696	25493.1
1127.99793	25746.9
1131.63641	25996.3
1135.2724	25974.6
1138.90589	25871.5
1142.5369	25959.2
1146.16542	26101.9
1149.79145	26441.8
1153.415	26884.4
1157.03607	27577.4
1160.65467	28493.7
1164.27079	29855.7
1167.88443	31613.8
1171.49561	33712.4
1175.10432	36211.4
1178.71056	39307.5
1182.31434	42089
1185.91565	43765.9
1189.51451	43956.1
1193.11091	43088.9
1196.70485	41577.9
1200.29634	39736.1
1203.88538	38392.9
1207.47197	37617.3
1211.05612	36993.9
1214.63782	36303.9
1218.21708	35373.3
1221.79391	34512.1
1225.36829	33832.9
1228.94024	33181.6
1232.50976	32466.3
1236.07685	31977.8
1239.6415	31685
1243.20374	31648
1246.76355	31936
1250.32093	32501.7
1253.8759	33212.3
1257.42845	34212.3
1260.97859	35117.8
1264.52631	36029.4
1268.07163	36968.2
1271.61453	38130.1
1275.15503	39417.5
1278.69312	40966.8
1282.22882	42403.7
1285.76211	43785.5
1289.29301	45396.9
1292.82151	47580.1
1296.34761	50397.1
1299.87133	53741.6
1303.39266	57021.6
1306.9116	60218.3
1310.42815	62863.1
1313.94233	64417.2
1317.45412	64640.6
1320.96354	64264.1
1324.47058	63772.5
1327.97525	63408.4
1331.47754	63164.6
1334.97747	63054.4
1338.47502	62916.9
1341.97022	62531.1
1345.46305	61494
1348.95352	59796
1352.44163	57906.9
1355.92738	57002.7
1359.41078	57291.5
1362.89183	57902.4
1366.37053	56651.9
1369.84688	52819.2
1373.32088	48258.7
1376.79254	45118.1
1380.26186	44099.3
1383.72883	44508.6
1387.19347	45236.4
1390.65578	45520.3
1394.11575	45878.6
1397.57339	46793.4
1401.0287	48038.6
1404.48168	48945
1407.93234	48965.1
1411.38068	47774
1414.82669	45631.4
1418.27039	43008.1
1421.71177	40447.4
1425.15083	38382.1
1428.58758	37207.3
1432.02203	37142.7
1435.45416	38078
1438.88399	39403
1442.31151	40784.9
1445.73673	41958.7
1449.15965	42879.6
1452.58027	43800.4
1455.9986	44435.6
1459.41463	44951.8
1462.82837	45696.2
1466.23982	46381.2
1469.64898	46820.4
1473.05586	46949.6
1476.46045	46687.5
1479.86276	46006.2
1483.26279	45083.5
1486.66054	44402.8
1490.05602	43995.4
1493.44922	43893.8
1496.84016	43883.1
1500.22882	44247.9
1503.61521	44959.6
1506.99934	46080
1510.38121	47206.6
1513.76081	47711.7
1517.13816	47416.3
1520.51324	46542.4
1523.88607	45834.6
1527.25665	45562.7
1530.62498	45638
1533.99105	45754.4
1537.35488	45616.6
1540.71647	44976.3
1544.07581	43950.2
1547.4329	42659.7
1550.78776	41644.4
1554.14038	40850.1
1557.49077	40489.8
1560.83892	40192.8
1564.18484	40048.7
1567.52853	40027.6
1570.86999	40246.2
1574.20922	40963.3
1577.54624	41905.8
1580.88103	42556.3
1584.2136	43330.7
1587.54395	44874.6
1590.87208	47090.2
1594.19801	49723.4
1597.52172	52135.7
1600.84321	52602.7
1604.16251	50175.3
1607.47959	46076.5
1610.79447	41806
1614.10715	37922.1
1617.41763	34774
1620.7259	32528.4
1624.03199	31231.4
1627.33587	31067.5
1630.63757	31996.4
1633.93707	34268.5
1637.23439	37871.2
1640.52951	42834.6
1643.82246	48314.5
1647.11321	52420.3
1650.40179	52984.3
1653.68819	49367.1
1656.97241	43120.6
1660.25446	36665.4
1663.53433	31529
1666.81203	28038.3
1670.08756	25802.7
1673.36092	24351.9
1676.63211	23356.2
1679.90115	22749.3
1683.16801	22242.9
1686.43272	21879.1
1689.69527	21596.1
1692.95567	21372.9
1696.2139	21244.7
1699.46999	21103.5
1702.72392	20994.4
1705.97571	20919.8
1709.22535	20822.3
1712.47284	20748.5
1715.71819	20656.8
1718.96139	20607.6
1722.20246	20505.7
1725.44139	20422.6
1728.67818	20293.6
1731.91284	20151.8
1735.14537	20077
1738.37576	19938.3
1741.60403	19868.3
1744.83017	19795.5
1748.05418	19754.1
1751.27607	19722.1
1754.49584	19699
1757.71349	19662.8
1760.92903	19644.9
1764.14244	19621.6
1767.35375	19578.8
1770.56294	19532.5
1773.77002	19473
1776.97499	19426.1
1780.17785	19346.2
1783.37861	19372.6
1786.57727	19308.2
1789.77382	19243.5
1792.96828	19239.1
1796.16064	19193.3
1799.3509	19147.9
1802.53907	19118.8
1805.72514	19045.3
1808.90913	18987.5
1812.09102	18925.2
1815.27083	18873.2
1818.44856	18873.3
1821.6242	18842.2
1824.79776	18802
1827.96924	18811.2
1831.13864	18762.7
1834.30597	18783.9
1837.47122	18756.8
1840.6344	18777.3
1843.7955	18727.7
1846.95454	18759
1850.11151	18754.6
1853.26642	18748.4
1856.41926	18747.2
1859.57004	18778.8
1862.71876	18748.3
1865.86542	18680.1
1869.01003	18664.1
1872.15258	18660.3
1875.29308	18628.9
1878.43152	18620.2
1881.56792	18598.5
1884.70227	18603.2
1887.83457	18575.5
1890.96482	18571.3
1894.09304	18554.3
1897.21921	18537
1900.34335	18509.2
1903.46544	18507.1
1906.58551	18500.7
1909.70353	18490.6
1912.81953	18433.1
1915.93349	18399.1
1919.04543	18392.9
1922.15534	18332.6
1925.26322	18267.5
1928.36908	18236
1931.47292	18203.3
1934.57473	18145.2
1937.67453	18094.9
1940.77232	18008.3
1943.86808	17995.3
1946.96184	17915.6
1950.05358	17883.1
1953.14331	17803.8
1956.23103	17757.6
1959.31675	17706
1962.40046	17617.1
1965.48217	17591.2
1968.56188	17553.3
1971.63959	17472.1
1974.7153	17439.5
1977.78901	17374.9
1980.86073	17301.9
1983.93046	17266.1
1986.99819	17214
1990.06394	17169.9
1993.1277	17109.5
1996.18947	17066.1
1999.24925	17035.1
2002.30706	17007.5
2005.36288	16896.6
2008.41672	16900.2
2011.46859	16841.5
2014.51848	16785.3
2017.56639	16750
2020.61233	16718.6
2023.6563	16652.8
2026.6983	16613.6
2029.73833	16546.9
2032.7764	16565.9
2035.8125	16545.3
2038.84664	16481.9
2041.87881	16480.1
2044.90903	16483.4
2047.93729	16440.3
2050.96359	16419.8
2053.98794	16382.8
2057.01034	16398
2060.03078	16413.5
2063.04927	16387.6
2066.06582	16377.3
2069.08042	16355.3
2072.09307	16316.8
2075.10378	16306.1
2078.11255	16309.8
2081.11938	16264.9
2084.12426	16240.2
2087.12722	16284.7
2090.12824	16216.8
2093.12732	16211.3
2096.12447	16230.7
2099.11969	16194.5
2102.11299	16211.6
2105.10435	16253.3
2108.09379	16222.8
2111.08131	16246
2114.0669	16240.8
2117.05057	16290.8
2120.03233	16315.9
2123.01216	16279.1
2125.99008	16308.6
2128.96609	16306
2131.94018	16344.8
2134.91236	16316.6
2137.88263	16330.9
2140.851	16351.7
2143.81746	16342.4
2146.78201	16325.6
2149.74466	16353.1
2152.7054	16322.4
2155.66425	16328.9
2158.6212	16332
2161.57625	16302.3
2164.52941	16317.8
2167.48067	16295.9
2170.43004	16323
2173.37752	16294.3
2176.32311	16270
2179.26681	16307.8
2182.20863	16285.2
2185.14856	16296.8
2188.08661	16302.7
2191.02278	16305
2193.95707	16351.6
2196.88948	16289.9
2199.82001	16256
2202.74867	16249.1
2205.67545	16236.1
2208.60037	16236.9
2211.52341	16224.5
2214.44458	16232
2217.36388	16213.4
2220.28132	16172.7
2223.1969	16139.3
2226.11061	16108.3
2229.02246	16090
2231.93245	16029
2234.84058	16001
2237.74686	15946.9
2240.65128	15928.6
2243.55385	15915
2246.45456	15874.5
2249.35343	15847.4
2252.25044	15833.3
2255.14561	15798.9
2258.03893	15767.6
2260.93041	15751.4
2263.82004	15722.6
2266.70783	15668.5
2269.59378	15619.3
2272.4779	15584.8
2275.36017	15546.8
2278.24061	15522.8
2281.11922	15513.5
2283.996	15453.3
2286.87094	15463.6
2289.74405	15452.1
2292.61534	15431.1
2295.4848	15396.7
2298.35243	15438.1
2301.21824	15428
2304.08223	15432
2306.94439	15453.2
2309.80474	15457.5
2312.66327	15472.7
2315.51999	15466.2
2318.37489	15423.4
2321.22797	15434
2324.07925	15382.9
2326.92871	15396.4
2329.77637	15343.3
2332.62222	15338.8
2335.46626	15341.6
2338.3085	15325.1
2341.14893	15360.4
2343.98756	15356.9
2346.8244	15399
2349.65943	15365.9
2352.49267	15373
2355.32411	15406.4
2358.15376	15367.8
2360.98161	15332.6
2363.80768	15322.3
2366.63195	15302.9
2369.45444	15307
2372.27514	15255.1
2375.09405	15225.3
2377.91118	15182.3
2380.72652	15162.8
2383.54009	15142.7
2386.35187	15135.5
2389.16188	15096.8
2391.97011	15079.5
2394.77657	15037.3
2397.58125	15025.8
2400.38416	15019.8
2403.18529	14987.4
2405.98466	14945.9
2408.78226	14916
2411.57809	14922.6
2414.37216	14907.7
2417.16446	14875
2419.955	14859.5
2422.74378	14829.4
2425.5308	14811
2428.31606	14825.2
2431.09956	14813.9
2433.88131	14774.5
2436.6613	14826.1
2439.43954	14801.3
2442.21603	14770.6
2444.99077	14781.6
2447.76377	14776.2
2450.53501	14770.9
2453.30451	14774.4
2456.07226	14736.7
2458.83827	14764.1
2461.60254	14784.9
2464.36507	14787.1
2467.12586	14777.1
2469.88492	14768.2
2472.64224	14779.4
2475.39782	14817.8
2478.15167	14830.4
2480.90379	14777.9
2483.65417	14797.8
2486.40283	14815.2
2489.14976	14844.7
2491.89497	14839.1
2494.63845	14896.3
2497.3802	14864.2
2500.12024	14879.9
2502.85855	14870
2505.59514	14843
2508.33002	14821.3
2511.06318	14817.2
2513.79462	14805.2
2516.52435	14804.6
2519.25237	14833.2
2521.97867	14792.9
2524.70327	14798.8
2527.42616	14790.2
2530.14734	14790.6
2532.86681	14810.4
2535.58458	14782.9
2538.30065	14785
2541.01501	14763.8
2543.72768	14747.6
2546.43864	14754.2
2549.14791	14721.7
2551.85548	14737.3
2554.56136	14720
2557.26554	14667.1
2559.96803	14663.8
2562.66883	14654
2565.36794	14649.7
2568.06536	14622.5
2570.7611	14638.2
2573.45514	14611.3
2576.14751	14583.5
2578.83819	14577.1
2581.52719	14639.1
2584.21451	14603.7
2586.90015	14612.9
2589.58411	14635.6
2592.2664	14612.4
2594.94701	14608.2
2597.62594	14631.3
2600.30321	14581.1
2602.9788	14614.2
2605.65273	14586.6
2608.32498	14593.9
2610.99557	14598.2
2613.66449	14612.5
2616.33175	14619.2
2618.99734	14648.4
2621.66128	14638.3
2624.32355	14605.2
2626.98416	14654.5
2629.64311	14645.2
2632.30041	14657.8
2634.95605	14639.1
2637.61004	14657.2
2640.26238	14634.1
2642.91306	14627.7
2645.56209	14584.9
2648.20948	14596.4
2650.85521	14606.9
2653.4993	14610.6
2656.14175	14621.6
2658.78255	14618.1
2661.42171	14618.6
2664.05923	14654.4
2666.6951	14647.9
2669.32934	14676.7
2671.96194	14670.6
2674.59291	14667.1
2677.22224	14705.8
2679.84993	14668.9
2682.476	14634.8
2685.10043	14654.6
2687.72324	14614.7
2690.34441	14611.9
2692.96396	14587.7
2695.58188	14617
2698.19818	14588.7
2700.81285	14627.3
2703.4259	14633.5
2706.03733	14648.4
2708.64714	14634.2
2711.25533	14640.6
2713.86191	14613.4
2716.46687	14657.2
2719.07021	14704.3
2721.67194	14730
2724.27206	14723.2
2726.87057	14765.4
2729.46747	14728.7
2732.06276	14751.1
2734.65644	14763.8
2737.24852	14736.3
2739.83899	14734.5
2742.42786	14745
2745.01513	14729.7
2747.60079	14709.4
2750.18486	14712.1
2752.76733	14685
2755.3482	14721.4
2757.92747	14718.6
2760.50515	14728
2763.08123	14722.8
2765.65573	14756.5
2768.22863	14757.5
2770.79994	14722.5
2773.36967	14756.7
2775.9378	14724
2778.50435	14726.8
2781.06932	14716.7
2783.6327	14727.9
2786.1945	14735.8
2788.75471	14770.6
2791.31335	14721.9
2793.87041	14721.8
2796.42589	14670.7
2798.97979	14666.1
2801.53212	14642
2804.08288	14624.4
2806.63206	14579
2809.17967	14537
2811.72571	14525.5
2814.27018	14515.8
2816.81308	14502.6
2819.35442	14497.5
2821.89419	14450.1
2824.43239	14461.8
2826.96904	14440.4
2829.50412	14445.1
2832.03763	14381
2834.56959	14404.2
2837.1	14398.8
2839.62884	14388.9
2842.15613	14391.5
2844.68186	14444.2
2847.20604	14418.7
2849.72867	14470.9
2852.24974	14434.1
2854.76927	14437
2857.28724	14427.5
2859.80367	14435.9
2862.31855	14402.6
2864.83189	14409.7
2867.34368	14367.5
2869.85393	14359.8
2872.36264	14326.7
2874.8698	14315.1
2877.37543	14303.2
2879.87952	14320
2882.38207	14343.8
2884.88308	14336.3
2887.38256	14342.3
2889.88051	14330.9
2892.37692	14384.7
2894.8718	14371.1
2897.36515	14386
2899.85698	14380.7
2902.34727	14430.1
2904.83604	14435.7
2907.32328	14458
2909.809	14490.4
2912.29319	14497.2
2914.77587	14516.7
2917.25702	14494.8
2919.73665	14542.7
2922.21476	14512.8
2924.69136	14485.4
2927.16644	14503.4
2929.64	14435.4
2932.11205	14419.5
2934.58258	14398.6
2937.05161	14410.8
2939.51912	14408
2941.98513	14389.1
2944.44962	14358.6
2946.91261	14309.9
2949.37409	14335.2
2951.83407	14316.8
2954.29254	14294.6
2956.74951	14259.6
2959.20498	14267.7
2961.65895	14221.5
2964.11142	14224.2
2966.56239	14193.9
2969.01186	14204.2
2971.45984	14174.4
2973.90632	14167.8
2976.35131	14149
2978.7948	14156.7
2981.23681	14081.7
2983.67732	14073.3
2986.11635	14006.7
2988.55388	13970.7
2990.98993	13962.5
2993.4245	13901.7
2995.85758	13876
2998.28917	13824.1
3000.71928	13824.9
3003.14791	13789
3005.57506	13780.5
3008.00073	13730
3010.42493	13619.9
3012.84764	13692.9
3015.26888	13676.6
3017.68865	13625.2
3020.10694	13629.8
3022.52376	13616.1
3024.9391	13620.5
3027.35298	13600.5
3029.76539	13573.6
3032.17632	13551.8
3034.5858	13535.6
3036.9938	13501.2
3039.40034	13524.2
3041.80542	13537.8
3044.20903	13547.3
3046.61118	13512
3049.01187	13476.4
3051.4111	13490.1
3053.80888	13458.9
3056.20519	13448.3
3058.60005	13392.4
3060.99345	13394.1
3063.3854	13352.2
3065.7759	13299.3
3068.16494	13256.8
3070.55254	13202.2
3072.93868	13171.3
3075.32338	13134.5
3077.70662	13123.6
3080.08842	13099.3
3082.46878	13060.6
3084.84769	13050.6
3087.22515	13019
3089.60118	13036.1
3091.97576	13041.6
3094.3489	13035.4
3096.72061	13006.3
3099.09087	13020.5
3101.4597	13016.5
3103.82709	12997.1
3106.19305	12985.8
3108.55757	13000
3110.92066	12979.1
3113.28232	12940.9
3115.64255	12945.8
3118.00134	12898.3
3120.35871	12883.8
3122.71466	12880
3125.06917	12805.9
3127.42226	12793.7
3129.77393	12758.1
3132.12417	12726.7
3134.47299	12759.7
3136.82039	12740.9
3139.16636	12719
3141.51092	12695.5
3143.85406	12701.7
3146.19579	12719.1
3148.53609	12711.3
3150.87499	12722.7
3153.21246	12706.6
3155.54853	12752.3
3157.88318	12740.2
3160.21642	12763.2
3162.54826	12779.4
3164.87868	12782.4
3167.2077	12744.8
3169.5353	12774.9
3171.86151	12751
3174.18631	12746.7
3176.5097	12731
3178.83169	12710.7
3181.15228	12722
3183.47147	12701.7
3185.78926	12702.4
3188.10565	12686.2
3190.42065	12660.3
3192.73424	12657.4
3195.04645	12653.3
3197.35725	12662.2
3199.66667	12653.7
3201.97469	12671.6
3204.28132	12620.2
3206.58656	12685.6
3208.8904	12657
3211.19287	12649.5
3213.49394	12691.5
3215.79363	12662.8
3218.09193	12682.5
3220.38884	12669.3
3222.68438	12708.3
3224.97853	12670.8
3227.2713	12640.1
3229.56269	12635.8
3231.8527	12620.4
3234.14133	12617.9
3236.42858	12586.5
3238.71446	12584.8
3240.99896	12537
3243.28209	12544.5
3245.56384	12529.6
3247.84423	12556.1
3250.12324	12504.7
3252.40088	12502.5
3254.67715	12486.1
3256.95205	12493.4
3259.22558	12459.8
3261.49775	12453.9
3263.76855	12445.8
3266.03799	12392.8
3268.30606	12403
3270.57277	12358.3
3272.83812	12345.2
3275.10211	12290.6
3277.36474	12307.3
3279.62601	12311
3281.88593	12275.1
3284.14448	12331.8
3286.40168	12341.1
3288.65753	12316.5
3290.91202	12311.8
3293.16516	12268.5
3295.41695	12245.2
3297.66738	12167.7
3299.91647	12124.7
3302.16421	12055.5
3304.4106	11977.2
3306.65564	11919.4
3308.89933	11819.4
3311.14169	11766.2
3313.38269	11674.8
3315.62236	11613.9
3317.86068	11484.3
3320.09766	11413.1
3322.3333	11326.3
3324.5676	11285.3
3326.80056	11111.2
3329.03219	11013.7
3331.26248	4.5
3333.49143	-1.9
3335.71905	-0.5
