Data from AgNPs_FTO_APTES_UA_5uM_CRN_10uM_R6G_10uM_NaF_0.1M_Addition_RamanShift__8__12-32-36-721.txt Node

Date: Mon Feb 07 12:32:36 GMT 2022
User: TCL
Spectrometer: QEP01345
Trigger mode: 4
Integration Time (sec): 7.000000E0
Scans to average: 10
Electric dark correction enabled: true
Nonlinearity correction enabled: false
Boxcar width: 0
XAxis mode: Raman Shifts
Number of Pixels in Spectrum: 1044
>>>>>Begin Spectral Data<<<<<
46.04893	-1.125
50.45542	-1.625
54.85868	-0.625
59.25871	0.775
63.6555	92.675
68.04907	95.575
72.43941	102.375
76.82654	104.075
81.21044	108.975
85.59113	109.675
89.96862	115.175
94.34289	117.575
98.71396	123.575
103.08183	126.075
107.4465	133.875
111.80798	133.475
116.16626	138.675
120.52136	149.975
124.87327	154.675
129.222	163.875
133.56755	176.975
137.90993	191.275
142.24913	212.175
146.58517	248.075
150.91804	287.875
155.24774	353.675
159.57429	438.575
163.89768	573.675
168.21792	768.675
172.53501	1048.475
176.84895	1468.175
181.15975	2071.275
185.46741	2898.175
189.77193	4005.675
194.07331	5351.875
198.37157	6867.075
202.6667	8469.975
206.9587	10079.975
211.24758	11610.975
215.53334	13196.675
219.81599	14853.175
224.09553	16686.275
228.37195	18653.275
232.64527	20878.875
236.91549	23108.175
241.18261	25375.775
245.44663	27517.075
249.70755	29395.175
253.96539	31128.175
258.22014	32492.975
262.4718	33610.975
266.72039	34390.375
270.96589	34851.575
275.20832	34922.175
279.44768	34806.075
283.68397	34539.175
287.91719	34358.375
292.14735	34288.875
296.37445	34247.475
300.59849	34404.475
304.81948	34579.775
309.03742	34621.375
313.25231	34320.675
317.46415	33774.075
321.67296	32957.875
325.87872	32246.775
330.08145	31803.675
334.28114	31738.975
338.47781	31856.775
342.67145	32125.975
346.86207	32566.675
351.04966	33093.875
355.23424	33601.275
359.4158	34100.675
363.59435	34507.375
367.76989	34744.875
371.94243	34837.975
376.11196	34833.775
380.27849	34835.775
384.44203	34972.975
388.60257	35205.275
392.76012	35651.775
396.91468	36348.975
401.06626	36980.575
405.21485	37363.175
409.36047	37166.675
413.50311	36766.075
417.64277	36799.975
421.77947	37012.375
425.9132	37324.975
430.04396	37538.075
434.17176	37646.875
438.2966	37855.975
442.41849	38364.075
446.53742	39323.075
450.6534	40530.875
454.76644	41292.775
458.87653	41573.575
462.98368	41405.175
467.08789	40818.675
471.18916	40174.675
475.2875	39726.175
479.38291	39561.675
483.4754	39392.475
487.56496	39056.875
491.6516	38239.175
495.73531	37331.275
499.81612	36765.975
503.89401	36762.375
507.96899	36973.675
512.04106	37040.175
516.11023	36703.775
520.1765	36097.275
524.23987	35436.575
528.30034	34817.475
532.35792	34423.975
536.41261	33975.275
540.46441	33658.375
544.51333	33651.875
548.55936	34129.875
552.60252	35007.075
556.64279	35994.575
560.6802	36875.475
564.71473	37691.075
568.7464	38759.975
572.7752	40600.875
576.80114	42707.375
580.82422	44730.475
584.84444	46902.175
588.86181	49859.175
592.87633	52196.975
596.888	51481.375
600.89682	47912.975
604.9028	45526.575
608.90594	46141.675
612.90624	47305.675
616.90371	43791.975
620.89834	37597.975
624.89015	34950.375
628.87913	34863.975
632.86528	35191.275
636.84862	35049.975
640.82913	34134.375
644.80683	33177.375
648.78172	32637.075
652.75379	32659.375
656.72306	32978.075
660.68952	33296.375
664.65319	32999.275
668.61405	32458.875
672.57211	32408.275
676.52738	32510.475
680.47986	32525.075
684.42955	32262.575
688.37646	32079.975
692.32058	32316.475
696.26192	32863.875
700.20048	33502.675
704.13626	33875.475
708.06928	34080.875
711.99952	34028.775
715.927	34087.875
719.85171	34054.575
723.77365	33780.475
727.69284	33070.275
731.60928	32446.675
735.52295	32141.275
739.43388	32080.775
743.34206	32150.475
747.24749	32486.075
751.15017	33022.375
755.05012	33809.475
758.94733	34990.375
762.8418	36813.975
766.73354	39205.175
770.62254	41151.375
774.50882	40930.575
778.39237	38676.375
782.27321	36043.275
786.15132	34049.775
790.02671	32792.775
793.89938	32197.175
797.76935	31832.175
801.6366	31732.375
805.50115	31682.975
809.36299	31510.275
813.22213	31333.375
817.07857	31187.275
820.93231	30999.475
824.78336	30752.575
828.63172	30502.075
832.47738	30324.775
836.32036	30230.075
840.16066	30258.775
843.99827	30358.275
847.8332	30299.875
851.66546	30286.275
855.49504	30338.575
859.32195	30303.375
863.1462	30131.975
866.96777	30120.075
870.78668	30045.775
874.60293	30001.675
878.41652	29973.675
882.22745	30079.175
886.03573	30133.775
889.84136	30138.775
893.64433	30002.675
897.44466	29885.475
901.24235	29873.675
905.0374	29800.275
908.8298	29764.075
912.61957	29865.875
916.40671	30375.175
920.19121	31106.775
923.97308	31647.475
927.75233	31480.575
931.52895	30865.375
935.30295	30057.175
939.07433	29288.675
942.84309	28852.175
946.60924	28538.275
950.37278	28479.675
954.13371	28508.975
957.89203	28602.375
961.64774	28632.175
965.40086	28621.075
969.15137	28537.575
972.89929	28327.775
976.64461	28180.575
980.38733	28046.175
984.12747	28066.075
987.86502	28168.475
991.59999	28320.475
995.33237	28615.275
999.06217	29103.875
1002.78939	29766.975
1006.51404	30523.675
1010.23611	31221.075
1013.95561	31656.175
1017.67255	31714.175
1021.38692	31272.175
1025.09872	30539.975
1028.80796	30123.275
1032.51465	30071.075
1036.21877	30311.275
1039.92035	30461.675
1043.61937	30614.475
1047.31584	30598.975
1051.00976	30507.675
1054.70114	30618.975
1058.38998	30882.275
1062.07627	31282.775
1065.76003	31834.575
1069.44126	32425.075
1073.11995	33102.475
1076.79611	33573.675
1080.46974	33746.075
1084.14085	33961.275
1087.80943	34439.175
1091.47549	34910.875
1095.13903	35196.075
1098.80005	34614.175
1102.45857	33495.575
1106.11456	32542.475
1109.76805	32005.875
1113.41903	31919.675
1117.06751	32086.375
1120.71348	32419.875
1124.35696	32791.575
1127.99793	33168.875
1131.63641	33486.275
1135.2724	33668.775
1138.90589	33791.375
1142.5369	34099.375
1146.16542	34679.375
1149.79145	35326.375
1153.415	35947.675
1157.03607	36933.275
1160.65467	38637.975
1164.27079	41092.275
1167.88443	43869.775
1171.49561	46488.175
1175.10432	49240.775
1178.71056	52720.375
1182.31434	56006.175
1185.91565	57459.475
1189.51451	56970.775
1193.11091	55576.175
1196.70485	53838.375
1200.29634	51972.175
1203.88538	51069.075
1207.47197	51175.175
1211.05612	51471.375
1214.63782	50758.875
1218.21708	48730.475
1221.79391	46425.975
1225.36829	44573.675
1228.94024	43427.275
1232.50976	42616.575
1236.07685	41843.675
1239.6415	41394.575
1243.20374	41365.075
1246.76355	41780.275
1250.32093	42541.575
1253.8759	43615.075
1257.42845	44999.775
1260.97859	46514.575
1264.52631	48120.475
1268.07163	49781.675
1271.61453	51515.475
1275.15503	53335.175
1278.69312	55491.175
1282.22882	57990.075
1285.76211	61111.175
1289.29301	64683.675
1292.82151	68763.075
1296.34761	73613.575
1299.87133	79016.975
1303.39266	83849.975
1306.9116	87460.475
1310.42815	89290.775
1313.94233	89597.975
1317.45412	88635.575
1320.96354	87553.675
1324.47058	87075.075
1327.97525	87134.575
1331.47754	87159.175
1334.97747	86727.575
1338.47502	85361.475
1341.97022	83537.075
1345.46305	81340.375
1348.95352	79239.975
1352.44163	77997.075
1355.92738	78344.475
1359.41078	80518.575
1362.89183	82387.775
1366.37053	81474.275
1369.84688	76136.275
1373.32088	68100.875
1376.79254	62232.475
1380.26186	60714.575
1383.72883	61684.775
1387.19347	62768.375
1390.65578	62452.375
1394.11575	62401.075
1397.57339	63391.575
1401.0287	65054.575
1404.48168	66209.975
1407.93234	65979.075
1411.38068	63818.175
1414.82669	60545.375
1418.27039	56849.075
1421.71177	53423.275
1425.15083	50839.175
1428.58758	49748.275
1432.02203	50459.175
1435.45416	52461.275
1438.88399	54865.575
1442.31151	56589.075
1445.73673	57691.775
1449.15965	58390.775
1452.58027	58685.075
1455.9986	58622.275
1459.41463	58764.675
1462.82837	59559.975
1466.23982	60632.375
1469.64898	61745.975
1473.05586	62266.775
1476.46045	62232.775
1479.86276	61470.775
1483.26279	60548.675
1486.66054	60153.775
1490.05602	60231.975
1493.44922	60583.075
1496.84016	61045.975
1500.22882	61618.175
1503.61521	62262.275
1506.99934	63083.475
1510.38121	63832.475
1513.76081	64047.575
1517.13816	63766.275
1520.51324	63585.675
1523.88607	63959.275
1527.25665	64962.075
1530.62498	65720.575
1533.99105	65513.775
1537.35488	64302.375
1540.71647	62074.975
1544.07581	59312.675
1547.4329	56676.775
1550.78776	54493.975
1554.14038	53060.075
1557.49077	52199.275
1560.83892	51644.175
1564.18484	51294.375
1567.52853	51247.275
1570.86999	51932.175
1574.20922	53460.975
1577.54624	55199.075
1580.88103	56642.575
1584.2136	58397.575
1587.54395	61515.975
1590.87208	65624.575
1594.19801	70019.375
1597.52172	73303.175
1600.84321	72959.775
1604.16251	68011.175
1607.47959	60803.475
1610.79447	54038.375
1614.10715	48290.775
1617.41763	43968.175
1620.7259	41157.375
1624.03199	39815.575
1627.33587	40099.475
1630.63757	42048.075
1633.93707	46021.775
1637.23439	52558.175
1640.52951	62018.375
1643.82246	73090.075
1647.11321	81583.775
1650.40179	82399.375
1653.68819	74623.375
1656.97241	62346.275
1660.25446	50782.475
1663.53433	42301.675
1666.81203	36786.475
1670.08756	33392.375
1673.36092	31301.175
1676.63211	29969.575
1679.90115	29075.175
1683.16801	28348.675
1686.43272	27828.675
1689.69527	27438.275
1692.95567	27141.475
1696.2139	26924.275
1699.46999	26717.075
1702.72392	26533.075
1705.97571	26430.675
1709.22535	26373.475
1712.47284	26271.175
1715.71819	26175.575
1718.96139	26080.475
1722.20246	25905.475
1725.44139	25776.975
1728.67818	25584.475
1731.91284	25406.675
1735.14537	25153.275
1738.37576	24997.475
1741.60403	24909.475
1744.83017	24759.275
1748.05418	24714.875
1751.27607	24612.775
1754.49584	24518.975
1757.71349	24516.375
1760.92903	24472.075
1764.14244	24428.375
1767.35375	24426.375
1770.56294	24348.875
1773.77002	24256.075
1776.97499	24198.775
1780.17785	24113.875
1783.37861	24077.175
1786.57727	23984.975
1789.77382	23935.175
1792.96828	23905.375
1796.16064	23829.875
1799.3509	23778.675
1802.53907	23718.575
1805.72514	23618.575
1808.90913	23590.175
1812.09102	23488.875
1815.27083	23404.575
1818.44856	23402.175
1821.6242	23317.875
1824.79776	23305.875
1827.96924	23318.475
1831.13864	23325.375
1834.30597	23285.175
1837.47122	23308.875
1840.6344	23289.975
1843.7955	23312.975
1846.95454	23300.175
1850.11151	23263.975
1853.26642	23246.675
1856.41926	23204.775
1859.57004	23186.575
1862.71876	23153.075
1865.86542	23125.775
1869.01003	23043.275
1872.15258	22974.375
1875.29308	22960.875
1878.43152	22914.675
1881.56792	22919.975
1884.70227	22852.575
1887.83457	22821.175
1890.96482	22809.875
1894.09304	22791.475
1897.21921	22718.775
1900.34335	22711.075
1903.46544	22683.475
1906.58551	22658.875
1909.70353	22617.075
1912.81953	22509.075
1915.93349	22473.775
1919.04543	22415.975
1922.15534	22345.775
1925.26322	22234.075
1928.36908	22208.275
1931.47292	22174.375
1934.57473	22066.075
1937.67453	21991.075
1940.77232	21911.475
1943.86808	21861.875
1946.96184	21784.475
1950.05358	21778.375
1953.14331	21712.875
1956.23103	21644.375
1959.31675	21562.075
1962.40046	21470.675
1965.48217	21424.175
1968.56188	21326.675
1971.63959	21243.475
1974.7153	21187.875
1977.78901	21101.275
1980.86073	20981.575
1983.93046	20930.175
1986.99819	20828.275
1990.06394	20831.375
1993.1277	20777.475
1996.18947	20730.175
1999.24925	20661.575
2002.30706	20577.175
2005.36288	20496.475
2008.41672	20428.575
2011.46859	20380.775
2014.51848	20309.875
2017.56639	20260.375
2020.61233	20198.175
2023.6563	20124.975
2026.6983	20060.275
2029.73833	20017.875
2032.7764	19972.875
2035.8125	19953.175
2038.84664	19871.375
2041.87881	19846.175
2044.90903	19819.775
2047.93729	19779.675
2050.96359	19768.875
2053.98794	19681.375
2057.01034	19701.975
2060.03078	19688.875
2063.04927	19681.575
2066.06582	19700.275
2069.08042	19661.975
2072.09307	19634.875
2075.10378	19592.675
2078.11255	19575.675
2081.11938	19573.275
2084.12426	19551.375
2087.12722	19510.075
2090.12824	19516.575
2093.12732	19505.275
2096.12447	19517.875
2099.11969	19511.775
2102.11299	19529.675
2105.10435	19470.275
2108.09379	19493.075
2111.08131	19508.175
2114.0669	19530.275
2117.05057	19524.075
2120.03233	19524.175
2123.01216	19538.475
2125.99008	19533.175
2128.96609	19565.875
2131.94018	19539.775
2134.91236	19521.475
2137.88263	19478.375
2140.851	19523.075
2143.81746	19529.475
2146.78201	19483.875
2149.74466	19463.375
2152.7054	19430.975
2155.66425	19422.175
2158.6212	19419.375
2161.57625	19399.375
2164.52941	19391.075
2167.48067	19382.075
2170.43004	19408.575
2173.37752	19365.575
2176.32311	19343.675
2179.26681	19363.075
2182.20863	19352.775
2185.14856	19373.675
2188.08661	19359.975
2191.02278	19372.175
2193.95707	19334.775
2196.88948	19298.675
2199.82001	19257.375
2202.74867	19200.675
2205.67545	19189.775
2208.60037	19145.775
2211.52341	19124.275
2214.44458	19107.475
2217.36388	19070.575
2220.28132	19019.875
2223.1969	19000.275
2226.11061	18948.175
2229.02246	18917.475
2231.93245	18943.175
2234.84058	18891.075
2237.74686	18886.375
2240.65128	18868.775
2243.55385	18789.775
2246.45456	18779.775
2249.35343	18719.175
2252.25044	18669.475
2255.14561	18583.675
2258.03893	18549.075
2260.93041	18493.175
2263.82004	18420.175
2266.70783	18366.075
2269.59378	18326.875
2272.4779	18258.175
2275.36017	18203.775
2278.24061	18188.675
2281.11922	18148.875
2283.996	18108.175
2286.87094	18097.975
2289.74405	18033.675
2292.61534	18028.175
2295.4848	17992.575
2298.35243	18012.975
2301.21824	18030.375
2304.08223	17995.975
2306.94439	17979.075
2309.80474	17958.775
2312.66327	17971.675
2315.51999	17946.675
2318.37489	17916.775
2321.22797	17893.075
2324.07925	17855.775
2326.92871	17848.275
2329.77637	17786.675
2332.62222	17766.475
2335.46626	17769.875
2338.3085	17741.375
2341.14893	17761.475
2343.98756	17761.875
2346.8244	17771.775
2349.65943	17732.875
2352.49267	17747.575
2355.32411	17771.775
2358.15376	17758.975
2360.98161	17742.775
2363.80768	17723.075
2366.63195	17741.575
2369.45444	17722.275
2372.27514	17686.775
2375.09405	17661.175
2377.91118	17602.175
2380.72652	17532.775
2383.54009	17498.875
2386.35187	17478.675
2389.16188	17437.575
2391.97011	17389.675
2394.77657	17392.475
2397.58125	17349.775
2400.38416	17346.775
2403.18529	17295.775
2405.98466	17302.575
2408.78226	17262.575
2411.57809	17228.975
2414.37216	17231.475
2417.16446	17246.575
2419.955	17180.575
2422.74378	17187.875
2425.5308	17147.775
2428.31606	17130.575
2431.09956	17130.675
2433.88131	17148.575
2436.6613	17122.475
2439.43954	17100.975
2442.21603	17131.375
2444.99077	17090.075
2447.76377	17094.875
2450.53501	17063.275
2453.30451	17074.775
2456.07226	17063.875
2458.83827	17051.275
2461.60254	17069.775
2464.36507	17046.875
2467.12586	17066.675
2469.88492	17062.075
2472.64224	17061.675
2475.39782	17059.075
2478.15167	17069.775
2480.90379	17063.175
2483.65417	17088.475
2486.40283	17063.275
2489.14976	17035.975
2491.89497	17082.175
2494.63845	17092.175
2497.3802	17105.275
2500.12024	17080.275
2502.85855	17059.675
2505.59514	17024.175
2508.33002	17050.675
2511.06318	17048.775
2513.79462	17016.275
2516.52435	17021.775
2519.25237	17061.875
2521.97867	17000.775
2524.70327	16974.675
2527.42616	17004.675
2530.14734	16968.575
2532.86681	16981.475
2535.58458	16975.975
2538.30065	16970.475
2541.01501	16945.475
2543.72768	16899.875
2546.43864	16938.775
2549.14791	16931.975
2551.85548	16891.875
2554.56136	16849.475
2557.26554	16848.275
2559.96803	16841.675
2562.66883	16862.875
2565.36794	16821.775
2568.06536	16817.875
2570.7611	16796.175
2573.45514	16812.475
2576.14751	16773.775
2578.83819	16786.075
2581.52719	16772.875
2584.21451	16770.475
2586.90015	16776.175
2589.58411	16753.075
2592.2664	16757.175
2594.94701	16753.875
2597.62594	16743.175
2600.30321	16715.875
2602.9788	16760.575
2605.65273	16729.675
2608.32498	16751.775
2610.99557	16731.875
2613.66449	16741.775
2616.33175	16740.175
2618.99734	16745.975
2621.66128	16745.975
2624.32355	16674.575
2626.98416	16717.375
2629.64311	16695.875
2632.30041	16696.975
2634.95605	16658.975
2637.61004	16673.675
2640.26238	16693.475
2642.91306	16665.875
2645.56209	16639.775
2648.20948	16697.575
2650.85521	16716.875
2653.4993	16745.375
2656.14175	16708.275
2658.78255	16730.275
2661.42171	16739.375
2664.05923	16775.075
2666.6951	16753.975
2669.32934	16814.675
2671.96194	16799.775
2674.59291	16815.375
2677.22224	16784.575
2679.84993	16830.475
2682.476	16804.275
2685.10043	16789.875
2687.72324	16816.975
2690.34441	16796.175
2692.96396	16762.575
2695.58188	16768.775
2698.19818	16763.375
2700.81285	16779.875
2703.4259	16781.575
2706.03733	16813.275
2708.64714	16793.475
2711.25533	16806.875
2713.86191	16798.675
2716.46687	16817.375
2719.07021	16845.475
2721.67194	16871.875
2724.27206	16854.775
2726.87057	16908.275
2729.46747	16927.175
2732.06276	16950.375
2734.65644	16943.575
2737.24852	16933.375
2739.83899	16899.975
2742.42786	16925.175
2745.01513	16925.075
2747.60079	16915.675
2750.18486	16899.075
2752.76733	16888.575
2755.3482	16870.175
2757.92747	16858.175
2760.50515	16872.275
2763.08123	16864.275
2765.65573	16836.475
2768.22863	16874.475
2770.79994	16854.775
2773.36967	16866.675
2775.9378	16865.775
2778.50435	16898.975
2781.06932	16842.675
2783.6327	16872.975
2786.1945	16889.875
2788.75471	16899.675
2791.31335	16852.275
2793.87041	16840.975
2796.42589	16784.675
2798.97979	16809.175
2801.53212	16753.575
2804.08288	16770.075
2806.63206	16698.275
2809.17967	16631.475
2811.72571	16644.375
2814.27018	16607.775
2816.81308	16564.275
2819.35442	16558.875
2821.89419	16512.675
2824.43239	16517.575
2826.96904	16519.475
2829.50412	16515.875
2832.03763	16426.575
2834.56959	16421.975
2837.1	16432.975
2839.62884	16416.775
2842.15613	16422.975
2844.68186	16464.675
2847.20604	16465.375
2849.72867	16471.575
2852.24974	16448.175
2854.76927	16455.875
2857.28724	16432.675
2859.80367	16423.275
2862.31855	16390.875
2864.83189	16316.075
2867.34368	16311.175
2869.85393	16313.175
2872.36264	16252.075
2874.8698	16241.475
2877.37543	16218.775
2879.87952	16230.775
2882.38207	16232.675
2884.88308	16230.175
2887.38256	16231.675
2889.88051	16217.975
2892.37692	16226.375
2894.8718	16248.675
2897.36515	16267.375
2899.85698	16255.875
2902.34727	16325.075
2904.83604	16338.075
2907.32328	16359.975
2909.809	16349.975
2912.29319	16320.475
2914.77587	16355.175
2917.25702	16329.675
2919.73665	16314.175
2922.21476	16325.075
2924.69136	16319.675
2927.16644	16336.775
2929.64	16306.275
2932.11205	16291.975
2934.58258	16213.575
2937.05161	16221.475
2939.51912	16244.075
2941.98513	16230.475
2944.44962	16200.575
2946.91261	16117.575
2949.37409	16104.475
2951.83407	16103.175
2954.29254	16072.575
2956.74951	16100.975
2959.20498	16065.475
2961.65895	16021.175
2964.11142	15997.475
2966.56239	15977.775
2969.01186	15957.775
2971.45984	15930.175
2973.90632	15932.075
2976.35131	15899.175
2978.7948	15848.475
2981.23681	15796.475
2983.67732	15766.475
2986.11635	15698.175
2988.55388	15694.975
2990.98993	15655.675
2993.4245	15579.975
2995.85758	15477.175
2998.28917	15474.975
3000.71928	15463.175
3003.14791	15393.875
3005.57506	15384.875
3008.00073	15352.575
3010.42493	15224.975
3012.84764	15247.175
3015.26888	15253.575
3017.68865	15202.675
3020.10694	15165.575
3022.52376	15122.175
3024.9391	15089.075
3027.35298	15078.575
3029.76539	15090.975
3032.17632	15047.575
3034.5858	15028.575
3036.9938	15066.975
3039.40034	15029.375
3041.80542	15034.775
3044.20903	14995.175
3046.61118	14983.975
3049.01187	14917.575
3051.4111	14955.675
3053.80888	14922.075
3056.20519	14899.075
3058.60005	14834.075
3060.99345	14805.575
3063.3854	14716.775
3065.7759	14654.575
3068.16494	14602.875
3070.55254	14543.175
3072.93868	14505.375
3075.32338	14444.875
3077.70662	14399.675
3080.08842	14338.875
3082.46878	14334.775
3084.84769	14307.875
3087.22515	14283.275
3089.60118	14283.475
3091.97576	14272.475
3094.3489	14268.875
3096.72061	14231.375
3099.09087	14231.975
3101.4597	14241.175
3103.82709	14205.175
3106.19305	14168.575
3108.55757	14139.475
3110.92066	14077.575
3113.28232	14079.675
3115.64255	14035.675
3118.00134	14001.975
3120.35871	13963.975
3122.71466	13932.575
3125.06917	13890.675
3127.42226	13861.775
