Data from AgNPs_FTO_APTES_UA_5uM_CRN_100uM_R6G_10uM_NaF_0.1M_Addition_RamanShift__11__14-49-06-878.txt Node

Date: Mon Feb 07 14:49:06 GMT 2022
User: TCL
Spectrometer: QEP01345
Trigger mode: 4
Integration Time (sec): 7.000000E0
Scans to average: 10
Electric dark correction enabled: true
Nonlinearity correction enabled: false
Boxcar width: 0
XAxis mode: Raman Shifts
Number of Pixels in Spectrum: 1044
>>>>>Begin Spectral Data<<<<<
46.04893	-0.25
50.45542	-0.45
54.85868	-0.75
59.25871	1.65
63.6555	59.35
68.04907	60.65
72.43941	68.05
76.82654	74.45
81.21044	74.45
85.59113	75.85
89.96862	76.85
94.34289	79.35
98.71396	81.25
103.08183	82.65
107.4465	88.05
111.80798	89.35
116.16626	94.85
120.52136	102.55
124.87327	102.95
129.222	111.25
133.56755	116.25
137.90993	128.35
142.24913	144.25
146.58517	162.55
150.91804	191.35
155.24774	228.95
159.57429	292.65
163.89768	373.65
168.21792	500.55
172.53501	694.85
176.84895	956.85
181.15975	1354.75
185.46741	1899.95
189.77193	2637.35
194.07331	3536.05
198.37157	4547.55
202.6667	5608.45
206.9587	6709.15
211.24758	7717.15
215.53334	8737.85
219.81599	9800.85
224.09553	10989.25
228.37195	12288.45
232.64527	13680.45
236.91549	15173.95
241.18261	16703.25
245.44663	18186.55
249.70755	19483.65
253.96539	20696.75
258.22014	21721.45
262.4718	22530.05
266.72039	23083.65
270.96589	23398.45
275.20832	23470.65
279.44768	23468.65
283.68397	23358.55
287.91719	23286.75
292.14735	23245.45
296.37445	23291.85
300.59849	23379.45
304.81948	23409.85
309.03742	23338.95
313.25231	23085.35
317.46415	22606.35
321.67296	22046.45
325.87872	21586.55
330.08145	21317.85
334.28114	21289.45
338.47781	21349.15
342.67145	21486.25
346.86207	21710.55
351.04966	21932.65
355.23424	22131.95
359.4158	22320.85
363.59435	22511.05
367.76989	22654.95
371.94243	22737.95
376.11196	22791.35
380.27849	22810.75
384.44203	22830.55
388.60257	22963.05
392.76012	23236.05
396.91468	23605.15
401.06626	23988.15
405.21485	24316.25
409.36047	24254.35
413.50311	24048.25
417.64277	23938.05
421.77947	24032.15
425.9132	24153.15
430.04396	24335.15
434.17176	24443.05
438.2966	24567.55
442.41849	24862.45
446.53742	25330.45
450.6534	25882.05
454.76644	26291.65
458.87653	26506.35
462.98368	26553.95
467.08789	26449.65
471.18916	26315.05
475.2875	26140.45
479.38291	26146.55
483.4754	26104.15
487.56496	25904.15
491.6516	25424.75
495.73531	24948.35
499.81612	24612.85
503.89401	24620.05
507.96899	24708.25
512.04106	24746.65
516.11023	24612.85
520.1765	24298.95
524.23987	23946.85
528.30034	23625.65
532.35792	23376.05
536.41261	23215.55
540.46441	23079.05
544.51333	23134.65
548.55936	23448.65
552.60252	23940.85
556.64279	24520.65
560.6802	24945.25
564.71473	25369.45
568.7464	26005.25
572.7752	27009.45
576.80114	28264.45
580.82422	29248.45
584.84444	30038.05
588.86181	30690.25
592.87633	31182.25
596.888	30950.35
600.89682	29810.25
604.9028	29112.25
608.90594	29426.15
612.90624	29810.85
616.90371	27936.75
620.89834	24907.75
624.89015	23684.15
628.87913	23698.65
632.86528	24019.35
636.84862	24074.45
640.82913	23679.85
644.80683	23204.45
648.78172	22838.05
652.75379	22692.05
656.72306	22819.65
660.68952	23021.05
664.65319	22933.85
668.61405	22768.85
672.57211	22731.85
676.52738	22765.95
680.47986	22784.95
684.42955	22697.05
688.37646	22677.55
692.32058	22713.85
696.26192	22918.25
700.20048	23172.55
704.13626	23411.05
708.06928	23544.65
711.99952	23614.85
715.927	23556.75
719.85171	23422.65
723.77365	23198.75
727.69284	22897.55
731.60928	22565.85
735.52295	22414.45
739.43388	22291.75
743.34206	22385.35
747.24749	22509.75
751.15017	22765.75
755.05012	23264.85
758.94733	23910.35
762.8418	24908.95
766.73354	26334.15
770.62254	27464.65
774.50882	27392.05
778.39237	26169.95
782.27321	24691.15
786.15132	23534.95
790.02671	22836.65
793.89938	22416.25
797.76935	22165.85
801.6366	22122.95
805.50115	22058.25
809.36299	21927.65
813.22213	21860.45
817.07857	21861.65
820.93231	21807.55
824.78336	21706.05
828.63172	21615.15
832.47738	21457.45
836.32036	21402.35
840.16066	21374.05
843.99827	21363.35
847.8332	21350.25
851.66546	21403.45
855.49504	21421.25
859.32195	21423.55
863.1462	21357.25
866.96777	21314.45
870.78668	21264.35
874.60293	21238.85
878.41652	21217.95
882.22745	21276.95
886.03573	21323.25
889.84136	21325.35
893.64433	21297.65
897.44466	21244.75
901.24235	21194.45
905.0374	21166.75
908.8298	21200.05
912.61957	21325.15
916.40671	21633.15
920.19121	22014.75
923.97308	22217.75
927.75233	22054.25
931.52895	21655.35
935.30295	21276.55
939.07433	20869.35
942.84309	20560.65
946.60924	20443.25
950.37278	20293.35
954.13371	20238.25
957.89203	20281.85
961.64774	20315.55
965.40086	20294.25
969.15137	20239.05
972.89929	20079.95
976.64461	19931.25
980.38733	19890.25
984.12747	19840.95
987.86502	19871.85
991.59999	19929.15
995.33237	19978.85
999.06217	20148.75
1002.78939	20365.35
1006.51404	20593.25
1010.23611	20879.25
1013.95561	21119.95
1017.67255	21149.95
1021.38692	21049.85
1025.09872	20823.25
1028.80796	20637.35
1032.51465	20585.35
1036.21877	20592.05
1039.92035	20656.95
1043.61937	20794.45
1047.31584	20893.45
1051.00976	21055.25
1054.70114	21228.35
1058.38998	21410.75
1062.07627	21767.75
1065.76003	22115.35
1069.44126	22445.45
1073.11995	22751.55
1076.79611	22968.55
1080.46974	23034.75
1084.14085	23060.85
1087.80943	23204.85
1091.47549	23453.75
1095.13903	23619.25
1098.80005	23494.75
1102.45857	22958.45
1106.11456	22381.95
1109.76805	21963.95
1113.41903	21832.55
1117.06751	21862.15
1120.71348	22033.05
1124.35696	22258.05
1127.99793	22521.55
1131.63641	22769.55
1135.2724	22738.45
1138.90589	22745.75
1142.5369	22859.75
1146.16542	23097.85
1149.79145	23466.65
1153.415	23821.75
1157.03607	24251.65
1160.65467	24958.05
1164.27079	26032.15
1167.88443	27290.55
1171.49561	28598.85
1175.10432	29953.75
1178.71056	31479.85
1182.31434	33008.25
1185.91565	34022.75
1189.51451	34374.75
1193.11091	34259.05
1196.70485	33557.85
1200.29634	32531.35
1203.88538	31898.95
1207.47197	31672.25
1211.05612	31660.45
1214.63782	31217.85
1218.21708	30242.25
1221.79391	28984.05
1225.36829	27884.45
1228.94024	27194.15
1232.50976	26763.55
1236.07685	26557.45
1239.6415	26509.85
1243.20374	26564.15
1246.76355	26752.55
1250.32093	27116.95
1253.8759	27613.85
1257.42845	28285.95
1260.97859	29046.25
1264.52631	29788.45
1268.07163	30510.35
1271.61453	31251.25
1275.15503	32077.65
1278.69312	33087.35
1282.22882	34251.55
1285.76211	35562.55
1289.29301	37016.35
1292.82151	38804.65
1296.34761	40936.75
1299.87133	43237.55
1303.39266	45185.25
1306.9116	46645.35
1310.42815	47397.05
1313.94233	47504.55
1317.45412	47289.85
1320.96354	47102.85
1324.47058	47266.75
1327.97525	47596.05
1331.47754	47979.05
1334.97747	48136.55
1338.47502	48127.55
1341.97022	48068.25
1345.46305	47811.55
1348.95352	47179.45
1352.44163	46297.25
1355.92738	45642.25
1359.41078	45442.35
1362.89183	45361.05
1366.37053	44393.55
1369.84688	42062.75
1373.32088	38847.55
1376.79254	36490.05
1380.26186	35768.05
1383.72883	36010.25
1387.19347	36381.85
1390.65578	36362.35
1394.11575	36265.05
1397.57339	36442.95
1401.0287	36838.35
1404.48168	37076.65
1407.93234	36758.75
1411.38068	35668.25
1414.82669	34020.75
1418.27039	32275.35
1421.71177	30696.45
1425.15083	29464.35
1428.58758	28796.15
1432.02203	28922.55
1435.45416	29589.05
1438.88399	30514.15
1442.31151	31215.45
1445.73673	31822.85
1449.15965	32377.75
1452.58027	32825.15
1455.9986	33196.05
1459.41463	33564.35
1462.82837	34038.05
1466.23982	34534.65
1469.64898	34922.95
1473.05586	35199.95
1476.46045	35104.75
1479.86276	34910.75
1483.26279	34589.95
1486.66054	34406.55
1490.05602	34487.15
1493.44922	34808.65
1496.84016	35247.85
1500.22882	35917.25
1503.61521	36688.65
1506.99934	37556.05
1510.38121	38142.25
1513.76081	38431.85
1517.13816	38387.65
1520.51324	38353.55
1523.88607	38480.05
1527.25665	38820.95
1530.62498	38917.35
1533.99105	38663.55
1537.35488	37990.45
1540.71647	36941.25
1544.07581	35643.95
1547.4329	34315.75
1550.78776	33242.35
1554.14038	32453.85
1557.49077	31997.35
1560.83892	31765.95
1564.18484	31655.95
1567.52853	31725.45
1570.86999	32002.85
1574.20922	32629.05
1577.54624	33326.55
1580.88103	33762.35
1584.2136	34275.45
1587.54395	35064.75
1590.87208	36334.55
1594.19801	37805.95
1597.52172	39132.35
1600.84321	39119.85
1604.16251	37368.65
1607.47959	34797.15
1610.79447	32172.25
1614.10715	29778.25
1617.41763	27718.85
1620.7259	26170.95
1624.03199	25332.45
1627.33587	25092.85
1630.63757	25577.65
1633.93707	27051.35
1637.23439	29525.25
1640.52951	33217.85
1643.82246	37706.55
1647.11321	41612.35
1650.40179	42992.85
1653.68819	40981.35
1656.97241	36527.65
1660.25446	31578.35
1663.53433	27346.85
1666.81203	24259.25
1670.08756	22245.05
1673.36092	20916.25
1676.63211	20020.55
1679.90115	19492.15
1683.16801	19062.95
1686.43272	18745.95
1689.69527	18493.55
1692.95567	18300.55
1696.2139	18201.25
1699.46999	18089.65
1702.72392	17975.45
1705.97571	17867.35
1709.22535	17798.25
1712.47284	17716.85
1715.71819	17680.75
1718.96139	17620.35
1722.20246	17557.25
1725.44139	17452.15
1728.67818	17303.45
1731.91284	17185.85
1735.14537	17103.15
1738.37576	17041.05
1741.60403	16966.25
1744.83017	16864.35
1748.05418	16799.85
1751.27607	16788.25
1754.49584	16759.15
1757.71349	16735.95
1760.92903	16749.75
1764.14244	16732.35
1767.35375	16668.45
1770.56294	16629.65
1773.77002	16581.95
1776.97499	16515.25
1780.17785	16463.35
1783.37861	16422.65
1786.57727	16407.85
1789.77382	16353.85
1792.96828	16307.55
1796.16064	16253.05
1799.3509	16221.05
1802.53907	16140.65
1805.72514	16088.05
1808.90913	16064.15
1812.09102	15998.05
1815.27083	15956.35
1818.44856	15926.55
1821.6242	15883.05
1824.79776	15891.45
1827.96924	15850.65
1831.13864	15829.55
1834.30597	15838.15
1837.47122	15804.05
1840.6344	15748.15
1843.7955	15738.75
1846.95454	15769.35
1850.11151	15745.45
1853.26642	15701.25
1856.41926	15729.85
1859.57004	15692.55
1862.71876	15657.15
1865.86542	15609.85
1869.01003	15614.05
1872.15258	15545.95
1875.29308	15538.15
1878.43152	15480.35
1881.56792	15453.15
1884.70227	15440.45
1887.83457	15413.65
1890.96482	15370.15
1894.09304	15320.95
1897.21921	15326.75
1900.34335	15297.15
1903.46544	15290.75
1906.58551	15282.15
1909.70353	15231.25
1912.81953	15184.65
1915.93349	15163.25
1919.04543	15107.35
1922.15534	15123.75
1925.26322	15059.75
1928.36908	14987.85
1931.47292	14955.05
1934.57473	14948.05
1937.67453	14856.45
1940.77232	14860.05
1943.86808	14803.35
1946.96184	14740.95
1950.05358	14697.55
1953.14331	14656.45
1956.23103	14608.35
1959.31675	14560.85
1962.40046	14509.95
1965.48217	14480.45
1968.56188	14410.65
1971.63959	14352.55
1974.7153	14315.05
1977.78901	14239.05
1980.86073	14182.95
1983.93046	14152.45
1986.99819	14083.05
1990.06394	14041.55
1993.1277	14016.05
1996.18947	13959.65
1999.24925	13909.65
2002.30706	13853.15
2005.36288	13808.45
2008.41672	13781.85
2011.46859	13736.25
2014.51848	13678.75
2017.56639	13627.05
2020.61233	13625.55
2023.6563	13560.45
2026.6983	13511.65
2029.73833	13442.85
2032.7764	13428.05
2035.8125	13398.65
2038.84664	13334.35
2041.87881	13350.65
2044.90903	13303.35
2047.93729	13245.85
2050.96359	13244.55
2053.98794	13191.15
2057.01034	13192.25
2060.03078	13197.45
2063.04927	13185.75
2066.06582	13167.55
2069.08042	13167.55
2072.09307	13140.35
2075.10378	13099.55
2078.11255	13101.65
2081.11938	13101.05
2084.12426	13098.45
2087.12722	13122.15
2090.12824	13081.65
2093.12732	13047.65
2096.12447	13020.35
2099.11969	13040.25
2102.11299	13018.85
2105.10435	13034.95
2108.09379	13046.15
2111.08131	13027.15
2114.0669	13040.35
2117.05057	13051.25
2120.03233	13069.55
2123.01216	13037.95
2125.99008	13050.85
2128.96609	13021.55
2131.94018	13047.15
2134.91236	13049.95
2137.88263	13052.35
2140.851	13055.55
2143.81746	13040.05
2146.78201	13043.15
2149.74466	13041.75
2152.7054	12999.35
2155.66425	12984.25
2158.6212	12966.65
2161.57625	12947.05
2164.52941	12963.85
2167.48067	12936.65
2170.43004	12933.95
2173.37752	12928.15
2176.32311	12917.55
2179.26681	12898.45
2182.20863	12888.35
2185.14856	12895.25
2188.08661	12878.95
2191.02278	12884.65
2193.95707	12894.75
2196.88948	12860.15
2199.82001	12844.85
2202.74867	12784.75
2205.67545	12771.55
2208.60037	12749.55
2211.52341	12723.35
2214.44458	12704.35
2217.36388	12691.25
2220.28132	12637.95
2223.1969	12610.25
2226.11061	12589.95
2229.02246	12578.15
2231.93245	12566.55
2234.84058	12505.35
2237.74686	12480.15
2240.65128	12474.25
2243.55385	12448.75
2246.45456	12414.75
2249.35343	12404.95
2252.25044	12368.95
2255.14561	12347.05
2258.03893	12316.35
2260.93041	12277.25
2263.82004	12243.95
2266.70783	12186.35
2269.59378	12150.45
2272.4779	12104.45
2275.36017	12075.65
2278.24061	12068.85
2281.11922	12024.65
2283.996	11983.35
2286.87094	11999.75
2289.74405	11954.65
2292.61534	11926.05
2295.4848	11918.65
2298.35243	11891.15
2301.21824	11894.85
2304.08223	11883.05
2306.94439	11834.75
2309.80474	11871.15
2312.66327	11847.45
2315.51999	11819.05
2318.37489	11808.15
2321.22797	11778.35
2324.07925	11771.25
2326.92871	11724.15
2329.77637	11699.35
2332.62222	11665.25
2335.46626	11675.75
2338.3085	11645.75
2341.14893	11641.75
2343.98756	11643.65
2346.8244	11612.75
2349.65943	11631.85
2352.49267	11607.25
2355.32411	11611.55
2358.15376	11572.75
2360.98161	11581.05
2363.80768	11578.85
2366.63195	11578.25
2369.45444	11589.45
2372.27514	11551.35
2375.09405	11519.55
2377.91118	11498.65
2380.72652	11469.25
2383.54009	11428.65
2386.35187	11441.55
2389.16188	11375.35
2391.97011	11365.35
2394.77657	11341.35
2397.58125	11272.25
2400.38416	11322.25
2403.18529	11274.15
2405.98466	11226.55
2408.78226	11220.95
2411.57809	11215.05
2414.37216	11196.95
2417.16446	11207.05
2419.955	11175.85
2422.74378	11151.25
2425.5308	11135.65
2428.31606	11144.75
2431.09956	11132.15
2433.88131	11123.45
2436.6613	11103.25
2439.43954	11110.45
2442.21603	11093.55
2444.99077	11072.75
2447.76377	11070.15
2450.53501	11043.55
2453.30451	11026.95
2456.07226	11035.15
2458.83827	10993.25
2461.60254	10994.35
2464.36507	10991.75
2467.12586	10975.95
2469.88492	10952.45
2472.64224	10997.45
2475.39782	10975.75
2478.15167	10949.35
2480.90379	10962.25
2483.65417	10943.85
2486.40283	10957.25
2489.14976	10944.55
2491.89497	10942.25
2494.63845	10940.35
2497.3802	10940.55
2500.12024	10943.95
2502.85855	10911.85
2505.59514	10923.95
2508.33002	10902.25
2511.06318	10878.75
2513.79462	10877.55
2516.52435	10873.75
2519.25237	10848.15
2521.97867	10826.85
2524.70327	10842.35
2527.42616	10807.75
2530.14734	10792.05
2532.86681	10790.65
2535.58458	10788.35
2538.30065	10763.65
2541.01501	10753.45
2543.72768	10723.55
2546.43864	10727.85
2549.14791	10700.55
2551.85548	10695.65
2554.56136	10643.45
2557.26554	10646.55
2559.96803	10648.15
2562.66883	10606.45
2565.36794	10578.85
2568.06536	10585.65
2570.7611	10564.75
2573.45514	10565.35
2576.14751	10554.95
2578.83819	10518.55
2581.52719	10527.15
2584.21451	10491.45
2586.90015	10495.25
2589.58411	10490.15
2592.2664	10454.75
2594.94701	10452.15
2597.62594	10427.05
2600.30321	10421.35
2602.9788	10405.75
2605.65273	10415.05
2608.32498	10413.25
2610.99557	10401.35
2613.66449	10367.85
2616.33175	10384.25
2618.99734	10394.75
2621.66128	10353.25
2624.32355	10346.15
2626.98416	10323.45
2629.64311	10319.35
2632.30041	10307.25
2634.95605	10295.95
2637.61004	10309.15
2640.26238	10288.45
2642.91306	10282.55
2645.56209	10252.35
2648.20948	10297.55
2650.85521	10273.75
2653.4993	10271.25
2656.14175	10279.45
2658.78255	10290.05
2661.42171	10277.95
2664.05923	10283.05
2666.6951	10275.15
2669.32934	10299.55
2671.96194	10306.45
2674.59291	10294.35
2677.22224	10267.95
2679.84993	10292.35
2682.476	10256.25
2685.10043	10256.05
2687.72324	10242.95
2690.34441	10250.35
2692.96396	10221.75
2695.58188	10245.55
2698.19818	10252.25
2700.81285	10244.75
2703.4259	10291.95
2706.03733	10325.15
2708.64714	10280.45
2711.25533	10262.05
2713.86191	10277.65
2716.46687	10282.25
2719.07021	10280.05
2721.67194	10287.05
2724.27206	10251.55
2726.87057	10286.55
2729.46747	10288.25
2732.06276	10307.55
2734.65644	10271.25
2737.24852	10262.35
2739.83899	10276.45
2742.42786	10250.05
2745.01513	10236.65
2747.60079	10213.15
2750.18486	10227.45
2752.76733	10203.15
2755.3482	10184.25
2757.92747	10188.75
2760.50515	10185.35
2763.08123	10173.65
2765.65573	10167.95
2768.22863	10155.35
2770.79994	10139.15
2773.36967	10151.15
2775.9378	10135.95
2778.50435	10126.55
2781.06932	10140.25
2783.6327	10131.25
2786.1945	10150.85
2788.75471	10135.25
2791.31335	10111.45
2793.87041	10082.35
2796.42589	10064.35
2798.97979	10045.75
2801.53212	10027.15
2804.08288	10009.25
2806.63206	9975.85
2809.17967	9948.25
2811.72571	9930.65
2814.27018	9931.55
2816.81308	9896.25
2819.35442	9857.45
2821.89419	9862.15
2824.43239	9861.25
2826.96904	9832.85
2829.50412	9834.35
2832.03763	9806.95
2834.56959	9827.75
2837.1	9790.75
2839.62884	9829.45
2842.15613	9812.15
2844.68186	9838.55
2847.20604	9859.85
2849.72867	9876.85
2852.24974	9880.15
2854.76927	9872.75
2857.28724	9861.65
2859.80367	9830.15
2862.31855	9801.15
2864.83189	9779.55
2867.34368	9757.15
2869.85393	9765.05
2872.36264	9727.55
2874.8698	9726.15
2877.37543	9708.95
2879.87952	9702.35
2882.38207	9697.15
2884.88308	9679.85
2887.38256	9696.05
2889.88051	9670.05
2892.37692	9687.65
2894.8718	9685.25
2897.36515	9692.85
2899.85698	9672.25
2902.34727	9686.85
2904.83604	9709.35
2907.32328	9704.95
2909.809	9669.35
2912.29319	9715.75
2914.77587	9695.25
2917.25702	9705.85
2919.73665	9701.25
2922.21476	9669.65
2924.69136	9678.65
2927.16644	9692.15
2929.64	9661.85
2932.11205	9661.85
2934.58258	9630.75
2937.05161	9659.05
2939.51912	9624.25
2941.98513	9620.85
2944.44962	9579.85
2946.91261	9545.55
2949.37409	9544.95
2951.83407	9516.55
2954.29254	9518.25
2956.74951	9511.85
2959.20498	9468.25
2961.65895	9472.75
2964.11142	9453.65
2966.56239	9452.15
2969.01186	9434.55
2971.45984	9404.85
2973.90632	9395.65
2976.35131	9388.15
2978.7948	9364.75
2981.23681	9337.85
2983.67732	9316.35
2986.11635	9280.45
2988.55388	9241.75
2990.98993	9236.15
2993.4245	9201.65
2995.85758	9158.45
2998.28917	9104.95
3000.71928	9109.75
3003.14791	9107.85
3005.57506	9051.85
3008.00073	9040.95
3010.42493	8925.35
3012.84764	9011.95
3015.26888	8991.65
3017.68865	8968.55
3020.10694	8946.75
3022.52376	8924.05
3024.9391	8911.75
3027.35298	8907.85
3029.76539	8901.65
3032.17632	8884.55
3034.5858	8858.75
3036.9938	8847.95
3039.40034	8844.25
3041.80542	8843.95
3044.20903	8822.05
3046.61118	8829.45
3049.01187	8773.05
3051.4111	8772.25
3053.80888	8763.75
3056.20519	8741.25
3058.60005	8712.15
3060.99345	8674.45
3063.3854	8655.35
3065.7759	8617.65
3068.16494	8607.55
3070.55254	8555.55
3072.93868	8538.05
3075.32338	8517.95
3077.70662	8504.15
3080.08842	8492.15
3082.46878	8473.05
3084.84769	8431.45
3087.22515	8436.45
3089.60118	8431.65
3091.97576	8415.55
3094.3489	8421.45
3096.72061	8405.65
3099.09087	8382.25
3101.4597	8368.65
3103.82709	8383.85
3106.19305	8363.65
3108.55757	8361.25
3110.92066	8339.05
3113.28232	8337.95
3115.64255	8298.95
3118.00134	8292.35
3120.35871	8273.65
3122.71466	8254.15
3125.06917	8217.55
3127.42226	8195.15
3129.77393	8181.75
3132.12417	8166.05
3134.47299	8181.95
3136.82039	8165.55
3139.16636	8159.45
3141.51092	8136.55
3143.85406	8127.45
3146.19579	8145.85
3148.53609	8148.75
3150.87499	8132.65
3153.21246	8131.75
3155.54853	8152.25
3157.88318	8130.25
3160.21642	8134.85
3162.54826	8127.35
3164.87868	8135.75
3167.2077	8138.15
3169.5353	8111.65
3171.86151	8129.15
3174.18631	8126.85
3176.5097	8124.35
3178.83169	8099.35
3181.15228	8114.25
3183.47147	8061.45
3185.78926	8037.55
3188.10565	8058.15
3190.42065	8010.55
3192.73424	8022.45
3195.04645	7998.35
3197.35725	7971.95
3199.66667	7967.85
3201.97469	7973.15
3204.28132	7953.65
3206.58656	7982.15
3208.8904	7974.55
3211.19287	7975.35
3213.49394	7978.95
3215.79363	7973.95
3218.09193	7953.45
3220.38884	7956.65
3222.68438	7977.65
3224.97853	7956.95
3227.2713	7935.45
3229.56269	7914.65
3231.8527	7898.65
3234.14133	7876.05
3236.42858	7872.55
3238.71446	7846.15
3240.99896	7853.15
3243.28209	7848.45
3245.56384	7824.05
3247.84423	7800.15
3250.12324	7786.55
3252.40088	7803.95
3254.67715	7769.85
3256.95205	7766.35
3259.22558	7778.15
3261.49775	7735.55
