Data from AgNPs_FTO_APTES_UA_5uM_CRN_0uM_R6G_10uM_NaF_0.1M_Addition_RamanShift__28__10-11-26-557.txt Node

Date: Mon Feb 07 10:11:26 GMT 2022
User: TCL
Spectrometer: QEP01345
Trigger mode: 4
Integration Time (sec): 7.000000E0
Scans to average: 10
Electric dark correction enabled: true
Nonlinearity correction enabled: false
Boxcar width: 0
XAxis mode: Raman Shifts
Number of Pixels in Spectrum: 1044
>>>>>Begin Spectral Data<<<<<
46.04893	-0.1
50.45542	-1
54.85868	-1.4
59.25871	0.3
63.6555	55.6
68.04907	58.5
72.43941	62.8
76.82654	69.8
81.21044	71
85.59113	70.2
89.96862	77.8
94.34289	77.6
98.71396	75.3
103.08183	81.7
107.4465	85.4
111.80798	83.6
116.16626	88.7
120.52136	92.7
124.87327	95.8
129.222	105.7
133.56755	109.7
137.90993	118.8
142.24913	129.7
146.58517	142.2
150.91804	163.6
155.24774	198.3
159.57429	246.9
163.89768	321.9
168.21792	434.6
172.53501	587.6
176.84895	806.5
181.15975	1138.7
185.46741	1594.3
189.77193	2201
194.07331	2925.3
198.37157	3770
202.6667	4619
206.9587	5507.5
211.24758	6370.8
215.53334	7296.2
219.81599	8308.2
224.09553	9458.7
228.37195	10743.6
232.64527	12139.5
236.91549	13534.5
241.18261	14840.8
245.44663	15899.8
249.70755	16801.9
253.96539	17557.2
258.22014	18262
262.4718	18821.8
266.72039	19269.9
270.96589	19501.8
275.20832	19601.7
279.44768	19541.6
283.68397	19405.5
287.91719	19388.4
292.14735	19468
296.37445	19736.2
300.59849	20150.8
304.81948	20779.9
309.03742	21193.3
313.25231	21019.8
317.46415	19905.8
321.67296	18158.9
325.87872	16722.1
330.08145	15990.2
334.28114	15900
338.47781	16142.2
342.67145	16550
346.86207	17239.7
351.04966	18238.8
355.23424	19416
359.4158	20340
363.59435	20752.2
367.76989	20781.7
371.94243	20627.4
376.11196	20403.4
380.27849	20202.7
384.44203	19909.4
388.60257	19585.7
392.76012	19430.9
396.91468	19727.4
401.06626	20344.6
405.21485	20899.2
409.36047	20647.1
413.50311	19662.6
417.64277	18741.6
421.77947	18261.4
425.9132	18168.4
430.04396	18076.6
434.17176	17985.4
438.2966	18039.9
442.41849	18337.5
446.53742	18850.7
450.6534	19463.3
454.76644	19864.6
458.87653	19939.9
462.98368	19824.1
467.08789	19574.3
471.18916	19266.3
475.2875	18937.7
479.38291	18647.4
483.4754	18428.5
487.56496	18191.4
491.6516	18012.7
495.73531	17889.7
499.81612	17975.8
503.89401	18178.8
507.96899	18321.5
512.04106	18375.7
516.11023	18303.7
520.1765	18141.3
524.23987	17859.8
528.30034	17410.9
532.35792	16910.1
536.41261	16430.3
540.46441	15975.7
544.51333	15820.8
548.55936	16048.9
552.60252	16685.2
556.64279	17375.8
560.6802	17750.2
564.71473	18261.9
568.7464	19381.1
572.7752	20416.6
576.80114	20233.1
580.82422	19709
584.84444	19518.6
588.86181	19197.3
592.87633	18780.5
596.888	18739.4
600.89682	19294.5
604.9028	21647.2
608.90594	27661.1
612.90624	35183.7
616.90371	33639.2
620.89834	22956.4
624.89015	17711.1
628.87913	16722.1
632.86528	16873.2
636.84862	17136.3
640.82913	16787.4
644.80683	15839.2
648.78172	15053.2
652.75379	15052.1
656.72306	15782.8
660.68952	16812.3
664.65319	16825.3
668.61405	16015.6
672.57211	15529.1
676.52738	15429.9
680.47986	15332.5
684.42955	15094.8
688.37646	14913.1
692.32058	14962.6
696.26192	15169.5
700.20048	15462.8
704.13626	15791.1
708.06928	15908.3
711.99952	15763.3
715.927	15568.4
719.85171	15463.9
723.77365	15344.2
727.69284	15043
731.60928	14762.1
735.52295	14625.8
739.43388	14695.8
743.34206	14846.8
747.24749	15041.1
751.15017	15335.9
755.05012	15820.9
758.94733	16792.2
762.8418	18919.1
766.73354	22822.7
770.62254	26795.5
774.50882	28227.5
778.39237	26424.8
782.27321	22579.1
786.15132	18891.4
790.02671	16575.2
793.89938	15498.6
797.76935	14970.6
801.6366	14785.4
805.50115	14607.6
809.36299	14475.5
813.22213	14338.8
817.07857	14296.1
820.93231	14273.7
824.78336	14314.4
828.63172	14420.4
832.47738	14502.1
836.32036	14459.7
840.16066	14387.1
843.99827	14340.7
847.8332	14241.6
851.66546	14193.5
855.49504	14154.6
859.32195	14102.1
863.1462	13967.9
866.96777	13844.7
870.78668	13776.4
874.60293	13755.7
878.41652	13764.9
882.22745	13887.4
886.03573	13965.8
889.84136	13930
893.64433	13813.2
897.44466	13771.2
901.24235	13773
905.0374	13697.2
908.8298	13647.4
912.61957	13657
916.40671	13867.4
920.19121	14192.1
923.97308	14531.9
927.75233	14723.3
931.52895	14776.7
935.30295	14442
939.07433	13801.9
942.84309	13280
946.60924	12982
950.37278	12835.3
954.13371	12750.8
957.89203	12646.1
961.64774	12612.6
965.40086	12568.9
969.15137	12548.2
972.89929	12505.2
976.64461	12500.2
980.38733	12497.3
984.12747	12585.8
987.86502	12673.3
991.59999	12821.6
995.33237	13026
999.06217	13457.1
1002.78939	14074.5
1006.51404	14711.6
1010.23611	15206.8
1013.95561	15430.7
1017.67255	15355.9
1021.38692	15047.9
1025.09872	14794.3
1028.80796	14786.6
1032.51465	15115.1
1036.21877	15481.8
1039.92035	15584.3
1043.61937	15457.4
1047.31584	15135.2
1051.00976	14790.9
1054.70114	14615.6
1058.38998	14582
1062.07627	14702.8
1065.76003	14900.3
1069.44126	15248.8
1073.11995	15712.6
1076.79611	16074.8
1080.46974	16270.9
1084.14085	16578.8
1087.80943	17030.4
1091.47549	17341.4
1095.13903	17150.3
1098.80005	16453
1102.45857	15579.5
1106.11456	14891.1
1109.76805	14672.6
1113.41903	14752.7
1117.06751	15195.7
1120.71348	15845.5
1124.35696	16581.8
1127.99793	17376
1131.63641	17581.7
1135.2724	16882.9
1138.90589	16116.1
1142.5369	15626.7
1146.16542	15320.5
1149.79145	15192
1153.415	15261.8
1157.03607	15490.5
1160.65467	15978.6
1164.27079	16720.7
1167.88443	17982.2
1171.49561	20013.6
1175.10432	23137.8
1178.71056	27085.5
1182.31434	30067.9
1185.91565	31204.9
1189.51451	30797.1
1193.11091	29172.9
1196.70485	26829.7
1200.29634	24712.3
1203.88538	22937
1207.47197	21075.2
1211.05612	19649.9
1214.63782	18901.1
1218.21708	18769.8
1221.79391	18874.5
1225.36829	18922.2
1228.94024	18708.4
1232.50976	18413.3
1236.07685	18226.5
1239.6415	18240.1
1243.20374	18272.6
1246.76355	18390.9
1250.32093	18677.3
1253.8759	19210.4
1257.42845	20041.6
1260.97859	20944.2
1264.52631	21757.1
1268.07163	22585.3
1271.61453	23433.9
1275.15503	24284.9
1278.69312	24850.8
1282.22882	25244.7
1285.76211	25916.2
1289.29301	26822
1292.82151	28077.7
1296.34761	29476.7
1299.87133	31341.7
1303.39266	34119.9
1306.9116	37987.9
1310.42815	42416
1313.94233	45467.1
1317.45412	45688.1
1320.96354	43910.5
1324.47058	41637.8
1327.97525	39596.3
1331.47754	38178.2
1334.97747	37265.3
1338.47502	36795.2
1341.97022	36661.2
1345.46305	36586.6
1348.95352	36662.1
1352.44163	37278.3
1355.92738	39264.3
1359.41078	43473.5
1362.89183	48587.3
1366.37053	48788.5
1369.84688	43019.7
1373.32088	36214.5
1376.79254	31240
1380.26186	28532
1383.72883	27184.6
1387.19347	26431.7
1390.65578	25746.2
1394.11575	25327.9
1397.57339	25388.8
1401.0287	25940.9
1404.48168	26562.5
1407.93234	27035.1
1411.38068	27065.8
1414.82669	26387.9
1418.27039	25069.4
1421.71177	23629.3
1425.15083	22350.5
1428.58758	21549.5
1432.02203	21298
1435.45416	21453.8
1438.88399	21759.2
1442.31151	22060.2
1445.73673	22395.9
1449.15965	22861.2
1452.58027	23206
1455.9986	23365.9
1459.41463	23628.1
1462.82837	24138.4
1466.23982	24784
1469.64898	25441.5
1473.05586	25885.2
1476.46045	26045.5
1479.86276	26268.8
1483.26279	26590.3
1486.66054	27053.4
1490.05602	27766.6
1493.44922	28774.6
1496.84016	30281.5
1500.22882	32767.7
1503.61521	36083.6
1506.99934	40136.3
1510.38121	44125.2
1513.76081	46578.1
1517.13816	45366.9
1520.51324	41001.5
1523.88607	36064.5
1527.25665	32387.3
1530.62498	30089.6
1533.99105	28637.6
1537.35488	27700.2
1540.71647	27082.9
1544.07581	26547.4
1547.4329	26032.2
1550.78776	25584
1554.14038	25296.3
1557.49077	25359.1
1560.83892	25785.5
1564.18484	26437.7
1567.52853	27057.8
1570.86999	27441.4
1574.20922	27758.9
1577.54624	27723.5
1580.88103	26508.3
1584.2136	24918.4
1587.54395	24331.5
1590.87208	25120.3
1594.19801	27135.7
1597.52172	29743
1600.84321	31054.1
1604.16251	29844.6
1607.47959	27142.3
1610.79447	24197.1
1614.10715	21452
1617.41763	19251.1
1620.7259	17842.5
1624.03199	17163.4
1627.33587	17022.1
1630.63757	17477.1
1633.93707	18553.4
1637.23439	20328.9
1640.52951	23035.8
1643.82246	26614.3
1647.11321	30763.4
1650.40179	33854.5
1653.68819	33543.9
1656.97241	29221.1
1660.25446	23609.8
1663.53433	19092
1666.81203	16257.2
1670.08756	14595.4
1673.36092	13584.6
1676.63211	12974.9
1679.90115	12591.7
1683.16801	12277.5
1686.43272	12027.6
1689.69527	11895.1
1692.95567	11746.4
1696.2139	11678.7
1699.46999	11650.8
1702.72392	11566.4
1705.97571	11536.7
1709.22535	11490.4
1712.47284	11466
1715.71819	11466
1718.96139	11440
1722.20246	11407.3
1725.44139	11323.3
1728.67818	11223
1731.91284	11126.9
1735.14537	10988.7
1738.37576	10922.2
1741.60403	10876.2
1744.83017	10794.6
1748.05418	10760.3
1751.27607	10735.3
1754.49584	10707.5
1757.71349	10689
1760.92903	10631
1764.14244	10631.7
1767.35375	10617.3
1770.56294	10592.4
1773.77002	10559
1776.97499	10509.6
1780.17785	10465.1
1783.37861	10448.7
1786.57727	10406.7
1789.77382	10384.8
1792.96828	10381.8
1796.16064	10364.3
1799.3509	10310.5
1802.53907	10307.6
1805.72514	10264.2
1808.90913	10215.3
1812.09102	10170.3
1815.27083	10155.9
1818.44856	10150.5
1821.6242	10116.3
1824.79776	10111.3
1827.96924	10045.8
1831.13864	10081.3
1834.30597	10043.1
1837.47122	10050.8
1840.6344	10055.8
1843.7955	10030.8
1846.95454	10041.1
1850.11151	10026.1
1853.26642	9997.2
1856.41926	10003.3
1859.57004	10013.9
1862.71876	10011.3
1865.86542	9993.7
1869.01003	9988.1
1872.15258	9994.1
1875.29308	9991.4
1878.43152	9965.4
1881.56792	9938
1884.70227	9950.8
1887.83457	9942.4
1890.96482	9956.9
1894.09304	9943.1
1897.21921	9950.6
1900.34335	9956.9
1903.46544	9942.8
1906.58551	9966.5
1909.70353	9954.5
1912.81953	9944.8
1915.93349	9950.3
1919.04543	9946.3
1922.15534	9918
1925.26322	9912.2
1928.36908	9873.2
1931.47292	9831.1
1934.57473	9787.1
1937.67453	9731.1
1940.77232	9707.2
1943.86808	9650.1
1946.96184	9627.8
1950.05358	9558.4
1953.14331	9559.9
1956.23103	9514.9
1959.31675	9501.1
1962.40046	9475.6
1965.48217	9429.7
1968.56188	9420.8
1971.63959	9401.1
1974.7153	9370.1
1977.78901	9345.4
1980.86073	9296.6
1983.93046	9251.1
1986.99819	9227.5
1990.06394	9180.2
1993.1277	9168.1
1996.18947	9145.3
1999.24925	9092.7
2002.30706	9054.4
2005.36288	9025.3
2008.41672	9006.7
2011.46859	8984.5
2014.51848	8965.5
2017.56639	8936.6
2020.61233	8911.5
2023.6563	8913.4
2026.6983	8855.8
2029.73833	8838.9
2032.7764	8842.8
2035.8125	8806.8
2038.84664	8796.2
2041.87881	8788.1
2044.90903	8761
2047.93729	8765
2050.96359	8750.8
2053.98794	8750.5
2057.01034	8746.6
2060.03078	8731.3
2063.04927	8711.6
2066.06582	8695
2069.08042	8696.2
2072.09307	8657.4
2075.10378	8657.7
2078.11255	8645.8
2081.11938	8650.2
2084.12426	8628
2087.12722	8615.3
2090.12824	8634.9
2093.12732	8631.8
2096.12447	8618.6
2099.11969	8610.5
2102.11299	8612.2
2105.10435	8620.8
2108.09379	8607.6
2111.08131	8628.8
2114.0669	8635
2117.05057	8637.7
2120.03233	8617.5
2123.01216	8629
2125.99008	8648
2128.96609	8632.1
2131.94018	8663.3
2134.91236	8648.1
2137.88263	8665.8
2140.851	8665.8
2143.81746	8677.2
2146.78201	8673.8
2149.74466	8666
2152.7054	8649.1
2155.66425	8638.7
2158.6212	8649.5
2161.57625	8627.4
2164.52941	8637.1
2167.48067	8629.9
2170.43004	8617.4
2173.37752	8602
2176.32311	8621
2179.26681	8602.7
2182.20863	8600.1
2185.14856	8603.4
2188.08661	8598.7
2191.02278	8597.9
2193.95707	8606
2196.88948	8580.2
2199.82001	8585.3
2202.74867	8556.5
2205.67545	8562.6
2208.60037	8548.9
2211.52341	8560
2214.44458	8571.9
2217.36388	8535.9
2220.28132	8525.5
2223.1969	8505.5
2226.11061	8468.5
2229.02246	8451.7
2231.93245	8439.2
2234.84058	8425
2237.74686	8388.5
2240.65128	8378
2243.55385	8365.7
2246.45456	8355.9
2249.35343	8335.4
2252.25044	8335.9
2255.14561	8330
2258.03893	8343.3
2260.93041	8353.5
2263.82004	8310.6
2266.70783	8303.1
2269.59378	8282.6
2272.4779	8244.9
2275.36017	8254
2278.24061	8233
2281.11922	8230.5
2283.996	8202.9
2286.87094	8195.5
2289.74405	8160.8
2292.61534	8145.7
2295.4848	8133.3
2298.35243	8124.7
2301.21824	8150.7
2304.08223	8144.8
2306.94439	8128.9
2309.80474	8146.1
2312.66327	8161.6
2315.51999	8158.2
2318.37489	8163.5
2321.22797	8158.1
2324.07925	8152.6
2326.92871	8153.7
2329.77637	8135.3
2332.62222	8131.7
2335.46626	8129.9
2338.3085	8137.1
2341.14893	8147.9
2343.98756	8160.7
2346.8244	8180.9
2349.65943	8198.1
2352.49267	8242.6
2355.32411	8234.6
2358.15376	8214.1
2360.98161	8238.6
2363.80768	8251.9
2366.63195	8247.4
2369.45444	8217.7
2372.27514	8203.8
2375.09405	8188.9
2377.91118	8156.1
2380.72652	8122.2
2383.54009	8060
2386.35187	8075.6
2389.16188	8026.5
2391.97011	8008.2
2394.77657	8010.8
2397.58125	7966.8
2400.38416	7959.4
2403.18529	7950.4
2405.98466	7924.4
2408.78226	7885.2
2411.57809	7861.9
2414.37216	7865.7
2417.16446	7856
2419.955	7822.5
2422.74378	7823.6
2425.5308	7826.7
2428.31606	7838
2431.09956	7827.7
2433.88131	7802.1
2436.6613	7815.6
2439.43954	7826.1
2442.21603	7829.6
2444.99077	7818
2447.76377	7809.2
2450.53501	7823
2453.30451	7806.6
2456.07226	7798.4
2458.83827	7809.8
2461.60254	7837.8
2464.36507	7816
2467.12586	7821.3
2469.88492	7815.7
2472.64224	7796.9
2475.39782	7836
2478.15167	7846
2480.90379	7847.8
2483.65417	7873
2486.40283	7876.5
2489.14976	7917.1
2491.89497	7923.7
2494.63845	7955.4
2497.3802	7942.8
2500.12024	7940.5
2502.85855	7932.3
2505.59514	7900.8
2508.33002	7885.6
2511.06318	7834.6
2513.79462	7817.7
2516.52435	7824
2519.25237	7809.8
2521.97867	7776.7
2524.70327	7781.7
2527.42616	7744
2530.14734	7738.3
2532.86681	7750.8
2535.58458	7775.7
2538.30065	7748.2
2541.01501	7750.4
2543.72768	7751
2546.43864	7734
2549.14791	7720.1
2551.85548	7710.2
2554.56136	7729.1
2557.26554	7720.3
2559.96803	7725.6
2562.66883	7726.1
2565.36794	7714.2
2568.06536	7698
2570.7611	7682.1
2573.45514	7662.2
2576.14751	7650
2578.83819	7656.1
2581.52719	7657.5
2584.21451	7654.4
2586.90015	7662.8
2589.58411	7657.3
2592.2664	7668.1
2594.94701	7649.5
2597.62594	7683
2600.30321	7628.5
2602.9788	7666.3
2605.65273	7659.6
2608.32498	7659.4
2610.99557	7645.9
2613.66449	7660.9
2616.33175	7659.5
2618.99734	7672.4
2621.66128	7694.6
2624.32355	7667.7
2626.98416	7674.3
2629.64311	7667.4
2632.30041	7646.5
2634.95605	7640.1
2637.61004	7634.8
2640.26238	7634.7
2642.91306	7661.6
2645.56209	7623.2
2648.20948	7624.2
2650.85521	7609.2
2653.4993	7624.8
2656.14175	7615.4
2658.78255	7606.9
2661.42171	7630.5
2664.05923	7628.5
2666.6951	7639.2
2669.32934	7651.3
2671.96194	7640.7
2674.59291	7675.7
2677.22224	7684.2
2679.84993	7668
2682.476	7662.4
2685.10043	7658.8
2687.72324	7647.8
2690.34441	7641.5
2692.96396	7642.1
2695.58188	7650.7
2698.19818	7606.3
2700.81285	7637
2703.4259	7646.2
2706.03733	7671.6
2708.64714	7653.1
2711.25533	7661.9
2713.86191	7642.1
2716.46687	7674.6
2719.07021	7661.4
2721.67194	7681.5
2724.27206	7664.3
2726.87057	7706.5
2729.46747	7708.6
2732.06276	7697.2
2734.65644	7682.7
2737.24852	7685.3
2739.83899	7686.1
2742.42786	7686.7
2745.01513	7654
2747.60079	7624.2
2750.18486	7626.6
2752.76733	7639.2
2755.3482	7628.7
2757.92747	7602.5
2760.50515	7604.5
2763.08123	7598.6
2765.65573	7575.6
2768.22863	7594.5
2770.79994	7587.5
2773.36967	7608.4
2775.9378	7594.8
2778.50435	7630.5
2781.06932	7617.7
2783.6327	7598.2
2786.1945	7611
2788.75471	7619.8
2791.31335	7617.6
2793.87041	7615.2
2796.42589	7618.2
2798.97979	7612.1
2801.53212	7617.9
2804.08288	7592.6
2806.63206	7597.1
2809.17967	7606.5
2811.72571	7605.7
2814.27018	7611.7
2816.81308	7605.9
2819.35442	7611.5
2821.89419	7619.4
2824.43239	7633.9
2826.96904	7615.9
2829.50412	7655.6
2832.03763	7641.6
2834.56959	7635.9
2837.1	7660.5
2839.62884	7692.9
2842.15613	7737.3
2844.68186	7803.4
2847.20604	7845.6
2849.72867	7912.7
2852.24974	7942.4
2854.76927	7939.2
2857.28724	7930.7
2859.80367	7924.7
2862.31855	7894.6
2864.83189	7875.3
2867.34368	7857.4
2869.85393	7865.2
2872.36264	7853.2
2874.8698	7831.8
2877.37543	7831
2879.87952	7825.9
2882.38207	7823.7
2884.88308	7825.6
2887.38256	7819.9
2889.88051	7840.8
2892.37692	7817
2894.8718	7821.3
2897.36515	7813.3
2899.85698	7830.5
2902.34727	7871.8
2904.83604	7872.3
2907.32328	7892.2
2909.809	7864.5
2912.29319	7867.6
2914.77587	7875.7
2917.25702	7868.5
2919.73665	7860.6
2922.21476	7837.7
2924.69136	7826.8
2927.16644	7810.8
2929.64	7806.3
2932.11205	7759.5
2934.58258	7734.9
2937.05161	7713.1
2939.51912	7714.2
2941.98513	7668.3
2944.44962	7622.2
2946.91261	7552.9
2949.37409	7520.3
2951.83407	7500.4
2954.29254	7457.8
2956.74951	7452.9
2959.20498	7419.8
2961.65895	7393.9
2964.11142	7394.1
2966.56239	7367.6
2969.01186	7346.6
2971.45984	7325.9
2973.90632	7312.1
2976.35131	7297.7
2978.7948	7267.9
2981.23681	7245.7
2983.67732	7232.1
2986.11635	7203.2
2988.55388	7192.7
2990.98993	7166.2
2993.4245	7151.1
2995.85758	7120
2998.28917	7095.4
3000.71928	7065.7
3003.14791	7058.2
3005.57506	7039.7
3008.00073	7025.8
3010.42493	7036
3012.84764	7008.1
3015.26888	7003.4
3017.68865	6972.3
3020.10694	6966.1
3022.52376	6938
3024.9391	6947.1
3027.35298	6925.8
3029.76539	6912
3032.17632	6905.2
3034.5858	6913.8
3036.9938	6877.3
3039.40034	6904
3041.80542	6906.6
3044.20903	6858.1
3046.61118	6879.5
3049.01187	6845
3051.4111	6845.7
3053.80888	6831.7
3056.20519	6827.5
3058.60005	6805.2
3060.99345	6793.7
3063.3854	6774.7
3065.7759	6731.1
3068.16494	6731.6
3070.55254	6720.5
3072.93868	6686.1
3075.32338	6651.7
3077.70662	6619.5
3080.08842	6596.7
3082.46878	6577.7
3084.84769	6581.2
3087.22515	6567.3
3089.60118	6564.8
3091.97576	6563.6
3094.3489	6552.1
3096.72061	6555.4
3099.09087	6555.2
3101.4597	6533.9
3103.82709	6539.2
3106.19305	6535.5
3108.55757	6552.9
3110.92066	6540.9
3113.28232	6502.2
3115.64255	6487.5
3118.00134	6496
3120.35871	6477.8
3122.71466	6464.9
3125.06917	6462.9
3127.42226	6438.5
3129.77393	6468.3
3132.12417	6423.4
3134.47299	6452
3136.82039	6437.5
3139.16636	6451.9
3141.51092	6443.6
3143.85406	6439.4
3146.19579	6424.2
3148.53609	6434.5
3150.87499	6443
3153.21246	6445.5
3155.54853	6454
3157.88318	6450.5
3160.21642	6471
3162.54826	6462.7
3164.87868	6470.9
3167.2077	6466.7
3169.5353	6473.4
3171.86151	6469.5
3174.18631	6459.3
3176.5097	6461.9
3178.83169	6468.8
3181.15228	6464
3183.47147	6450.2
3185.78926	6439.9
3188.10565	6434.4
3190.42065	6423.8
3192.73424	6434.9
3195.04645	6452.4
3197.35725	6444.1
3199.66667	6438.6
3201.97469	6453.6
3204.28132	6439.3
3206.58656	6448.9
3208.8904	6456.8
3211.19287	6451.8
3213.49394	6460.1
3215.79363	6459.9
3218.09193	6458.9
3220.38884	6465.5
3222.68438	6479.3
3224.97853	6488.6
3227.2713	6459.1
3229.56269	6446.3
3231.8527	6437.7
3234.14133	6442.2
3236.42858	6433.8
3238.71446	6424.3
3240.99896	6405.4
3243.28209	6421.7
3245.56384	6401.9
3247.84423	6396
3250.12324	6390.6
3252.40088	6388.4
3254.67715	6363.9
3256.95205	6387.6
3259.22558	6404.8
3261.49775	6449.6
3263.76855	6397.8
3266.03799	6343.6
3268.30606	6331.8
3270.57277	6324.2
3272.83812	6304.2
3275.10211	6288.2
3277.36474	6295
3279.62601	6281.5
3281.88593	6271.9
3284.14448	6281.1
3286.40168	6283.9
3288.65753	6276.4
3290.91202	6268.7
3293.16516	6246.2
3295.41695	6258.9
3297.66738	6182.8
3299.91647	6178.7
3302.16421	6134.4
3304.4106	6111.9
3306.65564	6066.2
3308.89933	6015.8
3311.14169	5973.3
3313.38269	5933
3315.62236	5896.8
3317.86068	5832.4
3320.09766	5804.2
3322.3333	5740.2
3324.5676	5715.9
3326.80056	5639.8
3329.03219	5606.3
3331.26248	2.7
3333.49143	-1.3
3335.71905	0.3
