Data from AgNPs_FTO_APTES_UA_5uM_CRN_1000uM_R6G_10uM_NaF_0.1M_Addition_RamanShift__24__17-51-51-893.txt Node

Date: Mon Feb 07 17:51:51 GMT 2022
User: TCL
Spectrometer: QEP01345
Trigger mode: 4
Integration Time (sec): 7.000000E0
Scans to average: 10
Electric dark correction enabled: true
Nonlinearity correction enabled: false
Boxcar width: 0
XAxis mode: Raman Shifts
Number of Pixels in Spectrum: 1044
>>>>>Begin Spectral Data<<<<<
46.04893	-2.0875
50.45542	0.2125
54.85868	-0.6875
59.25871	-0.2875
63.6555	51.9125
68.04907	58.5125
72.43941	58.3125
76.82654	58.6125
81.21044	62.6125
85.59113	61.5125
89.96862	69.0125
94.34289	71.0125
98.71396	65.1125
103.08183	71.4125
107.4465	76.0125
111.80798	79.8125
116.16626	78.4125
120.52136	83.6125
124.87327	86.9125
129.222	91.8125
133.56755	95.2125
137.90993	108.3125
142.24913	119.5125
146.58517	134.3125
150.91804	155.0125
155.24774	189.6125
159.57429	240.1125
163.89768	303.1125
168.21792	408.0125
172.53501	560.7125
176.84895	782.6125
181.15975	1100.0125
185.46741	1553.9125
189.77193	2140.9125
194.07331	2848.3125
198.37157	3683.2125
202.6667	4562.4125
206.9587	5437.7125
211.24758	6294.8125
215.53334	7167.4125
219.81599	8080.1125
224.09553	9120.7125
228.37195	10249.7125
232.64527	11483.5125
236.91549	12726.5125
241.18261	13997.0125
245.44663	15169.1125
249.70755	16203.5125
253.96539	17147.6125
258.22014	17927.5125
262.4718	18528.7125
266.72039	18998.3125
270.96589	19263.6125
275.20832	19330.0125
279.44768	19237.6125
283.68397	19126.0125
287.91719	19013.5125
292.14735	18986.2125
296.37445	19081.6125
300.59849	19238.4125
304.81948	19331.7125
309.03742	19274.8125
313.25231	19031.9125
317.46415	18507.4125
321.67296	17864.3125
325.87872	17332.4125
330.08145	17063.8125
334.28114	17043.2125
338.47781	17155.6125
342.67145	17369.6125
346.86207	17658.6125
351.04966	18082.4125
355.23424	18560.4125
359.4158	18933.5125
363.59435	19161.5125
367.76989	19283.4125
371.94243	19393.0125
376.11196	19504.2125
380.27849	19557.4125
384.44203	19679.1125
388.60257	19761.6125
392.76012	19899.9125
396.91468	20074.7125
401.06626	20453.8125
405.21485	20658.2125
409.36047	20554.0125
413.50311	20191.5125
417.64277	19891.9125
421.77947	19784.9125
425.9132	19888.6125
430.04396	20053.3125
434.17176	20312.7125
438.2966	20573.0125
442.41849	21146.4125
446.53742	21923.2125
450.6534	22779.8125
454.76644	23353.0125
458.87653	23451.3125
462.98368	23143.0125
467.08789	22715.5125
471.18916	22392.0125
475.2875	22181.6125
479.38291	22165.3125
483.4754	22072.9125
487.56496	21797.0125
491.6516	21280.7125
495.73531	20811.1125
499.81612	20446.6125
503.89401	20358.7125
507.96899	20373.4125
512.04106	20239.7125
516.11023	20116.1125
520.1765	19962.1125
524.23987	19801.7125
528.30034	19691.7125
532.35792	19617.7125
536.41261	19391.0125
540.46441	19154.9125
544.51333	19116.7125
548.55936	19317.0125
552.60252	19748.7125
556.64279	20451.8125
560.6802	20993.5125
564.71473	21430.5125
568.7464	21966.7125
572.7752	22608.4125
576.80114	22772.5125
580.82422	22699.8125
584.84444	22809.1125
588.86181	23311.9125
592.87633	24079.9125
596.888	24392.1125
600.89682	23917.7125
604.9028	24053.4125
608.90594	25729.6125
612.90624	28054.7125
616.90371	26423.5125
620.89834	21711.4125
624.89015	19564.1125
628.87913	19284.9125
632.86528	19435.2125
636.84862	19511.7125
640.82913	19257.3125
644.80683	18736.6125
648.78172	18306.6125
652.75379	18161.5125
656.72306	18330.6125
660.68952	18665.2125
664.65319	18593.3125
668.61405	18277.3125
672.57211	18174.7125
676.52738	18231.1125
680.47986	18283.2125
684.42955	18175.2125
688.37646	18052.1125
692.32058	18046.6125
696.26192	18204.6125
700.20048	18367.4125
704.13626	18534.0125
708.06928	18498.7125
711.99952	18389.1125
715.927	18326.9125
719.85171	18351.9125
723.77365	18356.6125
727.69284	18241.8125
731.60928	18163.1125
735.52295	18121.8125
739.43388	18141.6125
743.34206	18175.2125
747.24749	18229.2125
751.15017	18362.9125
755.05012	18639.6125
758.94733	19193.4125
762.8418	20281.1125
766.73354	22008.8125
770.62254	23715.2125
774.50882	24224.0125
778.39237	23146.8125
782.27321	21174.4125
786.15132	19475.7125
790.02671	18465.8125
793.89938	17925.3125
797.76935	17759.9125
801.6366	17695.0125
805.50115	17693.9125
809.36299	17605.4125
813.22213	17489.6125
817.07857	17476.5125
820.93231	17411.9125
824.78336	17327.1125
828.63172	17288.5125
832.47738	17248.3125
836.32036	17201.5125
840.16066	17170.7125
843.99827	17154.0125
847.8332	17097.8125
851.66546	17052.8125
855.49504	17037.3125
859.32195	17063.9125
863.1462	17070.5125
866.96777	17055.6125
870.78668	16984.5125
874.60293	16940.9125
878.41652	16988.2125
882.22745	17062.1125
886.03573	17059.2125
889.84136	17050.3125
893.64433	17017.8125
897.44466	16964.3125
901.24235	16860.5125
905.0374	16738.2125
908.8298	16665.6125
912.61957	16644.1125
916.40671	16791.6125
920.19121	17008.8125
923.97308	17155.5125
927.75233	17182.0125
931.52895	17071.8125
935.30295	16846.3125
939.07433	16539.3125
942.84309	16288.0125
946.60924	16120.0125
950.37278	16064.9125
954.13371	16021.3125
957.89203	16037.6125
961.64774	16003.4125
965.40086	15969.1125
969.15137	15867.1125
972.89929	15778.8125
976.64461	15652.7125
980.38733	15620.3125
984.12747	15654.1125
987.86502	15732.5125
991.59999	15864.3125
995.33237	16086.7125
999.06217	16479.8125
1002.78939	16957.6125
1006.51404	17298.8125
1010.23611	17553.4125
1013.95561	17721.8125
1017.67255	17681.7125
1021.38692	17450.6125
1025.09872	17051.3125
1028.80796	16856.4125
1032.51465	16928.0125
1036.21877	17050.5125
1039.92035	17125.2125
1043.61937	17122.6125
1047.31584	16988.3125
1051.00976	16879.4125
1054.70114	16851.5125
1058.38998	16856.4125
1062.07627	17023.3125
1065.76003	17175.3125
1069.44126	17292.7125
1073.11995	17443.3125
1076.79611	17561.0125
1080.46974	17661.4125
1084.14085	17812.4125
1087.80943	18030.3125
1091.47549	18211.5125
1095.13903	18231.3125
1098.80005	18057.4125
1102.45857	17689.6125
1106.11456	17437.2125
1109.76805	17376.9125
1113.41903	17482.9125
1117.06751	17757.1125
1120.71348	18049.4125
1124.35696	18418.3125
1127.99793	18764.3125
1131.63641	18904.0125
1135.2724	18668.7125
1138.90589	18409.4125
1142.5369	18308.4125
1146.16542	18338.2125
1149.79145	18491.0125
1153.415	18702.9125
1157.03607	18971.5125
1160.65467	19499.1125
1164.27079	20376.8125
1167.88443	21505.9125
1171.49561	22998.5125
1175.10432	24978.5125
1178.71056	27412.5125
1182.31434	29590.6125
1185.91565	30439.4125
1189.51451	30147.2125
1193.11091	29192.0125
1196.70485	28137.7125
1200.29634	27058.1125
1203.88538	26148.4125
1207.47197	25369.2125
1211.05612	24774.5125
1214.63782	24231.4125
1218.21708	23921.8125
1221.79391	23641.3125
1225.36829	23308.2125
1228.94024	22766.5125
1232.50976	22102.6125
1236.07685	21644.9125
1239.6415	21402.0125
1243.20374	21386.2125
1246.76355	21554.7125
1250.32093	21856.4125
1253.8759	22275.5125
1257.42845	22896.4125
1260.97859	23503.9125
1264.52631	24107.0125
1268.07163	24730.0125
1271.61453	25457.4125
1275.15503	26140.5125
1278.69312	26787.2125
1282.22882	27488.7125
1285.76211	28385.4125
1289.29301	29604.8125
1292.82151	31147.7125
1296.34761	33081.8125
1299.87133	35327.6125
1303.39266	37707.0125
1306.9116	40299.7125
1310.42815	42787.5125
1313.94233	44430.4125
1317.45412	44644.9125
1320.96354	43831.9125
1324.47058	42753.8125
1327.97525	41689.2125
1331.47754	40919.6125
1334.97747	40682.6125
1338.47502	40777.9125
1341.97022	40626.8125
1345.46305	40074.1125
1348.95352	39309.8125
1352.44163	38902.6125
1355.92738	39411.3125
1359.41078	40885.5125
1362.89183	42371.3125
1366.37053	41618.9125
1369.84688	37930.4125
1373.32088	33522.3125
1376.79254	30579.1125
1380.26186	29493.3125
1383.72883	29541.8125
1387.19347	29781.9125
1390.65578	29912.7125
1394.11575	30309.9125
1397.57339	31174.1125
1401.0287	32380.6125
1404.48168	33437.1125
1407.93234	33873.9125
1411.38068	33608.2125
1414.82669	32410.6125
1418.27039	30575.8125
1421.71177	28612.7125
1425.15083	26935.7125
1428.58758	25960.8125
1432.02203	25864.6125
1435.45416	26408.3125
1438.88399	27285.9125
1442.31151	28049.7125
1445.73673	28763.8125
1449.15965	29515.2125
1452.58027	30108.0125
1455.9986	30372.7125
1459.41463	30576.4125
1462.82837	30987.1125
1466.23982	31568.7125
1469.64898	32108.9125
1473.05586	32352.0125
1476.46045	32198.4125
1479.86276	31826.9125
1483.26279	31355.7125
1486.66054	30869.3125
1490.05602	30672.8125
1493.44922	30524.9125
1496.84016	30250.0125
1500.22882	30241.5125
1503.61521	30787.1125
1506.99934	31913.8125
1510.38121	33056.0125
1513.76081	33588.8125
1517.13816	32822.1125
1520.51324	31328.0125
1523.88607	29966.6125
1527.25665	29261.1125
1530.62498	29176.6125
1533.99105	29236.4125
1537.35488	29309.3125
1540.71647	29089.5125
1544.07581	28645.7125
1547.4329	28035.2125
1550.78776	27415.0125
1554.14038	26873.8125
1557.49077	26594.6125
1560.83892	26421.6125
1564.18484	26397.5125
1567.52853	26537.3125
1570.86999	26781.7125
1574.20922	27216.3125
1577.54624	27601.2125
1580.88103	27730.1125
1584.2136	27893.6125
1587.54395	28773.4125
1590.87208	30341.4125
1594.19801	32451.9125
1597.52172	34677.9125
1600.84321	35661.5125
1604.16251	34458.4125
1607.47959	31606.3125
1610.79447	28216.1125
1614.10715	25070.5125
1617.41763	22619.7125
1620.7259	21076.8125
1624.03199	20283.7125
1627.33587	20117.3125
1630.63757	20690.3125
1633.93707	22107.2125
1637.23439	24442.4125
1640.52951	27918.3125
1643.82246	32036.0125
1647.11321	35591.0125
1650.40179	36577.6125
1653.68819	34139.9125
1656.97241	29367.1125
1660.25446	24539.6125
1663.53433	20887.9125
1666.81203	18562.2125
1670.08756	17124.6125
1673.36092	16247.0125
1676.63211	15666.2125
1679.90115	15227.0125
1683.16801	14962.2125
1686.43272	14739.8125
1689.69527	14561.5125
1692.95567	14387.2125
1696.2139	14292.2125
1699.46999	14219.4125
1702.72392	14122.1125
1705.97571	14088.7125
1709.22535	14060.8125
1712.47284	14017.4125
1715.71819	13974.3125
1718.96139	13912.5125
1722.20246	13855.8125
1725.44139	13771.8125
1728.67818	13696.8125
1731.91284	13634.7125
1735.14537	13538.4125
1738.37576	13472.9125
1741.60403	13441.0125
1744.83017	13415.5125
1748.05418	13381.2125
1751.27607	13363.6125
1754.49584	13324.5125
1757.71349	13301.3125
1760.92903	13261.1125
1764.14244	13231.4125
1767.35375	13253.5125
1770.56294	13190.0125
1773.77002	13156.9125
1776.97499	13130.2125
1780.17785	13074.3125
1783.37861	13069.2125
1786.57727	13048.5125
1789.77382	13020.1125
1792.96828	12983.3125
1796.16064	12939.8125
1799.3509	12905.3125
1802.53907	12873.1125
1805.72514	12851.3125
1808.90913	12795.3125
1812.09102	12790.1125
1815.27083	12745.2125
1818.44856	12702.0125
1821.6242	12707.0125
1824.79776	12683.1125
1827.96924	12636.1125
1831.13864	12630.6125
1834.30597	12603.8125
1837.47122	12588.3125
1840.6344	12555.5125
1843.7955	12571.8125
1846.95454	12558.2125
1850.11151	12568.8125
1853.26642	12533.8125
1856.41926	12536.3125
1859.57004	12519.5125
1862.71876	12520.7125
1865.86542	12535.3125
1869.01003	12507.7125
1872.15258	12479.0125
1875.29308	12491.5125
1878.43152	12484.6125
1881.56792	12483.4125
1884.70227	12463.3125
1887.83457	12468.3125
1890.96482	12452.1125
1894.09304	12450.2125
1897.21921	12441.0125
1900.34335	12405.5125
1903.46544	12396.4125
1906.58551	12422.9125
1909.70353	12398.5125
1912.81953	12339.4125
1915.93349	12301.1125
1919.04543	12277.5125
1922.15534	12255.4125
1925.26322	12250.0125
1928.36908	12223.2125
1931.47292	12184.3125
1934.57473	12152.8125
1937.67453	12128.1125
1940.77232	12087.3125
1943.86808	12039.3125
1946.96184	11988.2125
1950.05358	11930.9125
1953.14331	11900.0125
1956.23103	11834.8125
1959.31675	11827.1125
1962.40046	11795.4125
1965.48217	11754.7125
1968.56188	11684.4125
1971.63959	11648.9125
1974.7153	11623.3125
1977.78901	11601.8125
1980.86073	11518.8125
1983.93046	11520.9125
1986.99819	11463.3125
1990.06394	11426.3125
1993.1277	11414.3125
1996.18947	11351.8125
1999.24925	11339.6125
2002.30706	11296.0125
2005.36288	11269.4125
2008.41672	11227.3125
2011.46859	11176.8125
2014.51848	11163.5125
2017.56639	11156.2125
2020.61233	11115.8125
2023.6563	11059.3125
2026.6983	11045.5125
2029.73833	11008.6125
2032.7764	10961.3125
2035.8125	10977.7125
2038.84664	10963.1125
2041.87881	10961.6125
2044.90903	10917.1125
2047.93729	10895.9125
2050.96359	10886.5125
2053.98794	10871.1125
2057.01034	10837.8125
2060.03078	10840.4125
2063.04927	10853.9125
2066.06582	10834.9125
2069.08042	10832.3125
2072.09307	10790.9125
2075.10378	10795.2125
2078.11255	10759.1125
2081.11938	10760.5125
2084.12426	10775.7125
2087.12722	10728.0125
2090.12824	10725.0125
2093.12732	10739.3125
2096.12447	10742.1125
2099.11969	10731.6125
2102.11299	10713.1125
2105.10435	10700.2125
2108.09379	10694.3125
2111.08131	10692.9125
2114.0669	10728.0125
2117.05057	10718.2125
2120.03233	10719.0125
2123.01216	10719.9125
2125.99008	10732.4125
2128.96609	10706.6125
2131.94018	10724.2125
2134.91236	10740.3125
2137.88263	10765.6125
2140.851	10767.4125
2143.81746	10748.8125
2146.78201	10751.7125
2149.74466	10735.3125
2152.7054	10718.2125
2155.66425	10688.9125
2158.6212	10676.2125
2161.57625	10687.4125
2164.52941	10700.8125
2167.48067	10678.3125
2170.43004	10656.6125
2173.37752	10657.3125
2176.32311	10646.4125
2179.26681	10653.3125
2182.20863	10630.7125
2185.14856	10665.0125
2188.08661	10646.3125
2191.02278	10661.8125
2193.95707	10643.2125
2196.88948	10614.3125
2199.82001	10592.5125
2202.74867	10589.0125
2205.67545	10536.3125
2208.60037	10555.6125
2211.52341	10556.5125
2214.44458	10546.0125
2217.36388	10493.6125
2220.28132	10477.1125
2223.1969	10420.8125
2226.11061	10424.5125
2229.02246	10413.2125
2231.93245	10398.1125
2234.84058	10365.7125
2237.74686	10340.9125
2240.65128	10342.9125
2243.55385	10317.5125
2246.45456	10315.0125
2249.35343	10300.1125
2252.25044	10272.1125
2255.14561	10235.2125
2258.03893	10213.9125
2260.93041	10197.8125
2263.82004	10162.6125
2266.70783	10133.0125
2269.59378	10130.7125
2272.4779	10082.3125
2275.36017	10033.7125
2278.24061	10042.0125
2281.11922	10014.0125
2283.996	10002.4125
2286.87094	9986.1125
2289.74405	9956.3125
2292.61534	9939.6125
2295.4848	9931.6125
2298.35243	9926.5125
2301.21824	9933.8125
2304.08223	9924.1125
2306.94439	9942.4125
2309.80474	9927.0125
2312.66327	9905.0125
2315.51999	9897.1125
2318.37489	9919.6125
2321.22797	9879.8125
2324.07925	9851.8125
2326.92871	9856.1125
2329.77637	9831.0125
2332.62222	9841.1125
2335.46626	9821.0125
2338.3085	9797.1125
2341.14893	9795.8125
2343.98756	9809.9125
2346.8244	9779.7125
2349.65943	9788.7125
2352.49267	9763.9125
2355.32411	9770.0125
2358.15376	9778.1125
2360.98161	9805.6125
2363.80768	9749.6125
2366.63195	9758.1125
2369.45444	9756.4125
2372.27514	9729.2125
2375.09405	9715.8125
2377.91118	9698.3125
2380.72652	9675.5125
2383.54009	9636.6125
2386.35187	9638.2125
2389.16188	9595.8125
2391.97011	9583.3125
2394.77657	9550.4125
2397.58125	9528.8125
2400.38416	9517.3125
2403.18529	9485.0125
2405.98466	9484.3125
2408.78226	9463.9125
2411.57809	9458.3125
2414.37216	9441.3125
2417.16446	9446.4125
2419.955	9415.4125
2422.74378	9409.7125
2425.5308	9411.1125
2428.31606	9382.5125
2431.09956	9355.6125
2433.88131	9350.7125
2436.6613	9348.6125
2439.43954	9360.0125
2442.21603	9345.5125
2444.99077	9348.9125
2447.76377	9350.1125
2450.53501	9327.6125
2453.30451	9327.0125
2456.07226	9327.5125
2458.83827	9331.2125
2461.60254	9310.6125
2464.36507	9311.0125
2467.12586	9311.7125
2469.88492	9293.8125
2472.64224	9327.2125
2475.39782	9302.9125
2478.15167	9302.6125
2480.90379	9309.3125
2483.65417	9318.0125
2486.40283	9312.1125
2489.14976	9333.9125
2491.89497	9332.0125
2494.63845	9322.8125
2497.3802	9309.8125
2500.12024	9302.0125
2502.85855	9312.3125
2505.59514	9310.6125
2508.33002	9303.2125
2511.06318	9279.8125
2513.79462	9267.7125
2516.52435	9236.8125
2519.25237	9241.5125
2521.97867	9215.3125
2524.70327	9223.6125
2527.42616	9198.1125
2530.14734	9214.0125
2532.86681	9203.3125
2535.58458	9189.6125
2538.30065	9204.4125
2541.01501	9183.4125
2543.72768	9183.8125
2546.43864	9167.1125
2549.14791	9155.6125
2551.85548	9131.1125
2554.56136	9139.5125
2557.26554	9106.1125
2559.96803	9082.2125
2562.66883	9072.6125
2565.36794	9048.5125
2568.06536	9081.5125
2570.7611	9054.4125
2573.45514	9059.8125
2576.14751	9048.3125
2578.83819	9034.7125
2581.52719	9026.9125
2584.21451	9029.4125
2586.90015	9030.9125
2589.58411	9002.5125
2592.2664	9004.0125
2594.94701	8993.0125
2597.62594	8976.6125
2600.30321	8987.8125
2602.9788	8983.9125
2605.65273	8992.1125
2608.32498	9004.0125
2610.99557	9004.1125
2613.66449	8987.8125
2616.33175	8987.1125
2618.99734	8970.4125
2621.66128	8970.4125
2624.32355	8961.2125
2626.98416	8965.7125
2629.64311	8931.9125
2632.30041	8964.8125
2634.95605	8944.1125
2637.61004	8919.6125
2640.26238	8934.5125
2642.91306	8922.5125
2645.56209	8882.9125
2648.20948	8915.7125
2650.85521	8908.7125
2653.4993	8909.1125
2656.14175	8929.3125
2658.78255	8933.9125
2661.42171	8959.2125
2664.05923	8935.0125
2666.6951	8935.2125
2669.32934	8944.6125
2671.96194	8948.8125
2674.59291	8957.9125
2677.22224	8924.5125
2679.84993	8944.8125
2682.476	8885.0125
2685.10043	8898.1125
2687.72324	8916.6125
2690.34441	8903.3125
2692.96396	8892.5125
2695.58188	8898.2125
2698.19818	8900.6125
2700.81285	8941.7125
2703.4259	8896.0125
2706.03733	8920.7125
2708.64714	8907.3125
2711.25533	8926.2125
2713.86191	8926.7125
2716.46687	8918.9125
2719.07021	8896.8125
2721.67194	8943.7125
2724.27206	8931.2125
2726.87057	8936.7125
2729.46747	8952.9125
2732.06276	8942.5125
2734.65644	8952.7125
2737.24852	8928.1125
2739.83899	8912.0125
2742.42786	8932.4125
2745.01513	8910.4125
2747.60079	8908.7125
2750.18486	8896.7125
2752.76733	8908.8125
2755.3482	8889.2125
2757.92747	8903.3125
2760.50515	8884.5125
2763.08123	8889.9125
2765.65573	8877.4125
2768.22863	8885.4125
2770.79994	8867.8125
2773.36967	8869.9125
2775.9378	8873.5125
2778.50435	8882.7125
2781.06932	8879.1125
2783.6327	8852.5125
2786.1945	8874.3125
2788.75471	8881.1125
2791.31335	8877.0125
2793.87041	8871.7125
2796.42589	8836.8125
2798.97979	8852.3125
2801.53212	8821.1125
2804.08288	8807.8125
2806.63206	8790.9125
2809.17967	8769.1125
2811.72571	8745.2125
2814.27018	8742.6125
2816.81308	8738.6125
2819.35442	8711.9125
2821.89419	8697.6125
2824.43239	8703.0125
2826.96904	8684.9125
2829.50412	8690.5125
2832.03763	8679.3125
2834.56959	8645.5125
2837.1	8653.0125
2839.62884	8650.7125
2842.15613	8663.8125
2844.68186	8684.8125
2847.20604	8717.4125
2849.72867	8709.2125
2852.24974	8732.4125
2854.76927	8705.5125
2857.28724	8712.9125
2859.80367	8701.0125
2862.31855	8684.5125
2864.83189	8639.7125
2867.34368	8624.9125
2869.85393	8616.2125
2872.36264	8621.9125
2874.8698	8652.6125
2877.37543	8642.8125
2879.87952	8645.6125
2882.38207	8644.9125
2884.88308	8645.2125
2887.38256	8637.7125
2889.88051	8638.4125
2892.37692	8638.1125
2894.8718	8659.5125
2897.36515	8668.0125
2899.85698	8656.9125
2902.34727	8662.1125
2904.83604	8659.0125
2907.32328	8707.8125
2909.809	8714.8125
2912.29319	8724.4125
2914.77587	8695.1125
2917.25702	8688.9125
2919.73665	8664.1125
2922.21476	8677.5125
2924.69136	8678.9125
2927.16644	8704.7125
2929.64	8678.8125
2932.11205	8666.0125
2934.58258	8634.4125
2937.05161	8647.4125
2939.51912	8620.1125
2941.98513	8620.2125
2944.44962	8586.3125
2946.91261	8548.3125
2949.37409	8566.3125
2951.83407	8521.4125
2954.29254	8533.6125
2956.74951	8489.6125
2959.20498	8489.7125
2961.65895	8459.3125
2964.11142	8449.8125
2966.56239	8426.4125
2969.01186	8402.2125
2971.45984	8392.0125
2973.90632	8376.3125
2976.35131	8361.3125
2978.7948	8339.3125
2981.23681	8314.5125
2983.67732	8293.2125
2986.11635	8274.9125
2988.55388	8249.3125
2990.98993	8217.7125
2993.4245	8204.0125
2995.85758	8177.8125
2998.28917	8149.7125
3000.71928	8151.7125
3003.14791	8115.8125
3005.57506	8109.6125
3008.00073	8092.9125
3010.42493	8059.3125
3012.84764	8044.7125
3015.26888	8055.5125
3017.68865	8016.3125
3020.10694	7995.9125
3022.52376	7975.5125
3024.9391	7968.5125
3027.35298	7952.8125
3029.76539	7941.9125
3032.17632	7959.4125
3034.5858	7907.3125
3036.9938	7909.1125
3039.40034	7924.2125
3041.80542	7926.5125
3044.20903	7895.5125
3046.61118	7905.9125
3049.01187	7884.6125
3051.4111	7897.4125
3053.80888	7861.3125
3056.20519	7843.2125
