Data from AgNPs_FTO_APTES_UA_5uM_CRN_1000uM_R6G_10uM_NaF_0.1M_Addition_RamanShift__23__17-50-41-891.txt Node

Date: Mon Feb 07 17:50:41 GMT 2022
User: TCL
Spectrometer: QEP01345
Trigger mode: 4
Integration Time (sec): 7.000000E0
Scans to average: 10
Electric dark correction enabled: true
Nonlinearity correction enabled: false
Boxcar width: 0
XAxis mode: Raman Shifts
Number of Pixels in Spectrum: 1044
>>>>>Begin Spectral Data<<<<<
46.04893	-1.125
50.45542	-0.225
54.85868	-0.425
59.25871	-0.525
63.6555	51.275
68.04907	53.075
72.43941	60.575
76.82654	60.375
81.21044	60.575
85.59113	57.275
89.96862	67.175
94.34289	67.775
98.71396	70.575
103.08183	71.575
107.4465	73.875
111.80798	73.875
116.16626	76.775
120.52136	84.675
124.87327	82.175
129.222	88.575
133.56755	95.775
137.90993	104.575
142.24913	115.875
146.58517	130.175
150.91804	149.475
155.24774	182.575
159.57429	230.175
163.89768	294.675
168.21792	400.175
172.53501	536.575
176.84895	752.575
181.15975	1063.075
185.46741	1486.075
189.77193	2050.775
194.07331	2745.575
198.37157	3541.675
202.6667	4387.875
206.9587	5210.175
211.24758	6052.275
215.53334	6860.375
219.81599	7737.975
224.09553	8729.675
228.37195	9798.075
232.64527	10946.175
236.91549	12169.875
241.18261	13363.075
245.44663	14502.275
249.70755	15494.875
253.96539	16417.075
258.22014	17119.575
262.4718	17764.175
266.72039	18195.975
270.96589	18472.175
275.20832	18510.875
279.44768	18434.075
283.68397	18312.475
287.91719	18192.675
292.14735	18202.175
296.37445	18258.675
300.59849	18339.475
304.81948	18365.375
309.03742	18258.875
313.25231	18002.475
317.46415	17563.675
321.67296	17057.875
325.87872	16635.475
330.08145	16424.275
334.28114	16391.575
338.47781	16539.575
342.67145	16674.975
346.86207	16893.175
351.04966	17243.575
355.23424	17592.575
359.4158	17869.375
363.59435	18041.475
367.76989	18190.675
371.94243	18322.675
376.11196	18418.975
380.27849	18482.275
384.44203	18655.575
388.60257	18798.775
392.76012	18963.375
396.91468	19169.175
401.06626	19423.075
405.21485	19679.875
409.36047	19588.475
413.50311	19325.275
417.64277	19140.775
421.77947	19085.275
425.9132	19213.175
430.04396	19460.775
434.17176	19642.675
438.2966	19958.575
442.41849	20486.775
446.53742	21266.475
450.6534	22110.275
454.76644	22695.675
458.87653	22809.875
462.98368	22507.075
467.08789	22099.875
471.18916	21737.475
475.2875	21580.775
479.38291	21592.275
483.4754	21528.175
487.56496	21257.375
491.6516	20757.775
495.73531	20196.875
499.81612	19789.075
503.89401	19731.775
507.96899	19700.775
512.04106	19555.275
516.11023	19383.575
520.1765	19136.375
524.23987	18989.575
528.30034	18901.975
532.35792	18856.575
536.41261	18679.075
540.46441	18491.275
544.51333	18435.875
548.55936	18653.575
552.60252	19122.575
556.64279	19747.775
560.6802	20269.875
564.71473	20718.775
568.7464	21253.175
572.7752	21863.475
576.80114	22176.375
580.82422	22246.475
584.84444	22431.475
588.86181	23072.775
592.87633	23893.475
596.888	24129.775
600.89682	23549.875
604.9028	23354.575
608.90594	24513.075
612.90624	25960.975
616.90371	24323.375
620.89834	20452.875
624.89015	18728.575
628.87913	18492.075
632.86528	18690.375
636.84862	18767.675
640.82913	18519.975
644.80683	18028.675
648.78172	17622.375
652.75379	17506.575
656.72306	17597.675
660.68952	17838.175
664.65319	17759.875
668.61405	17526.275
672.57211	17478.975
676.52738	17545.975
680.47986	17584.275
684.42955	17470.175
688.37646	17374.175
692.32058	17378.675
696.26192	17480.875
700.20048	17675.575
704.13626	17811.375
708.06928	17809.375
711.99952	17714.675
715.927	17643.975
719.85171	17699.175
723.77365	17690.475
727.69284	17604.675
731.60928	17508.175
735.52295	17474.975
739.43388	17486.075
743.34206	17511.975
747.24749	17557.175
751.15017	17679.975
755.05012	17950.575
758.94733	18470.675
762.8418	19398.875
766.73354	20834.775
770.62254	22224.075
774.50882	22580.375
778.39237	21544.475
782.27321	19886.075
786.15132	18447.875
790.02671	17641.675
793.89938	17224.875
797.76935	17032.675
801.6366	17018.775
805.50115	17036.175
809.36299	16923.475
813.22213	16844.475
817.07857	16781.375
820.93231	16776.075
824.78336	16669.975
828.63172	16559.475
832.47738	16520.275
836.32036	16508.075
840.16066	16469.775
843.99827	16473.075
847.8332	16399.575
851.66546	16356.075
855.49504	16345.475
859.32195	16367.475
863.1462	16375.875
866.96777	16367.275
870.78668	16333.375
874.60293	16318.875
878.41652	16314.675
882.22745	16356.075
886.03573	16393.275
889.84136	16347.375
893.64433	16322.075
897.44466	16253.875
901.24235	16153.775
905.0374	16081.775
908.8298	15952.075
912.61957	15977.675
916.40671	16117.175
920.19121	16360.775
923.97308	16511.175
927.75233	16463.175
931.52895	16353.075
935.30295	16112.075
939.07433	15854.175
942.84309	15593.475
946.60924	15453.675
950.37278	15402.675
954.13371	15372.775
957.89203	15388.175
961.64774	15380.275
965.40086	15311.175
969.15137	15248.675
972.89929	15131.175
976.64461	15027.475
980.38733	14963.875
984.12747	14985.975
987.86502	15059.675
991.59999	15218.775
995.33237	15444.075
999.06217	15823.975
1002.78939	16277.975
1006.51404	16646.475
1010.23611	16825.075
1013.95561	16970.075
1017.67255	16994.175
1021.38692	16726.375
1025.09872	16322.775
1028.80796	16166.975
1032.51465	16152.875
1036.21877	16300.975
1039.92035	16371.575
1043.61937	16321.575
1047.31584	16243.175
1051.00976	16153.375
1054.70114	16111.875
1058.38998	16183.375
1062.07627	16309.675
1065.76003	16468.075
1069.44126	16602.175
1073.11995	16760.775
1076.79611	16895.475
1080.46974	16940.675
1084.14085	17085.275
1087.80943	17234.275
1091.47549	17420.475
1095.13903	17515.575
1098.80005	17355.975
1102.45857	17043.875
1106.11456	16752.175
1109.76805	16664.875
1113.41903	16755.475
1117.06751	16939.575
1120.71348	17205.075
1124.35696	17487.175
1127.99793	17796.975
1131.63641	17922.175
1135.2724	17821.375
1138.90589	17670.375
1142.5369	17608.875
1146.16542	17693.175
1149.79145	17889.575
1153.415	18125.575
1157.03607	18447.175
1160.65467	19013.675
1164.27079	19930.775
1167.88443	21057.075
1171.49561	22493.075
1175.10432	24310.475
1178.71056	26562.675
1182.31434	28605.475
1185.91565	29473.275
1189.51451	29187.375
1193.11091	28386.375
1196.70485	27436.075
1200.29634	26453.975
1203.88538	25609.875
1207.47197	24957.875
1211.05612	24416.375
1214.63782	23979.475
1218.21708	23583.575
1221.79391	23302.375
1225.36829	22938.875
1228.94024	22343.775
1232.50976	21620.375
1236.07685	21135.175
1239.6415	20867.875
1243.20374	20823.875
1246.76355	20964.675
1250.32093	21267.275
1253.8759	21722.775
1257.42845	22291.475
1260.97859	22853.675
1264.52631	23515.675
1268.07163	24096.475
1271.61453	24742.875
1275.15503	25499.175
1278.69312	26214.775
1282.22882	26998.875
1285.76211	28012.275
1289.29301	29252.375
1292.82151	30915.075
1296.34761	32968.475
1299.87133	35227.075
1303.39266	37525.675
1306.9116	39877.775
1310.42815	42028.775
1313.94233	43496.975
1317.45412	43784.275
1320.96354	43277.475
1324.47058	42475.375
1327.97525	41669.475
1331.47754	41085.475
1334.97747	40884.075
1338.47502	40889.475
1341.97022	40620.275
1345.46305	39803.375
1348.95352	38786.375
1352.44163	38148.075
1355.92738	38322.775
1359.41078	39297.575
1362.89183	40329.675
1366.37053	39680.775
1369.84688	36629.075
1373.32088	32624.475
1376.79254	29940.875
1380.26186	29040.775
1383.72883	29178.275
1387.19347	29552.575
1390.65578	29728.275
1394.11575	30171.675
1397.57339	31155.675
1401.0287	32433.675
1404.48168	33505.175
1407.93234	33927.275
1411.38068	33517.275
1414.82669	32200.275
1418.27039	30279.175
1421.71177	28238.675
1425.15083	26521.475
1428.58758	25551.875
1432.02203	25475.075
1435.45416	26104.175
1438.88399	27062.575
1442.31151	27969.775
1445.73673	28729.975
1449.15965	29465.375
1452.58027	30092.175
1455.9986	30363.875
1459.41463	30550.975
1462.82837	30958.875
1466.23982	31514.375
1469.64898	32020.275
1473.05586	32237.075
1476.46045	32100.375
1479.86276	31715.975
1483.26279	31122.975
1486.66054	30539.875
1490.05602	30215.875
1493.44922	29923.575
1496.84016	29473.175
1500.22882	29191.975
1503.61521	29372.475
1506.99934	29996.075
1510.38121	30730.675
1513.76081	31042.575
1517.13816	30493.575
1520.51324	29465.175
1523.88607	28675.075
1527.25665	28367.275
1530.62498	28523.075
1533.99105	28716.675
1537.35488	28813.575
1540.71647	28605.275
1544.07581	28135.975
1547.4329	27440.475
1550.78776	26734.175
1554.14038	26140.475
1557.49077	25814.675
1560.83892	25562.375
1564.18484	25504.375
1567.52853	25514.475
1570.86999	25768.375
1574.20922	26166.975
1577.54624	26758.175
1580.88103	27038.275
1584.2136	27493.875
1587.54395	28540.275
1590.87208	30189.275
1594.19801	32401.875
1597.52172	34580.175
1600.84321	35528.975
1604.16251	34265.075
1607.47959	31300.275
1610.79447	27820.375
1614.10715	24639.775
1617.41763	22174.275
1620.7259	20544.275
1624.03199	19701.075
1627.33587	19611.475
1630.63757	20205.375
1633.93707	21656.275
1637.23439	24137.575
1640.52951	27824.575
1643.82246	32119.275
1647.11321	35635.375
1650.40179	36359.775
1653.68819	33635.975
1656.97241	28792.775
1660.25446	23976.675
1663.53433	20353.875
1666.81203	18031.875
1670.08756	16573.675
1673.36092	15665.575
1676.63211	15078.175
1679.90115	14651.575
1683.16801	14368.175
1686.43272	14135.975
1689.69527	13944.775
1692.95567	13821.475
1696.2139	13693.375
1699.46999	13620.375
1702.72392	13514.875
1705.97571	13496.575
1709.22535	13461.575
1712.47284	13399.975
1715.71819	13370.975
1718.96139	13336.875
1722.20246	13266.675
1725.44139	13162.075
1728.67818	13085.775
1731.91284	13010.675
1735.14537	12946.075
1738.37576	12859.575
1741.60403	12820.675
1744.83017	12776.575
1748.05418	12744.975
1751.27607	12772.275
1754.49584	12716.075
1757.71349	12707.675
1760.92903	12673.575
1764.14244	12646.475
1767.35375	12611.375
1770.56294	12580.975
1773.77002	12521.875
1776.97499	12521.075
1780.17785	12507.275
1783.37861	12493.775
1786.57727	12455.875
1789.77382	12437.075
1792.96828	12385.075
1796.16064	12345.675
1799.3509	12300.775
1802.53907	12259.475
1805.72514	12269.375
1808.90913	12233.375
1812.09102	12140.575
1815.27083	12190.375
1818.44856	12131.675
1821.6242	12113.475
1824.79776	12063.675
1827.96924	12062.075
1831.13864	12050.575
1834.30597	12038.175
1837.47122	11969.575
1840.6344	11975.275
1843.7955	11976.175
1846.95454	11965.275
1850.11151	11973.175
1853.26642	11927.875
1856.41926	11932.275
1859.57004	11925.475
1862.71876	11976.075
1865.86542	11922.875
1869.01003	11906.675
1872.15258	11899.775
1875.29308	11909.675
1878.43152	11894.175
1881.56792	11885.175
1884.70227	11868.875
1887.83457	11873.375
1890.96482	11845.175
1894.09304	11865.275
1897.21921	11849.675
1900.34335	11823.075
1903.46544	11830.875
1906.58551	11802.375
1909.70353	11775.375
1912.81953	11743.975
1915.93349	11737.775
1919.04543	11692.575
1922.15534	11657.675
1925.26322	11639.475
1928.36908	11636.975
1931.47292	11591.675
1934.57473	11545.775
1937.67453	11533.375
1940.77232	11489.575
1943.86808	11447.275
1946.96184	11394.975
1950.05358	11380.175
1953.14331	11304.675
1956.23103	11294.175
1959.31675	11240.475
1962.40046	11222.675
1965.48217	11168.675
1968.56188	11121.275
1971.63959	11093.275
1974.7153	11049.275
1977.78901	11024.075
1980.86073	10958.775
1983.93046	10954.375
1986.99819	10929.675
1990.06394	10907.875
1993.1277	10855.675
1996.18947	10801.275
1999.24925	10796.575
2002.30706	10753.175
2005.36288	10707.175
2008.41672	10692.875
2011.46859	10656.375
2014.51848	10606.675
2017.56639	10612.575
2020.61233	10589.775
2023.6563	10540.575
2026.6983	10494.075
2029.73833	10469.375
2032.7764	10437.375
2035.8125	10458.875
2038.84664	10414.475
2041.87881	10411.675
2044.90903	10400.575
2047.93729	10352.175
2050.96359	10355.275
2053.98794	10328.275
2057.01034	10329.075
2060.03078	10312.675
2063.04927	10331.675
2066.06582	10319.375
2069.08042	10304.675
2072.09307	10299.975
2075.10378	10276.075
2078.11255	10258.675
2081.11938	10245.775
2084.12426	10233.375
2087.12722	10218.275
2090.12824	10228.375
2093.12732	10212.275
2096.12447	10220.975
2099.11969	10196.575
2102.11299	10166.975
2105.10435	10168.075
2108.09379	10184.575
2111.08131	10188.875
2114.0669	10176.975
2117.05057	10213.175
2120.03233	10180.875
2123.01216	10211.275
2125.99008	10189.275
2128.96609	10184.675
2131.94018	10177.075
2134.91236	10219.775
2137.88263	10225.275
2140.851	10229.275
2143.81746	10218.775
2146.78201	10212.175
2149.74466	10218.075
2152.7054	10209.275
2155.66425	10181.875
2158.6212	10161.775
2161.57625	10139.875
2164.52941	10154.575
2167.48067	10145.775
2170.43004	10135.475
2173.37752	10132.375
2176.32311	10142.775
2179.26681	10137.575
2182.20863	10124.775
2185.14856	10126.875
2188.08661	10156.575
2191.02278	10136.275
2193.95707	10107.275
2196.88948	10109.675
2199.82001	10096.275
2202.74867	10061.175
2205.67545	10027.675
2208.60037	10028.375
2211.52341	10034.875
2214.44458	10008.775
2217.36388	9971.675
2220.28132	9956.875
2223.1969	9907.175
2226.11061	9900.275
2229.02246	9886.975
2231.93245	9868.775
2234.84058	9851.175
2237.74686	9829.475
2240.65128	9813.875
2243.55385	9811.575
2246.45456	9794.375
2249.35343	9767.375
2252.25044	9785.575
2255.14561	9735.075
2258.03893	9716.075
2260.93041	9651.475
2263.82004	9636.075
2266.70783	9614.775
2269.59378	9618.675
2272.4779	9564.275
2275.36017	9533.375
2278.24061	9522.675
2281.11922	9492.275
2283.996	9489.775
2286.87094	9475.775
2289.74405	9436.775
2292.61534	9435.675
2295.4848	9427.875
2298.35243	9408.975
2301.21824	9424.575
2304.08223	9420.275
2306.94439	9444.075
2309.80474	9412.575
2312.66327	9413.975
2315.51999	9405.275
2318.37489	9404.475
2321.22797	9367.875
2324.07925	9362.875
2326.92871	9356.875
2329.77637	9344.075
2332.62222	9316.475
2335.46626	9308.575
2338.3085	9308.775
2341.14893	9305.475
2343.98756	9316.075
2346.8244	9284.775
2349.65943	9276.475
2352.49267	9270.375
2355.32411	9277.975
2358.15376	9276.075
2360.98161	9296.175
2363.80768	9263.175
2366.63195	9273.575
2369.45444	9254.175
2372.27514	9251.175
2375.09405	9194.675
2377.91118	9181.675
2380.72652	9168.975
2383.54009	9154.475
2386.35187	9110.975
2389.16188	9120.175
2391.97011	9080.275
2394.77657	9070.275
2397.58125	9051.575
2400.38416	9031.875
2403.18529	9000.575
2405.98466	9005.675
2408.78226	9006.975
2411.57809	8962.875
2414.37216	8962.075
2417.16446	8938.775
2419.955	8910.875
2422.74378	8917.275
2425.5308	8922.175
2428.31606	8902.175
2431.09956	8894.175
2433.88131	8879.575
2436.6613	8864.675
2439.43954	8892.075
2442.21603	8887.875
2444.99077	8865.175
2447.76377	8868.175
2450.53501	8859.575
2453.30451	8883.775
2456.07226	8850.075
2458.83827	8859.075
2461.60254	8838.775
2464.36507	8844.675
2467.12586	8838.175
2469.88492	8826.175
2472.64224	8843.675
2475.39782	8830.675
2478.15167	8824.075
2480.90379	8832.775
2483.65417	8830.675
2486.40283	8835.975
2489.14976	8840.475
2491.89497	8842.675
2494.63845	8835.575
2497.3802	8834.775
2500.12024	8837.375
2502.85855	8827.175
2505.59514	8832.975
2508.33002	8809.875
2511.06318	8818.475
2513.79462	8779.475
2516.52435	8794.175
2519.25237	8797.675
2521.97867	8755.775
2524.70327	8753.775
2527.42616	8753.475
2530.14734	8743.375
2532.86681	8737.975
2535.58458	8742.475
2538.30065	8731.975
2541.01501	8718.875
2543.72768	8709.475
2546.43864	8693.175
2549.14791	8660.875
2551.85548	8706.675
2554.56136	8676.175
2557.26554	8650.775
2559.96803	8632.475
2562.66883	8621.975
2565.36794	8616.775
2568.06536	8625.175
2570.7611	8603.075
2573.45514	8596.575
2576.14751	8583.275
2578.83819	8589.975
2581.52719	8588.875
2584.21451	8587.175
2586.90015	8575.875
2589.58411	8566.175
2592.2664	8576.975
2594.94701	8564.875
2597.62594	8544.775
2600.30321	8555.275
2602.9788	8552.375
2605.65273	8577.075
2608.32498	8574.975
2610.99557	8562.775
2613.66449	8575.575
2616.33175	8572.875
2618.99734	8552.275
2621.66128	8555.975
2624.32355	8534.575
2626.98416	8556.875
2629.64311	8518.075
2632.30041	8525.675
2634.95605	8533.575
2637.61004	8494.875
2640.26238	8522.575
2642.91306	8501.175
2645.56209	8483.775
2648.20948	8500.475
2650.85521	8524.575
2653.4993	8489.075
2656.14175	8506.575
2658.78255	8525.875
2661.42171	8517.075
2664.05923	8535.775
2666.6951	8508.175
2669.32934	8554.575
2671.96194	8524.275
2674.59291	8531.175
2677.22224	8520.275
2679.84993	8523.975
2682.476	8479.675
2685.10043	8487.075
2687.72324	8477.475
2690.34441	8479.475
2692.96396	8492.875
2695.58188	8478.475
2698.19818	8478.175
2700.81285	8482.675
2703.4259	8490.175
2706.03733	8475.775
2708.64714	8492.675
2711.25533	8508.775
2713.86191	8517.475
2716.46687	8538.475
2719.07021	8514.475
2721.67194	8547.375
2724.27206	8519.175
2726.87057	8520.075
2729.46747	8538.375
2732.06276	8551.975
2734.65644	8523.675
2737.24852	8542.675
2739.83899	8519.975
2742.42786	8523.775
2745.01513	8516.575
2747.60079	8511.675
2750.18486	8497.975
2752.76733	8502.175
2755.3482	8507.475
2757.92747	8503.175
2760.50515	8473.675
2763.08123	8519.875
2765.65573	8478.575
2768.22863	8474.875
2770.79994	8480.075
2773.36967	8496.575
2775.9378	8517.975
2778.50435	8505.675
2781.06932	8486.375
2783.6327	8482.475
2786.1945	8482.575
2788.75471	8497.675
2791.31335	8500.675
2793.87041	8496.275
2796.42589	8475.275
2798.97979	8479.375
2801.53212	8432.175
2804.08288	8420.575
2806.63206	8406.975
2809.17967	8420.475
2811.72571	8368.875
2814.27018	8376.375
2816.81308	8362.675
2819.35442	8348.475
2821.89419	8321.675
2824.43239	8315.075
2826.96904	8321.875
2829.50412	8338.075
2832.03763	8280.775
2834.56959	8288.575
2837.1	8246.575
2839.62884	8284.475
2842.15613	8289.775
2844.68186	8318.375
2847.20604	8348.575
2849.72867	8346.275
2852.24974	8329.275
2854.76927	8330.875
2857.28724	8321.275
2859.80367	8294.475
2862.31855	8293.575
2864.83189	8258.775
2867.34368	8258.475
2869.85393	8254.275
2872.36264	8260.575
2874.8698	8256.975
2877.37543	8259.775
2879.87952	8272.975
2882.38207	8261.175
2884.88308	8261.875
2887.38256	8273.975
2889.88051	8276.275
2892.37692	8271.675
2894.8718	8281.375
2897.36515	8280.475
2899.85698	8288.275
2902.34727	8282.575
2904.83604	8313.575
2907.32328	8340.475
2909.809	8328.475
2912.29319	8334.975
2914.77587	8337.175
2917.25702	8320.375
2919.73665	8315.975
2922.21476	8316.475
2924.69136	8294.975
2927.16644	8304.675
2929.64	8306.075
2932.11205	8270.175
2934.58258	8266.075
2937.05161	8298.675
2939.51912	8265.975
2941.98513	8233.375
2944.44962	8249.675
2946.91261	8184.375
2949.37409	8178.475
2951.83407	8163.775
2954.29254	8193.375
2956.74951	8149.975
2959.20498	8135.975
2961.65895	8104.175
2964.11142	8089.675
2966.56239	8079.975
2969.01186	8076.575
2971.45984	8038.875
2973.90632	8031.775
2976.35131	7997.575
2978.7948	7979.175
2981.23681	7957.875
2983.67732	7922.375
2986.11635	7903.675
2988.55388	7864.575
2990.98993	7873.475
2993.4245	7834.275
2995.85758	7812.475
2998.28917	7795.575
3000.71928	7794.975
3003.14791	7754.575
3005.57506	7754.875
3008.00073	7754.475
3010.42493	7707.875
3012.84764	7707.675
3015.26888	7697.775
3017.68865	7656.475
3020.10694	7655.975
3022.52376	7648.375
3024.9391	7636.875
3027.35298	7616.075
3029.76539	7582.675
3032.17632	7588.175
3034.5858	7576.075
3036.9938	7575.575
3039.40034	7591.675
3041.80542	7583.675
3044.20903	7573.975
3046.61118	7565.275
3049.01187	7553.375
3051.4111	7549.475
3053.80888	7502.475
3056.20519	7502.975
3058.60005	7497.775
3060.99345	7451.075
3063.3854	7434.075
3065.7759	7417.975
3068.16494	7379.675
3070.55254	7343.075
3072.93868	7335.075
3075.32338	7304.875
3077.70662	7317.475
3080.08842	7258.775
3082.46878	7256.275
3084.84769	7232.175
3087.22515	7249.075
3089.60118	7235.075
3091.97576	7235.075
3094.3489	7241.075
3096.72061	7219.675
3099.09087	7215.675
3101.4597	7209.975
3103.82709	7202.675
3106.19305	7188.875
3108.55757	7190.575
3110.92066	7150.275
3113.28232	7135.675
3115.64255	7131.475
3118.00134	7115.075
3120.35871	7085.975
3122.71466	7079.775
3125.06917	7073.275
3127.42226	7037.575
3129.77393	7052.475
3132.12417	7021.875
3134.47299	7037.275
3136.82039	7036.675
3139.16636	7017.275
3141.51092	7016.075
3143.85406	6983.375
3146.19579	6984.275
3148.53609	6990.375
3150.87499	6993.075
3153.21246	6972.075
3155.54853	6986.075
3157.88318	6991.775
3160.21642	7004.075
3162.54826	7005.275
3164.87868	7001.375
3167.2077	6980.375
3169.5353	6992.275
