Data from AgNPs_FTO_APTES_UA_5uM_CRN_2uM_R6G_10uM_NaF_0.1M_Addition_RamanShift__31__11-33-06-652.txt Node

Date: Mon Feb 07 11:33:06 GMT 2022
User: TCL
Spectrometer: QEP01345
Trigger mode: 4
Integration Time (sec): 7.000000E0
Scans to average: 10
Electric dark correction enabled: true
Nonlinearity correction enabled: false
Boxcar width: 0
XAxis mode: Raman Shifts
Number of Pixels in Spectrum: 1044
>>>>>Begin Spectral Data<<<<<
46.04893	-0.025
50.45542	-1.025
54.85868	0.375
59.25871	0.775
63.6555	48.875
68.04907	54.775
72.43941	57.375
76.82654	59.075
81.21044	59.975
85.59113	66.075
89.96862	71.475
94.34289	69.375
98.71396	72.775
103.08183	76.075
107.4465	79.975
111.80798	75.675
116.16626	83.475
120.52136	84.175
124.87327	89.475
129.222	91.475
133.56755	95.875
137.90993	101.375
142.24913	108.275
146.58517	124.775
150.91804	141.275
155.24774	167.575
159.57429	209.675
163.89768	271.875
168.21792	353.575
172.53501	479.575
176.84895	660.975
181.15975	933.075
185.46741	1295.175
189.77193	1788.675
194.07331	2391.875
198.37157	3076.575
202.6667	3791.875
206.9587	4506.375
211.24758	5254.775
215.53334	6042.875
219.81599	6939.975
224.09553	7972.975
228.37195	9130.775
232.64527	10360.875
236.91549	11535.775
241.18261	12562.775
245.44663	13352.075
249.70755	13899.675
253.96539	14378.075
258.22014	14769.975
262.4718	15166.575
266.72039	15459.275
270.96589	15654.875
275.20832	15674.375
279.44768	15497.175
283.68397	15357.275
287.91719	15273.075
292.14735	15415.975
296.37445	15878.675
300.59849	16660.775
304.81948	17648.675
309.03742	18481.275
313.25231	18484.675
317.46415	17435.675
321.67296	15661.875
325.87872	14098.175
330.08145	13346.275
334.28114	13206.375
338.47781	13458.575
342.67145	13937.375
346.86207	14731.375
351.04966	15909.075
355.23424	17281.675
359.4158	18311.975
363.59435	18705.975
367.76989	18658.975
371.94243	18406.275
376.11196	18086.875
380.27849	17825.475
384.44203	17430.675
388.60257	17037.875
392.76012	16826.475
396.91468	17024.175
401.06626	17632.275
405.21485	18186.675
409.36047	17709.375
413.50311	16432.975
417.64277	15220.275
421.77947	14542.875
425.9132	14237.175
430.04396	14088.575
434.17176	14086.575
438.2966	14302.675
442.41849	14642.075
446.53742	15174.375
450.6534	15656.275
454.76644	15958.075
458.87653	15960.475
462.98368	15717.775
467.08789	15406.575
471.18916	14947.375
475.2875	14432.175
479.38291	14019.475
483.4754	13726.875
487.56496	13493.775
491.6516	13406.875
495.73531	13429.275
499.81612	13528.375
503.89401	13754.675
507.96899	13980.675
512.04106	14228.575
516.11023	14498.875
520.1765	14640.175
524.23987	14545.475
528.30034	14139.375
532.35792	13698.675
536.41261	13233.575
540.46441	12718.975
544.51333	12509.875
548.55936	12625.675
552.60252	13104.675
556.64279	13659.475
560.6802	13926.075
564.71473	14266.875
568.7464	15237.075
572.7752	15958.075
576.80114	15437.775
580.82422	14741.275
584.84444	14472.875
588.86181	14234.575
592.87633	14097.375
596.888	14200.575
600.89682	14892.875
604.9028	17316.275
608.90594	23975.875
612.90624	33251.875
616.90371	32104.675
620.89834	20199.575
624.89015	14368.975
628.87913	13313.875
632.86528	13479.375
636.84862	13828.475
640.82913	13539.775
644.80683	12647.375
648.78172	11977.175
652.75379	12060.875
656.72306	12911.175
660.68952	13979.475
664.65319	13827.075
668.61405	12753.975
672.57211	12164.275
676.52738	12081.475
680.47986	12024.775
684.42955	11797.075
688.37646	11691.075
692.32058	11754.275
696.26192	11936.675
700.20048	12209.875
704.13626	12482.775
708.06928	12531.575
711.99952	12341.075
715.927	12259.675
719.85171	12203.875
723.77365	12166.675
727.69284	11953.875
731.60928	11779.075
735.52295	11709.475
739.43388	11798.275
743.34206	11882.675
747.24749	12006.875
751.15017	12158.075
755.05012	12568.775
758.94733	13569.175
762.8418	15825.575
766.73354	19797.175
770.62254	23945.075
774.50882	25825.475
778.39237	24393.375
782.27321	20304.475
786.15132	16126.375
790.02671	13680.875
793.89938	12596.175
797.76935	12112.875
801.6366	11904.175
805.50115	11745.775
809.36299	11632.075
813.22213	11512.975
817.07857	11464.375
820.93231	11432.775
824.78336	11518.475
828.63172	11588.475
832.47738	11677.575
836.32036	11650.475
840.16066	11504.575
843.99827	11388.075
847.8332	11292.675
851.66546	11280.375
855.49504	11265.175
859.32195	11202.975
863.1462	11129.575
866.96777	11053.675
870.78668	11026.775
874.60293	11051.875
878.41652	11100.475
882.22745	11195.875
886.03573	11276.375
889.84136	11273.475
893.64433	11158.675
897.44466	11123.475
901.24235	11131.075
905.0374	11108.775
908.8298	11034.075
912.61957	11006.175
916.40671	11109.075
920.19121	11306.875
923.97308	11505.275
927.75233	11692.975
931.52895	11849.975
935.30295	11613.375
939.07433	11058.275
942.84309	10570.875
946.60924	10293.775
950.37278	10182.575
954.13371	10109.975
957.89203	10045.175
961.64774	9985.075
965.40086	9964.975
969.15137	9953.275
972.89929	9884.275
976.64461	9884.475
980.38733	9881.075
984.12747	9900.975
987.86502	9969.475
991.59999	10045.575
995.33237	10189.075
999.06217	10487.275
1002.78939	10931.675
1006.51404	11337.075
1010.23611	11729.475
1013.95561	11976.875
1017.67255	11879.475
1021.38692	11575.575
1025.09872	11283.575
1028.80796	11120.875
1032.51465	11157.075
1036.21877	11372.075
1039.92035	11567.575
1043.61937	11694.275
1047.31584	11628.075
1051.00976	11584.175
1054.70114	11474.175
1058.38998	11486.175
1062.07627	11542.575
1065.76003	11687.275
1069.44126	11884.275
1073.11995	12138.775
1076.79611	12415.575
1080.46974	12655.875
1084.14085	13122.175
1087.80943	13757.975
1091.47549	14014.075
1095.13903	13721.575
1098.80005	12972.375
1102.45857	12265.275
1106.11456	11889.675
1109.76805	11892.275
1113.41903	12196.175
1117.06751	12795.675
1120.71348	13641.475
1124.35696	14617.075
1127.99793	15473.975
1131.63641	15392.075
1135.2724	14371.275
1138.90589	13330.175
1142.5369	12739.675
1146.16542	12357.775
1149.79145	12172.275
1153.415	12161.175
1157.03607	12365.875
1160.65467	12763.675
1164.27079	13451.675
1167.88443	14546.075
1171.49561	16357.775
1175.10432	19346.175
1178.71056	23228.075
1182.31434	25840.075
1185.91565	26290.775
1189.51451	25305.575
1193.11091	23313.275
1196.70485	20881.875
1200.29634	19074.675
1203.88538	17749.875
1207.47197	16230.375
1211.05612	14907.975
1214.63782	14162.175
1218.21708	13941.475
1221.79391	13987.875
1225.36829	14160.575
1228.94024	14385.275
1232.50976	14545.975
1236.07685	14636.675
1239.6415	14581.675
1243.20374	14486.975
1246.76355	14466.775
1250.32093	14656.775
1253.8759	15083.175
1257.42845	15706.175
1260.97859	16447.175
1264.52631	17202.475
1268.07163	17987.775
1271.61453	18723.375
1275.15503	19237.275
1278.69312	19476.875
1282.22882	19665.175
1285.76211	20268.975
1289.29301	21124.275
1292.82151	22002.675
1296.34761	22908.475
1299.87133	24244.175
1303.39266	26665.375
1306.9116	30524.975
1310.42815	35101.675
1313.94233	38036.375
1317.45412	37482.475
1320.96354	34633.175
1324.47058	31232.775
1327.97525	28311.075
1331.47754	26477.675
1334.97747	25646.275
1338.47502	25456.175
1341.97022	25798.775
1345.46305	26780.075
1348.95352	28431.275
1352.44163	30912.675
1355.92738	34617.375
1359.41078	40658.275
1362.89183	46773.375
1366.37053	45923.675
1369.84688	38139.075
1373.32088	30240.375
1376.79254	25196.275
1380.26186	22655.675
1383.72883	21341.075
1387.19347	20279.875
1390.65578	19209.575
1394.11575	18362.675
1397.57339	18019.475
1401.0287	18056.375
1404.48168	18325.675
1407.93234	18563.575
1411.38068	18740.475
1414.82669	18593.175
1418.27039	18167.875
1421.71177	17599.275
1425.15083	17036.175
1428.58758	16693.975
1432.02203	16684.975
1435.45416	16850.475
1438.88399	16929.875
1442.31151	16961.575
1445.73673	17077.875
1449.15965	17260.575
1452.58027	17252.775
1455.9986	17071.375
1459.41463	17038.775
1462.82837	17230.275
1466.23982	17699.875
1469.64898	18221.775
1473.05586	18577.375
1476.46045	18813.075
1479.86276	19225.775
1483.26279	19803.975
1486.66054	20564.475
1490.05602	21543.875
1493.44922	22906.175
1496.84016	25014.875
1500.22882	28276.275
1503.61521	32603.675
1506.99934	37490.075
1510.38121	42306.575
1513.76081	44766.775
1517.13816	42857.075
1520.51324	37122.575
1523.88607	30944.775
1527.25665	26606.975
1530.62498	23988.175
1533.99105	22382.375
1537.35488	21327.875
1540.71647	20578.975
1544.07581	20157.575
1547.4329	19830.975
1550.78776	19621.175
1554.14038	19521.675
1557.49077	19728.475
1560.83892	20310.175
1564.18484	21243.675
1567.52853	22149.475
1570.86999	22853.475
1574.20922	23289.875
1577.54624	23098.075
1580.88103	21611.275
1584.2136	19643.575
1587.54395	18685.575
1590.87208	18982.175
1594.19801	20354.575
1597.52172	22133.975
1600.84321	22802.575
1604.16251	21647.675
1607.47959	19757.275
1610.79447	17889.375
1614.10715	16052.375
1617.41763	14685.175
1620.7259	13807.975
1624.03199	13392.975
1627.33587	13444.875
1630.63757	13919.775
1633.93707	14927.475
1637.23439	16513.375
1640.52951	18775.775
1643.82246	21843.375
1647.11321	25557.275
1650.40179	28486.375
1653.68819	28065.875
1656.97241	23900.875
1660.25446	18802.275
1663.53433	15064.775
1666.81203	12824.575
1670.08756	11513.475
1673.36092	10785.275
1676.63211	10343.675
1679.90115	10036.875
1683.16801	9811.775
1686.43272	9653.875
1689.69527	9520.575
1692.95567	9421.375
1696.2139	9373.975
1699.46999	9346.075
1702.72392	9291.975
1705.97571	9266.275
1709.22535	9259.075
1712.47284	9231.875
1715.71819	9256.875
1718.96139	9275.375
1722.20246	9258.075
1725.44139	9182.175
1728.67818	9099.875
1731.91284	8984.375
1735.14537	8866.975
1738.37576	8793.875
1741.60403	8727.875
1744.83017	8679.375
1748.05418	8620.775
1751.27607	8615.775
1754.49584	8569.975
1757.71349	8574.175
1760.92903	8548.675
1764.14244	8538.775
1767.35375	8515.375
1770.56294	8484.275
1773.77002	8433.575
1776.97499	8392.675
1780.17785	8345.975
1783.37861	8310.875
1786.57727	8262.375
1789.77382	8248.175
1792.96828	8261.975
1796.16064	8230.475
1799.3509	8206.175
1802.53907	8208.375
1805.72514	8179.275
1808.90913	8126.575
1812.09102	8083.875
1815.27083	8054.575
1818.44856	8049.275
1821.6242	8021.775
1824.79776	8015.975
1827.96924	7991.275
1831.13864	7979.575
1834.30597	7965.575
1837.47122	7960.975
1840.6344	7964.075
1843.7955	7972.075
1846.95454	7961.175
1850.11151	7956.775
1853.26642	7937.375
1856.41926	7932.075
1859.57004	7952.075
1862.71876	7995.275
1865.86542	7992.575
1869.01003	7998.275
1872.15258	8007.275
1875.29308	8023.175
1878.43152	8046.475
1881.56792	8073.575
1884.70227	8082.275
1887.83457	8100.875
1890.96482	8111.875
1894.09304	8125.675
1897.21921	8113.575
1900.34335	8116.375
1903.46544	8124.375
1906.58551	8124.175
1909.70353	8148.975
1912.81953	8124.475
1915.93349	8171.675
1919.04543	8125.875
1922.15534	8118.375
1925.26322	8092.275
1928.36908	8025.775
1931.47292	7986.475
1934.57473	7910.475
1937.67453	7834.775
1940.77232	7773.475
1943.86808	7703.775
1946.96184	7639.875
1950.05358	7594.475
1953.14331	7569.475
1956.23103	7505.175
1959.31675	7469.275
1962.40046	7435.775
1965.48217	7427.475
1968.56188	7408.175
1971.63959	7389.575
1974.7153	7349.075
1977.78901	7338.875
1980.86073	7296.375
1983.93046	7249.275
1986.99819	7225.475
1990.06394	7201.175
1993.1277	7159.875
1996.18947	7140.275
1999.24925	7106.375
2002.30706	7076.275
2005.36288	7046.475
2008.41672	7046.775
2011.46859	6996.875
2014.51848	6971.175
2017.56639	6957.675
2020.61233	6938.375
2023.6563	6908.175
2026.6983	6897.975
2029.73833	6861.375
2032.7764	6850.375
2035.8125	6834.275
2038.84664	6815.375
2041.87881	6814.975
2044.90903	6791.975
2047.93729	6779.775
2050.96359	6749.575
2053.98794	6741.075
2057.01034	6743.575
2060.03078	6724.675
2063.04927	6713.775
2066.06582	6719.775
2069.08042	6700.975
2072.09307	6704.675
2075.10378	6691.475
2078.11255	6684.175
2081.11938	6661.575
2084.12426	6678.975
2087.12722	6673.475
2090.12824	6672.075
2093.12732	6646.975
2096.12447	6651.375
2099.11969	6661.275
2102.11299	6645.875
2105.10435	6629.875
2108.09379	6635.575
2111.08131	6623.075
2114.0669	6645.875
2117.05057	6653.175
2120.03233	6652.375
2123.01216	6653.775
2125.99008	6648.575
2128.96609	6656.575
2131.94018	6667.275
2134.91236	6654.075
2137.88263	6670.575
2140.851	6656.175
2143.81746	6647.975
2146.78201	6639.275
2149.74466	6634.575
2152.7054	6634.375
2155.66425	6602.075
2158.6212	6612.775
2161.57625	6571.775
2164.52941	6574.675
2167.48067	6570.775
2170.43004	6590.375
2173.37752	6570.375
2176.32311	6584.175
2179.26681	6566.675
2182.20863	6560.675
2185.14856	6575.075
2188.08661	6561.875
2191.02278	6577.275
2193.95707	6559.475
2196.88948	6563.275
2199.82001	6525.575
2202.74867	6516.575
2205.67545	6512.475
2208.60037	6497.075
2211.52341	6506.275
2214.44458	6491.475
2217.36388	6474.275
2220.28132	6450.175
2223.1969	6416.775
2226.11061	6402.875
2229.02246	6395.275
2231.93245	6383.975
2234.84058	6376.875
2237.74686	6346.575
2240.65128	6362.475
2243.55385	6339.875
2246.45456	6320.075
2249.35343	6332.075
2252.25044	6333.875
2255.14561	6322.675
2258.03893	6341.275
2260.93041	6337.775
2263.82004	6311.075
2266.70783	6313.775
2269.59378	6291.075
2272.4779	6248.375
2275.36017	6238.275
2278.24061	6221.375
2281.11922	6220.075
2283.996	6194.075
2286.87094	6190.475
2289.74405	6162.075
2292.61534	6141.475
2295.4848	6137.375
2298.35243	6137.775
2301.21824	6111.875
2304.08223	6102.175
2306.94439	6123.575
2309.80474	6115.575
2312.66327	6100.675
2315.51999	6096.675
2318.37489	6099.475
2321.22797	6080.475
2324.07925	6093.175
2326.92871	6072.375
2329.77637	6074.475
2332.62222	6077.375
2335.46626	6048.775
2338.3085	6051.775
2341.14893	6072.975
2343.98756	6070.875
2346.8244	6088.475
2349.65943	6089.275
2352.49267	6107.475
2355.32411	6135.175
2358.15376	6136.475
2360.98161	6156.575
2363.80768	6146.875
2366.63195	6178.175
2369.45444	6172.675
2372.27514	6188.675
2375.09405	6159.375
2377.91118	6142.575
2380.72652	6108.575
2383.54009	6050.675
2386.35187	6043.075
2389.16188	5997.075
2391.97011	5961.175
2394.77657	5927.275
2397.58125	5918.875
2400.38416	5897.375
2403.18529	5875.475
2405.98466	5871.475
2408.78226	5837.275
2411.57809	5835.975
2414.37216	5829.175
2417.16446	5829.575
2419.955	5816.175
2422.74378	5823.575
2425.5308	5806.375
2428.31606	5821.675
2431.09956	5817.575
2433.88131	5821.675
2436.6613	5822.275
2439.43954	5819.575
2442.21603	5829.275
2444.99077	5842.975
2447.76377	5836.675
2450.53501	5823.375
2453.30451	5820.275
2456.07226	5819.875
2458.83827	5840.775
2461.60254	5831.375
2464.36507	5845.275
2467.12586	5820.975
2469.88492	5831.775
2472.64224	5840.975
2475.39782	5867.675
2478.15167	5867.175
2480.90379	5876.575
2483.65417	5888.775
2486.40283	5907.475
2489.14976	5931.075
2491.89497	5950.875
2494.63845	5969.875
2497.3802	5974.175
2500.12024	5950.675
2502.85855	5938.175
2505.59514	5910.075
2508.33002	5858.575
2511.06318	5842.275
2513.79462	5810.475
2516.52435	5774.475
2519.25237	5736.575
2521.97867	5728.175
2524.70327	5712.475
2527.42616	5689.375
2530.14734	5701.975
2532.86681	5699.875
2535.58458	5687.475
2538.30065	5693.975
2541.01501	5696.175
2543.72768	5695.475
2546.43864	5681.275
2549.14791	5681.575
2551.85548	5686.875
2554.56136	5676.575
2557.26554	5678.175
2559.96803	5667.975
2562.66883	5648.875
2565.36794	5649.375
2568.06536	5628.075
2570.7611	5620.575
2573.45514	5643.575
2576.14751	5625.075
2578.83819	5609.075
2581.52719	5606.475
2584.21451	5598.175
2586.90015	5600.875
2589.58411	5598.875
2592.2664	5609.475
2594.94701	5573.875
2597.62594	5563.375
2600.30321	5572.175
2602.9788	5566.875
2605.65273	5565.875
2608.32498	5579.075
2610.99557	5581.975
2613.66449	5583.275
2616.33175	5583.675
2618.99734	5592.275
2621.66128	5587.375
2624.32355	5572.775
2626.98416	5549.775
2629.64311	5552.975
2632.30041	5568.775
2634.95605	5530.275
2637.61004	5501.775
2640.26238	5523.875
2642.91306	5515.375
2645.56209	5487.975
2648.20948	5491.375
2650.85521	5473.575
2653.4993	5477.075
2656.14175	5466.175
2658.78255	5471.375
2661.42171	5498.975
2664.05923	5512.275
2666.6951	5512.475
2669.32934	5538.275
2671.96194	5531.375
2674.59291	5551.075
2677.22224	5572.175
2679.84993	5577.875
2682.476	5547.375
2685.10043	5548.675
2687.72324	5539.375
2690.34441	5531.775
2692.96396	5552.675
2695.58188	5537.075
2698.19818	5537.875
2700.81285	5535.075
2703.4259	5555.275
2706.03733	5589.075
2708.64714	5555.675
2711.25533	5552.675
2713.86191	5553.275
2716.46687	5572.375
2719.07021	5564.375
2721.67194	5569.475
2724.27206	5557.675
2726.87057	5552.075
2729.46747	5573.375
2732.06276	5566.475
2734.65644	5557.875
2737.24852	5542.475
2739.83899	5530.575
2742.42786	5534.275
2745.01513	5505.475
2747.60079	5492.175
2750.18486	5493.575
2752.76733	5486.675
2755.3482	5475.875
2757.92747	5464.275
2760.50515	5451.875
2763.08123	5441.675
2765.65573	5450.875
2768.22863	5433.475
2770.79994	5429.275
2773.36967	5425.475
2775.9378	5436.575
2778.50435	5444.475
2781.06932	5436.575
2783.6327	5430.475
2786.1945	5432.975
2788.75471	5446.975
2791.31335	5437.575
2793.87041	5426.675
2796.42589	5428.075
2798.97979	5433.875
2801.53212	5426.775
2804.08288	5406.075
2806.63206	5407.075
2809.17967	5416.775
2811.72571	5413.275
2814.27018	5420.775
2816.81308	5433.175
2819.35442	5441.275
2821.89419	5468.875
2824.43239	5472.475
2826.96904	5489.475
2829.50412	5489.675
2832.03763	5479.175
2834.56959	5495.975
2837.1	5506.675
2839.62884	5527.875
2842.15613	5561.675
2844.68186	5610.075
2847.20604	5687.475
2849.72867	5703.075
2852.24974	5753.075
2854.76927	5750.375
2857.28724	5748.175
2859.80367	5747.075
2862.31855	5731.675
2864.83189	5693.975
2867.34368	5686.475
2869.85393	5699.175
2872.36264	5675.475
2874.8698	5670.275
2877.37543	5666.875
2879.87952	5668.875
2882.38207	5651.675
2884.88308	5646.175
2887.38256	5638.075
2889.88051	5629.975
2892.37692	5618.775
2894.8718	5622.075
2897.36515	5635.675
2899.85698	5639.475
2902.34727	5653.575
2904.83604	5644.375
2907.32328	5664.075
2909.809	5635.575
2912.29319	5639.775
2914.77587	5654.375
2917.25702	5647.075
2919.73665	5637.875
2922.21476	5635.175
2924.69136	5624.275
2927.16644	5611.675
2929.64	5598.675
2932.11205	5572.175
2934.58258	5539.375
2937.05161	5520.875
2939.51912	5488.075
2941.98513	5470.675
2944.44962	5432.375
2946.91261	5361.075
2949.37409	5351.675
2951.83407	5323.775
2954.29254	5278.975
2956.74951	5279.175
2959.20498	5266.875
2961.65895	5263.475
2964.11142	5236.575
2966.56239	5211.575
2969.01186	5201.175
2971.45984	5187.375
2973.90632	5173.875
2976.35131	5157.575
2978.7948	5146.475
2981.23681	5121.375
2983.67732	5103.675
2986.11635	5103.375
2988.55388	5071.975
2990.98993	5055.075
2993.4245	5038.775
2995.85758	5026.275
2998.28917	5002.975
3000.71928	5014.675
3003.14791	4996.975
3005.57506	4998.675
3008.00073	4959.075
3010.42493	4974.375
3012.84764	4973.475
3015.26888	4945.375
3017.68865	4954.075
3020.10694	4929.975
3022.52376	4924.475
3024.9391	4900.775
3027.35298	4903.775
3029.76539	4911.475
3032.17632	4894.675
3034.5858	4855.575
3036.9938	4858.975
3039.40034	4865.775
3041.80542	4852.875
3044.20903	4837.975
3046.61118	4823.975
3049.01187	4809.775
3051.4111	4818.575
3053.80888	4815.075
3056.20519	4794.975
3058.60005	4792.775
3060.99345	4768.675
3063.3854	4756.875
3065.7759	4737.275
3068.16494	4718.275
3070.55254	4711.975
3072.93868	4704.475
3075.32338	4697.475
3077.70662	4667.375
3080.08842	4636.575
3082.46878	4617.875
3084.84769	4601.275
3087.22515	4605.075
3089.60118	4586.675
3091.97576	4583.975
3094.3489	4591.775
3096.72061	4560.475
3099.09087	4565.875
3101.4597	4557.775
3103.82709	4561.875
3106.19305	4554.375
3108.55757	4540.975
3110.92066	4515.575
3113.28232	4534.775
3115.64255	4520.075
3118.00134	4512.075
3120.35871	4504.675
3122.71466	4494.075
3125.06917	4483.775
3127.42226	4487.675
3129.77393	4495.975
3132.12417	4474.675
3134.47299	4476.575
3136.82039	4480.675
3139.16636	4465.775
3141.51092	4484.575
3143.85406	4484.775
3146.19579	4481.175
3148.53609	4477.875
3150.87499	4475.975
3153.21246	4492.475
3155.54853	4502.175
3157.88318	4492.175
3160.21642	4502.575
3162.54826	4490.375
3164.87868	4500.775
3167.2077	4496.875
3169.5353	4498.975
3171.86151	4492.975
3174.18631	4491.575
3176.5097	4480.475
3178.83169	4487.375
3181.15228	4496.275
3183.47147	4475.475
3185.78926	4481.875
3188.10565	4462.075
3190.42065	4472.875
