Data from AgNPs_FTO_APTES_UA_5uM_CRN_50uM_R6G_10uM_NaF_0.1M_Addition_RamanShift__18__14-03-36-826.txt Node

Date: Mon Feb 07 14:03:36 GMT 2022
User: TCL
Spectrometer: QEP01345
Trigger mode: 4
Integration Time (sec): 7.000000E0
Scans to average: 10
Electric dark correction enabled: true
Nonlinearity correction enabled: false
Boxcar width: 0
XAxis mode: Raman Shifts
Number of Pixels in Spectrum: 1044
>>>>>Begin Spectral Data<<<<<
46.04893	-0.575
50.45542	-2.575
54.85868	-1.175
59.25871	0.925
63.6555	69.125
68.04907	71.125
72.43941	73.625
76.82654	78.125
81.21044	80.025
85.59113	80.525
89.96862	88.325
94.34289	85.225
98.71396	89.325
103.08183	94.825
107.4465	97.525
111.80798	101.725
116.16626	102.025
120.52136	113.025
124.87327	117.125
129.222	121.225
133.56755	132.925
137.90993	146.425
142.24913	155.625
146.58517	177.425
150.91804	211.925
155.24774	248.725
159.57429	322.325
163.89768	410.625
168.21792	551.025
172.53501	746.825
176.84895	1044.225
181.15975	1465.125
185.46741	2073.825
189.77193	2859.925
194.07331	3824.825
198.37157	4913.225
202.6667	6083.725
206.9587	7210.525
211.24758	8341.425
215.53334	9452.725
219.81599	10653.025
224.09553	11961.125
228.37195	13391.525
232.64527	14969.325
236.91549	16636.625
241.18261	18268.225
245.44663	19876.425
249.70755	21324.425
253.96539	22583.225
258.22014	23649.325
262.4718	24570.425
266.72039	25241.225
270.96589	25710.425
275.20832	25850.925
279.44768	25879.225
283.68397	25819.425
287.91719	25782.525
292.14735	25832.825
296.37445	25917.525
300.59849	26001.525
304.81948	26011.825
309.03742	25746.325
313.25231	25210.925
317.46415	24491.025
321.67296	23712.025
325.87872	23109.225
330.08145	22721.225
334.28114	22617.625
338.47781	22730.525
342.67145	22940.125
346.86207	23203.925
351.04966	23589.325
355.23424	23979.225
359.4158	24265.225
363.59435	24458.025
367.76989	24622.225
371.94243	24739.225
376.11196	24837.325
380.27849	24998.825
384.44203	25134.325
388.60257	25311.925
392.76012	25672.925
396.91468	26058.925
401.06626	26425.725
405.21485	26724.525
409.36047	26603.025
413.50311	26268.325
417.64277	26001.725
421.77947	25996.925
425.9132	26129.025
430.04396	26314.825
434.17176	26522.625
438.2966	26694.625
442.41849	27162.925
446.53742	27824.725
450.6534	28639.425
454.76644	29325.725
458.87653	29694.625
462.98368	29691.625
467.08789	29519.725
471.18916	29334.225
475.2875	29294.625
479.38291	29377.325
483.4754	29375.925
487.56496	28962.225
491.6516	28190.125
495.73531	27487.325
499.81612	27034.925
503.89401	27000.725
507.96899	27011.425
512.04106	26933.525
516.11023	26636.725
520.1765	26268.525
524.23987	25851.325
528.30034	25507.525
532.35792	25304.525
536.41261	25038.625
540.46441	24898.025
544.51333	25031.225
548.55936	25482.225
552.60252	26224.025
556.64279	26958.525
560.6802	27470.425
564.71473	27846.625
568.7464	28412.925
572.7752	29206.125
576.80114	29916.425
580.82422	30518.125
584.84444	30895.325
588.86181	31247.225
592.87633	31525.225
596.888	31592.825
600.89682	31468.325
604.9028	31960.525
608.90594	33516.125
612.90624	34764.825
616.90371	32205.225
620.89834	27718.525
624.89015	25899.925
628.87913	25895.925
632.86528	26134.825
636.84862	26090.225
640.82913	25590.225
644.80683	24945.625
648.78172	24356.925
652.75379	24118.925
656.72306	24180.725
660.68952	24434.625
664.65319	24338.225
668.61405	24054.125
672.57211	23951.325
676.52738	23947.425
680.47986	23944.225
684.42955	23874.725
688.37646	23773.125
692.32058	23858.625
696.26192	24079.725
700.20048	24321.825
704.13626	24541.225
708.06928	24569.125
711.99952	24476.725
715.927	24377.825
719.85171	24391.425
723.77365	24333.225
727.69284	24032.025
731.60928	23818.525
735.52295	23690.325
739.43388	23676.925
743.34206	23718.325
747.24749	23803.125
751.15017	24115.425
755.05012	24583.725
758.94733	25388.125
762.8418	26740.625
766.73354	28639.125
770.62254	30248.425
774.50882	30290.225
778.39237	28628.525
782.27321	26535.425
786.15132	24974.225
790.02671	24076.625
793.89938	23584.925
797.76935	23411.525
801.6366	23448.725
805.50115	23380.225
809.36299	23291.925
813.22213	23110.125
817.07857	23056.525
820.93231	22965.225
824.78336	22827.125
828.63172	22637.025
832.47738	22547.125
836.32036	22553.925
840.16066	22667.825
843.99827	22770.125
847.8332	22658.625
851.66546	22565.225
855.49504	22480.925
859.32195	22460.025
863.1462	22425.925
866.96777	22365.625
870.78668	22267.725
874.60293	22207.025
878.41652	22203.425
882.22745	22215.025
886.03573	22307.625
889.84136	22292.825
893.64433	22202.225
897.44466	22112.725
901.24235	22024.925
905.0374	21929.225
908.8298	21924.125
912.61957	22067.025
916.40671	22331.025
920.19121	22779.325
923.97308	23054.925
927.75233	22961.225
931.52895	22689.325
935.30295	22299.825
939.07433	21867.625
942.84309	21526.825
946.60924	21381.025
950.37278	21290.525
954.13371	21238.425
957.89203	21187.025
961.64774	21177.325
965.40086	21167.825
969.15137	21075.225
972.89929	20921.725
976.64461	20766.225
980.38733	20738.325
984.12747	20768.425
987.86502	20947.725
991.59999	21187.425
995.33237	21532.225
999.06217	22162.625
1002.78939	22835.825
1006.51404	23190.025
1010.23611	23309.925
1013.95561	23469.625
1017.67255	23562.525
1021.38692	23353.425
1025.09872	23114.125
1028.80796	23164.125
1032.51465	23762.125
1036.21877	24346.025
1039.92035	24515.325
1043.61937	24199.925
1047.31584	23714.225
1051.00976	23237.825
1054.70114	23111.325
1058.38998	23214.025
1062.07627	23519.525
1065.76003	23781.625
1069.44126	23987.925
1073.11995	24185.525
1076.79611	24350.625
1080.46974	24461.125
1084.14085	24572.725
1087.80943	24823.925
1091.47549	25127.225
1095.13903	25273.525
1098.80005	25057.725
1102.45857	24549.325
1106.11456	24009.325
1109.76805	23751.825
1113.41903	23763.525
1117.06751	23939.525
1120.71348	24112.125
1124.35696	24347.525
1127.99793	24602.825
1131.63641	24802.925
1135.2724	24753.025
1138.90589	24757.325
1142.5369	24823.925
1146.16542	25046.125
1149.79145	25379.925
1153.415	25799.125
1157.03607	26446.025
1160.65467	27414.325
1164.27079	28777.425
1167.88443	30502.625
1171.49561	32504.225
1175.10432	34972.825
1178.71056	37879.525
1182.31434	40618.025
1185.91565	42205.725
1189.51451	42409.725
1193.11091	41552.625
1196.70485	40029.325
1200.29634	38312.425
1203.88538	36975.125
1207.47197	36240.725
1211.05612	35768.025
1214.63782	35090.225
1218.21708	34098.525
1221.79391	33232.325
1225.36829	32521.625
1228.94024	31864.525
1232.50976	31130.825
1236.07685	30633.625
1239.6415	30380.025
1243.20374	30389.725
1246.76355	30657.525
1250.32093	31159.025
1253.8759	31914.625
1257.42845	32846.125
1260.97859	33734.025
1264.52631	34637.325
1268.07163	35612.825
1271.61453	36712.025
1275.15503	37976.725
1278.69312	39478.625
1282.22882	40957.525
1285.76211	42296.525
1289.29301	43913.425
1292.82151	46070.025
1296.34761	48887.925
1299.87133	52103.925
1303.39266	55381.625
1306.9116	58374.825
1310.42815	60839.125
1313.94233	62309.425
1317.45412	62473.025
1320.96354	62138.525
1324.47058	61797.725
1327.97525	61492.025
1331.47754	61286.425
1334.97747	61082.025
1338.47502	60893.125
1341.97022	60408.925
1345.46305	59355.025
1348.95352	57750.625
1352.44163	55948.025
1355.92738	55015.225
1359.41078	55297.325
1362.89183	55760.925
1366.37053	54570.925
1369.84688	50948.925
1373.32088	46555.025
1376.79254	43489.425
1380.26186	42582.325
1383.72883	43047.825
1387.19347	43710.625
1390.65578	43982.225
1394.11575	44288.625
1397.57339	45191.125
1401.0287	46361.425
1404.48168	47213.425
1407.93234	47052.025
1411.38068	45764.325
1414.82669	43652.925
1418.27039	41096.725
1421.71177	38578.825
1425.15083	36582.625
1428.58758	35557.625
1432.02203	35521.525
1435.45416	36443.525
1438.88399	37802.225
1442.31151	39186.525
1445.73673	40302.625
1449.15965	41303.825
1452.58027	42161.825
1455.9986	42721.325
1459.41463	43284.925
1462.82837	43888.925
1466.23982	44563.825
1469.64898	45014.225
1473.05586	45119.925
1476.46045	44802.125
1479.86276	44112.725
1483.26279	43232.825
1486.66054	42496.425
1490.05602	42139.125
1493.44922	42065.425
1496.84016	42128.325
1500.22882	42509.425
1503.61521	43265.925
1506.99934	44386.125
1510.38121	45393.925
1513.76081	45876.325
1517.13816	45499.025
1520.51324	44748.525
1523.88607	44161.125
1527.25665	43923.925
1530.62498	44052.225
1533.99105	44127.325
1537.35488	43967.025
1540.71647	43284.925
1544.07581	42256.125
1547.4329	40929.825
1550.78776	39878.725
1554.14038	39168.725
1557.49077	38715.025
1560.83892	38506.925
1564.18484	38339.325
1567.52853	38374.525
1570.86999	38582.325
1574.20922	39313.725
1577.54624	40257.325
1580.88103	40910.925
1584.2136	41727.425
1587.54395	43190.225
1590.87208	45276.625
1594.19801	47824.925
1597.52172	50081.225
1600.84321	50532.825
1604.16251	48086.425
1607.47959	44071.125
1610.79447	39973.225
1614.10715	36292.325
1617.41763	33184.525
1620.7259	31014.025
1624.03199	29830.125
1627.33587	29673.225
1630.63757	30618.925
1633.93707	32793.725
1637.23439	36405.825
1640.52951	41270.225
1643.82246	46786.425
1647.11321	50835.125
1650.40179	51437.825
1653.68819	47830.225
1656.97241	41644.525
1660.25446	35236.825
1663.53433	30196.325
1666.81203	26785.725
1670.08756	24524.725
1673.36092	23121.325
1676.63211	22198.325
1679.90115	21539.925
1683.16801	21063.125
1686.43272	20681.625
1689.69527	20450.325
1692.95567	20227.225
1696.2139	20109.325
1699.46999	19968.425
1702.72392	19842.625
1705.97571	19732.825
1709.22535	19655.025
1712.47284	19588.225
1715.71819	19545.825
1718.96139	19473.625
1722.20246	19345.425
1725.44139	19267.925
1728.67818	19129.925
1731.91284	18961.625
1735.14537	18847.625
1738.37576	18788.225
1741.60403	18702.325
1744.83017	18649.225
1748.05418	18624.125
1751.27607	18565.625
1754.49584	18553.325
1757.71349	18537.525
1760.92903	18492.425
1764.14244	18467.725
1767.35375	18422.625
1770.56294	18387.825
1773.77002	18354.625
1776.97499	18269.325
1780.17785	18233.525
1783.37861	18202.225
1786.57727	18148.425
1789.77382	18114.525
1792.96828	18064.925
1796.16064	18025.325
1799.3509	18009.625
1802.53907	17969.025
1805.72514	17899.225
1808.90913	17841.725
1812.09102	17803.525
1815.27083	17735.725
1818.44856	17706.525
1821.6242	17674.925
1824.79776	17648.425
1827.96924	17661.025
1831.13864	17601.925
1834.30597	17639.525
1837.47122	17598.125
1840.6344	17624.725
1843.7955	17604.725
1846.95454	17604.325
1850.11151	17604.025
1853.26642	17606.225
1856.41926	17557.125
1859.57004	17566.925
1862.71876	17590.425
1865.86542	17511.125
1869.01003	17513.125
1872.15258	17504.725
1875.29308	17454.925
1878.43152	17439.225
1881.56792	17438.525
1884.70227	17438.625
1887.83457	17447.425
1890.96482	17401.525
1894.09304	17390.725
1897.21921	17367.525
1900.34335	17341.425
1903.46544	17334.225
1906.58551	17342.225
1909.70353	17292.925
1912.81953	17233.225
1915.93349	17196.825
1919.04543	17187.925
1922.15534	17153.925
1925.26322	17109.625
1928.36908	17043.025
1931.47292	17028.625
1934.57473	16986.025
1937.67453	16899.325
1940.77232	16871.125
1943.86808	16849.825
1946.96184	16750.525
1950.05358	16704.425
1953.14331	16666.225
1956.23103	16607.025
1959.31675	16564.525
1962.40046	16529.825
1965.48217	16447.225
1968.56188	16404.525
1971.63959	16330.625
1974.7153	16280.525
1977.78901	16277.525
1980.86073	16177.025
1983.93046	16142.625
1986.99819	16077.725
1990.06394	16026.325
1993.1277	16002.025
1996.18947	15958.425
1999.24925	15914.825
2002.30706	15860.425
2005.36288	15798.525
2008.41672	15769.325
2011.46859	15714.825
2014.51848	15698.525
2017.56639	15634.625
2020.61233	15600.125
2023.6563	15560.125
2026.6983	15540.025
2029.73833	15480.025
2032.7764	15478.425
2035.8125	15442.725
2038.84664	15359.625
2041.87881	15417.725
2044.90903	15388.225
2047.93729	15358.725
2050.96359	15335.125
2053.98794	15304.125
2057.01034	15314.525
2060.03078	15285.725
2063.04927	15256.625
2066.06582	15258.325
2069.08042	15251.325
2072.09307	15230.525
2075.10378	15224.825
2078.11255	15209.425
2081.11938	15172.525
2084.12426	15133.625
2087.12722	15168.025
2090.12824	15156.325
2093.12732	15149.225
2096.12447	15128.525
2099.11969	15162.525
2102.11299	15167.925
2105.10435	15145.725
2108.09379	15161.725
2111.08131	15129.725
2114.0669	15184.925
2117.05057	15165.325
2120.03233	15210.525
2123.01216	15182.325
2125.99008	15236.625
2128.96609	15195.825
2131.94018	15226.625
2134.91236	15211.325
2137.88263	15235.525
2140.851	15271.025
2143.81746	15248.425
2146.78201	15222.125
2149.74466	15234.025
2152.7054	15252.525
2155.66425	15215.825
2158.6212	15207.425
2161.57625	15189.625
2164.52941	15184.225
2167.48067	15197.125
2170.43004	15175.625
2173.37752	15169.025
2176.32311	15178.925
2179.26681	15189.125
2182.20863	15166.825
2185.14856	15184.725
2188.08661	15156.425
2191.02278	15198.625
2193.95707	15180.125
2196.88948	15201.125
2199.82001	15142.125
2202.74867	15131.125
2205.67545	15110.725
2208.60037	15107.925
2211.52341	15083.925
2214.44458	15095.225
2217.36388	15062.725
2220.28132	15015.525
2223.1969	14993.525
2226.11061	14970.025
2229.02246	14943.325
2231.93245	14914.325
2234.84058	14860.025
2237.74686	14827.025
2240.65128	14793.325
2243.55385	14784.825
2246.45456	14775.225
2249.35343	14729.925
2252.25044	14713.425
2255.14561	14677.725
2258.03893	14689.425
2260.93041	14618.125
2263.82004	14616.025
2266.70783	14596.425
2269.59378	14524.625
2272.4779	14486.725
2275.36017	14401.025
2278.24061	14429.025
2281.11922	14392.725
2283.996	14374.425
2286.87094	14364.125
2289.74405	14330.725
2292.61534	14321.725
2295.4848	14320.625
2298.35243	14318.525
2301.21824	14351.425
2304.08223	14299.425
2306.94439	14325.525
2309.80474	14363.825
2312.66327	14337.825
2315.51999	14358.025
2318.37489	14359.425
2321.22797	14324.325
2324.07925	14292.025
2326.92871	14266.725
2329.77637	14245.525
2332.62222	14239.625
2335.46626	14241.925
2338.3085	14248.225
2341.14893	14221.025
2343.98756	14242.325
2346.8244	14277.025
2349.65943	14257.725
2352.49267	14268.625
2355.32411	14260.225
2358.15376	14270.625
2360.98161	14241.425
2363.80768	14234.825
2366.63195	14223.625
2369.45444	14188.725
2372.27514	14169.725
2375.09405	14131.025
2377.91118	14106.925
2380.72652	14045.025
2383.54009	14057.425
2386.35187	14017.325
2389.16188	13964.825
2391.97011	13962.525
2394.77657	13945.425
2397.58125	13927.725
2400.38416	13914.025
2403.18529	13887.725
2405.98466	13878.125
2408.78226	13844.625
2411.57809	13804.625
2414.37216	13805.325
2417.16446	13795.125
2419.955	13760.125
2422.74378	13784.325
2425.5308	13724.125
2428.31606	13744.425
2431.09956	13735.325
2433.88131	13724.025
2436.6613	13741.925
2439.43954	13724.525
2442.21603	13720.725
2444.99077	13690.225
2447.76377	13724.125
2450.53501	13695.825
2453.30451	13702.525
2456.07226	13688.925
2458.83827	13717.025
2461.60254	13699.325
2464.36507	13668.125
2467.12586	13676.225
2469.88492	13685.825
2472.64224	13704.225
2475.39782	13731.925
2478.15167	13753.125
2480.90379	13722.725
2483.65417	13724.525
2486.40283	13727.225
2489.14976	13771.125
2491.89497	13760.125
2494.63845	13802.925
2497.3802	13797.225
2500.12024	13814.225
2502.85855	13763.925
2505.59514	13753.625
2508.33002	13758.225
2511.06318	13746.625
2513.79462	13727.925
2516.52435	13726.225
2519.25237	13724.125
2521.97867	13713.025
2524.70327	13720.425
2527.42616	13705.525
2530.14734	13703.925
2532.86681	13710.825
2535.58458	13717.925
2538.30065	13686.625
2541.01501	13673.325
2543.72768	13703.925
2546.43864	13708.025
2549.14791	13664.725
2551.85548	13652.325
2554.56136	13650.525
2557.26554	13646.425
2559.96803	13608.525
2562.66883	13594.625
2565.36794	13565.525
2568.06536	13557.425
2570.7611	13562.125
2573.45514	13568.525
2576.14751	13552.425
2578.83819	13533.525
2581.52719	13542.925
2584.21451	13528.725
2586.90015	13549.025
2589.58411	13544.525
2592.2664	13561.825
2594.94701	13546.825
2597.62594	13545.225
2600.30321	13514.225
2602.9788	13524.125
2605.65273	13539.425
2608.32498	13530.525
2610.99557	13537.325
2613.66449	13537.625
2616.33175	13559.825
2618.99734	13556.225
2621.66128	13561.325
2624.32355	13562.525
2626.98416	13526.925
2629.64311	13553.925
2632.30041	13561.625
2634.95605	13581.625
2637.61004	13562.925
2640.26238	13530.625
2642.91306	13558.125
2645.56209	13521.625
2648.20948	13542.425
2650.85521	13549.525
2653.4993	13519.825
2656.14175	13500.925
2658.78255	13530.125
2661.42171	13548.525
2664.05923	13599.325
2666.6951	13564.825
2669.32934	13575.225
2671.96194	13590.725
2674.59291	13612.625
2677.22224	13612.825
2679.84993	13619.025
2682.476	13584.625
2685.10043	13552.425
2687.72324	13526.325
2690.34441	13546.725
2692.96396	13534.125
2695.58188	13535.525
2698.19818	13510.825
2700.81285	13539.225
2703.4259	13552.625
2706.03733	13618.625
2708.64714	13583.425
2711.25533	13572.625
2713.86191	13582.125
2716.46687	13616.525
2719.07021	13596.225
2721.67194	13632.625
2724.27206	13623.725
2726.87057	13619.525
2729.46747	13665.425
2732.06276	13699.225
2734.65644	13688.825
2737.24852	13671.325
2739.83899	13665.725
2742.42786	13669.125
2745.01513	13632.025
2747.60079	13612.825
2750.18486	13629.725
2752.76733	13630.725
2755.3482	13591.425
2757.92747	13661.325
2760.50515	13637.225
2763.08123	13638.925
2765.65573	13624.425
2768.22863	13678.425
2770.79994	13631.625
2773.36967	13658.725
2775.9378	13666.325
2778.50435	13634.325
2781.06932	13631.925
2783.6327	13657.625
2786.1945	13686.425
2788.75471	13676.025
2791.31335	13635.125
2793.87041	13605.525
2796.42589	13562.225
2798.97979	13580.325
2801.53212	13547.225
2804.08288	13560.125
2806.63206	13485.325
2809.17967	13502.825
2811.72571	13454.025
2814.27018	13453.025
2816.81308	13442.425
2819.35442	13403.525
2821.89419	13391.125
2824.43239	13373.125
2826.96904	13362.725
2829.50412	13382.925
2832.03763	13336.725
2834.56959	13322.025
2837.1	13336.325
2839.62884	13321.525
2842.15613	13312.625
2844.68186	13342.125
2847.20604	13358.125
2849.72867	13391.525
2852.24974	13356.725
2854.76927	13395.825
2857.28724	13365.725
2859.80367	13355.325
2862.31855	13327.125
2864.83189	13321.525
2867.34368	13304.325
2869.85393	13322.825
2872.36264	13256.725
2874.8698	13272.625
2877.37543	13238.425
2879.87952	13241.525
2882.38207	13252.325
2884.88308	13261.325
2887.38256	13274.225
2889.88051	13291.625
2892.37692	13295.225
2894.8718	13291.625
2897.36515	13343.125
2899.85698	13316.325
2902.34727	13357.725
2904.83604	13379.225
2907.32328	13425.625
2909.809	13400.125
2912.29319	13409.225
2914.77587	13442.725
2917.25702	13441.825
2919.73665	13425.625
2922.21476	13435.325
2924.69136	13379.925
2927.16644	13399.025
2929.64	13391.725
2932.11205	13351.625
2934.58258	13327.125
2937.05161	13344.125
2939.51912	13315.725
2941.98513	13330.525
2944.44962	13296.425
2946.91261	13251.925
2949.37409	13264.725
2951.83407	13214.625
2954.29254	13202.725
2956.74951	13224.725
2959.20498	13211.025
2961.65895	13170.025
2964.11142	13181.625
2966.56239	13125.925
2969.01186	13132.125
2971.45984	13096.925
2973.90632	13104.925
2976.35131	13056.325
2978.7948	13058.025
2981.23681	13022.325
2983.67732	13002.025
2986.11635	12957.325
2988.55388	12898.625
2990.98993	12909.325
2993.4245	12876.725
2995.85758	12815.825
2998.28917	12783.225
3000.71928	12777.025
3003.14791	12754.225
3005.57506	12724.925
3008.00073	12690.425
3010.42493	12573.025
3012.84764	12631.025
3015.26888	12632.625
3017.68865	12589.725
3020.10694	12570.725
3022.52376	12567.625
3024.9391	12555.025
3027.35298	12520.225
3029.76539	12520.225
3032.17632	12511.225
3034.5858	12486.025
3036.9938	12499.225
3039.40034	12493.625
3041.80542	12511.225
3044.20903	12528.825
3046.61118	12499.825
3049.01187	12440.225
3051.4111	12449.325
3053.80888	12419.925
3056.20519	12401.625
3058.60005	12395.425
3060.99345	12330.425
3063.3854	12317.925
3065.7759	12281.025
3068.16494	12232.425
3070.55254	12175.225
3072.93868	12171.025
3075.32338	12141.025
3077.70662	12090.625
3080.08842	12077.325
3082.46878	12038.225
3084.84769	12055.025
3087.22515	12027.325
3089.60118	12029.025
3091.97576	12028.725
3094.3489	12016.625
3096.72061	12013.225
3099.09087	12020.625
3101.4597	12012.725
3103.82709	12007.825
3106.19305	12015.725
3108.55757	11993.525
3110.92066	11950.025
3113.28232	11957.125
3115.64255	11939.425
3118.00134	11921.225
3120.35871	11892.925
3122.71466	11870.625
3125.06917	11824.225
3127.42226	11808.625
