Data from AgNPs_FTO_APTES_UA_5uM_CRN_0uM_R6G_10uM_NaF_0.1M_Addition_RamanShift__17__09-58-36-542.txt Node

Date: Mon Feb 07 09:58:36 GMT 2022
User: TCL
Spectrometer: QEP01345
Trigger mode: 4
Integration Time (sec): 7.000000E0
Scans to average: 10
Electric dark correction enabled: true
Nonlinearity correction enabled: false
Boxcar width: 0
XAxis mode: Raman Shifts
Number of Pixels in Spectrum: 1044
>>>>>Begin Spectral Data<<<<<
46.04893	-1.1
50.45542	-0.9
54.85868	-0.2
59.25871	-0.1
63.6555	81.6
68.04907	84.8
72.43941	93.3
76.82654	87.9
81.21044	92.5
85.59113	98.1
89.96862	104.1
94.34289	102.5
98.71396	106
103.08183	110.1
107.4465	110.5
111.80798	116
116.16626	123.8
120.52136	126.2
124.87327	136.7
129.222	145.4
133.56755	158
137.90993	174.9
142.24913	189.3
146.58517	223.7
150.91804	259.8
155.24774	313.7
159.57429	397.7
163.89768	525.1
168.21792	706.3
172.53501	961.3
176.84895	1346.4
181.15975	1895.1
185.46741	2663.2
189.77193	3667
194.07331	4882
198.37157	6270.5
202.6667	7725.6
206.9587	9154.2
211.24758	10581.5
215.53334	12073.6
219.81599	13656.6
224.09553	15449.6
228.37195	17494.6
232.64527	19658.5
236.91549	21863.6
241.18261	24038.2
245.44663	25931
249.70755	27642.3
253.96539	29198.1
258.22014	30561.1
262.4718	31701
266.72039	32566.9
270.96589	33141
275.20832	33305.2
279.44768	33270
283.68397	33335
287.91719	33492.1
292.14735	33720.8
296.37445	33801.9
300.59849	33865.4
304.81948	33904.4
309.03742	33893.2
313.25231	33439
317.46415	32187.6
321.67296	30368.3
325.87872	28772
330.08145	27831.5
334.28114	27571.4
338.47781	27655.2
342.67145	28051.4
346.86207	28481.2
351.04966	29201.6
355.23424	30007.5
359.4158	30623.5
363.59435	30999
367.76989	31140.8
371.94243	31178.9
376.11196	31126.3
380.27849	31068.7
384.44203	31035.6
388.60257	31075.4
392.76012	31341.2
396.91468	31880
401.06626	32562.5
405.21485	33167.1
409.36047	32987.2
413.50311	32367.3
417.64277	31931.8
421.77947	31882.5
425.9132	31900
430.04396	32083.8
434.17176	31927
438.2966	31759.8
442.41849	31788.1
446.53742	32283.5
450.6534	33177.2
454.76644	33999.2
458.87653	34397.9
462.98368	34357.2
467.08789	34069.5
471.18916	33640.4
475.2875	33361
479.38291	33497.8
483.4754	33827.7
487.56496	33858.8
491.6516	33700.5
495.73531	33335.3
499.81612	33190.4
503.89401	33434.9
507.96899	33461.4
512.04106	32962.8
516.11023	32023.7
520.1765	30867.9
524.23987	29918.7
528.30034	29147.6
532.35792	28543.9
536.41261	28013.3
540.46441	27555.9
544.51333	27633
548.55936	28351.2
552.60252	29645.4
556.64279	30897.4
560.6802	31603.2
564.71473	32082.5
568.7464	33245.8
572.7752	35063
576.80114	36714.4
580.82422	38206.9
584.84444	39450.1
588.86181	39637.9
592.87633	38509.7
596.888	37123.8
600.89682	36377.6
604.9028	38022
608.90594	42971.7
612.90624	48058.5
616.90371	44410.7
620.89834	34296.9
624.89015	29406.3
628.87913	28734.5
632.86528	29069.1
636.84862	29184.8
640.82913	28623.5
644.80683	27429.4
648.78172	26512.7
652.75379	26268.9
656.72306	26684.7
660.68952	27358.1
664.65319	27260.9
668.61405	26664.8
672.57211	26426.9
676.52738	26390.4
680.47986	26276.8
684.42955	25963.7
688.37646	25642.6
692.32058	25747.9
696.26192	26143.3
700.20048	26708.9
704.13626	27233.8
708.06928	27589.4
711.99952	27439.9
715.927	27218.2
719.85171	27206
723.77365	27078.2
727.69284	26546.3
731.60928	26018.9
735.52295	25730
739.43388	25660.5
743.34206	25810.9
747.24749	26072.5
751.15017	26589
755.05012	27485.2
758.94733	28965.6
762.8418	31596.4
766.73354	35815.3
770.62254	39672.4
774.50882	39808.7
778.39237	36352.1
782.27321	32156.1
786.15132	28964.5
790.02671	27121.7
793.89938	26046.7
797.76935	25596.1
801.6366	25503.2
805.50115	25487.8
809.36299	25247.4
813.22213	24917.7
817.07857	24743.1
820.93231	24613.5
824.78336	24403.2
828.63172	24223.5
832.47738	24090.7
836.32036	24077.2
840.16066	24141.5
843.99827	24271.1
847.8332	24262
851.66546	24163.9
855.49504	24088.6
859.32195	24065.6
863.1462	23940.8
866.96777	23812.8
870.78668	23637
874.60293	23524
878.41652	23490.9
882.22745	23484.4
886.03573	23573
889.84136	23621
893.64433	23575.1
897.44466	23537
901.24235	23470.4
905.0374	23299.7
908.8298	23142.6
912.61957	23163.3
916.40671	23571.8
920.19121	24328.1
923.97308	25063.7
927.75233	25243.5
931.52895	24806.6
935.30295	24000.4
939.07433	23057.3
942.84309	22373.2
946.60924	22040.7
950.37278	21960.6
954.13371	21929
957.89203	21844.8
961.64774	21807.5
965.40086	21813.9
969.15137	21740.5
972.89929	21630.2
976.64461	21433.6
980.38733	21331.3
984.12747	21340.3
987.86502	21497.1
991.59999	21761.9
995.33237	22186.9
999.06217	22946.3
1002.78939	23991.9
1006.51404	24631.7
1010.23611	25100
1013.95561	25465.6
1017.67255	25538.4
1021.38692	25245.1
1025.09872	24863.1
1028.80796	25085.6
1032.51465	25986
1036.21877	26944.2
1039.92035	27001.5
1043.61937	26569.7
1047.31584	25690.5
1051.00976	24870.7
1054.70114	24539.8
1058.38998	24646
1062.07627	25047.3
1065.76003	25482.6
1069.44126	26182.1
1073.11995	27207.6
1076.79611	28040.2
1080.46974	28266.8
1084.14085	28311.9
1087.80943	28822.2
1091.47549	29424.7
1095.13903	29786.7
1098.80005	29266.7
1102.45857	27789
1106.11456	26156.8
1109.76805	25176.2
1113.41903	24778.1
1117.06751	24824.8
1120.71348	25124.6
1124.35696	25599.8
1127.99793	26220.6
1131.63641	26850.3
1135.2724	26922.9
1138.90589	26776.1
1142.5369	26675.3
1146.16542	26727.8
1149.79145	26920.1
1153.415	27300.3
1157.03607	28068.7
1160.65467	29503.1
1164.27079	31686.4
1167.88443	34512.3
1171.49561	37697.4
1175.10432	41776.1
1178.71056	46768.6
1182.31434	51236.1
1185.91565	53744.3
1189.51451	53944.5
1193.11091	52372
1196.70485	49371.3
1200.29634	46124.4
1203.88538	43737.9
1207.47197	42150.8
1211.05612	40848.4
1214.63782	39581.6
1218.21708	38136.8
1221.79391	36976.3
1225.36829	36129.8
1228.94024	35217.9
1232.50976	34129.3
1236.07685	33285.7
1239.6415	32903.9
1243.20374	32840
1246.76355	33134.3
1250.32093	33913.8
1253.8759	35114.5
1257.42845	36865.3
1260.97859	38787.6
1264.52631	40553
1268.07163	42270.9
1271.61453	44090
1275.15503	46058.6
1278.69312	48127.7
1282.22882	49932
1285.76211	51868.5
1289.29301	54226.4
1292.82151	57260.7
1296.34761	61191.9
1299.87133	66062.6
1303.39266	71491.2
1306.9116	76833.4
1310.42815	81110.7
1313.94233	83404.6
1317.45412	83180.8
1320.96354	82328.5
1324.47058	82096.7
1327.97525	82306.9
1331.47754	82381.9
1334.97747	81691.9
1338.47502	80324.1
1341.97022	78640
1345.46305	76364.5
1348.95352	73409.7
1352.44163	70455.2
1355.92738	69292.8
1359.41078	71194.6
1362.89183	74304.7
1366.37053	74544.1
1369.84688	69795
1373.32088	62588
1376.79254	56270.3
1380.26186	52765.1
1383.72883	51605.6
1387.19347	51507.2
1390.65578	51369.6
1394.11575	51419.8
1397.57339	52284
1401.0287	53899.8
1404.48168	55176.8
1407.93234	55145.2
1411.38068	53358.2
1414.82669	50265.1
1418.27039	46503.9
1421.71177	42998.6
1425.15083	40220.7
1428.58758	38671.4
1432.02203	38574.5
1435.45416	39663.9
1438.88399	41449.3
1442.31151	43174.2
1445.73673	44639.7
1449.15965	45854.7
1452.58027	46869.8
1455.9986	47272
1459.41463	47783.1
1462.82837	48819.5
1466.23982	50264.6
1469.64898	51560.5
1473.05586	52337.1
1476.46045	52521.8
1479.86276	52050.5
1483.26279	51338.5
1486.66054	50938.5
1490.05602	51177
1493.44922	51881.2
1496.84016	52805.4
1500.22882	54533.6
1503.61521	57031.4
1506.99934	60239.6
1510.38121	63417.9
1513.76081	65194.6
1517.13816	64631.6
1520.51324	62388.3
1523.88607	59856
1527.25665	57905.1
1530.62498	56515.6
1533.99105	55552.4
1537.35488	54390.6
1540.71647	52926.8
1544.07581	50946.4
1547.4329	48827.6
1550.78776	46964.1
1554.14038	45621.6
1557.49077	45111
1560.83892	45231.7
1564.18484	45678.4
1567.52853	46082.6
1570.86999	46209.2
1574.20922	46692.1
1577.54624	47165.2
1580.88103	46970.9
1584.2136	46919
1587.54395	48528.2
1590.87208	52062.4
1594.19801	56652.1
1597.52172	60760.8
1600.84321	61464.5
1604.16251	57253.5
1607.47959	50811.7
1610.79447	44644.7
1614.10715	39279.4
1617.41763	34979.2
1620.7259	32042.3
1624.03199	30500.9
1627.33587	30347.2
1630.63757	31452.3
1633.93707	34173.7
1637.23439	38806
1640.52951	45614.5
1643.82246	54010.9
1647.11321	61588.1
1650.40179	64661
1653.68819	61416.6
1656.97241	52835.7
1660.25446	42896.2
1663.53433	34591.4
1666.81203	29006.7
1670.08756	25525.4
1673.36092	23410.4
1676.63211	22079.4
1679.90115	21168
1683.16801	20529.1
1686.43272	20048.6
1689.69527	19707.8
1692.95567	19473
1696.2139	19268.4
1699.46999	19077.8
1702.72392	18964.5
1705.97571	18841.7
1709.22535	18720.4
1712.47284	18631.8
1715.71819	18534
1718.96139	18432
1722.20246	18273.4
1725.44139	18146.3
1728.67818	17963.2
1731.91284	17814.9
1735.14537	17616.4
1738.37576	17488.1
1741.60403	17404.3
1744.83017	17295.1
1748.05418	17204.9
1751.27607	17155.6
1754.49584	17079.8
1757.71349	17064.7
1760.92903	17028.8
1764.14244	16987
1767.35375	16976.5
1770.56294	16887.6
1773.77002	16843.6
1776.97499	16807.9
1780.17785	16737.5
1783.37861	16696.7
1786.57727	16647
1789.77382	16577
1792.96828	16555.1
1796.16064	16511.2
1799.3509	16476
1802.53907	16443.3
1805.72514	16375.9
1808.90913	16271
1812.09102	16215.3
1815.27083	16200.9
1818.44856	16169.5
1821.6242	16106.9
1824.79776	16094.7
1827.96924	16060.2
1831.13864	16093.1
1834.30597	16077.7
1837.47122	16105.2
1840.6344	16076.5
1843.7955	16077
1846.95454	16100.5
1850.11151	16092.2
1853.26642	16065.3
1856.41926	16037.7
1859.57004	16029.7
1862.71876	15999.2
1865.86542	15983.1
1869.01003	15943.2
1872.15258	15936.5
1875.29308	15872.1
1878.43152	15816.2
1881.56792	15814.8
1884.70227	15819
1887.83457	15831.9
1890.96482	15804.3
1894.09304	15801
1897.21921	15763.9
1900.34335	15705.7
1903.46544	15694.3
1906.58551	15688.3
1909.70353	15642.3
1912.81953	15610.5
1915.93349	15580
1919.04543	15528.3
1922.15534	15494
1925.26322	15419.6
1928.36908	15379
1931.47292	15334.3
1934.57473	15246.6
1937.67453	15218.6
1940.77232	15121.5
1943.86808	15084
1946.96184	15041.5
1950.05358	14952.9
1953.14331	14936
1956.23103	14896.5
1959.31675	14836.1
1962.40046	14813.3
1965.48217	14752
1968.56188	14724.1
1971.63959	14660.3
1974.7153	14609.2
1977.78901	14561.3
1980.86073	14503.9
1983.93046	14433.1
1986.99819	14398
1990.06394	14369.1
1993.1277	14290.3
1996.18947	14234.7
1999.24925	14174.1
2002.30706	14141.3
2005.36288	14074.9
2008.41672	14049.4
2011.46859	14012.4
2014.51848	13970.1
2017.56639	13961.4
2020.61233	13933.3
2023.6563	13901.9
2026.6983	13861.6
2029.73833	13839.7
2032.7764	13836.5
2035.8125	13795.2
2038.84664	13773.8
2041.87881	13735.5
2044.90903	13742.4
2047.93729	13691.2
2050.96359	13682.5
2053.98794	13630.9
2057.01034	13669.2
2060.03078	13686.5
2063.04927	13643.7
2066.06582	13608.1
2069.08042	13599.1
2072.09307	13582.3
2075.10378	13576.5
2078.11255	13554.3
2081.11938	13550.1
2084.12426	13508.1
2087.12722	13509.2
2090.12824	13506.7
2093.12732	13496
2096.12447	13432.7
2099.11969	13459.1
2102.11299	13483.7
2105.10435	13424
2108.09379	13466.7
2111.08131	13483.9
2114.0669	13487.6
2117.05057	13477.7
2120.03233	13487.3
2123.01216	13483.6
2125.99008	13511.7
2128.96609	13522.7
2131.94018	13531.8
2134.91236	13493.9
2137.88263	13510.4
2140.851	13524.7
2143.81746	13533.8
2146.78201	13511.2
2149.74466	13535.7
2152.7054	13515.8
2155.66425	13505.4
2158.6212	13486.9
2161.57625	13484.4
2164.52941	13473.7
2167.48067	13471.3
2170.43004	13463.5
2173.37752	13449.7
2176.32311	13428.4
2179.26681	13414.9
2182.20863	13432.5
2185.14856	13435.4
2188.08661	13395.1
2191.02278	13406.7
2193.95707	13439.7
2196.88948	13384.2
2199.82001	13354.4
2202.74867	13343.1
2205.67545	13360.8
2208.60037	13355.1
2211.52341	13364.7
2214.44458	13391.9
2217.36388	13363.2
2220.28132	13335.8
2223.1969	13303.4
2226.11061	13307.3
2229.02246	13272.9
2231.93245	13227.8
2234.84058	13174.9
2237.74686	13161.6
2240.65128	13120.7
2243.55385	13098.1
2246.45456	13045.5
2249.35343	13039.4
2252.25044	13020.3
2255.14561	12980
2258.03893	12976.4
2260.93041	12968
2263.82004	12935.6
2266.70783	12895.2
2269.59378	12849.7
2272.4779	12791.5
2275.36017	12757.1
2278.24061	12749
2281.11922	12731.9
2283.996	12730.7
2286.87094	12737.5
2289.74405	12709
2292.61534	12696
2295.4848	12647.4
2298.35243	12643.6
2301.21824	12667.3
2304.08223	12696.5
2306.94439	12709.4
2309.80474	12715.4
2312.66327	12744.1
2315.51999	12700
2318.37489	12723.4
2321.22797	12733.8
2324.07925	12748.4
2326.92871	12731.1
2329.77637	12724.4
2332.62222	12716.3
2335.46626	12733.6
2338.3085	12739.1
2341.14893	12753.3
2343.98756	12783.3
2346.8244	12823
2349.65943	12827.4
2352.49267	12827.1
2355.32411	12852.2
2358.15376	12852.9
2360.98161	12817.2
2363.80768	12831.7
2366.63195	12808.9
2369.45444	12777.6
2372.27514	12730.4
2375.09405	12695.1
2377.91118	12658
2380.72652	12592.1
2383.54009	12554
2386.35187	12549.4
2389.16188	12535.1
2391.97011	12492.6
2394.77657	12478.9
2397.58125	12446.1
2400.38416	12398.1
2403.18529	12391.4
2405.98466	12387
2408.78226	12323.4
2411.57809	12295.1
2414.37216	12273.3
2417.16446	12278
2419.955	12214.8
2422.74378	12232.3
2425.5308	12203.2
2428.31606	12195.8
2431.09956	12223.1
2433.88131	12208.3
2436.6613	12231.3
2439.43954	12249.7
2442.21603	12259.3
2444.99077	12248.2
2447.76377	12247.1
2450.53501	12249.2
2453.30451	12237.4
2456.07226	12219.8
2458.83827	12225.4
2461.60254	12240.9
2464.36507	12266.6
2467.12586	12259.7
2469.88492	12224.5
2472.64224	12259.6
2475.39782	12298.2
2478.15167	12303.8
2480.90379	12284.7
2483.65417	12314.9
2486.40283	12345.6
2489.14976	12387.1
2491.89497	12411.7
2494.63845	12419.3
2497.3802	12432.4
2500.12024	12399.9
2502.85855	12393.8
2505.59514	12366.5
2508.33002	12347.6
2511.06318	12335.8
2513.79462	12331.4
2516.52435	12323.9
2519.25237	12308.2
2521.97867	12323.9
2524.70327	12305.9
2527.42616	12249.1
2530.14734	12287.2
2532.86681	12286.4
2535.58458	12303.2
2538.30065	12303.7
2541.01501	12282.2
2543.72768	12256.9
2546.43864	12243
2549.14791	12227.2
2551.85548	12208
2554.56136	12227.5
2557.26554	12179.5
2559.96803	12204.6
2562.66883	12193.1
2565.36794	12213.2
2568.06536	12174.1
2570.7611	12162.8
2573.45514	12153.9
2576.14751	12173.7
2578.83819	12177.3
2581.52719	12175.1
2584.21451	12169.2
2586.90015	12192.6
2589.58411	12195.1
2592.2664	12185.1
2594.94701	12172.8
2597.62594	12194.4
2600.30321	12187
2602.9788	12191
2605.65273	12216.5
2608.32498	12219.9
2610.99557	12222.4
2613.66449	12238.4
2616.33175	12229.9
2618.99734	12245.3
2621.66128	12288.8
2624.32355	12274.2
2626.98416	12263.2
2629.64311	12288.4
2632.30041	12283.6
2634.95605	12270.3
2637.61004	12272.7
2640.26238	12237.3
2642.91306	12249.5
2645.56209	12217.4
2648.20948	12209.7
2650.85521	12238.3
2653.4993	12218.9
2656.14175	12231.9
2658.78255	12202.4
2661.42171	12216.4
2664.05923	12266.4
2666.6951	12242.8
2669.32934	12299.7
2671.96194	12301.3
2674.59291	12295
2677.22224	12280.3
2679.84993	12257.5
2682.476	12262.4
2685.10043	12266.1
2687.72324	12190.9
2690.34441	12191.8
2692.96396	12156
2695.58188	12187.2
2698.19818	12143.3
2700.81285	12187.4
2703.4259	12166.8
2706.03733	12163.1
2708.64714	12170.9
2711.25533	12175.9
2713.86191	12170.7
2716.46687	12206.7
2719.07021	12186.2
2721.67194	12213.4
2724.27206	12205
2726.87057	12254.4
2729.46747	12250.1
2732.06276	12282.9
2734.65644	12259.6
2737.24852	12248.7
2739.83899	12217.2
2742.42786	12231.7
2745.01513	12244.6
2747.60079	12223.2
2750.18486	12183.7
2752.76733	12178.9
2755.3482	12166.9
2757.92747	12201.5
2760.50515	12172
2763.08123	12176.2
2765.65573	12175.8
2768.22863	12181.9
2770.79994	12169.2
2773.36967	12198.3
2775.9378	12220
2778.50435	12211.3
2781.06932	12217.7
2783.6327	12238.1
2786.1945	12242.9
2788.75471	12258.5
2791.31335	12247.6
2793.87041	12235.6
2796.42589	12170.9
2798.97979	12222.6
2801.53212	12184.7
2804.08288	12187.8
2806.63206	12144.7
2809.17967	12126.6
2811.72571	12109.3
2814.27018	12130.4
2816.81308	12102.7
2819.35442	12093.5
2821.89419	12071.7
2824.43239	12054.9
2826.96904	12055.7
2829.50412	12110.4
2832.03763	12066.1
2834.56959	12017.1
2837.1	12028.3
2839.62884	12055.4
2842.15613	12061.7
2844.68186	12101.4
2847.20604	12096.4
2849.72867	12113.7
2852.24974	12111.6
2854.76927	12115.7
2857.28724	12134
2859.80367	12108.4
2862.31855	12110
2864.83189	12100.6
2867.34368	12074.3
2869.85393	12088.3
2872.36264	12047.7
2874.8698	12058.4
2877.37543	12038.5
2879.87952	12057.7
2882.38207	12042.7
2884.88308	12052.9
2887.38256	12074.3
2889.88051	12091.9
2892.37692	12121.8
2894.8718	12119.7
2897.36515	12148.3
2899.85698	12143
2902.34727	12230.9
2904.83604	12216.8
2907.32328	12234.1
2909.809	12249.1
2912.29319	12276.2
2914.77587	12283.8
2917.25702	12270.9
2919.73665	12260.4
2922.21476	12224.4
2924.69136	12225.5
2927.16644	12224.5
2929.64	12170.9
2932.11205	12160.7
2934.58258	12127
2937.05161	12139.3
2939.51912	12122.3
2941.98513	12066.8
2944.44962	12027.7
2946.91261	11989.8
2949.37409	11995.1
2951.83407	11949.6
2954.29254	11921
2956.74951	11904.8
2959.20498	11912.3
2961.65895	11870.5
2964.11142	11864.5
2966.56239	11836.7
2969.01186	11815.9
2971.45984	11776.6
2973.90632	11774.8
2976.35131	11738
2978.7948	11743.3
2981.23681	11725.9
2983.67732	11678.2
2986.11635	11626.2
2988.55388	11606.3
2990.98993	11566.6
2993.4245	11524.8
2995.85758	11511.9
2998.28917	11475.7
3000.71928	11390.1
3003.14791	11361.5
3005.57506	11358.9
3008.00073	11323
3010.42493	11335.4
3012.84764	11305.4
3015.26888	11282.3
3017.68865	11214.1
3020.10694	11215
3022.52376	11167.7
3024.9391	11206.9
3027.35298	11167.8
3029.76539	11150.5
3032.17632	11143.6
3034.5858	11148.4
3036.9938	11139.4
3039.40034	11170.5
3041.80542	11160.5
3044.20903	11125.5
3046.61118	11125.1
3049.01187	11105.9
3051.4111	11133.6
3053.80888	11073
3056.20519	11067.9
3058.60005	11001.8
3060.99345	11004
3063.3854	10955.8
3065.7759	10919.2
3068.16494	10853.7
3070.55254	10831.3
3072.93868	10799.5
3075.32338	10754
3077.70662	10703
3080.08842	10669.8
3082.46878	10681
3084.84769	10693.9
3087.22515	10676.4
3089.60118	10674.4
3091.97576	10658.2
3094.3489	10663
3096.72061	10656.7
3099.09087	10659.3
3101.4597	10627
3103.82709	10629.4
3106.19305	10629.5
3108.55757	10610
3110.92066	10607.8
3113.28232	10558.5
3115.64255	10537.9
3118.00134	10519.8
3120.35871	10538.3
3122.71466	10509.8
3125.06917	10495.9
3127.42226	10494.3
3129.77393	10437
3132.12417	10447.8
3134.47299	10437.6
3136.82039	10427.8
3139.16636	10428.6
3141.51092	10411.5
3143.85406	10419.6
3146.19579	10394.7
3148.53609	10385
3150.87499	10406.2
3153.21246	10400.3
3155.54853	10414.3
3157.88318	10418.5
3160.21642	10437.1
3162.54826	10468.6
3164.87868	10432.5
3167.2077	10432.7
3169.5353	10448.1
3171.86151	10449
3174.18631	10448.4
3176.5097	10446.2
3178.83169	10421.4
3181.15228	10457.1
3183.47147	10432.4
3185.78926	10403.6
3188.10565	10421.2
3190.42065	10398.6
3192.73424	10394.5
3195.04645	10375.5
3197.35725	10381.5
3199.66667	10367.8
3201.97469	10360.8
3204.28132	10347.2
3206.58656	10362.2
3208.8904	10372.1
3211.19287	10390.8
3213.49394	10391.8
3215.79363	10385.1
3218.09193	10385.8
3220.38884	10399.2
3222.68438	10416.6
3224.97853	10418.7
3227.2713	10380.1
3229.56269	10352.6
3231.8527	10390.6
3234.14133	10369.4
3236.42858	10363.2
3238.71446	10352.9
3240.99896	10320.9
3243.28209	10325.3
3245.56384	10298.6
3247.84423	10313.7
3250.12324	10299.5
3252.40088	10271.3
3254.67715	10261.4
3256.95205	10254.3
3259.22558	10248.7
3261.49775	10224.4
3263.76855	10232.6
3266.03799	10186.5
3268.30606	10176.6
3270.57277	10153.9
3272.83812	10136.4
3275.10211	10126.7
3277.36474	10122.1
3279.62601	10118.8
3281.88593	10113.1
3284.14448	10110.8
3286.40168	10095.9
3288.65753	10099.1
3290.91202	10105.6
3293.16516	10059.1
3295.41695	10065.5
3297.66738	9995.6
3299.91647	9964.3
3302.16421	9871.2
3304.4106	9826
3306.65564	9780.4
3308.89933	9719.2
3311.14169	9623.5
3313.38269	9524.9
3315.62236	9485.6
3317.86068	9382.5
3320.09766	9296.9
3322.3333	9216.1
3324.5676	9184.5
3326.80056	9031.3
3329.03219	8985
3331.26248	2.7
3333.49143	0.1
3335.71905	-1.4
