Data from AgNPs_FTO_APTES_UA_5uM_CRN_10uM_R6G_10uM_NaF_0.1M_Addition_RamanShift__7__12-31-26-720.txt Node

Date: Mon Feb 07 12:31:26 GMT 2022
User: TCL
Spectrometer: QEP01345
Trigger mode: 4
Integration Time (sec): 7.000000E0
Scans to average: 10
Electric dark correction enabled: true
Nonlinearity correction enabled: false
Boxcar width: 0
XAxis mode: Raman Shifts
Number of Pixels in Spectrum: 1044
>>>>>Begin Spectral Data<<<<<
46.04893	-0.775
50.45542	-1.475
54.85868	-0.675
59.25871	0.825
63.6555	90.725
68.04907	99.925
72.43941	105.925
76.82654	106.125
81.21044	109.925
85.59113	113.225
89.96862	118.925
94.34289	117.125
98.71396	125.325
103.08183	131.625
107.4465	134.825
111.80798	133.225
116.16626	142.125
120.52136	148.025
124.87327	154.725
129.222	169.125
133.56755	177.325
137.90993	194.225
142.24913	222.025
146.58517	248.725
150.91804	296.025
155.24774	355.525
159.57429	453.125
163.89768	579.125
168.21792	780.825
172.53501	1075.625
176.84895	1486.425
181.15975	2110.025
185.46741	2949.825
189.77193	4069.325
194.07331	5429.525
198.37157	6970.025
202.6667	8580.525
206.9587	10211.725
211.24758	11748.625
215.53334	13346.525
219.81599	15032.525
224.09553	16926.425
228.37195	18927.125
232.64527	21153.425
236.91549	23436.625
241.18261	25694.825
245.44663	27889.425
249.70755	29791.225
253.96539	31452.425
258.22014	32896.425
262.4718	34034.625
266.72039	34846.225
270.96589	35274.325
275.20832	35318.225
279.44768	35194.325
283.68397	34975.925
287.91719	34749.225
292.14735	34610.225
296.37445	34625.625
300.59849	34805.625
304.81948	34924.825
309.03742	34950.925
313.25231	34731.525
317.46415	34124.525
321.67296	33400.625
325.87872	32679.725
330.08145	32327.525
334.28114	32175.225
338.47781	32330.025
342.67145	32646.625
346.86207	33099.725
351.04966	33584.225
355.23424	34173.225
359.4158	34685.425
363.59435	35111.225
367.76989	35371.625
371.94243	35389.725
376.11196	35426.325
380.27849	35489.525
384.44203	35572.625
388.60257	35815.125
392.76012	36318.225
396.91468	36963.825
401.06626	37661.125
405.21485	38025.125
409.36047	37862.025
413.50311	37442.425
417.64277	37498.225
421.77947	37767.825
425.9132	38079.825
430.04396	38342.925
434.17176	38468.225
438.2966	38614.425
442.41849	39174.325
446.53742	40317.625
450.6534	41534.425
454.76644	42379.125
458.87653	42667.525
462.98368	42349.925
467.08789	41755.825
471.18916	41009.125
475.2875	40471.325
479.38291	40226.625
483.4754	40063.525
487.56496	39633.325
491.6516	38863.625
495.73531	37939.725
499.81612	37388.725
503.89401	37432.625
507.96899	37614.525
512.04106	37670.225
516.11023	37254.425
520.1765	36612.525
524.23987	35991.625
528.30034	35432.625
532.35792	35064.425
536.41261	34590.025
540.46441	34221.125
544.51333	34181.525
548.55936	34624.425
552.60252	35562.925
556.64279	36551.825
560.6802	37582.825
564.71473	38284.925
568.7464	39392.525
572.7752	41167.925
576.80114	43358.425
580.82422	45431.025
584.84444	47850.225
588.86181	51065.125
592.87633	53696.725
596.888	52950.125
600.89682	49102.125
604.9028	46481.525
608.90594	47068.025
612.90624	48254.925
616.90371	44726.825
620.89834	38342.225
624.89015	35587.925
628.87913	35429.325
632.86528	35731.825
636.84862	35489.525
640.82913	34584.625
644.80683	33600.625
648.78172	33105.025
652.75379	33117.325
656.72306	33495.625
660.68952	33818.125
664.65319	33527.025
668.61405	32899.125
672.57211	32801.425
676.52738	32976.825
680.47986	32973.025
684.42955	32690.625
688.37646	32517.825
692.32058	32737.725
696.26192	33365.725
700.20048	33954.625
704.13626	34367.025
708.06928	34596.425
711.99952	34594.825
715.927	34591.625
719.85171	34665.625
723.77365	34355.425
727.69284	33674.625
731.60928	33011.725
735.52295	32657.525
739.43388	32625.125
743.34206	32699.425
747.24749	33084.525
751.15017	33596.825
755.05012	34420.525
758.94733	35635.425
762.8418	37461.825
766.73354	39860.125
770.62254	41786.825
774.50882	41523.625
778.39237	39285.925
782.27321	36595.625
786.15132	34567.125
790.02671	33325.125
793.89938	32635.925
797.76935	32377.725
801.6366	32227.225
805.50115	32208.625
809.36299	32038.925
813.22213	31842.025
817.07857	31665.225
820.93231	31512.225
824.78336	31205.825
828.63172	30947.525
832.47738	30749.725
836.32036	30691.425
840.16066	30784.625
843.99827	30833.825
847.8332	30867.425
851.66546	30828.625
855.49504	30866.025
859.32195	30852.125
863.1462	30669.625
866.96777	30606.225
870.78668	30494.525
874.60293	30453.325
878.41652	30429.625
882.22745	30567.225
886.03573	30608.025
889.84136	30572.025
893.64433	30475.625
897.44466	30341.425
901.24235	30294.125
905.0374	30217.825
908.8298	30197.825
912.61957	30351.425
916.40671	30856.725
920.19121	31571.025
923.97308	32142.525
927.75233	32011.225
931.52895	31399.825
935.30295	30557.325
939.07433	29836.125
942.84309	29332.425
946.60924	29046.625
950.37278	29018.725
954.13371	29053.625
957.89203	29068.025
961.64774	29115.625
965.40086	29133.125
969.15137	29122.625
972.89929	28880.825
976.64461	28683.025
980.38733	28595.125
984.12747	28606.225
987.86502	28689.825
991.59999	28931.825
995.33237	29253.225
999.06217	29814.025
1002.78939	30610.325
1006.51404	31380.225
1010.23611	32129.225
1013.95561	32529.125
1017.67255	32555.425
1021.38692	32090.525
1025.09872	31333.525
1028.80796	30908.625
1032.51465	30959.125
1036.21877	31242.625
1039.92035	31468.225
1043.61937	31551.525
1047.31584	31417.525
1051.00976	31275.625
1054.70114	31285.725
1058.38998	31515.425
1062.07627	31965.625
1065.76003	32430.025
1069.44126	33042.725
1073.11995	33727.425
1076.79611	34248.625
1080.46974	34411.825
1084.14085	34598.725
1087.80943	35094.525
1091.47549	35615.225
1095.13903	35834.925
1098.80005	35290.325
1102.45857	34138.225
1106.11456	33100.825
1109.76805	32623.225
1113.41903	32603.425
1117.06751	32735.725
1120.71348	33105.425
1124.35696	33464.125
1127.99793	33861.425
1131.63641	34237.725
1135.2724	34393.225
1138.90589	34546.225
1142.5369	34865.125
1146.16542	35448.225
1149.79145	36131.525
1153.415	36814.425
1157.03607	37834.325
1160.65467	39516.425
1164.27079	42195.625
1167.88443	45051.425
1171.49561	47685.725
1175.10432	50576.525
1178.71056	54239.425
1182.31434	57679.825
1185.91565	59098.525
1189.51451	58401.825
1193.11091	56928.325
1196.70485	55037.225
1200.29634	53267.825
1203.88538	52418.725
1207.47197	52583.825
1211.05612	52794.925
1214.63782	52027.825
1218.21708	50008.725
1221.79391	47648.725
1225.36829	45873.125
1228.94024	44713.325
1232.50976	43789.925
1236.07685	42923.025
1239.6415	42436.225
1243.20374	42392.225
1246.76355	42826.025
1250.32093	43662.425
1253.8759	44750.925
1257.42845	46203.725
1260.97859	47782.525
1264.52631	49453.825
1268.07163	51205.325
1271.61453	52899.325
1275.15503	54848.525
1278.69312	57156.025
1282.22882	59738.725
1285.76211	62974.025
1289.29301	66745.525
1292.82151	71009.325
1296.34761	76112.625
1299.87133	81728.925
1303.39266	86944.125
1306.9116	90726.125
1310.42815	92901.225
1313.94233	93199.125
1317.45412	92225.125
1320.96354	90892.025
1324.47058	90243.425
1327.97525	90092.125
1331.47754	89996.425
1334.97747	89300.725
1338.47502	87884.225
1341.97022	85802.425
1345.46305	83295.825
1348.95352	80977.925
1352.44163	79858.625
1355.92738	80614.025
1359.41078	83268.225
1362.89183	85544.125
1366.37053	84673.425
1369.84688	78974.425
1373.32088	70381.225
1376.79254	64149.325
1380.26186	62501.725
1383.72883	63727.025
1387.19347	64654.725
1390.65578	64417.925
1394.11575	64356.525
1397.57339	65481.625
1401.0287	67280.725
1404.48168	68574.925
1407.93234	68425.625
1411.38068	66281.525
1414.82669	62915.125
1418.27039	59127.725
1421.71177	55519.725
1425.15083	52723.925
1428.58758	51570.625
1432.02203	52270.225
1435.45416	54454.125
1438.88399	56933.425
1442.31151	58860.725
1445.73673	60075.325
1449.15965	60717.325
1452.58027	60807.525
1455.9986	60666.225
1459.41463	60805.625
1462.82837	61541.525
1466.23982	62773.625
1469.64898	63988.525
1473.05586	64675.225
1476.46045	64704.525
1479.86276	64001.025
1483.26279	62969.425
1486.66054	62438.425
1490.05602	62464.925
1493.44922	62841.125
1496.84016	63144.525
1500.22882	63434.125
1503.61521	63934.425
1506.99934	64603.625
1510.38121	65287.925
1513.76081	65411.425
1517.13816	65183.525
1520.51324	64932.125
1523.88607	65370.525
1527.25665	66408.225
1530.62498	67272.525
1533.99105	67222.125
1537.35488	65937.225
1540.71647	63749.825
1544.07581	60999.025
1547.4329	58226.925
1550.78776	56038.225
1554.14038	54458.225
1557.49077	53539.125
1560.83892	52953.125
1564.18484	52567.025
1567.52853	52581.525
1570.86999	53205.525
1574.20922	54804.825
1577.54624	56587.925
1580.88103	58122.825
1584.2136	59987.125
1587.54395	63303.825
1590.87208	67871.525
1594.19801	72733.525
1597.52172	76356.525
1600.84321	76149.725
1604.16251	70861.725
1607.47959	63228.425
1610.79447	55839.625
1614.10715	49751.025
1617.41763	45200.125
1620.7259	42297.425
1624.03199	41027.125
1627.33587	41394.825
1630.63757	43407.425
1633.93707	47662.525
1637.23439	54510.625
1640.52951	64469.925
1643.82246	76156.525
1647.11321	84976.625
1650.40179	85641.725
1653.68819	77209.425
1656.97241	64194.025
1660.25446	52153.525
1663.53433	43314.725
1666.81203	37717.125
1670.08756	34282.025
1673.36092	32165.025
1676.63211	30787.625
1679.90115	29902.425
1683.16801	29139.525
1686.43272	28640.525
1689.69527	28245.125
1692.95567	27953.425
1696.2139	27697.325
1699.46999	27537.125
1702.72392	27380.925
1705.97571	27262.125
1709.22535	27143.725
1712.47284	27029.025
1715.71819	26944.025
1718.96139	26846.425
1722.20246	26679.325
1725.44139	26580.925
1728.67818	26388.425
1731.91284	26157.125
1735.14537	25935.125
1738.37576	25784.725
1741.60403	25657.225
1744.83017	25541.925
1748.05418	25463.625
1751.27607	25370.925
1754.49584	25279.125
1757.71349	25288.525
1760.92903	25236.625
1764.14244	25219.225
1767.35375	25188.125
1770.56294	25107.225
1773.77002	25003.325
1776.97499	24970.425
1780.17785	24874.925
1783.37861	24818.925
1786.57727	24753.425
1789.77382	24749.225
1792.96828	24660.825
1796.16064	24610.825
1799.3509	24539.325
1802.53907	24446.625
1805.72514	24372.425
1808.90913	24306.425
1812.09102	24282.325
1815.27083	24219.525
1818.44856	24170.325
1821.6242	24099.225
1824.79776	24109.425
1827.96924	24071.025
1831.13864	24058.125
1834.30597	24065.525
1837.47122	24098.725
1840.6344	24043.725
1843.7955	24058.325
1846.95454	24060.925
1850.11151	24059.125
1853.26642	23969.625
1856.41926	24014.825
1859.57004	23985.225
1862.71876	23916.925
1865.86542	23892.325
1869.01003	23802.325
1872.15258	23768.725
1875.29308	23736.525
1878.43152	23699.725
1881.56792	23725.925
1884.70227	23670.225
1887.83457	23658.425
1890.96482	23627.025
1894.09304	23552.625
1897.21921	23564.825
1900.34335	23531.125
1903.46544	23471.925
1906.58551	23449.225
1909.70353	23400.025
1912.81953	23306.625
1915.93349	23279.425
1919.04543	23226.325
1922.15534	23190.125
1925.26322	23056.725
1928.36908	23025.825
1931.47292	22983.625
1934.57473	22870.425
1937.67453	22773.125
1940.77232	22736.425
1943.86808	22661.925
1946.96184	22617.325
1950.05358	22547.325
1953.14331	22498.925
1956.23103	22427.525
1959.31675	22317.925
1962.40046	22261.025
1965.48217	22202.225
1968.56188	22155.425
1971.63959	22066.125
1974.7153	21989.625
1977.78901	21897.925
1980.86073	21787.725
1983.93046	21740.225
1986.99819	21641.925
1990.06394	21606.925
1993.1277	21578.425
1996.18947	21505.525
1999.24925	21451.625
2002.30706	21361.225
2005.36288	21280.925
2008.41672	21192.125
2011.46859	21155.425
2014.51848	21040.825
2017.56639	21036.025
2020.61233	20971.125
2023.6563	20901.425
2026.6983	20879.425
2029.73833	20795.825
2032.7764	20772.025
2035.8125	20719.025
2038.84664	20673.925
2041.87881	20644.625
2044.90903	20608.225
2047.93729	20591.625
2050.96359	20535.325
2053.98794	20504.025
2057.01034	20497.525
2060.03078	20495.225
2063.04927	20456.325
2066.06582	20528.625
2069.08042	20488.825
2072.09307	20457.325
2075.10378	20407.525
2078.11255	20379.025
2081.11938	20406.125
2084.12426	20352.325
2087.12722	20342.725
2090.12824	20319.525
2093.12732	20329.725
2096.12447	20315.225
2099.11969	20329.325
2102.11299	20300.125
2105.10435	20299.225
2108.09379	20297.925
2111.08131	20318.725
2114.0669	20298.725
2117.05057	20320.325
2120.03233	20333.125
2123.01216	20321.325
2125.99008	20331.425
2128.96609	20365.525
2131.94018	20341.825
2134.91236	20302.225
2137.88263	20318.725
2140.851	20332.625
2143.81746	20302.225
2146.78201	20279.525
2149.74466	20247.925
2152.7054	20248.425
2155.66425	20230.425
2158.6212	20233.825
2161.57625	20254.725
2164.52941	20212.425
2167.48067	20213.425
2170.43004	20232.925
2173.37752	20201.725
2176.32311	20201.325
2179.26681	20159.425
2182.20863	20198.425
2185.14856	20183.825
2188.08661	20203.925
2191.02278	20219.025
2193.95707	20152.025
2196.88948	20130.225
2199.82001	20097.925
2202.74867	20082.825
2205.67545	20049.825
2208.60037	20038.325
2211.52341	19991.025
2214.44458	19987.325
2217.36388	19898.825
2220.28132	19855.925
2223.1969	19839.425
2226.11061	19784.225
2229.02246	19757.225
2231.93245	19787.825
2234.84058	19729.725
2237.74686	19748.525
2240.65128	19715.725
2243.55385	19651.625
2246.45456	19612.025
2249.35343	19568.325
2252.25044	19519.325
2255.14561	19445.125
2258.03893	19383.225
2260.93041	19317.725
2263.82004	19307.925
2266.70783	19235.025
2269.59378	19179.425
2272.4779	19096.425
2275.36017	19048.725
2278.24061	19034.625
2281.11922	18985.825
2283.996	18953.025
2286.87094	18910.625
2289.74405	18922.925
2292.61534	18885.825
2295.4848	18856.825
2298.35243	18861.225
2301.21824	18844.025
2304.08223	18888.125
2306.94439	18867.425
2309.80474	18840.325
2312.66327	18856.925
2315.51999	18811.125
2318.37489	18788.325
2321.22797	18757.725
2324.07925	18735.825
2326.92871	18735.425
2329.77637	18700.625
2332.62222	18654.925
2335.46626	18625.625
2338.3085	18623.825
2341.14893	18639.825
2343.98756	18649.225
2346.8244	18656.425
2349.65943	18633.925
2352.49267	18606.225
2355.32411	18634.025
2358.15376	18639.625
2360.98161	18614.525
2363.80768	18608.625
2366.63195	18616.325
2369.45444	18564.525
2372.27514	18579.725
2375.09405	18503.525
2377.91118	18475.425
2380.72652	18419.825
2383.54009	18380.425
2386.35187	18366.225
2389.16188	18322.225
2391.97011	18277.925
2394.77657	18268.125
2397.58125	18253.725
2400.38416	18243.225
2403.18529	18220.225
2405.98466	18185.225
2408.78226	18126.425
2411.57809	18120.125
2414.37216	18110.025
2417.16446	18106.425
2419.955	18058.325
2422.74378	18062.425
2425.5308	18030.425
2428.31606	18028.525
2431.09956	18039.325
2433.88131	17998.525
2436.6613	17979.325
2439.43954	18039.225
2442.21603	17994.225
2444.99077	17965.725
2447.76377	17986.725
2450.53501	17989.825
2453.30451	17983.425
2456.07226	17953.025
2458.83827	17944.625
2461.60254	17975.125
2464.36507	17939.625
2467.12586	17920.025
2469.88492	17963.325
2472.64224	17950.025
2475.39782	18002.725
2478.15167	17987.125
2480.90379	17958.325
2483.65417	17978.425
2486.40283	17975.125
2489.14976	18009.825
2491.89497	17994.225
2494.63845	17988.725
2497.3802	18015.425
2500.12024	18021.425
2502.85855	17982.725
2505.59514	17961.325
2508.33002	17969.525
2511.06318	17975.125
2513.79462	17958.325
2516.52435	17945.825
2519.25237	17994.525
2521.97867	17941.825
2524.70327	17938.925
2527.42616	17895.725
2530.14734	17924.025
2532.86681	17909.125
2535.58458	17924.725
2538.30065	17901.425
2541.01501	17894.925
2543.72768	17885.025
2546.43864	17878.925
2549.14791	17863.325
2551.85548	17817.525
2554.56136	17802.925
2557.26554	17801.825
2559.96803	17807.525
2562.66883	17783.425
2565.36794	17774.825
2568.06536	17743.225
2570.7611	17748.925
2573.45514	17741.425
2576.14751	17768.825
2578.83819	17733.925
2581.52719	17713.925
2584.21451	17761.625
2586.90015	17731.425
2589.58411	17702.725
2592.2664	17723.425
2594.94701	17695.825
2597.62594	17699.925
2600.30321	17663.625
2602.9788	17701.025
2605.65273	17717.225
2608.32498	17710.925
2610.99557	17721.925
2613.66449	17740.225
2616.33175	17682.025
2618.99734	17729.425
2621.66128	17691.325
2624.32355	17699.625
2626.98416	17667.825
2629.64311	17694.625
2632.30041	17696.625
2634.95605	17663.225
2637.61004	17656.625
2640.26238	17635.825
2642.91306	17662.225
2645.56209	17645.425
2648.20948	17658.925
2650.85521	17694.925
2653.4993	17698.025
2656.14175	17691.025
2658.78255	17716.325
2661.42171	17714.625
2664.05923	17773.325
2666.6951	17764.325
2669.32934	17802.525
2671.96194	17805.825
2674.59291	17796.125
2677.22224	17787.425
2679.84993	17842.025
2682.476	17813.625
2685.10043	17808.825
2687.72324	17798.725
2690.34441	17805.325
2692.96396	17754.625
2695.58188	17780.325
2698.19818	17784.525
2700.81285	17754.725
2703.4259	17780.125
2706.03733	17799.825
2708.64714	17820.225
2711.25533	17810.725
2713.86191	17839.725
2716.46687	17850.825
2719.07021	17853.425
2721.67194	17883.525
2724.27206	17907.625
2726.87057	17924.725
2729.46747	17965.625
2732.06276	17961.625
2734.65644	17960.625
2737.24852	17923.325
2739.83899	17950.025
2742.42786	17979.325
2745.01513	17943.925
2747.60079	17903.925
2750.18486	17938.825
2752.76733	17933.725
2755.3482	17898.125
2757.92747	17910.325
2760.50515	17890.925
2763.08123	17915.225
2765.65573	17920.225
2768.22863	17894.725
2770.79994	17869.525
2773.36967	17942.225
2775.9378	17898.225
2778.50435	17910.925
2781.06932	17926.725
2783.6327	17918.225
2786.1945	17901.125
2788.75471	17935.125
2791.31335	17889.925
2793.87041	17894.125
2796.42589	17842.925
2798.97979	17863.325
2801.53212	17811.525
2804.08288	17801.025
2806.63206	17754.325
2809.17967	17719.325
2811.72571	17634.025
2814.27018	17660.625
2816.81308	17615.925
2819.35442	17576.925
2821.89419	17531.725
2824.43239	17530.225
2826.96904	17555.725
2829.50412	17541.125
2832.03763	17487.525
2834.56959	17461.025
2837.1	17453.825
2839.62884	17456.425
2842.15613	17468.025
2844.68186	17506.025
2847.20604	17498.025
2849.72867	17499.325
2852.24974	17496.725
2854.76927	17473.725
2857.28724	17485.525
2859.80367	17474.625
2862.31855	17360.925
2864.83189	17353.725
2867.34368	17346.025
2869.85393	17347.025
2872.36264	17281.025
2874.8698	17251.325
2877.37543	17239.125
2879.87952	17264.425
2882.38207	17279.425
2884.88308	17258.325
2887.38256	17254.025
2889.88051	17310.125
2892.37692	17270.825
2894.8718	17325.325
2897.36515	17328.525
2899.85698	17331.525
2902.34727	17346.725
2904.83604	17378.325
2907.32328	17413.925
2909.809	17385.325
2912.29319	17399.625
2914.77587	17398.925
2917.25702	17421.225
2919.73665	17385.125
2922.21476	17390.025
2924.69136	17391.925
2927.16644	17370.425
2929.64	17386.525
2932.11205	17316.325
2934.58258	17258.325
2937.05161	17277.525
2939.51912	17281.225
2941.98513	17284.625
2944.44962	17251.025
2946.91261	17170.525
2949.37409	17202.225
2951.83407	17162.325
2954.29254	17139.925
2956.74951	17156.025
2959.20498	17133.125
2961.65895	17114.025
2964.11142	17058.125
2966.56239	17053.125
2969.01186	17056.725
2971.45984	16999.325
2973.90632	17021.725
2976.35131	16952.225
2978.7948	16924.425
2981.23681	16850.425
2983.67732	16820.025
2986.11635	16753.425
2988.55388	16721.225
2990.98993	16700.625
2993.4245	16609.325
2995.85758	16526.525
2998.28917	16504.125
3000.71928	16526.825
3003.14791	16457.125
3005.57506	16449.625
3008.00073	16385.025
3010.42493	16239.725
3012.84764	16299.425
3015.26888	16290.725
3017.68865	16250.825
3020.10694	16210.325
3022.52376	16157.625
3024.9391	16139.625
3027.35298	16110.825
3029.76539	16120.125
3032.17632	16087.625
3034.5858	16087.925
3036.9938	16083.025
3039.40034	16093.625
3041.80542	16064.125
3044.20903	16019.425
3046.61118	16025.925
3049.01187	15976.525
3051.4111	15978.425
3053.80888	15959.525
3056.20519	15907.725
3058.60005	15866.625
3060.99345	15821.325
3063.3854	15759.525
3065.7759	15680.725
3068.16494	15606.125
3070.55254	15575.125
3072.93868	15507.325
3075.32338	15443.125
3077.70662	15424.525
3080.08842	15379.825
3082.46878	15341.125
3084.84769	15308.325
3087.22515	15306.425
3089.60118	15289.425
3091.97576	15303.225
3094.3489	15302.825
3096.72061	15256.525
3099.09087	15193.725
3101.4597	15244.125
3103.82709	15227.225
3106.19305	15194.325
3108.55757	15157.825
3110.92066	15066.425
3113.28232	15080.525
3115.64255	15051.525
3118.00134	15027.525
3120.35871	14991.625
3122.71466	14949.525
3125.06917	14886.225
3127.42226	14865.225
