Data from AgNPs_FTO_APTES_UA_5uM_CRN_500uM_R6G_10uM_NaF_0.1M_Addition_RamanShift__0__16-40-41-808.txt Node

Date: Mon Feb 07 16:40:41 GMT 2022
User: TCL
Spectrometer: QEP01345
Trigger mode: 4
Integration Time (sec): 7.000000E0
Scans to average: 10
Electric dark correction enabled: true
Nonlinearity correction enabled: false
Boxcar width: 0
XAxis mode: Raman Shifts
Number of Pixels in Spectrum: 1044
>>>>>Begin Spectral Data<<<<<
46.04893	-0.375
50.45542	-1.975
54.85868	-0.075
59.25871	-0.275
63.6555	70.825
68.04907	71.425
72.43941	77.325
76.82654	74.925
81.21044	81.825
85.59113	81.525
89.96862	86.925
94.34289	88.225
98.71396	91.125
103.08183	93.525
107.4465	96.025
111.80798	103.725
116.16626	104.725
120.52136	114.425
124.87327	114.925
129.222	122.425
133.56755	130.925
137.90993	141.725
142.24913	157.525
146.58517	178.925
150.91804	205.825
155.24774	255.525
159.57429	322.125
163.89768	416.125
168.21792	556.025
172.53501	769.525
176.84895	1077.125
181.15975	1509.025
185.46741	2121.625
189.77193	2937.025
194.07331	3940.525
198.37157	5056.325
202.6667	6254.525
206.9587	7446.925
211.24758	8608.525
215.53334	9819.225
219.81599	11097.325
224.09553	12481.725
228.37195	13985.925
232.64527	15644.825
236.91549	17349.025
241.18261	19037.025
245.44663	20631.525
249.70755	22025.925
253.96539	23306.125
258.22014	24324.925
262.4718	25147.325
266.72039	25810.925
270.96589	26149.325
275.20832	26229.925
279.44768	26123.625
283.68397	25850.925
287.91719	25618.825
292.14735	25564.025
296.37445	25635.825
300.59849	25869.625
304.81948	26075.925
309.03742	26152.025
313.25231	25941.425
317.46415	25431.825
321.67296	24702.725
325.87872	24076.425
330.08145	23702.625
334.28114	23663.625
338.47781	23765.125
342.67145	24034.225
346.86207	24442.825
351.04966	24888.825
355.23424	25439.025
359.4158	25830.725
363.59435	26120.625
367.76989	26308.325
371.94243	26443.525
376.11196	26524.725
380.27849	26629.525
384.44203	26780.625
388.60257	26970.425
392.76012	27201.125
396.91468	27505.525
401.06626	27933.125
405.21485	28260.525
409.36047	28102.925
413.50311	27612.925
417.64277	27224.325
421.77947	27048.325
425.9132	27053.625
430.04396	27161.325
434.17176	27367.525
438.2966	27671.425
442.41849	28272.225
446.53742	29211.325
450.6534	30154.025
454.76644	30761.125
458.87653	30860.125
462.98368	30683.525
467.08789	30291.525
471.18916	30004.725
475.2875	29765.425
479.38291	29719.725
483.4754	29651.825
487.56496	29208.625
491.6516	28548.725
495.73531	27857.425
499.81612	27408.625
503.89401	27392.025
507.96899	27448.625
512.04106	27438.825
516.11023	27315.925
520.1765	27123.025
524.23987	26904.525
528.30034	26740.425
532.35792	26545.325
536.41261	26217.725
540.46441	25934.725
544.51333	25899.525
548.55936	26187.825
552.60252	26815.425
556.64279	27655.925
560.6802	28358.425
564.71473	28812.725
568.7464	29466.625
572.7752	30390.325
576.80114	31024.925
580.82422	31408.625
584.84444	32090.225
588.86181	33187.025
592.87633	34327.325
596.888	34263.325
600.89682	32968.325
604.9028	32365.525
608.90594	34400.925
612.90624	37279.325
616.90371	35297.425
620.89834	29418.225
624.89015	26638.325
628.87913	26262.125
632.86528	26460.525
636.84862	26466.625
640.82913	26117.725
644.80683	25542.025
648.78172	25093.125
652.75379	25091.325
656.72306	25360.525
660.68952	25773.125
664.65319	25609.325
668.61405	25076.925
672.57211	24981.925
676.52738	25037.725
680.47986	25061.425
684.42955	24933.925
688.37646	24834.025
692.32058	24921.725
696.26192	25199.325
700.20048	25489.625
704.13626	25693.225
708.06928	25742.825
711.99952	25724.725
715.927	25739.625
719.85171	25815.525
723.77365	25723.925
727.69284	25425.225
731.60928	25170.725
735.52295	25084.025
739.43388	25087.125
743.34206	25126.725
747.24749	25276.925
751.15017	25541.125
755.05012	26009.725
758.94733	26720.025
762.8418	28098.625
766.73354	30201.725
770.62254	32250.325
774.50882	32828.425
778.39237	31566.425
782.27321	29188.025
786.15132	27089.525
790.02671	25803.325
793.89938	25166.125
797.76935	24949.825
801.6366	24799.125
805.50115	24744.825
809.36299	24598.625
813.22213	24511.725
817.07857	24511.825
820.93231	24484.725
824.78336	24382.425
828.63172	24254.625
832.47738	24220.725
836.32036	24138.825
840.16066	24141.025
843.99827	24162.925
847.8332	24097.525
851.66546	24054.625
855.49504	24055.825
859.32195	24074.625
863.1462	23991.025
866.96777	23922.225
870.78668	23901.825
874.60293	23895.825
878.41652	23929.025
882.22745	23991.225
886.03573	24059.525
889.84136	24033.825
893.64433	23964.925
897.44466	23896.325
901.24235	23803.925
905.0374	23761.725
908.8298	23680.525
912.61957	23763.325
916.40671	23965.125
920.19121	24305.025
923.97308	24535.825
927.75233	24535.925
931.52895	24337.925
935.30295	23990.525
939.07433	23504.225
942.84309	23179.025
946.60924	22956.625
950.37278	22872.225
954.13371	22840.025
957.89203	22876.425
961.64774	22849.225
965.40086	22830.825
969.15137	22761.825
972.89929	22599.625
976.64461	22497.725
980.38733	22451.925
984.12747	22473.225
987.86502	22579.225
991.59999	22707.825
995.33237	22924.725
999.06217	23293.325
1002.78939	23679.925
1006.51404	24069.625
1010.23611	24421.625
1013.95561	24674.025
1017.67255	24740.625
1021.38692	24535.325
1025.09872	24083.425
1028.80796	23758.325
1032.51465	23753.525
1036.21877	23889.625
1039.92035	23993.825
1043.61937	24085.725
1047.31584	24064.225
1051.00976	24069.325
1054.70114	24087.825
1058.38998	24161.425
1062.07627	24427.425
1065.76003	24646.825
1069.44126	24864.725
1073.11995	25143.425
1076.79611	25432.925
1080.46974	25596.125
1084.14085	25774.425
1087.80943	26055.625
1091.47549	26368.525
1095.13903	26455.825
1098.80005	26175.525
1102.45857	25609.625
1106.11456	25150.925
1109.76805	24958.525
1113.41903	25073.125
1117.06751	25321.425
1120.71348	25717.925
1124.35696	26151.025
1127.99793	26591.325
1131.63641	26824.525
1135.2724	26519.925
1138.90589	26210.225
1142.5369	26135.125
1146.16542	26340.325
1149.79145	26619.925
1153.415	27022.225
1157.03607	27440.025
1160.65467	28285.125
1164.27079	29565.325
1167.88443	31168.525
1171.49561	33004.925
1175.10432	35361.225
1178.71056	38413.525
1182.31434	40965.925
1185.91565	42004.325
1189.51451	41334.825
1193.11091	39918.925
1196.70485	38373.625
1200.29634	37051.425
1203.88538	36093.825
1207.47197	35489.225
1211.05612	34939.825
1214.63782	34271.125
1218.21708	33364.525
1221.79391	32503.725
1225.36829	31994.225
1228.94024	31574.425
1232.50976	30994.925
1236.07685	30536.525
1239.6415	30141.825
1243.20374	30187.825
1246.76355	30441.825
1250.32093	30809.325
1253.8759	31282.825
1257.42845	32013.925
1260.97859	32869.325
1264.52631	33672.825
1268.07163	34472.125
1271.61453	35363.625
1275.15503	36317.325
1278.69312	37328.325
1282.22882	38519.825
1285.76211	40131.725
1289.29301	42153.425
1292.82151	44601.225
1296.34761	47436.125
1299.87133	50497.525
1303.39266	53612.125
1306.9116	56424.425
1310.42815	58868.725
1313.94233	60268.825
1317.45412	60120.425
1320.96354	58929.125
1324.47058	57508.125
1327.97525	56218.025
1331.47754	55150.225
1334.97747	54336.325
1338.47502	53518.925
1341.97022	52566.025
1345.46305	51662.725
1348.95352	51286.025
1352.44163	51675.725
1355.92738	53315.225
1359.41078	56202.325
1362.89183	58622.725
1366.37053	57578.525
1369.84688	52522.225
1373.32088	46313.125
1376.79254	42434.025
1380.26186	41331.025
1383.72883	41589.025
1387.19347	41876.725
1390.65578	41766.525
1394.11575	41831.625
1397.57339	42451.125
1401.0287	43210.325
1404.48168	43644.425
1407.93234	43268.225
1411.38068	41965.225
1414.82669	40197.025
1418.27039	38195.725
1421.71177	36287.225
1425.15083	34737.425
1428.58758	33874.625
1432.02203	34174.125
1435.45416	35053.925
1438.88399	36181.025
1442.31151	37066.025
1445.73673	37632.525
1449.15965	38152.425
1452.58027	38485.825
1455.9986	38603.325
1459.41463	38762.425
1462.82837	39149.025
1466.23982	39636.725
1469.64898	40232.625
1473.05586	40470.725
1476.46045	40441.925
1479.86276	40214.225
1483.26279	39789.225
1486.66054	39531.725
1490.05602	39718.925
1493.44922	40140.125
1496.84016	40752.125
1500.22882	41924.425
1503.61521	43495.625
1506.99934	45456.625
1510.38121	47192.225
1513.76081	47685.125
1517.13816	46565.425
1520.51324	44579.025
1523.88607	42873.925
1527.25665	42146.125
1530.62498	41970.525
1533.99105	41751.925
1537.35488	41219.525
1540.71647	40237.425
1544.07581	39012.625
1547.4329	37754.425
1550.78776	36660.125
1554.14038	35937.225
1557.49077	35540.425
1560.83892	35445.125
1564.18484	35623.625
1567.52853	36024.125
1570.86999	36698.125
1574.20922	37632.825
1577.54624	38462.125
1580.88103	38744.625
1584.2136	39028.425
1587.54395	39947.825
1590.87208	41746.425
1594.19801	43927.125
1597.52172	45890.725
1600.84321	46348.825
1604.16251	44170.125
1607.47959	40462.725
1610.79447	36559.025
1614.10715	33168.325
1617.41763	30612.225
1620.7259	29012.025
1624.03199	28320.025
1627.33587	28439.725
1630.63757	29480.725
1633.93707	31412.325
1637.23439	34726.025
1640.52951	39589.025
1643.82246	45493.625
1647.11321	50538.925
1650.40179	51927.425
1653.68819	48303.125
1656.97241	41389.925
1660.25446	34663.625
1663.53433	29713.025
1666.81203	26584.225
1670.08756	24626.825
1673.36092	23432.625
1676.63211	22701.825
1679.90115	22164.925
1683.16801	21744.625
1686.43272	21439.925
1689.69527	21214.325
1692.95567	21045.125
1696.2139	20931.325
1699.46999	20778.725
1702.72392	20692.925
1705.97571	20625.225
1709.22535	20593.525
1712.47284	20536.325
1715.71819	20502.725
1718.96139	20461.225
1722.20246	20410.225
1725.44139	20281.925
1728.67818	20125.925
1731.91284	20066.625
1735.14537	19935.425
1738.37576	19843.225
1741.60403	19771.625
1744.83017	19662.725
1748.05418	19609.525
1751.27607	19608.925
1754.49584	19595.525
1757.71349	19540.325
1760.92903	19495.625
1764.14244	19500.525
1767.35375	19488.625
1770.56294	19420.825
1773.77002	19332.125
1776.97499	19301.325
1780.17785	19297.825
1783.37861	19234.325
1786.57727	19208.425
1789.77382	19177.025
1792.96828	19108.425
1796.16064	19100.325
1799.3509	19049.625
1802.53907	18993.825
1805.72514	18916.925
1808.90913	18863.425
1812.09102	18853.825
1815.27083	18768.025
1818.44856	18765.525
1821.6242	18704.025
1824.79776	18697.725
1827.96924	18657.225
1831.13864	18621.525
1834.30597	18613.125
1837.47122	18581.725
1840.6344	18564.025
1843.7955	18578.525
1846.95454	18521.925
1850.11151	18524.025
1853.26642	18474.725
1856.41926	18486.925
1859.57004	18451.125
1862.71876	18457.025
1865.86542	18432.425
1869.01003	18404.825
1872.15258	18366.225
1875.29308	18354.925
1878.43152	18337.725
1881.56792	18295.525
1884.70227	18296.325
1887.83457	18267.325
1890.96482	18189.925
1894.09304	18197.625
1897.21921	18211.825
1900.34335	18140.725
1903.46544	18144.325
1906.58551	18109.025
1909.70353	18124.925
1912.81953	18044.625
1915.93349	17970.225
1919.04543	18007.725
1922.15534	17961.925
1925.26322	17877.425
1928.36908	17867.125
1931.47292	17822.525
1934.57473	17803.925
1937.67453	17768.925
1940.77232	17684.125
1943.86808	17647.025
1946.96184	17573.225
1950.05358	17524.425
1953.14331	17464.925
1956.23103	17377.525
1959.31675	17323.725
1962.40046	17282.925
1965.48217	17268.025
1968.56188	17150.125
1971.63959	17084.825
1974.7153	17076.725
1977.78901	17034.925
1980.86073	16962.125
1983.93046	16923.625
1986.99819	16885.225
1990.06394	16823.025
1993.1277	16754.225
1996.18947	16695.925
1999.24925	16646.325
2002.30706	16594.125
2005.36288	16532.025
2008.41672	16492.425
2011.46859	16444.225
2014.51848	16391.725
2017.56639	16356.925
2020.61233	16292.425
2023.6563	16225.925
2026.6983	16191.325
2029.73833	16159.025
2032.7764	16103.625
2035.8125	16100.925
2038.84664	16051.225
2041.87881	16033.625
2044.90903	15969.825
2047.93729	15948.125
2050.96359	15929.225
2053.98794	15914.125
2057.01034	15925.225
2060.03078	15875.725
2063.04927	15863.825
2066.06582	15892.225
2069.08042	15886.925
2072.09307	15863.425
2075.10378	15806.625
2078.11255	15810.825
2081.11938	15808.225
2084.12426	15771.725
2087.12722	15787.825
2090.12824	15745.925
2093.12732	15741.125
2096.12447	15786.525
2099.11969	15720.225
2102.11299	15742.925
2105.10435	15712.125
2108.09379	15722.725
2111.08131	15722.225
2114.0669	15720.625
2117.05057	15763.625
2120.03233	15758.825
2123.01216	15740.025
2125.99008	15780.925
2128.96609	15779.325
2131.94018	15794.425
2134.91236	15806.125
2137.88263	15780.325
2140.851	15780.625
2143.81746	15777.125
2146.78201	15777.925
2149.74466	15756.725
2152.7054	15775.425
2155.66425	15761.825
2158.6212	15700.325
2161.57625	15720.925
2164.52941	15686.125
2167.48067	15677.925
2170.43004	15696.725
2173.37752	15673.425
2176.32311	15687.125
2179.26681	15682.425
2182.20863	15678.325
2185.14856	15698.025
2188.08661	15684.025
2191.02278	15675.925
2193.95707	15676.125
2196.88948	15621.525
2199.82001	15603.125
2202.74867	15599.325
2205.67545	15557.825
2208.60037	15534.725
2211.52341	15505.025
2214.44458	15444.325
2217.36388	15419.825
2220.28132	15391.025
2223.1969	15338.425
2226.11061	15329.525
2229.02246	15315.125
2231.93245	15299.325
2234.84058	15243.625
2237.74686	15228.825
2240.65128	15211.125
2243.55385	15178.825
2246.45456	15199.425
2249.35343	15121.525
2252.25044	15125.925
2255.14561	15063.525
2258.03893	15029.825
2260.93041	14963.125
2263.82004	14969.325
2266.70783	14935.325
2269.59378	14883.725
2272.4779	14871.425
2275.36017	14793.625
2278.24061	14740.825
2281.11922	14756.525
2283.996	14729.725
2286.87094	14698.025
2289.74405	14648.325
2292.61534	14654.125
2295.4848	14610.725
2298.35243	14641.325
2301.21824	14613.725
2304.08223	14645.325
2306.94439	14626.425
2309.80474	14608.025
2312.66327	14598.125
2315.51999	14564.025
2318.37489	14560.425
2321.22797	14509.425
2324.07925	14513.925
2326.92871	14482.525
2329.77637	14453.125
2332.62222	14452.825
2335.46626	14466.125
2338.3085	14414.725
2341.14893	14394.825
2343.98756	14384.925
2346.8244	14367.325
2349.65943	14348.825
2352.49267	14364.625
2355.32411	14354.825
2358.15376	14352.825
2360.98161	14328.225
2363.80768	14353.725
2366.63195	14345.225
2369.45444	14323.825
2372.27514	14312.425
2375.09405	14287.025
2377.91118	14239.425
2380.72652	14222.825
2383.54009	14178.825
2386.35187	14162.525
2389.16188	14110.125
2391.97011	14082.925
2394.77657	14046.225
2397.58125	13987.925
2400.38416	13945.125
2403.18529	13952.225
2405.98466	13956.525
2408.78226	13911.525
2411.57809	13919.825
2414.37216	13891.325
2417.16446	13930.925
2419.955	13885.025
2422.74378	13880.225
2425.5308	13803.325
2428.31606	13821.925
2431.09956	13787.225
2433.88131	13778.225
2436.6613	13821.425
2439.43954	13797.725
2442.21603	13779.525
2444.99077	13785.825
2447.76377	13758.625
2450.53501	13763.925
2453.30451	13731.725
2456.07226	13713.525
2458.83827	13719.025
2461.60254	13681.425
2464.36507	13703.925
2467.12586	13693.625
2469.88492	13687.225
2472.64224	13684.625
2475.39782	13656.425
2478.15167	13699.825
2480.90379	13667.425
2483.65417	13673.925
2486.40283	13660.025
2489.14976	13666.425
2491.89497	13668.725
2494.63845	13710.925
2497.3802	13680.625
2500.12024	13689.825
2502.85855	13653.725
2505.59514	13667.225
2508.33002	13626.325
2511.06318	13607.425
2513.79462	13597.225
2516.52435	13561.025
2519.25237	13530.525
2521.97867	13511.325
2524.70327	13506.125
2527.42616	13468.625
2530.14734	13471.325
2532.86681	13464.425
2535.58458	13487.125
2538.30065	13465.425
2541.01501	13427.625
2543.72768	13420.725
2546.43864	13406.225
2549.14791	13376.625
2551.85548	13381.825
2554.56136	13375.525
2557.26554	13327.925
2559.96803	13310.025
2562.66883	13302.125
2565.36794	13293.725
2568.06536	13270.425
2570.7611	13269.125
2573.45514	13227.325
2576.14751	13234.825
2578.83819	13195.025
2581.52719	13205.625
2584.21451	13211.925
2586.90015	13176.925
2589.58411	13161.025
2592.2664	13138.925
2594.94701	13134.425
2597.62594	13090.125
2600.30321	13104.025
2602.9788	13122.625
2605.65273	13087.725
2608.32498	13113.525
2610.99557	13107.325
2613.66449	13091.425
2616.33175	13064.125
2618.99734	13075.525
2621.66128	13030.325
2624.32355	13018.825
2626.98416	12992.225
2629.64311	12975.025
2632.30041	12983.525
2634.95605	12939.625
2637.61004	12943.425
2640.26238	12960.025
2642.91306	12917.125
2645.56209	12908.725
2648.20948	12931.525
2650.85521	12942.825
2653.4993	12904.925
2656.14175	12928.825
2658.78255	12950.425
2661.42171	12950.825
2664.05923	12947.225
2666.6951	12935.525
2669.32934	12949.225
2671.96194	12953.025
2674.59291	12927.725
2677.22224	12930.725
2679.84993	12955.825
2682.476	12894.625
2685.10043	12908.625
2687.72324	12882.225
2690.34441	12889.725
2692.96396	12893.925
2695.58188	12911.525
2698.19818	12884.925
2700.81285	12934.225
2703.4259	12893.225
2706.03733	12916.725
2708.64714	12905.625
2711.25533	12889.325
2713.86191	12917.825
2716.46687	12950.125
2719.07021	12940.825
2721.67194	12949.725
2724.27206	12938.825
2726.87057	12943.725
2729.46747	12974.025
2732.06276	12978.225
2734.65644	12975.625
2737.24852	12953.425
2739.83899	12932.225
2742.42786	12922.525
2745.01513	12926.725
2747.60079	12907.525
2750.18486	12878.325
2752.76733	12865.525
2755.3482	12838.825
2757.92747	12838.225
2760.50515	12815.825
2763.08123	12844.425
2765.65573	12814.825
2768.22863	12807.825
2770.79994	12783.225
2773.36967	12801.825
2775.9378	12817.125
2778.50435	12809.325
2781.06932	12789.225
2783.6327	12779.125
2786.1945	12766.425
2788.75471	12789.325
2791.31335	12776.425
2793.87041	12747.225
2796.42589	12724.125
2798.97979	12705.925
2801.53212	12680.625
2804.08288	12656.425
2806.63206	12649.325
2809.17967	12617.425
2811.72571	12586.225
2814.27018	12542.925
2816.81308	12545.325
2819.35442	12516.725
2821.89419	12477.125
2824.43239	12496.325
2826.96904	12474.525
2829.50412	12473.525
2832.03763	12423.725
2834.56959	12437.125
2837.1	12436.925
2839.62884	12479.225
2842.15613	12463.925
2844.68186	12522.425
2847.20604	12558.525
2849.72867	12593.525
2852.24974	12556.325
2854.76927	12538.225
2857.28724	12520.225
2859.80367	12504.325
2862.31855	12491.425
2864.83189	12467.125
2867.34368	12434.025
2869.85393	12441.125
2872.36264	12431.325
2874.8698	12435.825
2877.37543	12460.325
2879.87952	12383.325
2882.38207	12413.925
2884.88308	12405.025
2887.38256	12406.325
2889.88051	12398.725
2892.37692	12387.425
2894.8718	12408.825
2897.36515	12407.425
2899.85698	12384.625
2902.34727	12430.925
2904.83604	12415.425
2907.32328	12479.725
2909.809	12434.925
2912.29319	12442.425
2914.77587	12419.725
2917.25702	12387.725
2919.73665	12411.825
2922.21476	12402.725
2924.69136	12425.625
2927.16644	12432.325
2929.64	12414.425
2932.11205	12375.625
2934.58258	12354.825
2937.05161	12352.225
2939.51912	12319.425
2941.98513	12311.925
2944.44962	12295.825
2946.91261	12229.725
2949.37409	12222.125
2951.83407	12202.025
2954.29254	12201.925
2956.74951	12172.525
2959.20498	12173.325
2961.65895	12109.025
2964.11142	12106.325
2966.56239	12116.825
2969.01186	12118.725
2971.45984	12039.725
2973.90632	12059.725
2976.35131	12006.425
2978.7948	11972.525
2981.23681	11949.125
2983.67732	11949.525
2986.11635	11889.725
2988.55388	11859.425
2990.98993	11825.925
2993.4245	11810.325
2995.85758	11748.025
2998.28917	11740.125
3000.71928	11718.225
3003.14791	11699.125
3005.57506	11681.625
3008.00073	11647.925
3010.42493	11610.625
3012.84764	11599.225
3015.26888	11565.125
3017.68865	11546.925
3020.10694	11523.425
3022.52376	11507.625
3024.9391	11475.025
3027.35298	11442.725
3029.76539	11470.225
3032.17632	11442.525
3034.5858	11433.725
3036.9938	11446.225
3039.40034	11433.125
3041.80542	11419.625
3044.20903	11386.425
3046.61118	11387.725
3049.01187	11322.625
3051.4111	11339.325
3053.80888	11282.625
3056.20519	11280.225
3058.60005	11266.325
3060.99345	11210.125
3063.3854	11189.425
3065.7759	11140.425
3068.16494	11109.325
3070.55254	11069.425
3072.93868	11036.625
3075.32338	11013.525
3077.70662	10968.925
3080.08842	10941.125
3082.46878	10924.025
3084.84769	10905.325
3087.22515	10909.525
3089.60118	10928.125
3091.97576	10906.525
3094.3489	10913.825
3096.72061	10914.425
3099.09087	10904.425
3101.4597	10857.225
3103.82709	10858.325
3106.19305	10844.925
3108.55757	10865.325
3110.92066	10786.025
3113.28232	10777.525
3115.64255	10753.025
3118.00134	10717.125
3120.35871	10718.025
3122.71466	10684.925
3125.06917	10665.925
3127.42226	10628.325
