Data from AgNPs_FTO_APTES_UA_5uM_CRN_2uM_R6G_10uM_NaF_0.1M_Addition_RamanShift__16__11-15-36-632.txt Node

Date: Mon Feb 07 11:15:36 GMT 2022
User: TCL
Spectrometer: QEP01345
Trigger mode: 4
Integration Time (sec): 7.000000E0
Scans to average: 10
Electric dark correction enabled: true
Nonlinearity correction enabled: false
Boxcar width: 0
XAxis mode: Raman Shifts
Number of Pixels in Spectrum: 1044
>>>>>Begin Spectral Data<<<<<
46.04893	-0.375
50.45542	-0.875
54.85868	-0.075
59.25871	0.425
63.6555	102.325
68.04907	105.625
72.43941	110.425
76.82654	112.625
81.21044	117.525
85.59113	125.225
89.96862	127.025
94.34289	131.225
98.71396	135.125
103.08183	138.325
107.4465	142.625
111.80798	143.425
116.16626	151.225
120.52136	157.225
124.87327	165.525
129.222	172.625
133.56755	189.525
137.90993	203.925
142.24913	222.125
146.58517	253.925
150.91804	296.625
155.24774	355.025
159.57429	445.925
163.89768	578.225
168.21792	770.925
172.53501	1055.325
176.84895	1471.725
181.15975	2082.025
185.46741	2914.125
189.77193	4016.625
194.07331	5357.325
198.37157	6911.725
202.6667	8521.325
206.9587	10128.325
211.24758	11696.625
215.53334	13295.825
219.81599	15031.125
224.09553	16967.525
228.37195	19083.225
232.64527	21413.525
236.91549	23770.525
241.18261	26170.925
245.44663	28329.525
249.70755	30247.225
253.96539	31953.925
258.22014	33419.825
262.4718	34651.725
266.72039	35493.225
270.96589	36019.525
275.20832	36192.125
279.44768	36054.625
283.68397	35837.325
287.91719	35632.125
292.14735	35611.025
296.37445	35625.625
300.59849	35771.425
304.81948	35971.825
309.03742	35937.425
313.25231	35473.325
317.46415	34494.025
321.67296	33260.925
325.87872	32104.125
330.08145	31512.725
334.28114	31346.325
338.47781	31519.825
342.67145	31899.725
346.86207	32443.625
351.04966	33187.025
355.23424	33949.125
359.4158	34593.125
363.59435	35057.625
367.76989	35364.625
371.94243	35566.025
376.11196	35635.925
380.27849	35800.225
384.44203	35883.125
388.60257	36092.725
392.76012	36514.525
396.91468	37009.125
401.06626	37656.425
405.21485	38080.225
409.36047	37877.125
413.50311	37228.925
417.64277	36767.725
421.77947	36753.725
425.9132	36827.925
430.04396	37016.125
434.17176	37157.925
438.2966	37249.925
442.41849	37715.925
446.53742	38594.125
450.6534	39726.825
454.76644	40579.425
458.87653	40963.825
462.98368	40794.825
467.08789	40392.625
471.18916	39851.125
475.2875	39371.325
479.38291	39183.225
483.4754	39133.325
487.56496	38833.125
491.6516	38202.625
495.73531	37651.325
499.81612	37375.525
503.89401	37516.625
507.96899	37591.225
512.04106	37439.525
516.11023	36960.525
520.1765	36424.325
524.23987	35833.025
528.30034	35266.625
532.35792	34811.925
536.41261	34285.125
540.46441	33899.725
544.51333	33914.625
548.55936	34493.125
552.60252	35503.625
556.64279	36647.825
560.6802	37390.325
564.71473	37863.525
568.7464	38763.125
572.7752	40043.225
576.80114	41239.425
580.82422	42293.125
584.84444	43208.225
588.86181	43809.425
592.87633	44036.225
596.888	43811.325
600.89682	43239.125
604.9028	44390.625
608.90594	48505.625
612.90624	52710.625
616.90371	49082.725
620.89834	40043.025
624.89015	36050.925
628.87913	35594.525
632.86528	35795.625
636.84862	35670.425
640.82913	35066.625
644.80683	33846.125
648.78172	33018.325
652.75379	32765.425
656.72306	33244.325
660.68952	33804.325
664.65319	33698.725
668.61405	32971.525
672.57211	32715.025
676.52738	32875.425
680.47986	32772.625
684.42955	32459.625
688.37646	32278.625
692.32058	32498.125
696.26192	33030.525
700.20048	33607.625
704.13626	33966.925
708.06928	33907.425
711.99952	33650.225
715.927	33531.525
719.85171	33701.725
723.77365	33554.425
727.69284	33008.125
731.60928	32481.325
735.52295	32252.625
739.43388	32241.125
743.34206	32357.225
747.24749	32549.325
751.15017	33006.925
755.05012	33744.525
758.94733	34974.725
762.8418	37189.725
766.73354	40545.925
770.62254	43769.125
774.50882	44299.025
778.39237	41805.025
782.27321	38251.725
786.15132	35360.425
790.02671	33579.725
793.89938	32725.125
797.76935	32412.925
801.6366	32327.425
805.50115	32271.525
809.36299	32019.625
813.22213	31666.325
817.07857	31448.025
820.93231	31306.425
824.78336	31139.525
828.63172	30929.225
832.47738	30807.825
836.32036	30851.525
840.16066	30909.125
843.99827	31050.425
847.8332	31003.625
851.66546	30845.025
855.49504	30827.225
859.32195	30801.625
863.1462	30676.925
866.96777	30535.825
870.78668	30483.725
874.60293	30475.825
878.41652	30458.025
882.22745	30565.425
886.03573	30641.525
889.84136	30694.025
893.64433	30548.925
897.44466	30464.925
901.24235	30329.525
905.0374	30112.925
908.8298	29998.925
912.61957	30051.325
916.40671	30403.525
920.19121	30997.325
923.97308	31476.225
927.75233	31635.025
931.52895	31371.725
935.30295	30796.825
939.07433	30064.725
942.84309	29417.425
946.60924	29200.225
950.37278	29124.525
954.13371	29068.625
957.89203	28961.225
961.64774	28946.525
965.40086	28921.925
969.15137	28935.525
972.89929	28738.725
976.64461	28637.025
980.38733	28648.225
984.12747	28738.225
987.86502	28999.725
991.59999	29457.825
995.33237	30000.025
999.06217	30915.525
1002.78939	31983.025
1006.51404	32797.925
1010.23611	33246.025
1013.95561	33605.325
1017.67255	33688.825
1021.38692	33173.325
1025.09872	32621.725
1028.80796	32595.625
1032.51465	33416.725
1036.21877	34335.425
1039.92035	34542.125
1043.61937	34124.525
1047.31584	33341.825
1051.00976	32550.225
1054.70114	32233.525
1058.38998	32253.525
1062.07627	32633.725
1065.76003	33000.625
1069.44126	33466.025
1073.11995	34017.125
1076.79611	34582.925
1080.46974	34932.925
1084.14085	35261.025
1087.80943	35862.425
1091.47549	36373.825
1095.13903	36489.825
1098.80005	35955.625
1102.45857	34902.425
1106.11456	33976.125
1109.76805	33447.725
1113.41903	33371.725
1117.06751	33595.525
1120.71348	33942.825
1124.35696	34416.625
1127.99793	34917.325
1131.63641	35259.225
1135.2724	35175.025
1138.90589	34899.925
1142.5369	34825.725
1146.16542	34916.225
1149.79145	35179.825
1153.415	35690.325
1157.03607	36386.025
1160.65467	37659.625
1164.27079	39765.525
1167.88443	42463.425
1171.49561	45617.425
1175.10432	49583.525
1178.71056	54586.525
1182.31434	59165.525
1185.91565	61831.325
1189.51451	62035.625
1193.11091	60110.625
1196.70485	57233.925
1200.29634	54188.625
1203.88538	52004.625
1207.47197	50638.025
1211.05612	49608.725
1214.63782	48556.825
1218.21708	47324.725
1221.79391	46248.525
1225.36829	45589.625
1228.94024	44866.925
1232.50976	43938.525
1236.07685	43109.025
1239.6415	42705.425
1243.20374	42540.425
1246.76355	42776.525
1250.32093	43504.625
1253.8759	44677.525
1257.42845	46229.225
1260.97859	47981.125
1264.52631	49633.725
1268.07163	51462.225
1271.61453	53394.125
1275.15503	55394.525
1278.69312	57366.925
1282.22882	59260.525
1285.76211	61115.425
1289.29301	63385.625
1292.82151	66106.525
1296.34761	69693.525
1299.87133	74254.425
1303.39266	79480.825
1306.9116	84885.625
1310.42815	89410.225
1313.94233	91898.325
1317.45412	91675.825
1320.96354	90121.225
1324.47058	88783.525
1327.97525	87806.025
1331.47754	87290.625
1334.97747	86918.625
1338.47502	86314.825
1341.97022	85285.925
1345.46305	83602.525
1348.95352	81471.525
1352.44163	79777.625
1355.92738	79949.625
1359.41078	82427.025
1362.89183	85129.425
1366.37053	83847.025
1369.84688	77318.125
1373.32088	69107.425
1376.79254	63171.225
1380.26186	60784.425
1383.72883	60642.025
1387.19347	60642.725
1390.65578	60250.525
1394.11575	60077.825
1397.57339	60975.825
1401.0287	62446.225
1404.48168	63803.525
1407.93234	64145.125
1411.38068	63031.425
1414.82669	60541.725
1418.27039	57309.125
1421.71177	54209.925
1425.15083	51706.225
1428.58758	50489.925
1432.02203	50748.525
1435.45416	52262.125
1438.88399	54150.425
1442.31151	55738.825
1445.73673	56968.625
1449.15965	57972.325
1452.58027	58564.625
1455.9986	58867.625
1459.41463	59304.125
1462.82837	60288.725
1466.23982	61471.125
1469.64898	62534.425
1473.05586	62996.325
1476.46045	62762.425
1479.86276	62135.425
1483.26279	61210.925
1486.66054	60795.925
1490.05602	60828.725
1493.44922	61160.425
1496.84016	61774.625
1500.22882	63005.025
1503.61521	65159.625
1506.99934	67720.125
1510.38121	69909.325
1513.76081	70497.625
1517.13816	69178.525
1520.51324	66544.725
1523.88607	64079.625
1527.25665	62851.925
1530.62498	62226.425
1533.99105	61958.825
1537.35488	61434.125
1540.71647	60450.725
1544.07581	58994.725
1547.4329	57305.025
1550.78776	55771.525
1554.14038	54718.025
1557.49077	54161.525
1560.83892	53871.425
1564.18484	53853.225
1567.52853	53923.225
1570.86999	54344.725
1574.20922	55199.025
1577.54624	56131.625
1580.88103	56471.525
1584.2136	57067.625
1587.54395	59091.425
1590.87208	62652.725
1594.19801	67074.225
1597.52172	71212.725
1600.84321	72064.325
1604.16251	68284.425
1607.47959	62076.125
1610.79447	55712.625
1614.10715	49986.225
1617.41763	45273.425
1620.7259	42081.625
1624.03199	40444.625
1627.33587	40345.925
1630.63757	41816.525
1633.93707	45247.225
1637.23439	50758.325
1640.52951	58499.725
1643.82246	67202.425
1647.11321	73756.425
1650.40179	74722.625
1653.68819	68886.525
1656.97241	58755.225
1660.25446	48788.425
1663.53433	41241.025
1666.81203	36366.825
1670.08756	33308.425
1673.36092	31406.925
1676.63211	30171.825
1679.90115	29314.925
1683.16801	28700.325
1686.43272	28188.925
1689.69527	27818.825
1692.95567	27562.725
1696.2139	27422.925
1699.46999	27236.225
1702.72392	27083.625
1705.97571	27004.225
1709.22535	26903.725
1712.47284	26814.725
1715.71819	26733.825
1718.96139	26633.225
1722.20246	26510.125
1725.44139	26371.325
1728.67818	26225.325
1731.91284	26004.025
1735.14537	25774.925
1738.37576	25646.825
1741.60403	25574.625
1744.83017	25444.525
1748.05418	25354.425
1751.27607	25208.225
1754.49584	25195.925
1757.71349	25194.825
1760.92903	25103.425
1764.14244	25094.125
1767.35375	25066.125
1770.56294	25031.725
1773.77002	24921.725
1776.97499	24873.925
1780.17785	24804.425
1783.37861	24769.825
1786.57727	24694.625
1789.77382	24672.025
1792.96828	24578.325
1796.16064	24566.925
1799.3509	24494.925
1802.53907	24450.425
1805.72514	24384.225
1808.90913	24310.325
1812.09102	24269.025
1815.27083	24240.325
1818.44856	24168.925
1821.6242	24151.125
1824.79776	24099.225
1827.96924	24117.625
1831.13864	24107.825
1834.30597	24146.725
1837.47122	24113.525
1840.6344	24144.025
1843.7955	24202.125
1846.95454	24252.625
1850.11151	24219.025
1853.26642	24225.825
1856.41926	24210.325
1859.57004	24232.425
1862.71876	24193.125
1865.86542	24160.825
1869.01003	24135.025
1872.15258	24072.825
1875.29308	24028.525
1878.43152	24063.125
1881.56792	24024.125
1884.70227	24007.525
1887.83457	24021.625
1890.96482	23942.325
1894.09304	23994.225
1897.21921	23907.425
1900.34335	23875.725
1903.46544	23854.325
1906.58551	23798.025
1909.70353	23766.825
1912.81953	23671.625
1915.93349	23634.825
1919.04543	23562.425
1922.15534	23471.725
1925.26322	23427.725
1928.36908	23355.225
1931.47292	23258.125
1934.57473	23156.925
1937.67453	23087.725
1940.77232	22973.825
1943.86808	22892.625
1946.96184	22817.225
1950.05358	22754.825
1953.14331	22698.125
1956.23103	22570.325
1959.31675	22509.325
1962.40046	22423.725
1965.48217	22369.525
1968.56188	22351.925
1971.63959	22222.425
1974.7153	22159.425
1977.78901	22090.725
1980.86073	22008.025
1983.93046	21952.225
1986.99819	21886.025
1990.06394	21807.325
1993.1277	21754.425
1996.18947	21649.625
1999.24925	21561.625
2002.30706	21523.325
2005.36288	21426.125
2008.41672	21367.025
2011.46859	21334.525
2014.51848	21287.525
2017.56639	21233.225
2020.61233	21244.225
2023.6563	21141.225
2026.6983	21101.225
2029.73833	21079.625
2032.7764	21026.325
2035.8125	20973.825
2038.84664	20890.925
2041.87881	20891.925
2044.90903	20869.025
2047.93729	20841.525
2050.96359	20830.525
2053.98794	20796.525
2057.01034	20796.225
2060.03078	20774.725
2063.04927	20805.225
2066.06582	20735.425
2069.08042	20730.825
2072.09307	20720.625
2075.10378	20650.125
2078.11255	20651.725
2081.11938	20615.125
2084.12426	20619.825
2087.12722	20603.325
2090.12824	20555.825
2093.12732	20543.625
2096.12447	20578.225
2099.11969	20587.225
2102.11299	20622.425
2105.10435	20555.625
2108.09379	20581.425
2111.08131	20571.625
2114.0669	20587.225
2117.05057	20617.325
2120.03233	20584.625
2123.01216	20641.125
2125.99008	20632.125
2128.96609	20673.725
2131.94018	20667.625
2134.91236	20666.025
2137.88263	20709.825
2140.851	20681.125
2143.81746	20713.325
2146.78201	20688.125
2149.74466	20727.925
2152.7054	20676.625
2155.66425	20654.025
2158.6212	20630.225
2161.57625	20632.325
2164.52941	20602.525
2167.48067	20620.525
2170.43004	20612.425
2173.37752	20628.425
2176.32311	20612.025
2179.26681	20598.725
2182.20863	20593.325
2185.14856	20622.725
2188.08661	20629.625
2191.02278	20634.225
2193.95707	20611.025
2196.88948	20594.225
2199.82001	20612.325
2202.74867	20513.725
2205.67545	20541.625
2208.60037	20527.525
2211.52341	20478.725
2214.44458	20484.325
2217.36388	20461.625
2220.28132	20408.125
2223.1969	20366.725
2226.11061	20359.825
2229.02246	20277.425
2231.93245	20275.925
2234.84058	20217.025
2237.74686	20168.725
2240.65128	20139.825
2243.55385	20086.825
2246.45456	20078.725
2249.35343	20022.425
2252.25044	20017.325
2255.14561	19946.625
2258.03893	19940.125
2260.93041	19895.225
2263.82004	19857.325
2266.70783	19813.925
2269.59378	19721.825
2272.4779	19699.125
2275.36017	19608.225
2278.24061	19570.025
2281.11922	19556.925
2283.996	19545.025
2286.87094	19518.125
2289.74405	19508.425
2292.61534	19491.325
2295.4848	19471.025
2298.35243	19474.225
2301.21824	19475.325
2304.08223	19475.525
2306.94439	19482.925
2309.80474	19553.125
2312.66327	19511.125
2315.51999	19502.925
2318.37489	19475.825
2321.22797	19472.325
2324.07925	19441.725
2326.92871	19419.825
2329.77637	19427.125
2332.62222	19387.125
2335.46626	19376.425
2338.3085	19386.725
2341.14893	19407.325
2343.98756	19418.325
2346.8244	19457.625
2349.65943	19469.525
2352.49267	19441.625
2355.32411	19465.825
2358.15376	19441.825
2360.98161	19392.725
2363.80768	19386.625
2366.63195	19394.425
2369.45444	19372.725
2372.27514	19345.125
2375.09405	19323.625
2377.91118	19251.325
2380.72652	19176.925
2383.54009	19134.625
2386.35187	19095.525
2389.16188	19015.625
2391.97011	19000.625
2394.77657	18969.325
2397.58125	18948.725
2400.38416	18926.825
2403.18529	18896.925
2405.98466	18882.425
2408.78226	18802.525
2411.57809	18823.025
2414.37216	18825.525
2417.16446	18787.325
2419.955	18788.725
2422.74378	18741.025
2425.5308	18694.025
2428.31606	18678.825
2431.09956	18696.625
2433.88131	18717.425
2436.6613	18753.325
2439.43954	18725.725
2442.21603	18724.825
2444.99077	18693.425
2447.76377	18696.025
2450.53501	18695.325
2453.30451	18673.725
2456.07226	18682.925
2458.83827	18679.325
2461.60254	18724.325
2464.36507	18669.025
2467.12586	18647.325
2469.88492	18663.525
2472.64224	18693.125
2475.39782	18743.125
2478.15167	18749.625
2480.90379	18742.425
2483.65417	18761.525
2486.40283	18770.025
2489.14976	18823.925
2491.89497	18782.725
2494.63845	18832.225
2497.3802	18826.025
2500.12024	18803.825
2502.85855	18780.525
2505.59514	18773.225
2508.33002	18756.625
2511.06318	18710.925
2513.79462	18719.225
2516.52435	18693.125
2519.25237	18676.725
2521.97867	18684.225
2524.70327	18684.425
2527.42616	18655.125
2530.14734	18662.725
2532.86681	18661.225
2535.58458	18689.325
2538.30065	18646.325
2541.01501	18637.125
2543.72768	18630.125
2546.43864	18618.225
2549.14791	18579.525
2551.85548	18601.425
2554.56136	18576.725
2557.26554	18525.925
2559.96803	18529.625
2562.66883	18530.825
2565.36794	18509.025
2568.06536	18457.125
2570.7611	18458.925
2573.45514	18474.925
2576.14751	18418.825
2578.83819	18441.225
2581.52719	18476.625
2584.21451	18458.525
2586.90015	18437.625
2589.58411	18429.225
2592.2664	18460.125
2594.94701	18443.025
2597.62594	18437.925
2600.30321	18392.025
2602.9788	18425.425
2605.65273	18414.325
2608.32498	18416.425
2610.99557	18432.525
2613.66449	18449.425
2616.33175	18462.025
2618.99734	18506.025
2621.66128	18473.625
2624.32355	18408.825
2626.98416	18422.425
2629.64311	18437.125
2632.30041	18436.925
2634.95605	18435.125
2637.61004	18403.625
2640.26238	18379.925
2642.91306	18377.525
2645.56209	18374.125
2648.20948	18373.325
2650.85521	18381.225
2653.4993	18410.225
2656.14175	18351.925
2658.78255	18387.525
2661.42171	18432.325
2664.05923	18462.325
2666.6951	18474.325
2669.32934	18486.725
2671.96194	18471.325
2674.59291	18484.825
2677.22224	18489.325
2679.84993	18501.925
2682.476	18482.825
2685.10043	18476.425
2687.72324	18421.925
2690.34441	18379.425
2692.96396	18415.625
2695.58188	18405.025
2698.19818	18376.125
2700.81285	18367.825
2703.4259	18387.725
2706.03733	18430.625
2708.64714	18417.725
2711.25533	18424.625
2713.86191	18386.025
2716.46687	18447.625
2719.07021	18442.925
2721.67194	18508.325
2724.27206	18484.225
2726.87057	18509.225
2729.46747	18532.025
2732.06276	18508.425
2734.65644	18519.025
2737.24852	18508.725
2739.83899	18500.625
2742.42786	18479.025
2745.01513	18464.625
2747.60079	18501.125
2750.18486	18469.325
2752.76733	18461.725
2755.3482	18462.625
2757.92747	18466.225
2760.50515	18450.825
2763.08123	18431.025
2765.65573	18447.525
2768.22863	18417.725
2770.79994	18411.825
2773.36967	18466.325
2775.9378	18452.025
2778.50435	18485.525
2781.06932	18427.025
2783.6327	18480.925
2786.1945	18442.225
2788.75471	18455.725
2791.31335	18433.625
2793.87041	18368.825
2796.42589	18376.625
2798.97979	18362.825
2801.53212	18305.525
2804.08288	18317.325
2806.63206	18237.725
2809.17967	18230.225
2811.72571	18174.825
2814.27018	18186.825
2816.81308	18137.525
2819.35442	18114.125
2821.89419	18066.725
2824.43239	18079.725
2826.96904	18075.125
2829.50412	18026.125
2832.03763	18011.125
2834.56959	17984.425
2837.1	17951.525
2839.62884	17985.825
2842.15613	17965.325
2844.68186	18026.125
2847.20604	18021.025
2849.72867	18034.725
2852.24974	18025.425
2854.76927	18037.125
2857.28724	18027.125
2859.80367	18004.625
2862.31855	17993.525
2864.83189	17953.625
2867.34368	17882.525
2869.85393	17876.025
2872.36264	17900.325
2874.8698	17891.425
2877.37543	17857.925
2879.87952	17873.325
2882.38207	17873.725
2884.88308	17892.225
2887.38256	17894.925
2889.88051	17883.025
2892.37692	17910.725
2894.8718	17912.825
2897.36515	17922.325
2899.85698	17914.825
2902.34727	18003.025
2904.83604	17998.825
2907.32328	18054.025
2909.809	18040.725
2912.29319	18038.825
2914.77587	18060.325
2917.25702	18062.225
2919.73665	18034.625
2922.21476	18048.925
2924.69136	18012.525
2927.16644	18011.725
2929.64	17950.025
2932.11205	17913.225
2934.58258	17906.225
2937.05161	17898.725
2939.51912	17900.125
2941.98513	17880.825
2944.44962	17818.325
2946.91261	17744.325
2949.37409	17753.225
2951.83407	17753.725
2954.29254	17707.425
2956.74951	17688.825
2959.20498	17690.125
2961.65895	17652.225
2964.11142	17639.925
2966.56239	17584.125
2969.01186	17596.025
2971.45984	17519.925
2973.90632	17530.525
2976.35131	17494.725
2978.7948	17442.825
2981.23681	17380.525
2983.67732	17385.825
2986.11635	17340.425
2988.55388	17268.025
2990.98993	17269.225
2993.4245	17186.025
2995.85758	17116.825
2998.28917	17106.525
3000.71928	17039.825
3003.14791	17029.125
3005.57506	16997.625
3008.00073	16929.025
3010.42493	16952.325
3012.84764	16900.825
3015.26888	16915.225
3017.68865	16850.625
3020.10694	16820.325
3022.52376	16812.325
3024.9391	16759.525
3027.35298	16715.225
3029.76539	16740.225
3032.17632	16693.825
3034.5858	16703.125
3036.9938	16670.825
3039.40034	16638.425
3041.80542	16680.425
3044.20903	16645.425
3046.61118	16632.125
3049.01187	16606.925
3051.4111	16601.325
3053.80888	16549.825
3056.20519	16541.125
3058.60005	16455.825
3060.99345	16450.925
3063.3854	16405.425
3065.7759	16315.925
3068.16494	16279.225
3070.55254	16196.525
3072.93868	16207.125
3075.32338	16134.325
3077.70662	16139.525
3080.08842	16059.425
3082.46878	16044.625
3084.84769	16040.725
3087.22515	15971.325
3089.60118	15957.325
3091.97576	16003.925
3094.3489	15985.525
3096.72061	15963.225
3099.09087	15914.225
3101.4597	15921.025
3103.82709	15911.225
3106.19305	15913.325
3108.55757	15887.125
3110.92066	15826.625
3113.28232	15801.125
3115.64255	15784.325
3118.00134	15734.525
3120.35871	15723.825
3122.71466	15649.925
3125.06917	15606.225
