Data from AgNPs_FTO_APTES_UA_5uM_CRN_500uM_R6G_10uM_NaF_0.1M_Addition_RamanShift__6__16-47-41-817.txt Node

Date: Mon Feb 07 16:47:41 GMT 2022
User: TCL
Spectrometer: QEP01345
Trigger mode: 4
Integration Time (sec): 7.000000E0
Scans to average: 10
Electric dark correction enabled: true
Nonlinearity correction enabled: false
Boxcar width: 0
XAxis mode: Raman Shifts
Number of Pixels in Spectrum: 1044
>>>>>Begin Spectral Data<<<<<
46.04893	-1.275
50.45542	-1.975
54.85868	-0.475
59.25871	-0.475
63.6555	73.025
68.04907	76.025
72.43941	80.525
76.82654	83.725
81.21044	78.225
85.59113	86.925
89.96862	93.625
94.34289	93.425
98.71396	92.525
103.08183	99.925
107.4465	101.125
111.80798	103.225
116.16626	105.925
120.52136	115.425
124.87327	118.925
129.222	127.225
133.56755	137.225
137.90993	149.625
142.24913	169.325
146.58517	186.925
150.91804	220.325
155.24774	278.425
159.57429	341.625
163.89768	438.125
168.21792	594.025
172.53501	804.625
176.84895	1145.525
181.15975	1614.425
185.46741	2274.125
189.77193	3123.525
194.07331	4185.125
198.37157	5384.925
202.6667	6667.525
206.9587	7926.025
211.24758	9142.325
215.53334	10377.825
219.81599	11699.525
224.09553	13150.125
228.37195	14693.325
232.64527	16399.525
236.91549	18184.225
241.18261	19997.325
245.44663	21694.425
249.70755	23247.125
253.96539	24647.525
258.22014	25834.025
262.4718	26759.225
266.72039	27420.525
270.96589	27815.525
275.20832	27904.125
279.44768	27825.125
283.68397	27647.025
287.91719	27523.925
292.14735	27403.825
296.37445	27421.025
300.59849	27505.425
304.81948	27618.725
309.03742	27568.125
313.25231	27271.025
317.46415	26764.225
321.67296	26114.925
325.87872	25603.525
330.08145	25328.325
334.28114	25223.325
338.47781	25294.125
342.67145	25514.425
346.86207	25843.425
351.04966	26247.725
355.23424	26582.125
359.4158	26919.925
363.59435	27180.725
367.76989	27357.725
371.94243	27547.525
376.11196	27624.725
380.27849	27681.425
384.44203	27861.525
388.60257	28193.025
392.76012	28527.125
396.91468	28892.625
401.06626	29254.325
405.21485	29514.425
409.36047	29387.925
413.50311	29136.325
417.64277	29019.325
421.77947	29078.325
425.9132	29325.425
430.04396	29453.525
434.17176	29683.525
438.2966	29931.825
442.41849	30434.225
446.53742	31233.925
450.6534	32281.025
454.76644	32888.125
458.87653	33099.725
462.98368	32960.225
467.08789	32659.025
471.18916	32292.025
475.2875	32227.325
479.38291	32210.725
483.4754	32174.825
487.56496	31752.225
491.6516	30954.825
495.73531	30196.225
499.81612	29595.725
503.89401	29582.325
507.96899	29712.325
512.04106	29602.725
516.11023	29372.225
520.1765	29021.225
524.23987	28625.625
528.30034	28372.925
532.35792	28144.925
536.41261	27842.925
540.46441	27624.325
544.51333	27671.025
548.55936	28079.925
552.60252	28716.925
556.64279	29599.925
560.6802	30336.525
564.71473	30876.525
568.7464	31573.725
572.7752	32771.725
576.80114	33984.125
580.82422	34981.925
584.84444	36103.925
588.86181	37660.325
592.87633	38863.625
596.888	38329.825
600.89682	36181.625
604.9028	34920.025
608.90594	35510.625
612.90624	36567.325
616.90371	34257.025
620.89834	29937.825
624.89015	28048.125
628.87913	27932.625
632.86528	28160.425
636.84862	28118.225
640.82913	27748.925
644.80683	27178.825
648.78172	26801.925
652.75379	26796.225
656.72306	26948.025
660.68952	27193.125
664.65319	26967.825
668.61405	26596.725
672.57211	26531.525
676.52738	26661.025
680.47986	26683.425
684.42955	26587.925
688.37646	26498.625
692.32058	26594.825
696.26192	26875.825
700.20048	27194.325
704.13626	27422.625
708.06928	27505.225
711.99952	27566.125
715.927	27552.125
719.85171	27600.525
723.77365	27438.925
727.69284	27079.225
731.60928	26786.525
735.52295	26606.125
739.43388	26611.225
743.34206	26665.325
747.24749	26814.025
751.15017	27146.025
755.05012	27699.725
758.94733	28455.325
762.8418	29675.925
766.73354	31359.125
770.62254	32748.425
774.50882	32725.225
778.39237	31312.725
782.27321	29426.325
786.15132	27902.125
790.02671	26985.625
793.89938	26476.625
797.76935	26285.625
801.6366	26233.625
805.50115	26172.625
809.36299	26064.225
813.22213	25940.525
817.07857	25916.725
820.93231	25796.925
824.78336	25652.625
828.63172	25441.625
832.47738	25316.525
836.32036	25236.525
840.16066	25251.425
843.99827	25251.125
847.8332	25238.625
851.66546	25209.125
855.49504	25241.125
859.32195	25245.825
863.1462	25132.125
866.96777	25075.025
870.78668	25065.025
874.60293	25056.025
878.41652	25072.225
882.22745	25111.025
886.03573	25116.925
889.84136	25133.325
893.64433	25043.825
897.44466	25021.425
901.24235	24940.025
905.0374	24846.225
908.8298	24810.225
912.61957	24886.925
916.40671	25235.425
920.19121	25622.925
923.97308	25844.025
927.75233	25719.525
931.52895	25341.025
935.30295	24871.625
939.07433	24417.625
942.84309	24113.325
946.60924	23900.225
950.37278	23775.925
954.13371	23817.125
957.89203	23876.425
961.64774	23873.025
965.40086	23868.525
969.15137	23762.725
972.89929	23520.125
976.64461	23364.725
980.38733	23287.425
984.12747	23236.025
987.86502	23326.125
991.59999	23450.525
995.33237	23538.025
999.06217	23830.225
1002.78939	24246.325
1006.51404	24647.525
1010.23611	25085.825
1013.95561	25391.825
1017.67255	25526.225
1021.38692	25339.425
1025.09872	24839.225
1028.80796	24477.525
1032.51465	24339.825
1036.21877	24385.125
1039.92035	24430.025
1043.61937	24552.725
1047.31584	24633.025
1051.00976	24712.825
1054.70114	24787.025
1058.38998	24986.225
1062.07627	25287.325
1065.76003	25668.025
1069.44126	25946.525
1073.11995	26286.225
1076.79611	26555.525
1080.46974	26633.725
1084.14085	26753.125
1087.80943	26972.125
1091.47549	27219.225
1095.13903	27421.025
1098.80005	27133.025
1102.45857	26563.325
1106.11456	26015.525
1109.76805	25724.825
1113.41903	25749.025
1117.06751	25941.125
1120.71348	26207.125
1124.35696	26502.925
1127.99793	26904.425
1131.63641	27142.025
1135.2724	27129.125
1138.90589	27029.225
1142.5369	27243.725
1146.16542	27612.625
1149.79145	28058.525
1153.415	28541.425
1157.03607	29185.425
1160.65467	30216.825
1164.27079	31816.925
1167.88443	33654.725
1171.49561	35518.925
1175.10432	37649.325
1178.71056	40255.825
1182.31434	42633.825
1185.91565	43636.225
1189.51451	43168.625
1193.11091	42153.025
1196.70485	40892.225
1200.29634	39661.625
1203.88538	38893.725
1207.47197	38783.825
1211.05612	38645.325
1214.63782	38023.225
1218.21708	36675.325
1221.79391	35266.825
1225.36829	34180.125
1228.94024	33549.525
1232.50976	32966.625
1236.07685	32358.325
1239.6415	31998.625
1243.20374	31963.725
1246.76355	32218.325
1250.32093	32647.925
1253.8759	33226.725
1257.42845	34029.125
1260.97859	34934.025
1264.52631	35889.825
1268.07163	36816.725
1271.61453	37857.725
1275.15503	39028.825
1278.69312	40355.925
1282.22882	41969.725
1285.76211	43990.525
1289.29301	46412.725
1292.82151	49415.725
1296.34761	52918.425
1299.87133	56609.325
1303.39266	59980.725
1306.9116	62504.325
1310.42815	64068.325
1313.94233	64785.825
1317.45412	64457.725
1320.96354	63714.325
1324.47058	63120.725
1327.97525	62726.925
1331.47754	62414.525
1334.97747	61838.825
1338.47502	60923.425
1341.97022	59585.425
1345.46305	58194.725
1348.95352	56975.125
1352.44163	56434.725
1355.92738	56929.325
1359.41078	58437.425
1362.89183	59526.325
1366.37053	58404.125
1369.84688	54270.225
1373.32088	48926.825
1376.79254	45419.325
1380.26186	44666.725
1383.72883	45449.325
1387.19347	46141.225
1390.65578	46275.525
1394.11575	46554.125
1397.57339	47392.425
1401.0287	48459.325
1404.48168	49041.225
1407.93234	48620.125
1411.38068	47000.125
1414.82669	44619.025
1418.27039	41968.025
1421.71177	39489.925
1425.15083	37525.325
1428.58758	36581.325
1432.02203	36928.125
1435.45416	38154.625
1438.88399	39691.225
1442.31151	40922.925
1445.73673	41671.825
1449.15965	42281.125
1452.58027	42693.625
1455.9986	42849.725
1459.41463	43138.425
1462.82837	43537.725
1466.23982	44072.125
1469.64898	44617.925
1473.05586	44905.425
1476.46045	44707.225
1479.86276	44084.925
1483.26279	43371.925
1486.66054	42792.525
1490.05602	42707.925
1493.44922	42846.925
1496.84016	42997.525
1500.22882	43427.625
1503.61521	44189.725
1506.99934	45074.625
1510.38121	45939.425
1513.76081	46221.525
1517.13816	45772.725
1520.51324	45295.725
1523.88607	45218.825
1527.25665	45689.225
1530.62498	46231.725
1533.99105	46297.825
1537.35488	45699.725
1540.71647	44526.025
1544.07581	42921.625
1547.4329	41236.825
1550.78776	39877.925
1554.14038	38793.925
1557.49077	38161.425
1560.83892	37813.725
1564.18484	37659.325
1567.52853	37840.225
1570.86999	38426.225
1574.20922	39574.025
1577.54624	40781.425
1580.88103	41718.325
1584.2136	42699.125
1587.54395	44398.325
1590.87208	46693.625
1594.19801	49310.425
1597.52172	51501.625
1600.84321	51698.325
1604.16251	48988.625
1607.47959	44451.725
1610.79447	39891.225
1614.10715	35944.825
1617.41763	32959.225
1620.7259	31006.025
1624.03199	30145.225
1627.33587	30299.225
1630.63757	31547.925
1633.93707	34051.025
1637.23439	38171.725
1640.52951	44158.025
1643.82246	51216.825
1647.11321	56592.125
1650.40179	57179.525
1653.68819	52185.525
1656.97241	44229.925
1660.25446	36733.025
1663.53433	31301.225
1666.81203	27687.425
1670.08756	25488.025
1673.36092	24113.825
1676.63211	23259.825
1679.90115	22658.425
1683.16801	22186.825
1686.43272	21794.225
1689.69527	21568.625
1692.95567	21333.025
1696.2139	21217.425
1699.46999	21030.525
1702.72392	20919.925
1705.97571	20834.625
1709.22535	20788.125
1712.47284	20680.925
1715.71819	20617.125
1718.96139	20552.425
1722.20246	20500.225
1725.44139	20420.125
1728.67818	20244.925
1731.91284	20098.425
1735.14537	19957.725
1738.37576	19885.325
1741.60403	19775.525
1744.83017	19680.725
1748.05418	19636.025
1751.27607	19619.425
1754.49584	19577.725
1757.71349	19538.425
1760.92903	19478.825
1764.14244	19450.125
1767.35375	19450.025
1770.56294	19384.825
1773.77002	19335.925
1776.97499	19247.425
1780.17785	19230.025
1783.37861	19173.125
1786.57727	19154.025
1789.77382	19124.325
1792.96828	19042.925
1796.16064	19004.725
1799.3509	18939.125
1802.53907	18875.325
1805.72514	18832.625
1808.90913	18744.125
1812.09102	18721.325
1815.27083	18635.825
1818.44856	18620.325
1821.6242	18591.625
1824.79776	18570.225
1827.96924	18518.725
1831.13864	18498.925
1834.30597	18494.625
1837.47122	18483.525
1840.6344	18444.025
1843.7955	18437.225
1846.95454	18423.525
1850.11151	18373.325
1853.26642	18342.525
1856.41926	18322.225
1859.57004	18340.425
1862.71876	18287.125
1865.86542	18262.525
1869.01003	18225.225
1872.15258	18229.025
1875.29308	18145.125
1878.43152	18140.025
1881.56792	18121.025
1884.70227	18099.125
1887.83457	18084.725
1890.96482	18042.525
1894.09304	18021.425
1897.21921	17969.125
1900.34335	17956.825
1903.46544	17899.825
1906.58551	17887.525
1909.70353	17841.025
1912.81953	17781.725
1915.93349	17750.425
1919.04543	17728.325
1922.15534	17707.425
1925.26322	17657.225
1928.36908	17586.725
1931.47292	17542.325
1934.57473	17516.425
1937.67453	17459.925
1940.77232	17440.025
1943.86808	17329.225
1946.96184	17253.125
1950.05358	17231.425
1953.14331	17155.725
1956.23103	17078.025
1959.31675	17025.225
1962.40046	16982.325
1965.48217	16912.025
1968.56188	16826.725
1971.63959	16738.625
1974.7153	16716.625
1977.78901	16671.325
1980.86073	16611.725
1983.93046	16572.725
1986.99819	16533.125
1990.06394	16477.425
1993.1277	16426.025
1996.18947	16322.525
1999.24925	16297.825
2002.30706	16232.625
2005.36288	16186.025
2008.41672	16133.125
2011.46859	16069.625
2014.51848	16028.125
2017.56639	15997.025
2020.61233	15931.525
2023.6563	15877.125
2026.6983	15780.125
2029.73833	15752.725
2032.7764	15739.925
2035.8125	15719.625
2038.84664	15659.025
2041.87881	15651.725
2044.90903	15598.125
2047.93729	15571.725
2050.96359	15536.225
2053.98794	15505.925
2057.01034	15499.525
2060.03078	15513.525
2063.04927	15506.725
2066.06582	15476.425
2069.08042	15455.225
2072.09307	15417.825
2075.10378	15411.925
2078.11255	15387.525
2081.11938	15414.225
2084.12426	15360.625
2087.12722	15349.225
2090.12824	15353.425
2093.12732	15344.225
2096.12447	15321.325
2099.11969	15310.625
2102.11299	15282.225
2105.10435	15279.125
2108.09379	15314.525
2111.08131	15260.525
2114.0669	15270.225
2117.05057	15262.725
2120.03233	15281.925
2123.01216	15291.225
2125.99008	15312.025
2128.96609	15273.625
2131.94018	15282.225
2134.91236	15304.025
2137.88263	15282.525
2140.851	15280.425
2143.81746	15292.125
2146.78201	15256.225
2149.74466	15257.025
2152.7054	15236.225
2155.66425	15204.125
2158.6212	15204.025
2161.57625	15182.525
2164.52941	15164.625
2167.48067	15142.425
2170.43004	15149.625
2173.37752	15147.125
2176.32311	15157.525
2179.26681	15147.725
2182.20863	15149.425
2185.14856	15151.625
2188.08661	15162.025
2191.02278	15155.125
2193.95707	15117.625
2196.88948	15084.825
2199.82001	15046.225
2202.74867	15011.625
2205.67545	14969.625
2208.60037	14951.325
2211.52341	14943.325
2214.44458	14869.325
2217.36388	14861.125
2220.28132	14804.825
2223.1969	14743.925
2226.11061	14759.925
2229.02246	14757.925
2231.93245	14709.525
2234.84058	14657.225
2237.74686	14660.325
2240.65128	14625.825
2243.55385	14577.525
2246.45456	14598.525
2249.35343	14547.725
2252.25044	14523.525
2255.14561	14440.625
2258.03893	14385.425
2260.93041	14336.425
2263.82004	14336.225
2266.70783	14269.325
2269.59378	14209.225
2272.4779	14205.625
2275.36017	14122.525
2278.24061	14109.225
2281.11922	14074.025
2283.996	14063.625
2286.87094	14028.425
2289.74405	13984.225
2292.61534	13996.125
2295.4848	13998.325
2298.35243	13969.625
2301.21824	13977.925
2304.08223	13959.625
2306.94439	13965.825
2309.80474	13915.125
2312.66327	13909.825
2315.51999	13891.125
2318.37489	13900.525
2321.22797	13828.225
2324.07925	13808.525
2326.92871	13810.525
2329.77637	13760.625
2332.62222	13756.425
2335.46626	13738.825
2338.3085	13713.925
2341.14893	13698.625
2343.98756	13686.925
2346.8244	13687.225
2349.65943	13668.125
2352.49267	13634.525
2355.32411	13629.325
2358.15376	13652.625
2360.98161	13632.225
2363.80768	13621.825
2366.63195	13631.225
2369.45444	13620.925
2372.27514	13579.225
2375.09405	13514.525
2377.91118	13492.325
2380.72652	13466.125
2383.54009	13438.125
2386.35187	13450.525
2389.16188	13413.025
2391.97011	13367.025
2394.77657	13323.825
2397.58125	13265.125
2400.38416	13259.025
2403.18529	13213.625
2405.98466	13216.225
2408.78226	13195.325
2411.57809	13208.825
2414.37216	13207.325
2417.16446	13197.225
2419.955	13142.125
2422.74378	13167.725
2425.5308	13119.725
2428.31606	13098.525
2431.09956	13079.825
2433.88131	13073.425
2436.6613	13091.125
2439.43954	13085.725
2442.21603	13057.625
2444.99077	13010.525
2447.76377	13052.025
2450.53501	13021.025
2453.30451	13000.425
2456.07226	12985.025
2458.83827	12964.825
2461.60254	12944.425
2464.36507	12943.225
2467.12586	12939.625
2469.88492	12957.825
2472.64224	12936.825
2475.39782	12934.025
2478.15167	12944.225
2480.90379	12901.725
2483.65417	12921.025
2486.40283	12911.725
2489.14976	12918.525
2491.89497	12910.425
2494.63845	12906.625
2497.3802	12896.625
2500.12024	12894.525
2502.85855	12898.825
2505.59514	12883.825
2508.33002	12833.125
2511.06318	12834.525
2513.79462	12836.625
2516.52435	12811.125
2519.25237	12786.925
2521.97867	12794.825
2524.70327	12754.125
2527.42616	12730.025
2530.14734	12754.225
2532.86681	12771.525
2535.58458	12766.525
2538.30065	12753.325
2541.01501	12703.225
2543.72768	12702.625
2546.43864	12675.925
2549.14791	12626.625
2551.85548	12639.125
2554.56136	12596.825
2557.26554	12591.525
2559.96803	12595.825
2562.66883	12563.725
2565.36794	12562.325
2568.06536	12564.225
2570.7611	12527.425
2573.45514	12515.825
2576.14751	12508.325
2578.83819	12507.425
2581.52719	12473.125
2584.21451	12466.525
2586.90015	12457.625
2589.58411	12447.825
2592.2664	12446.825
2594.94701	12430.325
2597.62594	12428.525
2600.30321	12386.125
2602.9788	12367.925
2605.65273	12384.925
2608.32498	12403.225
2610.99557	12399.625
2613.66449	12394.325
2616.33175	12367.025
2618.99734	12372.325
2621.66128	12359.025
2624.32355	12356.625
2626.98416	12321.625
2629.64311	12274.425
2632.30041	12302.325
2634.95605	12309.425
2637.61004	12294.225
2640.26238	12276.225
2642.91306	12246.725
2645.56209	12232.225
2648.20948	12250.225
2650.85521	12269.325
2653.4993	12265.025
2656.14175	12275.525
2658.78255	12287.325
2661.42171	12274.025
2664.05923	12287.625
2666.6951	12299.125
2669.32934	12300.225
2671.96194	12284.925
2674.59291	12252.125
2677.22224	12280.825
2679.84993	12275.625
2682.476	12229.425
2685.10043	12234.125
2687.72324	12213.625
2690.34441	12208.825
2692.96396	12214.125
2695.58188	12232.925
2698.19818	12223.225
2700.81285	12248.325
2703.4259	12224.625
2706.03733	12239.125
2708.64714	12234.225
2711.25533	12248.925
2713.86191	12249.525
2716.46687	12272.525
2719.07021	12259.025
2721.67194	12285.925
2724.27206	12275.225
2726.87057	12278.425
2729.46747	12282.625
2732.06276	12304.425
2734.65644	12292.925
2737.24852	12300.225
2739.83899	12255.425
2742.42786	12270.825
2745.01513	12277.425
2747.60079	12273.325
2750.18486	12238.225
2752.76733	12222.825
2755.3482	12214.725
2757.92747	12197.825
2760.50515	12201.025
2763.08123	12196.825
2765.65573	12182.025
2768.22863	12164.025
2770.79994	12168.125
2773.36967	12172.325
2775.9378	12174.625
2778.50435	12166.025
2781.06932	12171.725
2783.6327	12141.525
2786.1945	12141.825
2788.75471	12161.725
2791.31335	12125.925
2793.87041	12129.025
2796.42589	12101.525
2798.97979	12087.025
2801.53212	12060.425
2804.08288	12047.925
2806.63206	11977.025
2809.17967	11991.925
2811.72571	11946.925
2814.27018	11945.525
2816.81308	11893.225
2819.35442	11897.425
2821.89419	11844.925
2824.43239	11856.825
2826.96904	11836.225
2829.50412	11833.325
2832.03763	11782.025
2834.56959	11788.725
2837.1	11796.425
2839.62884	11798.825
2842.15613	11822.925
2844.68186	11862.025
2847.20604	11860.125
2849.72867	11901.125
2852.24974	11894.525
2854.76927	11877.225
2857.28724	11852.425
2859.80367	11826.325
2862.31855	11797.425
2864.83189	11777.425
2867.34368	11717.925
2869.85393	11748.625
2872.36264	11719.425
2874.8698	11725.225
2877.37543	11731.025
2879.87952	11706.925
2882.38207	11686.625
2884.88308	11711.925
2887.38256	11704.625
2889.88051	11683.625
2892.37692	11692.525
2894.8718	11689.725
2897.36515	11707.625
2899.85698	11709.825
2902.34727	11717.525
2904.83604	11716.725
2907.32328	11748.625
2909.809	11743.825
2912.29319	11733.725
2914.77587	11721.325
2917.25702	11683.225
2919.73665	11700.025
2922.21476	11700.625
2924.69136	11715.525
2927.16644	11729.825
2929.64	11709.125
2932.11205	11685.425
2934.58258	11655.025
2937.05161	11640.925
2939.51912	11630.725
2941.98513	11622.225
2944.44962	11595.125
2946.91261	11553.525
2949.37409	11541.025
2951.83407	11492.925
2954.29254	11510.325
2956.74951	11515.125
2959.20498	11461.025
2961.65895	11430.325
2964.11142	11442.525
2966.56239	11410.925
2969.01186	11401.825
2971.45984	11360.625
2973.90632	11378.125
2976.35131	11319.725
2978.7948	11266.225
2981.23681	11249.525
2983.67732	11219.325
2986.11635	11210.525
2988.55388	11151.125
2990.98993	11118.225
2993.4245	11063.325
2995.85758	11015.925
2998.28917	11021.525
3000.71928	10987.625
3003.14791	10961.325
3005.57506	10958.325
3008.00073	10889.325
3010.42493	10882.425
3012.84764	10864.225
3015.26888	10855.025
3017.68865	10794.425
3020.10694	10767.925
3022.52376	10726.525
3024.9391	10703.725
3027.35298	10700.325
3029.76539	10706.525
3032.17632	10686.125
3034.5858	10668.525
3036.9938	10676.425
3039.40034	10654.625
3041.80542	10663.325
3044.20903	10655.825
3046.61118	10642.025
3049.01187	10582.725
3051.4111	10575.825
3053.80888	10520.025
3056.20519	10540.325
3058.60005	10499.225
3060.99345	10448.425
3063.3854	10432.125
3065.7759	10390.225
3068.16494	10348.625
3070.55254	10300.525
3072.93868	10290.425
3075.32338	10251.025
3077.70662	10217.025
3080.08842	10158.725
3082.46878	10143.025
3084.84769	10116.725
3087.22515	10125.925
3089.60118	10131.925
3091.97576	10124.025
3094.3489	10134.525
3096.72061	10115.125
3099.09087	10116.025
3101.4597	10077.725
3103.82709	10062.525
3106.19305	10039.325
3108.55757	10036.525
3110.92066	9992.725
3113.28232	9973.125
3115.64255	9951.125
3118.00134	9914.125
3120.35871	9908.825
3122.71466	9903.825
3125.06917	9848.025
3127.42226	9837.225
