Data from AgNPs_FTO_APTES_UA_5uM_CRN_500uM_R6G_10uM_NaF_0.1M_Addition_RamanShift__33__17-19-11-854.txt Node

Date: Mon Feb 07 17:19:11 GMT 2022
User: TCL
Spectrometer: QEP01345
Trigger mode: 4
Integration Time (sec): 7.000000E0
Scans to average: 10
Electric dark correction enabled: true
Nonlinearity correction enabled: false
Boxcar width: 0
XAxis mode: Raman Shifts
Number of Pixels in Spectrum: 1044
>>>>>Begin Spectral Data<<<<<
46.04893	-1.475
50.45542	-1.275
54.85868	-0.475
59.25871	0.825
63.6555	48.225
68.04907	51.325
72.43941	55.925
76.82654	53.525
81.21044	57.825
85.59113	56.325
89.96862	61.825
94.34289	63.825
98.71396	67.125
103.08183	67.125
107.4465	71.325
111.80798	70.225
116.16626	74.525
120.52136	75.125
124.87327	82.225
129.222	85.225
133.56755	89.425
137.90993	96.025
142.24913	101.425
146.58517	118.225
150.91804	134.725
155.24774	168.225
159.57429	208.925
163.89768	261.325
168.21792	353.725
172.53501	475.425
176.84895	666.525
181.15975	941.925
185.46741	1304.225
189.77193	1803.525
194.07331	2428.425
198.37157	3118.925
202.6667	3869.925
206.9587	4613.825
211.24758	5346.225
215.53334	6107.825
219.81599	6934.325
224.09553	7883.525
228.37195	8888.725
232.64527	9981.925
236.91549	11128.125
241.18261	12188.825
245.44663	13095.025
249.70755	13881.325
253.96539	14560.025
258.22014	15176.925
262.4718	15691.525
266.72039	16074.225
270.96589	16286.725
275.20832	16244.425
279.44768	16114.025
283.68397	15889.225
287.91719	15763.925
292.14735	15718.425
296.37445	15898.625
300.59849	16239.525
304.81948	16683.425
309.03742	16966.625
313.25231	16898.325
317.46415	16307.525
321.67296	15387.625
325.87872	14621.725
330.08145	14239.425
334.28114	14209.925
338.47781	14394.825
342.67145	14692.125
346.86207	15133.425
351.04966	15774.025
355.23424	16475.925
359.4158	16978.325
363.59435	17289.225
367.76989	17391.825
371.94243	17389.625
376.11196	17350.325
380.27849	17318.325
384.44203	17268.225
388.60257	17180.725
392.76012	17155.725
396.91468	17323.125
401.06626	17711.425
405.21485	17965.425
409.36047	17763.625
413.50311	17116.125
417.64277	16474.825
421.77947	16176.925
425.9132	16057.225
430.04396	16100.425
434.17176	16276.525
438.2966	16553.625
442.41849	17068.225
446.53742	17748.225
450.6534	18385.125
454.76644	18856.825
458.87653	18897.525
462.98368	18569.125
467.08789	18254.025
471.18916	17931.725
475.2875	17624.325
479.38291	17407.325
483.4754	17152.825
487.56496	16883.925
491.6516	16532.925
495.73531	16239.925
499.81612	16104.425
503.89401	16164.925
507.96899	16241.125
512.04106	16318.125
516.11023	16441.825
520.1765	16518.325
524.23987	16471.225
528.30034	16310.825
532.35792	16126.825
536.41261	15883.425
540.46441	15645.825
544.51333	15532.925
548.55936	15675.525
552.60252	16037.325
556.64279	16495.425
560.6802	16891.925
564.71473	17224.025
568.7464	17881.925
572.7752	18441.225
576.80114	18202.425
580.82422	17691.825
584.84444	17538.825
588.86181	17795.525
592.87633	18333.625
596.888	18725.125
600.89682	18829.325
604.9028	19712.725
608.90594	22993.425
612.90624	27679.825
616.90371	26521.825
620.89834	19649.625
624.89015	16352.625
628.87913	15819.025
632.86528	15876.525
636.84862	16038.525
640.82913	15810.025
644.80683	15207.425
648.78172	14831.125
652.75379	14789.525
656.72306	15216.525
660.68952	15756.925
664.65319	15631.325
668.61405	15052.325
672.57211	14793.225
676.52738	14788.525
680.47986	14808.725
684.42955	14691.525
688.37646	14617.325
692.32058	14647.525
696.26192	14784.425
700.20048	14974.825
704.13626	15054.425
708.06928	15023.425
711.99952	14899.725
715.927	14885.925
719.85171	14935.125
723.77365	14941.925
727.69284	14781.125
731.60928	14691.925
735.52295	14653.025
739.43388	14696.225
743.34206	14704.725
747.24749	14762.925
751.15017	14881.825
755.05012	15120.025
758.94733	15724.125
762.8418	17020.925
766.73354	19317.925
770.62254	21638.725
774.50882	22813.325
778.39237	21945.725
782.27321	19426.325
786.15132	16941.225
790.02671	15540.925
793.89938	14896.725
797.76935	14661.825
801.6366	14521.725
805.50115	14464.325
809.36299	14389.325
813.22213	14327.925
817.07857	14341.825
820.93231	14325.225
824.78336	14318.425
828.63172	14388.425
832.47738	14364.925
836.32036	14325.725
840.16066	14267.925
843.99827	14223.425
847.8332	14166.725
851.66546	14107.825
855.49504	14089.325
859.32195	14068.125
863.1462	14043.525
866.96777	13971.925
870.78668	13963.825
874.60293	14001.325
878.41652	14030.125
882.22745	14105.425
886.03573	14170.725
889.84136	14115.625
893.64433	14030.925
897.44466	13966.125
901.24235	13950.825
905.0374	13883.825
908.8298	13825.125
912.61957	13800.825
916.40671	13940.025
920.19121	14072.925
923.97308	14212.425
927.75233	14310.725
931.52895	14338.125
935.30295	14199.925
939.07433	13830.325
942.84309	13526.325
946.60924	13332.225
950.37278	13219.125
954.13371	13172.325
957.89203	13171.025
961.64774	13106.925
965.40086	13090.425
969.15137	13059.025
972.89929	12965.225
976.64461	12936.525
980.38733	12924.925
984.12747	12986.125
987.86502	13055.525
991.59999	13139.525
995.33237	13344.125
999.06217	13650.825
1002.78939	14010.425
1006.51404	14307.825
1010.23611	14552.325
1013.95561	14661.025
1017.67255	14596.125
1021.38692	14315.925
1025.09872	14018.725
1028.80796	13861.425
1032.51465	13891.825
1036.21877	14012.925
1039.92035	14126.125
1043.61937	14153.925
1047.31584	14108.625
1051.00976	14101.225
1054.70114	14055.825
1058.38998	14033.725
1062.07627	14122.525
1065.76003	14242.125
1069.44126	14250.525
1073.11995	14393.325
1076.79611	14567.225
1080.46974	14803.625
1084.14085	15077.925
1087.80943	15413.425
1091.47549	15613.625
1095.13903	15526.625
1098.80005	15108.825
1102.45857	14721.225
1106.11456	14522.225
1109.76805	14548.825
1113.41903	14792.525
1117.06751	15206.225
1120.71348	15676.925
1124.35696	16238.025
1127.99793	16727.025
1131.63641	16764.125
1135.2724	16128.325
1138.90589	15560.025
1142.5369	15259.925
1146.16542	15117.625
1149.79145	15133.125
1153.415	15234.825
1157.03607	15432.825
1160.65467	15801.825
1164.27079	16471.925
1167.88443	17430.425
1171.49561	18859.625
1175.10432	20975.625
1178.71056	23693.025
1182.31434	25773.025
1185.91565	26407.025
1189.51451	25805.325
1193.11091	24479.825
1196.70485	22907.125
1200.29634	21603.625
1203.88538	20675.825
1207.47197	19704.925
1211.05612	18889.525
1214.63782	18405.025
1218.21708	18219.125
1221.79391	18233.025
1225.36829	18265.025
1228.94024	18096.525
1232.50976	17835.325
1236.07685	17590.325
1239.6415	17516.625
1243.20374	17564.825
1246.76355	17678.125
1250.32093	17855.825
1253.8759	18178.225
1257.42845	18698.325
1260.97859	19289.825
1264.52631	19877.125
1268.07163	20410.025
1271.61453	20859.125
1275.15503	21258.725
1278.69312	21543.225
1282.22882	21887.325
1285.76211	22527.425
1289.29301	23533.425
1292.82151	24670.225
1296.34761	25988.125
1299.87133	27558.125
1303.39266	29544.925
1306.9116	32222.625
1310.42815	35123.825
1313.94233	36985.425
1317.45412	36849.825
1320.96354	35259.925
1324.47058	33352.225
1327.97525	31509.025
1331.47754	30183.025
1334.97747	29639.725
1338.47502	29530.425
1341.97022	29504.925
1345.46305	29567.425
1348.95352	30037.025
1352.44163	31168.925
1355.92738	33373.325
1359.41078	36984.625
1362.89183	40584.225
1366.37053	39852.425
1369.84688	34794.325
1373.32088	29276.125
1376.79254	25907.925
1380.26186	24520.825
1383.72883	24121.625
1387.19347	23781.425
1390.65578	23262.725
1394.11575	23036.225
1397.57339	23262.425
1401.0287	23782.625
1404.48168	24284.225
1407.93234	24456.025
1411.38068	24203.825
1414.82669	23445.725
1418.27039	22418.725
1421.71177	21388.525
1425.15083	20521.825
1428.58758	20101.025
1432.02203	20233.325
1435.45416	20747.625
1438.88399	21218.025
1442.31151	21594.625
1445.73673	21891.225
1449.15965	22218.625
1452.58027	22398.625
1455.9986	22362.025
1459.41463	22359.225
1462.82837	22573.925
1466.23982	23027.425
1469.64898	23520.725
1473.05586	23764.325
1476.46045	23885.625
1479.86276	24018.825
1483.26279	24084.925
1486.66054	24163.625
1490.05602	24416.625
1493.44922	24760.725
1496.84016	25286.325
1500.22882	26435.425
1503.61521	28323.525
1506.99934	30726.025
1510.38121	33134.825
1513.76081	34378.625
1517.13816	33037.625
1520.51324	29958.525
1523.88607	26927.425
1527.25665	25059.225
1530.62498	24134.925
1533.99105	23749.625
1537.35488	23481.225
1540.71647	23262.925
1544.07581	22875.325
1547.4329	22498.825
1550.78776	22060.725
1554.14038	21690.625
1557.49077	21556.125
1560.83892	21583.625
1564.18484	21908.025
1567.52853	22331.425
1570.86999	22794.325
1574.20922	23248.625
1577.54624	23415.325
1580.88103	22925.025
1584.2136	22198.225
1587.54395	22174.225
1590.87208	23015.525
1594.19801	24530.425
1597.52172	26377.025
1600.84321	27250.025
1604.16251	26234.725
1607.47959	23970.325
1610.79447	21468.125
1614.10715	19195.225
1617.41763	17548.025
1620.7259	16597.225
1624.03199	16136.625
1627.33587	16197.825
1630.63757	16689.625
1633.93707	17766.925
1637.23439	19530.725
1640.52951	22164.225
1643.82246	25565.025
1647.11321	28775.325
1650.40179	30229.825
1653.68819	28520.925
1656.97241	24371.825
1660.25446	19980.125
1663.53433	16893.725
1666.81203	15026.825
1670.08756	13934.725
1673.36092	13295.425
1676.63211	12895.325
1679.90115	12589.825
1683.16801	12380.425
1686.43272	12163.225
1689.69527	12044.525
1692.95567	11968.925
1696.2139	11877.225
1699.46999	11831.025
1702.72392	11773.625
1705.97571	11763.825
1709.22535	11728.925
1712.47284	11706.225
1715.71819	11712.425
1718.96139	11693.025
1722.20246	11655.125
1725.44139	11611.025
1728.67818	11535.325
1731.91284	11448.625
1735.14537	11366.425
1738.37576	11316.925
1741.60403	11256.525
1744.83017	11219.725
1748.05418	11177.825
1751.27607	11150.425
1754.49584	11141.825
1757.71349	11114.825
1760.92903	11115.025
1764.14244	11091.225
1767.35375	11077.625
1770.56294	11020.725
1773.77002	10987.425
1776.97499	10961.725
1780.17785	10914.225
1783.37861	10886.425
1786.57727	10878.725
1789.77382	10879.925
1792.96828	10841.925
1796.16064	10829.025
1799.3509	10799.825
1802.53907	10771.825
1805.72514	10745.225
1808.90913	10688.025
1812.09102	10665.325
1815.27083	10622.325
1818.44856	10605.725
1821.6242	10580.825
1824.79776	10575.825
1827.96924	10570.525
1831.13864	10537.525
1834.30597	10520.425
1837.47122	10482.725
1840.6344	10473.825
1843.7955	10480.925
1846.95454	10459.225
1850.11151	10446.825
1853.26642	10420.225
1856.41926	10424.025
1859.57004	10400.725
1862.71876	10435.925
1865.86542	10412.825
1869.01003	10407.725
1872.15258	10379.225
1875.29308	10373.325
1878.43152	10380.525
1881.56792	10364.225
1884.70227	10366.525
1887.83457	10354.425
1890.96482	10351.825
1894.09304	10336.625
1897.21921	10348.325
1900.34335	10333.425
1903.46544	10335.425
1906.58551	10333.725
1909.70353	10297.125
1912.81953	10283.725
1915.93349	10276.625
1919.04543	10280.225
1922.15534	10239.925
1925.26322	10198.225
1928.36908	10161.425
1931.47292	10189.025
1934.57473	10136.425
1937.67453	10105.025
1940.77232	10064.925
1943.86808	10006.425
1946.96184	9978.025
1950.05358	9959.225
1953.14331	9913.125
1956.23103	9863.825
1959.31675	9845.025
1962.40046	9805.825
1965.48217	9798.425
1968.56188	9734.625
1971.63959	9713.825
1974.7153	9711.425
1977.78901	9670.825
1980.86073	9629.625
1983.93046	9605.825
1986.99819	9563.225
1990.06394	9521.925
1993.1277	9503.625
1996.18947	9453.725
1999.24925	9450.725
2002.30706	9389.125
2005.36288	9363.625
2008.41672	9343.525
2011.46859	9335.025
2014.51848	9293.325
2017.56639	9256.025
2020.61233	9254.725
2023.6563	9193.425
2026.6983	9142.425
2029.73833	9133.225
2032.7764	9124.725
2035.8125	9126.825
2038.84664	9096.725
2041.87881	9089.725
2044.90903	9068.725
2047.93729	9045.825
2050.96359	9025.925
2053.98794	8997.825
2057.01034	9001.225
2060.03078	8991.625
2063.04927	8984.125
2066.06582	8987.625
2069.08042	9003.825
2072.09307	8986.825
2075.10378	8955.825
2078.11255	8943.825
2081.11938	8941.425
2084.12426	8923.525
2087.12722	8920.325
2090.12824	8939.225
2093.12732	8912.525
2096.12447	8923.725
2099.11969	8912.925
2102.11299	8894.525
2105.10435	8908.725
2108.09379	8894.825
2111.08131	8900.325
2114.0669	8905.925
2117.05057	8911.225
2120.03233	8905.725
2123.01216	8931.125
2125.99008	8926.825
2128.96609	8910.225
2131.94018	8931.125
2134.91236	8919.625
2137.88263	8912.725
2140.851	8923.925
2143.81746	8923.225
2146.78201	8910.525
2149.74466	8911.025
2152.7054	8907.425
2155.66425	8881.525
2158.6212	8861.325
2161.57625	8851.925
2164.52941	8836.125
2167.48067	8860.925
2170.43004	8828.625
2173.37752	8859.325
2176.32311	8854.825
2179.26681	8853.025
2182.20863	8834.225
2185.14856	8850.125
2188.08661	8844.525
2191.02278	8852.625
2193.95707	8836.025
2196.88948	8817.425
2199.82001	8776.725
2202.74867	8774.325
2205.67545	8753.425
2208.60037	8744.925
2211.52341	8733.525
2214.44458	8719.125
2217.36388	8691.825
2220.28132	8677.725
2223.1969	8618.925
2226.11061	8631.625
2229.02246	8600.425
2231.93245	8597.425
2234.84058	8561.825
2237.74686	8555.525
2240.65128	8544.625
2243.55385	8503.525
2246.45456	8540.625
2249.35343	8535.525
2252.25044	8503.425
2255.14561	8480.825
2258.03893	8484.225
2260.93041	8464.925
2263.82004	8416.625
2266.70783	8430.825
2269.59378	8390.325
2272.4779	8373.025
2275.36017	8345.825
2278.24061	8320.225
2281.11922	8288.725
2283.996	8318.725
2286.87094	8275.025
2289.74405	8256.425
2292.61534	8251.925
2295.4848	8235.625
2298.35243	8230.625
2301.21824	8232.125
2304.08223	8243.225
2306.94439	8217.625
2309.80474	8226.725
2312.66327	8220.125
2315.51999	8216.825
2318.37489	8199.525
2321.22797	8176.125
2324.07925	8164.525
2326.92871	8144.425
2329.77637	8136.325
2332.62222	8119.425
2335.46626	8118.725
2338.3085	8101.025
2341.14893	8100.425
2343.98756	8081.225
2346.8244	8095.225
2349.65943	8082.325
2352.49267	8090.125
2355.32411	8087.725
2358.15376	8111.925
2360.98161	8097.225
2363.80768	8109.225
2366.63195	8105.125
2369.45444	8101.525
2372.27514	8101.625
2375.09405	8070.525
2377.91118	8056.925
2380.72652	8019.725
2383.54009	8003.525
2386.35187	7988.825
2389.16188	7951.925
2391.97011	7921.825
2394.77657	7905.925
2397.58125	7889.225
2400.38416	7877.525
2403.18529	7849.725
2405.98466	7816.825
2408.78226	7824.725
2411.57809	7812.325
2414.37216	7807.025
2417.16446	7801.925
2419.955	7760.925
2422.74378	7768.225
2425.5308	7756.825
2428.31606	7777.825
2431.09956	7739.425
2433.88131	7719.925
2436.6613	7757.925
2439.43954	7745.325
2442.21603	7730.425
2444.99077	7729.725
2447.76377	7742.825
2450.53501	7729.825
2453.30451	7727.725
2456.07226	7715.225
2458.83827	7721.525
2461.60254	7702.525
2464.36507	7702.325
2467.12586	7680.925
2469.88492	7686.825
2472.64224	7701.525
2475.39782	7686.925
2478.15167	7706.425
2480.90379	7690.125
2483.65417	7718.425
2486.40283	7737.225
2489.14976	7717.425
2491.89497	7729.725
2494.63845	7757.325
2497.3802	7720.625
2500.12024	7722.725
2502.85855	7713.225
2505.59514	7708.525
2508.33002	7678.125
2511.06318	7653.625
2513.79462	7643.025
2516.52435	7616.425
2519.25237	7579.225
2521.97867	7568.125
2524.70327	7546.925
2527.42616	7539.225
2530.14734	7548.125
2532.86681	7562.125
2535.58458	7553.625
2538.30065	7553.125
2541.01501	7530.925
2543.72768	7516.825
2546.43864	7493.625
2549.14791	7522.725
2551.85548	7501.525
2554.56136	7475.925
2557.26554	7468.825
2559.96803	7477.825
2562.66883	7437.725
2565.36794	7457.025
2568.06536	7461.825
2570.7611	7429.725
2573.45514	7396.925
2576.14751	7400.525
2578.83819	7393.325
2581.52719	7381.025
2584.21451	7389.725
2586.90015	7377.725
2589.58411	7371.625
2592.2664	7358.525
2594.94701	7338.925
2597.62594	7345.925
2600.30321	7310.825
2602.9788	7336.225
2605.65273	7330.125
2608.32498	7322.925
2610.99557	7319.625
2613.66449	7317.425
2616.33175	7320.825
2618.99734	7305.025
2621.66128	7288.025
2624.32355	7287.425
2626.98416	7275.725
2629.64311	7275.425
2632.30041	7263.225
2634.95605	7260.125
2637.61004	7258.425
2640.26238	7232.825
2642.91306	7213.025
2645.56209	7210.425
2648.20948	7227.525
2650.85521	7231.525
2653.4993	7238.325
2656.14175	7216.025
2658.78255	7233.525
2661.42171	7231.725
2664.05923	7238.425
2666.6951	7225.925
2669.32934	7262.125
2671.96194	7249.125
2674.59291	7231.025
2677.22224	7257.525
2679.84993	7224.425
2682.476	7222.225
2685.10043	7228.825
2687.72324	7219.525
2690.34441	7217.525
2692.96396	7221.625
2695.58188	7226.425
2698.19818	7216.625
2700.81285	7228.325
2703.4259	7216.325
2706.03733	7219.025
2708.64714	7226.825
2711.25533	7244.225
2713.86191	7234.725
2716.46687	7239.725
2719.07021	7259.525
2721.67194	7255.725
2724.27206	7251.225
2726.87057	7271.825
2729.46747	7280.325
2732.06276	7275.825
2734.65644	7248.125
2737.24852	7250.025
2739.83899	7223.525
2742.42786	7226.725
2745.01513	7210.925
2747.60079	7208.225
2750.18486	7183.325
2752.76733	7160.125
2755.3482	7168.425
2757.92747	7148.925
2760.50515	7159.325
2763.08123	7131.825
2765.65573	7133.925
2768.22863	7130.925
2770.79994	7124.925
2773.36967	7118.625
2775.9378	7132.225
2778.50435	7135.725
2781.06932	7125.625
2783.6327	7119.825
2786.1945	7102.925
2788.75471	7130.325
2791.31335	7131.425
2793.87041	7133.225
2796.42589	7106.025
2798.97979	7102.425
2801.53212	7087.125
2804.08288	7066.625
2806.63206	7049.525
2809.17967	7057.325
2811.72571	7049.925
2814.27018	7044.825
2816.81308	7034.325
2819.35442	7007.825
2821.89419	6999.825
2824.43239	7021.725
2826.96904	7038.525
2829.50412	7017.925
2832.03763	6999.025
2834.56959	7019.525
2837.1	7011.725
2839.62884	7063.425
2842.15613	7089.325
2844.68186	7161.625
2847.20604	7209.925
2849.72867	7261.425
2852.24974	7238.625
2854.76927	7252.425
2857.28724	7246.425
2859.80367	7241.625
2862.31855	7204.725
2864.83189	7168.825
2867.34368	7149.325
2869.85393	7183.225
2872.36264	7163.625
2874.8698	7182.125
2877.37543	7156.025
2879.87952	7150.825
2882.38207	7134.125
2884.88308	7127.025
2887.38256	7151.025
2889.88051	7125.325
2892.37692	7144.525
2894.8718	7155.325
2897.36515	7138.325
2899.85698	7128.225
2902.34727	7143.925
2904.83604	7168.925
2907.32328	7173.825
2909.809	7175.425
2912.29319	7155.525
2914.77587	7151.325
2917.25702	7131.525
2919.73665	7133.525
2922.21476	7141.325
2924.69136	7130.525
2927.16644	7129.825
2929.64	7116.625
2932.11205	7115.325
2934.58258	7100.925
2937.05161	7048.325
2939.51912	7041.525
2941.98513	7009.725
2944.44962	6967.925
2946.91261	6900.325
2949.37409	6895.325
2951.83407	6858.825
2954.29254	6843.125
2956.74951	6833.325
2959.20498	6834.025
2961.65895	6819.225
2964.11142	6794.325
2966.56239	6771.625
2969.01186	6766.925
2971.45984	6742.925
2973.90632	6731.025
2976.35131	6696.225
2978.7948	6676.625
2981.23681	6659.425
2983.67732	6654.325
2986.11635	6645.825
2988.55388	6596.425
2990.98993	6578.625
2993.4245	6554.625
2995.85758	6535.225
2998.28917	6512.725
3000.71928	6502.925
3003.14791	6489.125
3005.57506	6482.925
3008.00073	6457.425
3010.42493	6461.625
3012.84764	6448.325
3015.26888	6451.025
3017.68865	6429.625
3020.10694	6422.725
3022.52376	6409.225
3024.9391	6386.625
3027.35298	6383.225
3029.76539	6383.425
3032.17632	6383.125
3034.5858	6366.925
3036.9938	6361.025
3039.40034	6359.125
3041.80542	6340.925
3044.20903	6334.725
3046.61118	6340.125
3049.01187	6327.025
3051.4111	6314.925
3053.80888	6316.425
3056.20519	6275.625
3058.60005	6262.625
3060.99345	6265.625
3063.3854	6219.125
3065.7759	6230.425
3068.16494	6195.625
3070.55254	6174.525
3072.93868	6176.325
3075.32338	6157.725
3077.70662	6135.625
3080.08842	6104.825
3082.46878	6101.025
3084.84769	6071.225
3087.22515	6093.525
3089.60118	6084.825
3091.97576	6080.125
3094.3489	6078.425
3096.72061	6092.925
3099.09087	6077.225
3101.4597	6073.325
3103.82709	6057.825
3106.19305	6042.325
3108.55757	6038.525
3110.92066	6008.925
3113.28232	5999.625
3115.64255	5972.025
3118.00134	5968.925
3120.35871	5974.725
3122.71466	5956.825
3125.06917	5950.425
3127.42226	5937.825
3129.77393	5929.325
3132.12417	5930.725
3134.47299	5911.925
3136.82039	5940.725
3139.16636	5929.225
3141.51092	5923.925
3143.85406	5924.025
3146.19579	5915.725
3148.53609	5916.325
3150.87499	5900.225
3153.21246	5927.825
3155.54853	5913.125
3157.88318	5934.225
3160.21642	5937.925
3162.54826	5926.225
3164.87868	5928.925
3167.2077	5940.825
3169.5353	5953.425
3171.86151	5939.225
3174.18631	5931.425
3176.5097	5924.125
3178.83169	5907.825
3181.15228	5922.025
