Data from AgNPs_FTO_APTES_UA_5uM_CRN_50uM_R6G_10uM_NaF_0.1M_Addition_RamanShift__25__14-11-46-834.txt Node

Date: Mon Feb 07 14:11:46 GMT 2022
User: TCL
Spectrometer: QEP01345
Trigger mode: 4
Integration Time (sec): 7.000000E0
Scans to average: 10
Electric dark correction enabled: true
Nonlinearity correction enabled: false
Boxcar width: 0
XAxis mode: Raman Shifts
Number of Pixels in Spectrum: 1044
>>>>>Begin Spectral Data<<<<<
46.04893	-0.55
50.45542	-0.25
54.85868	-1.85
59.25871	0.45
63.6555	79.35
68.04907	81.15
72.43941	85.85
76.82654	89.65
81.21044	91.75
85.59113	96.95
89.96862	100.45
94.34289	98.65
98.71396	105.25
103.08183	109.25
107.4465	111.85
111.80798	112.65
116.16626	119.05
120.52136	127.75
124.87327	130.25
129.222	139.55
133.56755	150.05
137.90993	164.35
142.24913	182.25
146.58517	208.65
150.91804	241.85
155.24774	294.35
159.57429	369.95
163.89768	480.65
168.21792	654.35
172.53501	883.95
176.84895	1243.85
181.15975	1741.65
185.46741	2456.65
189.77193	3389.85
194.07331	4540.45
198.37157	5854.05
202.6667	7215.15
206.9587	8614.55
211.24758	9937.05
215.53334	11357.15
219.81599	12842.75
224.09553	14528.65
228.37195	16405.85
232.64527	18384.25
236.91549	20483.75
241.18261	22532.65
245.44663	24344.65
249.70755	25915.25
253.96539	27233.95
258.22014	28457.45
262.4718	29561.35
266.72039	30372.55
270.96589	30943.55
275.20832	31120.95
279.44768	31150.75
283.68397	30954.05
287.91719	30868.75
292.14735	31001.05
296.37445	31318.25
300.59849	31829.35
304.81948	32269.45
309.03742	32362.25
313.25231	31939.85
317.46415	30605.55
321.67296	28900.45
325.87872	27494.75
330.08145	26843.65
334.28114	26736.65
338.47781	27039.45
342.67145	27521.05
346.86207	28320.45
351.04966	29390.55
355.23424	30591.05
359.4158	31494.85
363.59435	31982.45
367.76989	32159.45
371.94243	32231.45
376.11196	32221.65
380.27849	32198.55
384.44203	32157.95
388.60257	32042.35
392.76012	32117.85
396.91468	32491.05
401.06626	33184.05
405.21485	33666.95
409.36047	33343.35
413.50311	32215.95
417.64277	31174.15
421.77947	30662.85
425.9132	30540.05
430.04396	30724.35
434.17176	30908.05
438.2966	31284.95
442.41849	31992.15
446.53742	32880.95
450.6534	33805.55
454.76644	34603.75
458.87653	34850.95
462.98368	34775.75
467.08789	34419.35
471.18916	34008.55
475.2875	33656.35
479.38291	33482.45
483.4754	33131.05
487.56496	32593.05
491.6516	31931.85
495.73531	31414.05
499.81612	31191.55
503.89401	31283.15
507.96899	31389.85
512.04106	31477.15
516.11023	31514.25
520.1765	31486.95
524.23987	31186.05
528.30034	30760.65
532.35792	30366.95
536.41261	29913.15
540.46441	29550.25
544.51333	29510.25
548.55936	29944.65
552.60252	30797.95
556.64279	31708.95
560.6802	32205.65
564.71473	32614.35
568.7464	33504.75
572.7752	34336.85
576.80114	34221.35
580.82422	33780.65
584.84444	33668.45
588.86181	33746.05
592.87633	33963.55
596.888	34351.85
600.89682	34875.65
604.9028	36996.85
608.90594	42868.65
612.90624	50403.85
616.90371	48148.85
620.89834	36875.55
624.89015	31714.35
628.87913	30986.75
632.86528	31118.55
636.84862	31172.15
640.82913	30546.95
644.80683	29400.65
648.78172	28610.55
652.75379	28464.05
656.72306	29096.35
660.68952	30064.85
664.65319	30004.05
668.61405	29083.05
672.57211	28670.95
676.52738	28651.65
680.47986	28656.25
684.42955	28536.25
688.37646	28423.95
692.32058	28530.55
696.26192	28762.25
700.20048	29111.65
704.13626	29350.65
708.06928	29349.45
711.99952	29111.35
715.927	29014.05
719.85171	29051.45
723.77365	28956.15
727.69284	28658.25
731.60928	28413.85
735.52295	28335.25
739.43388	28380.65
743.34206	28485.15
747.24749	28649.15
751.15017	28938.45
755.05012	29497.95
758.94733	30658.85
762.8418	33070.45
766.73354	37004.85
770.62254	41014.35
774.50882	42536.55
778.39237	40396.95
782.27321	35918.25
786.15132	32035.35
790.02671	29797.95
793.89938	28746.55
797.76935	28313.85
801.6366	28149.85
805.50115	28095.15
809.36299	27947.15
813.22213	27843.65
817.07857	27825.95
820.93231	27783.15
824.78336	27824.95
828.63172	27778.85
832.47738	27760.75
836.32036	27744.05
840.16066	27753.05
843.99827	27735.85
847.8332	27682.75
851.66546	27480.85
855.49504	27492.95
859.32195	27405.75
863.1462	27302.95
866.96777	27116.05
870.78668	27098.85
874.60293	27112.65
878.41652	27103.05
882.22745	27272.35
886.03573	27327.75
889.84136	27319.35
893.64433	27145.05
897.44466	27084.95
901.24235	27007.85
905.0374	26949.25
908.8298	26955.35
912.61957	26993.05
916.40671	27245.85
920.19121	27599.05
923.97308	27874.95
927.75233	27970.85
931.52895	27948.75
935.30295	27661.05
939.07433	27035.75
942.84309	26505.15
946.60924	26209.65
950.37278	26037.55
954.13371	25857.75
957.89203	25790.95
961.64774	25773.45
965.40086	25718.05
969.15137	25608.75
972.89929	25492.25
976.64461	25394.45
980.38733	25354.65
984.12747	25431.85
987.86502	25639.85
991.59999	25918.55
995.33237	26376.25
999.06217	27088.95
1002.78939	27955.25
1006.51404	28523.65
1010.23611	28907.75
1013.95561	29214.65
1017.67255	29235.25
1021.38692	28883.95
1025.09872	28538.35
1028.80796	28619.25
1032.51465	29241.25
1036.21877	29801.85
1039.92035	29977.85
1043.61937	29717.75
1047.31584	29128.15
1051.00976	28571.15
1054.70114	28356.25
1058.38998	28392.45
1062.07627	28619.65
1065.76003	28873.35
1069.44126	28980.05
1073.11995	29174.25
1076.79611	29404.15
1080.46974	29632.65
1084.14085	30017.65
1087.80943	30561.75
1091.47549	30913.95
1095.13903	30758.85
1098.80005	30180.85
1102.45857	29500.25
1106.11456	29037.45
1109.76805	28964.45
1113.41903	29384.75
1117.06751	29894.25
1120.71348	30637.75
1124.35696	31297.15
1127.99793	31957.05
1131.63641	32038.65
1135.2724	31294.65
1138.90589	30501.55
1142.5369	30041.25
1146.16542	29838.35
1149.79145	29825.85
1153.415	30063.25
1157.03607	30518.85
1160.65467	31330.95
1164.27079	32538.25
1167.88443	34273.55
1171.49561	36758.55
1175.10432	40417.15
1178.71056	45080.35
1182.31434	48899.95
1185.91565	50553.95
1189.51451	50247.15
1193.11091	48290.25
1196.70485	45552.15
1200.29634	43115.85
1203.88538	41245.95
1207.47197	39521.45
1211.05612	38063.05
1214.63782	37063.05
1218.21708	36419.05
1221.79391	36165.75
1225.36829	36040.55
1228.94024	35802.95
1232.50976	35405.35
1236.07685	35112.15
1239.6415	35061.95
1243.20374	35140.15
1246.76355	35383.15
1250.32093	35920.85
1253.8759	36795.05
1257.42845	37906.45
1260.97859	38959.65
1264.52631	39837.55
1268.07163	40851.85
1271.61453	41958.15
1275.15503	42989.25
1278.69312	44016.75
1282.22882	44862.75
1285.76211	45829.35
1289.29301	47120.05
1292.82151	48844.75
1296.34761	50972.55
1299.87133	53751.95
1303.39266	57525.55
1306.9116	62316.65
1310.42815	67615.15
1313.94233	71091.05
1317.45412	71229.75
1320.96354	69150.95
1324.47058	66482.85
1327.97525	64130.05
1331.47754	62445.15
1334.97747	61892.95
1338.47502	62100.15
1341.97022	62678.05
1345.46305	62868.55
1348.95352	62625.65
1352.44163	62778.35
1355.92738	64463.85
1359.41078	69074.45
1362.89183	73923.45
1366.37053	72511.55
1369.84688	64140.15
1373.32088	55539.15
1376.79254	50100.45
1380.26186	47730.65
1383.72883	47126.95
1387.19347	46990.85
1390.65578	46609.95
1394.11575	46578.15
1397.57339	47198.75
1401.0287	48223.35
1404.48168	49355.05
1407.93234	49996.45
1411.38068	49820.65
1414.82669	48579.15
1418.27039	46567.85
1421.71177	44242.85
1425.15083	42331.35
1428.58758	41163.75
1432.02203	40925.95
1435.45416	41421.95
1438.88399	42161.75
1442.31151	42847.15
1445.73673	43629.55
1449.15965	44425.25
1452.58027	45153.55
1455.9986	45551.75
1459.41463	46007.65
1462.82837	46751.85
1466.23982	47590.05
1469.64898	48226.15
1473.05586	48474.75
1476.46045	48445.75
1479.86276	48256.45
1483.26279	48206.65
1486.66054	48403.15
1490.05602	48813.95
1493.44922	49474.85
1496.84016	50527.85
1500.22882	52469.65
1503.61521	55528.55
1506.99934	59411.75
1510.38121	63585.85
1513.76081	65902.25
1517.13816	64510.95
1520.51324	59938.75
1523.88607	55079.15
1527.25665	51729.45
1530.62498	49746.05
1533.99105	48705.35
1537.35488	48043.75
1540.71647	47480.45
1544.07581	46945.85
1547.4329	46201.05
1550.78776	45583.25
1554.14038	45191.35
1557.49077	45262.65
1560.83892	45702.25
1564.18484	46084.25
1567.52853	46501.45
1570.86999	46777.45
1574.20922	47143.65
1577.54624	47390.35
1580.88103	46797.35
1584.2136	45988.05
1587.54395	46352.85
1590.87208	48043.85
1594.19801	50889.55
1597.52172	53900.35
1600.84321	54971.35
1604.16251	52874.55
1607.47959	49013.05
1610.79447	44832.05
1614.10715	40993.45
1617.41763	37816.15
1620.7259	35625.15
1624.03199	34460.25
1627.33587	34300.35
1630.63757	35182.15
1633.93707	37210.45
1637.23439	40285.35
1640.52951	44502.05
1643.82246	49507.05
1647.11321	54325.35
1650.40179	56742.95
1653.68819	54544.55
1656.97241	48005.45
1660.25446	40754.65
1663.53433	35145.45
1666.81203	31553.15
1670.08756	29324.05
1673.36092	27932.05
1676.63211	27054.15
1679.90115	26441.75
1683.16801	25985.35
1686.43272	25627.85
1689.69527	25428.45
1692.95567	25200.15
1696.2139	25066.85
1699.46999	24971.05
1702.72392	24901.05
1705.97571	24827.75
1709.22535	24773.45
1712.47284	24755.15
1715.71819	24723.25
1718.96139	24631.65
1722.20246	24590.75
1725.44139	24493.75
1728.67818	24354.85
1731.91284	24191.25
1735.14537	24061.95
1738.37576	23940.95
1741.60403	23825.25
1744.83017	23809.65
1748.05418	23727.55
1751.27607	23689.25
1754.49584	23672.95
1757.71349	23643.45
1760.92903	23620.75
1764.14244	23605.55
1767.35375	23578.35
1770.56294	23542.05
1773.77002	23483.05
1776.97499	23380.45
1780.17785	23378.95
1783.37861	23305.85
1786.57727	23296.25
1789.77382	23227.35
1792.96828	23260.25
1796.16064	23241.55
1799.3509	23166.35
1802.53907	23119.85
1805.72514	23071.55
1808.90913	22983.55
1812.09102	22936.35
1815.27083	22858.35
1818.44856	22846.25
1821.6242	22815.05
1824.79776	22801.25
1827.96924	22780.95
1831.13864	22779.05
1834.30597	22741.65
1837.47122	22708.35
1840.6344	22719.25
1843.7955	22687.05
1846.95454	22711.45
1850.11151	22697.25
1853.26642	22693.45
1856.41926	22726.55
1859.57004	22726.75
1862.71876	22734.25
1865.86542	22685.85
1869.01003	22710.05
1872.15258	22659.45
1875.29308	22703.35
1878.43152	22664.45
1881.56792	22659.85
1884.70227	22687.15
1887.83457	22658.55
1890.96482	22685.95
1894.09304	22646.15
1897.21921	22650.55
1900.34335	22669.65
1903.46544	22658.85
1906.58551	22693.95
1909.70353	22706.95
1912.81953	22643.15
1915.93349	22616.05
1919.04543	22601.45
1922.15534	22557.55
1925.26322	22506.05
1928.36908	22403.25
1931.47292	22438.15
1934.57473	22289.75
1937.67453	22247.85
1940.77232	22108.95
1943.86808	22059.75
1946.96184	21924.85
1950.05358	21905.15
1953.14331	21850.95
1956.23103	21739.45
1959.31675	21671.35
1962.40046	21622.75
1965.48217	21581.65
1968.56188	21520.85
1971.63959	21432.25
1974.7153	21374.55
1977.78901	21276.95
1980.86073	21222.65
1983.93046	21114.15
1986.99819	21088.05
1990.06394	21017.45
1993.1277	20950.05
1996.18947	20901.75
1999.24925	20868.45
2002.30706	20761.25
2005.36288	20721.35
2008.41672	20660.95
2011.46859	20602.25
2014.51848	20578.65
2017.56639	20505.25
2020.61233	20446.75
2023.6563	20388.65
2026.6983	20317.55
2029.73833	20287.65
2032.7764	20275.55
2035.8125	20222.15
2038.84664	20179.35
2041.87881	20143.15
2044.90903	20094.95
2047.93729	20150.65
2050.96359	20093.55
2053.98794	20033.75
2057.01034	20066.15
2060.03078	20011.55
2063.04927	19989.65
2066.06582	19971.75
2069.08042	19943.85
2072.09307	19914.05
2075.10378	19894.15
2078.11255	19849.25
2081.11938	19830.25
2084.12426	19877.05
2087.12722	19829.85
2090.12824	19803.35
2093.12732	19825.95
2096.12447	19803.45
2099.11969	19823.05
2102.11299	19819.15
2105.10435	19812.85
2108.09379	19835.45
2111.08131	19839.45
2114.0669	19833.25
2117.05057	19861.75
2120.03233	19923.95
2123.01216	19933.95
2125.99008	19933.65
2128.96609	19924.25
2131.94018	19961.25
2134.91236	19936.15
2137.88263	19955.55
2140.851	19976.25
2143.81746	20033.05
2146.78201	19954.85
2149.74466	19939.85
2152.7054	19973.45
2155.66425	19943.15
2158.6212	19942.55
2161.57625	19928.65
2164.52941	19906.25
2167.48067	19905.15
2170.43004	19913.35
2173.37752	19931.05
2176.32311	19893.25
2179.26681	19911.55
2182.20863	19897.65
2185.14856	19908.25
2188.08661	19921.25
2191.02278	19929.15
2193.95707	19914.85
2196.88948	19896.85
2199.82001	19851.35
2202.74867	19849.65
2205.67545	19843.65
2208.60037	19824.35
2211.52341	19785.35
2214.44458	19787.15
2217.36388	19774.35
2220.28132	19735.85
2223.1969	19669.75
2226.11061	19660.25
2229.02246	19633.05
2231.93245	19563.05
2234.84058	19504.45
2237.74686	19482.45
2240.65128	19455.65
2243.55385	19407.85
2246.45456	19427.35
2249.35343	19385.45
2252.25044	19369.15
2255.14561	19327.05
2258.03893	19306.55
2260.93041	19286.25
2263.82004	19281.25
2266.70783	19234.25
2269.59378	19124.75
2272.4779	19095.85
2275.36017	19084.75
2278.24061	19024.65
2281.11922	18983.75
2283.996	18953.25
2286.87094	18964.25
2289.74405	18908.95
2292.61534	18879.15
2295.4848	18841.75
2298.35243	18865.45
2301.21824	18869.95
2304.08223	18874.05
2306.94439	18882.15
2309.80474	18889.75
2312.66327	18914.65
2315.51999	18918.35
2318.37489	18888.95
2321.22797	18840.15
2324.07925	18843.25
2326.92871	18812.75
2329.77637	18778.95
2332.62222	18773.45
2335.46626	18757.95
2338.3085	18759.45
2341.14893	18778.65
2343.98756	18793.55
2346.8244	18806.25
2349.65943	18782.05
2352.49267	18815.35
2355.32411	18837.05
2358.15376	18815.85
2360.98161	18802.85
2363.80768	18803.05
2366.63195	18802.15
2369.45444	18781.55
2372.27514	18731.35
2375.09405	18691.55
2377.91118	18640.75
2380.72652	18586.25
2383.54009	18525.25
2386.35187	18499.15
2389.16188	18418.75
2391.97011	18417.85
2394.77657	18357.85
2397.58125	18359.35
2400.38416	18329.25
2403.18529	18293.55
2405.98466	18224.25
2408.78226	18186.15
2411.57809	18200.75
2414.37216	18134.85
2417.16446	18149.75
2419.955	18101.65
2422.74378	18089.95
2425.5308	18036.65
2428.31606	18064.25
2431.09956	18079.65
2433.88131	18050.15
2436.6613	18061.75
2439.43954	18023.55
2442.21603	18039.35
2444.99077	18034.75
2447.76377	18059.85
2450.53501	18020.85
2453.30451	18012.95
2456.07226	18001.15
2458.83827	17964.75
2461.60254	17977.95
2464.36507	17962.65
2467.12586	17976.25
2469.88492	17970.95
2472.64224	17994.65
2475.39782	18037.85
2478.15167	18022.55
2480.90379	18023.55
2483.65417	18026.75
2486.40283	18053.05
2489.14976	18094.85
2491.89497	18097.35
2494.63845	18127.95
2497.3802	18122.55
2500.12024	18109.05
2502.85855	18105.55
2505.59514	18079.95
2508.33002	18016.85
2511.06318	18004.85
2513.79462	17950.55
2516.52435	17924.25
2519.25237	17927.75
2521.97867	17884.55
2524.70327	17892.55
2527.42616	17853.05
2530.14734	17858.85
2532.86681	17863.95
2535.58458	17852.55
2538.30065	17828.35
2541.01501	17835.45
2543.72768	17839.15
2546.43864	17849.75
2549.14791	17789.55
2551.85548	17791.35
2554.56136	17810.85
2557.26554	17709.35
2559.96803	17725.15
2562.66883	17689.35
2565.36794	17659.05
2568.06536	17660.75
2570.7611	17641.35
2573.45514	17602.05
2576.14751	17582.85
2578.83819	17569.15
2581.52719	17579.75
2584.21451	17569.35
2586.90015	17575.95
2589.58411	17590.35
2592.2664	17589.55
2594.94701	17555.65
2597.62594	17546.95
2600.30321	17544.25
2602.9788	17528.25
2605.65273	17531.05
2608.32498	17553.75
2610.99557	17497.85
2613.66449	17527.55
2616.33175	17550.25
2618.99734	17562.55
2621.66128	17557.15
2624.32355	17551.85
2626.98416	17547.15
2629.64311	17538.65
2632.30041	17524.75
2634.95605	17513.45
2637.61004	17512.25
2640.26238	17469.15
2642.91306	17433.65
2645.56209	17444.35
2648.20948	17431.45
2650.85521	17448.15
2653.4993	17455.15
2656.14175	17405.85
2658.78255	17441.95
2661.42171	17430.95
2664.05923	17471.15
2666.6951	17470.25
2669.32934	17531.65
2671.96194	17538.85
2674.59291	17524.45
2677.22224	17532.75
2679.84993	17529.05
2682.476	17500.65
2685.10043	17500.45
2687.72324	17473.45
2690.34441	17447.15
2692.96396	17443.65
2695.58188	17434.35
2698.19818	17458.45
2700.81285	17444.25
2703.4259	17478.35
2706.03733	17531.15
2708.64714	17484.75
2711.25533	17484.65
2713.86191	17492.05
2716.46687	17526.55
2719.07021	17507.95
2721.67194	17542.25
2724.27206	17523.05
2726.87057	17509.25
2729.46747	17541.95
2732.06276	17587.25
2734.65644	17558.75
2737.24852	17561.05
2739.83899	17504.65
2742.42786	17503.15
2745.01513	17505.55
2747.60079	17491.95
2750.18486	17485.45
2752.76733	17438.45
2755.3482	17450.55
2757.92747	17467.65
2760.50515	17456.85
2763.08123	17479.55
2765.65573	17468.95
2768.22863	17459.85
2770.79994	17424.65
2773.36967	17440.55
2775.9378	17422.55
2778.50435	17385.35
2781.06932	17405.05
2783.6327	17416.85
2786.1945	17414.25
2788.75471	17415.35
2791.31335	17370.15
2793.87041	17338.65
2796.42589	17293.85
2798.97979	17282.95
2801.53212	17274.85
2804.08288	17238.15
2806.63206	17179.15
2809.17967	17203.05
2811.72571	17123.45
2814.27018	17160.05
2816.81308	17130.25
2819.35442	17056.15
2821.89419	17066.95
2824.43239	17133.95
2826.96904	17077.75
2829.50412	17095.15
2832.03763	17046.85
2834.56959	17037.65
2837.1	17008.15
2839.62884	17027.95
2842.15613	17035.95
2844.68186	17067.95
2847.20604	17094.65
2849.72867	17148.65
2852.24974	17089.85
2854.76927	17144.85
2857.28724	17116.75
2859.80367	17132.85
2862.31855	17024.05
2864.83189	17025.35
2867.34368	17001.95
2869.85393	17003.85
2872.36264	16947.65
2874.8698	16973.85
2877.37543	16962.75
2879.87952	16968.55
2882.38207	16976.45
2884.88308	16929.05
2887.38256	16982.95
2889.88051	16941.85
2892.37692	16967.15
2894.8718	16975.75
2897.36515	16979.55
2899.85698	16966.85
2902.34727	17008.75
2904.83604	16988.05
2907.32328	17056.75
2909.809	17067.85
2912.29319	17079.35
2914.77587	17060.05
2917.25702	17092.65
2919.73665	17079.75
2922.21476	17059.55
2924.69136	16991.15
2927.16644	17010.05
2929.64	16961.25
2932.11205	16958.65
2934.58258	16875.65
2937.05161	16916.45
2939.51912	16887.35
2941.98513	16855.95
2944.44962	16809.95
2946.91261	16762.65
2949.37409	16786.35
2951.83407	16736.65
2954.29254	16743.85
2956.74951	16704.75
2959.20498	16684.35
2961.65895	16660.55
2964.11142	16645.25
2966.56239	16611.35
2969.01186	16607.75
2971.45984	16582.15
2973.90632	16548.65
2976.35131	16556.25
2978.7948	16494.95
2981.23681	16470.45
2983.67732	16443.45
2986.11635	16376.95
2988.55388	16357.05
2990.98993	16320.55
2993.4245	16289.75
2995.85758	16234.65
2998.28917	16182.35
3000.71928	16189.65
3003.14791	16159.25
3005.57506	16139.15
3008.00073	16081.55
3010.42493	15998.65
3012.84764	16038.05
3015.26888	16016.35
3017.68865	15967.45
3020.10694	15958.35
3022.52376	15907.75
3024.9391	15903.15
3027.35298	15892.65
3029.76539	15848.35
3032.17632	15823.45
3034.5858	15791.75
3036.9938	15791.15
3039.40034	15814.15
3041.80542	15803.65
3044.20903	15773.05
3046.61118	15732.85
3049.01187	15687.85
3051.4111	15682.25
3053.80888	15674.15
3056.20519	15661.85
3058.60005	15572.55
3060.99345	15587.25
3063.3854	15523.45
3065.7759	15429.35
3068.16494	15430.05
3070.55254	15311.35
3072.93868	15308.05
3075.32338	15281.45
3077.70662	15206.35
3080.08842	15169.85
3082.46878	15165.85
3084.84769	15113.55
3087.22515	15131.35
3089.60118	15100.25
3091.97576	15088.45
3094.3489	15090.65
3096.72061	15061.15
3099.09087	15099.85
3101.4597	15055.55
3103.82709	15063.75
3106.19305	15022.25
3108.55757	15018.25
3110.92066	14989.55
3113.28232	14997.45
3115.64255	14930.85
3118.00134	14910.45
3120.35871	14891.55
3122.71466	14857.75
3125.06917	14831.85
3127.42226	14757.85
3129.77393	14752.55
3132.12417	14699.35
3134.47299	14713.85
3136.82039	14719.55
3139.16636	14704.35
3141.51092	14684.95
3143.85406	14688.35
3146.19579	14644.55
3148.53609	14679.15
3150.87499	14652.65
3153.21246	14668.95
3155.54853	14698.65
3157.88318	14693.65
3160.21642	14712.35
3162.54826	14687.35
3164.87868	14678.15
3167.2077	14682.75
3169.5353	14689.25
3171.86151	14661.65
3174.18631	14660.55
3176.5097	14655.45
3178.83169	14633.65
3181.15228	14636.65
3183.47147	14560.85
3185.78926	14588.85
3188.10565	14543.65
3190.42065	14540.95
3192.73424	14529.15
3195.04645	14520.25
3197.35725	14501.15
3199.66667	14472.45
3201.97469	14516.55
3204.28132	14492.45
3206.58656	14499.35
3208.8904	14528.75
3211.19287	14546.05
3213.49394	14523.55
3215.79363	14530.15
3218.09193	14548.15
3220.38884	14519.45
3222.68438	14548.95
3224.97853	14514.95
3227.2713	14505.25
3229.56269	14488.05
3231.8527	14478.15
3234.14133	14454.35
3236.42858	14387.85
3238.71446	14389.85
