Data from AgNPs_FTO_APTES_UA_5uM_CRN_10uM_R6G_10uM_NaF_0.1M_Addition_RamanShift__11__12-36-06-725.txt Node

Date: Mon Feb 07 12:36:06 GMT 2022
User: TCL
Spectrometer: QEP01345
Trigger mode: 4
Integration Time (sec): 7.000000E0
Scans to average: 10
Electric dark correction enabled: true
Nonlinearity correction enabled: false
Boxcar width: 0
XAxis mode: Raman Shifts
Number of Pixels in Spectrum: 1044
>>>>>Begin Spectral Data<<<<<
46.04893	-0.2875
50.45542	-2.0875
54.85868	-0.0875
59.25871	-0.2875
63.6555	90.8125
68.04907	92.8125
72.43941	101.4125
76.82654	104.1125
81.21044	103.5125
85.59113	108.3125
89.96862	113.3125
94.34289	117.9125
98.71396	119.9125
103.08183	126.2125
107.4465	128.3125
111.80798	132.3125
116.16626	136.5125
120.52136	143.4125
124.87327	151.5125
129.222	164.2125
133.56755	175.0125
137.90993	189.0125
142.24913	209.8125
146.58517	244.4125
150.91804	278.3125
155.24774	345.3125
159.57429	428.7125
163.89768	561.7125
168.21792	749.6125
172.53501	1031.3125
176.84895	1438.2125
181.15975	2029.8125
185.46741	2846.9125
189.77193	3925.0125
194.07331	5240.3125
198.37157	6750.8125
202.6667	8349.0125
206.9587	9900.1125
211.24758	11406.2125
215.53334	12926.2125
219.81599	14544.6125
224.09553	16314.3125
228.37195	18233.6125
232.64527	20358.7125
236.91549	22542.8125
241.18261	24803.3125
245.44663	26898.4125
249.70755	28823.4125
253.96539	30516.9125
258.22014	31937.8125
262.4718	33043.8125
266.72039	33761.5125
270.96589	34231.3125
275.20832	34335.4125
279.44768	34236.9125
283.68397	34024.4125
287.91719	33863.0125
292.14735	33762.9125
296.37445	33735.1125
300.59849	33855.9125
304.81948	34028.7125
309.03742	33998.7125
313.25231	33738.5125
317.46415	33164.2125
321.67296	32412.4125
325.87872	31736.7125
330.08145	31347.8125
334.28114	31208.6125
338.47781	31384.0125
342.67145	31628.7125
346.86207	32025.8125
351.04966	32389.9125
355.23424	32836.9125
359.4158	33191.5125
363.59435	33502.5125
367.76989	33733.5125
371.94243	33728.0125
376.11196	33764.8125
380.27849	33782.2125
384.44203	33766.7125
388.60257	33975.6125
392.76012	34492.2125
396.91468	35062.1125
401.06626	35761.1125
405.21485	36153.3125
409.36047	35989.2125
413.50311	35596.6125
417.64277	35449.7125
421.77947	35676.4125
425.9132	35962.2125
430.04396	36166.7125
434.17176	36292.7125
438.2966	36452.1125
442.41849	36895.5125
446.53742	37701.3125
450.6534	38620.8125
454.76644	39212.7125
458.87653	39507.6125
462.98368	39459.8125
467.08789	39236.9125
471.18916	38808.8125
475.2875	38475.5125
479.38291	38381.9125
483.4754	38341.1125
487.56496	37992.4125
491.6516	37322.3125
495.73531	36532.8125
499.81612	35952.4125
503.89401	35865.3125
507.96899	36046.2125
512.04106	36199.1125
516.11023	36014.0125
520.1765	35388.4125
524.23987	34859.1125
528.30034	34259.9125
532.35792	33814.0125
536.41261	33466.3125
540.46441	33150.0125
544.51333	33185.0125
548.55936	33636.4125
552.60252	34436.0125
556.64279	35297.1125
560.6802	36050.9125
564.71473	36788.3125
568.7464	37904.4125
572.7752	39737.1125
576.80114	41942.4125
580.82422	43943.0125
584.84444	45629.3125
588.86181	47739.4125
592.87633	49589.6125
596.888	49318.3125
600.89682	46519.3125
604.9028	44324.8125
608.90594	44490.9125
612.90624	45041.2125
616.90371	41833.5125
620.89834	36605.5125
624.89015	34487.9125
628.87913	34584.9125
632.86528	35058.0125
636.84862	34932.9125
640.82913	34109.7125
644.80683	33179.7125
648.78172	32572.5125
652.75379	32449.1125
656.72306	32663.7125
660.68952	32953.8125
664.65319	32785.3125
668.61405	32389.4125
672.57211	32347.6125
676.52738	32438.9125
680.47986	32376.8125
684.42955	32155.1125
688.37646	32046.3125
692.32058	32158.6125
696.26192	32668.6125
700.20048	33122.9125
704.13626	33512.3125
708.06928	33819.6125
711.99952	33927.1125
715.927	33738.2125
719.85171	33585.9125
723.77365	33224.3125
727.69284	32604.5125
731.60928	32050.6125
735.52295	31746.9125
739.43388	31599.2125
743.34206	31730.2125
747.24749	31994.2125
751.15017	32478.1125
755.05012	33259.1125
758.94733	34344.4125
762.8418	36002.9125
766.73354	38267.7125
770.62254	39982.5125
774.50882	39760.9125
778.39237	37746.9125
782.27321	35415.8125
786.15132	33648.3125
790.02671	32464.9125
793.89938	31825.1125
797.76935	31475.1125
801.6366	31261.6125
805.50115	31159.6125
809.36299	31031.2125
813.22213	30859.9125
817.07857	30870.6125
820.93231	30787.2125
824.78336	30544.1125
828.63172	30322.1125
832.47738	30091.3125
836.32036	30045.2125
840.16066	30035.5125
843.99827	30071.6125
847.8332	30067.3125
851.66546	30080.1125
855.49504	30176.9125
859.32195	30161.5125
863.1462	29998.4125
866.96777	29943.9125
870.78668	29867.1125
874.60293	29840.7125
878.41652	29823.2125
882.22745	29887.1125
886.03573	29967.9125
889.84136	29976.7125
893.64433	29857.1125
897.44466	29786.8125
901.24235	29745.9125
905.0374	29715.0125
908.8298	29714.1125
912.61957	29881.5125
916.40671	30369.6125
920.19121	31061.2125
923.97308	31598.9125
927.75233	31359.6125
931.52895	30710.6125
935.30295	29913.1125
939.07433	29204.7125
942.84309	28735.9125
946.60924	28463.2125
950.37278	28359.1125
954.13371	28383.7125
957.89203	28399.8125
961.64774	28401.9125
965.40086	28452.4125
969.15137	28417.0125
972.89929	28178.1125
976.64461	28002.7125
980.38733	27834.2125
984.12747	27845.3125
987.86502	27900.1125
991.59999	27971.1125
995.33237	28209.0125
999.06217	28578.5125
1002.78939	29043.4125
1006.51404	29658.1125
1010.23611	30218.9125
1013.95561	30600.3125
1017.67255	30664.9125
1021.38692	30350.3125
1025.09872	29782.6125
1028.80796	29378.7125
1032.51465	29201.3125
1036.21877	29234.9125
1039.92035	29391.8125
1043.61937	29606.8125
1047.31584	29740.2125
1051.00976	29855.3125
1054.70114	30105.1125
1058.38998	30458.1125
1062.07627	30961.5125
1065.76003	31520.8125
1069.44126	32175.5125
1073.11995	32776.0125
1076.79611	33232.0125
1080.46974	33345.4125
1084.14085	33495.6125
1087.80943	33853.6125
1091.47549	34338.4125
1095.13903	34640.7125
1098.80005	34168.8125
1102.45857	33103.7125
1106.11456	32091.7125
1109.76805	31504.0125
1113.41903	31328.1125
1117.06751	31452.8125
1120.71348	31759.8125
1124.35696	32059.8125
1127.99793	32396.2125
1131.63641	32757.1125
1135.2724	32858.8125
1138.90589	33032.9125
1142.5369	33279.6125
1146.16542	33786.9125
1149.79145	34420.1125
1153.415	35098.6125
1157.03607	35897.4125
1160.65467	37167.2125
1164.27079	39182.3125
1167.88443	41459.3125
1171.49561	43648.8125
1175.10432	45992.8125
1178.71056	48932.5125
1182.31434	51640.0125
1185.91565	53084.7125
1189.51451	53153.4125
1193.11091	52405.4125
1196.70485	51002.1125
1200.29634	49270.5125
1203.88538	48251.7125
1207.47197	48291.4125
1211.05612	48677.3125
1214.63782	48176.5125
1218.21708	46501.2125
1221.79391	44281.0125
1225.36829	42404.4125
1228.94024	41297.3125
1232.50976	40574.2125
1236.07685	40030.7125
1239.6415	39758.8125
1243.20374	39753.5125
1246.76355	40107.8125
1250.32093	40801.4125
1253.8759	41724.4125
1257.42845	42956.6125
1260.97859	44278.0125
1264.52631	45801.3125
1268.07163	47261.0125
1271.61453	48742.6125
1275.15503	50334.4125
1278.69312	52337.3125
1282.22882	54510.2125
1285.76211	57093.8125
1289.29301	60028.8125
1292.82151	63418.7125
1296.34761	67397.6125
1299.87133	71718.5125
1303.39266	75424.3125
1306.9116	78079.4125
1310.42815	79392.1125
1313.94233	79445.8125
1317.45412	78826.7125
1320.96354	78240.6125
1324.47058	78290.5125
1327.97525	78660.9125
1331.47754	79062.4125
1334.97747	79064.7125
1338.47502	78386.6125
1341.97022	77535.3125
1345.46305	76405.6125
1348.95352	74873.9125
1352.44163	73326.7125
1355.92738	72511.2125
1359.41078	73024.6125
1362.89183	73724.6125
1366.37053	72704.1125
1369.84688	68573.3125
1373.32088	62491.0125
1376.79254	57966.1125
1380.26186	56639.6125
1383.72883	57399.1125
1387.19347	58156.9125
1390.65578	57995.1125
1394.11575	57924.5125
1397.57339	58451.8125
1401.0287	59461.1125
1404.48168	60039.2125
1407.93234	59554.8125
1411.38068	57498.6125
1414.82669	54638.6125
1418.27039	51559.1125
1421.71177	48699.2125
1425.15083	46700.7125
1428.58758	45825.9125
1432.02203	46310.3125
1435.45416	47903.4125
1438.88399	49703.1125
1442.31151	51188.9125
1445.73673	52156.5125
1449.15965	52991.5125
1452.58027	53539.3125
1455.9986	53806.2125
1459.41463	54322.6125
1462.82837	55080.8125
1466.23982	55946.7125
1469.64898	56719.9125
1473.05586	57049.0125
1476.46045	56886.2125
1479.86276	56299.4125
1483.26279	55660.0125
1486.66054	55420.5125
1490.05602	55562.6125
1493.44922	56110.3125
1496.84016	56862.3125
1500.22882	57691.3125
1503.61521	58627.5125
1506.99934	59516.6125
1510.38121	60167.3125
1513.76081	60466.0125
1517.13816	60453.3125
1520.51324	60603.4125
1523.88607	61079.9125
1527.25665	61974.9125
1530.62498	62419.2125
1533.99105	61996.4125
1537.35488	60566.8125
1540.71647	58463.4125
1544.07581	55946.9125
1547.4329	53474.2125
1550.78776	51660.3125
1554.14038	50441.3125
1557.49077	49722.4125
1560.83892	49294.1125
1564.18484	48980.2125
1567.52853	48913.5125
1570.86999	49495.3125
1574.20922	50875.6125
1577.54624	52366.8125
1580.88103	53509.4125
1584.2136	54758.5125
1587.54395	56974.0125
1590.87208	59955.8125
1594.19801	63105.4125
1597.52172	65367.1125
1600.84321	64821.3125
1604.16251	60777.1125
1607.47959	55359.9125
1610.79447	50216.2125
1614.10715	45633.0125
1617.41763	41946.2125
1620.7259	39406.4125
1624.03199	38153.8125
1627.33587	38245.9125
1630.63757	39756.2125
1633.93707	43080.2125
1637.23439	48656.7125
1640.52951	56639.6125
1643.82246	65937.9125
1647.11321	73358.7125
1650.40179	74578.3125
1653.68819	68716.2125
1656.97241	58586.6125
1660.25446	48568.8125
1663.53433	40925.9125
1666.81203	35799.6125
1670.08756	32583.5125
1673.36092	30597.4125
1676.63211	29312.4125
1679.90115	28415.2125
1683.16801	27783.3125
1686.43272	27276.1125
1689.69527	26903.6125
1692.95567	26616.1125
1696.2139	26413.3125
1699.46999	26246.1125
1702.72392	26058.6125
1705.97571	25952.0125
1709.22535	25846.4125
1712.47284	25762.0125
1715.71819	25667.1125
1718.96139	25553.8125
1722.20246	25430.2125
1725.44139	25280.7125
1728.67818	25121.2125
1731.91284	24903.0125
1735.14537	24731.1125
1738.37576	24544.9125
1741.60403	24468.8125
1744.83017	24348.1125
1748.05418	24266.3125
1751.27607	24152.6125
1754.49584	24093.2125
1757.71349	24037.0125
1760.92903	24026.0125
1764.14244	23973.1125
1767.35375	23956.3125
1770.56294	23866.9125
1773.77002	23814.9125
1776.97499	23712.7125
1780.17785	23667.2125
1783.37861	23655.7125
1786.57727	23559.9125
1789.77382	23466.1125
1792.96828	23424.1125
1796.16064	23383.8125
1799.3509	23312.5125
1802.53907	23272.1125
1805.72514	23108.8125
1808.90913	23113.0125
1812.09102	23030.1125
1815.27083	23000.4125
1818.44856	22912.1125
1821.6242	22856.8125
1824.79776	22813.0125
1827.96924	22832.2125
1831.13864	22799.3125
1834.30597	22764.3125
1837.47122	22816.9125
1840.6344	22779.9125
1843.7955	22777.3125
1846.95454	22780.9125
1850.11151	22790.9125
1853.26642	22745.3125
1856.41926	22713.8125
1859.57004	22696.8125
1862.71876	22661.6125
1865.86542	22571.8125
1869.01003	22531.1125
1872.15258	22421.8125
1875.29308	22405.1125
1878.43152	22364.0125
1881.56792	22353.4125
1884.70227	22300.7125
1887.83457	22315.4125
1890.96482	22205.8125
1894.09304	22175.6125
1897.21921	22161.7125
1900.34335	22150.5125
1903.46544	22062.7125
1906.58551	22054.8125
1909.70353	22013.9125
1912.81953	21945.7125
1915.93349	21876.7125
1919.04543	21855.4125
1922.15534	21787.8125
1925.26322	21750.1125
1928.36908	21636.4125
1931.47292	21585.0125
1934.57473	21479.6125
1937.67453	21417.1125
1940.77232	21338.1125
1943.86808	21305.0125
1946.96184	21234.5125
1950.05358	21157.0125
1953.14331	21129.2125
1956.23103	21043.8125
1959.31675	20989.7125
1962.40046	20890.9125
1965.48217	20819.6125
1968.56188	20729.6125
1971.63959	20693.1125
1974.7153	20594.1125
1977.78901	20482.3125
1980.86073	20454.9125
1983.93046	20346.1125
1986.99819	20276.8125
1990.06394	20223.9125
1993.1277	20182.4125
1996.18947	20121.9125
1999.24925	20059.2125
2002.30706	19992.3125
2005.36288	19919.5125
2008.41672	19832.7125
2011.46859	19779.1125
2014.51848	19716.0125
2017.56639	19650.1125
2020.61233	19575.6125
2023.6563	19523.1125
2026.6983	19458.2125
2029.73833	19410.0125
2032.7764	19311.1125
2035.8125	19318.4125
2038.84664	19260.3125
2041.87881	19226.3125
2044.90903	19151.6125
2047.93729	19131.1125
2050.96359	19101.9125
2053.98794	19076.6125
2057.01034	19057.7125
2060.03078	19045.5125
2063.04927	19006.2125
2066.06582	19040.7125
2069.08042	18980.8125
2072.09307	18959.6125
2075.10378	18946.3125
2078.11255	18936.1125
2081.11938	18919.5125
2084.12426	18898.7125
2087.12722	18866.4125
2090.12824	18850.3125
2093.12732	18830.9125
2096.12447	18864.9125
2099.11969	18853.8125
2102.11299	18842.8125
2105.10435	18836.4125
2108.09379	18823.5125
2111.08131	18805.6125
2114.0669	18818.5125
2117.05057	18840.6125
2120.03233	18834.4125
2123.01216	18821.8125
2125.99008	18844.3125
2128.96609	18832.0125
2131.94018	18834.9125
2134.91236	18823.7125
2137.88263	18829.5125
2140.851	18830.6125
2143.81746	18857.0125
2146.78201	18775.9125
2149.74466	18736.9125
2152.7054	18735.9125
2155.66425	18699.5125
2158.6212	18719.6125
2161.57625	18688.3125
2164.52941	18674.9125
2167.48067	18684.8125
2170.43004	18650.1125
2173.37752	18621.9125
2176.32311	18620.8125
2179.26681	18614.6125
2182.20863	18655.9125
2185.14856	18639.9125
2188.08661	18624.3125
2191.02278	18623.2125
2193.95707	18589.2125
2196.88948	18527.7125
2199.82001	18493.6125
2202.74867	18463.2125
2205.67545	18432.6125
2208.60037	18382.3125
2211.52341	18341.4125
2214.44458	18357.1125
2217.36388	18288.9125
2220.28132	18267.0125
2223.1969	18222.9125
2226.11061	18171.5125
2229.02246	18153.3125
2231.93245	18116.9125
2234.84058	18096.1125
2237.74686	18090.1125
2240.65128	18048.1125
2243.55385	17997.0125
2246.45456	17980.5125
2249.35343	17931.5125
2252.25044	17880.4125
2255.14561	17802.6125
2258.03893	17751.7125
2260.93041	17670.3125
2263.82004	17652.0125
2266.70783	17606.1125
2269.59378	17513.7125
2272.4779	17447.2125
2275.36017	17424.1125
2278.24061	17384.8125
2281.11922	17363.5125
2283.996	17330.5125
2286.87094	17270.6125
2289.74405	17264.6125
2292.61534	17199.5125
2295.4848	17193.8125
2298.35243	17173.7125
2301.21824	17168.2125
2304.08223	17151.4125
2306.94439	17137.3125
2309.80474	17138.4125
2312.66327	17137.2125
2315.51999	17105.7125
2318.37489	17069.8125
2321.22797	17020.5125
2324.07925	16977.6125
2326.92871	16961.9125
2329.77637	16936.5125
2332.62222	16887.4125
2335.46626	16857.7125
2338.3085	16845.2125
2341.14893	16847.6125
2343.98756	16834.8125
2346.8244	16851.0125
2349.65943	16854.1125
2352.49267	16830.2125
2355.32411	16865.4125
2358.15376	16845.5125
2360.98161	16845.2125
2363.80768	16822.3125
2366.63195	16790.4125
2369.45444	16797.0125
2372.27514	16758.4125
2375.09405	16731.8125
2377.91118	16722.4125
2380.72652	16662.2125
2383.54009	16600.5125
2386.35187	16594.4125
2389.16188	16501.2125
2391.97011	16488.1125
2394.77657	16439.3125
2397.58125	16443.5125
2400.38416	16413.1125
2403.18529	16364.5125
2405.98466	16400.7125
2408.78226	16339.1125
2411.57809	16326.7125
2414.37216	16313.9125
2417.16446	16296.0125
2419.955	16282.8125
2422.74378	16280.8125
2425.5308	16212.0125
2428.31606	16210.3125
2431.09956	16214.9125
2433.88131	16202.0125
2436.6613	16207.7125
2439.43954	16171.6125
2442.21603	16137.0125
2444.99077	16129.2125
2447.76377	16154.0125
2450.53501	16139.5125
2453.30451	16093.8125
2456.07226	16074.1125
2458.83827	16066.6125
2461.60254	16083.6125
2464.36507	16064.5125
2467.12586	16020.6125
2469.88492	16061.6125
2472.64224	16073.9125
2475.39782	16072.1125
2478.15167	16067.4125
2480.90379	16030.6125
2483.65417	16039.6125
2486.40283	16010.8125
2489.14976	16054.7125
2491.89497	16034.4125
2494.63845	16058.3125
2497.3802	16040.4125
2500.12024	16036.1125
2502.85855	15998.7125
2505.59514	15988.5125
2508.33002	15989.8125
2511.06318	15942.6125
2513.79462	15937.7125
2516.52435	15949.0125
2519.25237	15956.2125
2521.97867	15956.8125
2524.70327	15891.3125
2527.42616	15912.6125
2530.14734	15884.7125
2532.86681	15890.3125
2535.58458	15883.9125
2538.30065	15861.1125
2541.01501	15835.4125
2543.72768	15819.9125
2546.43864	15832.3125
2549.14791	15797.0125
2551.85548	15782.9125
2554.56136	15742.5125
2557.26554	15741.1125
2559.96803	15735.1125
2562.66883	15695.8125
2565.36794	15675.2125
2568.06536	15664.2125
2570.7611	15649.2125
2573.45514	15665.2125
2576.14751	15598.0125
2578.83819	15576.7125
2581.52719	15588.3125
2584.21451	15588.4125
2586.90015	15571.6125
2589.58411	15599.6125
2592.2664	15570.4125
2594.94701	15532.3125
2597.62594	15538.1125
2600.30321	15512.6125
2602.9788	15531.1125
2605.65273	15523.1125
2608.32498	15531.9125
2610.99557	15523.5125
2613.66449	15547.1125
2616.33175	15513.2125
2618.99734	15522.0125
2621.66128	15484.7125
2624.32355	15480.2125
2626.98416	15449.5125
2629.64311	15443.5125
2632.30041	15453.9125
2634.95605	15413.0125
2637.61004	15418.8125
2640.26238	15398.7125
2642.91306	15405.0125
2645.56209	15373.5125
2648.20948	15393.8125
2650.85521	15444.1125
2653.4993	15474.2125
2656.14175	15442.5125
2658.78255	15449.9125
2661.42171	15466.8125
2664.05923	15476.1125
2666.6951	15427.8125
2669.32934	15496.7125
2671.96194	15505.3125
2674.59291	15465.4125
2677.22224	15481.7125
2679.84993	15503.4125
2682.476	15468.9125
2685.10043	15495.0125
2687.72324	15465.5125
2690.34441	15447.8125
2692.96396	15436.0125
2695.58188	15435.6125
2698.19818	15466.7125
2700.81285	15443.3125
2703.4259	15439.7125
2706.03733	15481.0125
2708.64714	15436.8125
2711.25533	15475.1125
2713.86191	15474.6125
2716.46687	15481.1125
2719.07021	15475.0125
2721.67194	15497.4125
2724.27206	15513.1125
2726.87057	15552.0125
2729.46747	15563.5125
2732.06276	15554.9125
2734.65644	15537.3125
2737.24852	15558.9125
2739.83899	15528.4125
2742.42786	15549.0125
2745.01513	15514.8125
2747.60079	15494.1125
2750.18486	15492.6125
2752.76733	15493.5125
2755.3482	15439.2125
2757.92747	15454.5125
2760.50515	15439.0125
2763.08123	15461.5125
2765.65573	15434.6125
2768.22863	15453.5125
2770.79994	15419.3125
2773.36967	15416.4125
2775.9378	15422.1125
2778.50435	15402.4125
2781.06932	15407.5125
2783.6327	15407.1125
2786.1945	15411.7125
2788.75471	15391.4125
2791.31335	15401.2125
2793.87041	15366.0125
2796.42589	15301.6125
2798.97979	15312.2125
2801.53212	15268.8125
2804.08288	15255.9125
2806.63206	15218.2125
2809.17967	15178.5125
2811.72571	15126.7125
2814.27018	15126.0125
2816.81308	15102.4125
2819.35442	15072.2125
2821.89419	15000.4125
2824.43239	15024.6125
2826.96904	15004.6125
2829.50412	15012.1125
2832.03763	14967.5125
2834.56959	14955.0125
2837.1	14942.3125
2839.62884	14915.6125
2842.15613	14941.6125
2844.68186	14972.2125
2847.20604	14956.0125
2849.72867	14954.0125
2852.24974	14946.8125
2854.76927	14976.1125
2857.28724	14943.8125
2859.80367	14920.4125
2862.31855	14843.2125
2864.83189	14836.0125
2867.34368	14802.1125
2869.85393	14792.0125
2872.36264	14770.8125
2874.8698	14730.3125
2877.37543	14737.9125
2879.87952	14722.2125
2882.38207	14727.3125
2884.88308	14686.7125
2887.38256	14692.8125
2889.88051	14684.7125
2892.37692	14698.1125
2894.8718	14695.6125
2897.36515	14684.3125
2899.85698	14723.3125
2902.34727	14736.5125
2904.83604	14727.3125
2907.32328	14753.1125
2909.809	14760.8125
2912.29319	14746.0125
2914.77587	14760.3125
2917.25702	14762.1125
2919.73665	14737.1125
2922.21476	14709.3125
2924.69136	14775.5125
2927.16644	14756.5125
2929.64	14680.6125
2932.11205	14667.8125
2934.58258	14620.1125
2937.05161	14636.1125
2939.51912	14622.3125
2941.98513	14669.1125
2944.44962	14585.4125
2946.91261	14546.1125
2949.37409	14536.2125
2951.83407	14502.2125
2954.29254	14462.1125
2956.74951	14493.3125
2959.20498	14461.3125
2961.65895	14427.3125
2964.11142	14416.5125
2966.56239	14410.3125
2969.01186	14354.7125
2971.45984	14340.1125
2973.90632	14374.7125
2976.35131	14310.8125
2978.7948	14274.0125
2981.23681	14222.8125
2983.67732	14173.1125
2986.11635	14121.5125
2988.55388	14120.1125
2990.98993	14080.2125
2993.4245	14003.3125
2995.85758	13952.3125
2998.28917	13914.0125
3000.71928	13884.9125
3003.14791	13861.3125
3005.57506	13845.7125
3008.00073	13769.6125
3010.42493	13642.4125
3012.84764	13715.6125
3015.26888	13687.9125
3017.68865	13634.3125
3020.10694	13618.0125
3022.52376	13587.3125
