Data from AgNPs_FTO_APTES_UA_5uM_CRN_0uM_R6G_10uM_NaF_0.1M_Addition_RamanShift__26__10-09-06-554.txt Node

Date: Mon Feb 07 10:09:06 GMT 2022
User: TCL
Spectrometer: QEP01345
Trigger mode: 4
Integration Time (sec): 7.000000E0
Scans to average: 10
Electric dark correction enabled: true
Nonlinearity correction enabled: false
Boxcar width: 0
XAxis mode: Raman Shifts
Number of Pixels in Spectrum: 1044
>>>>>Begin Spectral Data<<<<<
46.04893	-0.8875
50.45542	0.3125
54.85868	-0.2875
59.25871	0.1125
63.6555	62.2125
68.04907	65.0125
72.43941	69.0125
76.82654	72.2125
81.21044	74.3125
85.59113	79.6125
89.96862	84.9125
94.34289	82.3125
98.71396	86.0125
103.08183	90.5125
107.4465	93.4125
111.80798	92.0125
116.16626	99.8125
120.52136	106.4125
124.87327	107.3125
129.222	108.4125
133.56755	120.4125
137.90993	131.8125
142.24913	143.3125
146.58517	163.2125
150.91804	188.1125
155.24774	228.4125
159.57429	293.1125
163.89768	371.8125
168.21792	503.4125
172.53501	675.6125
176.84895	946.0125
181.15975	1329.9125
185.46741	1857.8125
189.77193	2555.4125
194.07331	3400.3125
198.37157	4384.4125
202.6667	5392.9125
206.9587	6404.3125
211.24758	7414.3125
215.53334	8476.2125
219.81599	9656.3125
224.09553	10986.2125
228.37195	12488.5125
232.64527	14082.5125
236.91549	15715.7125
241.18261	17232.7125
245.44663	18488.1125
249.70755	19601.9125
253.96539	20543.5125
258.22014	21388.4125
262.4718	22084.9125
266.72039	22592.5125
270.96589	22963.4125
275.20832	23019.9125
279.44768	22952.7125
283.68397	22864.2125
287.91719	22848.2125
292.14735	22920.8125
296.37445	23184.2125
300.59849	23613.8125
304.81948	24264.4125
309.03742	24662.2125
313.25231	24391.3125
317.46415	23090.8125
321.67296	21182.6125
325.87872	19535.8125
330.08145	18737.5125
334.28114	18582.8125
338.47781	18877.8125
342.67145	19382.6125
346.86207	20144.8125
351.04966	21212.5125
355.23424	22526.0125
359.4158	23563.4125
363.59435	23988.3125
367.76989	23993.8125
371.94243	23865.4125
376.11196	23673.3125
380.27849	23465.3125
384.44203	23112.7125
388.60257	22809.4125
392.76012	22729.7125
396.91468	23067.9125
401.06626	23707.1125
405.21485	24369.5125
409.36047	24078.2125
413.50311	23026.6125
417.64277	22001.7125
421.77947	21503.3125
425.9132	21318.0125
430.04396	21291.5125
434.17176	21148.9125
438.2966	21220.3125
442.41849	21508.2125
446.53742	22079.0125
450.6534	22743.8125
454.76644	23216.1125
458.87653	23375.7125
462.98368	23267.4125
467.08789	23064.9125
471.18916	22724.7125
475.2875	22311.2125
479.38291	22062.7125
483.4754	21812.4125
487.56496	21618.6125
491.6516	21402.0125
495.73531	21228.4125
499.81612	21313.8125
503.89401	21549.2125
507.96899	21708.0125
512.04106	21722.0125
516.11023	21611.9125
520.1765	21373.5125
524.23987	20992.0125
528.30034	20477.9125
532.35792	19920.5125
536.41261	19358.9125
540.46441	18886.5125
544.51333	18704.6125
548.55936	19032.6125
552.60252	19767.6125
556.64279	20600.9125
560.6802	21032.1125
564.71473	21521.4125
568.7464	22821.7125
572.7752	23983.5125
576.80114	23894.3125
580.82422	23368.7125
584.84444	23178.0125
588.86181	22761.0125
592.87633	22257.0125
596.888	22140.3125
600.89682	22814.7125
604.9028	25559.4125
608.90594	32231.4125
612.90624	40642.5125
616.90371	38747.0125
620.89834	26805.2125
624.89015	20908.9125
628.87913	19848.3125
632.86528	20002.2125
636.84862	20285.0125
640.82913	19874.8125
644.80683	18769.0125
648.78172	17884.9125
652.75379	17820.4125
656.72306	18645.4125
660.68952	19750.6125
664.65319	19835.1125
668.61405	18965.6125
672.57211	18457.7125
676.52738	18319.7125
680.47986	18200.4125
684.42955	17917.2125
688.37646	17754.0125
692.32058	17763.0125
696.26192	17992.9125
700.20048	18353.2125
704.13626	18689.7125
708.06928	18865.9125
711.99952	18700.5125
715.927	18479.2125
719.85171	18370.6125
723.77365	18246.3125
727.69284	17893.7125
731.60928	17531.6125
735.52295	17403.2125
739.43388	17474.3125
743.34206	17621.2125
747.24749	17830.7125
751.15017	18180.7125
755.05012	18758.1125
758.94733	19836.3125
762.8418	22312.6125
766.73354	26666.6125
770.62254	31154.1125
774.50882	32779.3125
778.39237	30648.1125
782.27321	26256.3125
786.15132	22125.9125
790.02671	19584.4125
793.89938	18335.3125
797.76935	17773.5125
801.6366	17531.9125
805.50115	17394.5125
809.36299	17201.3125
813.22213	17023.7125
817.07857	16982.1125
820.93231	16939.7125
824.78336	17009.0125
828.63172	17145.5125
832.47738	17168.6125
836.32036	17175.6125
840.16066	17089.9125
843.99827	17063.5125
847.8332	16997.1125
851.66546	16909.8125
855.49504	16919.4125
859.32195	16839.1125
863.1462	16643.2125
866.96777	16491.6125
870.78668	16430.3125
874.60293	16415.2125
878.41652	16400.9125
882.22745	16500.0125
886.03573	16576.9125
889.84136	16552.3125
893.64433	16448.9125
897.44466	16385.9125
901.24235	16378.7125
905.0374	16317.4125
908.8298	16226.6125
912.61957	16273.1125
916.40671	16494.3125
920.19121	16909.6125
923.97308	17316.8125
927.75233	17576.2125
931.52895	17568.2125
935.30295	17205.7125
939.07433	16462.7125
942.84309	15872.1125
946.60924	15517.8125
950.37278	15392.8125
954.13371	15267.8125
957.89203	15147.4125
961.64774	15090.7125
965.40086	15064.3125
969.15137	14984.7125
972.89929	14949.6125
976.64461	14925.8125
980.38733	14976.8125
984.12747	15044.0125
987.86502	15177.9125
991.59999	15379.7125
995.33237	15658.0125
999.06217	16192.3125
1002.78939	17001.7125
1006.51404	17683.0125
1010.23611	18249.8125
1013.95561	18514.7125
1017.67255	18444.5125
1021.38692	18114.9125
1025.09872	17834.7125
1028.80796	17954.4125
1032.51465	18418.4125
1036.21877	18942.9125
1039.92035	19018.5125
1043.61937	18780.8125
1047.31584	18304.2125
1051.00976	17766.7125
1054.70114	17485.3125
1058.38998	17469.8125
1062.07627	17609.6125
1065.76003	17838.6125
1069.44126	18258.1125
1073.11995	18796.7125
1076.79611	19244.1125
1080.46974	19441.9125
1084.14085	19740.5125
1087.80943	20310.0125
1091.47549	20632.6125
1095.13903	20443.4125
1098.80005	19703.3125
1102.45857	18653.2125
1106.11456	17864.8125
1109.76805	17553.6125
1113.41903	17665.6125
1117.06751	18101.3125
1120.71348	18803.5125
1124.35696	19606.7125
1127.99793	20482.5125
1131.63641	20719.9125
1135.2724	20032.8125
1138.90589	19170.5125
1142.5369	18639.8125
1146.16542	18315.3125
1149.79145	18187.2125
1153.415	18221.3125
1157.03607	18513.9125
1160.65467	19052.1125
1164.27079	19967.6125
1167.88443	21453.4125
1171.49561	23792.6125
1175.10432	27441.6125
1178.71056	31939.9125
1182.31434	35505.3125
1185.91565	36932.9125
1189.51451	36555.2125
1193.11091	34653.1125
1196.70485	31947.8125
1200.29634	29422.6125
1203.88538	27287.7125
1207.47197	25195.6125
1211.05612	23569.0125
1214.63782	22715.0125
1218.21708	22524.3125
1221.79391	22632.1125
1225.36829	22705.2125
1228.94024	22492.9125
1232.50976	22099.3125
1236.07685	21799.1125
1239.6415	21797.6125
1243.20374	21839.3125
1246.76355	21969.0125
1250.32093	22289.6125
1253.8759	22974.5125
1257.42845	23947.0125
1260.97859	24999.7125
1264.52631	25991.2125
1268.07163	26979.1125
1271.61453	27999.3125
1275.15503	29029.3125
1278.69312	29798.9125
1282.22882	30371.7125
1285.76211	31071.0125
1289.29301	32158.3125
1292.82151	33482.3125
1296.34761	35118.1125
1299.87133	37352.8125
1303.39266	40647.9125
1306.9116	45161.4125
1310.42815	50281.7125
1313.94233	53943.6125
1317.45412	54180.0125
1320.96354	52107.3125
1324.47058	49646.1125
1327.97525	47402.2125
1331.47754	45805.1125
1334.97747	44734.4125
1338.47502	44203.8125
1341.97022	44063.0125
1345.46305	43896.1125
1348.95352	43777.6125
1352.44163	44109.0125
1355.92738	46128.1125
1359.41078	50728.2125
1362.89183	56378.9125
1366.37053	56633.8125
1369.84688	50196.9125
1373.32088	42468.7125
1376.79254	36874.2125
1380.26186	33685.9125
1383.72883	32168.6125
1387.19347	31344.7125
1390.65578	30686.4125
1394.11575	30262.6125
1397.57339	30398.6125
1401.0287	31073.9125
1404.48168	31826.2125
1407.93234	32385.0125
1411.38068	32366.5125
1414.82669	31536.2125
1418.27039	29983.0125
1421.71177	28188.5125
1425.15083	26681.5125
1428.58758	25715.7125
1432.02203	25379.8125
1435.45416	25622.0125
1438.88399	25943.0125
1442.31151	26331.0125
1445.73673	26732.8125
1449.15965	27322.7125
1452.58027	27760.1125
1455.9986	28020.9125
1459.41463	28450.1125
1462.82837	29036.6125
1466.23982	29843.7125
1469.64898	30614.8125
1473.05586	31132.0125
1476.46045	31327.1125
1479.86276	31543.5125
1483.26279	31881.9125
1486.66054	32385.5125
1490.05602	33156.8125
1493.44922	34279.0125
1496.84016	35948.5125
1500.22882	38642.9125
1503.61521	42262.6125
1506.99934	46709.2125
1510.38121	51297.9125
1513.76081	54029.0125
1517.13816	52747.7125
1520.51324	47988.1125
1523.88607	42545.6125
1527.25665	38395.1125
1530.62498	35792.0125
1533.99105	34169.2125
1537.35488	33063.6125
1540.71647	32340.0125
1544.07581	31707.0125
1547.4329	31114.1125
1550.78776	30550.8125
1554.14038	30217.6125
1557.49077	30355.1125
1560.83892	30831.6125
1564.18484	31577.4125
1567.52853	32203.9125
1570.86999	32517.4125
1574.20922	32815.1125
1577.54624	32764.5125
1580.88103	31516.2125
1584.2136	29745.6125
1587.54395	29141.4125
1590.87208	30149.6125
1594.19801	32584.6125
1597.52172	35640.9125
1600.84321	37192.9125
1604.16251	35719.4125
1607.47959	32549.5125
1610.79447	29035.2125
1614.10715	25831.2125
1617.41763	23215.3125
1620.7259	21529.8125
1624.03199	20641.2125
1627.33587	20520.3125
1630.63757	21080.2125
1633.93707	22345.2125
1637.23439	24490.9125
1640.52951	27602.4125
1643.82246	31772.9125
1647.11321	36427.8125
1650.40179	39924.7125
1653.68819	39466.4125
1656.97241	34581.6125
1660.25446	28101.7125
1663.53433	22898.0125
1666.81203	19520.0125
1670.08756	17561.1125
1673.36092	16373.4125
1676.63211	15705.1125
1679.90115	15194.3125
1683.16801	14832.4125
1686.43272	14568.3125
1689.69527	14367.4125
1692.95567	14202.9125
1696.2139	14142.3125
1699.46999	14064.8125
1702.72392	14011.4125
1705.97571	13982.8125
1709.22535	13911.3125
1712.47284	13890.5125
1715.71819	13886.8125
1718.96139	13862.2125
1722.20246	13811.6125
1725.44139	13685.3125
1728.67818	13614.5125
1731.91284	13483.1125
1735.14537	13352.7125
1738.37576	13238.5125
1741.60403	13202.3125
1744.83017	13104.7125
1748.05418	13059.6125
1751.27607	13044.2125
1754.49584	13010.4125
1757.71349	12980.8125
1760.92903	12950.5125
1764.14244	12933.2125
1767.35375	12935.0125
1770.56294	12882.1125
1773.77002	12803.9125
1776.97499	12827.2125
1780.17785	12760.3125
1783.37861	12711.7125
1786.57727	12696.1125
1789.77382	12680.8125
1792.96828	12636.8125
1796.16064	12644.0125
1799.3509	12601.9125
1802.53907	12571.4125
1805.72514	12514.1125
1808.90913	12471.5125
1812.09102	12407.8125
1815.27083	12403.2125
1818.44856	12369.6125
1821.6242	12355.3125
1824.79776	12356.6125
1827.96924	12300.4125
1831.13864	12266.3125
1834.30597	12294.5125
1837.47122	12309.9125
1840.6344	12292.4125
1843.7955	12278.4125
1846.95454	12248.7125
1850.11151	12285.1125
1853.26642	12219.8125
1856.41926	12232.2125
1859.57004	12252.8125
1862.71876	12258.0125
1865.86542	12251.8125
1869.01003	12217.5125
1872.15258	12232.9125
1875.29308	12200.5125
1878.43152	12177.1125
1881.56792	12203.7125
1884.70227	12180.3125
1887.83457	12149.4125
1890.96482	12181.1125
1894.09304	12159.6125
1897.21921	12177.4125
1900.34335	12161.8125
1903.46544	12168.6125
1906.58551	12167.8125
1909.70353	12181.8125
1912.81953	12186.1125
1915.93349	12190.6125
1919.04543	12168.8125
1922.15534	12131.0125
1925.26322	12138.2125
1928.36908	12068.7125
1931.47292	12030.6125
1934.57473	11971.2125
1937.67453	11928.9125
1940.77232	11895.5125
1943.86808	11819.2125
1946.96184	11812.8125
1950.05358	11721.1125
1953.14331	11711.9125
1956.23103	11674.4125
1959.31675	11637.7125
1962.40046	11575.0125
1965.48217	11565.9125
1968.56188	11556.3125
1971.63959	11502.0125
1974.7153	11474.5125
1977.78901	11458.8125
1980.86073	11423.8125
1983.93046	11359.3125
1986.99819	11309.0125
1990.06394	11264.3125
1993.1277	11204.0125
1996.18947	11177.9125
1999.24925	11163.8125
2002.30706	11132.5125
2005.36288	11089.0125
2008.41672	11053.3125
2011.46859	11026.8125
2014.51848	10990.8125
2017.56639	10976.2125
2020.61233	10947.5125
2023.6563	10914.7125
2026.6983	10893.2125
2029.73833	10846.7125
2032.7764	10862.6125
2035.8125	10840.4125
2038.84664	10796.1125
2041.87881	10807.6125
2044.90903	10806.8125
2047.93729	10759.4125
2050.96359	10762.3125
2053.98794	10756.7125
2057.01034	10745.9125
2060.03078	10746.1125
2063.04927	10695.6125
2066.06582	10673.2125
2069.08042	10659.1125
2072.09307	10668.6125
2075.10378	10655.7125
2078.11255	10607.9125
2081.11938	10623.8125
2084.12426	10603.7125
2087.12722	10604.8125
2090.12824	10593.6125
2093.12732	10606.7125
2096.12447	10577.8125
2099.11969	10566.4125
2102.11299	10580.9125
2105.10435	10592.8125
2108.09379	10573.6125
2111.08131	10560.2125
2114.0669	10604.5125
2117.05057	10586.8125
2120.03233	10587.1125
2123.01216	10601.6125
2125.99008	10653.8125
2128.96609	10631.3125
2131.94018	10656.2125
2134.91236	10642.2125
2137.88263	10654.2125
2140.851	10688.9125
2143.81746	10666.5125
2146.78201	10649.6125
2149.74466	10653.7125
2152.7054	10658.2125
2155.66425	10640.1125
2158.6212	10668.6125
2161.57625	10618.7125
2164.52941	10630.7125
2167.48067	10624.5125
2170.43004	10638.8125
2173.37752	10606.1125
2176.32311	10577.2125
2179.26681	10600.9125
2182.20863	10602.8125
2185.14856	10596.6125
2188.08661	10612.7125
2191.02278	10613.8125
2193.95707	10595.1125
2196.88948	10584.6125
2199.82001	10575.3125
2202.74867	10573.9125
2205.67545	10552.9125
2208.60037	10562.7125
2211.52341	10558.9125
2214.44458	10572.6125
2217.36388	10556.1125
2220.28132	10548.4125
2223.1969	10515.3125
2226.11061	10488.0125
2229.02246	10464.4125
2231.93245	10423.3125
2234.84058	10408.8125
2237.74686	10376.6125
2240.65128	10344.2125
2243.55385	10321.1125
2246.45456	10326.4125
2249.35343	10332.0125
2252.25044	10327.1125
2255.14561	10300.1125
2258.03893	10287.9125
2260.93041	10314.5125
2263.82004	10294.0125
2266.70783	10262.4125
2269.59378	10228.9125
2272.4779	10197.8125
2275.36017	10173.8125
2278.24061	10168.2125
2281.11922	10142.2125
2283.996	10105.2125
2286.87094	10121.2125
2289.74405	10116.8125
2292.61534	10080.5125
2295.4848	10047.4125
2298.35243	10040.4125
2301.21824	10070.4125
2304.08223	10082.5125
2306.94439	10092.3125
2309.80474	10088.1125
2312.66327	10118.7125
2315.51999	10087.0125
2318.37489	10105.5125
2321.22797	10116.2125
2324.07925	10095.3125
2326.92871	10089.8125
2329.77637	10097.9125
2332.62222	10100.6125
2335.46626	10068.5125
2338.3085	10081.7125
2341.14893	10123.6125
2343.98756	10150.7125
2346.8244	10145.7125
2349.65943	10156.7125
2352.49267	10172.8125
2355.32411	10194.4125
2358.15376	10194.8125
2360.98161	10199.9125
2363.80768	10219.7125
2366.63195	10221.3125
2369.45444	10206.1125
2372.27514	10180.8125
2375.09405	10115.3125
2377.91118	10107.2125
2380.72652	10061.3125
2383.54009	10024.6125
2386.35187	9998.6125
2389.16188	9955.9125
2391.97011	9908.8125
2394.77657	9908.0125
2397.58125	9885.8125
2400.38416	9859.8125
2403.18529	9846.6125
2405.98466	9823.2125
2408.78226	9784.0125
2411.57809	9768.3125
2414.37216	9760.8125
2417.16446	9745.9125
2419.955	9716.7125
2422.74378	9729.1125
2425.5308	9678.6125
2428.31606	9693.3125
2431.09956	9702.6125
2433.88131	9702.5125
2436.6613	9699.2125
2439.43954	9706.6125
2442.21603	9717.9125
2444.99077	9693.4125
2447.76377	9690.6125
2450.53501	9711.7125
2453.30451	9701.9125
2456.07226	9697.6125
2458.83827	9718.7125
2461.60254	9720.1125
2464.36507	9717.1125
2467.12586	9709.3125
2469.88492	9698.9125
2472.64224	9688.8125
2475.39782	9720.3125
2478.15167	9736.0125
2480.90379	9730.3125
2483.65417	9769.3125
2486.40283	9778.6125
2489.14976	9822.4125
2491.89497	9838.7125
2494.63845	9878.6125
2497.3802	9854.4125
2500.12024	9852.9125
2502.85855	9832.4125
2505.59514	9790.7125
2508.33002	9760.6125
2511.06318	9774.4125
2513.79462	9757.6125
2516.52435	9711.1125
2519.25237	9699.2125
2521.97867	9680.2125
2524.70327	9673.1125
2527.42616	9648.2125
2530.14734	9639.6125
2532.86681	9647.1125
2535.58458	9665.3125
2538.30065	9652.4125
2541.01501	9620.6125
2543.72768	9630.0125
2546.43864	9614.9125
2549.14791	9625.5125
2551.85548	9599.9125
2554.56136	9589.6125
2557.26554	9590.8125
2559.96803	9585.5125
2562.66883	9605.0125
2565.36794	9593.7125
2568.06536	9578.7125
2570.7611	9554.9125
2573.45514	9548.9125
2576.14751	9539.6125
2578.83819	9539.2125
2581.52719	9538.6125
2584.21451	9542.2125
2586.90015	9538.6125
2589.58411	9540.5125
2592.2664	9545.9125
2594.94701	9529.5125
2597.62594	9552.2125
2600.30321	9535.7125
2602.9788	9539.8125
2605.65273	9519.5125
2608.32498	9536.3125
2610.99557	9545.7125
2613.66449	9550.2125
2616.33175	9557.9125
2618.99734	9570.5125
2621.66128	9595.5125
2624.32355	9590.7125
2626.98416	9593.6125
2629.64311	9573.0125
2632.30041	9564.3125
2634.95605	9535.0125
2637.61004	9553.2125
2640.26238	9538.8125
2642.91306	9517.0125
2645.56209	9514.3125
2648.20948	9498.2125
2650.85521	9510.3125
2653.4993	9487.5125
2656.14175	9468.1125
2658.78255	9490.8125
2661.42171	9498.7125
2664.05923	9510.3125
2666.6951	9528.8125
2669.32934	9538.0125
2671.96194	9554.3125
2674.59291	9555.1125
2677.22224	9550.8125
2679.84993	9582.5125
2682.476	9516.0125
2685.10043	9550.9125
2687.72324	9487.3125
2690.34441	9513.6125
2692.96396	9496.3125
2695.58188	9516.2125
2698.19818	9490.5125
2700.81285	9494.5125
2703.4259	9506.1125
2706.03733	9550.9125
2708.64714	9540.0125
2711.25533	9510.3125
2713.86191	9531.3125
2716.46687	9539.4125
2719.07021	9526.6125
2721.67194	9541.3125
2724.27206	9515.5125
2726.87057	9540.6125
2729.46747	9570.8125
2732.06276	9578.0125
2734.65644	9576.7125
2737.24852	9555.3125
2739.83899	9532.5125
2742.42786	9525.6125
2745.01513	9508.2125
2747.60079	9491.9125
2750.18486	9496.3125
2752.76733	9486.5125
2755.3482	9488.9125
2757.92747	9480.0125
2760.50515	9472.9125
2763.08123	9444.4125
2765.65573	9463.3125
2768.22863	9453.0125
2770.79994	9432.4125
2773.36967	9466.8125
2775.9378	9484.9125
2778.50435	9481.8125
2781.06932	9459.2125
2783.6327	9491.2125
2786.1945	9486.8125
2788.75471	9479.6125
2791.31335	9490.2125
2793.87041	9456.5125
2796.42589	9471.9125
2798.97979	9483.8125
2801.53212	9449.3125
2804.08288	9469.1125
2806.63206	9436.4125
2809.17967	9450.5125
2811.72571	9445.3125
2814.27018	9435.6125
2816.81308	9450.7125
2819.35442	9439.6125
2821.89419	9433.1125
2824.43239	9482.5125
2826.96904	9458.5125
2829.50412	9497.9125
2832.03763	9448.2125
2834.56959	9462.1125
2837.1	9459.2125
2839.62884	9496.1125
2842.15613	9515.6125
2844.68186	9581.6125
2847.20604	9646.5125
2849.72867	9685.5125
2852.24974	9721.5125
2854.76927	9723.8125
2857.28724	9689.0125
2859.80367	9687.1125
2862.31855	9667.7125
2864.83189	9678.6125
2867.34368	9646.4125
2869.85393	9652.7125
2872.36264	9644.6125
2874.8698	9632.6125
2877.37543	9629.7125
2879.87952	9633.0125
2882.38207	9606.4125
2884.88308	9598.9125
2887.38256	9607.3125
2889.88051	9622.2125
2892.37692	9621.0125
2894.8718	9593.1125
2897.36515	9615.9125
2899.85698	9621.1125
2902.34727	9663.9125
2904.83604	9652.9125
2907.32328	9671.4125
2909.809	9673.2125
2912.29319	9686.5125
2914.77587	9699.2125
2917.25702	9693.6125
2919.73665	9658.4125
2922.21476	9665.5125
2924.69136	9643.8125
2927.16644	9635.2125
2929.64	9585.5125
2932.11205	9555.1125
2934.58258	9505.1125
2937.05161	9538.0125
2939.51912	9496.1125
2941.98513	9465.3125
2944.44962	9409.1125
2946.91261	9345.8125
2949.37409	9330.1125
2951.83407	9281.3125
2954.29254	9233.7125
2956.74951	9237.7125
2959.20498	9229.7125
2961.65895	9198.7125
2964.11142	9201.5125
2966.56239	9158.9125
2969.01186	9176.4125
2971.45984	9137.3125
2973.90632	9115.3125
2976.35131	9072.9125
2978.7948	9066.7125
2981.23681	9065.6125
2983.67732	9008.6125
2986.11635	8986.1125
2988.55388	8985.5125
2990.98993	8957.3125
2993.4245	8916.1125
2995.85758	8877.1125
2998.28917	8855.9125
3000.71928	8830.3125
3003.14791	8810.4125
3005.57506	8821.4125
3008.00073	8774.5125
3010.42493	8787.5125
3012.84764	8757.8125
3015.26888	8756.7125
3017.68865	8738.4125
3020.10694	8700.5125
3022.52376	8697.2125
3024.9391	8658.7125
3027.35298	8648.0125
3029.76539	8634.0125
3032.17632	8639.5125
3034.5858	8623.3125
3036.9938	8610.4125
3039.40034	8614.6125
3041.80542	8615.6125
3044.20903	8573.0125
3046.61118	8592.7125
3049.01187	8562.8125
3051.4111	8596.7125
3053.80888	8546.5125
