Data from AgNPs_FTO_APTES_UA_5uM_CRN_2uM_R6G_10uM_NaF_0.1M_Addition_RamanShift__3__11-00-26-614.txt Node

Date: Mon Feb 07 11:00:26 GMT 2022
User: TCL
Spectrometer: QEP01345
Trigger mode: 4
Integration Time (sec): 7.000000E0
Scans to average: 10
Electric dark correction enabled: true
Nonlinearity correction enabled: false
Boxcar width: 0
XAxis mode: Raman Shifts
Number of Pixels in Spectrum: 1044
>>>>>Begin Spectral Data<<<<<
46.04893	-0.1625
50.45542	-0.8625
54.85868	-0.9625
59.25871	-1.1625
63.6555	106.5375
68.04907	112.2375
72.43941	120.5375
76.82654	121.7375
81.21044	125.8375
85.59113	128.1375
89.96862	138.5375
94.34289	141.7375
98.71396	141.9375
103.08183	148.4375
107.4465	152.0375
111.80798	157.1375
116.16626	160.2375
120.52136	167.5375
124.87327	175.8375
129.222	185.9375
133.56755	197.0375
137.90993	215.9375
142.24913	236.5375
146.58517	264.9375
150.91804	313.0375
155.24774	372.2375
159.57429	462.6375
163.89768	597.1375
168.21792	794.0375
172.53501	1084.8375
176.84895	1506.6375
181.15975	2125.2375
185.46741	2964.8375
189.77193	4099.1375
194.07331	5491.4375
198.37157	7029.0375
202.6667	8669.6375
206.9587	10320.7375
211.24758	11929.0375
215.53334	13593.3375
219.81599	15370.7375
224.09553	17354.4375
228.37195	19497.6375
232.64527	21830.1375
236.91549	24213.3375
241.18261	26589.8375
245.44663	28691.2375
249.70755	30611.8375
253.96539	32280.0375
258.22014	33654.6375
262.4718	34845.0375
266.72039	35620.2375
270.96589	36014.1375
275.20832	36019.2375
279.44768	35672.5375
283.68397	35366.2375
287.91719	35073.4375
292.14735	34898.3375
296.37445	34881.2375
300.59849	35007.1375
304.81948	35296.7375
309.03742	35455.1375
313.25231	35311.8375
317.46415	34811.6375
321.67296	34111.8375
325.87872	33420.2375
330.08145	33056.9375
334.28114	33004.5375
338.47781	33145.5375
342.67145	33473.9375
346.86207	34045.4375
351.04966	34744.5375
355.23424	35514.4375
359.4158	36143.4375
363.59435	36707.0375
367.76989	37075.7375
371.94243	37316.7375
376.11196	37479.1375
380.27849	37595.4375
384.44203	37816.5375
388.60257	38207.0375
392.76012	38586.3375
396.91468	39013.7375
401.06626	39737.0375
405.21485	40171.9375
409.36047	40186.6375
413.50311	39967.0375
417.64277	40054.3375
421.77947	40457.3375
425.9132	40764.4375
430.04396	40993.0375
434.17176	41144.8375
438.2966	41268.9375
442.41849	41868.0375
446.53742	43241.7375
450.6534	44869.5375
454.76644	45951.1375
458.87653	45999.0375
462.98368	45273.2375
467.08789	44139.0375
471.18916	43024.3375
475.2875	41916.1375
479.38291	41229.1375
483.4754	40848.8375
487.56496	40596.6375
491.6516	40141.6375
495.73531	39698.1375
499.81612	39563.4375
503.89401	39845.2375
507.96899	39997.8375
512.04106	39758.9375
516.11023	39305.5375
520.1765	38615.4375
524.23987	38258.1375
528.30034	37999.1375
532.35792	37664.3375
536.41261	36992.4375
540.46441	36264.1375
544.51333	36115.5375
548.55936	36423.5375
552.60252	37386.2375
556.64279	38625.8375
560.6802	39608.1375
564.71473	40178.6375
568.7464	40934.8375
572.7752	42418.2375
576.80114	44200.2375
580.82422	46338.3375
584.84444	49326.0375
588.86181	53058.7375
592.87633	55880.3375
596.888	55139.3375
600.89682	51045.9375
604.9028	48970.4375
608.90594	51605.2375
612.90624	55043.7375
616.90371	51461.6375
620.89834	43002.8375
624.89015	39115.2375
628.87913	38610.5375
632.86528	38498.6375
636.84862	37904.8375
640.82913	36881.9375
644.80683	35758.5375
648.78172	35192.3375
652.75379	35367.9375
656.72306	35921.2375
660.68952	36425.1375
664.65319	36102.7375
668.61405	35363.6375
672.57211	35279.8375
676.52738	35551.5375
680.47986	35450.3375
684.42955	34992.7375
688.37646	34801.6375
692.32058	35190.5375
696.26192	36147.6375
700.20048	37082.5375
704.13626	37450.2375
708.06928	37285.4375
711.99952	36967.3375
715.927	37083.3375
719.85171	37517.9375
723.77365	37364.2375
727.69284	36498.5375
731.60928	35678.6375
735.52295	35402.6375
739.43388	35477.7375
743.34206	35661.4375
747.24749	35984.9375
751.15017	36460.8375
755.05012	37187.9375
758.94733	38368.0375
762.8418	40313.4375
766.73354	43124.2375
770.62254	45642.2375
774.50882	45788.1375
778.39237	43543.8375
782.27321	40608.5375
786.15132	38108.2375
790.02671	36591.0375
793.89938	35979.8375
797.76935	35839.5375
801.6366	35868.2375
805.50115	35874.0375
809.36299	35635.4375
813.22213	35218.3375
817.07857	34843.0375
820.93231	34546.5375
824.78336	34293.4375
828.63172	34133.9375
832.47738	34150.1375
836.32036	34331.6375
840.16066	34638.2375
843.99827	34848.4375
847.8332	34745.5375
851.66546	34496.1375
855.49504	34450.6375
859.32195	34397.3375
863.1462	34243.6375
866.96777	34037.3375
870.78668	33946.5375
874.60293	33862.2375
878.41652	33923.5375
882.22745	34087.3375
886.03573	34324.6375
889.84136	34286.3375
893.64433	34000.8375
897.44466	33814.0375
901.24235	33669.8375
905.0374	33586.5375
908.8298	33512.4375
912.61957	33594.5375
916.40671	34027.1375
920.19121	34693.0375
923.97308	35480.4375
927.75233	35913.3375
931.52895	35669.6375
935.30295	34909.7375
939.07433	34068.9375
942.84309	33540.5375
946.60924	33292.0375
950.37278	33272.6375
954.13371	33180.1375
957.89203	33050.5375
961.64774	32949.5375
965.40086	33000.0375
969.15137	32983.3375
972.89929	32866.3375
976.64461	32807.7375
980.38733	32907.4375
984.12747	33100.5375
987.86502	33501.7375
991.59999	34018.2375
995.33237	34840.1375
999.06217	36291.6375
1002.78939	37972.7375
1006.51404	39137.4375
1010.23611	39901.0375
1013.95561	40268.1375
1017.67255	40217.4375
1021.38692	39427.6375
1025.09872	38648.1375
1028.80796	39027.9375
1032.51465	40634.2375
1036.21877	42460.0375
1039.92035	42973.1375
1043.61937	42223.6375
1047.31584	40746.5375
1051.00976	39061.0375
1054.70114	38054.4375
1058.38998	37671.9375
1062.07627	37593.2375
1065.76003	37758.7375
1069.44126	38104.0375
1073.11995	38897.8375
1076.79611	39644.2375
1080.46974	40057.8375
1084.14085	40571.8375
1087.80943	41097.1375
1091.47549	41482.7375
1095.13903	41373.8375
1098.80005	40606.7375
1102.45857	39408.6375
1106.11456	38584.5375
1109.76805	38191.0375
1113.41903	38185.0375
1117.06751	38261.4375
1120.71348	38552.5375
1124.35696	38923.9375
1127.99793	39361.2375
1131.63641	39786.0375
1135.2724	39850.1375
1138.90589	39835.8375
1142.5369	40051.4375
1146.16542	40434.9375
1149.79145	40820.6375
1153.415	41353.8375
1157.03607	42249.9375
1160.65467	44150.8375
1164.27079	47095.6375
1167.88443	50509.6375
1171.49561	53685.5375
1175.10432	57439.4375
1178.71056	62622.6375
1182.31434	67685.6375
1185.91565	69958.1375
1189.51451	68782.7375
1193.11091	65838.6375
1196.70485	62812.8375
1200.29634	60358.1375
1203.88538	59141.0375
1207.47197	58872.0375
1211.05612	58421.1375
1214.63782	57284.5375
1218.21708	55599.3375
1221.79391	54107.4375
1225.36829	53012.4375
1228.94024	51924.2375
1232.50976	50423.4375
1236.07685	49009.0375
1239.6415	48180.1375
1243.20374	48051.2375
1246.76355	48649.0375
1250.32093	49832.5375
1253.8759	51465.6375
1257.42845	53230.3375
1260.97859	55203.9375
1264.52631	57297.5375
1268.07163	59532.4375
1271.61453	61954.4375
1275.15503	64576.6375
1278.69312	67231.2375
1282.22882	70056.5375
1285.76211	73015.2375
1289.29301	76437.8375
1292.82151	80541.3375
1296.34761	85750.4375
1299.87133	92595.1375
1303.39266	100106.4375
1306.9116	106856.2375
1310.42815	111275.6375
1313.94233	112442.7375
1317.45412	110055.0375
1320.96354	105938.8375
1324.47058	102505.9375
1327.97525	100129.8375
1331.47754	98939.6375
1334.97747	97708.6375
1338.47502	95517.5375
1341.97022	92037.9375
1345.46305	88460.1375
1348.95352	86314.1375
1352.44163	87162.4375
1355.92738	91743.6375
1359.41078	98566.3375
1362.89183	103513.7375
1366.37053	102651.9375
1369.84688	94463.3375
1373.32088	82367.3375
1376.79254	73593.7375
1380.26186	70651.2375
1383.72883	71149.4375
1387.19347	71108.8375
1390.65578	69786.0375
1394.11575	69384.2375
1397.57339	70597.7375
1401.0287	72864.7375
1404.48168	74966.9375
1407.93234	75695.3375
1411.38068	74350.4375
1414.82669	71440.1375
1418.27039	67865.5375
1421.71177	64195.4375
1425.15083	61238.4375
1428.58758	59988.3375
1432.02203	61142.9375
1435.45416	63745.8375
1438.88399	66565.0375
1442.31151	68368.7375
1445.73673	69209.4375
1449.15965	69460.8375
1452.58027	68954.6375
1455.9986	67919.3375
1459.41463	67588.4375
1462.82837	68594.2375
1466.23982	70504.7375
1469.64898	72571.3375
1473.05586	73986.8375
1476.46045	74481.7375
1479.86276	74162.3375
1483.26279	73139.8375
1486.66054	72480.6375
1490.05602	72393.9375
1493.44922	72665.6375
1496.84016	72555.9375
1500.22882	72401.8375
1503.61521	72793.8375
1506.99934	73777.4375
1510.38121	74762.3375
1513.76081	74869.0375
1517.13816	73793.4375
1520.51324	72155.1375
1523.88607	71399.2375
1527.25665	71742.8375
1530.62498	72573.2375
1533.99105	72722.7375
1537.35488	71902.7375
1540.71647	70270.0375
1544.07581	68076.0375
1547.4329	65762.8375
1550.78776	63511.5375
1554.14038	61739.3375
1557.49077	60503.9375
1560.83892	59569.9375
1564.18484	58936.4375
1567.52853	58850.7375
1570.86999	59310.5375
1574.20922	60521.2375
1577.54624	61882.9375
1580.88103	62876.6375
1584.2136	64844.1375
1587.54395	69130.9375
1590.87208	75700.3375
1594.19801	83319.2375
1597.52172	89677.5375
1600.84321	90819.5375
1604.16251	84874.6375
1607.47959	74732.9375
1610.79447	64601.0375
1614.10715	56492.8375
1617.41763	50929.1375
1620.7259	47729.2375
1624.03199	46637.1375
1627.33587	47249.1375
1630.63757	49601.5375
1633.93707	53990.5375
1637.23439	61183.0375
1640.52951	71778.5375
1643.82246	84489.8375
1647.11321	94539.2375
1650.40179	94871.0375
1653.68819	84302.8375
1656.97241	69363.2375
1660.25446	56347.5375
1663.53433	47595.9375
1666.81203	42307.7375
1670.08756	39146.0375
1673.36092	37152.4375
1676.63211	35889.3375
1679.90115	35073.6375
1683.16801	34430.6375
1686.43272	33905.1375
1689.69527	33507.1375
1692.95567	33296.5375
1696.2139	33119.3375
1699.46999	32949.0375
1702.72392	32840.2375
1705.97571	32700.3375
1709.22535	32669.9375
1712.47284	32550.7375
1715.71819	32545.3375
1718.96139	32453.5375
1722.20246	32342.6375
1725.44139	32222.6375
1728.67818	31981.3375
1731.91284	31773.8375
1735.14537	31535.6375
1738.37576	31370.4375
1741.60403	31260.7375
1744.83017	31103.1375
1748.05418	31022.2375
1751.27607	30884.9375
1754.49584	30891.8375
1757.71349	30902.2375
1760.92903	30829.5375
1764.14244	30824.7375
1767.35375	30796.1375
1770.56294	30729.3375
1773.77002	30704.5375
1776.97499	30656.2375
1780.17785	30576.3375
1783.37861	30526.7375
1786.57727	30473.3375
1789.77382	30423.9375
1792.96828	30366.2375
1796.16064	30314.7375
1799.3509	30277.5375
1802.53907	30190.3375
1805.72514	30143.9375
1808.90913	30098.2375
1812.09102	30026.4375
1815.27083	29950.5375
1818.44856	29895.2375
1821.6242	29862.8375
1824.79776	29908.1375
1827.96924	29858.9375
1831.13864	29846.0375
1834.30597	29858.9375
1837.47122	29808.5375
1840.6344	29817.7375
1843.7955	29900.7375
1846.95454	29923.9375
1850.11151	29908.6375
1853.26642	29858.6375
1856.41926	29848.4375
1859.57004	29892.6375
1862.71876	29873.6375
1865.86542	29828.1375
1869.01003	29797.9375
1872.15258	29760.6375
1875.29308	29740.5375
1878.43152	29752.1375
1881.56792	29756.0375
1884.70227	29731.3375
1887.83457	29703.7375
1890.96482	29694.8375
1894.09304	29629.1375
1897.21921	29661.6375
1900.34335	29577.7375
1903.46544	29580.7375
1906.58551	29540.2375
1909.70353	29445.8375
1912.81953	29402.3375
1915.93349	29387.8375
1919.04543	29313.2375
1922.15534	29248.4375
1925.26322	29187.5375
1928.36908	29110.0375
1931.47292	29040.2375
1934.57473	28931.2375
1937.67453	28891.6375
1940.77232	28823.3375
1943.86808	28705.9375
1946.96184	28661.9375
1950.05358	28595.4375
1953.14331	28546.8375
1956.23103	28457.1375
1959.31675	28329.9375
1962.40046	28315.3375
1965.48217	28244.3375
1968.56188	28190.5375
1971.63959	28065.3375
1974.7153	27969.1375
1977.78901	27886.8375
1980.86073	27784.8375
1983.93046	27730.0375
1986.99819	27679.1375
1990.06394	27601.2375
1993.1277	27552.9375
1996.18947	27425.1375
1999.24925	27344.7375
2002.30706	27309.8375
2005.36288	27196.8375
2008.41672	27161.2375
2011.46859	27102.9375
2014.51848	27025.7375
2017.56639	27011.4375
2020.61233	26940.7375
2023.6563	26893.8375
2026.6983	26847.7375
2029.73833	26791.2375
2032.7764	26782.5375
2035.8125	26792.5375
2038.84664	26718.9375
2041.87881	26710.0375
2044.90903	26688.7375
2047.93729	26622.1375
2050.96359	26591.3375
2053.98794	26574.3375
2057.01034	26600.0375
2060.03078	26567.6375
2063.04927	26558.7375
2066.06582	26567.3375
2069.08042	26516.1375
2072.09307	26502.3375
2075.10378	26446.3375
2078.11255	26454.7375
2081.11938	26485.7375
2084.12426	26391.2375
2087.12722	26405.3375
2090.12824	26385.8375
2093.12732	26364.4375
2096.12447	26406.2375
2099.11969	26417.0375
2102.11299	26418.1375
2105.10435	26374.3375
2108.09379	26401.0375
2111.08131	26427.7375
2114.0669	26434.9375
2117.05057	26447.3375
2120.03233	26470.0375
2123.01216	26501.5375
2125.99008	26546.0375
2128.96609	26545.0375
2131.94018	26587.5375
2134.91236	26604.2375
2137.88263	26655.2375
2140.851	26618.3375
2143.81746	26653.2375
2146.78201	26632.3375
2149.74466	26644.2375
2152.7054	26605.6375
2155.66425	26622.1375
2158.6212	26597.0375
2161.57625	26578.1375
2164.52941	26597.4375
2167.48067	26551.3375
2170.43004	26619.0375
2173.37752	26583.2375
2176.32311	26663.4375
2179.26681	26581.9375
2182.20863	26591.6375
2185.14856	26648.6375
2188.08661	26651.6375
2191.02278	26725.9375
2193.95707	26679.9375
2196.88948	26691.0375
2199.82001	26671.5375
2202.74867	26621.1375
2205.67545	26603.1375
2208.60037	26610.2375
2211.52341	26569.5375
2214.44458	26619.0375
2217.36388	26598.1375
2220.28132	26530.7375
2223.1969	26494.7375
2226.11061	26481.2375
2229.02246	26472.5375
2231.93245	26417.7375
2234.84058	26388.1375
2237.74686	26320.7375
2240.65128	26322.6375
2243.55385	26296.6375
2246.45456	26245.6375
2249.35343	26160.3375
2252.25044	26137.9375
2255.14561	26084.4375
2258.03893	25998.9375
2260.93041	25949.7375
2263.82004	25902.0375
2266.70783	25830.5375
2269.59378	25724.6375
2272.4779	25706.5375
2275.36017	25640.8375
2278.24061	25630.7375
2281.11922	25578.7375
2283.996	25574.6375
2286.87094	25610.0375
2289.74405	25571.9375
2292.61534	25598.9375
2295.4848	25594.2375
2298.35243	25631.1375
2301.21824	25643.5375
2304.08223	25666.2375
2306.94439	25717.2375
2309.80474	25773.5375
2312.66327	25796.7375
2315.51999	25770.1375
2318.37489	25703.9375
2321.22797	25727.9375
2324.07925	25733.0375
2326.92871	25684.7375
2329.77637	25673.3375
2332.62222	25637.1375
2335.46626	25649.2375
2338.3085	25684.1375
2341.14893	25701.2375
2343.98756	25776.7375
2346.8244	25757.8375
2349.65943	25728.1375
2352.49267	25669.9375
2355.32411	25718.8375
2358.15376	25698.3375
2360.98161	25671.4375
2363.80768	25616.1375
2366.63195	25617.3375
2369.45444	25599.7375
2372.27514	25494.3375
2375.09405	25496.3375
2377.91118	25440.3375
2380.72652	25350.7375
2383.54009	25290.0375
2386.35187	25306.5375
2389.16188	25252.4375
2391.97011	25223.7375
2394.77657	25222.0375
2397.58125	25175.8375
2400.38416	25133.4375
2403.18529	25149.7375
2405.98466	25094.6375
2408.78226	25043.1375
2411.57809	24999.8375
2414.37216	25022.3375
2417.16446	24992.3375
2419.955	24963.6375
2422.74378	24942.9375
2425.5308	24897.1375
2428.31606	24944.0375
2431.09956	24917.2375
2433.88131	24878.3375
2436.6613	24931.4375
2439.43954	24950.4375
2442.21603	24925.2375
2444.99077	24915.6375
2447.76377	24911.8375
2450.53501	24862.4375
2453.30451	24850.9375
2456.07226	24890.5375
2458.83827	24891.4375
2461.60254	24933.7375
2464.36507	24894.4375
2467.12586	24900.0375
2469.88492	24927.2375
2472.64224	24975.8375
2475.39782	25028.0375
2478.15167	25053.3375
2480.90379	25041.8375
2483.65417	25079.4375
2486.40283	25108.5375
2489.14976	25137.3375
2491.89497	25111.6375
2494.63845	25136.3375
2497.3802	25147.0375
2500.12024	25209.2375
2502.85855	25156.6375
2505.59514	25109.5375
2508.33002	25151.1375
2511.06318	25106.1375
2513.79462	25073.5375
2516.52435	25074.7375
2519.25237	25109.6375
2521.97867	25111.1375
2524.70327	25086.3375
2527.42616	25072.8375
2530.14734	25107.6375
2532.86681	25124.2375
2535.58458	25141.7375
2538.30065	25106.1375
2541.01501	25109.2375
2543.72768	25104.5375
2546.43864	25063.9375
2549.14791	25051.6375
2551.85548	25060.1375
2554.56136	25071.6375
2557.26554	25022.0375
2559.96803	25021.2375
2562.66883	25046.6375
2565.36794	25023.5375
2568.06536	25046.8375
2570.7611	25065.9375
2573.45514	25052.4375
2576.14751	25037.6375
2578.83819	25051.6375
2581.52719	25059.4375
2584.21451	25052.2375
2586.90015	25089.9375
2589.58411	25070.1375
2592.2664	25079.2375
2594.94701	25037.4375
2597.62594	25029.6375
2600.30321	25016.4375
2602.9788	24995.6375
2605.65273	25037.4375
2608.32498	25109.0375
2610.99557	25118.8375
2613.66449	25133.6375
2616.33175	25108.8375
2618.99734	25089.5375
2621.66128	25115.2375
2624.32355	25056.0375
2626.98416	25036.4375
2629.64311	25092.8375
2632.30041	25067.0375
2634.95605	25064.6375
2637.61004	24996.1375
2640.26238	25003.9375
2642.91306	24965.4375
2645.56209	24984.7375
2648.20948	24985.9375
2650.85521	25050.3375
2653.4993	25018.8375
2656.14175	25022.1375
2658.78255	25058.2375
2661.42171	25092.0375
2664.05923	25133.3375
2666.6951	25120.6375
2669.32934	25190.2375
2671.96194	25181.0375
2674.59291	25185.1375
2677.22224	25205.4375
2679.84993	25201.1375
2682.476	25147.6375
2685.10043	25174.9375
2687.72324	25094.1375
2690.34441	25066.2375
2692.96396	25125.3375
2695.58188	25139.2375
2698.19818	25082.8375
2700.81285	25095.3375
2703.4259	25137.0375
2706.03733	25138.4375
2708.64714	25142.3375
2711.25533	25180.0375
2713.86191	25139.7375
2716.46687	25192.9375
2719.07021	25199.4375
2721.67194	25292.8375
2724.27206	25275.7375
2726.87057	25310.6375
2729.46747	25340.8375
2732.06276	25356.5375
2734.65644	25385.6375
2737.24852	25356.1375
2739.83899	25338.8375
2742.42786	25339.1375
2745.01513	25323.8375
2747.60079	25369.2375
2750.18486	25340.8375
2752.76733	25352.6375
2755.3482	25329.3375
2757.92747	25364.3375
2760.50515	25319.9375
2763.08123	25338.1375
2765.65573	25322.8375
2768.22863	25335.8375
2770.79994	25317.7375
2773.36967	25382.5375
2775.9378	25412.6375
2778.50435	25398.8375
2781.06932	25415.2375
2783.6327	25438.7375
2786.1945	25435.7375
2788.75471	25470.7375
2791.31335	25403.9375
2793.87041	25395.2375
2796.42589	25330.7375
2798.97979	25331.3375
2801.53212	25281.9375
2804.08288	25280.7375
2806.63206	25192.7375
2809.17967	25181.1375
2811.72571	25134.6375
2814.27018	25079.9375
2816.81308	25043.9375
2819.35442	24963.6375
2821.89419	24959.5375
2824.43239	24989.1375
2826.96904	24960.8375
2829.50412	25006.0375
2832.03763	24902.4375
2834.56959	24923.7375
2837.1	24857.4375
2839.62884	24907.5375
2842.15613	24908.8375
2844.68186	24983.3375
2847.20604	24947.9375
2849.72867	24963.4375
2852.24974	24979.6375
2854.76927	24968.3375
2857.28724	24987.9375
2859.80367	24957.8375
2862.31855	24920.8375
2864.83189	24882.7375
2867.34368	24876.1375
2869.85393	24828.5375
2872.36264	24746.4375
2874.8698	24778.5375
2877.37543	24738.8375
2879.87952	24808.7375
2882.38207	24809.6375
2884.88308	24834.9375
2887.38256	24878.1375
2889.88051	24902.0375
2892.37692	24895.7375
2894.8718	24945.6375
2897.36515	24996.9375
2899.85698	24984.9375
2902.34727	25058.2375
2904.83604	25117.4375
2907.32328	25136.7375
2909.809	25143.3375
2912.29319	25144.9375
2914.77587	25129.0375
2917.25702	25159.8375
2919.73665	25101.4375
2922.21476	25113.6375
2924.69136	25090.0375
2927.16644	25077.9375
2929.64	25043.9375
2932.11205	25019.0375
2934.58258	24940.4375
2937.05161	24961.5375
2939.51912	24971.6375
2941.98513	24907.1375
2944.44962	24895.6375
2946.91261	24834.2375
2949.37409	24881.5375
2951.83407	24860.3375
2954.29254	24780.8375
2956.74951	24795.7375
2959.20498	24818.6375
2961.65895	24781.3375
2964.11142	24723.9375
2966.56239	24673.1375
2969.01186	24679.6375
2971.45984	24618.5375
2973.90632	24633.2375
2976.35131	24529.6375
2978.7948	24468.9375
2981.23681	24444.8375
2983.67732	24439.1375
2986.11635	24390.2375
2988.55388	24297.0375
2990.98993	24243.3375
2993.4245	24134.8375
2995.85758	24108.0375
2998.28917	24055.1375
3000.71928	24033.2375
3003.14791	23984.3375
3005.57506	23987.8375
3008.00073	23913.2375
3010.42493	23868.1375
3012.84764	23862.9375
3015.26888	23871.7375
3017.68865	23785.1375
3020.10694	23771.6375
