Data from AgNPs_FTO_APTES_UA_5uM_CRN_10uM_R6G_10uM_NaF_0.1M_Addition_RamanShift__15__12-40-46-731.txt Node

Date: Mon Feb 07 12:40:46 GMT 2022
User: TCL
Spectrometer: QEP01345
Trigger mode: 4
Integration Time (sec): 7.000000E0
Scans to average: 10
Electric dark correction enabled: true
Nonlinearity correction enabled: false
Boxcar width: 0
XAxis mode: Raman Shifts
Number of Pixels in Spectrum: 1044
>>>>>Begin Spectral Data<<<<<
46.04893	0.3875
50.45542	-2.2125
54.85868	-1.4125
59.25871	0.6875
63.6555	91.5875
68.04907	92.5875
72.43941	99.9875
76.82654	100.4875
81.21044	106.0875
85.59113	108.4875
89.96862	113.3875
94.34289	114.9875
98.71396	120.9875
103.08183	125.2875
107.4465	129.5875
111.80798	135.3875
116.16626	138.8875
120.52136	144.1875
124.87327	150.1875
129.222	159.6875
133.56755	171.5875
137.90993	191.7875
142.24913	208.6875
146.58517	238.5875
150.91804	280.5875
155.24774	344.9875
159.57429	428.7875
163.89768	552.8875
168.21792	744.9875
172.53501	1020.8875
176.84895	1433.8875
181.15975	2009.8875
185.46741	2852.6875
189.77193	3924.3875
194.07331	5251.5875
198.37157	6757.4875
202.6667	8365.5875
206.9587	9934.3875
211.24758	11456.4875
215.53334	13004.4875
219.81599	14661.0875
224.09553	16420.9875
228.37195	18389.7875
232.64527	20527.3875
236.91549	22757.2875
241.18261	25020.1875
245.44663	27184.6875
249.70755	29114.6875
253.96539	30862.3875
258.22014	32270.9875
262.4718	33484.8875
266.72039	34298.4875
270.96589	34864.5875
275.20832	35027.7875
279.44768	34903.9875
283.68397	34771.7875
287.91719	34622.4875
292.14735	34556.2875
296.37445	34518.0875
300.59849	34628.3875
304.81948	34682.9875
309.03742	34559.6875
313.25231	34150.6875
317.46415	33412.7875
321.67296	32433.1875
325.87872	31661.3875
330.08145	31236.2875
334.28114	31209.1875
338.47781	31396.7875
342.67145	31665.7875
346.86207	32045.5875
351.04966	32553.0875
355.23424	33069.2875
359.4158	33526.1875
363.59435	33871.5875
367.76989	34118.5875
371.94243	34222.2875
376.11196	34380.5875
380.27849	34468.3875
384.44203	34579.0875
388.60257	34835.3875
392.76012	35221.2875
396.91468	35672.9875
401.06626	36313.9875
405.21485	36662.3875
409.36047	36494.4875
413.50311	36050.8875
417.64277	35689.0875
421.77947	35706.3875
425.9132	35766.9875
430.04396	35942.9875
434.17176	36091.0875
438.2966	36311.6875
442.41849	36746.4875
446.53742	37489.0875
450.6534	38397.8875
454.76644	39093.9875
458.87653	39455.0875
462.98368	39492.3875
467.08789	39327.7875
471.18916	39038.4875
475.2875	38806.0875
479.38291	38870.1875
483.4754	38725.7875
487.56496	38384.9875
491.6516	37752.9875
495.73531	37053.5875
499.81612	36590.1875
503.89401	36601.3875
507.96899	36755.3875
512.04106	36779.4875
516.11023	36604.1875
520.1765	36197.7875
524.23987	35665.9875
528.30034	35162.1875
532.35792	34748.8875
536.41261	34414.4875
540.46441	34157.3875
544.51333	34272.0875
548.55936	34716.1875
552.60252	35605.3875
556.64279	36455.6875
560.6802	37102.5875
564.71473	37750.2875
568.7464	38507.8875
572.7752	39791.9875
576.80114	41076.6875
580.82422	42134.9875
584.84444	42987.3875
588.86181	43643.4875
592.87633	43819.5875
596.888	43181.7875
600.89682	42164.9875
604.9028	42292.6875
608.90594	44268.1875
612.90624	46363.7875
616.90371	43604.3875
620.89834	37781.1875
624.89015	35173.1875
628.87913	34930.5875
632.86528	35220.9875
636.84862	35248.8875
640.82913	34815.3875
644.80683	34095.1875
648.78172	33527.1875
652.75379	33365.8875
656.72306	33599.1875
660.68952	34012.5875
664.65319	33882.2875
668.61405	33498.8875
672.57211	33429.6875
676.52738	33487.9875
680.47986	33493.8875
684.42955	33289.0875
688.37646	33159.7875
692.32058	33383.8875
696.26192	33684.7875
700.20048	34107.3875
704.13626	34374.3875
708.06928	34513.5875
711.99952	34483.4875
715.927	34372.4875
719.85171	34346.1875
723.77365	34157.2875
727.69284	33706.9875
731.60928	33291.4875
735.52295	33028.7875
739.43388	32965.8875
743.34206	32980.0875
747.24749	33176.9875
751.15017	33551.6875
755.05012	34153.2875
758.94733	35130.7875
762.8418	36775.8875
766.73354	39044.5875
770.62254	41132.4875
774.50882	41321.1875
778.39237	39521.8875
782.27321	37092.6875
786.15132	35128.6875
790.02671	33872.5875
793.89938	33192.0875
797.76935	32827.9875
801.6366	32694.1875
805.50115	32642.1875
809.36299	32453.2875
813.22213	32313.4875
817.07857	32245.1875
820.93231	32224.4875
824.78336	32084.6875
828.63172	31879.3875
832.47738	31723.5875
836.32036	31640.7875
840.16066	31667.2875
843.99827	31733.9875
847.8332	31689.6875
851.66546	31639.5875
855.49504	31661.5875
859.32195	31650.6875
863.1462	31539.1875
866.96777	31490.3875
870.78668	31448.2875
874.60293	31384.6875
878.41652	31384.0875
882.22745	31471.9875
886.03573	31543.1875
889.84136	31568.9875
893.64433	31492.4875
897.44466	31433.5875
901.24235	31358.6875
905.0374	31242.2875
908.8298	31246.7875
912.61957	31311.7875
916.40671	31668.5875
920.19121	32168.8875
923.97308	32458.7875
927.75233	32271.7875
931.52895	31896.4875
935.30295	31362.7875
939.07433	30874.7875
942.84309	30437.8875
946.60924	30206.1875
950.37278	30132.3875
954.13371	30072.0875
957.89203	30094.9875
961.64774	30062.6875
965.40086	30093.3875
969.15137	30040.4875
972.89929	29887.9875
976.64461	29795.1875
980.38733	29697.9875
984.12747	29702.2875
987.86502	29864.0875
991.59999	29979.9875
995.33237	30195.7875
999.06217	30559.4875
1002.78939	31016.3875
1006.51404	31471.7875
1010.23611	31862.1875
1013.95561	32236.4875
1017.67255	32293.0875
1021.38692	32016.0875
1025.09872	31637.1875
1028.80796	31385.2875
1032.51465	31381.0875
1036.21877	31610.7875
1039.92035	31808.9875
1043.61937	31834.5875
1047.31584	31795.5875
1051.00976	31742.9875
1054.70114	31847.8875
1058.38998	32125.4875
1062.07627	32549.7875
1065.76003	33031.7875
1069.44126	33506.3875
1073.11995	33914.2875
1076.79611	34319.5875
1080.46974	34481.6875
1084.14085	34630.3875
1087.80943	34922.2875
1091.47549	35314.3875
1095.13903	35527.7875
1098.80005	35280.8875
1102.45857	34536.3875
1106.11456	33741.3875
1109.76805	33260.9875
1113.41903	33145.7875
1117.06751	33216.6875
1120.71348	33487.8875
1124.35696	33728.7875
1127.99793	34121.7875
1131.63641	34341.3875
1135.2724	34325.6875
1138.90589	34301.5875
1142.5369	34437.5875
1146.16542	34656.3875
1149.79145	35061.6875
1153.415	35577.6875
1157.03607	36283.4875
1160.65467	37301.4875
1164.27079	38926.0875
1167.88443	40911.4875
1171.49561	43126.4875
1175.10432	45590.0875
1178.71056	48695.5875
1182.31434	51651.0875
1185.91565	53387.6875
1189.51451	53808.6875
1193.11091	53188.4875
1196.70485	51670.8875
1200.29634	49815.6875
1203.88538	48456.7875
1207.47197	47818.2875
1211.05612	47420.7875
1214.63782	46655.3875
1218.21708	45257.7875
1221.79391	43660.7875
1225.36829	42363.2875
1228.94024	41467.4875
1232.50976	40773.7875
1236.07685	40447.6875
1239.6415	40263.5875
1243.20374	40255.2875
1246.76355	40594.6875
1250.32093	41180.5875
1253.8759	41967.6875
1257.42845	43041.5875
1260.97859	44202.6875
1264.52631	45405.1875
1268.07163	46661.8875
1271.61453	47831.7875
1275.15503	49144.9875
1278.69312	50591.2875
1282.22882	52028.9875
1285.76211	53872.3875
1289.29301	55944.7875
1292.82151	58546.3875
1296.34761	61725.1875
1299.87133	65297.0875
1303.39266	68640.7875
1306.9116	71486.5875
1310.42815	73362.4875
1313.94233	74122.8875
1317.45412	73889.9875
1320.96354	73641.1875
1324.47058	73676.8875
1327.97525	74007.6875
1331.47754	74273.6875
1334.97747	74424.4875
1338.47502	74324.6875
1341.97022	74148.4875
1345.46305	73516.0875
1348.95352	72370.8875
1352.44163	70935.0875
1355.92738	69855.6875
1359.41078	69851.1875
1362.89183	70269.0875
1366.37053	68880.8875
1369.84688	64684.6875
1373.32088	59360.8875
1376.79254	55527.3875
1380.26186	54182.8875
1383.72883	54454.3875
1387.19347	54945.6875
1390.65578	54888.1875
1394.11575	54888.7875
1397.57339	55255.0875
1401.0287	55938.3875
1404.48168	56439.5875
1407.93234	56170.9875
1411.38068	54725.1875
1414.82669	52470.9875
1418.27039	49920.2875
1421.71177	47470.6875
1425.15083	45650.0875
1428.58758	44809.9875
1432.02203	44971.9875
1435.45416	46118.9875
1438.88399	47583.8875
1442.31151	48851.3875
1445.73673	49740.9875
1449.15965	50543.2875
1452.58027	51169.7875
1455.9986	51566.4875
1459.41463	51968.7875
1462.82837	52574.3875
1466.23982	53207.6875
1469.64898	53723.7875
1473.05586	53862.9875
1476.46045	53700.9875
1479.86276	53195.6875
1483.26279	52568.5875
1486.66054	52419.0875
1490.05602	52584.8875
1493.44922	53060.7875
1496.84016	53936.8875
1500.22882	55115.0875
1503.61521	56774.9875
1506.99934	58497.4875
1510.38121	59795.1875
1513.76081	60139.7875
1517.13816	59476.6875
1520.51324	58390.4875
1523.88607	57558.8875
1527.25665	57291.5875
1530.62498	57376.8875
1533.99105	57161.0875
1537.35488	56425.5875
1540.71647	55133.1875
1544.07581	53306.2875
1547.4329	51538.3875
1550.78776	50194.6875
1554.14038	49261.7875
1557.49077	48841.1875
1560.83892	48627.2875
1564.18484	48544.9875
1567.52853	48661.1875
1570.86999	49111.3875
1574.20922	50158.6875
1577.54624	51197.0875
1580.88103	51912.4875
1584.2136	52546.8875
1587.54395	53919.2875
1590.87208	55996.4875
1594.19801	58377.7875
1597.52172	60418.4875
1600.84321	60347.2875
1604.16251	57559.2875
1607.47959	53435.3875
1610.79447	49364.9875
1614.10715	45524.9875
1617.41763	42127.5875
1620.7259	39680.6875
1624.03199	38263.0875
1627.33587	38068.9875
1630.63757	39060.6875
1633.93707	41510.2875
1637.23439	45600.4875
1640.52951	51354.1875
1643.82246	57996.9875
1647.11321	63322.3875
1650.40179	64642.9875
1653.68819	60941.8875
1656.97241	53798.8875
1660.25446	46133.9875
1663.53433	40082.7875
1666.81203	35751.3875
1670.08756	32991.5875
1673.36092	31202.8875
1676.63211	30042.6875
1679.90115	29261.7875
1683.16801	28632.7875
1686.43272	28235.7875
1689.69527	27909.4875
1692.95567	27660.0875
1696.2139	27456.8875
1699.46999	27296.6875
1702.72392	27141.2875
1705.97571	27061.4875
1709.22535	26970.6875
1712.47284	26855.1875
1715.71819	26840.1875
1718.96139	26708.7875
1722.20246	26635.5875
1725.44139	26520.4875
1728.67818	26318.3875
1731.91284	26151.5875
1735.14537	25991.9875
1738.37576	25856.2875
1741.60403	25735.3875
1744.83017	25669.1875
1748.05418	25597.4875
1751.27607	25499.9875
1754.49584	25459.5875
1757.71349	25454.4875
1760.92903	25378.0875
1764.14244	25329.6875
1767.35375	25311.1875
1770.56294	25224.6875
1773.77002	25140.3875
1776.97499	25113.6875
1780.17785	25031.3875
1783.37861	24998.4875
1786.57727	24935.4875
1789.77382	24865.4875
1792.96828	24836.2875
1796.16064	24787.8875
1799.3509	24703.4875
1802.53907	24647.3875
1805.72514	24568.5875
1808.90913	24497.5875
1812.09102	24436.9875
1815.27083	24422.5875
1818.44856	24278.8875
1821.6242	24253.1875
1824.79776	24264.8875
1827.96924	24257.5875
1831.13864	24196.9875
1834.30597	24263.0875
1837.47122	24239.6875
1840.6344	24228.3875
1843.7955	24230.4875
1846.95454	24192.7875
1850.11151	24203.7875
1853.26642	24163.0875
1856.41926	24145.1875
1859.57004	24126.8875
1862.71876	24089.1875
1865.86542	24008.8875
1869.01003	23920.1875
1872.15258	23893.0875
1875.29308	23828.3875
1878.43152	23845.9875
1881.56792	23815.4875
1884.70227	23726.0875
1887.83457	23693.7875
1890.96482	23673.1875
1894.09304	23597.5875
1897.21921	23579.6875
1900.34335	23525.4875
1903.46544	23478.4875
1906.58551	23485.7875
1909.70353	23426.3875
1912.81953	23349.4875
1915.93349	23319.5875
1919.04543	23291.5875
1922.15534	23168.8875
1925.26322	23158.2875
1928.36908	23058.3875
1931.47292	23048.7875
1934.57473	22932.0875
1937.67453	22841.5875
1940.77232	22774.2875
1943.86808	22757.9875
1946.96184	22670.2875
1950.05358	22623.5875
1953.14331	22540.2875
1956.23103	22491.5875
1959.31675	22387.6875
1962.40046	22321.8875
1965.48217	22257.2875
1968.56188	22192.0875
1971.63959	22139.7875
1974.7153	22071.8875
1977.78901	21981.3875
1980.86073	21857.4875
1983.93046	21743.8875
1986.99819	21757.5875
1990.06394	21695.5875
1993.1277	21626.3875
1996.18947	21591.0875
1999.24925	21513.1875
2002.30706	21425.2875
2005.36288	21348.8875
2008.41672	21294.3875
2011.46859	21204.4875
2014.51848	21172.9875
2017.56639	21095.5875
2020.61233	20970.4875
2023.6563	20938.4875
2026.6983	20868.6875
2029.73833	20831.6875
2032.7764	20741.9875
2035.8125	20728.7875
2038.84664	20663.9875
2041.87881	20635.5875
2044.90903	20580.8875
2047.93729	20515.8875
2050.96359	20538.1875
2053.98794	20440.1875
2057.01034	20453.5875
2060.03078	20432.5875
2063.04927	20462.6875
2066.06582	20433.9875
2069.08042	20449.1875
2072.09307	20386.5875
2075.10378	20359.9875
2078.11255	20348.9875
2081.11938	20335.0875
2084.12426	20285.2875
2087.12722	20291.3875
2090.12824	20238.2875
2093.12732	20251.5875
2096.12447	20274.9875
2099.11969	20266.3875
2102.11299	20287.5875
2105.10435	20237.6875
2108.09379	20270.1875
2111.08131	20258.1875
2114.0669	20274.7875
2117.05057	20297.9875
2120.03233	20266.3875
2123.01216	20307.9875
2125.99008	20325.0875
2128.96609	20329.2875
2131.94018	20308.1875
2134.91236	20345.1875
2137.88263	20331.8875
2140.851	20335.5875
2143.81746	20363.8875
2146.78201	20308.6875
2149.74466	20285.6875
2152.7054	20286.0875
2155.66425	20256.6875
2158.6212	20232.5875
2161.57625	20228.8875
2164.52941	20213.4875
2167.48067	20203.7875
2170.43004	20203.3875
2173.37752	20157.1875
2176.32311	20197.4875
2179.26681	20146.9875
2182.20863	20189.1875
2185.14856	20185.7875
2188.08661	20150.1875
2191.02278	20168.9875
2193.95707	20142.6875
2196.88948	20103.4875
2199.82001	20061.7875
2202.74867	20046.2875
2205.67545	19990.4875
2208.60037	19958.2875
2211.52341	19947.0875
2214.44458	19922.7875
2217.36388	19890.1875
2220.28132	19826.2875
2223.1969	19756.1875
2226.11061	19734.3875
2229.02246	19660.8875
2231.93245	19659.3875
2234.84058	19604.5875
2237.74686	19566.6875
2240.65128	19508.8875
2243.55385	19489.9875
2246.45456	19464.9875
2249.35343	19444.8875
2252.25044	19398.6875
2255.14561	19372.7875
2258.03893	19321.2875
2260.93041	19218.4875
2263.82004	19216.2875
2266.70783	19198.7875
2269.59378	19095.0875
2272.4779	19059.3875
2275.36017	19007.1875
2278.24061	18968.8875
2281.11922	18924.4875
2283.996	18885.4875
2286.87094	18852.1875
2289.74405	18844.4875
2292.61534	18823.0875
2295.4848	18753.1875
2298.35243	18757.8875
2301.21824	18747.7875
2304.08223	18714.9875
2306.94439	18711.4875
2309.80474	18709.2875
2312.66327	18730.1875
2315.51999	18657.0875
2318.37489	18648.3875
2321.22797	18636.6875
2324.07925	18608.0875
2326.92871	18565.9875
2329.77637	18493.2875
2332.62222	18461.0875
2335.46626	18445.9875
2338.3085	18422.7875
2341.14893	18416.2875
2343.98756	18452.9875
2346.8244	18429.0875
2349.65943	18421.0875
2352.49267	18385.4875
2355.32411	18430.0875
2358.15376	18356.6875
2360.98161	18361.6875
2363.80768	18362.4875
2366.63195	18365.7875
2369.45444	18331.3875
2372.27514	18312.3875
2375.09405	18327.0875
2377.91118	18251.3875
2380.72652	18213.3875
2383.54009	18146.8875
2386.35187	18129.2875
2389.16188	18085.9875
2391.97011	18017.9875
2394.77657	18000.1875
2397.58125	17944.1875
2400.38416	17932.5875
2403.18529	17925.1875
2405.98466	17901.9875
2408.78226	17850.4875
2411.57809	17824.2875
2414.37216	17808.3875
2417.16446	17853.8875
2419.955	17793.3875
2422.74378	17778.7875
2425.5308	17718.6875
2428.31606	17738.1875
2431.09956	17727.9875
2433.88131	17677.3875
2436.6613	17702.6875
2439.43954	17705.0875
2442.21603	17655.9875
2444.99077	17602.6875
2447.76377	17621.8875
2450.53501	17625.2875
2453.30451	17638.9875
2456.07226	17576.9875
2458.83827	17557.5875
2461.60254	17587.2875
2464.36507	17526.8875
2467.12586	17513.6875
2469.88492	17526.8875
2472.64224	17530.3875
2475.39782	17558.6875
2478.15167	17522.7875
2480.90379	17522.3875
2483.65417	17519.6875
2486.40283	17554.7875
2489.14976	17522.8875
2491.89497	17498.9875
2494.63845	17509.9875
2497.3802	17505.9875
2500.12024	17507.2875
2502.85855	17478.4875
2505.59514	17460.2875
2508.33002	17451.1875
2511.06318	17405.7875
2513.79462	17422.0875
2516.52435	17413.2875
2519.25237	17420.1875
2521.97867	17392.3875
2524.70327	17360.7875
2527.42616	17338.8875
2530.14734	17344.8875
2532.86681	17315.4875
2535.58458	17317.2875
2538.30065	17320.7875
2541.01501	17282.8875
2543.72768	17284.9875
2546.43864	17269.3875
2549.14791	17197.6875
2551.85548	17218.5875
2554.56136	17155.8875
2557.26554	17122.8875
2559.96803	17116.6875
2562.66883	17093.1875
2565.36794	17034.1875
2568.06536	17043.8875
2570.7611	17038.4875
2573.45514	17013.7875
2576.14751	16962.6875
2578.83819	16933.2875
2581.52719	16971.7875
2584.21451	16914.8875
2586.90015	16953.8875
2589.58411	16904.0875
2592.2664	16902.5875
2594.94701	16867.7875
2597.62594	16838.1875
2600.30321	16795.4875
2602.9788	16829.7875
2605.65273	16795.0875
2608.32498	16809.7875
2610.99557	16802.6875
2613.66449	16796.5875
2616.33175	16780.9875
2618.99734	16783.2875
2621.66128	16730.1875
2624.32355	16730.8875
2626.98416	16723.1875
2629.64311	16735.8875
2632.30041	16720.6875
2634.95605	16702.8875
2637.61004	16690.6875
2640.26238	16662.5875
2642.91306	16635.0875
2645.56209	16623.8875
2648.20948	16651.0875
2650.85521	16664.0875
2653.4993	16654.3875
2656.14175	16639.2875
2658.78255	16649.6875
2661.42171	16656.6875
2664.05923	16672.7875
2666.6951	16668.2875
2669.32934	16698.4875
2671.96194	16684.9875
2674.59291	16701.0875
2677.22224	16687.0875
2679.84993	16707.4875
2682.476	16688.9875
2685.10043	16711.7875
2687.72324	16677.3875
2690.34441	16676.1875
2692.96396	16608.5875
2695.58188	16654.2875
2698.19818	16635.9875
2700.81285	16639.5875
2703.4259	16642.1875
2706.03733	16683.6875
2708.64714	16655.7875
2711.25533	16655.2875
2713.86191	16633.5875
2716.46687	16670.9875
2719.07021	16649.1875
2721.67194	16693.4875
2724.27206	16693.9875
2726.87057	16738.8875
2729.46747	16714.5875
2732.06276	16728.2875
2734.65644	16711.2875
2737.24852	16729.9875
2739.83899	16688.9875
2742.42786	16695.1875
2745.01513	16647.6875
2747.60079	16650.2875
2750.18486	16620.6875
2752.76733	16642.2875
2755.3482	16575.1875
2757.92747	16596.4875
2760.50515	16576.1875
2763.08123	16594.2875
2765.65573	16575.7875
2768.22863	16560.0875
2770.79994	16522.3875
2773.36967	16537.0875
2775.9378	16521.8875
2778.50435	16495.4875
2781.06932	16474.0875
2783.6327	16506.2875
2786.1945	16519.2875
2788.75471	16515.5875
2791.31335	16481.8875
2793.87041	16439.3875
2796.42589	16385.4875
2798.97979	16385.8875
2801.53212	16344.0875
2804.08288	16318.7875
2806.63206	16236.1875
2809.17967	16231.4875
2811.72571	16184.7875
2814.27018	16190.9875
2816.81308	16104.6875
2819.35442	16098.5875
2821.89419	16090.0875
2824.43239	16085.9875
2826.96904	16113.5875
2829.50412	16064.9875
2832.03763	16020.9875
2834.56959	15993.3875
2837.1	15986.5875
2839.62884	15991.2875
2842.15613	15979.8875
2844.68186	16016.2875
2847.20604	16006.8875
2849.72867	16016.7875
2852.24974	15963.2875
2854.76927	15981.6875
2857.28724	15984.0875
2859.80367	15940.3875
2862.31855	15910.3875
2864.83189	15908.8875
2867.34368	15839.7875
2869.85393	15845.5875
2872.36264	15801.6875
2874.8698	15764.2875
2877.37543	15784.3875
2879.87952	15762.3875
2882.38207	15782.5875
2884.88308	15762.6875
2887.38256	15767.4875
2889.88051	15767.8875
2892.37692	15752.4875
2894.8718	15766.0875
2897.36515	15767.6875
2899.85698	15773.3875
2902.34727	15779.3875
2904.83604	15824.7875
2907.32328	15838.6875
2909.809	15839.4875
2912.29319	15858.3875
2914.77587	15827.8875
2917.25702	15843.0875
2919.73665	15810.4875
2922.21476	15813.7875
2924.69136	15807.9875
2927.16644	15799.7875
2929.64	15757.8875
2932.11205	15733.9875
2934.58258	15688.1875
2937.05161	15678.7875
2939.51912	15717.9875
2941.98513	15688.6875
2944.44962	15636.8875
2946.91261	15593.2875
2949.37409	15572.1875
2951.83407	15545.0875
2954.29254	15521.9875
2956.74951	15488.7875
2959.20498	15510.9875
2961.65895	15476.8875
2964.11142	15458.0875
2966.56239	15467.7875
2969.01186	15424.6875
2971.45984	15429.7875
2973.90632	15407.9875
2976.35131	15394.5875
2978.7948	15337.5875
2981.23681	15302.0875
2983.67732	15291.2875
2986.11635	15226.9875
2988.55388	15203.0875
2990.98993	15173.3875
2993.4245	15130.5875
2995.85758	15014.2875
2998.28917	15008.7875
3000.71928	15006.4875
3003.14791	14962.5875
3005.57506	14924.1875
3008.00073	14881.3875
3010.42493	14743.2875
3012.84764	14819.8875
3015.26888	14822.0875
3017.68865	14766.5875
3020.10694	14738.2875
3022.52376	14728.2875
