Data from AgNPs_FTO_APTES_UA_5uM_CRN_10uM_R6G_10uM_NaF_0.1M_Addition_RamanShift__25__12-52-26-744.txt Node

Date: Mon Feb 07 12:52:26 GMT 2022
User: TCL
Spectrometer: QEP01345
Trigger mode: 4
Integration Time (sec): 7.000000E0
Scans to average: 10
Electric dark correction enabled: true
Nonlinearity correction enabled: false
Boxcar width: 0
XAxis mode: Raman Shifts
Number of Pixels in Spectrum: 1044
>>>>>Begin Spectral Data<<<<<
46.04893	-0.175
50.45542	-0.675
54.85868	-0.275
59.25871	0.325
63.6555	88.025
68.04907	91.225
72.43941	96.225
76.82654	97.725
81.21044	102.025
85.59113	106.725
89.96862	110.425
94.34289	108.025
98.71396	114.225
103.08183	123.025
107.4465	123.625
111.80798	122.825
116.16626	132.925
120.52136	139.625
124.87327	150.125
129.222	151.725
133.56755	167.125
137.90993	180.025
142.24913	200.925
146.58517	231.125
150.91804	264.825
155.24774	322.325
159.57429	404.025
163.89768	532.525
168.21792	709.225
172.53501	976.825
176.84895	1353.725
181.15975	1907.825
185.46741	2685.425
189.77193	3690.225
194.07331	4935.025
198.37157	6346.125
202.6667	7829.325
206.9587	9266.225
211.24758	10756.325
215.53334	12242.725
219.81599	13838.525
224.09553	15663.525
228.37195	17725.725
232.64527	19954.125
236.91549	22195.025
241.18261	24364.425
245.44663	26280.025
249.70755	27951.325
253.96539	29374.325
258.22014	30685.325
262.4718	31758.425
266.72039	32645.225
270.96589	33207.725
275.20832	33478.725
279.44768	33483.425
283.68397	33446.325
287.91719	33405.625
292.14735	33621.325
296.37445	33941.125
300.59849	34448.725
304.81948	34938.925
309.03742	35007.725
313.25231	34549.225
317.46415	33123.525
321.67296	31256.025
325.87872	29701.925
330.08145	28896.525
334.28114	28763.225
338.47781	29103.625
342.67145	29687.525
346.86207	30515.225
351.04966	31680.225
355.23424	33000.825
359.4158	33955.925
363.59435	34466.325
367.76989	34586.225
371.94243	34544.125
376.11196	34457.325
380.27849	34468.125
384.44203	34348.125
388.60257	34264.125
392.76012	34354.425
396.91468	34803.425
401.06626	35540.225
405.21485	36122.325
409.36047	35774.025
413.50311	34563.925
417.64277	33464.525
421.77947	33081.725
425.9132	32976.925
430.04396	33142.825
434.17176	33385.625
438.2966	33723.225
442.41849	34364.425
446.53742	35327.625
450.6534	36501.425
454.76644	37227.225
458.87653	37586.125
462.98368	37422.925
467.08789	37049.125
471.18916	36485.425
475.2875	35917.725
479.38291	35656.025
483.4754	35282.325
487.56496	34700.825
491.6516	34028.625
495.73531	33505.725
499.81612	33290.925
503.89401	33416.725
507.96899	33612.625
512.04106	33642.525
516.11023	33616.625
520.1765	33536.625
524.23987	33171.425
528.30034	32663.625
532.35792	32149.325
536.41261	31637.225
540.46441	31201.025
544.51333	31196.925
548.55936	31702.525
552.60252	32714.525
556.64279	33749.325
560.6802	34356.825
564.71473	34823.025
568.7464	35797.725
572.7752	36835.925
576.80114	36861.025
580.82422	36548.625
584.84444	36486.625
588.86181	36446.825
592.87633	36619.625
596.888	37043.125
600.89682	37668.925
604.9028	40055.625
608.90594	46644.125
612.90624	54861.725
616.90371	52097.625
620.89834	39617.025
624.89015	33870.625
628.87913	33130.025
632.86528	33269.925
636.84862	33182.425
640.82913	32396.625
644.80683	31088.225
648.78172	30180.225
652.75379	30055.025
656.72306	30779.525
660.68952	31881.925
664.65319	31817.725
668.61405	30802.625
672.57211	30336.025
676.52738	30265.825
680.47986	30228.725
684.42955	30042.825
688.37646	29981.725
692.32058	30145.725
696.26192	30470.325
700.20048	30856.125
704.13626	31243.825
708.06928	31227.625
711.99952	30939.525
715.927	30826.125
719.85171	30776.525
723.77365	30640.625
727.69284	30261.325
731.60928	29929.225
735.52295	29769.525
739.43388	29826.225
743.34206	29952.025
747.24749	30182.025
751.15017	30581.025
755.05012	31256.625
758.94733	32684.125
762.8418	35459.425
766.73354	40077.125
770.62254	44594.425
774.50882	45999.425
778.39237	43262.325
782.27321	38347.825
786.15132	34069.525
790.02671	31601.225
793.89938	30379.025
797.76935	29891.425
801.6366	29748.225
805.50115	29531.725
809.36299	29399.825
813.22213	29197.025
817.07857	29186.725
820.93231	29149.225
824.78336	29090.425
828.63172	29118.825
832.47738	29129.925
836.32036	29154.725
840.16066	29143.125
843.99827	29201.525
847.8332	29079.825
851.66546	28904.225
855.49504	28832.325
859.32195	28711.025
863.1462	28584.825
866.96777	28427.525
870.78668	28350.725
874.60293	28311.725
878.41652	28329.925
882.22745	28509.825
886.03573	28598.825
889.84136	28557.025
893.64433	28389.925
897.44466	28314.625
901.24235	28224.725
905.0374	28189.125
908.8298	28147.125
912.61957	28198.125
916.40671	28534.525
920.19121	29037.825
923.97308	29432.325
927.75233	29537.225
931.52895	29505.825
935.30295	29075.625
939.07433	28317.225
942.84309	27680.625
946.60924	27295.325
950.37278	27146.825
954.13371	26991.725
957.89203	26846.525
961.64774	26773.625
965.40086	26766.025
969.15137	26657.125
972.89929	26518.925
976.64461	26415.625
980.38733	26438.125
984.12747	26559.825
987.86502	26803.525
991.59999	27197.425
995.33237	27717.825
999.06217	28704.025
1002.78939	29830.825
1006.51404	30566.825
1010.23611	31121.825
1013.95561	31467.225
1017.67255	31529.125
1021.38692	31028.425
1025.09872	30687.925
1028.80796	30807.925
1032.51465	31582.525
1036.21877	32390.325
1039.92035	32558.625
1043.61937	32158.925
1047.31584	31353.525
1051.00976	30546.125
1054.70114	30172.125
1058.38998	30191.625
1062.07627	30468.925
1065.76003	30757.425
1069.44126	30974.725
1073.11995	31277.525
1076.79611	31556.425
1080.46974	31734.925
1084.14085	32237.825
1087.80943	32825.325
1091.47549	33201.725
1095.13903	33013.625
1098.80005	32280.725
1102.45857	31371.225
1106.11456	30764.625
1109.76805	30667.025
1113.41903	31001.625
1117.06751	31626.225
1120.71348	32382.925
1124.35696	33200.725
1127.99793	33903.225
1131.63641	34014.825
1135.2724	33257.125
1138.90589	32472.425
1142.5369	31995.125
1146.16542	31736.525
1149.79145	31769.525
1153.415	32061.025
1157.03607	32651.825
1160.65467	33531.925
1164.27079	35011.125
1167.88443	37036.025
1171.49561	40060.625
1175.10432	44397.625
1178.71056	49849.425
1182.31434	54477.925
1185.91565	56692.225
1189.51451	56644.825
1193.11091	54510.025
1196.70485	51214.925
1200.29634	48147.825
1203.88538	45690.525
1207.47197	43398.825
1211.05612	41498.025
1214.63782	40363.025
1218.21708	39735.225
1221.79391	39645.425
1225.36829	39722.225
1228.94024	39593.025
1232.50976	39222.425
1236.07685	38921.025
1239.6415	38660.425
1243.20374	38545.025
1246.76355	38691.025
1250.32093	39221.025
1253.8759	40290.725
1257.42845	41658.725
1260.97859	43057.525
1264.52631	44272.625
1268.07163	45525.225
1271.61453	46917.925
1275.15503	48366.625
1278.69312	49728.225
1282.22882	50910.425
1285.76211	52078.325
1289.29301	53588.825
1292.82151	55448.325
1296.34761	57799.925
1299.87133	61054.625
1303.39266	65289.025
1306.9116	70956.125
1310.42815	77380.525
1313.94233	81643.825
1317.45412	82156.325
1320.96354	79832.825
1324.47058	76960.425
1327.97525	74121.025
1331.47754	72149.925
1334.97747	71250.625
1338.47502	71225.625
1341.97022	71717.725
1345.46305	71753.825
1348.95352	71366.025
1352.44163	71247.925
1355.92738	72971.225
1359.41078	77944.825
1362.89183	83371.925
1366.37053	81561.225
1369.84688	72462.125
1373.32088	62872.225
1376.79254	56680.025
1380.26186	54032.225
1383.72883	53106.125
1387.19347	52714.025
1390.65578	52134.625
1394.11575	52038.525
1397.57339	52614.025
1401.0287	53825.425
1404.48168	55055.825
1407.93234	55739.825
1411.38068	55537.825
1414.82669	54097.325
1418.27039	51709.225
1421.71177	49114.525
1425.15083	47031.425
1428.58758	45800.925
1432.02203	45529.025
1435.45416	46048.225
1438.88399	46842.325
1442.31151	47595.125
1445.73673	48396.225
1449.15965	49244.625
1452.58027	49989.925
1455.9986	50320.225
1459.41463	50799.925
1462.82837	51596.025
1466.23982	52480.225
1469.64898	53393.925
1473.05586	53726.725
1476.46045	53717.725
1479.86276	53531.025
1483.26279	53546.825
1486.66054	53846.525
1490.05602	54384.025
1493.44922	55242.125
1496.84016	56583.625
1500.22882	58850.725
1503.61521	62195.525
1506.99934	66488.825
1510.38121	71020.325
1513.76081	73619.725
1517.13816	72205.325
1520.51324	67516.225
1523.88607	62290.025
1527.25665	58524.125
1530.62498	56287.225
1533.99105	55079.225
1537.35488	54214.225
1540.71647	53480.425
1544.07581	52623.025
1547.4329	51659.425
1550.78776	50878.425
1554.14038	50323.025
1557.49077	50399.025
1560.83892	50780.525
1564.18484	51305.725
1567.52853	51667.525
1570.86999	51861.425
1574.20922	52215.425
1577.54624	52397.225
1580.88103	51670.725
1584.2136	50898.525
1587.54395	51400.525
1590.87208	53705.325
1594.19801	57113.425
1597.52172	60780.625
1600.84321	61994.825
1604.16251	59273.225
1607.47959	54541.725
1610.79447	49711.025
1614.10715	45150.525
1617.41763	41448.725
1620.7259	38873.325
1624.03199	37535.525
1627.33587	37393.425
1630.63757	38555.025
1633.93707	41055.225
1637.23439	44936.225
1640.52951	49953.725
1643.82246	55597.525
1647.11321	60681.425
1650.40179	62866.125
1653.68819	59949.025
1656.97241	52462.925
1660.25446	44134.825
1663.53433	37796.125
1666.81203	33747.725
1670.08756	31189.625
1673.36092	29637.425
1676.63211	28608.925
1679.90115	27964.125
1683.16801	27413.825
1686.43272	27024.525
1689.69527	26701.425
1692.95567	26529.225
1696.2139	26388.925
1699.46999	26242.325
1702.72392	26141.025
1705.97571	26057.425
1709.22535	25995.225
1712.47284	25991.725
1715.71819	25952.825
1718.96139	25878.825
1722.20246	25828.925
1725.44139	25701.925
1728.67818	25537.025
1731.91284	25350.525
1735.14537	25179.225
1738.37576	25037.925
1741.60403	24987.825
1744.83017	24866.725
1748.05418	24821.025
1751.27607	24711.625
1754.49584	24693.025
1757.71349	24664.225
1760.92903	24663.425
1764.14244	24638.725
1767.35375	24585.725
1770.56294	24572.925
1773.77002	24467.525
1776.97499	24411.425
1780.17785	24363.425
1783.37861	24333.325
1786.57727	24324.525
1789.77382	24240.625
1792.96828	24227.325
1796.16064	24217.725
1799.3509	24187.625
1802.53907	24119.625
1805.72514	24071.125
1808.90913	23989.725
1812.09102	23946.525
1815.27083	23889.525
1818.44856	23855.225
1821.6242	23766.525
1824.79776	23754.425
1827.96924	23766.725
1831.13864	23726.525
1834.30597	23708.825
1837.47122	23719.725
1840.6344	23707.725
1843.7955	23743.325
1846.95454	23708.225
1850.11151	23759.925
1853.26642	23739.825
1856.41926	23766.125
1859.57004	23786.925
1862.71876	23801.725
1865.86542	23815.525
1869.01003	23780.625
1872.15258	23760.425
1875.29308	23808.125
1878.43152	23833.625
1881.56792	23863.625
1884.70227	23859.925
1887.83457	23861.625
1890.96482	23889.625
1894.09304	23887.925
1897.21921	23893.225
1900.34335	23918.125
1903.46544	23964.825
1906.58551	24000.425
1909.70353	23944.625
1912.81953	23964.025
1915.93349	23941.025
1919.04543	23910.825
1922.15534	23855.325
1925.26322	23770.825
1928.36908	23695.925
1931.47292	23595.725
1934.57473	23445.425
1937.67453	23297.525
1940.77232	23202.125
1943.86808	23077.525
1946.96184	22959.525
1950.05358	22882.725
1953.14331	22790.325
1956.23103	22688.725
1959.31675	22588.425
1962.40046	22503.525
1965.48217	22430.425
1968.56188	22378.925
1971.63959	22354.125
1974.7153	22231.525
1977.78901	22184.725
1980.86073	22079.025
1983.93046	21966.425
1986.99819	21947.425
1990.06394	21858.025
1993.1277	21830.225
1996.18947	21739.825
1999.24925	21697.325
2002.30706	21631.025
2005.36288	21547.625
2008.41672	21504.225
2011.46859	21441.625
2014.51848	21367.925
2017.56639	21300.125
2020.61233	21273.925
2023.6563	21225.025
2026.6983	21139.325
2029.73833	21113.325
2032.7764	21052.825
2035.8125	21003.225
2038.84664	20973.425
2041.87881	20962.825
2044.90903	20932.225
2047.93729	20880.125
2050.96359	20876.925
2053.98794	20825.125
2057.01034	20817.025
2060.03078	20781.425
2063.04927	20783.425
2066.06582	20755.625
2069.08042	20757.625
2072.09307	20755.625
2075.10378	20683.825
2078.11255	20671.325
2081.11938	20666.425
2084.12426	20633.825
2087.12722	20625.925
2090.12824	20615.025
2093.12732	20596.025
2096.12447	20589.525
2099.11969	20595.325
2102.11299	20588.525
2105.10435	20619.925
2108.09379	20572.325
2111.08131	20584.525
2114.0669	20611.325
2117.05057	20608.725
2120.03233	20614.525
2123.01216	20639.425
2125.99008	20662.325
2128.96609	20682.425
2131.94018	20727.425
2134.91236	20702.425
2137.88263	20703.525
2140.851	20741.725
2143.81746	20749.625
2146.78201	20727.725
2149.74466	20700.225
2152.7054	20711.025
2155.66425	20666.125
2158.6212	20670.725
2161.57625	20694.425
2164.52941	20680.125
2167.48067	20656.425
2170.43004	20662.325
2173.37752	20626.825
2176.32311	20645.625
2179.26681	20667.925
2182.20863	20666.925
2185.14856	20687.625
2188.08661	20666.225
2191.02278	20676.825
2193.95707	20665.325
2196.88948	20615.125
2199.82001	20650.125
2202.74867	20589.125
2205.67545	20614.825
2208.60037	20557.325
2211.52341	20578.525
2214.44458	20569.225
2217.36388	20553.725
2220.28132	20471.425
2223.1969	20445.525
2226.11061	20383.825
2229.02246	20367.025
2231.93245	20309.025
2234.84058	20273.625
2237.74686	20225.325
2240.65128	20204.725
2243.55385	20164.225
2246.45456	20145.325
2249.35343	20124.325
2252.25044	20101.525
2255.14561	20077.525
2258.03893	20086.125
2260.93041	20019.525
2263.82004	19987.325
2266.70783	19983.025
2269.59378	19877.225
2272.4779	19852.125
2275.36017	19756.125
2278.24061	19776.925
2281.11922	19723.825
2283.996	19695.925
2286.87094	19671.525
2289.74405	19614.825
2292.61534	19608.225
2295.4848	19565.925
2298.35243	19597.725
2301.21824	19603.425
2304.08223	19587.225
2306.94439	19618.725
2309.80474	19617.125
2312.66327	19669.325
2315.51999	19647.925
2318.37489	19627.425
2321.22797	19655.525
2324.07925	19602.625
2326.92871	19600.225
2329.77637	19553.125
2332.62222	19536.125
2335.46626	19546.225
2338.3085	19540.125
2341.14893	19583.925
2343.98756	19612.825
2346.8244	19616.425
2349.65943	19652.325
2352.49267	19638.825
2355.32411	19659.225
2358.15376	19625.725
2360.98161	19639.425
2363.80768	19630.325
2366.63195	19600.125
2369.45444	19589.725
2372.27514	19567.125
2375.09405	19519.125
2377.91118	19435.725
2380.72652	19348.125
2383.54009	19328.825
2386.35187	19310.725
2389.16188	19247.425
2391.97011	19187.925
2394.77657	19160.825
2397.58125	19149.225
2400.38416	19092.825
2403.18529	19060.925
2405.98466	19054.825
2408.78226	18966.225
2411.57809	18958.025
2414.37216	18914.425
2417.16446	18896.025
2419.955	18832.825
2422.74378	18832.325
2425.5308	18814.025
2428.31606	18820.125
2431.09956	18817.625
2433.88131	18808.325
2436.6613	18834.425
2439.43954	18813.225
2442.21603	18794.825
2444.99077	18778.925
2447.76377	18807.825
2450.53501	18779.825
2453.30451	18776.225
2456.07226	18741.425
2458.83827	18756.025
2461.60254	18734.025
2464.36507	18787.825
2467.12586	18744.825
2469.88492	18758.925
2472.64224	18780.325
2475.39782	18818.725
2478.15167	18880.725
2480.90379	18865.425
2483.65417	18859.725
2486.40283	18904.825
2489.14976	18910.525
2491.89497	18924.525
2494.63845	18951.425
2497.3802	18971.725
2500.12024	18978.225
2502.85855	18956.225
2505.59514	18902.325
2508.33002	18909.525
2511.06318	18881.825
2513.79462	18819.325
2516.52435	18781.825
2519.25237	18805.225
2521.97867	18764.425
2524.70327	18730.525
2527.42616	18685.225
2530.14734	18748.325
2532.86681	18707.925
2535.58458	18731.625
2538.30065	18712.225
2541.01501	18727.925
2543.72768	18713.525
2546.43864	18678.125
2549.14791	18663.125
2551.85548	18654.625
2554.56136	18639.325
2557.26554	18586.725
2559.96803	18576.325
2562.66883	18572.725
2565.36794	18525.625
2568.06536	18515.325
2570.7611	18481.925
2573.45514	18506.525
2576.14751	18493.625
2578.83819	18439.825
2581.52719	18490.625
2584.21451	18486.325
2586.90015	18511.425
2589.58411	18489.025
2592.2664	18476.825
2594.94701	18495.225
2597.62594	18489.225
2600.30321	18486.725
2602.9788	18473.025
2605.65273	18438.125
2608.32498	18500.925
2610.99557	18497.925
2613.66449	18513.925
2616.33175	18476.425
2618.99734	18504.825
2621.66128	18513.725
2624.32355	18484.325
2626.98416	18521.025
2629.64311	18531.125
2632.30041	18540.925
2634.95605	18531.525
2637.61004	18471.425
2640.26238	18465.525
2642.91306	18413.825
2645.56209	18396.025
2648.20948	18373.525
2650.85521	18409.725
2653.4993	18384.725
2656.14175	18378.825
2658.78255	18372.525
2661.42171	18394.925
2664.05923	18440.225
2666.6951	18454.425
2669.32934	18501.225
2671.96194	18520.825
2674.59291	18521.425
2677.22224	18517.825
2679.84993	18538.425
2682.476	18497.525
2685.10043	18492.925
2687.72324	18449.925
2690.34441	18413.125
2692.96396	18407.725
2695.58188	18444.825
2698.19818	18396.025
2700.81285	18417.425
2703.4259	18446.125
2706.03733	18470.125
2708.64714	18383.525
2711.25533	18417.125
2713.86191	18445.025
2716.46687	18466.125
2719.07021	18463.825
2721.67194	18505.625
2724.27206	18488.225
2726.87057	18533.325
2729.46747	18535.925
2732.06276	18519.825
2734.65644	18529.425
2737.24852	18509.225
2739.83899	18481.525
2742.42786	18481.825
2745.01513	18460.725
2747.60079	18441.825
2750.18486	18513.025
2752.76733	18456.525
2755.3482	18402.325
2757.92747	18423.225
2760.50515	18410.725
2763.08123	18432.425
2765.65573	18432.225
2768.22863	18430.825
2770.79994	18413.525
2773.36967	18402.625
2775.9378	18393.925
2778.50435	18371.925
2781.06932	18404.925
2783.6327	18408.625
2786.1945	18403.625
2788.75471	18442.025
2791.31335	18371.225
2793.87041	18340.325
2796.42589	18304.825
2798.97979	18277.625
2801.53212	18242.925
2804.08288	18208.025
2806.63206	18129.325
2809.17967	18121.725
2811.72571	18122.125
2814.27018	18133.825
2816.81308	18100.725
2819.35442	18068.925
2821.89419	18068.325
2824.43239	18074.825
2826.96904	18118.825
2829.50412	18112.325
2832.03763	18072.625
2834.56959	18052.525
2837.1	18015.025
2839.62884	18021.025
2842.15613	17998.425
2844.68186	18080.425
2847.20604	18101.825
2849.72867	18124.025
2852.24974	18090.825
2854.76927	18117.325
2857.28724	18083.025
2859.80367	18089.925
2862.31855	18036.525
2864.83189	18004.825
2867.34368	17981.925
2869.85393	17991.125
2872.36264	17967.825
2874.8698	17952.225
2877.37543	17941.325
2879.87952	17941.025
2882.38207	17954.225
2884.88308	17944.325
2887.38256	17942.025
2889.88051	17939.925
2892.37692	17935.625
2894.8718	17955.025
2897.36515	17993.925
2899.85698	17988.025
2902.34727	18001.825
2904.83604	18027.625
2907.32328	18097.325
2909.809	18091.025
2912.29319	18097.525
2914.77587	18098.125
2917.25702	18091.225
2919.73665	18086.025
2922.21476	18062.025
2924.69136	18020.625
2927.16644	18015.625
2929.64	17984.225
2932.11205	17947.225
2934.58258	17889.825
2937.05161	17851.925
2939.51912	17900.825
2941.98513	17848.125
2944.44962	17792.725
2946.91261	17723.725
2949.37409	17730.825
2951.83407	17718.225
2954.29254	17677.725
2956.74951	17689.625
2959.20498	17661.325
2961.65895	17626.425
2964.11142	17635.725
2966.56239	17576.325
2969.01186	17534.525
2971.45984	17521.525
2973.90632	17508.025
2976.35131	17487.425
2978.7948	17433.925
2981.23681	17364.725
2983.67732	17360.825
2986.11635	17299.025
2988.55388	17293.925
2990.98993	17212.825
2993.4245	17187.425
2995.85758	17125.525
2998.28917	17116.025
3000.71928	17102.525
3003.14791	17045.025
3005.57506	17021.225
3008.00073	16986.925
3010.42493	16878.225
3012.84764	16907.725
3015.26888	16928.025
3017.68865	16894.925
3020.10694	16846.925
3022.52376	16795.425
3024.9391	16816.025
3027.35298	16771.825
3029.76539	16728.225
3032.17632	16719.825
3034.5858	16669.025
3036.9938	16668.525
3039.40034	16642.725
3041.80542	16658.325
3044.20903	16621.225
3046.61118	16600.425
3049.01187	16562.125
3051.4111	16566.425
3053.80888	16519.125
3056.20519	16472.425
3058.60005	16444.825
3060.99345	16423.025
3063.3854	16373.625
3065.7759	16304.725
3068.16494	16268.625
3070.55254	16218.325
3072.93868	16154.725
3075.32338	16065.725
3077.70662	16053.925
3080.08842	16016.925
3082.46878	15989.725
3084.84769	15945.725
3087.22515	15947.225
3089.60118	15925.625
3091.97576	15927.725
3094.3489	15915.025
3096.72061	15878.025
3099.09087	15900.025
3101.4597	15883.225
3103.82709	15844.425
3106.19305	15839.025
3108.55757	15814.725
3110.92066	15756.525
3113.28232	15742.425
3115.64255	15699.325
3118.00134	15680.425
3120.35871	15647.425
3122.71466	15641.625
3125.06917	15578.825
3127.42226	15521.725
