Data from AgNPs_FTO_APTES_UA_5uM_CRN_5uM_R6G_10uM_NaF_0.1M_Addition_RamanShift__28__12-17-26-704.txt Node

Date: Mon Feb 07 12:17:26 GMT 2022
User: TCL
Spectrometer: QEP01345
Trigger mode: 4
Integration Time (sec): 7.000000E0
Scans to average: 10
Electric dark correction enabled: true
Nonlinearity correction enabled: false
Boxcar width: 0
XAxis mode: Raman Shifts
Number of Pixels in Spectrum: 1044
>>>>>Begin Spectral Data<<<<<
46.04893	-0.175
50.45542	-1.075
54.85868	-0.075
59.25871	1.125
63.6555	72.225
68.04907	76.925
72.43941	83.725
76.82654	87.425
81.21044	87.825
85.59113	92.625
89.96862	97.125
94.34289	100.825
98.71396	102.525
103.08183	104.825
107.4465	109.225
111.80798	107.925
116.16626	115.325
120.52136	119.825
124.87327	125.125
129.222	134.725
133.56755	140.725
137.90993	155.925
142.24913	164.925
146.58517	189.225
150.91804	224.025
155.24774	265.725
159.57429	335.125
163.89768	433.725
168.21792	583.725
172.53501	791.925
176.84895	1100.725
181.15975	1542.325
185.46741	2163.425
189.77193	2991.125
194.07331	3992.825
198.37157	5147.425
202.6667	6322.925
206.9587	7521.825
211.24758	8719.525
215.53334	9950.825
219.81599	11331.125
224.09553	12910.225
228.37195	14665.825
232.64527	16575.025
236.91549	18479.725
241.18261	20191.225
245.44663	21666.325
249.70755	22887.925
253.96539	23904.725
258.22014	24824.525
262.4718	25657.025
266.72039	26340.625
270.96589	26804.025
275.20832	26938.025
279.44768	26933.625
283.68397	26816.225
287.91719	26840.425
292.14735	26992.625
296.37445	27411.025
300.59849	28066.025
304.81948	28907.325
309.03742	29423.025
313.25231	29234.025
317.46415	27864.825
321.67296	25841.325
325.87872	24114.425
330.08145	23228.525
334.28114	23091.925
338.47781	23383.125
342.67145	23971.925
346.86207	24853.225
351.04966	26111.625
355.23424	27655.325
359.4158	28725.425
363.59435	29174.525
367.76989	29210.425
371.94243	29009.925
376.11196	28783.825
380.27849	28561.225
384.44203	28297.225
388.60257	28014.125
392.76012	27985.425
396.91468	28323.025
401.06626	29143.125
405.21485	29730.025
409.36047	29339.825
413.50311	27992.425
417.64277	26711.025
421.77947	26123.925
425.9132	25964.425
430.04396	26037.025
434.17176	26119.625
438.2966	26368.525
442.41849	26911.625
446.53742	27678.825
450.6534	28533.825
454.76644	29150.325
458.87653	29318.225
462.98368	29178.225
467.08789	28728.925
471.18916	28155.025
475.2875	27553.025
479.38291	27137.325
483.4754	26747.025
487.56496	26320.825
491.6516	25961.325
495.73531	25674.425
499.81612	25665.025
503.89401	25924.425
507.96899	26122.825
512.04106	26283.925
516.11023	26374.925
520.1765	26388.725
524.23987	26112.925
528.30034	25572.325
532.35792	25067.825
536.41261	24531.325
540.46441	24102.125
544.51333	23962.725
548.55936	24281.825
552.60252	25162.625
556.64279	26013.025
560.6802	26478.825
564.71473	26906.425
568.7464	28057.125
572.7752	29035.025
576.80114	28785.025
580.82422	28247.625
584.84444	28004.525
588.86181	27783.625
592.87633	27792.925
596.888	28056.225
600.89682	28770.225
604.9028	31548.125
608.90594	38933.725
612.90624	48547.425
616.90371	46331.825
620.89834	32906.425
624.89015	26520.825
628.87913	25490.925
632.86528	25619.525
636.84862	25837.825
640.82913	25291.925
644.80683	24068.625
648.78172	23207.625
652.75379	23146.025
656.72306	24051.025
660.68952	25302.025
664.65319	25163.925
668.61405	24038.925
672.57211	23449.125
676.52738	23390.825
680.47986	23303.225
684.42955	23116.825
688.37646	23038.225
692.32058	23126.325
696.26192	23401.525
700.20048	23795.125
704.13626	24127.725
708.06928	24169.925
711.99952	23954.025
715.927	23780.325
719.85171	23744.725
723.77365	23637.225
727.69284	23278.025
731.60928	23003.325
735.52295	22851.525
739.43388	22927.325
743.34206	23096.125
747.24749	23260.125
751.15017	23616.525
755.05012	24263.525
758.94733	25556.125
762.8418	28407.025
766.73354	33251.125
770.62254	38090.825
774.50882	39782.925
778.39237	37298.925
782.27321	32239.125
786.15132	27616.225
790.02671	24949.325
793.89938	23680.425
797.76935	23114.625
801.6366	22888.625
805.50115	22678.825
809.36299	22511.625
813.22213	22394.925
817.07857	22331.525
820.93231	22317.125
824.78336	22336.025
828.63172	22411.125
832.47738	22469.725
836.32036	22448.625
840.16066	22400.225
843.99827	22328.825
847.8332	22233.325
851.66546	22110.425
855.49504	22071.625
859.32195	22028.825
863.1462	21842.825
866.96777	21706.325
870.78668	21667.725
874.60293	21698.625
878.41652	21753.925
882.22745	21873.625
886.03573	21960.225
889.84136	21916.025
893.64433	21795.925
897.44466	21708.125
901.24235	21700.425
905.0374	21629.025
908.8298	21590.225
912.61957	21677.025
916.40671	21904.725
920.19121	22246.125
923.97308	22572.025
927.75233	22763.425
931.52895	22763.625
935.30295	22406.525
939.07433	21659.925
942.84309	21054.725
946.60924	20761.525
950.37278	20555.825
954.13371	20394.825
957.89203	20294.925
961.64774	20231.025
965.40086	20219.025
969.15137	20142.625
972.89929	20062.225
976.64461	19987.325
980.38733	20004.725
984.12747	20095.625
987.86502	20214.425
991.59999	20474.425
995.33237	20844.325
999.06217	21536.225
1002.78939	22384.925
1006.51404	23128.025
1010.23611	23750.525
1013.95561	24086.225
1017.67255	23990.325
1021.38692	23525.625
1025.09872	23070.125
1028.80796	23037.425
1032.51465	23483.225
1036.21877	23990.225
1039.92035	24186.825
1043.61937	24034.025
1047.31584	23593.225
1051.00976	23186.725
1054.70114	22978.625
1058.38998	22976.925
1062.07627	23198.425
1065.76003	23497.125
1069.44126	23747.625
1073.11995	24063.525
1076.79611	24339.825
1080.46974	24579.025
1084.14085	25099.925
1087.80943	25766.325
1091.47549	26121.425
1095.13903	25834.225
1098.80005	25023.125
1102.45857	24128.825
1106.11456	23508.825
1109.76805	23359.225
1113.41903	23704.825
1117.06751	24371.025
1120.71348	25254.425
1124.35696	26196.025
1127.99793	27155.125
1131.63641	27153.025
1135.2724	26177.225
1138.90589	25182.025
1142.5369	24609.825
1146.16542	24226.025
1149.79145	24122.325
1153.415	24253.225
1157.03607	24635.825
1160.65467	25380.825
1164.27079	26485.325
1167.88443	28176.925
1171.49561	30778.725
1175.10432	34724.325
1178.71056	39787.825
1182.31434	43733.225
1185.91565	45108.625
1189.51451	44589.825
1193.11091	42321.225
1196.70485	39267.925
1200.29634	36615.625
1203.88538	34515.425
1207.47197	32399.525
1211.05612	30613.825
1214.63782	29566.225
1218.21708	29188.525
1221.79391	29215.125
1225.36829	29419.425
1228.94024	29569.925
1232.50976	29555.325
1236.07685	29502.325
1239.6415	29291.725
1243.20374	29120.325
1246.76355	29154.625
1250.32093	29531.225
1253.8759	30335.725
1257.42845	31464.625
1260.97859	32652.725
1264.52631	33666.425
1268.07163	34783.625
1271.61453	35889.225
1275.15503	36938.625
1278.69312	37694.025
1282.22882	38417.925
1285.76211	39455.025
1289.29301	40817.825
1292.82151	42312.525
1296.34761	43974.325
1299.87133	46355.525
1303.39266	49894.025
1306.9116	54982.525
1310.42815	60869.025
1313.94233	64908.325
1317.45412	65145.725
1320.96354	62512.525
1324.47058	59057.125
1327.97525	55953.325
1331.47754	53887.525
1334.97747	52877.525
1338.47502	52751.825
1341.97022	53265.025
1345.46305	53762.225
1348.95352	54397.625
1352.44163	55612.625
1355.92738	58508.725
1359.41078	64556.125
1362.89183	71068.425
1366.37053	69867.425
1369.84688	60664.925
1373.32088	51121.625
1376.79254	45051.725
1380.26186	42181.125
1383.72883	40932.125
1387.19347	40063.725
1390.65578	39139.225
1394.11575	38578.125
1397.57339	38643.425
1401.0287	39270.125
1404.48168	40067.425
1407.93234	40707.125
1411.38068	40808.025
1414.82669	40062.225
1418.27039	38493.325
1421.71177	36768.025
1425.15083	35306.325
1428.58758	34392.925
1432.02203	34246.425
1435.45416	34510.725
1438.88399	34944.825
1442.31151	35274.825
1445.73673	35721.225
1449.15965	36293.225
1452.58027	36579.525
1455.9986	36572.825
1459.41463	36772.625
1462.82837	37239.625
1466.23982	37998.825
1469.64898	38775.025
1473.05586	39209.325
1476.46045	39431.425
1479.86276	39687.125
1483.26279	40089.225
1486.66054	40804.225
1490.05602	41708.225
1493.44922	43027.125
1496.84016	44937.425
1500.22882	47930.525
1503.61521	52053.025
1506.99934	57131.825
1510.38121	62245.925
1513.76081	65220.725
1517.13816	63701.125
1520.51324	58055.925
1523.88607	51837.525
1527.25665	47275.125
1530.62498	44423.425
1533.99105	42718.925
1537.35488	41548.025
1540.71647	40691.725
1544.07581	39948.625
1547.4329	39242.725
1550.78776	38680.725
1554.14038	38342.225
1557.49077	38535.125
1560.83892	39121.925
1564.18484	40005.525
1567.52853	40685.125
1570.86999	41129.725
1574.20922	41391.625
1577.54624	41332.625
1580.88103	39988.425
1584.2136	38369.625
1587.54395	38145.025
1590.87208	39582.925
1594.19801	42293.125
1597.52172	45303.325
1600.84321	46229.625
1604.16251	44122.425
1607.47959	40508.725
1610.79447	36858.325
1614.10715	33393.425
1617.41763	30659.025
1620.7259	28837.725
1624.03199	27885.025
1627.33587	27938.825
1630.63757	28816.525
1633.93707	30713.025
1637.23439	33720.725
1640.52951	37660.525
1643.82246	42352.125
1647.11321	47061.925
1650.40179	49916.225
1653.68819	48246.225
1656.97241	41901.625
1660.25446	34543.525
1663.53433	29064.925
1666.81203	25582.325
1670.08756	23506.325
1673.36092	22253.525
1676.63211	21441.025
1679.90115	20945.625
1683.16801	20525.325
1686.43272	20197.325
1689.69527	20003.125
1692.95567	19816.725
1696.2139	19696.325
1699.46999	19605.525
1702.72392	19510.025
1705.97571	19442.025
1709.22535	19452.425
1712.47284	19439.425
1715.71819	19436.125
1718.96139	19404.125
1722.20246	19396.425
1725.44139	19271.725
1728.67818	19122.525
1731.91284	18954.425
1735.14537	18829.225
1738.37576	18698.525
1741.60403	18601.525
1744.83017	18519.025
1748.05418	18465.825
1751.27607	18406.425
1754.49584	18384.725
1757.71349	18389.425
1760.92903	18307.325
1764.14244	18291.325
1767.35375	18308.725
1770.56294	18241.525
1773.77002	18145.725
1776.97499	18121.125
1780.17785	18058.025
1783.37861	18043.125
1786.57727	18004.325
1789.77382	17962.525
1792.96828	17961.525
1796.16064	17887.725
1799.3509	17885.325
1802.53907	17849.725
1805.72514	17804.725
1808.90913	17742.325
1812.09102	17717.925
1815.27083	17645.725
1818.44856	17599.725
1821.6242	17582.925
1824.79776	17603.425
1827.96924	17577.425
1831.13864	17529.725
1834.30597	17520.625
1837.47122	17522.925
1840.6344	17505.025
1843.7955	17504.325
1846.95454	17517.925
1850.11151	17547.425
1853.26642	17506.825
1856.41926	17579.725
1859.57004	17570.125
1862.71876	17571.425
1865.86542	17594.925
1869.01003	17565.025
1872.15258	17646.525
1875.29308	17622.025
1878.43152	17676.525
1881.56792	17708.925
1884.70227	17751.525
1887.83457	17770.525
1890.96482	17748.325
1894.09304	17781.125
1897.21921	17803.825
1900.34335	17790.925
1903.46544	17817.325
1906.58551	17836.625
1909.70353	17854.225
1912.81953	17875.225
1915.93349	17853.925
1919.04543	17840.325
1922.15534	17836.725
1925.26322	17771.025
1928.36908	17658.325
1931.47292	17567.225
1934.57473	17463.825
1937.67453	17350.025
1940.77232	17231.325
1943.86808	17075.025
1946.96184	16980.325
1950.05358	16904.025
1953.14331	16809.225
1956.23103	16722.025
1959.31675	16648.025
1962.40046	16583.225
1965.48217	16540.425
1968.56188	16524.825
1971.63959	16462.125
1974.7153	16410.425
1977.78901	16339.625
1980.86073	16267.825
1983.93046	16204.125
1986.99819	16110.925
1990.06394	16100.225
1993.1277	16040.325
1996.18947	15988.625
1999.24925	15954.825
2002.30706	15907.725
2005.36288	15807.225
2008.41672	15773.225
2011.46859	15726.825
2014.51848	15687.125
2017.56639	15658.725
2020.61233	15611.225
2023.6563	15559.825
2026.6983	15503.525
2029.73833	15490.725
2032.7764	15486.725
2035.8125	15402.525
2038.84664	15372.125
2041.87881	15373.925
2044.90903	15310.425
2047.93729	15300.025
2050.96359	15253.225
2053.98794	15250.725
2057.01034	15243.325
2060.03078	15216.425
2063.04927	15195.625
2066.06582	15198.125
2069.08042	15217.025
2072.09307	15160.325
2075.10378	15126.625
2078.11255	15110.925
2081.11938	15128.125
2084.12426	15113.525
2087.12722	15095.425
2090.12824	15079.325
2093.12732	15053.025
2096.12447	15062.525
2099.11969	15059.225
2102.11299	15073.325
2105.10435	15034.225
2108.09379	15056.825
2111.08131	15082.425
2114.0669	15075.625
2117.05057	15099.225
2120.03233	15083.125
2123.01216	15096.325
2125.99008	15142.925
2128.96609	15146.125
2131.94018	15129.525
2134.91236	15106.625
2137.88263	15134.625
2140.851	15112.925
2143.81746	15149.325
2146.78201	15085.125
2149.74466	15134.025
2152.7054	15098.325
2155.66425	15086.925
2158.6212	15057.125
2161.57625	15058.825
2164.52941	15057.225
2167.48067	15030.725
2170.43004	15036.725
2173.37752	15045.725
2176.32311	15025.625
2179.26681	15038.125
2182.20863	15025.025
2185.14856	15009.525
2188.08661	15035.325
2191.02278	15044.825
2193.95707	15028.425
2196.88948	15029.225
2199.82001	14990.525
2202.74867	14968.725
2205.67545	14950.125
2208.60037	14941.825
2211.52341	14956.925
2214.44458	14933.725
2217.36388	14907.725
2220.28132	14879.325
2223.1969	14833.225
2226.11061	14784.125
2229.02246	14761.925
2231.93245	14735.525
2234.84058	14711.325
2237.74686	14684.625
2240.65128	14661.025
2243.55385	14621.825
2246.45456	14613.425
2249.35343	14611.825
2252.25044	14567.625
2255.14561	14589.825
2258.03893	14573.425
2260.93041	14553.725
2263.82004	14534.525
2266.70783	14473.525
2269.59378	14435.725
2272.4779	14390.425
2275.36017	14343.825
2278.24061	14335.425
2281.11922	14287.925
2283.996	14277.825
2286.87094	14257.525
2289.74405	14267.425
2292.61534	14213.825
2295.4848	14184.025
2298.35243	14151.125
2301.21824	14205.825
2304.08223	14167.625
2306.94439	14211.825
2309.80474	14223.425
2312.66327	14209.025
2315.51999	14202.825
2318.37489	14192.325
2321.22797	14203.025
2324.07925	14168.025
2326.92871	14150.125
2329.77637	14123.925
2332.62222	14101.325
2335.46626	14103.625
2338.3085	14109.325
2341.14893	14134.225
2343.98756	14147.525
2346.8244	14162.425
2349.65943	14177.925
2352.49267	14183.325
2355.32411	14179.025
2358.15376	14228.025
2360.98161	14212.025
2363.80768	14203.125
2366.63195	14205.525
2369.45444	14216.025
2372.27514	14176.225
2375.09405	14134.225
2377.91118	14084.625
2380.72652	14053.425
2383.54009	14032.625
2386.35187	13943.725
2389.16188	13875.625
2391.97011	13872.125
2394.77657	13835.425
2397.58125	13798.425
2400.38416	13766.125
2403.18529	13746.725
2405.98466	13712.625
2408.78226	13675.625
2411.57809	13662.725
2414.37216	13652.125
2417.16446	13609.125
2419.955	13593.625
2422.74378	13600.725
2425.5308	13559.825
2428.31606	13552.425
2431.09956	13550.425
2433.88131	13573.725
2436.6613	13556.225
2439.43954	13566.225
2442.21603	13550.225
2444.99077	13519.325
2447.76377	13556.125
2450.53501	13529.825
2453.30451	13542.725
2456.07226	13531.325
2458.83827	13530.925
2461.60254	13507.325
2464.36507	13503.925
2467.12586	13516.425
2469.88492	13544.125
2472.64224	13542.225
2475.39782	13551.325
2478.15167	13578.325
2480.90379	13578.425
2483.65417	13610.125
2486.40283	13627.725
2489.14976	13667.725
2491.89497	13649.925
2494.63845	13703.125
2497.3802	13673.725
2500.12024	13696.125
2502.85855	13681.425
2505.59514	13635.625
2508.33002	13634.425
2511.06318	13561.825
2513.79462	13540.325
2516.52435	13505.725
2519.25237	13485.025
2521.97867	13443.025
2524.70327	13440.025
2527.42616	13408.025
2530.14734	13388.525
2532.86681	13428.625
2535.58458	13407.325
2538.30065	13367.525
2541.01501	13380.125
2543.72768	13381.725
2546.43864	13376.625
2549.14791	13374.225
2551.85548	13364.125
2554.56136	13347.825
2557.26554	13315.025
2559.96803	13307.025
2562.66883	13299.125
2565.36794	13261.325
2568.06536	13253.325
2570.7611	13212.425
2573.45514	13229.025
2576.14751	13220.525
2578.83819	13176.325
2581.52719	13197.925
2584.21451	13194.525
2586.90015	13188.125
2589.58411	13207.025
2592.2664	13210.125
2594.94701	13162.625
2597.62594	13177.325
2600.30321	13148.025
2602.9788	13196.525
2605.65273	13161.325
2608.32498	13176.625
2610.99557	13189.425
2613.66449	13197.925
2616.33175	13171.425
2618.99734	13210.225
2621.66128	13200.725
2624.32355	13183.225
2626.98416	13195.725
2629.64311	13172.525
2632.30041	13188.225
2634.95605	13162.025
2637.61004	13147.525
2640.26238	13111.625
2642.91306	13104.725
2645.56209	13056.525
2648.20948	13068.825
2650.85521	13037.525
2653.4993	13087.225
2656.14175	13036.525
2658.78255	13056.625
2661.42171	13075.525
2664.05923	13115.925
2666.6951	13102.125
2669.32934	13127.925
2671.96194	13164.625
2674.59291	13174.725
2677.22224	13170.325
2679.84993	13179.625
2682.476	13163.125
2685.10043	13153.125
2687.72324	13116.625
2690.34441	13107.425
2692.96396	13091.925
2695.58188	13104.025
2698.19818	13062.825
2700.81285	13091.725
2703.4259	13085.425
2706.03733	13125.125
2708.64714	13086.825
2711.25533	13081.025
2713.86191	13066.925
2716.46687	13092.925
2719.07021	13112.325
2721.67194	13146.525
2724.27206	13125.125
2726.87057	13161.725
2729.46747	13147.125
2732.06276	13147.225
2734.65644	13125.325
2737.24852	13106.625
2739.83899	13102.525
2742.42786	13108.725
2745.01513	13093.425
2747.60079	13095.925
2750.18486	13063.125
2752.76733	13066.825
2755.3482	13022.325
2757.92747	13060.425
2760.50515	13019.625
2763.08123	13024.025
2765.65573	13014.125
2768.22863	12997.825
2770.79994	12975.025
2773.36967	12977.725
2775.9378	12951.625
2778.50435	12954.525
2781.06932	12969.825
2783.6327	12979.625
2786.1945	12958.725
2788.75471	12982.125
2791.31335	12952.425
2793.87041	12914.925
2796.42589	12889.825
2798.97979	12887.125
2801.53212	12880.025
2804.08288	12861.725
2806.63206	12833.125
2809.17967	12805.125
2811.72571	12793.325
2814.27018	12821.825
2816.81308	12792.225
2819.35442	12806.025
2821.89419	12792.925
2824.43239	12829.125
2826.96904	12806.425
2829.50412	12820.525
2832.03763	12812.925
2834.56959	12784.825
2837.1	12773.125
2839.62884	12743.225
2842.15613	12773.625
2844.68186	12864.825
2847.20604	12887.825
2849.72867	12943.325
2852.24974	12947.525
2854.76927	12936.725
2857.28724	12936.825
2859.80367	12921.725
2862.31855	12880.325
2864.83189	12851.725
2867.34368	12829.525
2869.85393	12839.325
2872.36264	12799.225
2874.8698	12836.325
2877.37543	12783.725
2879.87952	12808.125
2882.38207	12792.125
2884.88308	12786.025
2887.38256	12776.125
2889.88051	12729.125
2892.37692	12746.125
2894.8718	12774.225
2897.36515	12797.725
2899.85698	12811.725
2902.34727	12802.325
2904.83604	12825.125
2907.32328	12868.625
2909.809	12846.125
2912.29319	12883.625
2914.77587	12851.025
2917.25702	12860.625
2919.73665	12861.425
2922.21476	12836.925
2924.69136	12834.725
2927.16644	12803.225
2929.64	12769.425
2932.11205	12698.025
2934.58258	12681.525
2937.05161	12670.525
2939.51912	12654.025
2941.98513	12626.225
2944.44962	12566.125
2946.91261	12510.825
2949.37409	12482.025
2951.83407	12472.525
2954.29254	12438.525
2956.74951	12424.125
2959.20498	12426.125
2961.65895	12386.325
2964.11142	12380.025
2966.56239	12341.925
2969.01186	12316.725
2971.45984	12255.625
2973.90632	12270.325
2976.35131	12238.825
2978.7948	12202.325
2981.23681	12165.825
2983.67732	12140.925
2986.11635	12132.425
2988.55388	12100.625
2990.98993	12069.125
2993.4245	12009.025
2995.85758	11984.125
2998.28917	11941.225
3000.71928	11955.825
3003.14791	11929.125
3005.57506	11916.225
3008.00073	11883.825
3010.42493	11784.525
3012.84764	11834.525
3015.26888	11846.025
3017.68865	11787.325
3020.10694	11773.725
3022.52376	11741.525
3024.9391	11742.525
3027.35298	11706.425
3029.76539	11707.225
3032.17632	11684.325
3034.5858	11653.325
3036.9938	11637.025
3039.40034	11618.725
3041.80542	11603.825
3044.20903	11570.825
3046.61118	11565.325
3049.01187	11527.825
3051.4111	11557.625
3053.80888	11513.325
3056.20519	11477.025
3058.60005	11436.825
3060.99345	11411.325
3063.3854	11361.325
3065.7759	11327.225
3068.16494	11290.925
3070.55254	11246.125
3072.93868	11227.925
3075.32338	11181.625
3077.70662	11138.825
3080.08842	11076.325
3082.46878	11090.425
3084.84769	11052.125
3087.22515	11039.225
3089.60118	11049.825
3091.97576	11034.525
3094.3489	11012.925
3096.72061	11002.825
3099.09087	11023.725
3101.4597	10986.725
3103.82709	10993.625
3106.19305	10933.225
3108.55757	10944.025
3110.92066	10896.425
3113.28232	10900.725
3115.64255	10852.025
3118.00134	10837.825
3120.35871	10845.625
3122.71466	10791.825
3125.06917	10779.025
3127.42226	10760.925
