Data from AgNPs_FTO_APTES_UA_5uM_CRN_20uM_R6G_10uM_NaF_0.1M_Addition_RamanShift__10__13-14-36-770.txt Node

Date: Mon Feb 07 13:14:36 GMT 2022
User: TCL
Spectrometer: QEP01345
Trigger mode: 4
Integration Time (sec): 7.000000E0
Scans to average: 10
Electric dark correction enabled: true
Nonlinearity correction enabled: false
Boxcar width: 0
XAxis mode: Raman Shifts
Number of Pixels in Spectrum: 1044
>>>>>Begin Spectral Data<<<<<
46.04893	0.075
50.45542	-0.925
54.85868	-1.525
59.25871	0.075
63.6555	82.675
68.04907	85.875
72.43941	92.975
76.82654	94.775
81.21044	96.375
85.59113	101.675
89.96862	106.175
94.34289	104.875
98.71396	108.875
103.08183	112.275
107.4465	117.075
111.80798	121.375
116.16626	123.075
120.52136	130.475
124.87327	139.775
129.222	149.075
133.56755	161.175
137.90993	177.675
142.24913	191.275
146.58517	228.075
150.91804	265.275
155.24774	326.575
159.57429	408.775
163.89768	538.675
168.21792	727.975
172.53501	984.775
176.84895	1368.775
181.15975	1943.675
185.46741	2719.075
189.77193	3756.375
194.07331	5036.475
198.37157	6448.875
202.6667	7960.575
206.9587	9472.775
211.24758	10929.675
215.53334	12388.775
219.81599	13945.375
224.09553	15635.775
228.37195	17527.775
232.64527	19531.175
236.91549	21636.375
241.18261	23765.075
245.44663	25745.275
249.70755	27591.275
253.96539	29164.075
258.22014	30550.575
262.4718	31556.575
266.72039	32291.475
270.96589	32766.675
275.20832	32870.075
279.44768	32743.575
283.68397	32612.575
287.91719	32471.875
292.14735	32388.775
296.37445	32466.275
300.59849	32622.475
304.81948	32796.675
309.03742	32769.275
313.25231	32465.475
317.46415	31898.075
321.67296	31080.375
325.87872	30363.275
330.08145	29911.375
334.28114	29812.675
338.47781	29907.375
342.67145	30215.975
346.86207	30587.075
351.04966	30964.275
355.23424	31369.475
359.4158	31784.475
363.59435	32101.675
367.76989	32302.275
371.94243	32378.575
376.11196	32391.175
380.27849	32380.275
384.44203	32405.275
388.60257	32639.975
392.76012	33091.375
396.91468	33727.175
401.06626	34326.275
405.21485	34716.275
409.36047	34462.575
413.50311	34074.275
417.64277	33937.475
421.77947	34149.175
425.9132	34362.675
430.04396	34599.575
434.17176	34711.675
438.2966	34869.475
442.41849	35299.475
446.53742	36122.175
450.6534	37083.875
454.76644	37760.075
458.87653	38010.075
462.98368	37954.175
467.08789	37698.075
471.18916	37281.475
475.2875	37014.775
479.38291	36975.075
483.4754	37024.875
487.56496	36651.675
491.6516	35903.275
495.73531	34987.275
499.81612	34338.275
503.89401	34287.375
507.96899	34441.175
512.04106	34511.875
516.11023	34256.875
520.1765	33723.875
524.23987	33108.875
528.30034	32608.975
532.35792	32202.275
536.41261	31818.375
540.46441	31570.475
544.51333	31624.275
548.55936	32092.575
552.60252	32848.575
556.64279	33820.475
560.6802	34583.775
564.71473	35302.675
568.7464	36422.675
572.7752	38230.375
576.80114	40283.375
580.82422	42141.075
584.84444	43774.975
588.86181	45738.475
592.87633	47417.775
596.888	46788.275
600.89682	43821.575
604.9028	41924.275
608.90594	42409.575
612.90624	43210.075
616.90371	40007.375
620.89834	34733.975
624.89015	32608.475
628.87913	32652.675
632.86528	33093.575
636.84862	33040.475
640.82913	32230.275
644.80683	31350.175
648.78172	30787.075
652.75379	30668.775
656.72306	30905.175
660.68952	31189.875
664.65319	31033.975
668.61405	30605.275
672.57211	30554.675
676.52738	30625.575
680.47986	30618.675
684.42955	30384.875
688.37646	30284.375
692.32058	30441.375
696.26192	30950.075
700.20048	31396.875
704.13626	31688.175
708.06928	31966.775
711.99952	32040.075
715.927	32020.975
719.85171	31890.475
723.77365	31521.375
727.69284	30931.575
731.60928	30386.075
735.52295	30142.875
739.43388	30031.975
743.34206	30107.075
747.24749	30420.875
751.15017	30907.275
755.05012	31624.975
758.94733	32711.775
762.8418	34340.175
766.73354	36532.575
770.62254	38300.575
774.50882	38033.575
778.39237	36003.275
782.27321	33655.475
786.15132	31969.975
790.02671	30826.875
793.89938	30162.475
797.76935	29816.075
801.6366	29680.675
805.50115	29641.575
809.36299	29503.075
813.22213	29383.375
817.07857	29304.475
820.93231	29238.975
824.78336	28989.775
828.63172	28762.275
832.47738	28494.075
836.32036	28435.875
840.16066	28443.375
843.99827	28484.175
847.8332	28480.275
851.66546	28512.375
855.49504	28565.675
859.32195	28518.475
863.1462	28384.675
866.96777	28283.575
870.78668	28238.875
874.60293	28177.575
878.41652	28157.675
882.22745	28210.375
886.03573	28304.075
889.84136	28301.975
893.64433	28195.475
897.44466	28135.975
901.24235	28128.275
905.0374	28045.775
908.8298	28078.275
912.61957	28222.875
916.40671	28685.675
920.19121	29356.075
923.97308	29815.975
927.75233	29593.375
931.52895	28959.875
935.30295	28246.875
939.07433	27610.675
942.84309	27120.875
946.60924	26825.375
950.37278	26735.975
954.13371	26766.775
957.89203	26765.675
961.64774	26827.175
965.40086	26869.575
969.15137	26800.575
972.89929	26564.775
976.64461	26355.575
980.38733	26221.075
984.12747	26165.575
987.86502	26243.975
991.59999	26376.275
995.33237	26563.975
999.06217	26909.475
1002.78939	27389.975
1006.51404	27978.375
1010.23611	28520.675
1013.95561	28876.375
1017.67255	28969.775
1021.38692	28664.775
1025.09872	28174.875
1028.80796	27771.975
1032.51465	27613.275
1036.21877	27700.975
1039.92035	27862.875
1043.61937	28020.675
1047.31584	28112.775
1051.00976	28223.075
1054.70114	28419.975
1058.38998	28790.875
1062.07627	29266.175
1065.76003	29806.575
1069.44126	30402.975
1073.11995	30923.375
1076.79611	31366.375
1080.46974	31488.975
1084.14085	31623.075
1087.80943	31968.375
1091.47549	32401.475
1095.13903	32732.375
1098.80005	32293.875
1102.45857	31277.375
1106.11456	30294.175
1109.76805	29773.275
1113.41903	29636.975
1117.06751	29757.475
1120.71348	30036.175
1124.35696	30391.875
1127.99793	30779.075
1131.63641	31087.975
1135.2724	31161.675
1138.90589	31322.375
1142.5369	31590.675
1146.16542	32109.175
1149.79145	32696.075
1153.415	33388.075
1157.03607	34183.675
1160.65467	35502.075
1164.27079	37604.175
1167.88443	39938.375
1171.49561	42165.975
1175.10432	44581.975
1178.71056	47596.875
1182.31434	50373.775
1185.91565	51679.375
1189.51451	51608.175
1193.11091	50711.675
1196.70485	49285.575
1200.29634	47588.375
1203.88538	46700.475
1207.47197	46751.175
1211.05612	46988.075
1214.63782	46491.675
1218.21708	44687.675
1221.79391	42419.475
1225.36829	40618.775
1228.94024	39522.675
1232.50976	38856.975
1236.07685	38328.375
1239.6415	38019.275
1243.20374	38082.575
1246.76355	38371.475
1250.32093	39065.475
1253.8759	39945.175
1257.42845	41211.875
1260.97859	42506.075
1264.52631	43857.475
1268.07163	45269.575
1271.61453	46748.775
1275.15503	48298.975
1278.69312	50231.375
1282.22882	52508.275
1285.76211	55151.375
1289.29301	58215.475
1292.82151	61774.975
1296.34761	65888.575
1299.87133	70382.175
1303.39266	74401.875
1306.9116	77081.675
1310.42815	78431.175
1313.94233	78619.575
1317.45412	77872.675
1320.96354	77206.475
1324.47058	77227.175
1327.97525	77571.275
1331.47754	77821.475
1334.97747	77570.675
1338.47502	76659.575
1341.97022	75557.575
1345.46305	74066.275
1348.95352	72400.075
1352.44163	70974.075
1355.92738	70569.575
1359.41078	71469.675
1362.89183	72203.175
1366.37053	71222.475
1369.84688	66925.375
1373.32088	60594.275
1376.79254	56110.775
1380.26186	54890.575
1383.72883	55803.075
1387.19347	56686.175
1390.65578	56645.075
1394.11575	56617.875
1397.57339	57302.475
1401.0287	58297.175
1404.48168	58906.275
1407.93234	58254.675
1411.38068	56169.775
1414.82669	53106.375
1418.27039	49950.975
1421.71177	47019.475
1425.15083	44920.075
1428.58758	44066.975
1432.02203	44585.275
1435.45416	46208.175
1438.88399	48179.475
1442.31151	49605.775
1445.73673	50595.675
1449.15965	51403.775
1452.58027	51887.575
1455.9986	52169.775
1459.41463	52522.575
1462.82837	53098.775
1466.23982	53889.975
1469.64898	54666.475
1473.05586	54893.875
1476.46045	54694.675
1479.86276	54037.275
1483.26279	53340.375
1486.66054	52898.575
1490.05602	53056.375
1493.44922	53521.675
1496.84016	54199.875
1500.22882	55077.075
1503.61521	55946.075
1506.99934	57003.175
1510.38121	57847.275
1513.76081	58248.875
1517.13816	58218.675
1520.51324	58202.675
1523.88607	58809.375
1527.25665	59620.575
1530.62498	60203.775
1533.99105	59789.675
1537.35488	58485.475
1540.71647	56397.875
1544.07581	53917.675
1547.4329	51487.075
1550.78776	49632.875
1554.14038	48349.275
1557.49077	47612.975
1560.83892	47208.775
1564.18484	46888.875
1567.52853	46943.375
1570.86999	47571.075
1574.20922	48932.675
1577.54624	50574.375
1580.88103	51814.875
1584.2136	53210.375
1587.54395	55341.475
1590.87208	58366.775
1594.19801	61492.975
1597.52172	63786.575
1600.84321	63258.275
1604.16251	59227.475
1607.47959	53534.675
1610.79447	48193.975
1614.10715	43620.275
1617.41763	40029.375
1620.7259	37575.175
1624.03199	36331.475
1627.33587	36469.275
1630.63757	38014.775
1633.93707	41390.775
1637.23439	46810.575
1640.52951	54665.175
1643.82246	63856.875
1647.11321	71157.975
1650.40179	72299.475
1653.68819	66236.575
1656.97241	56159.975
1660.25446	46313.875
1663.53433	38878.375
1666.81203	33880.875
1670.08756	30761.975
1673.36092	28781.675
1676.63211	27562.875
1679.90115	26674.575
1683.16801	26059.475
1686.43272	25603.275
1689.69527	25273.275
1692.95567	24981.275
1696.2139	24750.675
1699.46999	24622.675
1702.72392	24425.175
1705.97571	24309.075
1709.22535	24208.675
1712.47284	24089.475
1715.71819	24045.675
1718.96139	23895.075
1722.20246	23802.075
1725.44139	23684.775
1728.67818	23461.975
1731.91284	23306.275
1735.14537	23115.275
1738.37576	22988.175
1741.60403	22859.575
1744.83017	22740.775
1748.05418	22687.175
1751.27607	22623.075
1754.49584	22549.375
1757.71349	22579.375
1760.92903	22492.575
1764.14244	22466.975
1767.35375	22417.475
1770.56294	22366.075
1773.77002	22309.075
1776.97499	22219.375
1780.17785	22141.775
1783.37861	22088.775
1786.57727	22028.575
1789.77382	21969.275
1792.96828	21943.975
1796.16064	21864.475
1799.3509	21806.375
1802.53907	21746.375
1805.72514	21648.875
1808.90913	21589.875
1812.09102	21476.375
1815.27083	21479.375
1818.44856	21432.575
1821.6242	21377.375
1824.79776	21374.775
1827.96924	21342.875
1831.13864	21302.575
1834.30597	21301.575
1837.47122	21310.475
1840.6344	21318.275
1843.7955	21307.575
1846.95454	21294.175
1850.11151	21277.675
1853.26642	21228.075
1856.41926	21214.575
1859.57004	21192.575
1862.71876	21156.175
1865.86542	21159.575
1869.01003	21065.775
1872.15258	20998.675
1875.29308	20948.175
1878.43152	20914.475
1881.56792	20869.775
1884.70227	20849.875
1887.83457	20805.875
1890.96482	20750.075
1894.09304	20746.775
1897.21921	20698.475
1900.34335	20722.175
1903.46544	20654.275
1906.58551	20655.475
1909.70353	20577.075
1912.81953	20505.775
1915.93349	20496.575
1919.04543	20382.275
1922.15534	20338.575
1925.26322	20289.175
1928.36908	20243.575
1931.47292	20199.875
1934.57473	20113.475
1937.67453	20042.275
1940.77232	19978.975
1943.86808	19934.175
1946.96184	19858.275
1950.05358	19824.875
1953.14331	19768.775
1956.23103	19706.475
1959.31675	19633.875
1962.40046	19570.975
1965.48217	19464.275
1968.56188	19407.075
1971.63959	19325.075
1974.7153	19284.575
1977.78901	19223.675
1980.86073	19122.675
1983.93046	19007.475
1986.99819	18976.675
1990.06394	18936.475
1993.1277	18893.775
1996.18947	18858.175
1999.24925	18796.775
2002.30706	18687.575
2005.36288	18643.275
2008.41672	18585.175
2011.46859	18489.075
2014.51848	18425.675
2017.56639	18392.475
2020.61233	18335.475
2023.6563	18293.775
2026.6983	18237.275
2029.73833	18196.375
2032.7764	18134.975
2035.8125	18082.275
2038.84664	18046.675
2041.87881	18027.975
2044.90903	17974.675
2047.93729	17908.675
2050.96359	17897.575
2053.98794	17860.575
2057.01034	17865.875
2060.03078	17828.875
2063.04927	17820.775
2066.06582	17824.375
2069.08042	17820.975
2072.09307	17781.975
2075.10378	17764.475
2078.11255	17717.075
2081.11938	17715.575
2084.12426	17694.475
2087.12722	17705.575
2090.12824	17671.175
2093.12732	17664.975
2096.12447	17654.475
2099.11969	17672.875
2102.11299	17656.575
2105.10435	17646.475
2108.09379	17662.675
2111.08131	17657.875
2114.0669	17639.975
2117.05057	17677.675
2120.03233	17674.175
2123.01216	17655.775
2125.99008	17671.475
2128.96609	17699.275
2131.94018	17656.275
2134.91236	17651.075
2137.88263	17656.475
2140.851	17678.075
2143.81746	17684.575
2146.78201	17624.175
2149.74466	17595.075
2152.7054	17554.675
2155.66425	17562.475
2158.6212	17545.475
2161.57625	17540.375
2164.52941	17532.875
2167.48067	17513.875
2170.43004	17475.975
2173.37752	17476.975
2176.32311	17463.175
2179.26681	17470.975
2182.20863	17476.175
2185.14856	17487.375
2188.08661	17479.675
2191.02278	17512.875
2193.95707	17443.775
2196.88948	17425.275
2199.82001	17356.875
2202.74867	17338.275
2205.67545	17314.775
2208.60037	17282.575
2211.52341	17259.475
2214.44458	17242.175
2217.36388	17167.275
2220.28132	17167.875
2223.1969	17123.675
2226.11061	17082.675
2229.02246	17053.175
2231.93245	17011.675
2234.84058	16996.375
2237.74686	16978.175
2240.65128	16965.975
2243.55385	16941.075
2246.45456	16894.275
2249.35343	16835.175
2252.25044	16814.875
2255.14561	16741.975
2258.03893	16712.375
2260.93041	16639.275
2263.82004	16569.075
2266.70783	16526.575
2269.59378	16476.175
2272.4779	16434.875
2275.36017	16370.175
2278.24061	16376.175
2281.11922	16302.575
2283.996	16251.275
2286.87094	16260.675
2289.74405	16239.175
2292.61534	16194.975
2295.4848	16161.475
2298.35243	16140.775
2301.21824	16187.775
2304.08223	16123.875
2306.94439	16104.475
2309.80474	16120.775
2312.66327	16137.675
2315.51999	16063.575
2318.37489	16041.375
2321.22797	16021.375
2324.07925	15992.975
2326.92871	15966.575
2329.77637	15924.875
2332.62222	15905.075
2335.46626	15901.475
2338.3085	15907.775
2341.14893	15893.975
2343.98756	15913.875
2346.8244	15893.875
2349.65943	15862.775
2352.49267	15839.775
2355.32411	15868.375
2358.15376	15881.475
2360.98161	15862.775
2363.80768	15842.575
2366.63195	15845.375
2369.45444	15815.275
2372.27514	15805.475
2375.09405	15754.275
2377.91118	15735.675
2380.72652	15668.375
2383.54009	15633.475
2386.35187	15633.875
2389.16188	15575.075
2391.97011	15549.675
2394.77657	15513.275
2397.58125	15477.075
2400.38416	15473.675
2403.18529	15445.675
2405.98466	15414.375
2408.78226	15412.175
2411.57809	15382.075
2414.37216	15389.975
2417.16446	15371.975
2419.955	15368.775
2422.74378	15329.075
2425.5308	15270.175
2428.31606	15282.775
2431.09956	15280.475
2433.88131	15250.975
2436.6613	15272.975
2439.43954	15243.775
2442.21603	15223.075
2444.99077	15213.975
2447.76377	15200.375
2450.53501	15211.175
2453.30451	15223.075
2456.07226	15199.875
2458.83827	15167.975
2461.60254	15168.975
2464.36507	15128.275
2467.12586	15128.075
2469.88492	15117.775
2472.64224	15138.175
2475.39782	15149.775
2478.15167	15179.175
2480.90379	15146.575
2483.65417	15143.775
2486.40283	15130.975
2489.14976	15132.575
2491.89497	15128.575
2494.63845	15140.975
2497.3802	15141.575
2500.12024	15149.475
2502.85855	15101.675
2505.59514	15121.875
2508.33002	15121.075
2511.06318	15077.575
2513.79462	15065.775
2516.52435	15053.275
2519.25237	15060.275
2521.97867	15037.975
2524.70327	15026.075
2527.42616	14989.775
2530.14734	15000.275
2532.86681	14998.575
2535.58458	14993.075
2538.30065	14959.875
2541.01501	14980.775
2543.72768	14936.975
2546.43864	14910.975
2549.14791	14923.775
2551.85548	14905.075
2554.56136	14881.375
2557.26554	14858.775
2559.96803	14846.375
2562.66883	14816.675
2565.36794	14790.075
2568.06536	14784.775
2570.7611	14771.175
2573.45514	14792.375
2576.14751	14761.775
2578.83819	14727.675
2581.52719	14731.975
2584.21451	14702.775
2586.90015	14700.975
2589.58411	14710.375
2592.2664	14710.375
2594.94701	14676.575
2597.62594	14717.075
2600.30321	14682.875
2602.9788	14663.075
2605.65273	14664.875
2608.32498	14670.975
2610.99557	14667.075
2613.66449	14690.275
2616.33175	14696.875
2618.99734	14667.775
2621.66128	14681.075
2624.32355	14619.975
2626.98416	14658.675
2629.64311	14622.575
2632.30041	14612.875
2634.95605	14592.575
2637.61004	14599.175
2640.26238	14575.175
2642.91306	14564.675
2645.56209	14565.075
2648.20948	14593.475
2650.85521	14621.275
2653.4993	14631.975
2656.14175	14617.675
2658.78255	14637.675
2661.42171	14629.275
2664.05923	14660.175
2666.6951	14668.975
2669.32934	14679.675
2671.96194	14669.275
2674.59291	14680.375
2677.22224	14702.475
2679.84993	14655.375
2682.476	14652.675
2685.10043	14667.675
2687.72324	14642.475
2690.34441	14622.675
2692.96396	14629.875
2695.58188	14661.175
2698.19818	14640.575
2700.81285	14655.075
2703.4259	14661.475
2706.03733	14685.675
2708.64714	14669.575
2711.25533	14674.275
2713.86191	14634.275
2716.46687	14699.375
2719.07021	14676.475
2721.67194	14690.775
2724.27206	14724.275
2726.87057	14718.675
2729.46747	14760.375
2732.06276	14762.375
2734.65644	14751.675
2737.24852	14721.975
2739.83899	14743.075
2742.42786	14750.375
2745.01513	14710.975
2747.60079	14737.975
2750.18486	14708.975
2752.76733	14671.075
2755.3482	14678.075
2757.92747	14678.275
2760.50515	14695.175
2763.08123	14690.675
2765.65573	14676.275
2768.22863	14662.175
2770.79994	14624.675
2773.36967	14648.575
2775.9378	14633.875
2778.50435	14635.775
2781.06932	14636.475
2783.6327	14615.275
2786.1945	14649.675
2788.75471	14638.875
2791.31335	14629.575
2793.87041	14585.975
2796.42589	14533.775
2798.97979	14558.875
2801.53212	14520.875
2804.08288	14504.075
2806.63206	14454.075
2809.17967	14449.075
2811.72571	14399.775
2814.27018	14375.375
2816.81308	14356.175
2819.35442	14310.275
2821.89419	14297.575
2824.43239	14332.175
2826.96904	14288.575
2829.50412	14307.075
2832.03763	14242.075
2834.56959	14237.375
2837.1	14226.375
2839.62884	14238.175
2842.15613	14230.575
2844.68186	14255.675
2847.20604	14265.375
2849.72867	14271.275
2852.24974	14268.475
2854.76927	14287.175
2857.28724	14232.675
2859.80367	14246.275
2862.31855	14219.875
2864.83189	14165.975
2867.34368	14136.975
2869.85393	14132.575
2872.36264	14060.475
2874.8698	14058.575
2877.37543	14040.375
2879.87952	14030.575
2882.38207	14021.975
2884.88308	14015.675
2887.38256	14028.875
2889.88051	14008.775
2892.37692	14036.975
2894.8718	14042.775
2897.36515	14047.375
2899.85698	14047.075
2902.34727	14101.075
2904.83604	14081.075
2907.32328	14118.075
2909.809	14102.675
2912.29319	14132.475
2914.77587	14102.475
2917.25702	14134.075
2919.73665	14107.175
2922.21476	14111.075
2924.69136	14068.475
2927.16644	14089.575
2929.64	14071.675
2932.11205	14016.275
2934.58258	14011.475
2937.05161	13991.975
2939.51912	14031.575
2941.98513	13971.975
2944.44962	13968.175
2946.91261	13908.175
2949.37409	13930.575
2951.83407	13867.575
2954.29254	13858.075
2956.74951	13840.775
2959.20498	13816.675
2961.65895	13798.575
2964.11142	13778.475
2966.56239	13776.375
2969.01186	13761.175
2971.45984	13722.575
2973.90632	13735.775
2976.35131	13683.575
2978.7948	13643.275
2981.23681	13607.575
2983.67732	13579.375
2986.11635	13532.575
2988.55388	13499.875
2990.98993	13482.175
2993.4245	13404.375
2995.85758	13361.375
2998.28917	13303.875
3000.71928	13266.875
3003.14791	13224.475
3005.57506	13242.275
3008.00073	13186.575
3010.42493	13066.475
3012.84764	13106.275
3015.26888	13103.475
3017.68865	13062.875
3020.10694	13036.675
3022.52376	12993.475
3024.9391	12990.475
3027.35298	12962.675
3029.76539	12935.575
3032.17632	12907.375
3034.5858	12910.975
3036.9938	12906.075
3039.40034	12904.475
3041.80542	12897.875
3044.20903	12866.575
3046.61118	12826.275
3049.01187	12817.675
3051.4111	12800.475
3053.80888	12785.075
3056.20519	12734.375
3058.60005	12678.175
3060.99345	12670.775
3063.3854	12603.375
3065.7759	12553.475
3068.16494	12486.475
3070.55254	12439.375
3072.93868	12390.475
3075.32338	12345.375
3077.70662	12311.275
3080.08842	12273.375
3082.46878	12266.175
3084.84769	12237.775
3087.22515	12238.275
3089.60118	12229.275
3091.97576	12213.875
3094.3489	12183.175
3096.72061	12152.275
3099.09087	12153.175
3101.4597	12102.875
3103.82709	12142.875
3106.19305	12115.175
3108.55757	12106.775
3110.92066	12030.475
3113.28232	12037.175
3115.64255	12001.475
3118.00134	11961.275
3120.35871	11951.175
3122.71466	11894.575
3125.06917	11887.575
3127.42226	11820.375
