Data from AgNPs_FTO_APTES_UA_5uM_CRN_1000uM_R6G_10uM_NaF_0.1M_Addition_RamanShift__3__17-27-21-863.txt Node

Date: Mon Feb 07 17:27:21 GMT 2022
User: TCL
Spectrometer: QEP01345
Trigger mode: 4
Integration Time (sec): 7.000000E0
Scans to average: 10
Electric dark correction enabled: true
Nonlinearity correction enabled: false
Boxcar width: 0
XAxis mode: Raman Shifts
Number of Pixels in Spectrum: 1044
>>>>>Begin Spectral Data<<<<<
46.04893	-1.2875
50.45542	-0.0875
54.85868	-0.8875
59.25871	-0.3875
63.6555	58.6125
68.04907	63.2125
72.43941	66.3125
76.82654	70.6125
81.21044	68.7125
85.59113	68.4125
89.96862	73.0125
94.34289	77.9125
98.71396	78.8125
103.08183	79.9125
107.4465	88.6125
111.80798	84.7125
116.16626	88.7125
120.52136	94.8125
124.87327	97.7125
129.222	104.4125
133.56755	109.6125
137.90993	122.9125
142.24913	135.9125
146.58517	152.3125
150.91804	175.4125
155.24774	217.8125
159.57429	275.0125
163.89768	352.1125
168.21792	470.8125
172.53501	646.4125
176.84895	903.0125
181.15975	1274.5125
185.46741	1784.2125
189.77193	2464.1125
194.07331	3302.1125
198.37157	4263.6125
202.6667	5263.2125
206.9587	6259.5125
211.24758	7250.2125
215.53334	8227.2125
219.81599	9280.2125
224.09553	10432.9125
228.37195	11693.6125
232.64527	13054.1125
236.91549	14462.8125
241.18261	15889.7125
245.44663	17229.5125
249.70755	18458.3125
253.96539	19460.5125
258.22014	20367.5125
262.4718	21106.1125
266.72039	21619.1125
270.96589	21934.1125
275.20832	21994.7125
279.44768	21886.4125
283.68397	21702.1125
287.91719	21521.0125
292.14735	21482.2125
296.37445	21492.8125
300.59849	21609.2125
304.81948	21732.2125
309.03742	21713.3125
313.25231	21508.2125
317.46415	21119.3125
321.67296	20547.3125
325.87872	20105.5125
330.08145	19826.5125
334.28114	19743.9125
338.47781	19844.1125
342.67145	20035.5125
346.86207	20304.2125
351.04966	20681.0125
355.23424	20987.5125
359.4158	21273.2125
363.59435	21474.4125
367.76989	21627.1125
371.94243	21748.3125
376.11196	21809.7125
380.27849	21824.0125
384.44203	21954.6125
388.60257	22163.3125
392.76012	22369.4125
396.91468	22644.9125
401.06626	22977.9125
405.21485	23147.0125
409.36047	23013.4125
413.50311	22702.5125
417.64277	22511.9125
421.77947	22458.0125
425.9132	22608.8125
430.04396	22756.1125
434.17176	22902.4125
438.2966	23167.8125
442.41849	23616.0125
446.53742	24286.9125
450.6534	25032.7125
454.76644	25530.0125
458.87653	25628.1125
462.98368	25510.1125
467.08789	25203.6125
471.18916	24931.2125
475.2875	24708.7125
479.38291	24672.7125
483.4754	24632.5125
487.56496	24386.9125
491.6516	23846.9125
495.73531	23267.8125
499.81612	22910.7125
503.89401	22834.2125
507.96899	22883.8125
512.04106	22800.4125
516.11023	22585.8125
520.1765	22397.7125
524.23987	22195.8125
528.30034	21988.2125
532.35792	21842.4125
536.41261	21633.6125
540.46441	21390.6125
544.51333	21350.8125
548.55936	21667.1125
552.60252	22156.2125
556.64279	22832.9125
560.6802	23399.2125
564.71473	23778.7125
568.7464	24276.2125
572.7752	25112.9125
576.80114	25858.5125
580.82422	26303.0125
584.84444	26905.5125
588.86181	27894.4125
592.87633	28803.9125
596.888	28719.1125
600.89682	27575.7125
604.9028	27043.0125
608.90594	28088.0125
612.90624	29647.8125
616.90371	27866.8125
620.89834	23677.5125
624.89015	21747.2125
628.87913	21527.4125
632.86528	21677.9125
636.84862	21757.1125
640.82913	21436.5125
644.80683	20972.1125
648.78172	20654.2125
652.75379	20606.1125
656.72306	20759.2125
660.68952	20998.2125
664.65319	20823.4125
668.61405	20488.2125
672.57211	20379.9125
676.52738	20418.7125
680.47986	20525.9125
684.42955	20406.1125
688.37646	20321.0125
692.32058	20370.9125
696.26192	20591.9125
700.20048	20826.6125
704.13626	20957.0125
708.06928	21036.1125
711.99952	21012.6125
715.927	20986.5125
719.85171	21006.1125
723.77365	20946.5125
727.69284	20661.7125
731.60928	20454.1125
735.52295	20362.9125
739.43388	20352.2125
743.34206	20423.3125
747.24749	20500.0125
751.15017	20705.1125
755.05012	21069.4125
758.94733	21707.9125
762.8418	22770.3125
766.73354	24403.0125
770.62254	25863.6125
774.50882	26163.4125
778.39237	24978.6125
782.27321	23150.1125
786.15132	21646.7125
790.02671	20795.9125
793.89938	20356.7125
797.76935	20173.0125
801.6366	20100.3125
805.50115	20028.2125
809.36299	19912.1125
813.22213	19778.1125
817.07857	19774.9125
820.93231	19685.4125
824.78336	19573.5125
828.63172	19434.9125
832.47738	19379.4125
836.32036	19354.7125
840.16066	19390.2125
843.99827	19326.7125
847.8332	19304.7125
851.66546	19296.5125
855.49504	19285.3125
859.32195	19315.3125
863.1462	19207.2125
866.96777	19178.7125
870.78668	19145.4125
874.60293	19188.8125
878.41652	19169.6125
882.22745	19243.4125
886.03573	19250.0125
889.84136	19237.0125
893.64433	19174.6125
897.44466	19161.6125
901.24235	19057.0125
905.0374	19009.5125
908.8298	18915.3125
912.61957	18963.9125
916.40671	19147.7125
920.19121	19433.7125
923.97308	19691.4125
927.75233	19641.1125
931.52895	19423.6125
935.30295	19057.8125
939.07433	18694.9125
942.84309	18404.4125
946.60924	18227.0125
950.37278	18162.9125
954.13371	18157.9125
957.89203	18115.2125
961.64774	18161.8125
965.40086	18098.5125
969.15137	18045.1125
972.89929	17912.5125
976.64461	17821.3125
980.38733	17711.1125
984.12747	17710.4125
987.86502	17796.3125
991.59999	17915.2125
995.33237	18061.8125
999.06217	18352.2125
1002.78939	18706.1125
1006.51404	19002.8125
1010.23611	19281.0125
1013.95561	19538.0125
1017.67255	19627.5125
1021.38692	19444.6125
1025.09872	19106.5125
1028.80796	18811.3125
1032.51465	18806.9125
1036.21877	18945.2125
1039.92035	19080.1125
1043.61937	19096.5125
1047.31584	19084.5125
1051.00976	19023.6125
1054.70114	19047.5125
1058.38998	19124.9125
1062.07627	19306.1125
1065.76003	19529.5125
1069.44126	19709.9125
1073.11995	19921.1125
1076.79611	20159.1125
1080.46974	20228.9125
1084.14085	20364.7125
1087.80943	20597.5125
1091.47549	20754.5125
1095.13903	20822.6125
1098.80005	20624.9125
1102.45857	20138.8125
1106.11456	19778.8125
1109.76805	19626.2125
1113.41903	19661.1125
1117.06751	19850.7125
1120.71348	20111.5125
1124.35696	20396.5125
1127.99793	20753.5125
1131.63641	21002.9125
1135.2724	20799.3125
1138.90589	20602.0125
1142.5369	20651.9125
1146.16542	20819.3125
1149.79145	21133.1125
1153.415	21417.8125
1157.03607	21833.6125
1160.65467	22576.7125
1164.27079	23704.5125
1167.88443	25074.8125
1171.49561	26573.2125
1175.10432	28446.1125
1178.71056	30770.2125
1182.31434	32832.9125
1185.91565	33743.7125
1189.51451	33377.5125
1193.11091	32396.5125
1196.70485	31176.2125
1200.29634	30007.4125
1203.88538	29226.6125
1207.47197	28832.2125
1211.05612	28398.0125
1214.63782	27833.7125
1218.21708	27029.9125
1221.79391	26314.8125
1225.36829	25818.4125
1228.94024	25441.0125
1232.50976	24938.2125
1236.07685	24469.8125
1239.6415	24124.3125
1243.20374	24133.1125
1246.76355	24246.7125
1250.32093	24544.0125
1253.8759	25007.7125
1257.42845	25620.2125
1260.97859	26346.9125
1264.52631	27059.0125
1268.07163	27780.0125
1271.61453	28513.8125
1275.15503	29345.0125
1278.69312	30274.6125
1282.22882	31366.8125
1285.76211	32751.4125
1289.29301	34463.5125
1292.82151	36491.9125
1296.34761	38934.0125
1299.87133	41537.3125
1303.39266	44095.0125
1306.9116	46323.9125
1310.42815	48066.1125
1313.94233	49038.1125
1317.45412	48834.6125
1320.96354	47922.5125
1324.47058	46917.7125
1327.97525	46077.4125
1331.47754	45393.1125
1334.97747	44925.2125
1338.47502	44264.9125
1341.97022	43560.7125
1345.46305	42844.1125
1348.95352	42244.2125
1352.44163	42221.9125
1355.92738	43108.2125
1359.41078	44895.0125
1362.89183	46436.8125
1366.37053	45792.4125
1369.84688	42171.1125
1373.32088	37466.5125
1376.79254	34277.4125
1380.26186	33329.8125
1383.72883	33589.4125
1387.19347	33852.3125
1390.65578	33867.6125
1394.11575	34010.5125
1397.57339	34616.7125
1401.0287	35365.8125
1404.48168	35797.8125
1407.93234	35545.4125
1411.38068	34502.4125
1414.82669	32951.1125
1418.27039	31130.7125
1421.71177	29500.9125
1425.15083	28103.7125
1428.58758	27427.1125
1432.02203	27629.5125
1435.45416	28424.2125
1438.88399	29436.8125
1442.31151	30184.5125
1445.73673	30693.8125
1449.15965	31130.7125
1452.58027	31440.1125
1455.9986	31496.0125
1459.41463	31689.4125
1462.82837	32038.9125
1466.23982	32495.3125
1469.64898	32910.4125
1473.05586	33134.4125
1476.46045	33074.9125
1479.86276	32807.1125
1483.26279	32409.9125
1486.66054	32112.2125
1490.05602	32142.4125
1493.44922	32372.6125
1496.84016	32692.5125
1500.22882	33279.3125
1503.61521	34225.4125
1506.99934	35393.3125
1510.38121	36406.1125
1513.76081	36771.7125
1517.13816	36064.2125
1520.51324	34968.6125
1523.88607	34153.6125
1527.25665	33945.4125
1530.62498	34061.4125
1533.99105	34059.4125
1537.35488	33668.8125
1540.71647	32905.9125
1544.07581	31793.0125
1547.4329	30657.5125
1550.78776	29716.7125
1554.14038	28986.0125
1557.49077	28569.2125
1560.83892	28375.0125
1564.18484	28398.2125
1567.52853	28591.5125
1570.86999	29034.8125
1574.20922	29826.6125
1577.54624	30548.0125
1580.88103	30894.5125
1584.2136	31309.2125
1587.54395	32257.7125
1590.87208	33803.9125
1594.19801	35784.9125
1597.52172	37516.5125
1600.84321	37942.7125
1604.16251	36138.6125
1607.47959	32893.1125
1610.79447	29598.8125
1614.10715	26698.9125
1617.41763	24482.2125
1620.7259	23046.6125
1624.03199	22361.9125
1627.33587	22448.3125
1630.63757	23227.4125
1633.93707	24963.1125
1637.23439	27797.3125
1640.52951	31973.6125
1643.82246	37049.7125
1647.11321	41115.6125
1650.40179	41940.4125
1653.68819	38700.0125
1656.97241	32929.1125
1660.25446	27453.7125
1663.53433	23374.7125
1666.81203	20680.5125
1670.08756	19099.8125
1673.36092	18101.6125
1676.63211	17448.4125
1679.90115	17002.8125
1683.16801	16664.0125
1686.43272	16382.7125
1689.69527	16200.2125
1692.95567	16035.8125
1696.2139	15943.9125
1699.46999	15802.3125
1702.72392	15747.1125
1705.97571	15716.4125
1709.22535	15639.0125
1712.47284	15568.1125
1715.71819	15551.7125
1718.96139	15536.5125
1722.20246	15441.1125
1725.44139	15377.1125
1728.67818	15281.1125
1731.91284	15160.8125
1735.14537	15030.5125
1738.37576	14980.9125
1741.60403	14900.7125
1744.83017	14869.2125
1748.05418	14837.5125
1751.27607	14767.7125
1754.49584	14760.9125
1757.71349	14731.0125
1760.92903	14705.2125
1764.14244	14706.9125
1767.35375	14691.2125
1770.56294	14652.2125
1773.77002	14557.0125
1776.97499	14515.4125
1780.17785	14480.4125
1783.37861	14502.8125
1786.57727	14429.6125
1789.77382	14405.5125
1792.96828	14394.0125
1796.16064	14338.4125
1799.3509	14300.2125
1802.53907	14253.0125
1805.72514	14225.4125
1808.90913	14176.3125
1812.09102	14129.8125
1815.27083	14051.0125
1818.44856	14037.4125
1821.6242	14012.7125
1824.79776	13996.2125
1827.96924	13979.5125
1831.13864	13943.0125
1834.30597	13939.8125
1837.47122	13882.4125
1840.6344	13875.4125
1843.7955	13895.0125
1846.95454	13865.3125
1850.11151	13838.5125
1853.26642	13832.7125
1856.41926	13820.9125
1859.57004	13811.3125
1862.71876	13771.7125
1865.86542	13752.1125
1869.01003	13760.0125
1872.15258	13721.2125
1875.29308	13715.7125
1878.43152	13680.5125
1881.56792	13687.3125
1884.70227	13656.8125
1887.83457	13647.5125
1890.96482	13609.8125
1894.09304	13585.6125
1897.21921	13595.7125
1900.34335	13576.4125
1903.46544	13528.2125
1906.58551	13517.3125
1909.70353	13491.6125
1912.81953	13446.1125
1915.93349	13475.7125
1919.04543	13405.4125
1922.15534	13384.9125
1925.26322	13345.1125
1928.36908	13301.1125
1931.47292	13280.4125
1934.57473	13246.1125
1937.67453	13219.6125
1940.77232	13191.1125
1943.86808	13146.1125
1946.96184	13065.2125
1950.05358	13033.8125
1953.14331	12979.9125
1956.23103	12947.6125
1959.31675	12912.4125
1962.40046	12859.1125
1965.48217	12840.0125
1968.56188	12799.2125
1971.63959	12705.2125
1974.7153	12687.2125
1977.78901	12646.5125
1980.86073	12631.2125
1983.93046	12560.5125
1986.99819	12523.6125
1990.06394	12498.4125
1993.1277	12476.8125
1996.18947	12390.4125
1999.24925	12380.5125
2002.30706	12319.3125
2005.36288	12285.8125
2008.41672	12237.8125
2011.46859	12204.1125
2014.51848	12174.5125
2017.56639	12157.2125
2020.61233	12114.7125
2023.6563	12075.3125
2026.6983	12017.8125
2029.73833	12005.9125
2032.7764	11972.3125
2035.8125	11942.4125
2038.84664	11909.7125
2041.87881	11907.7125
2044.90903	11861.6125
2047.93729	11819.6125
2050.96359	11819.2125
2053.98794	11810.1125
2057.01034	11777.1125
2060.03078	11773.0125
2063.04927	11790.7125
2066.06582	11748.0125
2069.08042	11776.6125
2072.09307	11739.7125
2075.10378	11733.2125
2078.11255	11715.8125
2081.11938	11717.3125
2084.12426	11705.7125
2087.12722	11693.2125
2090.12824	11667.6125
2093.12732	11663.8125
2096.12447	11681.5125
2099.11969	11678.0125
2102.11299	11636.9125
2105.10435	11635.0125
2108.09379	11652.2125
2111.08131	11645.0125
2114.0669	11675.6125
2117.05057	11664.0125
2120.03233	11654.4125
2123.01216	11704.8125
2125.99008	11660.3125
2128.96609	11661.7125
2131.94018	11646.4125
2134.91236	11694.7125
2137.88263	11686.6125
2140.851	11689.1125
2143.81746	11689.5125
2146.78201	11688.0125
2149.74466	11661.7125
2152.7054	11619.6125
2155.66425	11580.3125
2158.6212	11615.5125
2161.57625	11581.4125
2164.52941	11605.7125
2167.48067	11590.5125
2170.43004	11547.2125
2173.37752	11560.4125
2176.32311	11565.3125
2179.26681	11557.6125
2182.20863	11574.5125
2185.14856	11553.2125
2188.08661	11563.9125
2191.02278	11584.6125
2193.95707	11533.0125
2196.88948	11516.2125
2199.82001	11498.2125
2202.74867	11478.5125
2205.67545	11451.6125
2208.60037	11429.7125
2211.52341	11429.0125
2214.44458	11401.5125
2217.36388	11350.4125
2220.28132	11327.8125
2223.1969	11291.1125
2226.11061	11279.5125
2229.02246	11286.7125
2231.93245	11247.8125
2234.84058	11217.8125
2237.74686	11199.4125
2240.65128	11189.3125
2243.55385	11172.4125
2246.45456	11155.3125
2249.35343	11132.5125
2252.25044	11122.0125
2255.14561	11071.7125
2258.03893	11054.8125
2260.93041	11021.8125
2263.82004	10985.5125
2266.70783	10971.2125
2269.59378	10913.3125
2272.4779	10899.8125
2275.36017	10833.6125
2278.24061	10852.2125
2281.11922	10841.3125
2283.996	10806.4125
2286.87094	10809.3125
2289.74405	10750.8125
2292.61534	10737.1125
2295.4848	10731.9125
2298.35243	10747.1125
2301.21824	10741.6125
2304.08223	10728.2125
2306.94439	10743.6125
2309.80474	10716.5125
2312.66327	10693.1125
2315.51999	10692.0125
2318.37489	10695.0125
2321.22797	10653.7125
2324.07925	10613.8125
2326.92871	10609.0125
2329.77637	10595.2125
2332.62222	10584.1125
2335.46626	10601.1125
2338.3085	10588.3125
2341.14893	10547.7125
2343.98756	10537.1125
2346.8244	10557.5125
2349.65943	10542.7125
2352.49267	10512.0125
2355.32411	10526.3125
2358.15376	10515.7125
2360.98161	10525.2125
2363.80768	10533.0125
2366.63195	10528.6125
2369.45444	10506.8125
2372.27514	10476.6125
2375.09405	10471.1125
2377.91118	10428.8125
2380.72652	10416.7125
2383.54009	10392.3125
2386.35187	10365.9125
2389.16188	10324.3125
2391.97011	10319.6125
2394.77657	10290.0125
2397.58125	10275.0125
2400.38416	10259.5125
2403.18529	10214.7125
2405.98466	10227.8125
2408.78226	10194.2125
2411.57809	10189.6125
2414.37216	10171.5125
2417.16446	10170.0125
2419.955	10165.2125
2422.74378	10148.9125
2425.5308	10142.5125
2428.31606	10132.1125
2431.09956	10090.2125
2433.88131	10091.4125
2436.6613	10090.4125
2439.43954	10093.1125
2442.21603	10069.5125
2444.99077	10076.8125
2447.76377	10065.6125
2450.53501	10070.7125
2453.30451	10052.1125
2456.07226	10062.3125
2458.83827	10050.0125
2461.60254	10028.2125
2464.36507	9993.2125
2467.12586	10039.4125
2469.88492	10035.2125
2472.64224	10025.8125
2475.39782	10032.6125
2478.15167	10031.4125
2480.90379	10021.8125
2483.65417	10020.0125
2486.40283	10012.5125
2489.14976	10033.5125
2491.89497	10014.1125
2494.63845	10000.3125
2497.3802	9991.2125
2500.12024	9999.5125
2502.85855	10002.0125
2505.59514	9975.6125
2508.33002	9983.7125
2511.06318	9951.7125
2513.79462	9944.4125
2516.52435	9955.5125
2519.25237	9921.2125
2521.97867	9918.0125
2524.70327	9904.5125
2527.42616	9882.7125
2530.14734	9885.3125
2532.86681	9875.0125
2535.58458	9872.0125
2538.30065	9861.5125
2541.01501	9856.2125
2543.72768	9826.6125
2546.43864	9833.9125
2549.14791	9816.1125
2551.85548	9812.0125
2554.56136	9801.4125
2557.26554	9778.0125
2559.96803	9777.6125
2562.66883	9749.5125
2565.36794	9723.5125
2568.06536	9730.1125
2570.7611	9722.1125
2573.45514	9713.9125
2576.14751	9693.4125
2578.83819	9688.6125
2581.52719	9693.4125
2584.21451	9680.3125
2586.90015	9679.3125
2589.58411	9686.2125
2592.2664	9664.5125
2594.94701	9649.0125
2597.62594	9653.5125
2600.30321	9616.7125
2602.9788	9628.5125
2605.65273	9646.5125
2608.32498	9643.1125
2610.99557	9611.1125
2613.66449	9630.8125
2616.33175	9609.2125
2618.99734	9617.0125
2621.66128	9598.4125
2624.32355	9584.0125
2626.98416	9573.8125
2629.64311	9560.1125
2632.30041	9552.8125
2634.95605	9545.5125
2637.61004	9521.1125
2640.26238	9547.8125
2642.91306	9502.7125
2645.56209	9504.1125
2648.20948	9521.4125
2650.85521	9511.6125
2653.4993	9538.5125
2656.14175	9521.3125
2658.78255	9558.0125
2661.42171	9553.8125
2664.05923	9545.2125
2666.6951	9537.0125
2669.32934	9536.1125
2671.96194	9549.7125
2674.59291	9521.5125
2677.22224	9538.9125
2679.84993	9542.4125
2682.476	9509.6125
2685.10043	9525.9125
2687.72324	9512.5125
2690.34441	9497.1125
2692.96396	9505.8125
2695.58188	9494.5125
2698.19818	9479.6125
2700.81285	9511.8125
2703.4259	9490.4125
2706.03733	9512.5125
2708.64714	9517.3125
2711.25533	9520.9125
2713.86191	9505.4125
2716.46687	9544.1125
2719.07021	9547.0125
2721.67194	9548.4125
2724.27206	9533.6125
2726.87057	9540.5125
2729.46747	9551.8125
2732.06276	9535.5125
2734.65644	9538.9125
2737.24852	9548.4125
2739.83899	9504.6125
2742.42786	9521.3125
2745.01513	9539.4125
2747.60079	9505.0125
2750.18486	9492.2125
2752.76733	9483.0125
2755.3482	9500.6125
2757.92747	9495.7125
2760.50515	9474.1125
2763.08123	9465.9125
2765.65573	9433.5125
2768.22863	9470.9125
2770.79994	9423.8125
2773.36967	9441.5125
2775.9378	9458.0125
2778.50435	9471.3125
2781.06932	9420.5125
2783.6327	9442.0125
2786.1945	9432.0125
2788.75471	9416.6125
2791.31335	9426.7125
2793.87041	9416.1125
2796.42589	9387.1125
2798.97979	9368.1125
2801.53212	9352.8125
2804.08288	9351.8125
2806.63206	9310.7125
2809.17967	9301.8125
2811.72571	9292.5125
2814.27018	9276.2125
2816.81308	9267.0125
2819.35442	9255.8125
2821.89419	9228.4125
2824.43239	9224.5125
2826.96904	9232.8125
2829.50412	9238.6125
2832.03763	9209.6125
2834.56959	9183.2125
2837.1	9194.8125
2839.62884	9218.1125
2842.15613	9227.1125
2844.68186	9256.9125
2847.20604	9327.4125
2849.72867	9336.5125
2852.24974	9325.6125
2854.76927	9337.0125
2857.28724	9301.7125
2859.80367	9296.0125
2862.31855	9271.6125
2864.83189	9253.0125
2867.34368	9214.5125
2869.85393	9221.9125
2872.36264	9213.0125
2874.8698	9203.4125
2877.37543	9232.1125
2879.87952	9210.9125
2882.38207	9196.5125
2884.88308	9193.6125
2887.38256	9191.9125
2889.88051	9183.5125
2892.37692	9190.8125
2894.8718	9198.5125
2897.36515	9190.7125
2899.85698	9211.7125
2902.34727	9236.9125
2904.83604	9227.5125
2907.32328	9254.6125
2909.809	9224.0125
2912.29319	9224.7125
2914.77587	9246.1125
2917.25702	9232.4125
2919.73665	9230.5125
2922.21476	9208.9125
2924.69136	9227.7125
2927.16644	9197.9125
2929.64	9215.2125
2932.11205	9184.2125
2934.58258	9166.7125
2937.05161	9167.0125
2939.51912	9153.9125
2941.98513	9131.8125
2944.44962	9107.7125
2946.91261	9066.0125
2949.37409	9067.8125
2951.83407	9039.7125
2954.29254	9008.4125
2956.74951	9023.4125
2959.20498	8998.7125
2961.65895	8983.8125
2964.11142	8970.4125
2966.56239	8944.8125
2969.01186	8958.0125
2971.45984	8928.2125
2973.90632	8886.1125
2976.35131	8866.6125
2978.7948	8864.2125
2981.23681	8820.7125
2983.67732	8808.3125
2986.11635	8773.7125
2988.55388	8747.9125
2990.98993	8719.9125
2993.4245	8709.9125
2995.85758	8668.5125
2998.28917	8655.7125
3000.71928	8643.8125
3003.14791	8632.5125
3005.57506	8595.7125
3008.00073	8569.0125
3010.42493	8555.0125
3012.84764	8528.6125
3015.26888	8556.7125
3017.68865	8503.5125
3020.10694	8495.3125
3022.52376	8460.5125
3024.9391	8443.9125
3027.35298	8463.9125
3029.76539	8417.6125
3032.17632	8377.9125
3034.5858	8409.9125
3036.9938	8406.0125
3039.40034	8407.4125
3041.80542	8400.3125
3044.20903	8377.3125
3046.61118	8372.7125
3049.01187	8350.6125
