Data from AgNPs_FTO_APTES_UA_5uM_CRN_1000uM_R6G_10uM_NaF_0.1M_Addition_RamanShift__8__17-33-11-870.txt Node

Date: Mon Feb 07 17:33:11 GMT 2022
User: TCL
Spectrometer: QEP01345
Trigger mode: 4
Integration Time (sec): 7.000000E0
Scans to average: 10
Electric dark correction enabled: true
Nonlinearity correction enabled: false
Boxcar width: 0
XAxis mode: Raman Shifts
Number of Pixels in Spectrum: 1044
>>>>>Begin Spectral Data<<<<<
46.04893	-1.9375
50.45542	-1.3375
54.85868	0.2625
59.25871	0.1625
63.6555	56.8625
68.04907	60.7625
72.43941	64.6625
76.82654	66.1625
81.21044	65.4625
85.59113	67.8625
89.96862	74.0625
94.34289	73.6625
98.71396	77.0625
103.08183	78.3625
107.4465	83.7625
111.80798	83.4625
116.16626	86.2625
120.52136	93.4625
124.87327	96.7625
129.222	100.9625
133.56755	106.5625
137.90993	121.6625
142.24913	131.0625
146.58517	146.4625
150.91804	172.6625
155.24774	213.5625
159.57429	266.1625
163.89768	341.4625
168.21792	455.8625
172.53501	619.5625
176.84895	868.5625
181.15975	1236.0625
185.46741	1736.9625
189.77193	2381.2625
194.07331	3212.2625
198.37157	4132.7625
202.6667	5103.5625
206.9587	6070.0625
211.24758	7034.6625
215.53334	7984.4625
219.81599	8979.8625
224.09553	10075.4625
228.37195	11273.0625
232.64527	12543.6625
236.91549	13933.7625
241.18261	15336.6625
245.44663	16620.7625
249.70755	17834.5625
253.96539	18887.3625
258.22014	19780.4625
262.4718	20504.2625
266.72039	20959.7625
270.96589	21295.6625
275.20832	21407.0625
279.44768	21334.5625
283.68397	21196.5625
287.91719	21049.6625
292.14735	21035.6625
296.37445	21029.0625
300.59849	21119.8625
304.81948	21126.3625
309.03742	21062.2625
313.25231	20838.7625
317.46415	20435.5625
321.67296	19954.8625
325.87872	19525.4625
330.08145	19283.6625
334.28114	19208.4625
338.47781	19275.4625
342.67145	19409.9625
346.86207	19667.4625
351.04966	19978.0625
355.23424	20226.4625
359.4158	20473.2625
363.59435	20626.3625
367.76989	20796.4625
371.94243	20871.2625
376.11196	20939.7625
380.27849	20984.3625
384.44203	21097.6625
388.60257	21290.8625
392.76012	21546.9625
396.91468	21809.8625
401.06626	22103.1625
405.21485	22282.7625
409.36047	22187.3625
413.50311	21944.5625
417.64277	21838.1625
421.77947	21875.5625
425.9132	22008.3625
430.04396	22218.4625
434.17176	22403.4625
438.2966	22556.7625
442.41849	22901.3625
446.53742	23492.6625
450.6534	24148.3625
454.76644	24587.4625
458.87653	24782.8625
462.98368	24718.8625
467.08789	24557.4625
471.18916	24376.8625
475.2875	24237.1625
479.38291	24277.9625
483.4754	24265.5625
487.56496	24000.9625
491.6516	23428.0625
495.73531	22855.1625
499.81612	22442.9625
503.89401	22366.0625
507.96899	22433.2625
512.04106	22347.0625
516.11023	22147.2625
520.1765	21906.7625
524.23987	21665.0625
528.30034	21452.2625
532.35792	21306.6625
536.41261	21041.6625
540.46441	20944.6625
544.51333	20933.6625
548.55936	21224.2625
552.60252	21715.3625
556.64279	22348.3625
560.6802	22902.4625
564.71473	23314.8625
568.7464	23838.5625
572.7752	24715.6625
576.80114	25628.8625
580.82422	26287.8625
584.84444	26933.3625
588.86181	27855.6625
592.87633	28675.9625
596.888	28402.9625
600.89682	27098.1625
604.9028	26302.8625
608.90594	26863.9625
612.90624	27710.7625
616.90371	25978.2625
620.89834	22604.6625
624.89015	21148.8625
628.87913	21015.6625
632.86528	21266.7625
636.84862	21274.8625
640.82913	21021.5625
644.80683	20554.7625
648.78172	20255.5625
652.75379	20198.9625
656.72306	20297.2625
660.68952	20505.0625
664.65319	20379.2625
668.61405	20104.0625
672.57211	20067.7625
676.52738	20140.0625
680.47986	20206.0625
684.42955	20126.8625
688.37646	20045.0625
692.32058	20084.9625
696.26192	20233.0625
700.20048	20446.1625
704.13626	20644.3625
708.06928	20736.9625
711.99952	20733.3625
715.927	20725.9625
719.85171	20720.7625
723.77365	20592.3625
727.69284	20320.1625
731.60928	20097.2625
735.52295	20010.3625
739.43388	19999.3625
743.34206	20029.2625
747.24749	20123.7625
751.15017	20330.8625
755.05012	20713.7625
758.94733	21281.3625
762.8418	22237.1625
766.73354	23624.6625
770.62254	24784.7625
774.50882	24857.0625
778.39237	23783.6625
782.27321	22214.6625
786.15132	21023.4625
790.02671	20306.5625
793.89938	19943.7625
797.76935	19771.7625
801.6366	19716.8625
805.50115	19673.6625
809.36299	19559.4625
813.22213	19479.5625
817.07857	19435.2625
820.93231	19402.2625
824.78336	19252.1625
828.63172	19075.8625
832.47738	18992.3625
836.32036	18961.9625
840.16066	18926.6625
843.99827	18904.1625
847.8332	18891.7625
851.66546	18893.4625
855.49504	18929.7625
859.32195	18903.2625
863.1462	18882.1625
866.96777	18802.3625
870.78668	18750.8625
874.60293	18770.4625
878.41652	18800.4625
882.22745	18846.4625
886.03573	18877.4625
889.84136	18880.7625
893.64433	18806.6625
897.44466	18771.0625
901.24235	18709.8625
905.0374	18647.4625
908.8298	18609.1625
912.61957	18677.0625
916.40671	18881.7625
920.19121	19202.8625
923.97308	19369.7625
927.75233	19279.7625
931.52895	19027.1625
935.30295	18663.5625
939.07433	18290.0625
942.84309	18006.9625
946.60924	17879.6625
950.37278	17808.7625
954.13371	17779.4625
957.89203	17785.0625
961.64774	17822.5625
965.40086	17782.9625
969.15137	17746.7625
972.89929	17580.4625
976.64461	17439.9625
980.38733	17398.8625
984.12747	17339.2625
987.86502	17362.6625
991.59999	17440.1625
995.33237	17530.6625
999.06217	17738.5625
1002.78939	17985.7625
1006.51404	18276.7625
1010.23611	18559.9625
1013.95561	18807.7625
1017.67255	18898.1625
1021.38692	18731.4625
1025.09872	18452.9625
1028.80796	18183.2625
1032.51465	18053.1625
1036.21877	18083.4625
1039.92035	18166.0625
1043.61937	18237.4625
1047.31584	18340.3625
1051.00976	18437.2625
1054.70114	18522.7625
1058.38998	18697.1625
1062.07627	18921.4625
1065.76003	19149.3625
1069.44126	19384.3625
1073.11995	19636.3625
1076.79611	19782.1625
1080.46974	19858.5625
1084.14085	19943.0625
1087.80943	20073.8625
1091.47549	20287.7625
1095.13903	20433.7625
1098.80005	20232.5625
1102.45857	19749.2625
1106.11456	19366.4625
1109.76805	19127.4625
1113.41903	19141.1625
1117.06751	19240.8625
1120.71348	19495.3625
1124.35696	19717.6625
1127.99793	20080.2625
1131.63641	20305.9625
1135.2724	20237.7625
1138.90589	20115.1625
1142.5369	20225.2625
1146.16542	20489.0625
1149.79145	20826.1625
1153.415	21146.5625
1157.03607	21581.8625
1160.65467	22318.6625
1164.27079	23431.6625
1167.88443	24758.6625
1171.49561	26129.5625
1175.10432	27717.4625
1178.71056	29617.1625
1182.31434	31338.5625
1185.91565	32119.0625
1189.51451	31982.5625
1193.11091	31246.9625
1196.70485	30382.1625
1200.29634	29403.5625
1203.88538	28762.2625
1207.47197	28605.5625
1211.05612	28389.6625
1214.63782	27867.6625
1218.21708	26931.3625
1221.79391	25967.8625
1225.36829	25249.2625
1228.94024	24801.1625
1232.50976	24373.0625
1236.07685	23976.6625
1239.6415	23687.7625
1243.20374	23700.6625
1246.76355	23866.6625
1250.32093	24143.8625
1253.8759	24608.3625
1257.42845	25206.9625
1260.97859	25869.9625
1264.52631	26596.8625
1268.07163	27278.1625
1271.61453	27946.7625
1275.15503	28734.7625
1278.69312	29740.0625
1282.22882	30825.1625
1285.76211	32277.2625
1289.29301	34004.4625
1292.82151	36089.6625
1296.34761	38508.9625
1299.87133	41038.1625
1303.39266	43279.5625
1306.9116	45029.3625
1310.42815	46202.9625
1313.94233	46695.0625
1317.45412	46471.4625
1320.96354	45826.8625
1324.47058	45472.2625
1327.97525	45076.6625
1331.47754	44780.1625
1334.97747	44490.7625
1338.47502	43986.0625
1341.97022	43329.0625
1345.46305	42575.6625
1348.95352	41873.4625
1352.44163	41402.5625
1355.92738	41687.8625
1359.41078	42603.3625
1362.89183	43434.6625
1366.37053	42765.2625
1369.84688	39902.1625
1373.32088	36046.3625
1376.79254	33422.5625
1380.26186	32707.5625
1383.72883	33072.0625
1387.19347	33538.1625
1390.65578	33611.4625
1394.11575	33714.8625
1397.57339	34218.3625
1401.0287	34830.9625
1404.48168	35138.8625
1407.93234	34700.6625
1411.38068	33544.4625
1414.82669	31920.2625
1418.27039	30099.9625
1421.71177	28470.0625
1425.15083	27166.5625
1428.58758	26566.7625
1432.02203	26753.5625
1435.45416	27550.4625
1438.88399	28525.7625
1442.31151	29344.2625
1445.73673	29852.0625
1449.15965	30326.4625
1452.58027	30662.3625
1455.9986	30821.4625
1459.41463	31050.1625
1462.82837	31319.6625
1466.23982	31737.6625
1469.64898	32149.6625
1473.05586	32219.4625
1476.46045	32151.6625
1479.86276	31723.2625
1483.26279	31290.7625
1486.66054	30979.4625
1490.05602	30978.4625
1493.44922	31118.6625
1496.84016	31455.9625
1500.22882	31918.6625
1503.61521	32597.4625
1506.99934	33474.9625
1510.38121	34229.3625
1513.76081	34474.5625
1517.13816	34121.9625
1520.51324	33700.4625
1523.88607	33518.4625
1527.25665	33736.7625
1530.62498	34000.4625
1533.99105	33936.2625
1537.35488	33485.8625
1540.71647	32551.0625
1544.07581	31474.9625
1547.4329	30244.6625
1550.78776	29259.8625
1554.14038	28513.6625
1557.49077	28065.2625
1560.83892	27791.6625
1564.18484	27714.5625
1567.52853	27826.3625
1570.86999	28319.1625
1574.20922	29107.5625
1577.54624	29948.4625
1580.88103	30495.3625
1584.2136	31056.3625
1587.54395	32031.1625
1590.87208	33407.9625
1594.19801	35067.8625
1597.52172	36513.4625
1600.84321	36607.8625
1604.16251	34698.4625
1607.47959	31725.1625
1610.79447	28722.3625
1614.10715	26069.3625
1617.41763	23942.2625
1620.7259	22563.7625
1624.03199	21914.5625
1627.33587	21975.0625
1630.63757	22812.9625
1633.93707	24519.9625
1637.23439	27339.4625
1640.52951	31422.6625
1643.82246	36161.1625
1647.11321	39905.3625
1650.40179	40438.4625
1653.68819	37153.9625
1656.97241	31803.6625
1660.25446	26543.3625
1663.53433	22692.7625
1666.81203	20119.4625
1670.08756	18520.6625
1673.36092	17558.4625
1676.63211	16932.8625
1679.90115	16481.9625
1683.16801	16132.3625
1686.43272	15855.7625
1689.69527	15634.9625
1692.95567	15509.5625
1696.2139	15403.1625
1699.46999	15267.8625
1702.72392	15197.2625
1705.97571	15149.9625
1709.22535	15087.6625
1712.47284	15018.9625
1715.71819	14944.0625
1718.96139	14912.5625
1722.20246	14828.4625
1725.44139	14763.4625
1728.67818	14631.9625
1731.91284	14544.9625
1735.14537	14465.1625
1738.37576	14395.7625
1741.60403	14317.2625
1744.83017	14259.5625
1748.05418	14202.2625
1751.27607	14189.6625
1754.49584	14145.1625
1757.71349	14161.7625
1760.92903	14116.3625
1764.14244	14082.8625
1767.35375	14082.6625
1770.56294	14000.2625
1773.77002	14006.2625
1776.97499	13938.9625
1780.17785	13903.7625
1783.37861	13860.8625
1786.57727	13820.7625
1789.77382	13765.9625
1792.96828	13761.5625
1796.16064	13695.8625
1799.3509	13672.0625
1802.53907	13620.5625
1805.72514	13583.7625
1808.90913	13536.7625
1812.09102	13470.1625
1815.27083	13441.7625
1818.44856	13402.7625
1821.6242	13378.1625
1824.79776	13369.0625
1827.96924	13338.2625
1831.13864	13293.9625
1834.30597	13306.4625
1837.47122	13266.1625
1840.6344	13282.1625
1843.7955	13259.7625
1846.95454	13239.4625
1850.11151	13211.2625
1853.26642	13191.0625
1856.41926	13168.9625
1859.57004	13148.9625
1862.71876	13161.1625
1865.86542	13114.2625
1869.01003	13112.4625
1872.15258	13082.2625
1875.29308	13050.8625
1878.43152	13025.3625
1881.56792	13012.2625
1884.70227	12998.0625
1887.83457	12972.2625
1890.96482	12938.1625
1894.09304	12900.9625
1897.21921	12914.3625
1900.34335	12900.9625
1903.46544	12872.5625
1906.58551	12826.8625
1909.70353	12821.9625
1912.81953	12764.7625
1915.93349	12713.1625
1919.04543	12718.7625
1922.15534	12675.6625
1925.26322	12666.8625
1928.36908	12620.0625
1931.47292	12593.8625
1934.57473	12552.6625
1937.67453	12525.7625
1940.77232	12486.1625
1943.86808	12433.6625
1946.96184	12370.1625
1950.05358	12386.8625
1953.14331	12317.9625
1956.23103	12271.2625
1959.31675	12219.9625
1962.40046	12197.0625
1965.48217	12147.3625
1968.56188	12088.7625
1971.63959	12051.9625
1974.7153	11980.1625
1977.78901	11960.8625
1980.86073	11906.0625
1983.93046	11865.6625
1986.99819	11830.7625
1990.06394	11790.7625
1993.1277	11760.6625
1996.18947	11719.0625
1999.24925	11707.9625
2002.30706	11649.8625
2005.36288	11565.6625
2008.41672	11536.5625
2011.46859	11536.5625
2014.51848	11467.7625
2017.56639	11450.0625
2020.61233	11426.4625
2023.6563	11363.4625
2026.6983	11319.0625
2029.73833	11280.8625
2032.7764	11278.8625
2035.8125	11269.0625
2038.84664	11240.1625
2041.87881	11197.7625
2044.90903	11145.2625
2047.93729	11148.1625
2050.96359	11125.9625
2053.98794	11087.7625
2057.01034	11090.7625
2060.03078	11086.5625
2063.04927	11074.8625
2066.06582	11065.1625
2069.08042	11061.0625
2072.09307	11049.1625
2075.10378	11022.6625
2078.11255	10992.8625
2081.11938	11012.9625
2084.12426	10987.9625
2087.12722	10988.7625
2090.12824	10946.9625
2093.12732	10944.4625
2096.12447	10960.1625
2099.11969	10924.0625
2102.11299	10935.3625
2105.10435	10916.7625
2108.09379	10909.7625
2111.08131	10901.6625
2114.0669	10924.1625
2117.05057	10929.1625
2120.03233	10938.6625
2123.01216	10937.8625
2125.99008	10955.1625
2128.96609	10944.4625
2131.94018	10895.3625
2134.91236	10914.4625
2137.88263	10938.5625
2140.851	10903.6625
2143.81746	10909.7625
2146.78201	10906.2625
2149.74466	10906.4625
2152.7054	10872.0625
2155.66425	10842.3625
2158.6212	10844.8625
2161.57625	10831.3625
2164.52941	10808.9625
2167.48067	10838.2625
2170.43004	10805.5625
2173.37752	10771.2625
2176.32311	10797.1625
2179.26681	10776.9625
2182.20863	10773.6625
2185.14856	10785.3625
2188.08661	10772.5625
2191.02278	10802.1625
2193.95707	10740.0625
2196.88948	10741.1625
2199.82001	10702.2625
2202.74867	10673.5625
2205.67545	10643.0625
2208.60037	10624.6625
2211.52341	10584.2625
2214.44458	10591.9625
2217.36388	10573.5625
2220.28132	10507.8625
2223.1969	10491.0625
2226.11061	10498.4625
2229.02246	10464.8625
2231.93245	10453.1625
2234.84058	10415.9625
2237.74686	10380.4625
2240.65128	10404.2625
2243.55385	10367.7625
2246.45456	10350.0625
2249.35343	10344.8625
2252.25044	10301.3625
2255.14561	10271.0625
2258.03893	10251.5625
2260.93041	10200.4625
2263.82004	10159.5625
2266.70783	10174.7625
2269.59378	10095.2625
2272.4779	10061.7625
2275.36017	10029.4625
2278.24061	10018.4625
2281.11922	10022.5625
2283.996	9982.1625
2286.87094	9958.0625
2289.74405	9914.2625
2292.61534	9915.2625
2295.4848	9880.9625
2298.35243	9910.6625
2301.21824	9899.2625
2304.08223	9868.8625
2306.94439	9904.9625
2309.80474	9852.6625
2312.66327	9855.0625
2315.51999	9828.1625
2318.37489	9835.8625
2321.22797	9812.1625
2324.07925	9776.6625
2326.92871	9770.7625
2329.77637	9740.4625
2332.62222	9749.6625
2335.46626	9710.9625
2338.3085	9685.2625
2341.14893	9693.0625
2343.98756	9693.5625
2346.8244	9668.2625
2349.65943	9649.4625
2352.49267	9657.3625
2355.32411	9647.6625
2358.15376	9634.2625
2360.98161	9652.3625
2363.80768	9658.3625
2366.63195	9632.1625
2369.45444	9616.7625
2372.27514	9600.6625
2375.09405	9574.9625
2377.91118	9553.6625
2380.72652	9544.5625
2383.54009	9498.6625
2386.35187	9498.9625
2389.16188	9471.6625
2391.97011	9450.7625
2394.77657	9414.1625
2397.58125	9396.6625
2400.38416	9401.9625
2403.18529	9352.2625
2405.98466	9337.0625
2408.78226	9325.2625
2411.57809	9332.5625
2414.37216	9307.9625
2417.16446	9294.2625
2419.955	9283.6625
2422.74378	9273.2625
2425.5308	9261.6625
2428.31606	9256.4625
2431.09956	9223.2625
2433.88131	9219.8625
2436.6613	9218.9625
2439.43954	9217.8625
2442.21603	9209.8625
2444.99077	9176.6625
2447.76377	9172.3625
2450.53501	9159.4625
2453.30451	9175.4625
2456.07226	9153.2625
2458.83827	9132.9625
2461.60254	9117.4625
2464.36507	9141.2625
2467.12586	9135.9625
2469.88492	9117.4625
2472.64224	9115.1625
2475.39782	9103.5625
2478.15167	9109.7625
2480.90379	9095.5625
2483.65417	9096.2625
2486.40283	9091.5625
2489.14976	9088.9625
2491.89497	9094.4625
2494.63845	9085.3625
2497.3802	9086.8625
2500.12024	9086.2625
2502.85855	9059.3625
2505.59514	9062.3625
2508.33002	9058.0625
2511.06318	9017.7625
2513.79462	9031.8625
2516.52435	8996.6625
2519.25237	9021.6625
2521.97867	8978.0625
2524.70327	8976.3625
2527.42616	8954.8625
2530.14734	8958.7625
2532.86681	8957.0625
2535.58458	8952.5625
2538.30065	8935.9625
2541.01501	8926.1625
2543.72768	8921.8625
2546.43864	8892.0625
2549.14791	8871.0625
2551.85548	8883.1625
2554.56136	8854.0625
2557.26554	8849.3625
2559.96803	8830.7625
2562.66883	8818.1625
2565.36794	8803.8625
2568.06536	8797.1625
2570.7611	8793.0625
2573.45514	8770.1625
2576.14751	8740.9625
2578.83819	8729.8625
2581.52719	8735.8625
2584.21451	8733.7625
2586.90015	8734.4625
2589.58411	8723.8625
2592.2664	8713.7625
2594.94701	8711.2625
2597.62594	8700.1625
2600.30321	8670.4625
2602.9788	8665.9625
2605.65273	8661.9625
2608.32498	8688.1625
2610.99557	8690.0625
2613.66449	8654.4625
2616.33175	8670.1625
2618.99734	8629.1625
2621.66128	8638.7625
2624.32355	8616.7625
2626.98416	8615.2625
2629.64311	8589.4625
2632.30041	8583.5625
2634.95605	8556.9625
2637.61004	8563.1625
2640.26238	8569.9625
2642.91306	8557.0625
2645.56209	8563.8625
2648.20948	8567.4625
2650.85521	8552.7625
2653.4993	8555.8625
2656.14175	8568.1625
2658.78255	8580.0625
2661.42171	8566.5625
2664.05923	8568.7625
2666.6951	8573.0625
2669.32934	8587.7625
2671.96194	8563.9625
2674.59291	8583.9625
2677.22224	8539.6625
2679.84993	8532.2625
2682.476	8522.8625
2685.10043	8546.8625
2687.72324	8524.9625
2690.34441	8524.1625
2692.96396	8526.4625
2695.58188	8518.9625
2698.19818	8514.6625
2700.81285	8543.9625
2703.4259	8527.7625
2706.03733	8535.8625
2708.64714	8543.2625
2711.25533	8544.2625
2713.86191	8515.6625
2716.46687	8547.8625
2719.07021	8523.3625
2721.67194	8569.1625
2724.27206	8553.7625
2726.87057	8539.9625
2729.46747	8578.2625
2732.06276	8569.1625
2734.65644	8524.7625
2737.24852	8519.4625
2739.83899	8531.8625
2742.42786	8527.1625
2745.01513	8521.3625
2747.60079	8530.1625
2750.18486	8505.8625
2752.76733	8489.2625
2755.3482	8485.7625
2757.92747	8452.9625
2760.50515	8451.7625
2763.08123	8442.2625
2765.65573	8449.8625
2768.22863	8452.0625
2770.79994	8427.0625
2773.36967	8444.0625
2775.9378	8444.2625
2778.50435	8439.9625
2781.06932	8438.7625
2783.6327	8404.8625
2786.1945	8388.9625
2788.75471	8408.5625
2791.31335	8416.0625
2793.87041	8381.6625
2796.42589	8381.1625
2798.97979	8386.3625
2801.53212	8333.4625
2804.08288	8352.0625
2806.63206	8306.4625
2809.17967	8302.4625
2811.72571	8283.5625
2814.27018	8275.1625
2816.81308	8261.6625
2819.35442	8244.1625
2821.89419	8186.7625
2824.43239	8221.6625
2826.96904	8212.8625
2829.50412	8197.5625
2832.03763	8174.3625
2834.56959	8172.5625
2837.1	8181.1625
2839.62884	8198.5625
2842.15613	8209.7625
2844.68186	8266.3625
2847.20604	8317.3625
2849.72867	8305.9625
2852.24974	8300.3625
2854.76927	8276.3625
2857.28724	8292.9625
2859.80367	8284.9625
2862.31855	8240.6625
2864.83189	8235.5625
2867.34368	8217.6625
2869.85393	8200.1625
2872.36264	8204.8625
2874.8698	8203.4625
2877.37543	8165.1625
2879.87952	8177.0625
2882.38207	8149.1625
2884.88308	8158.2625
2887.38256	8158.8625
2889.88051	8150.1625
2892.37692	8148.5625
2894.8718	8161.7625
2897.36515	8155.7625
2899.85698	8173.4625
2902.34727	8168.0625
2904.83604	8181.4625
2907.32328	8181.1625
2909.809	8191.6625
2912.29319	8173.1625
2914.77587	8164.5625
2917.25702	8175.6625
2919.73665	8162.5625
2922.21476	8151.3625
2924.69136	8163.8625
2927.16644	8167.6625
2929.64	8147.7625
2932.11205	8129.8625
2934.58258	8105.6625
2937.05161	8111.1625
2939.51912	8131.5625
2941.98513	8084.3625
2944.44962	8075.8625
2946.91261	8030.5625
2949.37409	8004.0625
2951.83407	7981.1625
2954.29254	7956.0625
2956.74951	7962.8625
2959.20498	7940.8625
2961.65895	7941.0625
2964.11142	7913.2625
2966.56239	7883.5625
2969.01186	7893.3625
2971.45984	7836.8625
2973.90632	7841.4625
2976.35131	7814.7625
2978.7948	7798.7625
2981.23681	7774.6625
2983.67732	7740.7625
2986.11635	7722.4625
2988.55388	7700.3625
2990.98993	7653.6625
2993.4245	7638.4625
2995.85758	7606.0625
2998.28917	7600.2625
3000.71928	7586.4625
3003.14791	7560.6625
3005.57506	7538.0625
3008.00073	7518.2625
3010.42493	7498.8625
3012.84764	7474.0625
3015.26888	7487.9625
3017.68865	7453.1625
3020.10694	7452.3625
3022.52376	7436.4625
3024.9391	7402.2625
3027.35298	7379.0625
3029.76539	7357.4625
3032.17632	7380.8625
3034.5858	7364.6625
3036.9938	7342.1625
3039.40034	7360.5625
3041.80542	7351.0625
3044.20903	7322.4625
3046.61118	7331.7625
3049.01187	7296.2625
3051.4111	7279.6625
3053.80888	7273.2625
3056.20519	7256.9625
