Data from AgNPs_FTO_APTES_UA_5uM_CRN_2uM_R6G_10uM_NaF_0.1M_Addition_RamanShift__21__11-21-26-638.txt Node

Date: Mon Feb 07 11:21:26 GMT 2022
User: TCL
Spectrometer: QEP01345
Trigger mode: 4
Integration Time (sec): 7.000000E0
Scans to average: 10
Electric dark correction enabled: true
Nonlinearity correction enabled: false
Boxcar width: 0
XAxis mode: Raman Shifts
Number of Pixels in Spectrum: 1044
>>>>>Begin Spectral Data<<<<<
46.04893	-0.3875
50.45542	-2.1875
54.85868	-0.8875
59.25871	-0.0875
63.6555	103.9125
68.04907	112.4125
72.43941	116.1125
76.82654	120.8125
81.21044	122.5125
85.59113	129.1125
89.96862	130.0125
94.34289	135.9125
98.71396	140.6125
103.08183	146.0125
107.4465	149.0125
111.80798	154.8125
116.16626	160.8125
120.52136	164.8125
124.87327	173.1125
129.222	179.5125
133.56755	200.2125
137.90993	217.2125
142.24913	238.5125
146.58517	269.6125
150.91804	309.4125
155.24774	379.2125
159.57429	476.3125
163.89768	613.3125
168.21792	822.0125
172.53501	1118.1125
176.84895	1559.1125
181.15975	2198.3125
185.46741	3084.4125
189.77193	4257.0125
194.07331	5691.6125
198.37157	7322.0125
202.6667	9042.3125
206.9587	10727.8125
211.24758	12431.3125
215.53334	14162.9125
219.81599	16002.4125
224.09553	18101.8125
228.37195	20397.4125
232.64527	22899.4125
236.91549	25548.4125
241.18261	28056.7125
245.44663	30343.6125
249.70755	32367.2125
253.96539	34117.6125
258.22014	35631.4125
262.4718	36934.3125
266.72039	37938.9125
270.96589	38509.1125
275.20832	38653.0125
279.44768	38558.8125
283.68397	38384.0125
287.91719	38317.7125
292.14735	38322.1125
296.37445	38479.8125
300.59849	38727.0125
304.81948	39080.2125
309.03742	39125.9125
313.25231	38597.5125
317.46415	37376.4125
321.67296	35670.6125
325.87872	34252.6125
330.08145	33523.2125
334.28114	33406.0125
338.47781	33692.9125
342.67145	34146.3125
346.86207	34915.6125
351.04966	35924.0125
355.23424	37039.2125
359.4158	37950.9125
363.59435	38446.2125
367.76989	38733.1125
371.94243	38897.5125
376.11196	38909.7125
380.27849	38967.8125
384.44203	38992.5125
388.60257	39096.4125
392.76012	39370.5125
396.91468	39947.4125
401.06626	40789.8125
405.21485	41478.7125
409.36047	41221.2125
413.50311	40308.9125
417.64277	39505.9125
421.77947	39266.2125
425.9132	39383.1125
430.04396	39601.0125
434.17176	39839.6125
438.2966	40121.3125
442.41849	40774.5125
446.53742	41919.0125
450.6534	43242.5125
454.76644	44377.6125
458.87653	44780.4125
462.98368	44569.0125
467.08789	43942.9125
471.18916	43150.6125
475.2875	42393.3125
479.38291	42034.2125
483.4754	41742.2125
487.56496	41271.9125
491.6516	40615.9125
495.73531	40059.7125
499.81612	39802.5125
503.89401	39948.5125
507.96899	40061.7125
512.04106	39911.6125
516.11023	39651.9125
520.1765	39236.8125
524.23987	38705.1125
528.30034	38210.2125
532.35792	37626.4125
536.41261	37031.7125
540.46441	36392.0125
544.51333	36364.6125
548.55936	36992.1125
552.60252	38101.7125
556.64279	39276.2125
560.6802	39978.3125
564.71473	40446.9125
568.7464	41537.5125
572.7752	42818.5125
576.80114	43597.7125
580.82422	44152.6125
584.84444	44682.5125
588.86181	45101.2125
592.87633	45627.3125
596.888	46178.7125
600.89682	46598.1125
604.9028	48656.0125
608.90594	54481.7125
612.90624	61034.5125
616.90371	57188.1125
620.89834	45187.3125
624.89015	39932.9125
628.87913	39414.1125
632.86528	39449.3125
636.84862	39108.3125
640.82913	38069.2125
644.80683	36535.6125
648.78172	35418.6125
652.75379	35199.8125
656.72306	35889.3125
660.68952	36925.9125
664.65319	36839.6125
668.61405	35935.6125
672.57211	35481.0125
676.52738	35504.6125
680.47986	35405.4125
684.42955	35132.8125
688.37646	35021.6125
692.32058	35234.4125
696.26192	35723.5125
700.20048	36262.4125
704.13626	36658.1125
708.06928	36571.1125
711.99952	36252.1125
715.927	35986.2125
719.85171	36070.2125
723.77365	35869.8125
727.69284	35372.2125
731.60928	34862.4125
735.52295	34705.5125
739.43388	34811.9125
743.34206	34993.1125
747.24749	35303.9125
751.15017	35768.6125
755.05012	36554.3125
758.94733	38066.0125
762.8418	40935.8125
766.73354	45452.0125
770.62254	49826.5125
774.50882	50859.3125
778.39237	47808.3125
782.27321	42955.9125
786.15132	39002.3125
790.02671	36629.3125
793.89938	35535.5125
797.76935	35106.8125
801.6366	34991.7125
805.50115	34832.3125
809.36299	34608.3125
813.22213	34243.1125
817.07857	34085.6125
820.93231	33971.8125
824.78336	33867.3125
828.63172	33811.8125
832.47738	33867.9125
836.32036	33915.2125
840.16066	34071.2125
843.99827	34234.4125
847.8332	34114.3125
851.66546	33863.8125
855.49504	33750.9125
859.32195	33691.1125
863.1462	33462.0125
866.96777	33197.9125
870.78668	33105.9125
874.60293	33052.0125
878.41652	33039.7125
882.22745	33224.0125
886.03573	33336.6125
889.84136	33339.1125
893.64433	33131.2125
897.44466	32969.4125
901.24235	32883.1125
905.0374	32773.0125
908.8298	32622.9125
912.61957	32730.4125
916.40671	33095.4125
920.19121	33815.5125
923.97308	34524.8125
927.75233	34801.9125
931.52895	34700.6125
935.30295	34060.4125
939.07433	33117.5125
942.84309	32399.0125
946.60924	32071.1125
950.37278	31943.0125
954.13371	31734.4125
957.89203	31503.7125
961.64774	31327.6125
965.40086	31296.1125
969.15137	31202.6125
972.89929	31041.2125
976.64461	30944.5125
980.38733	30949.5125
984.12747	31203.2125
987.86502	31573.4125
991.59999	32194.2125
995.33237	33049.9125
999.06217	34566.3125
1002.78939	36320.5125
1006.51404	37435.6125
1010.23611	38060.0125
1013.95561	38339.2125
1017.67255	38300.5125
1021.38692	37698.5125
1025.09872	37283.5125
1028.80796	37736.3125
1032.51465	39466.7125
1036.21877	41061.6125
1039.92035	41314.8125
1043.61937	40360.8125
1047.31584	38751.5125
1051.00976	37073.8125
1054.70114	36206.4125
1058.38998	36011.6125
1062.07627	36164.8125
1065.76003	36380.0125
1069.44126	36767.6125
1073.11995	37282.1125
1076.79611	37785.9125
1080.46974	38065.1125
1084.14085	38545.6125
1087.80943	39190.5125
1091.47549	39613.2125
1095.13903	39427.5125
1098.80005	38674.8125
1102.45857	37536.3125
1106.11456	36642.5125
1109.76805	36331.9125
1113.41903	36520.2125
1117.06751	37005.7125
1120.71348	37650.0125
1124.35696	38298.9125
1127.99793	38976.3125
1131.63641	39271.7125
1135.2724	38923.5125
1138.90589	38259.9125
1142.5369	37973.4125
1146.16542	37807.2125
1149.79145	37818.0125
1153.415	38230.9125
1157.03607	38995.6125
1160.65467	40158.1125
1164.27079	42168.5125
1167.88443	44946.9125
1171.49561	48694.5125
1175.10432	53821.2125
1178.71056	60118.3125
1182.31434	65892.6125
1185.91565	69245.0125
1189.51451	69467.7125
1193.11091	66827.7125
1196.70485	62866.8125
1200.29634	58953.1125
1203.88538	55884.7125
1207.47197	53532.6125
1211.05612	51729.5125
1214.63782	50449.5125
1218.21708	49881.3125
1221.79391	49754.4125
1225.36829	49801.3125
1228.94024	49371.2125
1232.50976	48449.6125
1236.07685	47631.1125
1239.6415	47105.0125
1243.20374	46750.8125
1246.76355	46843.6125
1250.32093	47590.8125
1253.8759	49053.9125
1257.42845	50852.9125
1260.97859	52780.2125
1264.52631	54460.7125
1268.07163	56335.8125
1271.61453	58428.6125
1275.15503	60843.9125
1278.69312	63257.0125
1282.22882	65324.5125
1285.76211	67104.3125
1289.29301	68995.9125
1292.82151	71476.1125
1296.34761	74733.9125
1299.87133	79321.6125
1303.39266	85081.7125
1306.9116	92170.9125
1310.42815	99158.8125
1313.94233	103633.9125
1317.45412	103864.3125
1320.96354	101259.0125
1324.47058	98054.3125
1327.97525	95161.6125
1331.47754	93128.3125
1334.97747	92170.8125
1338.47502	91821.8125
1341.97022	91611.5125
1345.46305	90569.2125
1348.95352	88784.9125
1352.44163	87480.7125
1355.92738	88560.2125
1359.41078	93147.3125
1362.89183	98071.2125
1366.37053	96473.7125
1369.84688	87640.2125
1373.32088	77246.0125
1376.79254	69927.5125
1380.26186	66672.9125
1383.72883	65879.9125
1387.19347	65338.4125
1390.65578	64647.0125
1394.11575	64614.9125
1397.57339	65693.1125
1401.0287	67526.3125
1404.48168	69264.3125
1407.93234	70239.4125
1411.38068	69866.3125
1414.82669	67964.4125
1418.27039	64775.2125
1421.71177	61299.4125
1425.15083	58445.3125
1428.58758	56755.4125
1432.02203	56718.6125
1435.45416	57724.8125
1438.88399	59129.9125
1442.31151	60327.9125
1445.73673	61527.0125
1449.15965	62618.4125
1452.58027	63378.2125
1455.9986	63720.9125
1459.41463	64164.1125
1462.82837	65183.0125
1466.23982	66529.6125
1469.64898	67790.7125
1473.05586	68406.5125
1476.46045	68371.8125
1479.86276	68120.4125
1483.26279	67755.4125
1486.66054	67717.8125
1490.05602	68243.9125
1493.44922	68912.9125
1496.84016	69807.4125
1500.22882	71235.3125
1503.61521	73689.0125
1506.99934	77122.9125
1510.38121	80627.7125
1513.76081	82268.4125
1517.13816	80654.4125
1520.51324	76670.5125
1523.88607	72586.4125
1527.25665	69819.7125
1530.62498	68206.5125
1533.99105	67258.7125
1537.35488	66519.3125
1540.71647	65689.2125
1544.07581	64502.5125
1547.4329	63144.7125
1550.78776	61965.4125
1554.14038	60987.4125
1557.49077	60602.2125
1560.83892	60521.2125
1564.18484	60652.5125
1567.52853	60676.0125
1570.86999	60790.6125
1574.20922	61235.8125
1577.54624	61839.1125
1580.88103	61758.0125
1584.2136	61779.7125
1587.54395	63671.1125
1590.87208	67484.2125
1594.19801	72760.1125
1597.52172	77854.7125
1600.84321	79610.6125
1604.16251	75812.1125
1607.47959	69051.8125
1610.79447	61846.7125
1614.10715	55382.8125
1617.41763	50282.0125
1620.7259	46787.4125
1624.03199	45117.9125
1627.33587	45062.1125
1630.63757	46804.6125
1633.93707	50392.7125
1637.23439	55948.9125
1640.52951	63358.4125
1643.82246	71315.9125
1647.11321	77473.5125
1650.40179	78779.3125
1653.68819	73371.5125
1656.97241	63224.7125
1660.25446	52850.2125
1663.53433	44949.1125
1666.81203	39818.1125
1670.08756	36667.5125
1673.36092	34709.3125
1676.63211	33415.5125
1679.90115	32508.1125
1683.16801	31892.0125
1686.43272	31357.4125
1689.69527	30949.7125
1692.95567	30718.6125
1696.2139	30517.3125
1699.46999	30386.2125
1702.72392	30243.7125
1705.97571	30194.5125
1709.22535	30103.0125
1712.47284	30017.2125
1715.71819	29956.2125
1718.96139	29872.5125
1722.20246	29748.0125
1725.44139	29608.4125
1728.67818	29393.6125
1731.91284	29174.2125
1735.14537	29052.0125
1738.37576	28885.4125
1741.60403	28752.7125
1744.83017	28586.8125
1748.05418	28533.5125
1751.27607	28421.7125
1754.49584	28434.3125
1757.71349	28368.1125
1760.92903	28352.0125
1764.14244	28308.1125
1767.35375	28333.2125
1770.56294	28233.3125
1773.77002	28129.9125
1776.97499	28125.3125
1780.17785	28067.6125
1783.37861	28008.8125
1786.57727	27937.3125
1789.77382	27919.0125
1792.96828	27836.9125
1796.16064	27838.3125
1799.3509	27786.3125
1802.53907	27745.2125
1805.72514	27652.8125
1808.90913	27557.5125
1812.09102	27538.6125
1815.27083	27431.6125
1818.44856	27413.7125
1821.6242	27354.8125
1824.79776	27398.0125
1827.96924	27359.1125
1831.13864	27354.7125
1834.30597	27367.3125
1837.47122	27312.8125
1840.6344	27335.8125
1843.7955	27373.3125
1846.95454	27440.9125
1850.11151	27465.2125
1853.26642	27447.0125
1856.41926	27405.1125
1859.57004	27458.7125
1862.71876	27490.7125
1865.86542	27486.8125
1869.01003	27497.2125
1872.15258	27483.0125
1875.29308	27476.9125
1878.43152	27512.8125
1881.56792	27546.0125
1884.70227	27632.9125
1887.83457	27608.1125
1890.96482	27546.1125
1894.09304	27599.3125
1897.21921	27612.6125
1900.34335	27617.8125
1903.46544	27579.1125
1906.58551	27613.8125
1909.70353	27586.1125
1912.81953	27571.7125
1915.93349	27513.8125
1919.04543	27438.3125
1922.15534	27369.7125
1925.26322	27257.9125
1928.36908	27144.3125
1931.47292	27030.5125
1934.57473	26908.7125
1937.67453	26782.4125
1940.77232	26637.6125
1943.86808	26500.5125
1946.96184	26409.5125
1950.05358	26234.4125
1953.14331	26154.1125
1956.23103	26017.6125
1959.31675	25937.4125
1962.40046	25832.7125
1965.48217	25771.5125
1968.56188	25738.7125
1971.63959	25620.3125
1974.7153	25512.4125
1977.78901	25443.0125
1980.86073	25376.5125
1983.93046	25247.7125
1986.99819	25172.0125
1990.06394	25125.6125
1993.1277	25044.5125
1996.18947	24949.6125
1999.24925	24859.5125
2002.30706	24759.0125
2005.36288	24706.6125
2008.41672	24633.9125
2011.46859	24592.5125
2014.51848	24541.2125
2017.56639	24510.2125
2020.61233	24415.2125
2023.6563	24345.5125
2026.6983	24292.2125
2029.73833	24235.2125
2032.7764	24242.7125
2035.8125	24192.0125
2038.84664	24156.4125
2041.87881	24121.5125
2044.90903	24079.7125
2047.93729	24053.0125
2050.96359	23995.1125
2053.98794	23985.9125
2057.01034	23995.9125
2060.03078	23962.8125
2063.04927	23945.6125
2066.06582	23947.3125
2069.08042	23936.9125
2072.09307	23877.5125
2075.10378	23843.5125
2078.11255	23785.0125
2081.11938	23773.2125
2084.12426	23734.7125
2087.12722	23735.7125
2090.12824	23701.1125
2093.12732	23689.2125
2096.12447	23691.8125
2099.11969	23705.7125
2102.11299	23706.8125
2105.10435	23680.2125
2108.09379	23661.3125
2111.08131	23659.5125
2114.0669	23715.4125
2117.05057	23723.3125
2120.03233	23716.7125
2123.01216	23754.0125
2125.99008	23744.7125
2128.96609	23764.8125
2131.94018	23773.4125
2134.91236	23817.4125
2137.88263	23825.5125
2140.851	23844.9125
2143.81746	23864.0125
2146.78201	23832.1125
2149.74466	23831.6125
2152.7054	23815.0125
2155.66425	23781.5125
2158.6212	23804.0125
2161.57625	23783.0125
2164.52941	23764.4125
2167.48067	23734.7125
2170.43004	23739.9125
2173.37752	23775.4125
2176.32311	23732.5125
2179.26681	23735.7125
2182.20863	23716.2125
2185.14856	23748.5125
2188.08661	23808.4125
2191.02278	23814.3125
2193.95707	23780.4125
2196.88948	23754.0125
2199.82001	23761.0125
2202.74867	23732.7125
2205.67545	23731.5125
2208.60037	23728.1125
2211.52341	23708.8125
2214.44458	23743.0125
2217.36388	23685.2125
2220.28132	23611.3125
2223.1969	23586.2125
2226.11061	23563.8125
2229.02246	23509.2125
2231.93245	23444.0125
2234.84058	23406.2125
2237.74686	23377.4125
2240.65128	23327.6125
2243.55385	23315.0125
2246.45456	23309.9125
2249.35343	23263.6125
2252.25044	23229.2125
2255.14561	23166.0125
2258.03893	23130.9125
2260.93041	23102.2125
2263.82004	23050.5125
2266.70783	22974.7125
2269.59378	22880.3125
2272.4779	22817.6125
2275.36017	22721.4125
2278.24061	22727.9125
2281.11922	22688.3125
2283.996	22666.2125
2286.87094	22681.6125
2289.74405	22640.9125
2292.61534	22640.1125
2295.4848	22634.3125
2298.35243	22647.2125
2301.21824	22645.7125
2304.08223	22661.2125
2306.94439	22678.8125
2309.80474	22754.8125
2312.66327	22786.9125
2315.51999	22747.9125
2318.37489	22755.9125
2321.22797	22725.0125
2324.07925	22750.3125
2326.92871	22712.2125
2329.77637	22709.0125
2332.62222	22665.2125
2335.46626	22712.4125
2338.3085	22722.6125
2341.14893	22762.2125
2343.98756	22834.5125
2346.8244	22852.1125
2349.65943	22823.5125
2352.49267	22839.3125
2355.32411	22852.6125
2358.15376	22828.9125
2360.98161	22790.0125
2363.80768	22777.8125
2366.63195	22773.8125
2369.45444	22685.4125
2372.27514	22664.7125
2375.09405	22598.1125
2377.91118	22520.9125
2380.72652	22470.3125
2383.54009	22376.6125
2386.35187	22349.9125
2389.16188	22292.4125
2391.97011	22264.6125
2394.77657	22225.2125
2397.58125	22171.1125
2400.38416	22162.5125
2403.18529	22097.7125
2405.98466	22064.5125
2408.78226	22024.1125
2411.57809	21979.9125
2414.37216	21961.6125
2417.16446	21937.5125
2419.955	21899.5125
2422.74378	21817.2125
2425.5308	21811.5125
2428.31606	21772.3125
2431.09956	21781.6125
2433.88131	21814.5125
2436.6613	21804.8125
2439.43954	21839.8125
2442.21603	21813.8125
2444.99077	21785.3125
2447.76377	21789.1125
2450.53501	21735.4125
2453.30451	21776.1125
2456.07226	21715.1125
2458.83827	21780.0125
2461.60254	21774.8125
2464.36507	21764.2125
2467.12586	21763.6125
2469.88492	21797.6125
2472.64224	21807.9125
2475.39782	21873.9125
2478.15167	21891.5125
2480.90379	21898.0125
2483.65417	21940.6125
2486.40283	21939.6125
2489.14976	22019.7125
2491.89497	22013.6125
2494.63845	22048.3125
2497.3802	22045.4125
2500.12024	22078.4125
2502.85855	22064.8125
2505.59514	22015.8125
2508.33002	22007.7125
2511.06318	21956.4125
2513.79462	21904.3125
2516.52435	21850.0125
2519.25237	21859.1125
2521.97867	21891.2125
2524.70327	21864.7125
2527.42616	21797.2125
2530.14734	21831.9125
2532.86681	21819.6125
2535.58458	21842.9125
2538.30065	21828.5125
2541.01501	21847.8125
2543.72768	21800.1125
2546.43864	21808.7125
2549.14791	21774.3125
2551.85548	21766.2125
2554.56136	21754.0125
2557.26554	21731.6125
2559.96803	21691.8125
2562.66883	21687.5125
2565.36794	21700.8125
2568.06536	21647.0125
2570.7611	21664.1125
2573.45514	21694.3125
2576.14751	21638.4125
2578.83819	21636.5125
2581.52719	21715.9125
2584.21451	21679.9125
2586.90015	21703.1125
2589.58411	21705.9125
2592.2664	21704.2125
2594.94701	21689.7125
2597.62594	21734.0125
2600.30321	21666.1125
2602.9788	21680.6125
2605.65273	21685.4125
2608.32498	21733.3125
2610.99557	21705.6125
2613.66449	21767.1125
2616.33175	21775.3125
2618.99734	21798.4125
2621.66128	21786.9125
2624.32355	21753.0125
2626.98416	21784.3125
2629.64311	21802.6125
2632.30041	21859.5125
2634.95605	21802.2125
2637.61004	21797.2125
2640.26238	21726.1125
2642.91306	21692.6125
2645.56209	21674.2125
2648.20948	21687.0125
2650.85521	21669.6125
2653.4993	21675.2125
2656.14175	21676.7125
2658.78255	21652.0125
2661.42171	21698.0125
2664.05923	21737.3125
2666.6951	21739.3125
2669.32934	21794.3125
2671.96194	21745.8125
2674.59291	21814.8125
2677.22224	21797.3125
2679.84993	21794.0125
2682.476	21769.0125
2685.10043	21751.0125
2687.72324	21709.2125
2690.34441	21662.4125
2692.96396	21665.3125
2695.58188	21613.5125
2698.19818	21609.9125
2700.81285	21600.1125
2703.4259	21634.4125
2706.03733	21688.9125
2708.64714	21625.4125
2711.25533	21638.8125
2713.86191	21617.8125
2716.46687	21646.0125
2719.07021	21635.3125
2721.67194	21724.9125
2724.27206	21692.7125
2726.87057	21735.1125
2729.46747	21729.8125
2732.06276	21721.5125
2734.65644	21752.2125
2737.24852	21774.2125
2739.83899	21698.2125
2742.42786	21712.6125
2745.01513	21662.1125
2747.60079	21688.0125
2750.18486	21719.5125
2752.76733	21725.0125
2755.3482	21656.8125
2757.92747	21700.2125
2760.50515	21654.1125
2763.08123	21648.0125
2765.65573	21649.7125
2768.22863	21620.4125
2770.79994	21636.4125
2773.36967	21646.1125
2775.9378	21636.0125
2778.50435	21670.3125
2781.06932	21660.9125
2783.6327	21664.7125
2786.1945	21688.2125
2788.75471	21714.2125
2791.31335	21649.1125
2793.87041	21619.7125
2796.42589	21545.1125
2798.97979	21569.6125
2801.53212	21514.6125
2804.08288	21485.3125
2806.63206	21425.8125
2809.17967	21401.1125
2811.72571	21386.4125
2814.27018	21377.6125
2816.81308	21364.2125
2819.35442	21355.8125
2821.89419	21331.3125
2824.43239	21341.2125
2826.96904	21316.5125
2829.50412	21291.8125
2832.03763	21258.9125
2834.56959	21274.5125
2837.1	21244.2125
2839.62884	21233.7125
2842.15613	21212.5125
2844.68186	21272.9125
2847.20604	21261.2125
2849.72867	21270.3125
2852.24974	21240.7125
2854.76927	21245.2125
2857.28724	21269.1125
2859.80367	21252.0125
2862.31855	21211.9125
2864.83189	21151.1125
2867.34368	21140.4125
2869.85393	21145.6125
2872.36264	21084.3125
2874.8698	21092.6125
2877.37543	21117.6125
2879.87952	21102.4125
2882.38207	21139.6125
2884.88308	21157.8125
2887.38256	21113.5125
2889.88051	21146.4125
2892.37692	21158.4125
2894.8718	21203.1125
2897.36515	21180.4125
2899.85698	21194.3125
2902.34727	21264.8125
2904.83604	21255.7125
2907.32328	21347.1125
2909.809	21311.8125
2912.29319	21348.9125
2914.77587	21359.2125
2917.25702	21369.5125
2919.73665	21310.6125
2922.21476	21319.8125
2924.69136	21250.5125
2927.16644	21255.7125
2929.64	21191.3125
2932.11205	21147.9125
2934.58258	21083.5125
2937.05161	21091.4125
2939.51912	21109.4125
2941.98513	21059.2125
2944.44962	21018.0125
2946.91261	20900.9125
2949.37409	20946.8125
2951.83407	20905.9125
2954.29254	20926.7125
2956.74951	20887.3125
2959.20498	20868.8125
2961.65895	20818.7125
2964.11142	20799.6125
2966.56239	20718.0125
2969.01186	20729.7125
2971.45984	20665.7125
2973.90632	20643.4125
2976.35131	20565.2125
2978.7948	20522.7125
2981.23681	20501.3125
2983.67732	20436.6125
2986.11635	20369.1125
2988.55388	20349.9125
2990.98993	20265.0125
2993.4245	20239.6125
2995.85758	20189.5125
2998.28917	20185.8125
3000.71928	20136.5125
3003.14791	20077.5125
3005.57506	20062.9125
3008.00073	19977.6125
3010.42493	19985.7125
3012.84764	19938.4125
3015.26888	19943.9125
3017.68865	19879.7125
3020.10694	19838.7125
3022.52376	19778.9125
