Data from AgNPs_FTO_APTES_UA_5uM_CRN_200uM_R6G_10uM_NaF_0.1M_Addition_RamanShift__13__16-15-01-778.txt Node

Date: Mon Feb 07 16:15:01 GMT 2022
User: TCL
Spectrometer: QEP01345
Trigger mode: 4
Integration Time (sec): 7.000000E0
Scans to average: 10
Electric dark correction enabled: true
Nonlinearity correction enabled: false
Boxcar width: 0
XAxis mode: Raman Shifts
Number of Pixels in Spectrum: 1044
>>>>>Begin Spectral Data<<<<<
46.04893	-2.3
50.45542	-0.6
54.85868	0.1
59.25871	-0.1
63.6555	63.1
68.04907	65.9
72.43941	69
76.82654	75.5
81.21044	71.3
85.59113	76
89.96862	78.1
94.34289	82
98.71396	84.8
103.08183	89.1
107.4465	90.8
111.80798	93.7
116.16626	97.2
120.52136	104.8
124.87327	108.3
129.222	111.5
133.56755	118.7
137.90993	129.1
142.24913	144.7
146.58517	165.3
150.91804	191.3
155.24774	235.2
159.57429	293.7
163.89768	377.7
168.21792	494.2
172.53501	678.5
176.84895	965.5
181.15975	1351.7
185.46741	1903.5
189.77193	2633.1
194.07331	3545.9
198.37157	4588.2
202.6667	5689.5
206.9587	6762.1
211.24758	7830.3
215.53334	8889.4
219.81599	9988.8
224.09553	11194.1
228.37195	12520.4
232.64527	14001.8
236.91549	15556.9
241.18261	17122.8
245.44663	18629.9
249.70755	20017.7
253.96539	21216.2
258.22014	22230.1
262.4718	22990
266.72039	23551.3
270.96589	23885.9
275.20832	24013.6
279.44768	23990.7
283.68397	23893.5
287.91719	23885.2
292.14735	23890.7
296.37445	23940
300.59849	24060.5
304.81948	24098.5
309.03742	23973
313.25231	23680.9
317.46415	23105.1
321.67296	22466.6
325.87872	21916.3
330.08145	21666.4
334.28114	21655.6
338.47781	21751.2
342.67145	21940.2
346.86207	22184.1
351.04966	22425.7
355.23424	22655.5
359.4158	22838.2
363.59435	22972.5
367.76989	23123.2
371.94243	23214.7
376.11196	23295.4
380.27849	23282.1
384.44203	23403.6
388.60257	23590.5
392.76012	23797.3
396.91468	24114.8
401.06626	24514.8
405.21485	24792.3
409.36047	24749.5
413.50311	24452.8
417.64277	24182
421.77947	24072.2
425.9132	24079.9
430.04396	24160
434.17176	24324.5
438.2966	24478.9
442.41849	24783.5
446.53742	25189.7
450.6534	25661.3
454.76644	26027.9
458.87653	26242.9
462.98368	26310.9
467.08789	26295.3
471.18916	26234.8
475.2875	26175.6
479.38291	26093.7
483.4754	26019.6
487.56496	25820.3
491.6516	25488.7
495.73531	25208.4
499.81612	24967.7
503.89401	24983.9
507.96899	25045.5
512.04106	25041.7
516.11023	25056.5
520.1765	24924.3
524.23987	24785.9
528.30034	24586
532.35792	24422.9
536.41261	24206.8
540.46441	24110.3
544.51333	24148.7
548.55936	24472.7
552.60252	24944.1
556.64279	25429.3
560.6802	25781.8
564.71473	26020.3
568.7464	26445.1
572.7752	27084.6
576.80114	27799.5
580.82422	28394.1
584.84444	28685.7
588.86181	28569.5
592.87633	28356.3
596.888	28147.9
600.89682	28076.1
604.9028	28308.8
608.90594	29450.6
612.90624	30759.1
616.90371	29340.9
620.89834	26077.6
624.89015	24620.6
628.87913	24509.9
632.86528	24750.8
636.84862	24912.2
640.82913	24723.8
644.80683	24354.3
648.78172	24018.6
652.75379	23905.1
656.72306	24001.6
660.68952	24218
664.65319	24215.5
668.61405	24025.6
672.57211	24062.4
676.52738	24041.9
680.47986	24097.5
684.42955	24009.6
688.37646	23993.2
692.32058	23998.9
696.26192	24110.1
700.20048	24246.1
704.13626	24465.3
708.06928	24611.9
711.99952	24603.2
715.927	24496
719.85171	24397.5
723.77365	24252.9
727.69284	24038.5
731.60928	23840.5
735.52295	23694
739.43388	23619.1
743.34206	23643.9
747.24749	23721
751.15017	23905.4
755.05012	24228.9
758.94733	24778
762.8418	25812.3
766.73354	27270.1
770.62254	28695.9
774.50882	28932.3
778.39237	27872.4
782.27321	26370.4
786.15132	25023.1
790.02671	24200.9
793.89938	23757.6
797.76935	23474.5
801.6366	23385.3
805.50115	23270.1
809.36299	23184.2
813.22213	23166.6
817.07857	23199.4
820.93231	23237.8
824.78336	23189
828.63172	23159.3
832.47738	23122.1
836.32036	23051.6
840.16066	23017.6
843.99827	22978.9
847.8332	23016.1
851.66546	23003
855.49504	22976.8
859.32195	22989.5
863.1462	22972.7
866.96777	22973.6
870.78668	22900.9
874.60293	22942
878.41652	22971.5
882.22745	23009.5
886.03573	22995.4
889.84136	22984.2
893.64433	23001.6
897.44466	22959.8
901.24235	22905.9
905.0374	22891.8
908.8298	22891.2
912.61957	22989.3
916.40671	23217.8
920.19121	23493.5
923.97308	23600.5
927.75233	23482.9
931.52895	23255.2
935.30295	22979.8
939.07433	22661
942.84309	22402.4
946.60924	22213.8
950.37278	22099.3
954.13371	22007
957.89203	22025.2
961.64774	21964.2
965.40086	21937
969.15137	21918.1
972.89929	21799.4
976.64461	21751.5
980.38733	21676.4
984.12747	21681.1
987.86502	21721.4
991.59999	21754
995.33237	21801.8
999.06217	21968.1
1002.78939	22085.8
1006.51404	22262.8
1010.23611	22464.9
1013.95561	22629.6
1017.67255	22670.7
1021.38692	22621.1
1025.09872	22481.7
1028.80796	22387.2
1032.51465	22307.3
1036.21877	22345.7
1039.92035	22415.1
1043.61937	22535
1047.31584	22678.3
1051.00976	22793.9
1054.70114	22893.5
1058.38998	23100.7
1062.07627	23369.4
1065.76003	23676.1
1069.44126	23896.6
1073.11995	24152.6
1076.79611	24340.4
1080.46974	24427.4
1084.14085	24412.4
1087.80943	24482
1091.47549	24608.3
1095.13903	24706.4
1098.80005	24624
1102.45857	24270.3
1106.11456	23817.4
1109.76805	23488.1
1113.41903	23380.7
1117.06751	23454.1
1120.71348	23638.3
1124.35696	23880.1
1127.99793	24201.8
1131.63641	24374.2
1135.2724	24214.4
1138.90589	24041.2
1142.5369	24000.6
1146.16542	24059.6
1149.79145	24219.3
1153.415	24496.9
1157.03607	24743
1160.65467	25204.9
1164.27079	25808.5
1167.88443	26652.6
1171.49561	27580
1175.10432	28775.8
1178.71056	30336.8
1182.31434	31864.8
1185.91565	32894.6
1189.51451	33373.9
1193.11091	33294.2
1196.70485	32658.8
1200.29634	31674.8
1203.88538	30741.2
1207.47197	29957.3
1211.05612	29411.8
1214.63782	28958.6
1218.21708	28352.9
1221.79391	27650.6
1225.36829	27060.9
1228.94024	26641.1
1232.50976	26457.3
1236.07685	26388.7
1239.6415	26337.6
1243.20374	26417.2
1246.76355	26595.3
1250.32093	26800.8
1253.8759	27103.1
1257.42845	27621.3
1260.97859	28190.7
1264.52631	28764.8
1268.07163	29314.6
1271.61453	29755.7
1275.15503	30248.7
1278.69312	30823.4
1282.22882	31305.4
1285.76211	31956.2
1289.29301	32767.4
1292.82151	33729.3
1296.34761	34876.5
1299.87133	36139.7
1303.39266	37459
1306.9116	38622.3
1310.42815	39532.3
1313.94233	40021.7
1317.45412	40020.7
1320.96354	40005.7
1324.47058	39952.4
1327.97525	39914.5
1331.47754	39996.3
1334.97747	40223.6
1338.47502	40675.7
1341.97022	41232.8
1345.46305	41859
1348.95352	42093
1352.44163	41939.9
1355.92738	41520.3
1359.41078	41380.4
1362.89183	41434.4
1366.37053	40458.8
1369.84688	38061.2
1373.32088	35345.6
1376.79254	33365.4
1380.26186	32483.5
1383.72883	32200.6
1387.19347	32104.2
1390.65578	32037.3
1394.11575	31882.2
1397.57339	31616
1401.0287	31504
1404.48168	31298.8
1407.93234	30971.1
1411.38068	30473.4
1414.82669	29555.5
1418.27039	28635.7
1421.71177	27708
1425.15083	26969.3
1428.58758	26481.4
1432.02203	26433.8
1435.45416	26669.6
1438.88399	27026.6
1442.31151	27424.8
1445.73673	27741.5
1449.15965	28174.5
1452.58027	28591.7
1455.9986	28997.2
1459.41463	29392.5
1462.82837	29769.9
1466.23982	30111.6
1469.64898	30564
1473.05586	30819.6
1476.46045	30855.8
1479.86276	30895.7
1483.26279	30901.9
1486.66054	30938.8
1490.05602	31223
1493.44922	31707.6
1496.84016	32522.8
1500.22882	33735
1503.61521	35284.7
1506.99934	36804.6
1510.38121	37917.1
1513.76081	38115.8
1517.13816	37426.4
1520.51324	36441.3
1523.88607	35595.2
1527.25665	35057.5
1530.62498	34666.6
1533.99105	34268.4
1537.35488	33680.3
1540.71647	33030.3
1544.07581	32133.3
1547.4329	31306.3
1550.78776	30639.6
1554.14038	30203.7
1557.49077	29997.2
1560.83892	29980.8
1564.18484	30105.5
1567.52853	30351
1570.86999	30555.5
1574.20922	30903.9
1577.54624	31150
1580.88103	30981.3
1584.2136	30663.7
1587.54395	30580
1590.87208	30906.7
1594.19801	31600.3
1597.52172	32409.4
1600.84321	32557
1604.16251	31749.7
1607.47959	30505
1610.79447	29148.8
1614.10715	27716.4
1617.41763	26274.8
1620.7259	25168.6
1624.03199	24409.2
1627.33587	24151.9
1630.63757	24311.9
1633.93707	24956.1
1637.23439	26194.5
1640.52951	28217.1
1643.82246	30741.8
1647.11321	33372.1
1650.40179	34880.9
1653.68819	34580.7
1656.97241	32285.5
1660.25446	29186.6
1663.53433	26216.8
1666.81203	23978.4
1670.08756	22339.7
1673.36092	21356.4
1676.63211	20687.9
1679.90115	20237.4
1683.16801	19880.4
1686.43272	19619.6
1689.69527	19394.5
1692.95567	19323.4
1696.2139	19217.1
1699.46999	19095.7
1702.72392	19049.2
1705.97571	18951.8
1709.22535	18933.7
1712.47284	18865.4
1715.71819	18839.2
1718.96139	18765.8
1722.20246	18724.5
1725.44139	18660.2
1728.67818	18550.2
1731.91284	18456
1735.14537	18352.5
1738.37576	18319.4
1741.60403	18226.6
1744.83017	18144.3
1748.05418	18129.3
1751.27607	18101
1754.49584	18082.2
1757.71349	18042.2
1760.92903	18034.5
1764.14244	18000.7
1767.35375	18027.3
1770.56294	17946.1
1773.77002	17905.3
1776.97499	17835.8
1780.17785	17808.5
1783.37861	17756.5
1786.57727	17710.6
1789.77382	17674.8
1792.96828	17643.9
1796.16064	17594.8
1799.3509	17575.9
1802.53907	17487.8
1805.72514	17453.1
1808.90913	17392.4
1812.09102	17353.8
1815.27083	17304.1
1818.44856	17262.5
1821.6242	17220.2
1824.79776	17204.2
1827.96924	17174.7
1831.13864	17128.7
1834.30597	17135
1837.47122	17098.2
1840.6344	17057.6
1843.7955	17051.2
1846.95454	17040.9
1850.11151	16979.8
1853.26642	16966.2
1856.41926	16979.4
1859.57004	16960.8
1862.71876	16933.1
1865.86542	16887.9
1869.01003	16868.6
1872.15258	16850.1
1875.29308	16838.9
1878.43152	16773.2
1881.56792	16763.6
1884.70227	16731.1
1887.83457	16702.5
1890.96482	16632
1894.09304	16605.3
1897.21921	16576.8
1900.34335	16548.7
1903.46544	16497.9
1906.58551	16503
1909.70353	16474.9
1912.81953	16433.3
1915.93349	16407.1
1919.04543	16385.8
1922.15534	16336.7
1925.26322	16293.7
1928.36908	16294.1
1931.47292	16276.7
1934.57473	16232.5
1937.67453	16205.7
1940.77232	16118.8
1943.86808	16084.8
1946.96184	15999.3
1950.05358	15954.6
1953.14331	15900.9
1956.23103	15834
1959.31675	15784.1
1962.40046	15774.6
1965.48217	15677.7
1968.56188	15641.2
1971.63959	15602.8
1974.7153	15543
1977.78901	15495.8
1980.86073	15425.2
1983.93046	15407.4
1986.99819	15293.4
1990.06394	15268.7
1993.1277	15232.3
1996.18947	15146.4
1999.24925	15110.9
2002.30706	15095.5
2005.36288	15026.2
2008.41672	15011.1
2011.46859	14927.5
2014.51848	14879.4
2017.56639	14822.4
2020.61233	14772.6
2023.6563	14701.4
2026.6983	14654.4
2029.73833	14627
2032.7764	14578.8
2035.8125	14544.6
2038.84664	14491.4
2041.87881	14501.5
2044.90903	14443
2047.93729	14379.9
2050.96359	14390.5
2053.98794	14353.5
2057.01034	14358.1
2060.03078	14323.5
2063.04927	14335.4
2066.06582	14336
2069.08042	14341.4
2072.09307	14288.5
2075.10378	14236.6
2078.11255	14244.1
2081.11938	14271.7
2084.12426	14237.1
2087.12722	14251.3
2090.12824	14205.8
2093.12732	14211.7
2096.12447	14180.9
2099.11969	14180.9
2102.11299	14164.6
2105.10435	14172.7
2108.09379	14144.3
2111.08131	14190.1
2114.0669	14164.1
2117.05057	14166.1
2120.03233	14220
2123.01216	14223.1
2125.99008	14209.2
2128.96609	14206.5
2131.94018	14190.9
2134.91236	14228.2
2137.88263	14219.9
2140.851	14239.9
2143.81746	14211.5
2146.78201	14201.5
2149.74466	14229
2152.7054	14197.1
2155.66425	14175.5
2158.6212	14170.2
2161.57625	14120.3
2164.52941	14126.3
2167.48067	14126.9
2170.43004	14110.5
2173.37752	14121.8
2176.32311	14138.6
2179.26681	14096.2
2182.20863	14086.6
2185.14856	14088.6
2188.08661	14057.1
2191.02278	14085.9
2193.95707	14044
2196.88948	13991.8
2199.82001	13986
2202.74867	13972
2205.67545	13956.5
2208.60037	13937.1
2211.52341	13896.6
2214.44458	13855.5
2217.36388	13837.5
2220.28132	13774.5
2223.1969	13736.5
2226.11061	13738.8
2229.02246	13728
2231.93245	13701.6
2234.84058	13629.7
2237.74686	13610.2
2240.65128	13599.6
2243.55385	13582.6
2246.45456	13608.7
2249.35343	13567
2252.25044	13549.9
2255.14561	13462.7
2258.03893	13415.9
2260.93041	13397.6
2263.82004	13374.8
2266.70783	13346.1
2269.59378	13295.7
2272.4779	13256.7
2275.36017	13195.4
2278.24061	13170.5
2281.11922	13152.6
2283.996	13142.7
2286.87094	13124.2
2289.74405	13078.3
2292.61534	13041.7
2295.4848	13032.5
2298.35243	13040.4
2301.21824	13004.5
2304.08223	13034.6
2306.94439	13027.1
2309.80474	12992.8
2312.66327	12990.1
2315.51999	12971.2
2318.37489	12931.9
2321.22797	12908.2
2324.07925	12879.1
2326.92871	12831.3
2329.77637	12835.6
2332.62222	12794.1
2335.46626	12801.9
2338.3085	12762.8
2341.14893	12752.9
2343.98756	12719.2
2346.8244	12707.5
2349.65943	12682.8
2352.49267	12669.6
2355.32411	12691.9
2358.15376	12654
2360.98161	12633.7
2363.80768	12650
2366.63195	12655.8
2369.45444	12633.5
2372.27514	12633.7
2375.09405	12598
2377.91118	12541.4
2380.72652	12523.9
2383.54009	12508.2
2386.35187	12493.5
2389.16188	12435.1
2391.97011	12389.1
2394.77657	12366.7
2397.58125	12338.4
2400.38416	12314.2
2403.18529	12270
2405.98466	12267.6
2408.78226	12226.1
2411.57809	12245.1
2414.37216	12215.4
2417.16446	12216.8
2419.955	12206.8
2422.74378	12178.5
2425.5308	12176.4
2428.31606	12138.4
2431.09956	12124.9
2433.88131	12111.7
2436.6613	12121.2
2439.43954	12120.2
2442.21603	12088.3
2444.99077	12076.8
2447.76377	12038.7
2450.53501	12023.7
2453.30451	11999.6
2456.07226	11999.9
2458.83827	11977.9
2461.60254	11950.2
2464.36507	11952.3
2467.12586	11938.7
2469.88492	11920
2472.64224	11894
2475.39782	11901.5
2478.15167	11893
2480.90379	11877.2
2483.65417	11880.9
2486.40283	11857.5
2489.14976	11876
2491.89497	11844.3
2494.63845	11875.7
2497.3802	11871.3
2500.12024	11845
2502.85855	11811.2
2505.59514	11811.7
2508.33002	11780.1
2511.06318	11758.4
2513.79462	11730
2516.52435	11726
2519.25237	11710.5
2521.97867	11703
2524.70327	11669.1
2527.42616	11654.1
2530.14734	11666.4
2532.86681	11608.9
2535.58458	11628.6
2538.30065	11584.4
2541.01501	11586.6
2543.72768	11541.8
2546.43864	11550.4
2549.14791	11489.2
2551.85548	11481.5
2554.56136	11451.1
2557.26554	11415.1
2559.96803	11416.8
2562.66883	11377.5
2565.36794	11378.4
2568.06536	11350.9
2570.7611	11328.2
2573.45514	11312.9
2576.14751	11300.1
2578.83819	11280.3
2581.52719	11254.3
2584.21451	11211.4
2586.90015	11226.8
2589.58411	11176.4
2592.2664	11157.9
2594.94701	11161.8
2597.62594	11134.2
2600.30321	11095.4
2602.9788	11086.2
2605.65273	11067.9
2608.32498	11088
2610.99557	11068
2613.66449	11059.5
2616.33175	11044.1
2618.99734	11018.1
2621.66128	10977.2
2624.32355	10968.5
2626.98416	10924.3
2629.64311	10921.6
2632.30041	10918.1
2634.95605	10901.6
2637.61004	10889.2
2640.26238	10881.3
2642.91306	10845.1
2645.56209	10838.4
2648.20948	10843.9
2650.85521	10854.8
2653.4993	10837.5
2656.14175	10830.7
2658.78255	10850.2
2661.42171	10820.1
2664.05923	10796.5
2666.6951	10807.8
2669.32934	10837.8
2671.96194	10813.3
2674.59291	10817.4
2677.22224	10814.6
2679.84993	10800.6
2682.476	10781.5
2685.10043	10783.4
2687.72324	10778
2690.34441	10757.2
2692.96396	10768.5
2695.58188	10730.7
2698.19818	10737.2
2700.81285	10748.5
2703.4259	10753.7
2706.03733	10740.8
2708.64714	10738.5
2711.25533	10730.6
2713.86191	10740.9
2716.46687	10759.6
2719.07021	10747.9
2721.67194	10749.1
2724.27206	10738.8
2726.87057	10742.8
2729.46747	10753
2732.06276	10737.6
2734.65644	10720
2737.24852	10712.5
2739.83899	10679.5
2742.42786	10683.8
2745.01513	10672.4
2747.60079	10663.3
2750.18486	10630.4
2752.76733	10596.7
2755.3482	10592.8
2757.92747	10567.7
2760.50515	10558.5
2763.08123	10576.1
2765.65573	10555
2768.22863	10527.7
2770.79994	10511.7
2773.36967	10492.6
2775.9378	10508.9
2778.50435	10504.4
2781.06932	10471.2
2783.6327	10455.9
2786.1945	10461.9
2788.75471	10433.9
2791.31335	10407.3
2793.87041	10436.7
2796.42589	10408
2798.97979	10380
2801.53212	10346
2804.08288	10338.9
2806.63206	10283.4
2809.17967	10264.8
2811.72571	10258.1
2814.27018	10264.7
2816.81308	10213
2819.35442	10194.7
2821.89419	10155
2824.43239	10157.4
2826.96904	10125.1
2829.50412	10153.1
2832.03763	10097.2
2834.56959	10081.5
2837.1	10078.1
2839.62884	10126.1
2842.15613	10120.7
2844.68186	10157.6
2847.20604	10174.9
2849.72867	10175.7
2852.24974	10167
2854.76927	10149
2857.28724	10137.8
2859.80367	10118.8
2862.31855	10104.8
2864.83189	10051.5
2867.34368	10036.1
2869.85393	10043.2
2872.36264	10058.1
2874.8698	10030
2877.37543	10037.3
2879.87952	10001.2
2882.38207	10003.8
2884.88308	9990.1
2887.38256	9972.5
2889.88051	9969.5
2892.37692	9967.3
2894.8718	9968.5
2897.36515	9977.6
2899.85698	9965.3
2902.34727	9967.9
2904.83604	9970.9
2907.32328	10003.8
2909.809	9979.4
2912.29319	9957.8
2914.77587	9955.3
2917.25702	9943.5
2919.73665	9956.1
2922.21476	9933.1
2924.69136	9921.7
2927.16644	9922.7
2929.64	9928
2932.11205	9925.4
2934.58258	9877.3
2937.05161	9887.1
2939.51912	9862.6
2941.98513	9849.9
2944.44962	9819.3
2946.91261	9774.7
2949.37409	9799.8
2951.83407	9789.1
2954.29254	9743
2956.74951	9747.4
2959.20498	9727.2
2961.65895	9719.7
2964.11142	9683
2966.56239	9672
2969.01186	9684.6
2971.45984	9663.9
2973.90632	9664
2976.35131	9642.8
2978.7948	9597.8
2981.23681	9583
2983.67732	9567.6
2986.11635	9539
2988.55388	9529.5
2990.98993	9475.7
2993.4245	9458
2995.85758	9424.8
2998.28917	9415.7
3000.71928	9422.1
3003.14791	9369.7
3005.57506	9387.6
3008.00073	9341.7
3010.42493	9345
3012.84764	9315.6
3015.26888	9286.4
3017.68865	9252.5
3020.10694	9221
3022.52376	9213.8
3024.9391	9210
3027.35298	9188.7
3029.76539	9202.9
3032.17632	9186.2
3034.5858	9142.8
3036.9938	9144.9
3039.40034	9157.3
3041.80542	9139
3044.20903	9108.9
3046.61118	9095.7
3049.01187	9076.3
3051.4111	9068
3053.80888	9042.1
3056.20519	9044.3
3058.60005	8997.8
3060.99345	8997.9
3063.3854	8959
3065.7759	8933.2
3068.16494	8910.4
3070.55254	8881.4
3072.93868	8849.8
3075.32338	8845.5
3077.70662	8815.9
3080.08842	8770.3
3082.46878	8768.5
3084.84769	8771.1
3087.22515	8766.7
3089.60118	8758.8
3091.97576	8726
3094.3489	8744.1
3096.72061	8778.5
3099.09087	8749.1
3101.4597	8733.3
3103.82709	8739.7
3106.19305	8700.8
3108.55757	8718.9
3110.92066	8697.7
3113.28232	8675.4
3115.64255	8647.2
3118.00134	8628.7
3120.35871	8623.2
3122.71466	8610
3125.06917	8577.8
3127.42226	8552.1
3129.77393	8580.2
3132.12417	8529.5
3134.47299	8542.4
3136.82039	8539.1
3139.16636	8559.9
3141.51092	8533.2
3143.85406	8516.1
3146.19579	8531.1
3148.53609	8535.6
3150.87499	8538.4
3153.21246	8543
3155.54853	8554.2
3157.88318	8544.8
3160.21642	8556.9
3162.54826	8537.1
3164.87868	8555.7
3167.2077	8543
3169.5353	8559
3171.86151	8562.1
3174.18631	8562.4
3176.5097	8522
3178.83169	8505.8
3181.15228	8494.4
3183.47147	8503.9
3185.78926	8468.2
3188.10565	8454.9
3190.42065	8453.8
3192.73424	8440.7
3195.04645	8435.4
3197.35725	8408
3199.66667	8427.4
3201.97469	8420.4
3204.28132	8393.6
3206.58656	8417.4
3208.8904	8436.5
3211.19287	8429.8
3213.49394	8406.1
3215.79363	8431.6
3218.09193	8449
3220.38884	8413
3222.68438	8406.7
3224.97853	8409.2
3227.2713	8390.5
3229.56269	8350.6
3231.8527	8358.8
3234.14133	8338.8
3236.42858	8289.2
3238.71446	8298.5
3240.99896	8284.4
3243.28209	8293.4
3245.56384	8263.3
3247.84423	8282.9
3250.12324	8271.9
3252.40088	8231.7
3254.67715	8229.8
3256.95205	8222.1
3259.22558	8226.7
3261.49775	8199.7
3263.76855	8193.3
3266.03799	8161.8
3268.30606	8153.3
3270.57277	8135.1
3272.83812	8105.2
3275.10211	8082.5
3277.36474	8076.4
3279.62601	8086.1
3281.88593	8063.2
3284.14448	8063
3286.40168	8078
3288.65753	8069.6
3290.91202	8036
3293.16516	8031.5
3295.41695	8028
3297.66738	7958.4
3299.91647	7907
3302.16421	7853
3304.4106	7836.8
3306.65564	7754.2
3308.89933	7731.8
3311.14169	7656.5
3313.38269	7604.4
3315.62236	7540.2
3317.86068	7493.7
3320.09766	7417.4
3322.3333	7373.6
3324.5676	7353.4
3326.80056	7252.8
3329.03219	7160.3
3331.26248	3.6
3333.49143	0.2
3335.71905	-1.2
