Data from AgNPs_FTO_APTES_UA_5uM_CRN_200uM_R6G_10uM_NaF_0.1M_Addition_RamanShift__5__16-05-41-766.txt Node

Date: Mon Feb 07 16:05:41 GMT 2022
User: TCL
Spectrometer: QEP01345
Trigger mode: 4
Integration Time (sec): 7.000000E0
Scans to average: 10
Electric dark correction enabled: true
Nonlinearity correction enabled: false
Boxcar width: 0
XAxis mode: Raman Shifts
Number of Pixels in Spectrum: 1044
>>>>>Begin Spectral Data<<<<<
46.04893	0.075
50.45542	-1.225
54.85868	-0.625
59.25871	-0.625
63.6555	74.275
68.04907	78.575
72.43941	80.775
76.82654	82.475
81.21044	88.475
85.59113	86.775
89.96862	95.275
94.34289	93.375
98.71396	99.475
103.08183	100.875
107.4465	104.475
111.80798	111.375
116.16626	110.975
120.52136	119.775
124.87327	126.175
129.222	134.575
133.56755	141.375
137.90993	160.475
142.24913	177.175
146.58517	199.375
150.91804	230.375
155.24774	288.975
159.57429	363.475
163.89768	468.075
168.21792	630.575
172.53501	859.075
176.84895	1205.575
181.15975	1707.675
185.46741	2394.975
189.77193	3306.475
194.07331	4433.575
198.37157	5684.375
202.6667	7033.075
206.9587	8348.375
211.24758	9651.275
215.53334	10985.675
219.81599	12374.675
224.09553	13930.575
228.37195	15604.675
232.64527	17465.475
236.91549	19376.575
241.18261	21264.775
245.44663	23003.175
249.70755	24571.675
253.96539	25965.775
258.22014	27105.675
262.4718	28038.675
266.72039	28789.175
270.96589	29248.075
275.20832	29414.275
279.44768	29377.275
283.68397	29230.075
287.91719	29154.675
292.14735	29278.775
296.37445	29563.275
300.59849	29866.775
304.81948	30068.175
309.03742	30063.775
313.25231	29687.575
317.46415	28803.875
321.67296	27736.575
325.87872	26829.675
330.08145	26326.075
334.28114	26153.975
338.47781	26276.875
342.67145	26501.675
346.86207	26903.075
351.04966	27285.775
355.23424	27713.675
359.4158	28074.975
363.59435	28295.775
367.76989	28436.075
371.94243	28512.075
376.11196	28580.875
380.27849	28694.375
384.44203	28737.275
388.60257	28925.275
392.76012	29287.175
396.91468	29669.875
401.06626	30166.475
405.21485	30417.875
409.36047	30234.675
413.50311	29632.875
417.64277	29200.675
421.77947	28985.275
425.9132	28964.875
430.04396	29049.175
434.17176	29226.375
438.2966	29516.275
442.41849	30075.575
446.53742	30907.275
450.6534	31850.375
454.76644	32537.075
458.87653	32823.475
462.98368	32844.375
467.08789	32682.475
471.18916	32450.075
475.2875	32363.775
479.38291	32452.575
483.4754	32395.675
487.56496	31809.575
491.6516	30904.475
495.73531	30032.475
499.81612	29542.575
503.89401	29464.975
507.96899	29585.675
512.04106	29595.175
516.11023	29493.875
520.1765	29203.975
524.23987	28860.075
528.30034	28498.075
532.35792	28200.375
536.41261	27845.075
540.46441	27615.375
544.51333	27659.975
548.55936	28154.075
552.60252	28998.875
556.64279	29878.175
560.6802	30585.175
564.71473	31093.275
568.7464	31894.775
572.7752	33136.975
576.80114	34096.375
580.82422	34764.175
584.84444	35182.375
588.86181	35646.475
592.87633	35924.475
596.888	35422.075
600.89682	34563.475
604.9028	34693.975
608.90594	36778.975
612.90624	39354.275
616.90371	36842.275
620.89834	30703.075
624.89015	27924.175
628.87913	27579.675
632.86528	27878.075
636.84862	28008.375
640.82913	27701.175
644.80683	27009.675
648.78172	26475.075
652.75379	26335.875
656.72306	26533.575
660.68952	26930.475
664.65319	26711.975
668.61405	26261.675
672.57211	26102.975
676.52738	26202.775
680.47986	26198.775
684.42955	26100.575
688.37646	25998.775
692.32058	26055.275
696.26192	26280.875
700.20048	26551.075
704.13626	26810.175
708.06928	26936.275
711.99952	26901.375
715.927	26838.475
719.85171	26813.675
723.77365	26690.675
727.69284	26354.875
731.60928	26027.975
735.52295	25838.375
739.43388	25780.775
743.34206	25786.975
747.24749	25931.575
751.15017	26290.075
755.05012	26853.275
758.94733	27835.575
762.8418	29551.975
766.73354	32138.175
770.62254	34425.875
774.50882	34692.575
778.39237	32886.775
782.27321	30187.175
786.15132	27908.175
790.02671	26538.975
793.89938	25849.475
797.76935	25579.475
801.6366	25466.875
805.50115	25303.175
809.36299	25184.275
813.22213	25088.475
817.07857	25114.375
820.93231	25079.275
824.78336	24968.875
828.63172	24790.675
832.47738	24704.675
836.32036	24616.075
840.16066	24573.475
843.99827	24576.375
847.8332	24528.475
851.66546	24504.875
855.49504	24496.575
859.32195	24470.475
863.1462	24410.675
866.96777	24301.175
870.78668	24243.875
874.60293	24239.675
878.41652	24230.775
882.22745	24275.975
886.03573	24318.875
889.84136	24324.075
893.64433	24250.675
897.44466	24156.975
901.24235	24087.775
905.0374	23995.675
908.8298	24009.075
912.61957	24133.175
916.40671	24462.175
920.19121	24917.275
923.97308	25090.775
927.75233	24944.075
931.52895	24574.975
935.30295	24181.875
939.07433	23695.175
942.84309	23286.175
946.60924	23036.575
950.37278	22876.275
954.13371	22853.175
957.89203	22840.575
961.64774	22897.375
965.40086	22847.875
969.15137	22758.675
972.89929	22570.675
976.64461	22414.475
980.38733	22315.675
984.12747	22346.775
987.86502	22426.675
991.59999	22567.475
995.33237	22740.175
999.06217	23053.975
1002.78939	23453.075
1006.51404	23759.075
1010.23611	24124.075
1013.95561	24388.975
1017.67255	24482.875
1021.38692	24359.175
1025.09872	23973.375
1028.80796	23720.475
1032.51465	23842.575
1036.21877	24034.375
1039.92035	24197.275
1043.61937	24247.175
1047.31584	24241.675
1051.00976	24224.075
1054.70114	24242.875
1058.38998	24487.775
1062.07627	24866.175
1065.76003	25239.375
1069.44126	25540.175
1073.11995	25859.075
1076.79611	26156.075
1080.46974	26256.375
1084.14085	26372.575
1087.80943	26594.775
1091.47549	26876.675
1095.13903	26995.975
1098.80005	26743.575
1102.45857	26099.675
1106.11456	25491.575
1109.76805	25173.375
1113.41903	25210.075
1117.06751	25466.775
1120.71348	25777.175
1124.35696	26225.875
1127.99793	26751.275
1131.63641	26945.875
1135.2724	26724.575
1138.90589	26431.375
1142.5369	26416.975
1146.16542	26624.075
1149.79145	27081.175
1153.415	27552.675
1157.03607	28150.975
1160.65467	29125.575
1164.27079	30547.975
1167.88443	32345.175
1171.49561	34431.975
1175.10432	37026.875
1178.71056	40269.975
1182.31434	43177.575
1185.91565	44642.475
1189.51451	44708.075
1193.11091	43711.475
1196.70485	42166.075
1200.29634	40368.075
1203.88538	39020.775
1207.47197	38124.375
1211.05612	37512.375
1214.63782	36680.775
1218.21708	35457.675
1221.79391	34115.775
1225.36829	33044.675
1228.94024	32267.375
1232.50976	31697.075
1236.07685	31284.875
1239.6415	31066.475
1243.20374	31155.775
1246.76355	31412.575
1250.32093	31875.875
1253.8759	32501.575
1257.42845	33323.475
1260.97859	34294.975
1264.52631	35211.575
1268.07163	36219.975
1271.61453	37240.775
1275.15503	38380.475
1278.69312	39657.775
1282.22882	40954.175
1285.76211	42580.275
1289.29301	44709.075
1292.82151	47451.175
1296.34761	50636.075
1299.87133	54085.475
1303.39266	57415.575
1306.9116	60221.075
1310.42815	62430.875
1313.94233	63537.975
1317.45412	63470.175
1320.96354	62841.975
1324.47058	62268.875
1327.97525	61724.375
1331.47754	61156.375
1334.97747	60661.575
1338.47502	60224.175
1341.97022	59745.975
1345.46305	59226.375
1348.95352	58687.575
1352.44163	58140.975
1355.92738	58140.175
1359.41078	59517.775
1362.89183	61027.275
1366.37053	59583.375
1369.84688	54613.975
1373.32088	48890.275
1376.79254	45219.475
1380.26186	44061.375
1383.72883	44331.075
1387.19347	44890.675
1390.65578	45196.375
1394.11575	45376.975
1397.57339	45699.775
1401.0287	46142.975
1404.48168	46195.375
1407.93234	45525.675
1411.38068	43989.975
1414.82669	41632.975
1418.27039	39228.975
1421.71177	37075.275
1425.15083	35365.375
1428.58758	34463.175
1432.02203	34597.275
1435.45416	35585.675
1438.88399	36865.275
1442.31151	37943.375
1445.73673	38748.675
1449.15965	39568.475
1452.58027	40349.675
1455.9986	40892.275
1459.41463	41376.175
1462.82837	41769.375
1466.23982	42141.675
1469.64898	42557.475
1473.05586	42706.575
1476.46045	42505.875
1479.86276	42085.275
1483.26279	41453.175
1486.66054	41104.575
1490.05602	41316.375
1493.44922	41942.575
1496.84016	42886.875
1500.22882	44532.575
1503.61521	46786.975
1506.99934	49369.275
1510.38121	51440.875
1513.76081	52041.675
1517.13816	50860.675
1520.51324	48819.375
1523.88607	47194.475
1527.25665	46427.375
1530.62498	46325.475
1533.99105	46095.675
1537.35488	45443.275
1540.71647	44185.375
1544.07581	42653.875
1547.4329	41020.775
1550.78776	39725.075
1554.14038	38911.875
1557.49077	38568.475
1560.83892	38434.075
1564.18484	38556.375
1567.52853	38947.575
1570.86999	39600.575
1574.20922	40672.275
1577.54624	41715.675
1580.88103	42126.475
1584.2136	42396.675
1587.54395	43222.875
1590.87208	44680.375
1594.19801	46437.475
1597.52172	48079.975
1600.84321	48089.975
1604.16251	45813.075
1607.47959	42221.675
1610.79447	38574.075
1614.10715	35232.975
1617.41763	32396.675
1620.7259	30347.875
1624.03199	29290.175
1627.33587	29190.175
1630.63757	30104.775
1633.93707	32129.575
1637.23439	35588.075
1640.52951	40647.175
1643.82246	46751.575
1647.11321	51948.475
1650.40179	53623.475
1653.68819	50518.275
1656.97241	43871.575
1660.25446	36855.675
1663.53433	31200.575
1666.81203	27339.675
1670.08756	24897.275
1673.36092	23352.575
1676.63211	22383.075
1679.90115	21676.575
1683.16801	21205.475
1686.43272	20833.875
1689.69527	20525.275
1692.95567	20332.775
1696.2139	20194.175
1699.46999	20035.975
1702.72392	19925.975
1705.97571	19832.175
1709.22535	19727.375
1712.47284	19651.875
1715.71819	19628.775
1718.96139	19503.275
1722.20246	19458.275
1725.44139	19314.575
1728.67818	19209.975
1731.91284	19046.075
1735.14537	18944.875
1738.37576	18836.175
1741.60403	18718.975
1744.83017	18623.675
1748.05418	18582.575
1751.27607	18554.475
1754.49584	18514.875
1757.71349	18508.475
1760.92903	18485.275
1764.14244	18439.375
1767.35375	18427.175
1770.56294	18332.475
1773.77002	18303.475
1776.97499	18208.675
1780.17785	18140.675
1783.37861	18068.075
1786.57727	18055.675
1789.77382	18006.775
1792.96828	17957.375
1796.16064	17918.575
1799.3509	17877.775
1802.53907	17829.575
1805.72514	17766.175
1808.90913	17679.175
1812.09102	17626.375
1815.27083	17583.375
1818.44856	17531.475
1821.6242	17476.275
1824.79776	17468.575
1827.96924	17435.375
1831.13864	17404.475
1834.30597	17392.075
1837.47122	17329.575
1840.6344	17338.075
1843.7955	17309.375
1846.95454	17309.275
1850.11151	17254.975
1853.26642	17243.475
1856.41926	17226.175
1859.57004	17223.575
1862.71876	17199.475
1865.86542	17157.075
1869.01003	17136.075
1872.15258	17118.775
1875.29308	17107.975
1878.43152	17077.175
1881.56792	17033.175
1884.70227	17006.375
1887.83457	16974.575
1890.96482	16939.575
1894.09304	16879.975
1897.21921	16877.875
1900.34335	16831.575
1903.46544	16794.175
1906.58551	16778.075
1909.70353	16721.675
1912.81953	16706.675
1915.93349	16665.175
1919.04543	16630.175
1922.15534	16604.175
1925.26322	16607.175
1928.36908	16547.975
1931.47292	16493.875
1934.57473	16487.375
1937.67453	16421.975
1940.77232	16363.275
1943.86808	16269.975
1946.96184	16227.175
1950.05358	16184.075
1953.14331	16096.475
1956.23103	16065.975
1959.31675	16035.175
1962.40046	15993.575
1965.48217	15908.175
1968.56188	15836.375
1971.63959	15802.975
1974.7153	15754.175
1977.78901	15710.275
1980.86073	15652.275
1983.93046	15582.975
1986.99819	15541.175
1990.06394	15495.675
1993.1277	15436.775
1996.18947	15368.175
1999.24925	15332.875
2002.30706	15323.675
2005.36288	15220.375
2008.41672	15200.075
2011.46859	15128.275
2014.51848	15059.375
2017.56639	15037.075
2020.61233	14957.375
2023.6563	14946.375
2026.6983	14864.175
2029.73833	14832.375
2032.7764	14788.675
2035.8125	14765.375
2038.84664	14754.975
2041.87881	14720.075
2044.90903	14687.375
2047.93729	14629.475
2050.96359	14635.375
2053.98794	14605.575
2057.01034	14586.075
2060.03078	14571.375
2063.04927	14594.975
2066.06582	14564.775
2069.08042	14553.075
2072.09307	14546.575
2075.10378	14521.375
2078.11255	14459.975
2081.11938	14512.975
2084.12426	14434.575
2087.12722	14419.375
2090.12824	14437.375
2093.12732	14401.575
2096.12447	14431.875
2099.11969	14412.675
2102.11299	14405.175
2105.10435	14392.075
2108.09379	14382.875
2111.08131	14402.275
2114.0669	14408.175
2117.05057	14421.975
2120.03233	14422.075
2123.01216	14428.775
2125.99008	14462.275
2128.96609	14439.375
2131.94018	14386.975
2134.91236	14413.375
2137.88263	14426.475
2140.851	14406.875
2143.81746	14415.075
2146.78201	14410.075
2149.74466	14405.575
2152.7054	14401.175
2155.66425	14354.175
2158.6212	14340.675
2161.57625	14311.875
2164.52941	14313.875
2167.48067	14342.975
2170.43004	14297.875
2173.37752	14301.475
2176.32311	14321.075
2179.26681	14330.675
2182.20863	14289.875
2185.14856	14308.775
2188.08661	14293.675
2191.02278	14264.575
2193.95707	14253.775
2196.88948	14230.375
2199.82001	14188.275
2202.74867	14137.275
2205.67545	14134.375
2208.60037	14138.375
2211.52341	14091.975
2214.44458	14055.575
2217.36388	14028.975
2220.28132	14005.075
2223.1969	13929.575
2226.11061	13940.175
2229.02246	13930.375
2231.93245	13914.575
2234.84058	13878.975
2237.74686	13836.275
2240.65128	13815.675
2243.55385	13830.575
2246.45456	13793.775
2249.35343	13754.375
2252.25044	13737.275
2255.14561	13687.875
2258.03893	13642.075
2260.93041	13608.175
2263.82004	13571.275
2266.70783	13549.675
2269.59378	13479.675
2272.4779	13445.775
2275.36017	13412.675
2278.24061	13378.075
2281.11922	13376.675
2283.996	13367.575
2286.87094	13335.275
2289.74405	13269.175
2292.61534	13247.375
2295.4848	13276.475
2298.35243	13249.375
2301.21824	13274.575
2304.08223	13278.775
2306.94439	13269.175
2309.80474	13215.075
2312.66327	13238.575
2315.51999	13190.775
2318.37489	13195.575
2321.22797	13132.575
2324.07925	13133.075
2326.92871	13110.075
2329.77637	13110.775
2332.62222	13064.375
2335.46626	13078.375
2338.3085	13067.275
2341.14893	13050.075
2343.98756	13034.875
2346.8244	13018.375
2349.65943	13020.875
2352.49267	13039.375
2355.32411	13035.175
2358.15376	12996.575
2360.98161	13016.675
2363.80768	13004.475
2366.63195	13017.075
2369.45444	13011.575
2372.27514	12961.875
2375.09405	12951.675
2377.91118	12901.175
2380.72652	12882.875
2383.54009	12846.575
2386.35187	12847.375
2389.16188	12781.775
2391.97011	12728.575
2394.77657	12701.675
2397.58125	12660.875
2400.38416	12666.775
2403.18529	12607.975
2405.98466	12628.875
2408.78226	12588.875
2411.57809	12594.375
2414.37216	12588.275
2417.16446	12606.575
2419.955	12550.175
2422.74378	12522.275
2425.5308	12524.375
2428.31606	12508.475
2431.09956	12492.675
2433.88131	12458.175
2436.6613	12485.275
2439.43954	12500.375
2442.21603	12483.075
2444.99077	12466.975
2447.76377	12459.575
2450.53501	12438.375
2453.30451	12427.275
2456.07226	12428.675
2458.83827	12435.975
2461.60254	12403.875
2464.36507	12417.875
2467.12586	12411.575
2469.88492	12410.575
2472.64224	12412.475
2475.39782	12371.675
2478.15167	12390.675
2480.90379	12416.375
2483.65417	12378.175
2486.40283	12394.775
2489.14976	12428.275
2491.89497	12415.375
2494.63845	12438.475
2497.3802	12438.575
2500.12024	12393.175
2502.85855	12379.575
2505.59514	12372.275
2508.33002	12370.575
2511.06318	12353.775
2513.79462	12327.575
2516.52435	12322.075
2519.25237	12280.875
2521.97867	12277.675
2524.70327	12243.775
2527.42616	12231.775
2530.14734	12223.375
2532.86681	12226.375
2535.58458	12232.775
2538.30065	12196.375
2541.01501	12205.175
2543.72768	12183.975
2546.43864	12165.675
2549.14791	12153.575
2551.85548	12127.575
2554.56136	12129.075
2557.26554	12090.775
2559.96803	12113.075
2562.66883	12079.175
2565.36794	12036.475
2568.06536	12066.675
2570.7611	12028.875
2573.45514	12025.475
2576.14751	11996.875
2578.83819	11993.775
2581.52719	11963.275
2584.21451	11966.975
2586.90015	11975.375
2589.58411	11940.975
2592.2664	11942.875
2594.94701	11923.375
2597.62594	11917.675
2600.30321	11888.475
2602.9788	11907.575
2605.65273	11895.975
2608.32498	11915.475
2610.99557	11897.175
2613.66449	11902.175
2616.33175	11909.175
2618.99734	11882.075
2621.66128	11878.775
2624.32355	11880.175
2626.98416	11841.175
2629.64311	11819.475
2632.30041	11820.775
2634.95605	11817.275
2637.61004	11805.575
2640.26238	11804.775
2642.91306	11768.875
2645.56209	11760.675
2648.20948	11800.875
2650.85521	11802.375
2653.4993	11799.475
2656.14175	11792.375
2658.78255	11798.475
2661.42171	11803.775
2664.05923	11808.875
2666.6951	11809.475
2669.32934	11832.775
2671.96194	11816.175
2674.59291	11800.875
2677.22224	11810.875
2679.84993	11799.075
2682.476	11778.875
2685.10043	11763.075
2687.72324	11756.275
2690.34441	11745.875
2692.96396	11748.075
2695.58188	11755.275
2698.19818	11739.375
2700.81285	11776.575
2703.4259	11770.975
2706.03733	11769.875
2708.64714	11779.375
2711.25533	11798.775
2713.86191	11791.075
2716.46687	11811.775
2719.07021	11803.975
2721.67194	11817.075
2724.27206	11802.875
2726.87057	11838.075
2729.46747	11797.775
2732.06276	11826.075
2734.65644	11811.475
2737.24852	11794.375
2739.83899	11779.275
2742.42786	11821.675
2745.01513	11791.375
2747.60079	11804.875
2750.18486	11754.675
2752.76733	11736.775
2755.3482	11742.375
2757.92747	11748.275
2760.50515	11715.775
2763.08123	11722.675
2765.65573	11703.675
2768.22863	11716.575
2770.79994	11681.875
2773.36967	11692.575
2775.9378	11706.175
2778.50435	11690.175
2781.06932	11695.275
2783.6327	11665.875
2786.1945	11703.275
2788.75471	11697.775
2791.31335	11650.775
2793.87041	11677.175
2796.42589	11639.375
2798.97979	11650.675
2801.53212	11631.575
2804.08288	11594.275
2806.63206	11577.275
2809.17967	11572.475
2811.72571	11557.275
2814.27018	11506.275
2816.81308	11490.475
2819.35442	11466.375
2821.89419	11434.075
2824.43239	11415.575
2826.96904	11427.775
2829.50412	11432.075
2832.03763	11399.675
2834.56959	11397.575
2837.1	11381.175
2839.62884	11416.775
2842.15613	11431.275
2844.68186	11513.175
2847.20604	11537.175
2849.72867	11555.875
2852.24974	11519.775
2854.76927	11530.175
2857.28724	11512.175
2859.80367	11501.575
2862.31855	11461.375
2864.83189	11408.775
2867.34368	11427.175
2869.85393	11441.375
2872.36264	11424.275
2874.8698	11440.275
2877.37543	11426.275
2879.87952	11407.775
2882.38207	11372.875
2884.88308	11369.475
2887.38256	11377.375
2889.88051	11366.575
2892.37692	11370.275
2894.8718	11380.275
2897.36515	11399.875
2899.85698	11389.375
2902.34727	11415.275
2904.83604	11435.475
2907.32328	11435.475
2909.809	11461.875
2912.29319	11433.875
2914.77587	11435.575
2917.25702	11408.475
2919.73665	11428.975
2922.21476	11426.775
2924.69136	11418.275
2927.16644	11419.375
2929.64	11402.675
2932.11205	11394.075
2934.58258	11354.475
2937.05161	11357.675
2939.51912	11319.475
2941.98513	11303.475
2944.44962	11280.875
2946.91261	11210.375
2949.37409	11212.275
2951.83407	11191.175
2954.29254	11189.675
2956.74951	11174.875
2959.20498	11175.275
2961.65895	11137.275
2964.11142	11125.175
2966.56239	11120.775
2969.01186	11094.675
2971.45984	11095.675
2973.90632	11055.775
2976.35131	11037.575
2978.7948	10993.075
2981.23681	10998.075
2983.67732	10959.775
2986.11635	10903.575
2988.55388	10892.575
2990.98993	10860.675
2993.4245	10824.975
2995.85758	10785.575
2998.28917	10775.875
3000.71928	10755.475
3003.14791	10724.275
3005.57506	10698.175
3008.00073	10662.975
3010.42493	10652.875
3012.84764	10626.975
3015.26888	10622.575
3017.68865	10557.075
3020.10694	10523.375
3022.52376	10530.075
3024.9391	10480.775
3027.35298	10479.275
3029.76539	10508.775
3032.17632	10465.875
3034.5858	10501.075
3036.9938	10462.975
3039.40034	10460.575
3041.80542	10470.675
3044.20903	10423.775
3046.61118	10402.775
3049.01187	10396.275
3051.4111	10351.875
3053.80888	10339.275
3056.20519	10317.275
3058.60005	10286.075
3060.99345	10280.875
3063.3854	10247.875
3065.7759	10210.475
3068.16494	10160.675
3070.55254	10140.175
3072.93868	10088.975
3075.32338	10076.175
3077.70662	10029.775
3080.08842	9991.775
3082.46878	9987.875
3084.84769	9965.375
3087.22515	9973.675
3089.60118	9959.275
3091.97576	9945.375
3094.3489	9978.275
3096.72061	9965.475
3099.09087	9943.875
3101.4597	9930.375
3103.82709	9929.775
3106.19305	9904.875
3108.55757	9916.275
3110.92066	9874.675
3113.28232	9850.475
3115.64255	9821.875
3118.00134	9785.675
3120.35871	9802.075
3122.71466	9768.275
3125.06917	9768.075
3127.42226	9737.675
3129.77393	9720.475
