Data from AgNPs_FTO_APTES_UA_5uM_CRN_500uM_R6G_10uM_NaF_0.1M_Addition_RamanShift__31__17-16-51-837.txt Node

Date: Mon Feb 07 17:16:51 GMT 2022
User: TCL
Spectrometer: QEP01345
Trigger mode: 4
Integration Time (sec): 7.000000E0
Scans to average: 10
Electric dark correction enabled: true
Nonlinearity correction enabled: false
Boxcar width: 0
XAxis mode: Raman Shifts
Number of Pixels in Spectrum: 1044
>>>>>Begin Spectral Data<<<<<
46.04893	-1.475
50.45542	0.025
54.85868	0.325
59.25871	-0.775
63.6555	40.825
68.04907	42.125
72.43941	45.925
76.82654	44.825
81.21044	46.325
85.59113	46.225
89.96862	53.625
94.34289	53.025
98.71396	55.025
103.08183	56.725
107.4465	57.725
111.80798	59.325
116.16626	59.825
120.52136	61.625
124.87327	65.325
129.222	72.725
133.56755	72.725
137.90993	75.325
142.24913	87.225
146.58517	94.525
150.91804	109.525
155.24774	132.025
159.57429	168.925
163.89768	207.525
168.21792	285.325
172.53501	381.625
176.84895	523.425
181.15975	736.525
185.46741	1024.825
189.77193	1425.725
194.07331	1905.025
198.37157	2440.025
202.6667	3014.725
206.9587	3601.525
211.24758	4178.725
215.53334	4814.225
219.81599	5508.725
224.09553	6295.625
228.37195	7212.225
232.64527	8137.225
236.91549	9074.625
241.18261	9916.125
245.44663	10569.125
249.70755	11071.425
253.96539	11497.525
258.22014	11849.525
262.4718	12150.625
266.72039	12357.525
270.96589	12473.025
275.20832	12480.525
279.44768	12357.325
283.68397	12227.825
287.91719	12157.125
292.14735	12271.925
296.37445	12641.425
300.59849	13245.925
304.81948	13952.725
309.03742	14443.225
313.25231	14472.725
317.46415	13639.125
321.67296	12349.525
325.87872	11270.225
330.08145	10729.025
334.28114	10692.925
338.47781	10891.025
342.67145	11274.125
346.86207	11882.525
351.04966	12806.225
355.23424	13779.625
359.4158	14469.625
363.59435	14724.025
367.76989	14712.225
371.94243	14542.725
376.11196	14358.525
380.27849	14181.125
384.44203	13939.525
388.60257	13675.925
392.76012	13517.425
396.91468	13638.925
401.06626	14093.725
405.21485	14411.425
409.36047	14080.425
413.50311	13126.325
417.64277	12275.425
421.77947	11746.925
425.9132	11543.425
430.04396	11463.825
434.17176	11529.025
438.2966	11669.925
442.41849	11961.825
446.53742	12373.225
450.6534	12759.025
454.76644	13015.125
458.87653	13012.225
462.98368	12859.925
467.08789	12606.125
471.18916	12341.825
475.2875	12042.725
479.38291	11782.525
483.4754	11525.025
487.56496	11322.325
491.6516	11137.425
495.73531	11067.925
499.81612	11137.625
503.89401	11309.625
507.96899	11504.125
512.04106	11700.825
516.11023	11955.225
520.1765	12114.725
524.23987	12076.025
528.30034	11811.725
532.35792	11477.725
536.41261	11160.225
540.46441	10839.125
544.51333	10695.825
548.55936	10783.325
552.60252	11125.025
556.64279	11559.925
560.6802	11826.725
564.71473	12142.625
568.7464	12915.925
572.7752	13386.125
576.80114	12820.825
580.82422	12062.825
584.84444	11688.725
588.86181	11573.825
592.87633	11605.825
596.888	11726.325
600.89682	12186.325
604.9028	13857.625
608.90594	18681.225
612.90624	25503.925
616.90371	24705.625
620.89834	16056.225
624.89015	11827.425
628.87913	11029.925
632.86528	11129.925
636.84862	11411.325
640.82913	11205.025
644.80683	10587.125
648.78172	10160.725
652.75379	10209.325
656.72306	10783.325
660.68952	11538.225
664.65319	11402.625
668.61405	10662.125
672.57211	10268.925
676.52738	10251.825
680.47986	10283.825
684.42955	10160.125
688.37646	10084.225
692.32058	10118.225
696.26192	10204.725
700.20048	10387.825
704.13626	10503.025
708.06928	10504.825
711.99952	10378.925
715.927	10283.625
719.85171	10332.925
723.77365	10324.325
727.69284	10164.725
731.60928	10010.325
735.52295	9959.925
739.43388	9987.325
743.34206	10042.925
747.24749	10083.825
751.15017	10203.325
755.05012	10468.725
758.94733	11188.425
762.8418	12840.725
766.73354	15734.425
770.62254	18737.625
774.50882	20275.925
778.39237	19390.025
782.27321	16253.125
786.15132	13085.125
790.02671	11286.525
793.89938	10484.425
797.76935	10158.125
801.6366	9994.125
805.50115	9882.925
809.36299	9824.125
813.22213	9768.225
817.07857	9753.225
820.93231	9755.325
824.78336	9780.625
828.63172	9878.825
832.47738	9920.225
836.32036	9857.725
840.16066	9736.025
843.99827	9642.425
847.8332	9582.925
851.66546	9560.925
855.49504	9572.225
859.32195	9538.525
863.1462	9487.425
866.96777	9413.525
870.78668	9423.125
874.60293	9419.825
878.41652	9494.825
882.22745	9552.825
886.03573	9611.325
889.84136	9570.125
893.64433	9486.725
897.44466	9475.725
901.24235	9474.325
905.0374	9449.125
908.8298	9405.525
912.61957	9359.625
916.40671	9426.625
920.19121	9532.025
923.97308	9646.925
927.75233	9759.225
931.52895	9916.625
935.30295	9749.725
939.07433	9379.925
942.84309	9024.425
946.60924	8824.625
950.37278	8699.225
954.13371	8628.725
957.89203	8601.625
961.64774	8575.725
965.40086	8533.925
969.15137	8504.825
972.89929	8489.625
976.64461	8461.025
980.38733	8477.025
984.12747	8489.225
987.86502	8507.125
991.59999	8567.725
995.33237	8643.325
999.06217	8806.125
1002.78939	9064.825
1006.51404	9299.425
1010.23611	9567.025
1013.95561	9718.625
1017.67255	9616.225
1021.38692	9432.925
1025.09872	9214.425
1028.80796	9091.425
1032.51465	9078.325
1036.21877	9194.025
1039.92035	9300.925
1043.61937	9405.725
1047.31584	9476.425
1051.00976	9514.025
1054.70114	9482.625
1058.38998	9492.225
1062.07627	9605.525
1065.76003	9677.925
1069.44126	9734.525
1073.11995	9857.425
1076.79611	10017.725
1080.46974	10281.325
1084.14085	10629.925
1087.80943	11026.525
1091.47549	11198.025
1095.13903	10983.825
1098.80005	10481.825
1102.45857	10049.525
1106.11456	9826.325
1109.76805	9878.425
1113.41903	10197.725
1117.06751	10713.325
1120.71348	11410.925
1124.35696	12187.925
1127.99793	12785.225
1131.63641	12611.225
1135.2724	11714.125
1138.90589	10887.325
1142.5369	10454.725
1146.16542	10183.525
1149.79145	10095.125
1153.415	10082.825
1157.03607	10198.925
1160.65467	10514.825
1164.27079	11011.425
1167.88443	11798.625
1171.49561	13073.425
1175.10432	15256.825
1178.71056	17973.825
1182.31434	19760.025
1185.91565	19869.425
1189.51451	19071.125
1193.11091	17695.125
1196.70485	16168.825
1200.29634	15048.525
1203.88538	14163.525
1207.47197	13088.725
1211.05612	12135.925
1214.63782	11656.025
1218.21708	11475.125
1221.79391	11466.125
1225.36829	11508.525
1228.94024	11546.025
1232.50976	11522.225
1236.07685	11525.525
1239.6415	11535.925
1243.20374	11584.925
1246.76355	11634.225
1250.32093	11788.625
1253.8759	12066.125
1257.42845	12460.025
1260.97859	12963.625
1264.52631	13473.525
1268.07163	13965.825
1271.61453	14369.425
1275.15503	14654.425
1278.69312	14691.125
1282.22882	14745.925
1285.76211	15145.925
1289.29301	15769.325
1292.82151	16457.425
1296.34761	17213.025
1299.87133	18284.925
1303.39266	20115.925
1306.9116	22966.725
1310.42815	26290.125
1313.94233	28099.525
1317.45412	27284.425
1320.96354	25036.325
1324.47058	22578.425
1327.97525	20529.625
1331.47754	19252.325
1334.97747	18692.625
1338.47502	18762.725
1341.97022	19278.425
1345.46305	20179.225
1348.95352	21617.325
1352.44163	23573.025
1355.92738	26488.125
1359.41078	31070.425
1362.89183	35301.725
1366.37053	33832.325
1369.84688	27824.825
1373.32088	22245.625
1376.79254	18775.825
1380.26186	17063.325
1383.72883	16142.425
1387.19347	15525.925
1390.65578	14864.525
1394.11575	14342.325
1397.57339	14148.625
1401.0287	14181.325
1404.48168	14317.225
1407.93234	14420.225
1411.38068	14451.425
1414.82669	14275.925
1418.27039	13896.725
1421.71177	13507.425
1425.15083	13096.825
1428.58758	12863.725
1432.02203	12842.225
1435.45416	13018.825
1438.88399	13119.825
1442.31151	13098.025
1445.73673	13203.425
1449.15965	13332.225
1452.58027	13374.025
1455.9986	13312.425
1459.41463	13357.625
1462.82837	13592.625
1466.23982	13941.225
1469.64898	14273.225
1473.05586	14491.825
1476.46045	14612.225
1479.86276	14845.525
1483.26279	15199.325
1486.66054	15620.725
1490.05602	16247.725
1493.44922	17138.625
1496.84016	18597.825
1500.22882	20989.125
1503.61521	24260.025
1506.99934	27876.925
1510.38121	31420.725
1513.76081	33139.525
1517.13816	31299.925
1520.51324	26825.225
1523.88607	22344.225
1527.25665	19382.325
1530.62498	17724.125
1533.99105	16781.925
1537.35488	16158.925
1540.71647	15759.625
1544.07581	15550.825
1547.4329	15398.325
1550.78776	15300.625
1554.14038	15250.425
1557.49077	15423.625
1560.83892	15769.425
1564.18484	16428.525
1567.52853	17091.625
1570.86999	17652.125
1574.20922	17957.725
1577.54624	17774.725
1580.88103	16654.525
1584.2136	15201.725
1587.54395	14397.025
1590.87208	14482.525
1594.19801	15346.825
1597.52172	16561.225
1600.84321	17118.025
1604.16251	16447.725
1607.47959	15173.925
1610.79447	13861.925
1614.10715	12584.025
1617.41763	11545.925
1620.7259	10895.825
1624.03199	10610.825
1627.33587	10567.325
1630.63757	10817.825
1633.93707	11396.425
1637.23439	12391.525
1640.52951	13991.225
1643.82246	16350.525
1647.11321	19219.925
1650.40179	21345.525
1653.68819	20918.625
1656.97241	17786.025
1660.25446	14195.725
1663.53433	11627.725
1666.81203	10146.525
1670.08756	9262.625
1673.36092	8792.025
1676.63211	8464.725
1679.90115	8247.725
1683.16801	8074.225
1686.43272	7940.425
1689.69527	7842.225
1692.95567	7758.825
1696.2139	7737.625
1699.46999	7688.325
1702.72392	7647.325
1705.97571	7618.725
1709.22535	7603.825
1712.47284	7607.725
1715.71819	7617.025
1718.96139	7616.925
1722.20246	7597.525
1725.44139	7586.325
1728.67818	7522.025
1731.91284	7437.525
1735.14537	7329.925
1738.37576	7276.825
1741.60403	7240.825
1744.83017	7209.025
1748.05418	7190.125
1751.27607	7155.125
1754.49584	7130.425
1757.71349	7121.025
1760.92903	7083.725
1764.14244	7069.625
1767.35375	7051.525
1770.56294	7016.725
1773.77002	6989.825
1776.97499	6938.725
1780.17785	6913.225
1783.37861	6885.725
1786.57727	6876.025
1789.77382	6862.525
1792.96828	6849.925
1796.16064	6820.725
1799.3509	6818.925
1802.53907	6795.325
1805.72514	6771.925
1808.90913	6725.325
1812.09102	6705.225
1815.27083	6694.825
1818.44856	6667.925
1821.6242	6645.725
1824.79776	6633.425
1827.96924	6624.325
1831.13864	6615.625
1834.30597	6597.425
1837.47122	6596.425
1840.6344	6578.125
1843.7955	6566.525
1846.95454	6551.325
1850.11151	6561.925
1853.26642	6520.725
1856.41926	6528.825
1859.57004	6522.825
1862.71876	6546.725
1865.86542	6551.625
1869.01003	6510.025
1872.15258	6508.425
1875.29308	6523.325
1878.43152	6512.625
1881.56792	6504.225
1884.70227	6518.325
1887.83457	6521.725
1890.96482	6513.125
1894.09304	6497.425
1897.21921	6504.725
1900.34335	6498.125
1903.46544	6490.625
1906.58551	6493.225
1909.70353	6506.825
1912.81953	6487.325
1915.93349	6497.425
1919.04543	6477.625
1922.15534	6471.225
1925.26322	6452.125
1928.36908	6444.725
1931.47292	6421.325
1934.57473	6373.225
1937.67453	6354.425
1940.77232	6295.325
1943.86808	6270.425
1946.96184	6228.725
1950.05358	6206.925
1953.14331	6173.725
1956.23103	6157.425
1959.31675	6129.625
1962.40046	6100.025
1965.48217	6100.525
1968.56188	6069.525
1971.63959	6063.625
1974.7153	6046.925
1977.78901	6030.825
1980.86073	6018.125
1983.93046	5973.725
1986.99819	5935.825
1990.06394	5923.325
1993.1277	5911.425
1996.18947	5874.425
1999.24925	5863.125
2002.30706	5832.925
2005.36288	5808.825
2008.41672	5786.225
2011.46859	5772.025
2014.51848	5767.125
2017.56639	5750.425
2020.61233	5724.525
2023.6563	5699.525
2026.6983	5670.925
2029.73833	5650.225
2032.7764	5631.925
2035.8125	5633.225
2038.84664	5620.425
2041.87881	5609.025
2044.90903	5591.225
2047.93729	5583.725
2050.96359	5551.725
2053.98794	5555.725
2057.01034	5548.525
2060.03078	5543.925
2063.04927	5535.725
2066.06582	5522.025
2069.08042	5512.925
2072.09307	5497.525
2075.10378	5484.825
2078.11255	5503.425
2081.11938	5498.325
2084.12426	5486.825
2087.12722	5473.425
2090.12824	5485.225
2093.12732	5477.825
2096.12447	5475.625
2099.11969	5469.125
2102.11299	5477.525
2105.10435	5484.525
2108.09379	5453.425
2111.08131	5463.725
2114.0669	5486.225
2117.05057	5485.225
2120.03233	5465.825
2123.01216	5490.825
2125.99008	5493.425
2128.96609	5488.725
2131.94018	5497.225
2134.91236	5493.325
2137.88263	5494.725
2140.851	5502.925
2143.81746	5495.525
2146.78201	5476.025
2149.74466	5475.725
2152.7054	5463.725
2155.66425	5459.925
2158.6212	5444.125
2161.57625	5447.425
2164.52941	5428.425
2167.48067	5402.925
2170.43004	5411.625
2173.37752	5414.725
2176.32311	5433.525
2179.26681	5419.925
2182.20863	5421.725
2185.14856	5406.625
2188.08661	5407.225
2191.02278	5401.025
2193.95707	5396.325
2196.88948	5392.425
2199.82001	5367.225
2202.74867	5350.225
2205.67545	5358.225
2208.60037	5348.625
2211.52341	5328.625
2214.44458	5323.325
2217.36388	5319.425
2220.28132	5288.925
2223.1969	5260.825
2226.11061	5263.625
2229.02246	5253.325
2231.93245	5240.125
2234.84058	5227.825
2237.74686	5194.825
2240.65128	5198.825
2243.55385	5203.425
2246.45456	5206.925
2249.35343	5199.325
2252.25044	5196.225
2255.14561	5173.025
2258.03893	5178.125
2260.93041	5158.325
2263.82004	5179.525
2266.70783	5167.925
2269.59378	5136.525
2272.4779	5131.925
2275.36017	5105.425
2278.24061	5105.325
2281.11922	5088.725
2283.996	5081.825
2286.87094	5078.625
2289.74405	5045.025
2292.61534	5032.625
2295.4848	5017.125
2298.35243	5022.025
2301.21824	5018.625
2304.08223	5022.925
2306.94439	5012.625
2309.80474	5010.225
2312.66327	5016.525
2315.51999	4993.625
2318.37489	4988.325
2321.22797	4976.025
2324.07925	4971.225
2326.92871	4961.825
2329.77637	4951.825
2332.62222	4947.525
2335.46626	4957.325
2338.3085	4941.625
2341.14893	4940.825
2343.98756	4936.025
2346.8244	4933.825
2349.65943	4934.025
2352.49267	4954.125
2355.32411	4946.025
2358.15376	4972.825
2360.98161	4978.925
2363.80768	5018.125
2366.63195	5000.025
2369.45444	5013.825
2372.27514	5010.225
2375.09405	5001.325
2377.91118	4960.425
2380.72652	4945.425
2383.54009	4925.425
2386.35187	4897.025
2389.16188	4855.925
2391.97011	4863.725
2394.77657	4817.625
2397.58125	4790.325
2400.38416	4784.125
2403.18529	4774.225
2405.98466	4759.325
2408.78226	4776.625
2411.57809	4757.325
2414.37216	4735.725
2417.16446	4738.325
2419.955	4735.425
2422.74378	4735.425
2425.5308	4734.425
2428.31606	4710.825
2431.09956	4724.425
2433.88131	4713.925
2436.6613	4725.825
2439.43954	4730.425
2442.21603	4729.425
2444.99077	4727.125
2447.76377	4736.925
2450.53501	4723.225
2453.30451	4731.025
2456.07226	4730.525
2458.83827	4733.525
2461.60254	4712.725
2464.36507	4727.525
2467.12586	4708.925
2469.88492	4711.625
2472.64224	4707.725
2475.39782	4705.025
2478.15167	4733.525
2480.90379	4729.325
2483.65417	4743.325
2486.40283	4764.725
2489.14976	4775.125
2491.89497	4784.725
2494.63845	4775.925
2497.3802	4774.325
2500.12024	4783.225
2502.85855	4750.525
2505.59514	4736.425
2508.33002	4714.125
2511.06318	4677.325
2513.79462	4651.425
2516.52435	4649.125
2519.25237	4627.225
2521.97867	4593.425
2524.70327	4583.025
2527.42616	4580.225
2530.14734	4562.725
2532.86681	4566.225
2535.58458	4562.825
2538.30065	4561.825
2541.01501	4552.225
2543.72768	4551.625
2546.43864	4541.025
2549.14791	4554.525
2551.85548	4553.825
2554.56136	4552.725
2557.26554	4545.825
2559.96803	4539.325
2562.66883	4523.225
2565.36794	4521.425
2568.06536	4499.025
2570.7611	4502.325
2573.45514	4485.425
2576.14751	4482.625
2578.83819	4481.725
2581.52719	4456.825
2584.21451	4451.425
2586.90015	4446.025
2589.58411	4455.325
2592.2664	4448.825
2594.94701	4420.225
2597.62594	4413.125
2600.30321	4411.725
2602.9788	4426.925
2605.65273	4404.425
2608.32498	4429.225
2610.99557	4415.025
2613.66449	4423.425
2616.33175	4416.025
2618.99734	4414.925
2621.66128	4391.825
2624.32355	4396.125
2626.98416	4381.525
2629.64311	4381.025
2632.30041	4356.225
2634.95605	4354.725
2637.61004	4345.325
2640.26238	4343.525
2642.91306	4326.325
2645.56209	4326.325
2648.20948	4334.225
2650.85521	4329.025
2653.4993	4333.125
2656.14175	4337.525
2658.78255	4343.525
2661.42171	4327.125
2664.05923	4351.525
2666.6951	4338.525
2669.32934	4357.625
2671.96194	4353.625
2674.59291	4357.825
2677.22224	4359.025
2679.84993	4358.025
2682.476	4347.325
2685.10043	4347.025
2687.72324	4349.725
2690.34441	4354.625
2692.96396	4340.625
2695.58188	4350.825
2698.19818	4346.225
2700.81285	4351.925
2703.4259	4358.025
2706.03733	4344.425
2708.64714	4350.125
2711.25533	4365.425
2713.86191	4360.125
2716.46687	4379.525
2719.07021	4374.625
2721.67194	4374.225
2724.27206	4374.225
2726.87057	4378.925
2729.46747	4382.725
2732.06276	4376.625
2734.65644	4359.425
2737.24852	4368.925
2739.83899	4339.125
2742.42786	4321.625
2745.01513	4305.725
2747.60079	4312.025
2750.18486	4299.225
2752.76733	4300.925
2755.3482	4287.525
2757.92747	4279.525
2760.50515	4281.125
2763.08123	4260.825
2765.65573	4248.125
2768.22863	4254.425
2770.79994	4239.325
2773.36967	4239.325
2775.9378	4241.825
2778.50435	4246.425
2781.06932	4251.525
2783.6327	4244.825
2786.1945	4242.725
2788.75471	4261.925
2791.31335	4259.925
2793.87041	4257.125
2796.42589	4242.525
2798.97979	4240.925
2801.53212	4238.025
2804.08288	4230.325
2806.63206	4231.525
2809.17967	4244.525
2811.72571	4242.125
2814.27018	4252.425
2816.81308	4251.425
2819.35442	4237.825
2821.89419	4239.825
2824.43239	4259.825
2826.96904	4268.825
2829.50412	4281.025
2832.03763	4279.825
2834.56959	4281.525
2837.1	4291.625
2839.62884	4316.825
2842.15613	4372.925
2844.68186	4453.725
2847.20604	4555.025
2849.72867	4611.725
2852.24974	4637.425
2854.76927	4612.525
2857.28724	4607.625
2859.80367	4602.425
2862.31855	4573.425
2864.83189	4563.825
2867.34368	4540.425
2869.85393	4548.525
2872.36264	4541.425
2874.8698	4548.725
2877.37543	4531.725
2879.87952	4519.725
2882.38207	4499.825
2884.88308	4515.325
2887.38256	4505.825
2889.88051	4514.325
2892.37692	4496.925
2894.8718	4504.225
2897.36515	4510.325
2899.85698	4501.125
2902.34727	4523.525
2904.83604	4523.925
2907.32328	4519.125
2909.809	4530.925
2912.29319	4516.625
2914.77587	4506.325
2917.25702	4498.125
2919.73665	4490.225
2922.21476	4490.625
2924.69136	4484.725
2927.16644	4482.325
2929.64	4467.825
2932.11205	4439.725
2934.58258	4414.125
2937.05161	4417.225
2939.51912	4394.125
2941.98513	4330.025
2944.44962	4306.125
2946.91261	4245.725
2949.37409	4232.825
2951.83407	4206.625
2954.29254	4168.625
2956.74951	4156.625
2959.20498	4161.625
2961.65895	4136.225
2964.11142	4112.325
2966.56239	4102.825
2969.01186	4081.725
2971.45984	4070.825
2973.90632	4055.225
2976.35131	4046.325
2978.7948	4030.725
2981.23681	3998.025
2983.67732	3989.025
2986.11635	3976.625
2988.55388	3971.625
2990.98993	3954.925
2993.4245	3944.525
2995.85758	3944.225
2998.28917	3925.225
3000.71928	3938.425
3003.14791	3911.825
3005.57506	3911.525
3008.00073	3897.025
3010.42493	3884.225
3012.84764	3885.625
3015.26888	3884.725
3017.68865	3869.625
3020.10694	3879.825
3022.52376	3855.825
3024.9391	3851.825
3027.35298	3843.125
3029.76539	3847.625
3032.17632	3841.025
3034.5858	3821.625
3036.9938	3818.125
3039.40034	3821.825
3041.80542	3816.025
3044.20903	3800.125
3046.61118	3806.025
3049.01187	3787.225
3051.4111	3776.625
3053.80888	3766.725
3056.20519	3774.225
3058.60005	3747.325
3060.99345	3765.425
3063.3854	3749.225
3065.7759	3740.125
3068.16494	3731.025
3070.55254	3713.925
3072.93868	3702.025
3075.32338	3701.725
3077.70662	3693.025
3080.08842	3675.625
3082.46878	3663.025
3084.84769	3641.525
3087.22515	3652.525
3089.60118	3652.925
3091.97576	3640.025
3094.3489	3652.025
3096.72061	3643.325
3099.09087	3636.725
3101.4597	3634.625
3103.82709	3635.425
3106.19305	3627.625
3108.55757	3633.025
3110.92066	3616.225
3113.28232	3625.225
3115.64255	3613.825
3118.00134	3590.825
3120.35871	3604.225
3122.71466	3606.025
3125.06917	3576.125
3127.42226	3585.825
3129.77393	3584.125
3132.12417	3579.625
3134.47299	3592.025
3136.82039	3594.025
3139.16636	3593.725
3141.51092	3590.625
3143.85406	3592.625
3146.19579	3606.925
3148.53609	3606.525
3150.87499	3617.525
3153.21246	3621.525
3155.54853	3636.825
3157.88318	3635.425
3160.21642	3637.525
3162.54826	3634.725
3164.87868	3642.225
3167.2077	3643.225
3169.5353	3640.425
3171.86151	3652.025
3174.18631	3641.125
3176.5097	3636.625
3178.83169	3652.925
3181.15228	3652.925
3183.47147	3642.825
3185.78926	3639.025
3188.10565	3617.025
3190.42065	3627.825
3192.73424	3643.125
3195.04645	3632.825
3197.35725	3651.125
3199.66667	3649.825
