Data from AgNPs_FTO_APTES_UA_5uM_CRN_200uM_R6G_10uM_NaF_0.1M_Addition_RamanShift__7__16-08-01-769.txt Node

Date: Mon Feb 07 16:08:01 GMT 2022
User: TCL
Spectrometer: QEP01345
Trigger mode: 4
Integration Time (sec): 7.000000E0
Scans to average: 10
Electric dark correction enabled: true
Nonlinearity correction enabled: false
Boxcar width: 0
XAxis mode: Raman Shifts
Number of Pixels in Spectrum: 1044
>>>>>Begin Spectral Data<<<<<
46.04893	-1.5875
50.45542	-1.1875
54.85868	0.8125
59.25871	-0.0875
63.6555	77.1125
68.04907	83.1125
72.43941	87.7125
76.82654	87.6125
81.21044	92.7125
85.59113	90.8125
89.96862	98.6125
94.34289	102.7125
98.71396	100.8125
103.08183	106.7125
107.4465	113.4125
111.80798	114.9125
116.16626	119.3125
120.52136	121.8125
124.87327	133.0125
129.222	136.0125
133.56755	146.3125
137.90993	165.2125
142.24913	185.2125
146.58517	209.2125
150.91804	248.7125
155.24774	303.6125
159.57429	376.5125
163.89768	492.0125
168.21792	662.0125
172.53501	905.6125
176.84895	1262.6125
181.15975	1790.2125
185.46741	2504.6125
189.77193	3473.7125
194.07331	4642.6125
198.37157	5984.0125
202.6667	7388.9125
206.9587	8806.1125
211.24758	10162.1125
215.53334	11554.4125
219.81599	12991.8125
224.09553	14610.0125
228.37195	16333.2125
232.64527	18246.8125
236.91549	20206.6125
241.18261	22234.2125
245.44663	24091.0125
249.70755	25788.7125
253.96539	27333.1125
258.22014	28574.2125
262.4718	29543.6125
266.72039	30321.1125
270.96589	30736.3125
275.20832	30988.2125
279.44768	30933.2125
283.68397	30826.7125
287.91719	30709.8125
292.14735	30739.1125
296.37445	30996.1125
300.59849	31190.4125
304.81948	31384.3125
309.03742	31301.3125
313.25231	30873.2125
317.46415	30107.5125
321.67296	29163.4125
325.87872	28317.9125
330.08145	27910.6125
334.28114	27745.2125
338.47781	27893.9125
342.67145	28131.3125
346.86207	28485.1125
351.04966	28794.3125
355.23424	29154.7125
359.4158	29404.7125
363.59435	29648.7125
367.76989	29763.9125
371.94243	29920.7125
376.11196	30009.3125
380.27849	30047.1125
384.44203	30190.8125
388.60257	30436.1125
392.76012	30780.6125
396.91468	31191.2125
401.06626	31646.1125
405.21485	31974.9125
409.36047	31821.1125
413.50311	31382.1125
417.64277	30997.4125
421.77947	30941.8125
425.9132	30990.4125
430.04396	31159.8125
434.17176	31342.0125
438.2966	31568.4125
442.41849	32089.0125
446.53742	32920.9125
450.6534	33906.7125
454.76644	34562.9125
458.87653	34888.2125
462.98368	34957.3125
467.08789	34831.0125
471.18916	34697.8125
475.2875	34631.3125
479.38291	34745.6125
483.4754	34709.4125
487.56496	34121.4125
491.6516	33171.7125
495.73531	32301.4125
499.81612	31710.7125
503.89401	31621.6125
507.96899	31815.1125
512.04106	31808.1125
516.11023	31707.1125
520.1765	31376.1125
524.23987	30999.1125
528.30034	30630.1125
532.35792	30340.3125
536.41261	29975.5125
540.46441	29744.1125
544.51333	29823.0125
548.55936	30308.6125
552.60252	31137.3125
556.64279	32007.2125
560.6802	32730.2125
564.71473	33337.3125
568.7464	34259.4125
572.7752	35598.8125
576.80114	37005.2125
580.82422	37866.1125
584.84444	38401.4125
588.86181	38995.6125
592.87633	39383.0125
596.888	38807.9125
600.89682	37648.2125
604.9028	37233.8125
608.90594	38388.2125
612.90624	39936.2125
616.90371	37394.0125
620.89834	32296.4125
624.89015	30041.4125
628.87913	29926.4125
632.86528	30261.8125
636.84862	30330.3125
640.82913	29931.2125
644.80683	29343.6125
648.78172	28859.4125
652.75379	28676.8125
656.72306	28900.9125
660.68952	29206.2125
664.65319	29041.5125
668.61405	28656.2125
672.57211	28557.9125
676.52738	28624.0125
680.47986	28664.2125
684.42955	28641.9125
688.37646	28544.3125
692.32058	28540.3125
696.26192	28804.4125
700.20048	29084.5125
704.13626	29366.1125
708.06928	29538.1125
711.99952	29543.6125
715.927	29506.1125
719.85171	29378.9125
723.77365	29208.8125
727.69284	28814.2125
731.60928	28492.3125
735.52295	28265.2125
739.43388	28221.9125
743.34206	28226.8125
747.24749	28419.6125
751.15017	28762.9125
755.05012	29380.3125
758.94733	30299.5125
762.8418	31857.5125
766.73354	34089.9125
770.62254	35972.1125
774.50882	36061.6125
778.39237	34291.5125
782.27321	31991.4125
786.15132	30087.4125
790.02671	28902.9125
793.89938	28224.8125
797.76935	27905.0125
801.6366	27820.6125
805.50115	27692.0125
809.36299	27610.3125
813.22213	27499.4125
817.07857	27559.6125
820.93231	27547.8125
824.78336	27414.3125
828.63172	27236.0125
832.47738	27044.5125
836.32036	26972.1125
840.16066	26943.6125
843.99827	26897.2125
847.8332	26859.0125
851.66546	26889.6125
855.49504	26923.0125
859.32195	26889.1125
863.1462	26860.2125
866.96777	26755.1125
870.78668	26660.1125
874.60293	26684.1125
878.41652	26680.8125
882.22745	26736.1125
886.03573	26742.9125
889.84136	26732.5125
893.64433	26677.4125
897.44466	26619.5125
901.24235	26552.8125
905.0374	26467.9125
908.8298	26455.1125
912.61957	26646.7125
916.40671	27077.9125
920.19121	27540.0125
923.97308	27689.8125
927.75233	27492.9125
931.52895	27007.2125
935.30295	26530.9125
939.07433	26102.4125
942.84309	25686.6125
946.60924	25401.2125
950.37278	25233.4125
954.13371	25256.8125
957.89203	25298.5125
961.64774	25355.0125
965.40086	25331.9125
969.15137	25215.6125
972.89929	24995.9125
976.64461	24815.0125
980.38733	24680.3125
984.12747	24674.3125
987.86502	24734.8125
991.59999	24810.2125
995.33237	24943.1125
999.06217	25210.2125
1002.78939	25549.8125
1006.51404	25897.1125
1010.23611	26227.0125
1013.95561	26542.0125
1017.67255	26629.2125
1021.38692	26514.2125
1025.09872	26155.8125
1028.80796	25852.0125
1032.51465	25709.2125
1036.21877	25748.4125
1039.92035	25863.9125
1043.61937	26021.5125
1047.31584	26174.1125
1051.00976	26312.7125
1054.70114	26499.7125
1058.38998	26742.6125
1062.07627	27250.3125
1065.76003	27652.4125
1069.44126	28031.1125
1073.11995	28383.9125
1076.79611	28645.9125
1080.46974	28726.8125
1084.14085	28775.6125
1087.80943	28949.7125
1091.47549	29232.8125
1095.13903	29380.9125
1098.80005	29161.7125
1102.45857	28495.7125
1106.11456	27817.9125
1109.76805	27490.0125
1113.41903	27434.7125
1117.06751	27651.7125
1120.71348	27950.8125
1124.35696	28328.3125
1127.99793	28799.5125
1131.63641	29043.4125
1135.2724	28863.5125
1138.90589	28708.5125
1142.5369	28873.6125
1146.16542	29190.6125
1149.79145	29717.3125
1153.415	30216.6125
1157.03607	30822.4125
1160.65467	31878.1125
1164.27079	33338.2125
1167.88443	35074.5125
1171.49561	37056.1125
1175.10432	39414.7125
1178.71056	42264.1125
1182.31434	44892.1125
1185.91565	46189.0125
1189.51451	46316.8125
1193.11091	45588.4125
1196.70485	44239.9125
1200.29634	42694.6125
1203.88538	41489.5125
1207.47197	40992.0125
1211.05612	40634.3125
1214.63782	39917.4125
1218.21708	38543.1125
1221.79391	36923.4125
1225.36829	35596.4125
1228.94024	34785.3125
1232.50976	34257.0125
1236.07685	33836.6125
1239.6415	33647.3125
1243.20374	33744.7125
1246.76355	34007.4125
1250.32093	34442.8125
1253.8759	35061.5125
1257.42845	35890.1125
1260.97859	36862.7125
1264.52631	37860.6125
1268.07163	38835.6125
1271.61453	39827.5125
1275.15503	40984.8125
1278.69312	42425.1125
1282.22882	43879.7125
1285.76211	45708.6125
1289.29301	48092.4125
1292.82151	50901.9125
1296.34761	54216.3125
1299.87133	57652.3125
1303.39266	60667.9125
1306.9116	62883.1125
1310.42815	64409.1125
1313.94233	65237.2125
1317.45412	65219.4125
1320.96354	65096.0125
1324.47058	65016.5125
1327.97525	64883.2125
1331.47754	64677.8125
1334.97747	64289.4125
1338.47502	63763.3125
1341.97022	63224.7125
1345.46305	62516.1125
1348.95352	61567.2125
1352.44163	60548.5125
1355.92738	60042.8125
1359.41078	60674.5125
1362.89183	61370.6125
1366.37053	60022.3125
1369.84688	55876.4125
1373.32088	50921.3125
1376.79254	47702.6125
1380.26186	46847.8125
1383.72883	47404.0125
1387.19347	48154.0125
1390.65578	48415.4125
1394.11575	48567.3125
1397.57339	48844.8125
1401.0287	49269.5125
1404.48168	49201.4125
1407.93234	48422.6125
1411.38068	46650.6125
1414.82669	44263.9125
1418.27039	41730.8125
1421.71177	39516.6125
1425.15083	37725.2125
1428.58758	36905.5125
1432.02203	37113.8125
1435.45416	38110.0125
1438.88399	39507.7125
1442.31151	40606.0125
1445.73673	41469.2125
1449.15965	42267.4125
1452.58027	43095.2125
1455.9986	43691.0125
1459.41463	44124.6125
1462.82837	44473.5125
1466.23982	44924.1125
1469.64898	45242.0125
1473.05586	45363.1125
1476.46045	45119.0125
1479.86276	44633.5125
1483.26279	44044.3125
1486.66054	43616.4125
1490.05602	43769.7125
1493.44922	44328.9125
1496.84016	45096.7125
1500.22882	46396.1125
1503.61521	48191.0125
1506.99934	50054.9125
1510.38121	51625.9125
1513.76081	52102.5125
1517.13816	51418.1125
1520.51324	50267.6125
1523.88607	49573.6125
1527.25665	49490.3125
1530.62498	49604.8125
1533.99105	49358.9125
1537.35488	48574.8125
1540.71647	47162.8125
1544.07581	45414.3125
1547.4329	43682.7125
1550.78776	42255.4125
1554.14038	41336.5125
1557.49077	40844.5125
1560.83892	40671.6125
1564.18484	40719.4125
1567.52853	40995.3125
1570.86999	41658.9125
1574.20922	42867.8125
1577.54624	44104.4125
1580.88103	44837.6125
1584.2136	45423.3125
1587.54395	46340.3125
1590.87208	47798.3125
1594.19801	49449.7125
1597.52172	50856.3125
1600.84321	50677.6125
1604.16251	48180.0125
1607.47959	44549.5125
1610.79447	40937.2125
1614.10715	37570.6125
1617.41763	34701.0125
1620.7259	32689.0125
1624.03199	31653.6125
1627.33587	31655.0125
1630.63757	32619.7125
1633.93707	34879.2125
1637.23439	38587.9125
1640.52951	43976.2125
1643.82246	50356.0125
1647.11321	55554.4125
1650.40179	56815.9125
1653.68819	53291.0125
1656.97241	46457.1125
1660.25446	39258.8125
1663.53433	33529.8125
1666.81203	29571.3125
1670.08756	27042.2125
1673.36092	25506.0125
1676.63211	24499.9125
1679.90115	23834.4125
1683.16801	23332.3125
1686.43272	22906.0125
1689.69527	22619.6125
1692.95567	22381.5125
1696.2139	22228.2125
1699.46999	22103.1125
1702.72392	21924.3125
1705.97571	21854.0125
1709.22535	21742.8125
1712.47284	21695.7125
1715.71819	21571.3125
1718.96139	21537.4125
1722.20246	21429.5125
1725.44139	21326.9125
1728.67818	21187.8125
1731.91284	21049.0125
1735.14537	20914.7125
1738.37576	20789.6125
1741.60403	20708.7125
1744.83017	20611.8125
1748.05418	20527.7125
1751.27607	20499.5125
1754.49584	20468.3125
1757.71349	20451.9125
1760.92903	20394.8125
1764.14244	20348.1125
1767.35375	20360.9125
1770.56294	20256.4125
1773.77002	20185.2125
1776.97499	20113.1125
1780.17785	20085.4125
1783.37861	20004.1125
1786.57727	19970.9125
1789.77382	19926.4125
1792.96828	19857.4125
1796.16064	19829.7125
1799.3509	19774.1125
1802.53907	19664.5125
1805.72514	19677.3125
1808.90913	19592.8125
1812.09102	19515.8125
1815.27083	19449.9125
1818.44856	19419.0125
1821.6242	19363.4125
1824.79776	19318.5125
1827.96924	19322.0125
1831.13864	19286.1125
1834.30597	19240.2125
1837.47122	19211.5125
1840.6344	19187.5125
1843.7955	19173.5125
1846.95454	19155.6125
1850.11151	19132.5125
1853.26642	19092.7125
1856.41926	19038.2125
1859.57004	19044.4125
1862.71876	19022.6125
1865.86542	18961.7125
1869.01003	18982.5125
1872.15258	18905.0125
1875.29308	18909.0125
1878.43152	18851.8125
1881.56792	18826.3125
1884.70227	18810.6125
1887.83457	18765.1125
1890.96482	18728.9125
1894.09304	18672.9125
1897.21921	18652.0125
1900.34335	18601.0125
1903.46544	18579.5125
1906.58551	18582.9125
1909.70353	18499.0125
1912.81953	18432.4125
1915.93349	18414.3125
1919.04543	18357.9125
1922.15534	18323.4125
1925.26322	18313.4125
1928.36908	18266.2125
1931.47292	18216.6125
1934.57473	18168.3125
1937.67453	18149.1125
1940.77232	18040.2125
1943.86808	17969.7125
1946.96184	17921.4125
1950.05358	17843.8125
1953.14331	17800.5125
1956.23103	17725.3125
1959.31675	17673.0125
1962.40046	17635.3125
1965.48217	17565.5125
1968.56188	17473.1125
1971.63959	17416.8125
1974.7153	17386.8125
1977.78901	17308.9125
1980.86073	17258.5125
1983.93046	17195.7125
1986.99819	17113.7125
1990.06394	17072.9125
1993.1277	17020.7125
1996.18947	16953.8125
1999.24925	16882.6125
2002.30706	16840.0125
2005.36288	16794.1125
2008.41672	16734.3125
2011.46859	16656.1125
2014.51848	16577.7125
2017.56639	16526.0125
2020.61233	16498.5125
2023.6563	16420.9125
2026.6983	16378.2125
2029.73833	16344.9125
2032.7764	16271.5125
2035.8125	16262.8125
2038.84664	16217.8125
2041.87881	16173.3125
2044.90903	16165.5125
2047.93729	16122.1125
2050.96359	16079.9125
2053.98794	16063.7125
2057.01034	16040.7125
2060.03078	16033.8125
2063.04927	16032.8125
2066.06582	16010.9125
2069.08042	15997.7125
2072.09307	15969.1125
2075.10378	15931.1125
2078.11255	15904.4125
2081.11938	15895.0125
2084.12426	15879.7125
2087.12722	15884.6125
2090.12824	15840.5125
2093.12732	15841.4125
2096.12447	15827.3125
2099.11969	15817.1125
2102.11299	15838.9125
2105.10435	15816.5125
2108.09379	15791.0125
2111.08131	15835.5125
2114.0669	15797.4125
2117.05057	15831.4125
2120.03233	15828.3125
2123.01216	15852.0125
2125.99008	15859.7125
2128.96609	15830.5125
2131.94018	15789.5125
2134.91236	15822.0125
2137.88263	15813.7125
2140.851	15794.2125
2143.81746	15837.1125
2146.78201	15792.0125
2149.74466	15775.0125
2152.7054	15768.4125
2155.66425	15758.2125
2158.6212	15742.7125
2161.57625	15685.5125
2164.52941	15711.6125
2167.48067	15683.7125
2170.43004	15677.6125
2173.37752	15653.1125
2176.32311	15690.4125
2179.26681	15702.8125
2182.20863	15645.4125
2185.14856	15641.1125
2188.08661	15631.6125
2191.02278	15625.4125
2193.95707	15583.7125
2196.88948	15537.4125
2199.82001	15522.0125
2202.74867	15504.3125
2205.67545	15464.2125
2208.60037	15456.2125
2211.52341	15411.6125
2214.44458	15379.5125
2217.36388	15313.2125
2220.28132	15299.2125
2223.1969	15246.1125
2226.11061	15234.4125
2229.02246	15239.9125
2231.93245	15206.7125
2234.84058	15129.5125
2237.74686	15107.7125
2240.65128	15097.6125
2243.55385	15085.0125
2246.45456	15063.4125
2249.35343	15022.7125
2252.25044	15001.3125
2255.14561	14920.3125
2258.03893	14860.5125
2260.93041	14811.5125
2263.82004	14807.1125
2266.70783	14756.2125
2269.59378	14704.2125
2272.4779	14644.6125
2275.36017	14583.1125
2278.24061	14582.4125
2281.11922	14546.5125
2283.996	14532.1125
2286.87094	14491.9125
2289.74405	14436.2125
2292.61534	14430.9125
2295.4848	14426.3125
2298.35243	14423.4125
2301.21824	14409.8125
2304.08223	14416.9125
2306.94439	14400.6125
2309.80474	14374.9125
2312.66327	14372.3125
2315.51999	14302.2125
2318.37489	14299.2125
2321.22797	14259.4125
2324.07925	14234.3125
2326.92871	14227.4125
2329.77637	14199.9125
2332.62222	14198.6125
2335.46626	14171.0125
2338.3085	14129.2125
2341.14893	14090.8125
2343.98756	14116.1125
2346.8244	14100.1125
2349.65943	14084.2125
2352.49267	14077.7125
2355.32411	14101.5125
2358.15376	14070.5125
2360.98161	14066.3125
2363.80768	14082.1125
2366.63195	14061.2125
2369.45444	14054.7125
2372.27514	14028.5125
2375.09405	13980.9125
2377.91118	13928.3125
2380.72652	13923.0125
2383.54009	13901.5125
2386.35187	13852.3125
2389.16188	13796.4125
2391.97011	13740.7125
2394.77657	13720.4125
2397.58125	13697.3125
2400.38416	13631.5125
2403.18529	13628.5125
2405.98466	13640.1125
2408.78226	13627.7125
2411.57809	13631.6125
2414.37216	13582.8125
2417.16446	13593.0125
2419.955	13570.0125
2422.74378	13557.3125
2425.5308	13541.3125
2428.31606	13497.2125
2431.09956	13496.7125
2433.88131	13435.4125
2436.6613	13497.8125
2439.43954	13491.9125
2442.21603	13488.3125
2444.99077	13418.7125
2447.76377	13406.7125
2450.53501	13419.7125
2453.30451	13389.5125
2456.07226	13385.6125
2458.83827	13363.0125
2461.60254	13326.2125
2464.36507	13348.3125
2467.12586	13331.4125
2469.88492	13319.8125
2472.64224	13303.3125
2475.39782	13296.0125
2478.15167	13306.7125
2480.90379	13290.9125
2483.65417	13304.1125
2486.40283	13301.1125
2489.14976	13307.4125
2491.89497	13285.2125
2494.63845	13337.9125
2497.3802	13309.7125
2500.12024	13289.6125
2502.85855	13245.2125
2505.59514	13261.3125
2508.33002	13249.0125
2511.06318	13216.3125
2513.79462	13202.9125
2516.52435	13204.7125
2519.25237	13184.8125
2521.97867	13131.8125
2524.70327	13092.8125
2527.42616	13087.0125
2530.14734	13097.4125
2532.86681	13087.5125
2535.58458	13099.9125
2538.30065	13058.1125
2541.01501	13070.8125
2543.72768	13025.7125
2546.43864	13021.7125
2549.14791	12983.1125
2551.85548	12979.5125
2554.56136	12939.0125
2557.26554	12905.9125
2559.96803	12884.2125
2562.66883	12888.8125
2565.36794	12846.8125
2568.06536	12868.9125
2570.7611	12852.5125
2573.45514	12814.0125
2576.14751	12814.2125
2578.83819	12776.9125
2581.52719	12789.5125
2584.21451	12746.4125
2586.90015	12734.9125
2589.58411	12710.1125
2592.2664	12752.5125
2594.94701	12707.3125
2597.62594	12693.8125
2600.30321	12649.7125
2602.9788	12670.0125
2605.65273	12670.0125
2608.32498	12667.5125
2610.99557	12668.8125
2613.66449	12657.4125
2616.33175	12631.5125
2618.99734	12623.7125
2621.66128	12606.4125
2624.32355	12605.8125
2626.98416	12598.9125
2629.64311	12570.9125
2632.30041	12545.9125
2634.95605	12519.1125
2637.61004	12506.7125
2640.26238	12504.7125
2642.91306	12487.9125
2645.56209	12497.5125
2648.20948	12525.3125
2650.85521	12512.3125
2653.4993	12518.4125
2656.14175	12496.8125
2658.78255	12511.5125
2661.42171	12527.3125
2664.05923	12499.6125
2666.6951	12515.7125
2669.32934	12522.7125
2671.96194	12517.0125
2674.59291	12525.5125
2677.22224	12514.0125
2679.84993	12492.9125
2682.476	12458.9125
2685.10043	12455.5125
2687.72324	12461.7125
2690.34441	12466.5125
2692.96396	12437.7125
2695.58188	12441.7125
2698.19818	12450.3125
2700.81285	12492.8125
2703.4259	12466.0125
2706.03733	12465.6125
2708.64714	12426.3125
2711.25533	12458.2125
2713.86191	12477.0125
2716.46687	12467.6125
2719.07021	12462.6125
2721.67194	12491.4125
2724.27206	12460.8125
2726.87057	12497.0125
2729.46747	12503.1125
2732.06276	12490.9125
2734.65644	12465.5125
2737.24852	12474.8125
2739.83899	12487.4125
2742.42786	12475.6125
2745.01513	12447.1125
2747.60079	12438.8125
2750.18486	12404.8125
2752.76733	12387.0125
2755.3482	12387.0125
2757.92747	12352.1125
2760.50515	12368.1125
2763.08123	12375.5125
2765.65573	12338.6125
2768.22863	12336.9125
2770.79994	12347.5125
2773.36967	12345.3125
2775.9378	12325.0125
2778.50435	12317.7125
2781.06932	12319.7125
2783.6327	12314.1125
2786.1945	12302.4125
2788.75471	12296.1125
2791.31335	12281.5125
2793.87041	12280.1125
2796.42589	12255.9125
2798.97979	12233.3125
2801.53212	12212.1125
2804.08288	12184.4125
2806.63206	12153.1125
2809.17967	12122.1125
2811.72571	12095.3125
2814.27018	12095.1125
2816.81308	12066.5125
2819.35442	12036.3125
2821.89419	11993.3125
2824.43239	12014.2125
2826.96904	12007.2125
2829.50412	11976.7125
2832.03763	11930.3125
2834.56959	11935.5125
2837.1	11921.5125
2839.62884	11949.4125
2842.15613	11979.7125
2844.68186	12019.9125
2847.20604	12061.8125
2849.72867	12067.1125
2852.24974	12088.6125
2854.76927	12042.3125
2857.28724	12021.6125
2859.80367	12010.5125
2862.31855	11960.5125
2864.83189	11939.6125
2867.34368	11951.0125
2869.85393	11907.4125
2872.36264	11908.7125
2874.8698	11904.8125
2877.37543	11894.6125
2879.87952	11877.7125
2882.38207	11869.4125
2884.88308	11855.8125
2887.38256	11825.9125
2889.88051	11843.9125
2892.37692	11826.4125
2894.8718	11845.2125
2897.36515	11851.8125
2899.85698	11853.4125
2902.34727	11882.2125
2904.83604	11877.9125
2907.32328	11904.7125
2909.809	11899.3125
2912.29319	11878.8125
2914.77587	11894.9125
2917.25702	11849.6125
2919.73665	11865.7125
2922.21476	11881.6125
2924.69136	11867.1125
2927.16644	11874.5125
2929.64	11852.4125
2932.11205	11813.4125
2934.58258	11793.4125
2937.05161	11801.4125
2939.51912	11761.2125
2941.98513	11751.7125
2944.44962	11709.8125
2946.91261	11663.9125
2949.37409	11657.3125
2951.83407	11637.5125
2954.29254	11616.9125
2956.74951	11597.5125
2959.20498	11594.7125
2961.65895	11569.4125
2964.11142	11549.1125
2966.56239	11526.2125
2969.01186	11543.0125
2971.45984	11513.3125
2973.90632	11479.8125
2976.35131	11439.8125
2978.7948	11438.8125
2981.23681	11413.2125
2983.67732	11371.5125
2986.11635	11322.3125
2988.55388	11279.2125
2990.98993	11258.7125
2993.4245	11216.3125
2995.85758	11178.8125
2998.28917	11159.9125
3000.71928	11130.6125
3003.14791	11113.9125
3005.57506	11055.3125
3008.00073	11027.1125
3010.42493	11023.4125
3012.84764	10989.4125
3015.26888	10971.8125
3017.68865	10930.1125
3020.10694	10893.1125
3022.52376	10892.0125
