Data from AgNPs_FTO_APTES_UA_5uM_CRN_2uM_R6G_10uM_NaF_0.1M_Addition_RamanShift__19__11-19-06-636.txt Node

Date: Mon Feb 07 11:19:06 GMT 2022
User: TCL
Spectrometer: QEP01345
Trigger mode: 4
Integration Time (sec): 7.000000E0
Scans to average: 10
Electric dark correction enabled: true
Nonlinearity correction enabled: false
Boxcar width: 0
XAxis mode: Raman Shifts
Number of Pixels in Spectrum: 1044
>>>>>Begin Spectral Data<<<<<
46.04893	-1.7375
50.45542	-1.3375
54.85868	-1.2375
59.25871	1.4625
63.6555	95.3625
68.04907	98.6625
72.43941	105.3625
76.82654	108.1625
81.21044	110.1625
85.59113	117.1625
89.96862	122.5625
94.34289	125.9625
98.71396	133.5625
103.08183	130.1625
107.4465	138.7625
111.80798	137.4625
116.16626	144.1625
120.52136	151.5625
124.87327	156.4625
129.222	166.3625
133.56755	177.4625
137.90993	194.9625
142.24913	217.1625
146.58517	239.0625
150.91804	284.6625
155.24774	345.5625
159.57429	426.9625
163.89768	554.6625
168.21792	732.1625
172.53501	1002.7625
176.84895	1405.5625
181.15975	1974.4625
185.46741	2756.4625
189.77193	3805.9625
194.07331	5065.1625
198.37157	6519.0625
202.6667	8023.5625
206.9587	9531.2625
211.24758	11037.1625
215.53334	12564.4625
219.81599	14188.2625
224.09553	16002.7625
228.37195	18056.7625
232.64527	20219.0625
236.91549	22552.2625
241.18261	24736.9625
245.44663	26784.2625
249.70755	28587.4625
253.96539	30114.1625
258.22014	31438.5625
262.4718	32574.6625
266.72039	33409.9625
270.96589	33845.7625
275.20832	34027.8625
279.44768	33900.8625
283.68397	33715.8625
287.91719	33619.6625
292.14735	33631.7625
296.37445	33737.1625
300.59849	33900.7625
304.81948	34154.7625
309.03742	34056.8625
313.25231	33694.4625
317.46415	32722.9625
321.67296	31431.9625
325.87872	30290.9625
330.08145	29645.6625
334.28114	29466.9625
338.47781	29683.0625
342.67145	29956.0625
346.86207	30502.0625
351.04966	31215.5625
355.23424	31957.7625
359.4158	32541.0625
363.59435	32922.9625
367.76989	33165.3625
371.94243	33335.4625
376.11196	33400.7625
380.27849	33505.4625
384.44203	33609.5625
388.60257	33887.3625
392.76012	34261.3625
396.91468	34695.0625
401.06626	35352.4625
405.21485	35806.1625
409.36047	35563.0625
413.50311	34945.4625
417.64277	34467.0625
421.77947	34457.7625
425.9132	34605.3625
430.04396	34861.3625
434.17176	35047.4625
438.2966	35191.4625
442.41849	35725.2625
446.53742	36677.2625
450.6534	37903.0625
454.76644	38845.8625
458.87653	39151.4625
462.98368	38987.6625
467.08789	38498.3625
471.18916	37782.6625
475.2875	37271.2625
479.38291	37098.0625
483.4754	36979.4625
487.56496	36599.2625
491.6516	35977.1625
495.73531	35333.2625
499.81612	34948.0625
503.89401	35115.7625
507.96899	35228.3625
512.04106	35067.3625
516.11023	34577.3625
520.1765	34031.1625
524.23987	33439.1625
528.30034	32986.5625
532.35792	32474.4625
536.41261	31915.1625
540.46441	31439.4625
544.51333	31426.1625
548.55936	32056.8625
552.60252	33115.8625
556.64279	34262.3625
560.6802	35043.9625
564.71473	35565.1625
568.7464	36424.5625
572.7752	37771.7625
576.80114	38968.2625
580.82422	40051.9625
584.84444	41033.4625
588.86181	41797.4625
592.87633	42364.5625
596.888	42472.3625
600.89682	42058.2625
604.9028	43058.1625
608.90594	47021.8625
612.90624	50981.6625
616.90371	47152.3625
620.89834	37896.4625
624.89015	33948.1625
628.87913	33655.9625
632.86528	33802.0625
636.84862	33496.1625
640.82913	32648.8625
644.80683	31436.3625
648.78172	30436.7625
652.75379	30188.2625
656.72306	30669.9625
660.68952	31288.1625
664.65319	31123.7625
668.61405	30457.1625
672.57211	30148.3625
676.52738	30221.7625
680.47986	30157.4625
684.42955	29817.8625
688.37646	29668.5625
692.32058	29898.2625
696.26192	30399.5625
700.20048	30926.7625
704.13626	31278.5625
708.06928	31282.9625
711.99952	30965.8625
715.927	30815.4625
719.85171	30954.3625
723.77365	30821.4625
727.69284	30295.4625
731.60928	29771.8625
735.52295	29587.2625
739.43388	29665.6625
743.34206	29752.2625
747.24749	30018.8625
751.15017	30419.7625
755.05012	31244.4625
758.94733	32580.4625
762.8418	34843.2625
766.73354	38372.9625
770.62254	41681.8625
774.50882	42098.4625
778.39237	39455.4625
782.27321	35715.2625
786.15132	32733.1625
790.02671	30968.8625
793.89938	30136.0625
797.76935	29853.5625
801.6366	29806.4625
805.50115	29743.6625
809.36299	29511.5625
813.22213	29093.5625
817.07857	28892.4625
820.93231	28729.1625
824.78336	28567.3625
828.63172	28354.3625
832.47738	28331.9625
836.32036	28316.7625
840.16066	28507.9625
843.99827	28683.8625
847.8332	28600.8625
851.66546	28377.7625
855.49504	28278.0625
859.32195	28255.3625
863.1462	28123.5625
866.96777	27925.2625
870.78668	27839.0625
874.60293	27798.6625
878.41652	27758.0625
882.22745	27882.5625
886.03573	28005.7625
889.84136	28013.7625
893.64433	27874.8625
897.44466	27765.4625
901.24235	27642.7625
905.0374	27450.9625
908.8298	27379.0625
912.61957	27453.5625
916.40671	27819.7625
920.19121	28475.6625
923.97308	29075.8625
927.75233	29265.1625
931.52895	29050.6625
935.30295	28421.9625
939.07433	27604.0625
942.84309	26936.0625
946.60924	26665.9625
950.37278	26610.9625
954.13371	26534.9625
957.89203	26408.4625
961.64774	26302.6625
965.40086	26310.3625
969.15137	26266.7625
972.89929	26064.0625
976.64461	25929.2625
980.38733	25961.8625
984.12747	26063.2625
987.86502	26355.0625
991.59999	26833.8625
995.33237	27583.0625
999.06217	28799.9625
1002.78939	30143.6625
1006.51404	31040.9625
1010.23611	31468.2625
1013.95561	31818.9625
1017.67255	31842.9625
1021.38692	31270.8625
1025.09872	30736.3625
1028.80796	30949.3625
1032.51465	32149.5625
1036.21877	33453.5625
1039.92035	33594.1625
1043.61937	32946.9625
1047.31584	31797.1625
1051.00976	30705.3625
1054.70114	30125.2625
1058.38998	30093.1625
1062.07627	30332.0625
1065.76003	30653.9625
1069.44126	30978.8625
1073.11995	31521.1625
1076.79611	32090.3625
1080.46974	32408.7625
1084.14085	32801.7625
1087.80943	33311.5625
1091.47549	33807.5625
1095.13903	33880.8625
1098.80005	33308.9625
1102.45857	32208.8625
1106.11456	31248.3625
1109.76805	30784.5625
1113.41903	30838.7625
1117.06751	31053.8625
1120.71348	31430.4625
1124.35696	31879.7625
1127.99793	32464.7625
1131.63641	32788.4625
1135.2724	32722.0625
1138.90589	32516.6625
1142.5369	32464.4625
1146.16542	32614.9625
1149.79145	32863.4625
1153.415	33333.4625
1157.03607	34149.0625
1160.65467	35496.2625
1164.27079	37619.4625
1167.88443	40491.0625
1171.49561	43958.4625
1175.10432	48295.8625
1178.71056	53725.6625
1182.31434	58754.6625
1185.91565	61638.4625
1189.51451	61543.1625
1193.11091	59292.2625
1196.70485	55966.9625
1200.29634	52662.4625
1203.88538	50320.7625
1207.47197	48881.4625
1211.05612	47802.4625
1214.63782	46784.4625
1218.21708	45757.4625
1221.79391	44948.2625
1225.36829	44444.1625
1228.94024	43733.4625
1232.50976	42626.5625
1236.07685	41591.0625
1239.6415	40970.0625
1243.20374	40660.1625
1246.76355	40859.8625
1250.32093	41676.6625
1253.8759	42967.0625
1257.42845	44711.0625
1260.97859	46437.0625
1264.52631	48301.5625
1268.07163	50209.1625
1271.61453	52259.8625
1275.15503	54583.3625
1278.69312	56888.8625
1282.22882	59073.9625
1285.76211	61111.8625
1289.29301	63312.7625
1292.82151	66175.7625
1296.34761	70018.2625
1299.87133	74975.6625
1303.39266	80622.8625
1306.9116	86705.1625
1310.42815	92096.6625
1313.94233	95284.8625
1317.45412	95221.2625
1320.96354	93341.3625
1324.47058	91262.9625
1327.97525	89599.4625
1331.47754	88501.2625
1334.97747	87628.8625
1338.47502	86718.5625
1341.97022	85565.6625
1345.46305	83577.1625
1348.95352	81397.9625
1352.44163	79631.0625
1355.92738	80071.0625
1359.41078	83154.5625
1362.89183	86399.8625
1366.37053	85047.9625
1369.84688	78068.5625
1373.32088	69324.5625
1376.79254	62935.4625
1380.26186	60448.6625
1383.72883	60355.6625
1387.19347	60449.4625
1390.65578	59981.5625
1394.11575	59954.8625
1397.57339	61089.4625
1401.0287	62901.5625
1404.48168	64442.5625
1407.93234	64907.0625
1411.38068	63538.6625
1414.82669	60884.2625
1418.27039	57332.8625
1421.71177	53879.1625
1425.15083	51146.7625
1428.58758	49763.9625
1432.02203	50042.3625
1435.45416	51598.4625
1438.88399	53611.1625
1442.31151	55337.6625
1445.73673	56739.7625
1449.15965	57846.6625
1452.58027	58517.3625
1455.9986	58775.9625
1459.41463	59307.2625
1462.82837	60333.7625
1466.23982	61641.5625
1469.64898	62892.5625
1473.05586	63408.1625
1476.46045	63186.6625
1479.86276	62441.9625
1483.26279	61386.6625
1486.66054	60707.7625
1490.05602	60590.9625
1493.44922	60777.7625
1496.84016	61184.4625
1500.22882	62238.3625
1503.61521	64063.9625
1506.99934	66589.2625
1510.38121	68730.8625
1513.76081	69551.5625
1517.13816	68282.9625
1520.51324	65772.5625
1523.88607	63520.5625
1527.25665	62215.9625
1530.62498	61665.8625
1533.99105	61421.6625
1537.35488	61005.3625
1540.71647	59944.2625
1544.07581	58463.8625
1547.4329	56773.1625
1550.78776	55248.1625
1554.14038	54029.9625
1557.49077	53442.2625
1560.83892	52980.1625
1564.18484	52916.7625
1567.52853	52856.5625
1570.86999	53219.0625
1574.20922	54111.7625
1577.54624	55099.5625
1580.88103	55517.1625
1584.2136	56235.7625
1587.54395	58614.1625
1590.87208	62523.5625
1594.19801	67609.2625
1597.52172	72411.8625
1600.84321	73541.4625
1604.16251	69362.6625
1607.47959	62347.2625
1610.79447	55207.3625
1614.10715	48938.1625
1617.41763	43964.2625
1620.7259	40681.1625
1624.03199	39033.8625
1627.33587	38994.6625
1630.63757	40674.1625
1633.93707	44485.6625
1637.23439	50496.4625
1640.52951	58797.8625
1643.82246	68056.2625
1647.11321	74848.8625
1650.40179	75673.1625
1653.68819	69041.7625
1656.97241	58331.0625
1660.25446	47788.9625
1663.53433	39872.9625
1666.81203	34675.8625
1670.08756	31527.7625
1673.36092	29499.3625
1676.63211	28195.7625
1679.90115	27333.2625
1683.16801	26711.6625
1686.43272	26171.6625
1689.69527	25793.9625
1692.95567	25528.2625
1696.2139	25314.6625
1699.46999	25147.1625
1702.72392	25020.6625
1705.97571	24892.4625
1709.22535	24800.5625
1712.47284	24695.9625
1715.71819	24661.9625
1718.96139	24537.6625
1722.20246	24439.0625
1725.44139	24332.9625
1728.67818	24129.5625
1731.91284	23934.5625
1735.14537	23725.1625
1738.37576	23594.4625
1741.60403	23472.6625
1744.83017	23355.0625
1748.05418	23239.8625
1751.27607	23207.5625
1754.49584	23124.1625
1757.71349	23101.1625
1760.92903	23053.6625
1764.14244	23018.0625
1767.35375	23002.2625
1770.56294	22915.8625
1773.77002	22888.5625
1776.97499	22795.0625
1780.17785	22720.5625
1783.37861	22689.3625
1786.57727	22658.6625
1789.77382	22589.8625
1792.96828	22574.1625
1796.16064	22521.4625
1799.3509	22477.4625
1802.53907	22408.1625
1805.72514	22336.6625
1808.90913	22269.9625
1812.09102	22218.8625
1815.27083	22183.7625
1818.44856	22144.8625
1821.6242	22090.8625
1824.79776	22067.3625
1827.96924	22084.5625
1831.13864	22090.1625
1834.30597	22112.4625
1837.47122	22089.0625
1840.6344	22077.1625
1843.7955	22179.0625
1846.95454	22202.6625
1850.11151	22207.7625
1853.26642	22164.9625
1856.41926	22213.2625
1859.57004	22191.9625
1862.71876	22152.4625
1865.86542	22140.3625
1869.01003	22099.6625
1872.15258	22121.5625
1875.29308	22059.4625
1878.43152	22072.3625
1881.56792	22123.6625
1884.70227	22103.6625
1887.83457	22138.6625
1890.96482	22096.5625
1894.09304	22069.3625
1897.21921	22083.5625
1900.34335	22036.6625
1903.46544	22017.8625
1906.58551	22029.2625
1909.70353	21979.1625
1912.81953	21932.1625
1915.93349	21848.5625
1919.04543	21795.5625
1922.15534	21727.6625
1925.26322	21595.8625
1928.36908	21539.9625
1931.47292	21443.6625
1934.57473	21362.0625
1937.67453	21275.2625
1940.77232	21157.4625
1943.86808	21101.7625
1946.96184	20981.2625
1950.05358	20904.4625
1953.14331	20846.3625
1956.23103	20780.8625
1959.31675	20679.7625
1962.40046	20628.4625
1965.48217	20549.6625
1968.56188	20530.4625
1971.63959	20434.6625
1974.7153	20321.2625
1977.78901	20288.8625
1980.86073	20173.1625
1983.93046	20133.1625
1986.99819	20102.4625
1990.06394	20030.5625
1993.1277	19967.5625
1996.18947	19893.8625
1999.24925	19833.5625
2002.30706	19774.4625
2005.36288	19710.0625
2008.41672	19656.0625
2011.46859	19580.9625
2014.51848	19516.0625
2017.56639	19526.0625
2020.61233	19490.3625
2023.6563	19398.5625
2026.6983	19407.3625
2029.73833	19376.9625
2032.7764	19341.2625
2035.8125	19296.8625
2038.84664	19291.0625
2041.87881	19257.7625
2044.90903	19210.6625
2047.93729	19225.2625
2050.96359	19165.6625
2053.98794	19162.5625
2057.01034	19155.1625
2060.03078	19135.8625
2063.04927	19134.2625
2066.06582	19108.3625
2069.08042	19108.9625
2072.09307	19065.2625
2075.10378	19021.2625
2078.11255	18975.4625
2081.11938	18993.0625
2084.12426	18950.7625
2087.12722	18934.4625
2090.12824	18935.2625
2093.12732	18898.6625
2096.12447	18952.3625
2099.11969	18937.9625
2102.11299	18952.2625
2105.10435	18952.6625
2108.09379	18936.2625
2111.08131	18931.7625
2114.0669	18947.6625
2117.05057	18957.5625
2120.03233	18957.8625
2123.01216	18958.3625
2125.99008	18967.5625
2128.96609	18992.6625
2131.94018	19008.6625
2134.91236	19035.1625
2137.88263	19044.4625
2140.851	19027.4625
2143.81746	19020.7625
2146.78201	19017.1625
2149.74466	19061.8625
2152.7054	19003.2625
2155.66425	18993.2625
2158.6212	18966.1625
2161.57625	18961.0625
2164.52941	18959.4625
2167.48067	18927.9625
2170.43004	18976.1625
2173.37752	18953.3625
2176.32311	18955.7625
2179.26681	18919.8625
2182.20863	18936.2625
2185.14856	18947.6625
2188.08661	18980.9625
2191.02278	18985.4625
2193.95707	18968.8625
2196.88948	18958.3625
2199.82001	18952.6625
2202.74867	18923.7625
2205.67545	18918.9625
2208.60037	18917.2625
2211.52341	18890.2625
2214.44458	18895.3625
2217.36388	18878.4625
2220.28132	18829.1625
2223.1969	18798.2625
2226.11061	18776.3625
2229.02246	18745.6625
2231.93245	18708.7625
2234.84058	18665.6625
2237.74686	18614.8625
2240.65128	18617.6625
2243.55385	18573.5625
2246.45456	18508.6625
2249.35343	18484.4625
2252.25044	18467.7625
2255.14561	18409.6625
2258.03893	18400.6625
2260.93041	18368.7625
2263.82004	18321.2625
2266.70783	18286.4625
2269.59378	18183.7625
2272.4779	18132.9625
2275.36017	18079.5625
2278.24061	18062.6625
2281.11922	18022.7625
2283.996	18019.9625
2286.87094	18024.0625
2289.74405	17997.9625
2292.61534	17997.5625
2295.4848	18024.8625
2298.35243	17991.1625
2301.21824	18004.5625
2304.08223	18010.2625
2306.94439	18039.5625
2309.80474	18091.2625
2312.66327	18125.0625
2315.51999	18100.4625
2318.37489	18072.2625
2321.22797	18067.7625
2324.07925	18048.4625
2326.92871	18034.5625
2329.77637	18018.4625
2332.62222	18036.8625
2335.46626	18014.6625
2338.3085	18026.3625
2341.14893	18087.6625
2343.98756	18137.6625
2346.8244	18163.8625
2349.65943	18150.2625
2352.49267	18166.2625
2355.32411	18163.6625
2358.15376	18156.8625
2360.98161	18109.5625
2363.80768	18087.2625
2366.63195	18101.7625
2369.45444	18053.3625
2372.27514	18041.1625
2375.09405	17995.6625
2377.91118	17916.8625
2380.72652	17824.7625
2383.54009	17770.4625
2386.35187	17787.4625
2389.16188	17757.8625
2391.97011	17691.4625
2394.77657	17679.4625
2397.58125	17663.7625
2400.38416	17657.1625
2403.18529	17584.8625
2405.98466	17598.9625
2408.78226	17520.3625
2411.57809	17467.8625
2414.37216	17480.6625
2417.16446	17479.3625
2419.955	17467.0625
2422.74378	17424.5625
2425.5308	17375.2625
2428.31606	17362.9625
2431.09956	17386.6625
2433.88131	17404.9625
2436.6613	17392.7625
2439.43954	17448.3625
2442.21603	17431.2625
2444.99077	17369.6625
2447.76377	17430.1625
2450.53501	17396.8625
2453.30451	17394.6625
2456.07226	17378.4625
2458.83827	17377.8625
2461.60254	17441.7625
2464.36507	17431.1625
2467.12586	17421.6625
2469.88492	17423.7625
2472.64224	17441.7625
2475.39782	17494.4625
2478.15167	17548.1625
2480.90379	17503.5625
2483.65417	17554.3625
2486.40283	17573.7625
2489.14976	17637.9625
2491.89497	17615.5625
2494.63845	17630.3625
2497.3802	17640.5625
2500.12024	17649.2625
2502.85855	17629.5625
2505.59514	17623.3625
2508.33002	17588.4625
2511.06318	17577.6625
2513.79462	17541.3625
2516.52435	17519.9625
2519.25237	17496.6625
2521.97867	17531.7625
2524.70327	17490.2625
2527.42616	17525.0625
2530.14734	17511.1625
2532.86681	17526.2625
2535.58458	17534.3625
2538.30065	17518.3625
2541.01501	17531.6625
2543.72768	17510.0625
2546.43864	17512.5625
2549.14791	17469.6625
2551.85548	17477.5625
2554.56136	17452.4625
2557.26554	17434.7625
2559.96803	17424.8625
2562.66883	17448.7625
2565.36794	17417.5625
2568.06536	17404.3625
2570.7611	17419.3625
2573.45514	17415.3625
2576.14751	17394.8625
2578.83819	17402.7625
2581.52719	17429.8625
2584.21451	17459.1625
2586.90015	17452.7625
2589.58411	17445.1625
2592.2664	17462.3625
2594.94701	17396.6625
2597.62594	17446.8625
2600.30321	17433.3625
2602.9788	17444.1625
2605.65273	17455.0625
2608.32498	17497.7625
2610.99557	17503.7625
2613.66449	17532.7625
2616.33175	17531.8625
2618.99734	17537.0625
2621.66128	17545.8625
2624.32355	17502.5625
2626.98416	17547.3625
2629.64311	17566.1625
2632.30041	17592.0625
2634.95605	17589.0625
2637.61004	17536.9625
2640.26238	17556.3625
2642.91306	17503.7625
2645.56209	17486.9625
2648.20948	17477.9625
2650.85521	17502.1625
2653.4993	17501.9625
2656.14175	17492.3625
2658.78255	17500.4625
2661.42171	17530.1625
2664.05923	17576.5625
2666.6951	17562.9625
2669.32934	17604.6625
2671.96194	17611.1625
2674.59291	17630.9625
2677.22224	17625.0625
2679.84993	17623.9625
2682.476	17578.2625
2685.10043	17559.5625
2687.72324	17510.9625
2690.34441	17492.1625
2692.96396	17469.0625
2695.58188	17487.4625
2698.19818	17456.2625
2700.81285	17472.5625
2703.4259	17477.2625
2706.03733	17486.0625
2708.64714	17511.1625
2711.25533	17493.3625
2713.86191	17488.5625
2716.46687	17528.7625
2719.07021	17535.9625
2721.67194	17568.2625
2724.27206	17590.5625
2726.87057	17616.7625
2729.46747	17615.4625
2732.06276	17614.7625
2734.65644	17632.4625
2737.24852	17646.5625
2739.83899	17625.6625
2742.42786	17628.7625
2745.01513	17575.5625
2747.60079	17620.5625
2750.18486	17626.2625
2752.76733	17598.8625
2755.3482	17570.1625
2757.92747	17597.8625
2760.50515	17588.6625
2763.08123	17574.3625
2765.65573	17540.3625
2768.22863	17586.8625
2770.79994	17558.0625
2773.36967	17593.0625
2775.9378	17619.0625
2778.50435	17598.6625
2781.06932	17619.8625
2783.6327	17640.9625
2786.1945	17653.2625
2788.75471	17666.4625
2791.31335	17633.5625
2793.87041	17587.4625
2796.42589	17582.5625
2798.97979	17562.6625
2801.53212	17528.4625
2804.08288	17516.9625
2806.63206	17451.8625
2809.17967	17439.3625
2811.72571	17404.0625
2814.27018	17364.8625
2816.81308	17387.9625
2819.35442	17342.7625
2821.89419	17312.7625
2824.43239	17329.8625
2826.96904	17305.8625
2829.50412	17299.0625
2832.03763	17249.0625
2834.56959	17235.4625
2837.1	17209.7625
2839.62884	17251.5625
2842.15613	17232.0625
2844.68186	17300.0625
2847.20604	17283.0625
2849.72867	17267.4625
2852.24974	17279.5625
2854.76927	17287.6625
2857.28724	17300.7625
2859.80367	17275.1625
2862.31855	17241.4625
2864.83189	17190.0625
2867.34368	17204.0625
2869.85393	17176.4625
2872.36264	17153.7625
2874.8698	17186.1625
2877.37543	17167.5625
2879.87952	17163.1625
2882.38207	17168.8625
2884.88308	17202.7625
2887.38256	17201.1625
2889.88051	17200.3625
2892.37692	17234.8625
2894.8718	17203.8625
2897.36515	17260.5625
2899.85698	17259.9625
2902.34727	17335.8625
2904.83604	17333.0625
2907.32328	17402.5625
2909.809	17420.2625
2912.29319	17425.0625
2914.77587	17390.0625
2917.25702	17425.2625
2919.73665	17374.0625
2922.21476	17391.4625
2924.69136	17367.7625
2927.16644	17351.5625
2929.64	17327.1625
2932.11205	17275.5625
2934.58258	17211.5625
2937.05161	17210.7625
2939.51912	17217.8625
2941.98513	17230.0625
2944.44962	17134.1625
2946.91261	17100.1625
2949.37409	17102.7625
2951.83407	17067.9625
2954.29254	17058.3625
2956.74951	17021.4625
2959.20498	17030.4625
2961.65895	16986.1625
2964.11142	16977.6625
2966.56239	16913.4625
2969.01186	16887.7625
2971.45984	16874.1625
2973.90632	16882.5625
2976.35131	16786.5625
2978.7948	16722.5625
2981.23681	16681.5625
2983.67732	16688.0625
2986.11635	16633.6625
2988.55388	16577.4625
2990.98993	16552.6625
2993.4245	16483.0625
2995.85758	16449.3625
2998.28917	16398.9625
3000.71928	16377.3625
3003.14791	16354.9625
3005.57506	16329.5625
3008.00073	16263.8625
3010.42493	16282.4625
3012.84764	16233.3625
3015.26888	16234.4625
3017.68865	16159.7625
3020.10694	16135.3625
3022.52376	16084.1625
