Data from AgNPs_FTO_APTES_UA_5uM_CRN_100uM_R6G_10uM_NaF_0.1M_Addition_RamanShift__9__14-46-46-876.txt Node

Date: Mon Feb 07 14:46:46 GMT 2022
User: TCL
Spectrometer: QEP01345
Trigger mode: 4
Integration Time (sec): 7.000000E0
Scans to average: 10
Electric dark correction enabled: true
Nonlinearity correction enabled: false
Boxcar width: 0
XAxis mode: Raman Shifts
Number of Pixels in Spectrum: 1044
>>>>>Begin Spectral Data<<<<<
46.04893	-0.95
50.45542	0.35
54.85868	-1.15
59.25871	0.85
63.6555	64.45
68.04907	67.85
72.43941	69.45
76.82654	74.35
81.21044	73.25
85.59113	76.85
89.96862	84.65
94.34289	77.95
98.71396	84.95
103.08183	90.45
107.4465	90.15
111.80798	95.45
116.16626	98.45
120.52136	102.05
124.87327	108.45
129.222	114.45
133.56755	124.55
137.90993	133.85
142.24913	145.75
146.58517	168.75
150.91804	201.55
155.24774	238.25
159.57429	310.45
163.89768	395.65
168.21792	531.95
172.53501	720.35
176.84895	1010.35
181.15975	1415.85
185.46741	1998.85
189.77193	2760.15
194.07331	3692.75
198.37157	4764.85
202.6667	5875.95
206.9587	6994.15
211.24758	8089.05
215.53334	9150.75
219.81599	10284.65
224.09553	11552.15
228.37195	12908.15
232.64527	14394.85
236.91549	15923.05
241.18261	17513.35
245.44663	19016.65
249.70755	20404.05
253.96539	21584.55
258.22014	22639.95
262.4718	23483.95
266.72039	24113.65
270.96589	24447.45
275.20832	24589.35
279.44768	24538.35
283.68397	24466.05
287.91719	24403.75
292.14735	24363.55
296.37445	24469.55
300.59849	24557.65
304.81948	24630.15
309.03742	24486.85
313.25231	24154.05
317.46415	23656.75
321.67296	22976.05
325.87872	22417.45
330.08145	22130.85
334.28114	22078.35
338.47781	22132.25
342.67145	22317.85
346.86207	22530.65
351.04966	22845.45
355.23424	23086.25
359.4158	23348.75
363.59435	23608.45
367.76989	23784.25
371.94243	23880.05
376.11196	23930.05
380.27849	24003.55
384.44203	24031.95
388.60257	24147.65
392.76012	24493.05
396.91468	24867.35
401.06626	25308.65
405.21485	25524.25
409.36047	25484.95
413.50311	25224.35
417.64277	25113.35
421.77947	25196.05
425.9132	25375.25
430.04396	25534.05
434.17176	25625.95
438.2966	25779.25
442.41849	26087.75
446.53742	26690.05
450.6534	27370.35
454.76644	27899.85
458.87653	28138.25
462.98368	28209.15
467.08789	28077.95
471.18916	27875.85
475.2875	27777.85
479.38291	27872.15
483.4754	27869.05
487.56496	27525.05
491.6516	26838.55
495.73531	26140.25
499.81612	25701.85
503.89401	25660.95
507.96899	25764.65
512.04106	25806.45
516.11023	25602.05
520.1765	25200.05
524.23987	24769.05
528.30034	24366.75
532.35792	24149.65
536.41261	23908.25
540.46441	23809.55
544.51333	23873.15
548.55936	24251.65
552.60252	24893.55
556.64279	25491.15
560.6802	26083.05
564.71473	26596.35
568.7464	27375.65
572.7752	28542.15
576.80114	29883.15
580.82422	30895.65
584.84444	31755.55
588.86181	32595.45
592.87633	33230.95
596.888	32667.85
600.89682	31159.65
604.9028	30449.95
608.90594	30945.25
612.90624	31491.75
616.90371	29346.15
620.89834	25685.45
624.89015	24185.65
628.87913	24175.15
632.86528	24463.75
636.84862	24488.15
640.82913	24107.15
644.80683	23595.25
648.78172	23181.55
652.75379	23121.85
656.72306	23251.05
660.68952	23423.55
664.65319	23310.15
668.61405	23037.95
672.57211	23000.25
676.52738	23079.25
680.47986	23097.35
684.42955	22954.85
688.37646	22891.65
692.32058	22959.95
696.26192	23222.15
700.20048	23545.65
704.13626	23739.55
708.06928	23905.35
711.99952	23929.55
715.927	23865.95
719.85171	23845.15
723.77365	23645.05
727.69284	23247.75
731.60928	22966.15
735.52295	22766.15
739.43388	22717.35
743.34206	22734.05
747.24749	22863.75
751.15017	23204.25
755.05012	23718.95
758.94733	24493.85
762.8418	25628.35
766.73354	27208.75
770.62254	28494.35
774.50882	28307.45
778.39237	26873.75
782.27321	25169.35
786.15132	23903.45
790.02671	23163.65
793.89938	22686.85
797.76935	22513.35
801.6366	22432.75
805.50115	22401.25
809.36299	22253.75
813.22213	22211.95
817.07857	22202.15
820.93231	22133.95
824.78336	21936.65
828.63172	21728.15
832.47738	21593.65
836.32036	21530.05
840.16066	21486.25
843.99827	21525.85
847.8332	21478.75
851.66546	21501.95
855.49504	21537.45
859.32195	21530.65
863.1462	21456.75
866.96777	21406.85
870.78668	21350.35
874.60293	21326.45
878.41652	21304.85
882.22745	21336.65
886.03573	21405.75
889.84136	21383.95
893.64433	21354.35
897.44466	21260.65
901.24235	21262.95
905.0374	21195.75
908.8298	21189.45
912.61957	21309.05
916.40671	21641.45
920.19121	22122.45
923.97308	22312.65
927.75233	22093.25
931.52895	21662.25
935.30295	21213.15
939.07433	20775.15
942.84309	20509.55
946.60924	20327.45
950.37278	20221.75
954.13371	20247.45
957.89203	20291.95
961.64774	20333.35
965.40086	20322.95
969.15137	20226.75
972.89929	20012.55
976.64461	19874.05
980.38733	19760.15
984.12747	19743.55
987.86502	19789.45
991.59999	19867.45
995.33237	19986.45
999.06217	20173.75
1002.78939	20403.65
1006.51404	20745.95
1010.23611	21073.95
1013.95561	21331.45
1017.67255	21391.75
1021.38692	21236.85
1025.09872	20967.15
1028.80796	20710.95
1032.51465	20625.75
1036.21877	20660.95
1039.92035	20754.35
1043.61937	20916.55
1047.31584	21017.45
1051.00976	21114.15
1054.70114	21255.05
1058.38998	21534.55
1062.07627	21907.25
1065.76003	22310.65
1069.44126	22612.25
1073.11995	22936.25
1076.79611	23172.05
1080.46974	23246.25
1084.14085	23296.65
1087.80943	23444.05
1091.47549	23767.65
1095.13903	23916.95
1098.80005	23715.55
1102.45857	23080.85
1106.11456	22437.65
1109.76805	22092.35
1113.41903	22025.45
1117.06751	22122.55
1120.71348	22382.25
1124.35696	22607.75
1127.99793	22863.95
1131.63641	23134.75
1135.2724	23173.05
1138.90589	23170.25
1142.5369	23395.65
1146.16542	23701.65
1149.79145	24158.55
1153.415	24634.25
1157.03607	25155.35
1160.65467	26150.55
1164.27079	27584.25
1167.88443	29272.15
1171.49561	30877.85
1175.10432	32532.35
1178.71056	34570.15
1182.31434	36449.65
1185.91565	37408.55
1189.51451	37482.95
1193.11091	37003.05
1196.70485	36082.85
1200.29634	34878.25
1203.88538	34182.15
1207.47197	34163.05
1211.05612	34203.25
1214.63782	33678.75
1218.21708	32351.15
1221.79391	30739.45
1225.36829	29433.95
1228.94024	28659.85
1232.50976	28161.95
1236.07685	27887.65
1239.6415	27787.45
1243.20374	27868.05
1246.76355	28059.45
1250.32093	28527.95
1253.8759	29130.85
1257.42845	29932.35
1260.97859	30795.55
1264.52631	31658.85
1268.07163	32506.55
1271.61453	33369.95
1275.15503	34466.95
1278.69312	35733.55
1282.22882	37158.25
1285.76211	38848.45
1289.29301	40891.85
1292.82151	43442.75
1296.34761	46468.15
1299.87133	49594.45
1303.39266	52268.85
1306.9116	54005.45
1310.42815	54908.35
1313.94233	54992.55
1317.45412	54643.35
1320.96354	54462.35
1324.47058	54651.45
1327.97525	55018.05
1331.47754	55302.55
1334.97747	55172.55
1338.47502	54672.75
1341.97022	53958.95
1345.46305	53062.55
1348.95352	51848.85
1352.44163	50768.85
1355.92738	50327.85
1359.41078	50525.15
1362.89183	50799.85
1366.37053	49827.35
1369.84688	46791.35
1373.32088	42751.55
1376.79254	39942.75
1380.26186	39274.35
1383.72883	39869.15
1387.19347	40569.75
1390.65578	40677.75
1394.11575	40686.05
1397.57339	41044.05
1401.0287	41734.75
1404.48168	42085.95
1407.93234	41593.65
1411.38068	40051.75
1414.82669	37859.45
1418.27039	35582.85
1421.71177	33543.85
1425.15083	31976.15
1428.58758	31300.85
1432.02203	31582.35
1435.45416	32627.35
1438.88399	33877.95
1442.31151	34982.65
1445.73673	35731.25
1449.15965	36387.65
1452.58027	36984.15
1455.9986	37210.55
1459.41463	37509.35
1462.82837	37887.75
1466.23982	38313.15
1469.64898	38751.65
1473.05586	38897.65
1476.46045	38761.85
1479.86276	38319.65
1483.26279	37694.05
1486.66054	37343.55
1490.05602	37326.65
1493.44922	37530.85
1496.84016	37889.05
1500.22882	38493.55
1503.61521	39209.25
1506.99934	40122.95
1510.38121	40870.25
1513.76081	41269.35
1517.13816	41250.15
1520.51324	41176.95
1523.88607	41405.65
1527.25665	41958.95
1530.62498	42371.65
1533.99105	42206.05
1537.35488	41481.75
1540.71647	40226.45
1544.07581	38670.65
1547.4329	37108.95
1550.78776	35769.75
1554.14038	34870.95
1557.49077	34288.15
1560.83892	33968.45
1564.18484	33845.15
1567.52853	33876.45
1570.86999	34304.55
1574.20922	35289.75
1577.54624	36383.35
1580.88103	37293.35
1584.2136	38118.25
1587.54395	39464.75
1590.87208	41268.15
1594.19801	43123.65
1597.52172	44520.95
1600.84321	44243.15
1604.16251	41706.55
1607.47959	38171.15
1610.79447	34715.75
1614.10715	31662.55
1617.41763	29164.75
1620.7259	27406.95
1624.03199	26532.65
1627.33587	26502.55
1630.63757	27407.55
1633.93707	29440.85
1637.23439	32953.45
1640.52951	37959.55
1643.82246	43698.95
1647.11321	48151.85
1650.40179	48873.35
1653.68819	45151.75
1656.97241	38894.15
1660.25446	32624.55
1663.53433	27719.35
1666.81203	24386.35
1670.08756	22243.65
1673.36092	20915.05
1676.63211	20049.65
1679.90115	19450.85
1683.16801	18971.75
1686.43272	18680.65
1689.69527	18433.35
1692.95567	18256.85
1696.2139	18076.75
1699.46999	17956.35
1702.72392	17851.55
1705.97571	17735.45
1709.22535	17675.55
1712.47284	17590.25
1715.71819	17528.45
1718.96139	17439.25
1722.20246	17382.55
1725.44139	17282.35
1728.67818	17139.95
1731.91284	17006.75
1735.14537	16920.25
1738.37576	16813.85
1741.60403	16720.45
1744.83017	16650.85
1748.05418	16587.25
1751.27607	16542.65
1754.49584	16519.75
1757.71349	16527.05
1760.92903	16472.95
1764.14244	16463.05
1767.35375	16433.45
1770.56294	16383.75
1773.77002	16330.35
1776.97499	16251.45
1780.17785	16209.55
1783.37861	16186.45
1786.57727	16161.75
1789.77382	16070.95
1792.96828	16070.85
1796.16064	16002.65
1799.3509	15934.05
1802.53907	15895.75
1805.72514	15826.15
1808.90913	15807.05
1812.09102	15760.05
1815.27083	15695.45
1818.44856	15665.15
1821.6242	15616.25
1824.79776	15593.55
1827.96924	15538.05
1831.13864	15561.65
1834.30597	15595.55
1837.47122	15547.55
1840.6344	15517.55
1843.7955	15493.85
1846.95454	15517.95
1850.11151	15461.05
1853.26642	15493.05
1856.41926	15450.05
1859.57004	15474.15
1862.71876	15421.25
1865.86542	15385.65
1869.01003	15353.15
1872.15258	15285.95
1875.29308	15256.15
1878.43152	15244.45
1881.56792	15234.55
1884.70227	15189.05
1887.83457	15146.55
1890.96482	15144.45
1894.09304	15098.75
1897.21921	15094.25
1900.34335	15053.65
1903.46544	15036.15
1906.58551	15029.25
1909.70353	14998.35
1912.81953	14944.25
1915.93349	14913.65
1919.04543	14874.85
1922.15534	14855.65
1925.26322	14770.95
1928.36908	14731.65
1931.47292	14700.15
1934.57473	14646.35
1937.67453	14597.05
1940.77232	14583.15
1943.86808	14550.35
1946.96184	14453.15
1950.05358	14429.35
1953.14331	14422.95
1956.23103	14391.85
1959.31675	14282.35
1962.40046	14248.75
1965.48217	14188.45
1968.56188	14153.25
1971.63959	14093.65
1974.7153	14027.15
1977.78901	13988.65
1980.86073	13936.25
1983.93046	13867.55
1986.99819	13832.25
1990.06394	13801.55
1993.1277	13751.85
1996.18947	13707.55
1999.24925	13658.45
2002.30706	13610.35
2005.36288	13559.25
2008.41672	13537.25
2011.46859	13460.85
2014.51848	13414.05
2017.56639	13391.35
2020.61233	13330.85
2023.6563	13309.65
2026.6983	13261.55
2029.73833	13224.85
2032.7764	13179.85
2035.8125	13186.05
2038.84664	13134.75
2041.87881	13100.65
2044.90903	13065.95
2047.93729	13043.25
2050.96359	13018.55
2053.98794	13004.85
2057.01034	13018.35
2060.03078	13003.25
2063.04927	12992.55
2066.06582	12971.25
2069.08042	12940.15
2072.09307	12929.85
2075.10378	12887.95
2078.11255	12867.45
2081.11938	12886.55
2084.12426	12859.35
2087.12722	12860.35
2090.12824	12846.05
2093.12732	12816.75
2096.12447	12820.65
2099.11969	12801.35
2102.11299	12833.45
2105.10435	12794.55
2108.09379	12767.45
2111.08131	12797.45
2114.0669	12805.05
2117.05057	12854.25
2120.03233	12831.45
2123.01216	12831.85
2125.99008	12843.65
2128.96609	12831.55
2131.94018	12820.05
2134.91236	12829.75
2137.88263	12796.55
2140.851	12799.65
2143.81746	12829.35
2146.78201	12798.35
2149.74466	12790.65
2152.7054	12765.85
2155.66425	12742.15
2158.6212	12717.95
2161.57625	12747.05
2164.52941	12708.45
2167.48067	12716.85
2170.43004	12717.15
2173.37752	12675.85
2176.32311	12664.95
2179.26681	12678.85
2182.20863	12641.15
2185.14856	12672.65
2188.08661	12658.75
2191.02278	12645.35
2193.95707	12662.95
2196.88948	12592.45
2199.82001	12604.55
2202.74867	12557.85
2205.67545	12537.45
2208.60037	12517.65
2211.52341	12498.05
2214.44458	12481.15
2217.36388	12463.95
2220.28132	12430.35
2223.1969	12415.75
2226.11061	12397.65
2229.02246	12361.65
2231.93245	12348.55
2234.84058	12286.55
2237.74686	12270.65
2240.65128	12242.05
2243.55385	12232.05
2246.45456	12210.15
2249.35343	12159.85
2252.25044	12141.85
2255.14561	12119.85
2258.03893	12100.15
2260.93041	12037.35
2263.82004	12015.75
2266.70783	11981.75
2269.59378	11925.85
2272.4779	11866.85
2275.36017	11843.25
2278.24061	11823.15
2281.11922	11812.95
2283.996	11778.35
2286.87094	11766.35
2289.74405	11735.15
2292.61534	11696.25
2295.4848	11709.45
2298.35243	11655.75
2301.21824	11668.35
2304.08223	11635.25
2306.94439	11659.75
2309.80474	11647.05
2312.66327	11660.65
2315.51999	11614.85
2318.37489	11606.45
2321.22797	11566.25
2324.07925	11560.25
2326.92871	11541.65
2329.77637	11498.85
2332.62222	11498.95
2335.46626	11459.45
2338.3085	11482.25
2341.14893	11465.15
2343.98756	11473.95
2346.8244	11457.05
2349.65943	11454.35
2352.49267	11439.65
2355.32411	11466.75
2358.15376	11414.45
2360.98161	11413.35
2363.80768	11410.35
2366.63195	11420.05
2369.45444	11414.85
2372.27514	11389.35
2375.09405	11347.25
2377.91118	11325.05
2380.72652	11276.45
2383.54009	11260.85
2386.35187	11280.75
2389.16188	11212.75
2391.97011	11194.05
2394.77657	11162.65
2397.58125	11141.95
2400.38416	11129.65
2403.18529	11090.25
2405.98466	11049.35
2408.78226	11052.75
2411.57809	11055.15
2414.37216	11041.25
2417.16446	11059.25
2419.955	11046.65
2422.74378	11019.15
2425.5308	10989.65
2428.31606	10992.35
2431.09956	10986.35
2433.88131	10964.75
2436.6613	10965.25
2439.43954	10974.75
2442.21603	10983.75
2444.99077	10940.15
2447.76377	10935.65
2450.53501	10908.15
2453.30451	10896.45
2456.07226	10897.55
2458.83827	10889.95
2461.60254	10872.55
2464.36507	10873.45
2467.12586	10863.05
2469.88492	10862.65
2472.64224	10879.45
2475.39782	10850.15
2478.15167	10875.65
2480.90379	10849.95
2483.65417	10824.55
2486.40283	10844.45
2489.14976	10860.75
2491.89497	10834.15
2494.63845	10878.15
2497.3802	10864.75
2500.12024	10843.35
2502.85855	10853.25
2505.59514	10815.85
2508.33002	10812.45
2511.06318	10803.25
2513.79462	10798.75
2516.52435	10787.15
2519.25237	10788.35
2521.97867	10767.45
2524.70327	10739.55
2527.42616	10754.55
2530.14734	10751.35
2532.86681	10726.15
2535.58458	10712.75
2538.30065	10682.55
2541.01501	10696.25
2543.72768	10676.55
2546.43864	10662.25
2549.14791	10652.95
2551.85548	10628.65
2554.56136	10623.75
2557.26554	10601.25
2559.96803	10582.15
2562.66883	10576.85
2565.36794	10557.95
2568.06536	10561.85
2570.7611	10542.75
2573.45514	10533.65
2576.14751	10532.85
2578.83819	10494.95
2581.52719	10497.85
2584.21451	10504.25
2586.90015	10477.35
2589.58411	10459.85
2592.2664	10468.75
2594.94701	10453.95
2597.62594	10452.65
2600.30321	10450.05
2602.9788	10455.05
2605.65273	10420.75
2608.32498	10450.25
2610.99557	10425.75
2613.66449	10431.35
2616.33175	10434.85
2618.99734	10417.55
2621.66128	10402.05
2624.32355	10402.15
2626.98416	10377.75
2629.64311	10367.05
2632.30041	10368.35
2634.95605	10358.75
2637.61004	10360.35
2640.26238	10330.95
2642.91306	10348.55
2645.56209	10339.45
2648.20948	10342.75
2650.85521	10336.35
2653.4993	10361.65
2656.14175	10352.05
2658.78255	10361.95
2661.42171	10373.05
2664.05923	10353.35
2666.6951	10367.55
2669.32934	10384.85
2671.96194	10380.95
2674.59291	10377.15
2677.22224	10366.25
2679.84993	10362.35
2682.476	10347.75
2685.10043	10352.85
2687.72324	10335.35
2690.34441	10322.75
2692.96396	10305.05
2695.58188	10342.85
2698.19818	10343.35
2700.81285	10339.55
2703.4259	10378.75
2706.03733	10415.65
2708.64714	10383.05
2711.25533	10389.35
2713.86191	10341.85
2716.46687	10403.75
2719.07021	10366.95
2721.67194	10400.75
2724.27206	10365.85
2726.87057	10397.85
2729.46747	10390.75
2732.06276	10399.25
2734.65644	10420.65
2737.24852	10401.65
2739.83899	10389.95
2742.42786	10392.15
2745.01513	10354.05
2747.60079	10372.05
2750.18486	10362.25
2752.76733	10354.35
2755.3482	10320.15
2757.92747	10357.85
2760.50515	10338.75
2763.08123	10341.95
2765.65573	10333.45
2768.22863	10336.75
2770.79994	10306.25
2773.36967	10310.55
2775.9378	10300.45
2778.50435	10304.05
2781.06932	10282.85
2783.6327	10320.15
2786.1945	10316.65
2788.75471	10320.65
2791.31335	10293.95
2793.87041	10251.85
2796.42589	10237.05
2798.97979	10230.65
2801.53212	10223.25
2804.08288	10233.45
2806.63206	10165.95
2809.17967	10158.25
2811.72571	10130.15
2814.27018	10104.95
2816.81308	10101.45
2819.35442	10075.35
2821.89419	10058.65
2824.43239	10036.55
2826.96904	10060.65
2829.50412	10017.25
2832.03763	10001.45
2834.56959	10014.25
2837.1	10012.25
2839.62884	10008.05
2842.15613	10021.25
2844.68186	10068.35
2847.20604	10067.75
2849.72867	10074.85
2852.24974	10101.95
2854.76927	10093.55
2857.28724	10072.75
2859.80367	10067.95
2862.31855	10012.45
2864.83189	9990.75
2867.34368	9976.55
2869.85393	9980.55
2872.36264	9962.45
2874.8698	9937.45
2877.37543	9913.75
2879.87952	9901.55
2882.38207	9912.15
2884.88308	9928.35
2887.38256	9934.45
2889.88051	9918.55
2892.37692	9911.75
2894.8718	9928.15
2897.36515	9930.75
2899.85698	9911.55
2902.34727	9938.05
2904.83604	9934.15
2907.32328	9977.35
2909.809	9956.15
2912.29319	9936.05
2914.77587	9961.55
2917.25702	9953.35
2919.73665	9941.45
2922.21476	9959.75
2924.69136	9945.35
2927.16644	9925.05
2929.64	9931.95
2932.11205	9905.95
2934.58258	9862.65
2937.05161	9906.05
2939.51912	9901.55
2941.98513	9879.35
2944.44962	9853.65
2946.91261	9792.25
2949.37409	9776.95
2951.83407	9764.05
2954.29254	9761.75
2956.74951	9747.45
2959.20498	9715.45
2961.65895	9705.15
2964.11142	9725.55
2966.56239	9693.05
2969.01186	9700.55
2971.45984	9625.55
2973.90632	9647.75
2976.35131	9612.15
2978.7948	9591.55
2981.23681	9561.75
2983.67732	9536.65
2986.11635	9487.75
2988.55388	9476.25
2990.98993	9447.75
2993.4245	9415.05
2995.85758	9382.45
2998.28917	9326.75
3000.71928	9312.95
3003.14791	9262.65
3005.57506	9265.15
3008.00073	9235.05
3010.42493	9143.45
3012.84764	9201.75
3015.26888	9193.75
3017.68865	9160.55
3020.10694	9148.75
3022.52376	9137.25
3024.9391	9120.95
3027.35298	9097.15
3029.76539	9097.15
3032.17632	9068.15
3034.5858	9057.25
3036.9938	9059.85
3039.40034	9036.95
3041.80542	9046.85
3044.20903	9027.65
3046.61118	9028.65
3049.01187	8987.55
3051.4111	9015.85
3053.80888	8991.65
3056.20519	8944.15
3058.60005	8917.25
3060.99345	8882.55
3063.3854	8874.25
3065.7759	8818.45
3068.16494	8802.15
3070.55254	8753.65
3072.93868	8746.05
3075.32338	8698.35
3077.70662	8671.25
3080.08842	8644.55
3082.46878	8642.75
3084.84769	8614.85
3087.22515	8607.35
3089.60118	8602.75
3091.97576	8597.95
3094.3489	8591.55
3096.72061	8581.95
3099.09087	8554.55
3101.4597	8554.45
3103.82709	8534.55
3106.19305	8537.45
3108.55757	8522.95
3110.92066	8507.05
3113.28232	8509.75
3115.64255	8471.85
3118.00134	8455.75
3120.35871	8443.05
3122.71466	8386.65
3125.06917	8388.85
3127.42226	8356.35
3129.77393	8376.95
3132.12417	8305.15
3134.47299	8340.65
3136.82039	8300.65
3139.16636	8311.65
3141.51092	8317.55
3143.85406	8300.45
3146.19579	8304.65
3148.53609	8286.55
3150.87499	8286.75
3153.21246	8304.85
3155.54853	8287.15
3157.88318	8287.75
3160.21642	8304.95
3162.54826	8288.25
3164.87868	8283.25
3167.2077	8275.75
3169.5353	8285.95
3171.86151	8276.85
3174.18631	8288.15
3176.5097	8283.55
3178.83169	8250.95
3181.15228	8262.05
3183.47147	8227.05
3185.78926	8214.75
3188.10565	8204.35
3190.42065	8200.25
3192.73424	8197.05
3195.04645	8165.45
3197.35725	8134.25
3199.66667	8120.95
3201.97469	8139.35
3204.28132	8113.75
3206.58656	8153.05
3208.8904	8133.85
3211.19287	8129.65
3213.49394	8128.15
3215.79363	8114.25
3218.09193	8114.45
3220.38884	8117.85
3222.68438	8127.55
3224.97853	8113.45
3227.2713	8095.85
3229.56269	8064.35
3231.8527	8065.25
3234.14133	8034.15
3236.42858	8023.75
3238.71446	8028.75
3240.99896	8006.85
3243.28209	8014.05
3245.56384	7974.75
3247.84423	7965.25
3250.12324	7947.35
3252.40088	7940.15
3254.67715	7909.45
3256.95205	7907.65
3259.22558	7907.95
