Data from AgNPs_FTO_APTES_UA_5uM_CRN_100uM_R6G_10uM_NaF_0.1M_Addition_RamanShift__1__14-37-26-865.txt Node

Date: Mon Feb 07 14:37:26 GMT 2022
User: TCL
Spectrometer: QEP01345
Trigger mode: 4
Integration Time (sec): 7.000000E0
Scans to average: 10
Electric dark correction enabled: true
Nonlinearity correction enabled: false
Boxcar width: 0
XAxis mode: Raman Shifts
Number of Pixels in Spectrum: 1044
>>>>>Begin Spectral Data<<<<<
46.04893	-0.775
50.45542	-1.075
54.85868	-0.375
59.25871	0.225
63.6555	65.725
68.04907	67.025
72.43941	72.725
76.82654	77.125
81.21044	77.225
85.59113	82.025
89.96862	84.825
94.34289	83.525
98.71396	86.925
103.08183	90.625
107.4465	93.925
111.80798	96.325
116.16626	101.625
120.52136	107.025
124.87327	112.225
129.222	118.125
133.56755	128.225
137.90993	139.425
142.24913	153.725
146.58517	174.625
150.91804	207.325
155.24774	250.725
159.57429	314.525
163.89768	415.725
168.21792	551.225
172.53501	754.725
176.84895	1065.325
181.15975	1498.325
185.46741	2097.825
189.77193	2881.425
194.07331	3870.025
198.37157	4978.425
202.6667	6138.925
206.9587	7322.725
211.24758	8458.825
215.53334	9563.025
219.81599	10802.525
224.09553	12113.025
228.37195	13554.525
232.64527	15103.325
236.91549	16733.125
241.18261	18385.225
245.44663	19940.425
249.70755	21350.725
253.96539	22593.825
258.22014	23671.225
262.4718	24526.225
266.72039	25159.025
270.96589	25476.225
275.20832	25589.525
279.44768	25526.925
283.68397	25412.825
287.91719	25303.925
292.14735	25273.325
296.37445	25359.525
300.59849	25488.625
304.81948	25551.725
309.03742	25512.125
313.25231	25213.825
317.46415	24634.225
321.67296	23969.825
325.87872	23413.925
330.08145	23052.125
334.28114	22954.925
338.47781	23011.925
342.67145	23248.625
346.86207	23479.125
351.04966	23860.025
355.23424	24248.125
359.4158	24549.925
363.59435	24817.725
367.76989	25009.325
371.94243	25139.225
376.11196	25194.925
380.27849	25223.825
384.44203	25295.325
388.60257	25454.425
392.76012	25768.325
396.91468	26207.925
401.06626	26614.125
405.21485	26909.525
409.36047	26827.125
413.50311	26508.625
417.64277	26339.125
421.77947	26411.325
425.9132	26530.825
430.04396	26691.325
434.17176	26827.425
438.2966	27006.525
442.41849	27404.525
446.53742	28025.425
450.6534	28814.925
454.76644	29384.025
458.87653	29558.525
462.98368	29485.825
467.08789	29255.625
471.18916	28992.825
475.2875	28823.525
479.38291	28817.025
483.4754	28761.825
487.56496	28475.025
491.6516	27831.425
495.73531	27107.125
499.81612	26679.425
503.89401	26639.925
507.96899	26749.625
512.04106	26759.025
516.11023	26484.025
520.1765	26095.825
524.23987	25652.425
528.30034	25263.025
532.35792	25037.625
536.41261	24771.425
540.46441	24546.325
544.51333	24608.925
548.55936	24969.825
552.60252	25627.125
556.64279	26344.925
560.6802	26949.525
564.71473	27422.125
568.7464	28204.725
572.7752	29396.525
576.80114	30701.325
580.82422	31836.225
584.84444	32923.325
588.86181	34180.425
592.87633	34998.925
596.888	34384.625
600.89682	32687.125
604.9028	31805.225
608.90594	32669.525
612.90624	33739.425
616.90371	31486.525
620.89834	27024.625
624.89015	25126.525
628.87913	25006.225
632.86528	25283.025
636.84862	25313.025
640.82913	24844.325
644.80683	24277.225
648.78172	23897.525
652.75379	23808.325
656.72306	23958.425
660.68952	24186.725
664.65319	24012.225
668.61405	23670.725
672.57211	23576.025
676.52738	23720.325
680.47986	23734.625
684.42955	23615.725
688.37646	23447.825
692.32058	23608.625
696.26192	23872.825
700.20048	24193.625
704.13626	24466.125
708.06928	24580.625
711.99952	24618.425
715.927	24577.225
719.85171	24570.125
723.77365	24355.725
727.69284	23992.625
731.60928	23639.525
735.52295	23449.825
739.43388	23382.025
743.34206	23456.025
747.24749	23606.825
751.15017	23995.125
755.05012	24491.825
758.94733	25301.025
762.8418	26592.225
766.73354	28323.225
770.62254	29842.125
774.50882	29831.625
778.39237	28310.925
782.27321	26335.325
786.15132	24835.525
790.02671	23928.725
793.89938	23455.525
797.76935	23166.225
801.6366	23156.925
805.50115	23117.525
809.36299	23008.125
813.22213	22853.725
817.07857	22806.025
820.93231	22718.825
824.78336	22523.825
828.63172	22342.425
832.47738	22234.525
836.32036	22188.325
840.16066	22163.925
843.99827	22187.225
847.8332	22157.025
851.66546	22116.425
855.49504	22174.525
859.32195	22135.925
863.1462	22078.625
866.96777	22015.025
870.78668	21953.025
874.60293	21940.125
878.41652	21937.925
882.22745	21940.425
886.03573	21989.825
889.84136	22007.725
893.64433	21958.125
897.44466	21854.625
901.24235	21826.725
905.0374	21760.825
908.8298	21755.625
912.61957	21846.425
916.40671	22179.225
920.19121	22608.525
923.97308	22892.525
927.75233	22767.625
931.52895	22362.625
935.30295	21879.925
939.07433	21406.625
942.84309	21127.225
946.60924	20906.025
950.37278	20797.725
954.13371	20812.925
957.89203	20841.525
961.64774	20850.225
965.40086	20876.225
969.15137	20785.225
972.89929	20563.525
976.64461	20459.125
980.38733	20393.525
984.12747	20348.425
987.86502	20430.225
991.59999	20521.425
995.33237	20672.625
999.06217	20987.425
1002.78939	21301.825
1006.51404	21697.125
1010.23611	22065.225
1013.95561	22330.425
1017.67255	22366.525
1021.38692	22192.625
1025.09872	21834.825
1028.80796	21609.625
1032.51465	21591.925
1036.21877	21700.725
1039.92035	21846.625
1043.61937	21936.425
1047.31584	21954.825
1051.00976	21983.725
1054.70114	22080.625
1058.38998	22227.325
1062.07627	22574.525
1065.76003	22988.125
1069.44126	23308.625
1073.11995	23634.625
1076.79611	23907.325
1080.46974	23982.425
1084.14085	24123.325
1087.80943	24331.725
1091.47549	24623.625
1095.13903	24786.325
1098.80005	24574.825
1102.45857	23919.025
1106.11456	23246.425
1109.76805	22882.625
1113.41903	22826.225
1117.06751	22983.325
1120.71348	23228.025
1124.35696	23515.425
1127.99793	23869.725
1131.63641	24121.925
1135.2724	24065.325
1138.90589	24078.125
1142.5369	24250.825
1146.16542	24596.625
1149.79145	25040.525
1153.415	25466.025
1157.03607	26035.125
1160.65467	27081.725
1164.27079	28708.325
1167.88443	30476.825
1171.49561	32233.025
1175.10432	34157.325
1178.71056	36503.825
1182.31434	38669.125
1185.91565	39697.325
1189.51451	39613.425
1193.11091	38742.525
1196.70485	37548.325
1200.29634	36272.525
1203.88538	35569.925
1207.47197	35488.625
1211.05612	35495.425
1214.63782	34834.125
1218.21708	33482.525
1221.79391	31968.425
1225.36829	30697.425
1228.94024	29955.925
1232.50976	29417.225
1236.07685	29034.625
1239.6415	28900.725
1243.20374	28949.725
1246.76355	29181.925
1250.32093	29699.925
1253.8759	30343.725
1257.42845	31180.925
1260.97859	32095.825
1264.52631	32991.125
1268.07163	33931.425
1271.61453	34939.725
1275.15503	36016.025
1278.69312	37320.425
1282.22882	38907.625
1285.76211	40776.925
1289.29301	43022.625
1292.82151	45688.525
1296.34761	48905.025
1299.87133	52374.525
1303.39266	55444.525
1306.9116	57721.025
1310.42815	59092.325
1313.94233	59279.625
1317.45412	58786.125
1320.96354	58198.725
1324.47058	57999.525
1327.97525	57982.425
1331.47754	58006.225
1334.97747	57762.925
1338.47502	57159.825
1341.97022	56229.125
1345.46305	55061.625
1348.95352	53871.025
1352.44163	53171.725
1355.92738	53308.725
1359.41078	54439.425
1362.89183	55431.825
1366.37053	54448.325
1369.84688	50644.425
1373.32088	45634.925
1376.79254	42111.225
1380.26186	41144.225
1383.72883	41764.925
1387.19347	42324.825
1390.65578	42273.025
1394.11575	42295.225
1397.57339	42832.325
1401.0287	43700.925
1404.48168	44290.225
1407.93234	43967.225
1411.38068	42480.225
1414.82669	40292.625
1418.27039	37845.825
1421.71177	35624.825
1425.15083	33915.625
1428.58758	33107.725
1432.02203	33410.725
1435.45416	34516.225
1438.88399	35986.525
1442.31151	37140.325
1445.73673	37901.225
1449.15965	38542.125
1452.58027	38975.425
1455.9986	39081.025
1459.41463	39300.525
1462.82837	39770.825
1466.23982	40347.425
1469.64898	40917.525
1473.05586	41211.525
1476.46045	41112.625
1479.86276	40649.125
1483.26279	40078.425
1486.66054	39739.525
1490.05602	39793.925
1493.44922	40074.325
1496.84016	40497.225
1500.22882	41113.425
1503.61521	42008.325
1506.99934	43059.325
1510.38121	43929.125
1513.76081	44297.125
1517.13816	43977.725
1520.51324	43504.925
1523.88607	43312.325
1527.25665	43622.425
1530.62498	43969.425
1533.99105	43823.625
1537.35488	43105.825
1540.71647	41851.625
1544.07581	40174.025
1547.4329	38525.425
1550.78776	37145.225
1554.14038	36172.625
1557.49077	35586.725
1560.83892	35291.925
1564.18484	35161.725
1567.52853	35363.825
1570.86999	35851.125
1574.20922	36855.725
1577.54624	37997.425
1580.88103	38759.225
1584.2136	39598.525
1587.54395	41093.925
1590.87208	43250.625
1594.19801	45598.725
1597.52172	47442.225
1600.84321	47336.225
1604.16251	44571.425
1607.47959	40502.325
1610.79447	36525.225
1614.10715	33061.625
1617.41763	30292.425
1620.7259	28492.925
1624.03199	27565.125
1627.33587	27622.225
1630.63757	28579.525
1633.93707	30832.425
1637.23439	34542.525
1640.52951	39916.325
1643.82246	46370.825
1647.11321	51435.925
1650.40179	52470.425
1653.68819	48396.125
1656.97241	41379.325
1660.25446	34436.325
1663.53433	29071.025
1666.81203	25503.625
1670.08756	23285.725
1673.36092	21873.225
1676.63211	20957.825
1679.90115	20329.525
1683.16801	19842.825
1686.43272	19503.925
1689.69527	19225.525
1692.95567	19037.525
1696.2139	18901.225
1699.46999	18792.925
1702.72392	18657.625
1705.97571	18589.625
1709.22535	18499.325
1712.47284	18430.025
1715.71819	18403.325
1718.96139	18309.425
1722.20246	18218.825
1725.44139	18119.725
1728.67818	17982.225
1731.91284	17875.525
1735.14537	17730.125
1738.37576	17615.925
1741.60403	17517.225
1744.83017	17458.125
1748.05418	17405.025
1751.27607	17364.925
1754.49584	17329.425
1757.71349	17304.825
1760.92903	17284.525
1764.14244	17285.325
1767.35375	17257.425
1770.56294	17176.625
1773.77002	17113.925
1776.97499	17044.225
1780.17785	17026.225
1783.37861	16969.125
1786.57727	16949.625
1789.77382	16865.025
1792.96828	16879.925
1796.16064	16838.825
1799.3509	16744.125
1802.53907	16719.625
1805.72514	16647.125
1808.90913	16586.625
1812.09102	16549.425
1815.27083	16484.325
1818.44856	16494.925
1821.6242	16416.525
1824.79776	16396.925
1827.96924	16390.425
1831.13864	16408.825
1834.30597	16403.025
1837.47122	16336.425
1840.6344	16331.525
1843.7955	16337.725
1846.95454	16319.025
1850.11151	16302.125
1853.26642	16277.425
1856.41926	16270.625
1859.57004	16278.125
1862.71876	16222.825
1865.86542	16181.125
1869.01003	16139.025
1872.15258	16130.625
1875.29308	16099.925
1878.43152	16094.125
1881.56792	16091.825
1884.70227	16045.625
1887.83457	16007.225
1890.96482	15982.125
1894.09304	15902.725
1897.21921	15928.325
1900.34335	15936.125
1903.46544	15890.825
1906.58551	15857.425
1909.70353	15853.225
1912.81953	15838.025
1915.93349	15771.625
1919.04543	15718.425
1922.15534	15698.325
1925.26322	15630.125
1928.36908	15575.425
1931.47292	15524.725
1934.57473	15496.825
1937.67453	15469.725
1940.77232	15407.025
1943.86808	15378.325
1946.96184	15338.925
1950.05358	15306.025
1953.14331	15247.725
1956.23103	15208.825
1959.31675	15155.525
1962.40046	15096.125
1965.48217	15052.625
1968.56188	14990.525
1971.63959	14949.625
1974.7153	14879.325
1977.78901	14826.625
1980.86073	14778.025
1983.93046	14708.625
1986.99819	14641.225
1990.06394	14636.725
1993.1277	14581.425
1996.18947	14528.925
1999.24925	14487.425
2002.30706	14452.525
2005.36288	14395.325
2008.41672	14364.225
2011.46859	14289.025
2014.51848	14231.725
2017.56639	14211.125
2020.61233	14176.725
2023.6563	14141.325
2026.6983	14083.025
2029.73833	14063.325
2032.7764	14008.525
2035.8125	13977.325
2038.84664	13925.425
2041.87881	13927.525
2044.90903	13920.025
2047.93729	13883.525
2050.96359	13861.325
2053.98794	13833.925
2057.01034	13841.125
2060.03078	13828.425
2063.04927	13780.525
2066.06582	13804.725
2069.08042	13815.425
2072.09307	13761.925
2075.10378	13749.725
2078.11255	13715.125
2081.11938	13712.925
2084.12426	13724.925
2087.12722	13732.325
2090.12824	13704.525
2093.12732	13698.325
2096.12447	13675.425
2099.11969	13671.125
2102.11299	13674.925
2105.10435	13666.525
2108.09379	13668.025
2111.08131	13642.025
2114.0669	13656.025
2117.05057	13692.225
2120.03233	13648.325
2123.01216	13672.525
2125.99008	13703.425
2128.96609	13697.725
2131.94018	13700.425
2134.91236	13674.025
2137.88263	13660.425
2140.851	13665.025
2143.81746	13682.925
2146.78201	13672.025
2149.74466	13638.025
2152.7054	13657.325
2155.66425	13614.125
2158.6212	13623.825
2161.57625	13595.125
2164.52941	13575.225
2167.48067	13579.325
2170.43004	13560.525
2173.37752	13573.025
2176.32311	13553.525
2179.26681	13549.525
2182.20863	13540.025
2185.14856	13546.625
2188.08661	13541.825
2191.02278	13535.825
2193.95707	13544.225
2196.88948	13510.025
2199.82001	13486.125
2202.74867	13448.025
2205.67545	13427.025
2208.60037	13438.125
2211.52341	13377.425
2214.44458	13407.525
2217.36388	13348.025
2220.28132	13335.925
2223.1969	13301.725
2226.11061	13283.325
2229.02246	13258.625
2231.93245	13220.425
2234.84058	13204.125
2237.74686	13155.225
2240.65128	13167.825
2243.55385	13128.225
2246.45456	13097.025
2249.35343	13079.625
2252.25044	13051.125
2255.14561	13011.325
2258.03893	12966.725
2260.93041	12958.825
2263.82004	12915.025
2266.70783	12870.225
2269.59378	12782.925
2272.4779	12762.125
2275.36017	12753.525
2278.24061	12717.125
2281.11922	12673.225
2283.996	12683.625
2286.87094	12659.025
2289.74405	12635.025
2292.61534	12601.225
2295.4848	12593.625
2298.35243	12571.325
2301.21824	12581.025
2304.08223	12552.925
2306.94439	12564.125
2309.80474	12564.325
2312.66327	12581.925
2315.51999	12528.025
2318.37489	12506.225
2321.22797	12483.925
2324.07925	12492.725
2326.92871	12429.925
2329.77637	12424.525
2332.62222	12405.525
2335.46626	12376.525
2338.3085	12404.025
2341.14893	12387.625
2343.98756	12403.325
2346.8244	12418.125
2349.65943	12367.225
2352.49267	12372.825
2355.32411	12388.025
2358.15376	12343.725
2360.98161	12319.825
2363.80768	12347.225
2366.63195	12345.125
2369.45444	12343.125
2372.27514	12314.125
2375.09405	12281.625
2377.91118	12253.325
2380.72652	12209.825
2383.54009	12213.625
2386.35187	12180.325
2389.16188	12142.925
2391.97011	12127.225
2394.77657	12067.525
2397.58125	12063.325
2400.38416	12050.825
2403.18529	12026.825
2405.98466	11981.825
2408.78226	12008.225
2411.57809	11966.025
2414.37216	11979.025
2417.16446	11978.225
2419.955	11958.025
2422.74378	11979.325
2425.5308	11921.525
2428.31606	11932.325
2431.09956	11924.225
2433.88131	11888.925
2436.6613	11917.325
2439.43954	11902.725
2442.21603	11888.225
2444.99077	11870.725
2447.76377	11869.225
2450.53501	11861.525
2453.30451	11855.125
2456.07226	11837.725
2458.83827	11835.625
2461.60254	11817.225
2464.36507	11808.025
2467.12586	11804.325
2469.88492	11821.825
2472.64224	11815.125
2475.39782	11825.525
2478.15167	11825.925
2480.90379	11792.925
2483.65417	11835.825
2486.40283	11830.525
2489.14976	11841.425
2491.89497	11834.825
2494.63845	11844.825
2497.3802	11834.825
2500.12024	11836.025
2502.85855	11789.925
2505.59514	11802.225
2508.33002	11790.625
2511.06318	11804.325
2513.79462	11787.225
2516.52435	11763.325
2519.25237	11753.225
2521.97867	11732.025
2524.70327	11722.425
2527.42616	11702.825
2530.14734	11696.225
2532.86681	11697.425
2535.58458	11680.825
2538.30065	11693.925
2541.01501	11672.425
2543.72768	11643.025
2546.43864	11672.425
2549.14791	11605.725
2551.85548	11654.225
2554.56136	11621.525
2557.26554	11603.025
2559.96803	11587.225
2562.66883	11601.625
2565.36794	11542.525
2568.06536	11565.525
2570.7611	11523.925
2573.45514	11543.125
2576.14751	11542.625
2578.83819	11514.025
2581.52719	11488.425
2584.21451	11482.025
2586.90015	11503.625
2589.58411	11473.425
2592.2664	11473.725
2594.94701	11454.325
2597.62594	11465.825
2600.30321	11447.725
2602.9788	11436.725
2605.65273	11419.925
2608.32498	11436.525
2610.99557	11429.825
2613.66449	11453.625
2616.33175	11440.725
2618.99734	11425.825
2621.66128	11430.225
2624.32355	11391.325
2626.98416	11398.425
2629.64311	11381.425
2632.30041	11394.625
2634.95605	11400.125
2637.61004	11365.125
2640.26238	11363.725
2642.91306	11360.225
2645.56209	11344.825
2648.20948	11359.125
2650.85521	11363.525
2653.4993	11382.925
2656.14175	11372.525
2658.78255	11381.325
2661.42171	11409.325
2664.05923	11402.225
2666.6951	11385.125
2669.32934	11457.425
2671.96194	11449.925
2674.59291	11415.025
2677.22224	11392.525
2679.84993	11440.325
2682.476	11381.125
2685.10043	11387.725
2687.72324	11373.425
2690.34441	11384.125
2692.96396	11359.925
2695.58188	11385.525
2698.19818	11375.225
2700.81285	11365.025
2703.4259	11414.025
2706.03733	11456.125
2708.64714	11438.525
2711.25533	11435.725
2713.86191	11379.025
2716.46687	11429.825
2719.07021	11432.225
2721.67194	11454.225
2724.27206	11421.925
2726.87057	11483.125
2729.46747	11442.025
2732.06276	11479.125
2734.65644	11466.225
2737.24852	11480.225
2739.83899	11425.225
2742.42786	11487.825
2745.01513	11437.425
2747.60079	11448.325
2750.18486	11436.125
2752.76733	11422.225
2755.3482	11408.825
2757.92747	11422.325
2760.50515	11395.625
2763.08123	11410.025
2765.65573	11391.325
2768.22863	11416.425
2770.79994	11398.725
2773.36967	11390.225
2775.9378	11413.025
2778.50435	11382.225
2781.06932	11385.225
2783.6327	11396.725
2786.1945	11423.025
2788.75471	11416.525
2791.31335	11389.025
2793.87041	11373.325
2796.42589	11332.625
2798.97979	11321.525
2801.53212	11299.925
2804.08288	11308.025
2806.63206	11265.325
2809.17967	11249.825
2811.72571	11213.325
2814.27018	11214.025
2816.81308	11163.325
2819.35442	11171.725
2821.89419	11124.525
2824.43239	11112.625
2826.96904	11126.225
2829.50412	11141.225
2832.03763	11088.325
2834.56959	11089.425
2837.1	11087.125
2839.62884	11105.625
2842.15613	11115.225
2844.68186	11177.525
2847.20604	11172.025
2849.72867	11201.925
2852.24974	11164.525
2854.76927	11167.525
2857.28724	11159.825
2859.80367	11146.725
2862.31855	11107.125
2864.83189	11076.925
2867.34368	11089.525
2869.85393	11054.425
2872.36264	11057.725
2874.8698	11028.625
2877.37543	11002.625
2879.87952	11010.825
2882.38207	11002.725
2884.88308	11017.625
2887.38256	11015.825
2889.88051	11021.425
2892.37692	11030.625
2894.8718	11022.825
2897.36515	11027.725
2899.85698	11024.925
2902.34727	11048.025
2904.83604	11046.425
2907.32328	11076.225
2909.809	11067.325
2912.29319	11065.525
2914.77587	11037.025
2917.25702	11074.225
2919.73665	11067.825
2922.21476	11063.425
2924.69136	11054.825
2927.16644	11052.025
2929.64	11001.125
2932.11205	11000.525
2934.58258	11008.925
2937.05161	11004.225
2939.51912	11012.425
2941.98513	10978.425
2944.44962	10945.525
2946.91261	10908.625
2949.37409	10898.425
2951.83407	10886.025
2954.29254	10883.225
2956.74951	10844.725
2959.20498	10826.725
2961.65895	10830.225
2964.11142	10805.725
2966.56239	10791.925
2969.01186	10810.325
2971.45984	10736.225
2973.90632	10731.625
2976.35131	10730.825
2978.7948	10692.325
2981.23681	10680.325
2983.67732	10642.425
2986.11635	10609.825
2988.55388	10587.525
2990.98993	10554.325
2993.4245	10512.425
2995.85758	10454.325
2998.28917	10437.325
3000.71928	10442.425
3003.14791	10405.325
3005.57506	10408.625
3008.00073	10332.025
3010.42493	10227.525
3012.84764	10315.025
3015.26888	10290.125
3017.68865	10244.325
3020.10694	10244.925
3022.52376	10219.125
3024.9391	10218.825
3027.35298	10207.725
3029.76539	10182.325
3032.17632	10176.825
3034.5858	10130.125
3036.9938	10138.425
3039.40034	10149.625
3041.80542	10153.625
3044.20903	10148.925
3046.61118	10139.525
3049.01187	10106.325
3051.4111	10084.225
3053.80888	10073.325
3056.20519	10020.525
3058.60005	10011.725
3060.99345	9972.225
3063.3854	9953.725
3065.7759	9901.725
3068.16494	9862.425
3070.55254	9827.425
3072.93868	9801.925
3075.32338	9772.225
3077.70662	9719.625
3080.08842	9711.925
3082.46878	9703.025
3084.84769	9665.925
3087.22515	9679.325
3089.60118	9679.325
3091.97576	9669.625
3094.3489	9636.125
3096.72061	9660.125
3099.09087	9630.025
3101.4597	9620.425
3103.82709	9642.625
3106.19305	9597.325
3108.55757	9586.325
3110.92066	9542.325
3113.28232	9565.725
3115.64255	9535.425
3118.00134	9512.425
3120.35871	9522.325
3122.71466	9478.325
3125.06917	9454.125
3127.42226	9416.125
3129.77393	9420.625
3132.12417	9379.825
