Data from AgNPs_FTO_APTES_UA_5uM_CRN_0uM_R6G_10uM_NaF_0.1M_Addition_RamanShift__12__09-52-46-535.txt Node

Date: Mon Feb 07 09:52:46 GMT 2022
User: TCL
Spectrometer: QEP01345
Trigger mode: 4
Integration Time (sec): 7.000000E0
Scans to average: 10
Electric dark correction enabled: true
Nonlinearity correction enabled: false
Boxcar width: 0
XAxis mode: Raman Shifts
Number of Pixels in Spectrum: 1044
>>>>>Begin Spectral Data<<<<<
46.04893	-0.075
50.45542	-1.275
54.85868	0.225
59.25871	1.025
63.6555	84.525
68.04907	84.125
72.43941	91.625
76.82654	91.525
81.21044	93.825
85.59113	100.825
89.96862	103.425
94.34289	105.725
98.71396	109.925
103.08183	111.425
107.4465	116.625
111.80798	118.325
116.16626	123.125
120.52136	130.425
124.87327	138.425
129.222	147.125
133.56755	158.925
137.90993	173.125
142.24913	192.825
146.58517	221.925
150.91804	263.125
155.24774	320.925
159.57429	409.125
163.89768	534.925
168.21792	723.725
172.53501	983.925
176.84895	1373.825
181.15975	1944.125
185.46741	2730.525
189.77193	3783.125
194.07331	5057.025
198.37157	6511.225
202.6667	8085.425
206.9587	9618.525
211.24758	11130.525
215.53334	12644.925
219.81599	14276.425
224.09553	16037.125
228.37195	18007.225
232.64527	20188.725
236.91549	22496.125
241.18261	24812.025
245.44663	27000.625
249.70755	28964.225
253.96539	30722.025
258.22014	32158.025
262.4718	33314.325
266.72039	34002.725
270.96589	34356.025
275.20832	34366.325
279.44768	34128.125
283.68397	33882.625
287.91719	33599.925
292.14735	33380.625
296.37445	33221.125
300.59849	33079.425
304.81948	33064.125
309.03742	33082.525
313.25231	32860.125
317.46415	32245.125
321.67296	31229.625
325.87872	30247.225
330.08145	29639.525
334.28114	29455.625
338.47781	29596.925
342.67145	29848.525
346.86207	30140.725
351.04966	30564.225
355.23424	30993.325
359.4158	31496.825
363.59435	31840.925
367.76989	32025.925
371.94243	32045.925
376.11196	31999.825
380.27849	31840.925
384.44203	31657.525
388.60257	31744.525
392.76012	32108.125
396.91468	32743.525
401.06626	33425.525
405.21485	33902.325
409.36047	33747.425
413.50311	33185.925
417.64277	32771.825
421.77947	32738.625
425.9132	32796.625
430.04396	32947.325
434.17176	32879.625
438.2966	32781.425
442.41849	32846.025
446.53742	33321.725
450.6534	33973.225
454.76644	34486.925
458.87653	34895.425
462.98368	35066.125
467.08789	35141.225
471.18916	34969.925
475.2875	34837.025
479.38291	34921.325
483.4754	35191.325
487.56496	35341.325
491.6516	35191.125
495.73531	34752.425
499.81612	34292.825
503.89401	34214.125
507.96899	34150.025
512.04106	34003.025
516.11023	33569.325
520.1765	32860.025
524.23987	32265.125
528.30034	31693.725
532.35792	31249.625
536.41261	30902.125
540.46441	30655.025
544.51333	30733.725
548.55936	31221.125
552.60252	32081.925
556.64279	33040.725
560.6802	33579.825
564.71473	34038.125
568.7464	34987.625
572.7752	36699.225
576.80114	38805.225
580.82422	40695.425
584.84444	42111.125
588.86181	43349.625
592.87633	44238.225
596.888	43532.825
600.89682	41413.725
604.9028	40479.425
608.90594	42094.925
612.90624	44087.025
616.90371	41251.925
620.89834	35095.025
624.89015	32374.125
628.87913	32292.925
632.86528	32982.425
636.84862	33264.325
640.82913	32635.425
644.80683	31419.725
648.78172	30539.425
652.75379	30227.825
656.72306	30466.125
660.68952	30894.025
664.65319	30885.325
668.61405	30545.225
672.57211	30517.525
676.52738	30455.725
680.47986	30343.725
684.42955	30123.925
688.37646	29902.725
692.32058	30038.825
696.26192	30460.225
700.20048	30878.925
704.13626	31300.025
708.06928	31685.925
711.99952	31790.425
715.927	31647.525
719.85171	31379.225
723.77365	31010.225
727.69284	30450.025
731.60928	29871.425
735.52295	29555.325
739.43388	29420.425
743.34206	29538.125
747.24749	29736.725
751.15017	30277.325
755.05012	30995.125
758.94733	32148.825
762.8418	33970.325
766.73354	36635.325
770.62254	38963.825
774.50882	38820.625
778.39237	36557.325
782.27321	34024.325
786.15132	32036.925
790.02671	30696.525
793.89938	29903.325
797.76935	29434.225
801.6366	29204.725
805.50115	29103.725
809.36299	28961.525
813.22213	28841.525
817.07857	28892.825
820.93231	28837.625
824.78336	28802.325
828.63172	28622.325
832.47738	28408.125
836.32036	28355.025
840.16066	28302.025
843.99827	28308.125
847.8332	28331.025
851.66546	28368.125
855.49504	28406.825
859.32195	28472.225
863.1462	28392.825
866.96777	28364.625
870.78668	28251.425
874.60293	28282.125
878.41652	28222.125
882.22745	28249.425
886.03573	28303.825
889.84136	28304.225
893.64433	28353.225
897.44466	28452.225
901.24235	28552.425
905.0374	28550.125
908.8298	28527.625
912.61957	28638.825
916.40671	28969.525
920.19121	29639.625
923.97308	30240.725
927.75233	30389.625
931.52895	29914.425
935.30295	29132.725
939.07433	28281.925
942.84309	27571.725
946.60924	27181.225
950.37278	26977.525
954.13371	26913.425
957.89203	26933.525
961.64774	26974.125
965.40086	27011.525
969.15137	26978.125
972.89929	26778.825
976.64461	26547.625
980.38733	26314.225
984.12747	26227.825
987.86502	26268.725
991.59999	26337.325
995.33237	26413.625
999.06217	26610.425
1002.78939	26962.725
1006.51404	27254.625
1010.23611	27711.225
1013.95561	28002.625
1017.67255	28168.025
1021.38692	27997.325
1025.09872	27714.025
1028.80796	27366.025
1032.51465	27212.325
1036.21877	27300.025
1039.92035	27448.225
1043.61937	27706.725
1047.31584	27926.725
1051.00976	28122.125
1054.70114	28385.925
1058.38998	28633.725
1062.07627	28982.425
1065.76003	29545.225
1069.44126	30214.425
1073.11995	31071.125
1076.79611	31855.225
1080.46974	32172.925
1084.14085	32118.125
1087.80943	32376.825
1091.47549	32912.125
1095.13903	33329.325
1098.80005	33068.925
1102.45857	31951.425
1106.11456	30557.125
1109.76805	29542.425
1113.41903	28987.225
1117.06751	28847.625
1120.71348	29041.525
1124.35696	29387.625
1127.99793	29827.825
1131.63641	30240.725
1135.2724	30367.525
1138.90589	30353.925
1142.5369	30452.425
1146.16542	30678.025
1149.79145	31041.925
1153.415	31463.525
1157.03607	32172.625
1160.65467	33111.025
1164.27079	34474.625
1167.88443	36306.325
1171.49561	38428.725
1175.10432	41048.425
1178.71056	44061.425
1182.31434	46876.225
1185.91565	48501.025
1189.51451	48925.025
1193.11091	48265.325
1196.70485	46514.225
1200.29634	44421.925
1203.88538	42883.925
1207.47197	42195.225
1211.05612	42006.125
1214.63782	41553.425
1218.21708	40229.525
1221.79391	38545.925
1225.36829	37039.225
1228.94024	36151.425
1232.50976	35607.925
1236.07685	35288.325
1239.6415	35147.325
1243.20374	35018.025
1246.76355	35239.325
1250.32093	35546.325
1253.8759	36326.425
1257.42845	37540.025
1260.97859	39008.425
1264.52631	40464.725
1268.07163	41976.025
1271.61453	43330.925
1275.15503	44837.725
1278.69312	46662.525
1282.22882	48632.125
1285.76211	50810.625
1289.29301	53068.225
1292.82151	55540.125
1296.34761	58231.525
1299.87133	61232.525
1303.39266	64013.825
1306.9116	66247.325
1310.42815	67669.525
1313.94233	68073.625
1317.45412	67763.025
1320.96354	67762.225
1324.47058	68417.525
1327.97525	69317.025
1331.47754	69697.625
1334.97747	69374.325
1338.47502	68393.425
1341.97022	67373.025
1345.46305	66399.225
1348.95352	65083.825
1352.44163	63366.825
1355.92738	61925.125
1359.41078	62045.325
1362.89183	63302.125
1366.37053	63552.125
1369.84688	61048.925
1373.32088	56313.525
1376.79254	51957.625
1380.26186	49448.025
1383.72883	48549.825
1387.19347	48356.825
1390.65578	48139.525
1394.11575	48007.725
1397.57339	48178.525
1401.0287	48633.925
1404.48168	48651.825
1407.93234	47754.325
1411.38068	45889.925
1414.82669	43470.825
1418.27039	41072.825
1421.71177	38941.825
1425.15083	37439.325
1428.58758	36785.325
1432.02203	36937.125
1435.45416	37793.225
1438.88399	38928.625
1442.31151	39921.525
1445.73673	40789.425
1449.15965	41753.025
1452.58027	42513.325
1455.9986	43059.425
1459.41463	43536.325
1462.82837	44280.725
1466.23982	45081.025
1469.64898	45683.125
1473.05586	45874.125
1476.46045	45707.825
1479.86276	45484.325
1483.26279	45427.325
1486.66054	45798.825
1490.05602	46508.025
1493.44922	47744.125
1496.84016	49428.925
1500.22882	51454.925
1503.61521	53593.025
1506.99934	55775.425
1510.38121	57504.125
1513.76081	58261.625
1517.13816	57988.325
1520.51324	57287.525
1523.88607	56571.425
1527.25665	55980.225
1530.62498	55301.825
1533.99105	54189.425
1537.35488	52664.525
1540.71647	50516.025
1544.07581	48201.125
1547.4329	46024.125
1550.78776	44418.225
1554.14038	43417.225
1557.49077	43015.725
1560.83892	43058.325
1564.18484	43151.625
1567.52853	43251.125
1570.86999	43410.325
1574.20922	44038.525
1577.54624	44763.125
1580.88103	45137.425
1584.2136	45455.425
1587.54395	46624.725
1590.87208	48475.425
1594.19801	50415.325
1597.52172	51598.325
1600.84321	50846.525
1604.16251	47782.025
1607.47959	43987.925
1610.79447	40365.225
1614.10715	37096.125
1617.41763	34275.925
1620.7259	32380.425
1624.03199	31428.925
1627.33587	31337.725
1630.63757	32275.925
1633.93707	34525.425
1637.23439	38379.625
1640.52951	44272.625
1643.82246	51787.225
1647.11321	58649.725
1650.40179	61748.825
1653.68819	59083.225
1656.97241	51752.625
1660.25446	43329.625
1663.53433	36297.925
1666.81203	31484.325
1670.08756	28507.325
1673.36092	26740.825
1676.63211	25618.825
1679.90115	24829.025
1683.16801	24296.325
1686.43272	23842.025
1689.69527	23527.125
1692.95567	23275.625
1696.2139	23073.325
1699.46999	22927.525
1702.72392	22825.225
1705.97571	22699.025
1709.22535	22597.625
1712.47284	22478.925
1715.71819	22445.925
1718.96139	22327.225
1722.20246	22182.625
1725.44139	22079.025
1728.67818	21908.125
1731.91284	21781.825
1735.14537	21591.725
1738.37576	21488.125
1741.60403	21381.225
1744.83017	21277.225
1748.05418	21196.925
1751.27607	21132.025
1754.49584	21079.025
1757.71349	21047.125
1760.92903	20966.025
1764.14244	20937.925
1767.35375	20921.325
1770.56294	20857.025
1773.77002	20818.025
1776.97499	20770.625
1780.17785	20707.825
1783.37861	20642.325
1786.57727	20576.125
1789.77382	20547.925
1792.96828	20516.425
1796.16064	20414.325
1799.3509	20373.325
1802.53907	20294.725
1805.72514	20214.925
1808.90913	20117.025
1812.09102	20050.525
1815.27083	20008.225
1818.44856	19957.025
1821.6242	19928.625
1824.79776	19814.525
1827.96924	19807.025
1831.13864	19766.525
1834.30597	19806.725
1837.47122	19792.325
1840.6344	19765.925
1843.7955	19765.225
1846.95454	19747.025
1850.11151	19756.925
1853.26642	19706.125
1856.41926	19703.025
1859.57004	19731.325
1862.71876	19670.425
1865.86542	19601.325
1869.01003	19541.525
1872.15258	19484.925
1875.29308	19424.425
1878.43152	19348.825
1881.56792	19322.425
1884.70227	19238.125
1887.83457	19237.825
1890.96482	19263.825
1894.09304	19171.725
1897.21921	19144.425
1900.34335	19093.425
1903.46544	19045.525
1906.58551	19014.725
1909.70353	18966.525
1912.81953	18903.525
1915.93349	18883.425
1919.04543	18822.725
1922.15534	18794.525
1925.26322	18724.825
1928.36908	18632.925
1931.47292	18594.425
1934.57473	18530.925
1937.67453	18468.925
1940.77232	18388.225
1943.86808	18317.125
1946.96184	18253.325
1950.05358	18175.325
1953.14331	18139.425
1956.23103	18152.225
1959.31675	18053.025
1962.40046	17986.225
1965.48217	17906.325
1968.56188	17886.825
1971.63959	17787.625
1974.7153	17698.625
1977.78901	17671.425
1980.86073	17548.525
1983.93046	17481.525
1986.99819	17430.925
1990.06394	17342.125
1993.1277	17316.425
1996.18947	17236.725
1999.24925	17158.525
2002.30706	17102.625
2005.36288	17030.125
2008.41672	16959.125
2011.46859	16916.925
2014.51848	16835.125
2017.56639	16808.225
2020.61233	16714.225
2023.6563	16682.625
2026.6983	16684.125
2029.73833	16614.125
2032.7764	16595.625
2035.8125	16538.325
2038.84664	16474.025
2041.87881	16401.625
2044.90903	16382.525
2047.93729	16374.925
2050.96359	16330.325
2053.98794	16294.125
2057.01034	16336.025
2060.03078	16292.425
2063.04927	16252.225
2066.06582	16245.825
2069.08042	16263.125
2072.09307	16279.425
2075.10378	16225.425
2078.11255	16235.125
2081.11938	16210.425
2084.12426	16184.325
2087.12722	16163.425
2090.12824	16166.325
2093.12732	16160.825
2096.12447	16157.925
2099.11969	16083.425
2102.11299	16098.725
2105.10435	16058.325
2108.09379	16061.625
2111.08131	16071.125
2114.0669	16087.625
2117.05057	16086.425
2120.03233	16081.025
2123.01216	16110.225
2125.99008	16108.525
2128.96609	16123.825
2131.94018	16094.425
2134.91236	16073.725
2137.88263	16038.425
2140.851	16055.325
2143.81746	16025.825
2146.78201	16006.625
2149.74466	15978.625
2152.7054	15959.925
2155.66425	15955.625
2158.6212	15929.725
2161.57625	15892.525
2164.52941	15857.625
2167.48067	15853.425
2170.43004	15840.725
2173.37752	15820.325
2176.32311	15799.525
2179.26681	15789.825
2182.20863	15807.125
2185.14856	15785.825
2188.08661	15756.525
2191.02278	15754.325
2193.95707	15704.025
2196.88948	15674.425
2199.82001	15657.625
2202.74867	15591.225
2205.67545	15571.625
2208.60037	15580.925
2211.52341	15531.825
2214.44458	15515.225
2217.36388	15482.525
2220.28132	15461.325
2223.1969	15421.925
2226.11061	15403.325
2229.02246	15364.825
2231.93245	15332.525
2234.84058	15332.225
2237.74686	15265.125
2240.65128	15254.225
2243.55385	15212.825
2246.45456	15214.025
2249.35343	15130.325
2252.25044	15099.525
2255.14561	15039.025
2258.03893	14992.925
2260.93041	14956.025
2263.82004	14913.925
2266.70783	14899.425
2269.59378	14829.125
2272.4779	14779.125
2275.36017	14716.225
2278.24061	14696.425
2281.11922	14681.525
2283.996	14664.525
2286.87094	14654.225
2289.74405	14610.525
2292.61534	14528.425
2295.4848	14475.425
2298.35243	14506.725
2301.21824	14467.725
2304.08223	14463.925
2306.94439	14441.025
2309.80474	14424.125
2312.66327	14403.325
2315.51999	14410.425
2318.37489	14382.225
2321.22797	14330.225
2324.07925	14270.825
2326.92871	14275.925
2329.77637	14235.825
2332.62222	14182.225
2335.46626	14199.125
2338.3085	14182.325
2341.14893	14157.025
2343.98756	14165.325
2346.8244	14124.725
2349.65943	14142.325
2352.49267	14170.425
2355.32411	14167.425
2358.15376	14185.225
2360.98161	14154.025
2363.80768	14159.725
2366.63195	14164.225
2369.45444	14130.925
2372.27514	14098.225
2375.09405	14069.225
2377.91118	14009.825
2380.72652	13985.825
2383.54009	13923.225
2386.35187	13916.725
2389.16188	13858.725
2391.97011	13846.325
2394.77657	13782.025
2397.58125	13732.525
2400.38416	13705.325
2403.18529	13669.025
2405.98466	13668.325
2408.78226	13586.725
2411.57809	13595.825
2414.37216	13622.725
2417.16446	13609.925
2419.955	13544.325
2422.74378	13548.925
2425.5308	13518.025
2428.31606	13511.025
2431.09956	13512.625
2433.88131	13488.825
2436.6613	13496.225
2439.43954	13508.925
2442.21603	13492.825
2444.99077	13475.525
2447.76377	13470.225
2450.53501	13436.425
2453.30451	13426.925
2456.07226	13416.025
2458.83827	13387.225
2461.60254	13391.025
2464.36507	13376.625
2467.12586	13354.425
2469.88492	13307.125
2472.64224	13317.925
2475.39782	13296.225
2478.15167	13292.425
2480.90379	13272.025
2483.65417	13282.125
2486.40283	13262.925
2489.14976	13276.125
2491.89497	13276.225
2494.63845	13296.525
2497.3802	13278.525
2500.12024	13258.325
2502.85855	13230.325
2505.59514	13215.725
2508.33002	13164.725
2511.06318	13158.225
2513.79462	13152.725
2516.52435	13111.325
2519.25237	13131.025
2521.97867	13120.325
2524.70327	13064.925
2527.42616	13040.125
2530.14734	13037.225
2532.86681	13013.025
2535.58458	13038.725
2538.30065	12988.625
2541.01501	12984.425
2543.72768	12965.725
2546.43864	12929.025
2549.14791	12891.225
2551.85548	12878.425
2554.56136	12862.525
2557.26554	12832.125
2559.96803	12822.125
2562.66883	12814.425
2565.36794	12795.125
2568.06536	12737.625
2570.7611	12725.725
2573.45514	12720.825
2576.14751	12676.825
2578.83819	12667.425
2581.52719	12688.625
2584.21451	12637.925
2586.90015	12614.725
2589.58411	12607.125
2592.2664	12597.025
2594.94701	12564.125
2597.62594	12576.725
2600.30321	12511.725
2602.9788	12539.825
2605.65273	12500.525
2608.32498	12503.425
2610.99557	12520.525
2613.66449	12501.625
2616.33175	12476.725
2618.99734	12452.825
2621.66128	12429.725
2624.32355	12407.225
2626.98416	12408.025
2629.64311	12376.225
2632.30041	12361.025
2634.95605	12336.725
2637.61004	12377.425
2640.26238	12322.725
2642.91306	12316.025
2645.56209	12325.025
2648.20948	12349.725
2650.85521	12320.825
2653.4993	12329.125
2656.14175	12313.525
2658.78255	12310.525
2661.42171	12264.025
2664.05923	12293.525
2666.6951	12281.325
2669.32934	12308.725
2671.96194	12307.925
2674.59291	12285.525
2677.22224	12290.725
2679.84993	12301.525
2682.476	12262.225
2685.10043	12261.925
2687.72324	12241.825
2690.34441	12224.125
2692.96396	12231.525
2695.58188	12230.725
2698.19818	12204.625
2700.81285	12215.425
2703.4259	12233.725
2706.03733	12242.325
2708.64714	12224.225
2711.25533	12227.125
2713.86191	12226.625
2716.46687	12190.725
2719.07021	12154.925
2721.67194	12224.725
2724.27206	12196.725
2726.87057	12232.225
2729.46747	12211.825
2732.06276	12232.225
2734.65644	12218.025
2737.24852	12178.425
2739.83899	12157.025
2742.42786	12175.725
2745.01513	12144.625
2747.60079	12140.425
2750.18486	12122.025
2752.76733	12085.725
2755.3482	12072.725
2757.92747	12070.125
2760.50515	12025.225
2763.08123	12028.925
2765.65573	12023.525
2768.22863	12007.625
2770.79994	11974.725
2773.36967	11980.825
2775.9378	11964.025
2778.50435	11990.625
2781.06932	11975.025
2783.6327	11962.625
2786.1945	11943.325
2788.75471	11939.625
2791.31335	11917.725
2793.87041	11918.925
2796.42589	11874.025
2798.97979	11855.225
2801.53212	11849.925
2804.08288	11824.125
2806.63206	11795.625
2809.17967	11779.625
2811.72571	11756.825
2814.27018	11751.725
2816.81308	11719.125
2819.35442	11678.025
2821.89419	11653.625
2824.43239	11646.325
2826.96904	11639.525
2829.50412	11662.925
2832.03763	11598.525
2834.56959	11619.625
2837.1	11600.325
2839.62884	11602.925
2842.15613	11589.125
2844.68186	11620.525
2847.20604	11617.825
2849.72867	11640.525
2852.24974	11599.625
2854.76927	11594.625
2857.28724	11588.425
2859.80367	11581.125
2862.31855	11562.825
2864.83189	11572.925
2867.34368	11537.025
2869.85393	11521.925
2872.36264	11459.425
2874.8698	11463.425
2877.37543	11424.325
2879.87952	11447.725
2882.38207	11441.225
2884.88308	11421.425
2887.38256	11421.325
2889.88051	11435.025
2892.37692	11451.625
2894.8718	11437.525
2897.36515	11436.525
2899.85698	11430.325
2902.34727	11475.925
2904.83604	11457.825
2907.32328	11475.625
2909.809	11495.225
2912.29319	11483.425
2914.77587	11483.525
2917.25702	11465.725
2919.73665	11456.825
2922.21476	11411.125
2924.69136	11421.625
2927.16644	11412.225
2929.64	11402.425
2932.11205	11384.825
2934.58258	11352.625
2937.05161	11340.525
2939.51912	11340.325
2941.98513	11330.025
2944.44962	11275.325
2946.91261	11194.125
2949.37409	11236.425
2951.83407	11196.425
2954.29254	11181.525
2956.74951	11127.825
2959.20498	11144.825
2961.65895	11108.725
2964.11142	11097.325
2966.56239	11067.325
2969.01186	11071.025
2971.45984	11032.525
2973.90632	11036.025
2976.35131	10990.625
2978.7948	10997.825
2981.23681	10962.925
2983.67732	10928.325
2986.11635	10895.325
2988.55388	10869.425
2990.98993	10832.325
2993.4245	10776.625
2995.85758	10769.225
2998.28917	10685.625
3000.71928	10659.925
3003.14791	10626.825
3005.57506	10623.725
3008.00073	10577.625
3010.42493	10570.825
3012.84764	10546.925
3015.26888	10554.825
3017.68865	10504.925
3020.10694	10466.525
3022.52376	10432.325
3024.9391	10402.525
3027.35298	10407.425
3029.76539	10398.425
3032.17632	10391.325
3034.5858	10364.025
3036.9938	10386.525
3039.40034	10331.525
3041.80542	10350.125
3044.20903	10319.425
3046.61118	10313.825
3049.01187	10283.625
3051.4111	10284.325
3053.80888	10236.325
3056.20519	10218.825
3058.60005	10176.425
3060.99345	10138.125
3063.3854	10105.025
3065.7759	10052.025
3068.16494	10034.925
3070.55254	10006.925
3072.93868	9968.925
3075.32338	9904.425
3077.70662	9898.225
3080.08842	9831.925
3082.46878	9848.225
3084.84769	9828.725
3087.22515	9844.625
3089.60118	9811.925
3091.97576	9812.625
3094.3489	9801.125
3096.72061	9791.825
3099.09087	9776.325
3101.4597	9755.625
3103.82709	9752.625
3106.19305	9750.825
3108.55757	9740.525
3110.92066	9716.925
3113.28232	9698.825
3115.64255	9653.225
3118.00134	9606.525
3120.35871	9596.025
3122.71466	9597.825
3125.06917	9604.225
3127.42226	9560.825
3129.77393	9578.125
