Data from AgNPs_FTO_APTES_UA_5uM_CRN_200uM_R6G_10uM_NaF_0.1M_Addition_RamanShift__2__16-02-11-762.txt Node

Date: Mon Feb 07 16:02:11 GMT 2022
User: TCL
Spectrometer: QEP01345
Trigger mode: 4
Integration Time (sec): 7.000000E0
Scans to average: 10
Electric dark correction enabled: true
Nonlinearity correction enabled: false
Boxcar width: 0
XAxis mode: Raman Shifts
Number of Pixels in Spectrum: 1044
>>>>>Begin Spectral Data<<<<<
46.04893	-1.625
50.45542	-1.625
54.85868	0.275
59.25871	-1.025
63.6555	68.475
68.04907	72.975
72.43941	80.175
76.82654	80.375
81.21044	80.075
85.59113	83.075
89.96862	88.275
94.34289	91.975
98.71396	94.575
103.08183	97.075
107.4465	101.475
111.80798	117.475
116.16626	138.275
120.52136	136.675
124.87327	119.875
129.222	129.775
133.56755	133.375
137.90993	144.175
142.24913	164.775
146.58517	184.975
150.91804	220.275
155.24774	271.275
159.57429	333.175
163.89768	434.675
168.21792	589.575
172.53501	802.675
176.84895	1117.075
181.15975	1581.575
185.46741	2214.475
189.77193	3090.575
194.07331	4132.275
198.37157	5330.275
202.6667	6581.775
206.9587	7846.675
211.24758	9069.075
215.53334	10331.275
219.81599	11659.475
224.09553	13131.275
228.37195	14759.775
232.64527	16513.375
236.91549	18337.575
241.18261	20092.375
245.44663	21705.575
249.70755	23121.775
253.96539	24338.875
258.22014	25391.575
262.4718	26246.275
266.72039	26930.275
270.96589	27350.175
275.20832	27495.275
279.44768	27453.075
283.68397	27333.475
287.91719	27291.875
292.14735	27447.575
296.37445	27700.475
300.59849	28117.375
304.81948	28479.475
309.03742	28505.875
313.25231	28127.175
317.46415	27224.875
321.67296	26088.475
325.87872	25089.075
330.08145	24519.275
334.28114	24415.175
338.47781	24530.775
342.67145	24850.175
346.86207	25289.875
351.04966	25809.475
355.23424	26365.675
359.4158	26768.575
363.59435	27027.075
367.76989	27127.475
371.94243	27173.675
376.11196	27193.775
380.27849	27117.675
384.44203	27168.475
388.60257	27348.475
392.76012	27537.975
396.91468	27938.575
401.06626	28449.675
405.21485	28778.575
409.36047	28488.275
413.50311	27824.875
417.64277	27080.575
421.77947	26693.275
425.9132	26557.475
430.04396	26608.475
434.17176	26783.475
438.2966	27061.275
442.41849	27491.075
446.53742	28139.875
450.6534	28787.075
454.76644	29361.075
458.87653	29571.975
462.98368	29586.575
467.08789	29514.975
471.18916	29389.275
475.2875	29285.675
479.38291	29274.075
483.4754	29119.275
487.56496	28680.975
491.6516	28054.175
495.73531	27468.175
499.81612	27064.875
503.89401	27107.475
507.96899	27215.775
512.04106	27259.475
516.11023	27299.175
520.1765	27213.175
524.23987	26986.575
528.30034	26654.175
532.35792	26388.875
536.41261	26034.875
540.46441	25784.475
544.51333	25760.375
548.55936	26189.875
552.60252	26886.675
556.64279	27693.675
560.6802	28166.175
564.71473	28516.975
568.7464	29217.375
572.7752	30153.575
576.80114	30699.375
580.82422	30986.975
584.84444	31127.575
588.86181	31118.475
592.87633	30951.375
596.888	30704.875
600.89682	30657.275
604.9028	31549.475
608.90594	34740.675
612.90624	38633.075
616.90371	36541.675
620.89834	29519.875
624.89015	26251.975
628.87913	25738.975
632.86528	26089.275
636.84862	26369.875
640.82913	26077.075
644.80683	25436.675
648.78172	24846.075
652.75379	24725.375
656.72306	25015.175
660.68952	25505.075
664.65319	25335.175
668.61405	24813.675
672.57211	24569.275
676.52738	24657.475
680.47986	24658.875
684.42955	24595.975
688.37646	24450.675
692.32058	24470.775
696.26192	24609.075
700.20048	24895.575
704.13626	25101.375
708.06928	25240.175
711.99952	25194.275
715.927	25127.875
719.85171	25081.775
723.77365	24974.975
727.69284	24717.475
731.60928	24424.075
735.52295	24268.975
739.43388	24187.275
743.34206	24215.975
747.24749	24284.375
751.15017	24543.175
755.05012	25023.775
758.94733	25921.375
762.8418	27613.975
766.73354	30496.975
770.62254	33241.675
774.50882	33971.275
778.39237	32244.975
782.27321	29304.575
786.15132	26725.075
790.02671	25166.475
793.89938	24430.175
797.76935	24083.975
801.6366	23906.075
805.50115	23759.675
809.36299	23667.675
813.22213	23611.475
817.07857	23631.275
820.93231	23642.675
824.78336	23561.375
828.63172	23510.475
832.47738	23454.275
836.32036	23339.975
840.16066	23285.375
843.99827	23258.975
847.8332	23199.375
851.66546	23149.575
855.49504	23185.075
859.32195	23201.175
863.1462	23140.675
866.96777	23029.975
870.78668	22992.875
874.60293	22994.275
878.41652	23036.975
882.22745	23090.575
886.03573	23153.675
889.84136	23133.875
893.64433	23052.475
897.44466	23008.575
901.24235	22925.575
905.0374	22897.075
908.8298	22846.575
912.61957	22921.075
916.40671	23164.575
920.19121	23520.175
923.97308	23695.475
927.75233	23566.475
931.52895	23396.175
935.30295	23064.275
939.07433	22611.575
942.84309	22185.975
946.60924	21920.875
950.37278	21761.275
954.13371	21711.375
957.89203	21686.575
961.64774	21675.175
965.40086	21629.675
969.15137	21584.075
972.89929	21451.075
976.64461	21326.075
980.38733	21300.875
984.12747	21267.575
987.86502	21382.275
991.59999	21489.775
995.33237	21621.075
999.06217	21852.775
1002.78939	22097.175
1006.51404	22349.175
1010.23611	22637.675
1013.95561	22831.775
1017.67255	22908.675
1021.38692	22764.275
1025.09872	22542.575
1028.80796	22353.575
1032.51465	22358.875
1036.21877	22488.475
1039.92035	22643.475
1043.61937	22789.875
1047.31584	22866.875
1051.00976	22931.175
1054.70114	23000.475
1058.38998	23139.375
1062.07627	23510.775
1065.76003	23834.375
1069.44126	24076.675
1073.11995	24335.975
1076.79611	24631.575
1080.46974	24759.575
1084.14085	24878.575
1087.80943	25127.975
1091.47549	25418.475
1095.13903	25500.775
1098.80005	25210.175
1102.45857	24614.675
1106.11456	24058.375
1109.76805	23776.775
1113.41903	23826.875
1117.06751	24112.075
1120.71348	24586.875
1124.35696	25091.575
1127.99793	25636.075
1131.63641	25865.575
1135.2724	25381.475
1138.90589	24908.575
1142.5369	24743.975
1146.16542	24793.675
1149.79145	24966.375
1153.415	25300.175
1157.03607	25704.975
1160.65467	26377.075
1164.27079	27436.375
1167.88443	28843.175
1171.49561	30579.475
1175.10432	32992.175
1178.71056	35991.075
1182.31434	38642.575
1185.91565	39931.375
1189.51451	39978.675
1193.11091	39033.175
1196.70485	37502.075
1200.29634	35780.075
1203.88538	34351.175
1207.47197	33203.575
1211.05612	32301.975
1214.63782	31515.275
1218.21708	30626.075
1221.79391	29672.375
1225.36829	28998.475
1228.94024	28544.975
1232.50976	28174.075
1236.07685	27961.875
1239.6415	27913.875
1243.20374	27994.975
1246.76355	28256.475
1250.32093	28569.675
1253.8759	29030.975
1257.42845	29764.675
1260.97859	30586.275
1264.52631	31377.575
1268.07163	32185.075
1271.61453	32927.675
1275.15503	33771.375
1278.69312	34589.975
1282.22882	35358.575
1285.76211	36488.675
1289.29301	37988.975
1292.82151	39922.375
1296.34761	42147.875
1299.87133	44475.875
1303.39266	47046.175
1306.9116	49579.875
1310.42815	51972.475
1313.94233	53285.175
1317.45412	53005.775
1320.96354	52052.375
1324.47058	51116.775
1327.97525	50196.075
1331.47754	49422.675
1334.97747	49056.375
1338.47502	48919.375
1341.97022	49111.975
1345.46305	49504.975
1348.95352	49892.075
1352.44163	50336.575
1355.92738	51115.675
1359.41078	53314.475
1362.89183	55640.875
1366.37053	54451.575
1369.84688	49022.975
1373.32088	43184.575
1376.79254	39525.175
1380.26186	38027.775
1383.72883	37742.875
1387.19347	37781.875
1390.65578	37646.175
1394.11575	37375.575
1397.57339	37246.675
1401.0287	37130.475
1404.48168	36900.275
1407.93234	36365.175
1411.38068	35339.775
1414.82669	33954.175
1418.27039	32480.375
1421.71177	31088.675
1425.15083	29988.175
1428.58758	29316.475
1432.02203	29404.675
1435.45416	30027.275
1438.88399	30803.875
1442.31151	31417.475
1445.73673	31993.275
1449.15965	32675.675
1452.58027	33164.575
1455.9986	33623.675
1459.41463	33973.975
1462.82837	34330.875
1466.23982	34702.575
1469.64898	35160.475
1473.05586	35416.175
1476.46045	35407.275
1479.86276	35274.775
1483.26279	35194.275
1486.66054	35235.575
1490.05602	35672.575
1493.44922	36641.775
1496.84016	38069.975
1500.22882	40529.975
1503.61521	43708.775
1506.99934	47230.575
1510.38121	49991.975
1513.76081	50620.975
1517.13816	48732.875
1520.51324	45502.375
1523.88607	42748.075
1527.25665	41059.875
1530.62498	40256.575
1533.99105	39621.275
1537.35488	38807.775
1540.71647	37802.775
1544.07581	36556.575
1547.4329	35411.175
1550.78776	34569.975
1554.14038	34097.975
1557.49077	33933.975
1560.83892	34052.475
1564.18484	34486.775
1567.52853	35060.975
1570.86999	35692.575
1574.20922	36473.575
1577.54624	37029.675
1580.88103	36792.775
1584.2136	36149.875
1587.54395	36005.875
1590.87208	36462.275
1594.19801	37597.975
1597.52172	38861.375
1600.84321	39019.975
1604.16251	37542.275
1607.47959	35207.375
1610.79447	32834.075
1614.10715	30502.875
1617.41763	28409.575
1620.7259	26861.275
1624.03199	25947.975
1627.33587	25805.975
1630.63757	26298.775
1633.93707	27605.075
1637.23439	29933.575
1640.52951	33453.875
1643.82246	37967.475
1647.11321	42298.975
1650.40179	44624.775
1653.68819	43086.675
1656.97241	38251.575
1660.25446	32588.375
1663.53433	28009.175
1666.81203	24843.675
1670.08756	22856.875
1673.36092	21601.475
1676.63211	20768.075
1679.90115	20230.375
1683.16801	19803.475
1686.43272	19484.775
1689.69527	19251.175
1692.95567	19079.575
1696.2139	18993.075
1699.46999	18900.875
1702.72392	18787.375
1705.97571	18703.475
1709.22535	18633.475
1712.47284	18621.375
1715.71819	18540.275
1718.96139	18498.975
1722.20246	18416.575
1725.44139	18325.275
1728.67818	18202.275
1731.91284	18099.275
1735.14537	17939.875
1738.37576	17879.575
1741.60403	17804.275
1744.83017	17729.875
1748.05418	17693.475
1751.27607	17664.275
1754.49584	17627.075
1757.71349	17622.575
1760.92903	17556.675
1764.14244	17557.275
1767.35375	17483.375
1770.56294	17449.975
1773.77002	17404.575
1776.97499	17300.775
1780.17785	17268.775
1783.37861	17254.575
1786.57727	17229.575
1789.77382	17169.175
1792.96828	17119.775
1796.16064	17058.475
1799.3509	17031.075
1802.53907	16975.875
1805.72514	16920.375
1808.90913	16869.575
1812.09102	16794.875
1815.27083	16760.675
1818.44856	16754.475
1821.6242	16666.975
1824.79776	16659.975
1827.96924	16659.375
1831.13864	16609.675
1834.30597	16594.575
1837.47122	16538.075
1840.6344	16498.375
1843.7955	16480.875
1846.95454	16469.275
1850.11151	16473.875
1853.26642	16401.275
1856.41926	16383.775
1859.57004	16393.575
1862.71876	16351.675
1865.86542	16339.775
1869.01003	16290.575
1872.15258	16301.275
1875.29308	16272.575
1878.43152	16248.875
1881.56792	16218.375
1884.70227	16221.375
1887.83457	16182.375
1890.96482	16131.175
1894.09304	16120.975
1897.21921	16072.175
1900.34335	16000.275
1903.46544	16024.875
1906.58551	15988.175
1909.70353	15957.375
1912.81953	15933.575
1915.93349	15923.175
1919.04543	15896.475
1922.15534	15865.475
1925.26322	15808.275
1928.36908	15789.675
1931.47292	15756.075
1934.57473	15727.375
1937.67453	15703.975
1940.77232	15626.775
1943.86808	15549.575
1946.96184	15475.575
1950.05358	15422.075
1953.14331	15371.475
1956.23103	15331.875
1959.31675	15280.275
1962.40046	15291.375
1965.48217	15203.575
1968.56188	15165.975
1971.63959	15100.775
1974.7153	15070.375
1977.78901	15000.575
1980.86073	14969.975
1983.93046	14932.775
1986.99819	14843.975
1990.06394	14818.175
1993.1277	14761.275
1996.18947	14678.375
1999.24925	14637.575
2002.30706	14604.475
2005.36288	14545.175
2008.41672	14513.775
2011.46859	14449.975
2014.51848	14419.175
2017.56639	14353.175
2020.61233	14302.675
2023.6563	14269.375
2026.6983	14201.375
2029.73833	14189.275
2032.7764	14111.075
2035.8125	14093.775
2038.84664	14071.675
2041.87881	14056.175
2044.90903	14007.875
2047.93729	13996.675
2050.96359	13973.975
2053.98794	13976.475
2057.01034	13928.075
2060.03078	13927.575
2063.04927	13927.775
2066.06582	13906.275
2069.08042	13878.875
2072.09307	13878.875
2075.10378	13824.075
2078.11255	13822.075
2081.11938	13834.675
2084.12426	13837.475
2087.12722	13779.975
2090.12824	13761.375
2093.12732	13779.875
2096.12447	13763.775
2099.11969	13754.375
2102.11299	13741.875
2105.10435	13750.875
2108.09379	13753.575
2111.08131	13752.975
2114.0669	13745.475
2117.05057	13805.475
2120.03233	13776.875
2123.01216	13778.875
2125.99008	13790.175
2128.96609	13780.975
2131.94018	13791.075
2134.91236	13775.975
2137.88263	13790.375
2140.851	13802.475
2143.81746	13799.575
2146.78201	13788.775
2149.74466	13769.675
2152.7054	13774.275
2155.66425	13765.675
2158.6212	13732.575
2161.57625	13717.975
2164.52941	13695.275
2167.48067	13684.075
2170.43004	13658.275
2173.37752	13677.875
2176.32311	13683.475
2179.26681	13711.975
2182.20863	13675.175
2185.14856	13679.575
2188.08661	13677.575
2191.02278	13681.075
2193.95707	13627.775
2196.88948	13617.775
2199.82001	13559.775
2202.74867	13550.775
2205.67545	13527.275
2208.60037	13499.375
2211.52341	13492.575
2214.44458	13434.675
2217.36388	13423.075
2220.28132	13384.375
2223.1969	13314.375
2226.11061	13313.575
2229.02246	13298.675
2231.93245	13288.775
2234.84058	13255.875
2237.74686	13201.275
2240.65128	13207.175
2243.55385	13194.775
2246.45456	13190.875
2249.35343	13169.875
2252.25044	13143.875
2255.14561	13086.075
2258.03893	13077.675
2260.93041	13059.875
2263.82004	13020.375
2266.70783	13017.275
2269.59378	12941.875
2272.4779	12888.975
2275.36017	12862.075
2278.24061	12856.875
2281.11922	12831.375
2283.996	12808.575
2286.87094	12776.875
2289.74405	12732.675
2292.61534	12717.575
2295.4848	12692.975
2298.35243	12683.475
2301.21824	12690.775
2304.08223	12721.375
2306.94439	12716.575
2309.80474	12651.775
2312.66327	12679.675
2315.51999	12643.975
2318.37489	12590.575
2321.22797	12577.375
2324.07925	12530.475
2326.92871	12563.075
2329.77637	12543.675
2332.62222	12523.975
2335.46626	12512.675
2338.3085	12494.875
2341.14893	12471.475
2343.98756	12448.375
2346.8244	12452.175
2349.65943	12448.575
2352.49267	12461.575
2355.32411	12458.775
2358.15376	12451.775
2360.98161	12471.975
2363.80768	12481.775
2366.63195	12458.075
2369.45444	12462.675
2372.27514	12452.875
2375.09405	12425.875
2377.91118	12392.575
2380.72652	12335.575
2383.54009	12309.875
2386.35187	12304.875
2389.16188	12216.975
2391.97011	12201.975
2394.77657	12137.975
2397.58125	12129.275
2400.38416	12108.375
2403.18529	12061.275
2405.98466	12077.175
2408.78226	12029.775
2411.57809	12021.175
2414.37216	12011.275
2417.16446	12010.775
2419.955	12003.175
2422.74378	11998.775
2425.5308	11963.775
2428.31606	11979.275
2431.09956	11950.875
2433.88131	11961.975
2436.6613	11941.975
2439.43954	11950.675
2442.21603	11922.975
2444.99077	11898.375
2447.76377	11893.975
2450.53501	11906.175
2453.30451	11874.575
2456.07226	11868.675
2458.83827	11867.275
2461.60254	11827.175
2464.36507	11834.075
2467.12586	11860.375
2469.88492	11840.475
2472.64224	11825.275
2475.39782	11839.275
2478.15167	11823.975
2480.90379	11807.475
2483.65417	11800.675
2486.40283	11817.975
2489.14976	11846.775
2491.89497	11814.575
2494.63845	11850.275
2497.3802	11846.775
2500.12024	11814.075
2502.85855	11797.775
2505.59514	11784.575
2508.33002	11747.575
2511.06318	11763.575
2513.79462	11721.975
2516.52435	11695.675
2519.25237	11670.475
2521.97867	11629.175
2524.70327	11600.575
2527.42616	11605.075
2530.14734	11621.775
2532.86681	11566.275
2535.58458	11587.975
2538.30065	11558.775
2541.01501	11573.475
2543.72768	11539.975
2546.43864	11529.175
2549.14791	11516.775
2551.85548	11478.175
2554.56136	11463.375
2557.26554	11446.475
2559.96803	11422.575
2562.66883	11422.375
2565.36794	11408.975
2568.06536	11389.175
2570.7611	11392.875
2573.45514	11346.675
2576.14751	11348.475
2578.83819	11306.175
2581.52719	11331.875
2584.21451	11279.575
2586.90015	11275.375
2589.58411	11262.775
2592.2664	11233.775
2594.94701	11224.775
2597.62594	11201.475
2600.30321	11187.075
2602.9788	11186.675
2605.65273	11175.075
2608.32498	11186.575
2610.99557	11190.375
2613.66449	11186.375
2616.33175	11156.475
2618.99734	11135.475
2621.66128	11139.475
2624.32355	11143.275
2626.98416	11088.775
2629.64311	11077.375
2632.30041	11057.075
2634.95605	11033.575
2637.61004	11035.875
2640.26238	11018.975
2642.91306	11027.975
2645.56209	10991.775
2648.20948	11007.675
2650.85521	10999.675
2653.4993	10989.375
2656.14175	11023.375
2658.78255	11016.875
2661.42171	10999.275
2664.05923	11018.475
2666.6951	10989.775
2669.32934	11021.875
2671.96194	11003.875
2674.59291	11017.775
2677.22224	11013.075
2679.84993	11009.175
2682.476	10965.775
2685.10043	10999.375
2687.72324	10991.875
2690.34441	10967.975
2692.96396	10976.975
2695.58188	10971.475
2698.19818	10952.975
2700.81285	10977.175
2703.4259	10976.975
2706.03733	10961.575
2708.64714	10962.375
2711.25533	10962.475
2713.86191	10977.775
2716.46687	11008.175
2719.07021	10972.675
2721.67194	10990.075
2724.27206	10989.375
2726.87057	11005.775
2729.46747	11016.675
2732.06276	11004.175
2734.65644	10963.075
2737.24852	10973.075
2739.83899	10957.275
2742.42786	10959.075
2745.01513	10940.975
2747.60079	10948.275
2750.18486	10907.375
2752.76733	10875.375
2755.3482	10861.475
2757.92747	10870.175
2760.50515	10850.875
2763.08123	10842.975
2765.65573	10837.975
2768.22863	10818.675
2770.79994	10804.475
2773.36967	10815.475
2775.9378	10807.275
2778.50435	10784.275
2781.06932	10788.475
2783.6327	10797.575
2786.1945	10759.475
2788.75471	10788.975
2791.31335	10768.175
2793.87041	10750.675
2796.42589	10721.775
2798.97979	10718.275
2801.53212	10707.575
2804.08288	10651.875
2806.63206	10648.175
2809.17967	10634.175
2811.72571	10608.675
2814.27018	10615.075
2816.81308	10594.775
2819.35442	10551.575
2821.89419	10525.275
2824.43239	10542.775
2826.96904	10540.175
2829.50412	10545.075
2832.03763	10496.975
2834.56959	10519.375
2837.1	10485.575
2839.62884	10530.075
2842.15613	10533.875
2844.68186	10613.275
2847.20604	10612.275
2849.72867	10624.375
2852.24974	10650.375
2854.76927	10610.575
2857.28724	10614.875
2859.80367	10614.375
2862.31855	10556.875
2864.83189	10521.075
2867.34368	10510.375
2869.85393	10534.975
2872.36264	10545.075
2874.8698	10546.475
2877.37543	10519.875
2879.87952	10499.475
2882.38207	10482.975
2884.88308	10462.675
2887.38256	10486.375
2889.88051	10485.575
2892.37692	10466.075
2894.8718	10485.875
2897.36515	10449.975
2899.85698	10470.675
2902.34727	10491.175
2904.83604	10511.275
2907.32328	10518.775
2909.809	10521.775
2912.29319	10502.575
2914.77587	10504.775
2917.25702	10492.975
2919.73665	10483.275
2922.21476	10497.275
2924.69136	10522.875
2927.16644	10505.675
2929.64	10472.075
2932.11205	10474.875
2934.58258	10433.975
2937.05161	10426.575
2939.51912	10387.075
2941.98513	10359.375
2944.44962	10321.075
2946.91261	10275.875
2949.37409	10310.975
2951.83407	10273.075
2954.29254	10241.775
2956.74951	10246.675
2959.20498	10230.775
2961.65895	10192.075
2964.11142	10193.175
2966.56239	10182.875
2969.01186	10188.475
2971.45984	10155.775
2973.90632	10144.875
2976.35131	10112.375
2978.7948	10080.075
2981.23681	10063.075
2983.67732	10043.975
2986.11635	10022.975
2988.55388	10007.675
2990.98993	9970.875
2993.4245	9930.675
2995.85758	9902.075
2998.28917	9884.075
3000.71928	9857.875
3003.14791	9843.275
3005.57506	9835.175
3008.00073	9779.275
3010.42493	9766.475
3012.84764	9781.475
3015.26888	9756.075
3017.68865	9729.675
3020.10694	9690.775
3022.52376	9682.975
3024.9391	9660.975
3027.35298	9654.875
3029.76539	9662.775
3032.17632	9608.275
3034.5858	9624.675
3036.9938	9605.275
3039.40034	9590.375
3041.80542	9601.975
3044.20903	9567.575
3046.61118	9567.475
3049.01187	9572.875
3051.4111	9537.275
3053.80888	9514.075
3056.20519	9493.475
3058.60005	9448.875
3060.99345	9425.575
3063.3854	9404.475
3065.7759	9371.475
3068.16494	9355.075
3070.55254	9317.575
3072.93868	9291.175
3075.32338	9242.975
3077.70662	9251.175
3080.08842	9223.175
3082.46878	9221.575
3084.84769	9191.475
3087.22515	9205.975
3089.60118	9206.175
3091.97576	9169.475
3094.3489	9179.175
3096.72061	9182.275
3099.09087	9173.375
3101.4597	9156.275
3103.82709	9158.575
3106.19305	9139.475
3108.55757	9156.175
3110.92066	9109.175
3113.28232	9106.675
3115.64255	9058.575
3118.00134	9026.175
3120.35871	9060.475
3122.71466	9015.175
3125.06917	8980.475
3127.42226	8979.975
3129.77393	8997.075
3132.12417	8946.475
3134.47299	8932.175
