Data from AgNPs_FTO_APTES_UA_5uM_CRN_100uM_R6G_10uM_NaF_0.1M_Addition_RamanShift__14__14-52-36-881.txt Node

Date: Mon Feb 07 14:52:36 GMT 2022
User: TCL
Spectrometer: QEP01345
Trigger mode: 4
Integration Time (sec): 7.000000E0
Scans to average: 10
Electric dark correction enabled: true
Nonlinearity correction enabled: false
Boxcar width: 0
XAxis mode: Raman Shifts
Number of Pixels in Spectrum: 1044
>>>>>Begin Spectral Data<<<<<
46.04893	0.625
50.45542	-2.175
54.85868	-0.575
59.25871	0.425
63.6555	57.125
68.04907	60.325
72.43941	61.925
76.82654	62.625
81.21044	69.025
85.59113	71.125
89.96862	73.925
94.34289	73.725
98.71396	76.125
103.08183	81.425
107.4465	82.025
111.80798	86.425
116.16626	87.325
120.52136	95.525
124.87327	101.225
129.222	103.425
133.56755	112.525
137.90993	124.225
142.24913	130.825
146.58517	150.125
150.91804	177.525
155.24774	214.625
159.57429	268.025
163.89768	345.825
168.21792	462.325
172.53501	629.625
176.84895	879.325
181.15975	1245.825
185.46741	1763.725
189.77193	2442.425
194.07331	3259.625
198.37157	4218.625
202.6667	5234.925
206.9587	6246.325
211.24758	7227.725
215.53334	8200.625
219.81599	9193.125
224.09553	10297.525
228.37195	11493.125
232.64527	12810.425
236.91549	14216.525
241.18261	15636.725
245.44663	17047.125
249.70755	18342.025
253.96539	19486.525
258.22014	20445.825
262.4718	21205.125
266.72039	21730.725
270.96589	22041.125
275.20832	22140.525
279.44768	22135.125
283.68397	22012.725
287.91719	21938.325
292.14735	21881.225
296.37445	21885.825
300.59849	21887.125
304.81948	21876.025
309.03742	21732.525
313.25231	21471.125
317.46415	21057.825
321.67296	20525.125
325.87872	20118.625
330.08145	19924.525
334.28114	19901.625
338.47781	20023.125
342.67145	20182.125
346.86207	20400.425
351.04966	20637.325
355.23424	20874.325
359.4158	21061.125
363.59435	21227.725
367.76989	21395.025
371.94243	21446.825
376.11196	21529.425
380.27849	21575.525
384.44203	21633.425
388.60257	21746.525
392.76012	21969.025
396.91468	22290.425
401.06626	22605.025
405.21485	22899.725
409.36047	22931.625
413.50311	22727.625
417.64277	22539.125
421.77947	22500.425
425.9132	22598.825
430.04396	22740.325
434.17176	22823.425
438.2966	22948.425
442.41849	23172.825
446.53742	23506.425
450.6534	23967.525
454.76644	24241.525
458.87653	24399.425
462.98368	24477.925
467.08789	24461.725
471.18916	24384.025
475.2875	24238.425
479.38291	24179.325
483.4754	24089.725
487.56496	23963.825
491.6516	23703.925
495.73531	23444.825
499.81612	23248.525
503.89401	23245.625
507.96899	23320.625
512.04106	23401.025
516.11023	23296.625
520.1765	23158.125
524.23987	22986.025
528.30034	22733.125
532.35792	22572.525
536.41261	22453.925
540.46441	22296.625
544.51333	22340.725
548.55936	22630.125
552.60252	23010.225
556.64279	23436.825
560.6802	23729.325
564.71473	23960.625
568.7464	24333.325
572.7752	24910.625
576.80114	25699.825
580.82422	26339.325
584.84444	26763.325
588.86181	26878.825
592.87633	26835.025
596.888	26676.525
600.89682	26430.025
604.9028	26469.625
608.90594	27257.925
612.90624	28115.325
616.90371	26762.725
620.89834	24047.625
624.89015	22870.925
628.87913	22806.925
632.86528	23024.825
636.84862	23151.825
640.82913	22949.325
644.80683	22573.025
648.78172	22290.625
652.75379	22163.925
656.72306	22235.925
660.68952	22451.825
664.65319	22459.025
668.61405	22308.325
672.57211	22297.825
676.52738	22313.825
680.47986	22367.425
684.42955	22299.825
688.37646	22245.125
692.32058	22277.525
696.26192	22395.425
700.20048	22571.325
704.13626	22733.025
708.06928	22885.525
711.99952	22878.725
715.927	22795.025
719.85171	22684.225
723.77365	22565.225
727.69284	22324.325
731.60928	22134.725
735.52295	21998.625
739.43388	21962.125
743.34206	21978.825
747.24749	22018.325
751.15017	22250.825
755.05012	22541.925
758.94733	23043.325
762.8418	23857.525
766.73354	25093.625
770.62254	26200.625
774.50882	26328.825
778.39237	25415.225
782.27321	24141.825
786.15132	23107.325
790.02671	22495.125
793.89938	22034.525
797.76935	21875.025
801.6366	21785.725
805.50115	21689.325
809.36299	21613.625
813.22213	21530.825
817.07857	21524.225
820.93231	21496.125
824.78336	21527.525
828.63172	21439.325
832.47738	21382.625
836.32036	21331.725
840.16066	21314.525
843.99827	21288.225
847.8332	21253.725
851.66546	21293.425
855.49504	21326.125
859.32195	21326.325
863.1462	21289.425
866.96777	21224.825
870.78668	21243.925
874.60293	21248.125
878.41652	21225.325
882.22745	21273.625
886.03573	21286.225
889.84136	21343.125
893.64433	21287.525
897.44466	21244.425
901.24235	21213.625
905.0374	21181.525
908.8298	21169.725
912.61957	21291.525
916.40671	21465.325
920.19121	21747.625
923.97308	21853.625
927.75233	21742.325
931.52895	21529.825
935.30295	21253.625
939.07433	20980.625
942.84309	20750.325
946.60924	20566.125
950.37278	20481.925
954.13371	20413.625
957.89203	20388.425
961.64774	20381.925
965.40086	20404.625
969.15137	20313.925
972.89929	20251.225
976.64461	20184.425
980.38733	20150.325
984.12747	20095.125
987.86502	20142.925
991.59999	20213.225
995.33237	20265.625
999.06217	20352.525
1002.78939	20534.525
1006.51404	20719.025
1010.23611	20884.325
1013.95561	21034.925
1017.67255	21080.325
1021.38692	20940.325
1025.09872	20873.225
1028.80796	20727.325
1032.51465	20694.825
1036.21877	20720.325
1039.92035	20787.925
1043.61937	20931.025
1047.31584	20977.125
1051.00976	21087.225
1054.70114	21201.625
1058.38998	21390.725
1062.07627	21651.425
1065.76003	21965.825
1069.44126	22174.525
1073.11995	22394.025
1076.79611	22555.825
1080.46974	22620.725
1084.14085	22647.525
1087.80943	22714.925
1091.47549	22895.125
1095.13903	23023.125
1098.80005	22955.325
1102.45857	22595.225
1106.11456	22130.025
1109.76805	21826.325
1113.41903	21696.125
1117.06751	21734.825
1120.71348	21905.625
1124.35696	22048.825
1127.99793	22280.025
1131.63641	22433.425
1135.2724	22379.225
1138.90589	22293.425
1142.5369	22286.925
1146.16542	22387.125
1149.79145	22530.825
1153.415	22773.425
1157.03607	23071.725
1160.65467	23496.625
1164.27079	24157.925
1167.88443	24980.325
1171.49561	25829.825
1175.10432	26904.725
1178.71056	28184.325
1182.31434	29483.225
1185.91565	30403.225
1189.51451	30891.825
1193.11091	30885.425
1196.70485	30308.425
1200.29634	29433.125
1203.88538	28679.025
1207.47197	28141.425
1211.05612	27773.825
1214.63782	27354.125
1218.21708	26764.425
1221.79391	26010.925
1225.36829	25406.925
1228.94024	24982.425
1232.50976	24769.125
1236.07685	24730.525
1239.6415	24703.525
1243.20374	24755.825
1246.76355	24880.925
1250.32093	25174.425
1253.8759	25492.225
1257.42845	25986.525
1260.97859	26527.125
1264.52631	27056.825
1268.07163	27513.325
1271.61453	27981.125
1275.15503	28474.625
1278.69312	29053.925
1282.22882	29664.725
1285.76211	30315.725
1289.29301	30973.525
1292.82151	31989.525
1296.34761	33101.625
1299.87133	34381.525
1303.39266	35602.225
1306.9116	36681.925
1310.42815	37427.025
1313.94233	37725.725
1317.45412	37670.125
1320.96354	37604.125
1324.47058	37707.025
1327.97525	37950.625
1331.47754	38124.025
1334.97747	38418.825
1338.47502	38766.425
1341.97022	39316.225
1345.46305	39674.025
1348.95352	39671.825
1352.44163	39236.925
1355.92738	38651.725
1359.41078	38419.725
1362.89183	38237.225
1366.37053	37471.825
1369.84688	35459.425
1373.32088	33127.525
1376.79254	31323.125
1380.26186	30507.325
1383.72883	30347.925
1387.19347	30337.325
1390.65578	30245.025
1394.11575	29993.525
1397.57339	29956.125
1401.0287	29984.425
1404.48168	30046.825
1407.93234	29830.125
1411.38068	29348.825
1414.82669	28548.325
1418.27039	27529.025
1421.71177	26558.925
1425.15083	25799.325
1428.58758	25327.225
1432.02203	25315.225
1435.45416	25653.625
1438.88399	26068.225
1442.31151	26447.625
1445.73673	26830.525
1449.15965	27205.725
1452.58027	27574.025
1455.9986	27879.325
1459.41463	28169.125
1462.82837	28563.925
1466.23982	29037.425
1469.64898	29333.925
1473.05586	29564.425
1476.46045	29700.225
1479.86276	29663.525
1483.26279	29655.825
1486.66054	29651.025
1490.05602	29839.825
1493.44922	30197.925
1496.84016	30713.825
1500.22882	31609.825
1503.61521	32604.325
1506.99934	33655.725
1510.38121	34361.525
1513.76081	34561.825
1517.13816	34203.325
1520.51324	33633.025
1523.88607	33175.225
1527.25665	32872.225
1530.62498	32668.925
1533.99105	32264.425
1537.35488	31774.425
1540.71647	31115.125
1544.07581	30303.625
1547.4329	29573.625
1550.78776	28880.625
1554.14038	28492.425
1557.49077	28236.825
1560.83892	28224.625
1564.18484	28237.825
1567.52853	28370.625
1570.86999	28518.825
1574.20922	28824.625
1577.54624	29135.525
1580.88103	29131.725
1584.2136	29009.325
1587.54395	29175.925
1590.87208	29714.525
1594.19801	30528.625
1597.52172	31366.825
1600.84321	31515.425
1604.16251	30631.425
1607.47959	29318.325
1610.79447	27835.225
1614.10715	26379.425
1617.41763	24998.325
1620.7259	23938.225
1624.03199	23208.625
1627.33587	22858.325
1630.63757	23099.325
1633.93707	23786.725
1637.23439	25126.425
1640.52951	27154.525
1643.82246	29709.225
1647.11321	32177.425
1650.40179	33547.125
1653.68819	32883.325
1656.97241	30585.925
1660.25446	27534.025
1663.53433	24737.225
1666.81203	22602.125
1670.08756	21088.825
1673.36092	20098.325
1676.63211	19474.625
1679.90115	19039.925
1683.16801	18709.125
1686.43272	18485.025
1689.69527	18283.425
1692.95567	18181.725
1696.2139	18094.225
1699.46999	17973.225
1702.72392	17875.825
1705.97571	17851.825
1709.22535	17757.325
1712.47284	17733.225
1715.71819	17725.125
1718.96139	17651.425
1722.20246	17580.125
1725.44139	17537.025
1728.67818	17415.025
1731.91284	17326.625
1735.14537	17262.625
1738.37576	17190.225
1741.60403	17113.425
1744.83017	17051.525
1748.05418	16979.725
1751.27607	16983.925
1754.49584	16924.025
1757.71349	16931.025
1760.92903	16947.825
1764.14244	16933.325
1767.35375	16915.025
1770.56294	16857.225
1773.77002	16811.625
1776.97499	16755.225
1780.17785	16711.425
1783.37861	16669.125
1786.57727	16644.425
1789.77382	16621.825
1792.96828	16607.025
1796.16064	16520.725
1799.3509	16475.825
1802.53907	16426.625
1805.72514	16368.525
1808.90913	16325.925
1812.09102	16260.625
1815.27083	16252.825
1818.44856	16226.725
1821.6242	16169.825
1824.79776	16168.825
1827.96924	16117.425
1831.13864	16139.925
1834.30597	16121.625
1837.47122	16061.525
1840.6344	16070.425
1843.7955	16054.325
1846.95454	16022.625
1850.11151	16030.225
1853.26642	16012.925
1856.41926	16007.025
1859.57004	15987.125
1862.71876	15987.125
1865.86542	15939.125
1869.01003	15929.325
1872.15258	15866.425
1875.29308	15845.825
1878.43152	15801.425
1881.56792	15808.925
1884.70227	15767.525
1887.83457	15718.325
1890.96482	15696.925
1894.09304	15645.825
1897.21921	15623.625
1900.34335	15609.425
1903.46544	15575.325
1906.58551	15603.225
1909.70353	15570.225
1912.81953	15539.725
1915.93349	15491.525
1919.04543	15453.325
1922.15534	15421.425
1925.26322	15389.825
1928.36908	15337.225
1931.47292	15324.225
1934.57473	15278.525
1937.67453	15205.025
1940.77232	15203.925
1943.86808	15149.125
1946.96184	15123.625
1950.05358	15079.425
1953.14331	15017.925
1956.23103	14991.125
1959.31675	14920.725
1962.40046	14867.925
1965.48217	14820.025
1968.56188	14800.125
1971.63959	14746.325
1974.7153	14682.125
1977.78901	14634.225
1980.86073	14564.525
1983.93046	14515.125
1986.99819	14465.125
1990.06394	14445.125
1993.1277	14372.525
1996.18947	14327.125
1999.24925	14267.025
2002.30706	14196.225
2005.36288	14190.825
2008.41672	14176.525
2011.46859	14077.525
2014.51848	14091.025
2017.56639	14013.025
2020.61233	13966.125
2023.6563	13906.225
2026.6983	13879.925
2029.73833	13818.525
2032.7764	13771.425
2035.8125	13787.425
2038.84664	13725.425
2041.87881	13696.225
2044.90903	13678.725
2047.93729	13627.925
2050.96359	13632.725
2053.98794	13613.225
2057.01034	13604.325
2060.03078	13572.125
2063.04927	13546.925
2066.06582	13567.325
2069.08042	13533.125
2072.09307	13535.725
2075.10378	13495.025
2078.11255	13471.325
2081.11938	13485.625
2084.12426	13491.225
2087.12722	13490.325
2090.12824	13418.025
2093.12732	13436.625
2096.12447	13428.925
2099.11969	13417.425
2102.11299	13422.525
2105.10435	13409.625
2108.09379	13420.925
2111.08131	13447.225
2114.0669	13441.625
2117.05057	13450.225
2120.03233	13444.725
2123.01216	13480.025
2125.99008	13458.225
2128.96609	13456.925
2131.94018	13464.225
2134.91236	13476.425
2137.88263	13473.025
2140.851	13516.525
2143.81746	13499.825
2146.78201	13492.525
2149.74466	13501.225
2152.7054	13478.025
2155.66425	13439.525
2158.6212	13441.825
2161.57625	13409.325
2164.52941	13397.525
2167.48067	13406.925
2170.43004	13380.525
2173.37752	13367.925
2176.32311	13375.125
2179.26681	13339.225
2182.20863	13353.425
2185.14856	13355.825
2188.08661	13357.425
2191.02278	13316.925
2193.95707	13339.425
2196.88948	13295.625
2199.82001	13295.225
2202.74867	13248.825
2205.67545	13251.825
2208.60037	13209.025
2211.52341	13192.525
2214.44458	13228.925
2217.36388	13156.525
2220.28132	13116.125
2223.1969	13070.125
2226.11061	13078.225
2229.02246	13035.925
2231.93245	13016.725
2234.84058	12961.325
2237.74686	12946.925
2240.65128	12931.825
2243.55385	12922.425
2246.45456	12890.625
2249.35343	12873.325
2252.25044	12841.525
2255.14561	12817.925
2258.03893	12813.225
2260.93041	12784.725
2263.82004	12725.725
2266.70783	12707.225
2269.59378	12628.825
2272.4779	12624.825
2275.36017	12566.825
2278.24061	12548.425
2281.11922	12536.325
2283.996	12507.625
2286.87094	12473.025
2289.74405	12468.725
2292.61534	12442.525
2295.4848	12422.225
2298.35243	12385.925
2301.21824	12370.325
2304.08223	12368.925
2306.94439	12332.625
2309.80474	12333.725
2312.66327	12359.025
2315.51999	12339.525
2318.37489	12280.225
2321.22797	12267.125
2324.07925	12243.725
2326.92871	12234.425
2329.77637	12199.025
2332.62222	12182.325
2335.46626	12163.725
2338.3085	12154.325
2341.14893	12134.125
2343.98756	12105.825
2346.8244	12120.125
2349.65943	12087.625
2352.49267	12069.225
2355.32411	12093.125
2358.15376	12046.625
2360.98161	12048.525
2363.80768	12027.525
2366.63195	12056.525
2369.45444	12038.625
2372.27514	12012.425
2375.09405	11989.825
2377.91118	11970.125
2380.72652	11928.125
2383.54009	11892.925
2386.35187	11892.425
2389.16188	11842.125
2391.97011	11818.425
2394.77657	11800.225
2397.58125	11732.425
2400.38416	11770.425
2403.18529	11726.025
2405.98466	11696.325
2408.78226	11666.525
2411.57809	11675.825
2414.37216	11634.025
2417.16446	11655.025
2419.955	11638.825
2422.74378	11631.425
2425.5308	11586.925
2428.31606	11591.225
2431.09956	11595.425
2433.88131	11543.625
2436.6613	11546.625
2439.43954	11549.325
2442.21603	11545.325
2444.99077	11521.225
2447.76377	11496.825
2450.53501	11491.125
2453.30451	11472.325
2456.07226	11446.225
2458.83827	11455.325
2461.60254	11427.725
2464.36507	11409.825
2467.12586	11369.525
2469.88492	11373.625
2472.64224	11396.225
2475.39782	11391.225
2478.15167	11378.025
2480.90379	11350.725
2483.65417	11349.525
2486.40283	11343.525
2489.14976	11337.725
2491.89497	11314.625
2494.63845	11360.025
2497.3802	11321.725
2500.12024	11326.225
2502.85855	11304.625
2505.59514	11272.225
2508.33002	11263.025
2511.06318	11245.025
2513.79462	11231.125
2516.52435	11234.525
2519.25237	11243.825
2521.97867	11191.625
2524.70327	11172.825
2527.42616	11146.225
2530.14734	11140.325
2532.86681	11146.325
2535.58458	11127.025
2538.30065	11113.325
2541.01501	11071.825
2543.72768	11071.125
2546.43864	11071.225
2549.14791	11035.225
2551.85548	11008.025
2554.56136	11032.925
2557.26554	10992.025
2559.96803	10948.425
2562.66883	10949.525
2565.36794	10925.825
2568.06536	10866.225
2570.7611	10850.725
2573.45514	10841.325
2576.14751	10808.225
2578.83819	10793.525
2581.52719	10815.025
2584.21451	10796.425
2586.90015	10770.025
2589.58411	10748.125
2592.2664	10730.125
2594.94701	10684.225
2597.62594	10702.525
2600.30321	10680.825
2602.9788	10668.825
2605.65273	10657.925
2608.32498	10637.425
2610.99557	10609.225
2613.66449	10629.025
2616.33175	10622.025
2618.99734	10625.325
2621.66128	10577.825
2624.32355	10540.725
2626.98416	10528.625
2629.64311	10522.125
2632.30041	10517.625
2634.95605	10496.625
2637.61004	10458.225
2640.26238	10483.525
2642.91306	10468.425
2645.56209	10433.125
2648.20948	10440.325
2650.85521	10460.825
2653.4993	10455.225
2656.14175	10432.925
2658.78255	10447.025
2661.42171	10438.125
2664.05923	10431.125
2666.6951	10422.325
2669.32934	10443.725
2671.96194	10448.025
2674.59291	10444.025
2677.22224	10436.925
2679.84993	10430.525
2682.476	10414.325
2685.10043	10391.625
2687.72324	10384.425
2690.34441	10394.325
2692.96396	10372.625
2695.58188	10381.325
2698.19818	10392.025
2700.81285	10381.325
2703.4259	10422.925
2706.03733	10467.825
2708.64714	10401.725
2711.25533	10415.125
2713.86191	10391.625
2716.46687	10432.825
2719.07021	10399.125
2721.67194	10427.025
2724.27206	10395.925
2726.87057	10388.125
2729.46747	10395.325
2732.06276	10409.825
2734.65644	10405.525
2737.24852	10382.125
2739.83899	10346.725
2742.42786	10332.825
2745.01513	10341.025
2747.60079	10304.925
2750.18486	10308.125
2752.76733	10274.125
2755.3482	10235.825
2757.92747	10254.625
2760.50515	10249.425
2763.08123	10256.325
2765.65573	10219.325
2768.22863	10239.725
2770.79994	10189.525
2773.36967	10217.925
2775.9378	10200.925
2778.50435	10177.625
2781.06932	10178.525
2783.6327	10151.025
2786.1945	10200.125
2788.75471	10167.325
2791.31335	10145.125
2793.87041	10125.425
2796.42589	10065.825
2798.97979	10060.825
2801.53212	10046.625
2804.08288	10027.925
2806.63206	9978.125
2809.17967	9972.925
2811.72571	9966.725
2814.27018	9944.425
2816.81308	9899.725
2819.35442	9905.625
2821.89419	9857.925
2824.43239	9856.425
2826.96904	9851.025
2829.50412	9849.425
2832.03763	9817.625
2834.56959	9807.325
2837.1	9798.525
2839.62884	9832.025
2842.15613	9846.325
2844.68186	9843.325
2847.20604	9838.625
2849.72867	9847.025
2852.24974	9838.825
2854.76927	9848.825
2857.28724	9839.225
2859.80367	9812.725
2862.31855	9782.725
2864.83189	9768.025
2867.34368	9747.425
2869.85393	9772.025
2872.36264	9717.525
2874.8698	9695.525
2877.37543	9674.425
2879.87952	9673.125
2882.38207	9675.925
2884.88308	9664.025
2887.38256	9675.525
2889.88051	9666.125
2892.37692	9676.325
2894.8718	9646.325
2897.36515	9649.725
2899.85698	9657.725
2902.34727	9662.725
2904.83604	9658.125
2907.32328	9694.125
2909.809	9670.525
2912.29319	9662.425
2914.77587	9652.925
2917.25702	9669.825
2919.73665	9663.325
2922.21476	9651.625
2924.69136	9652.825
2927.16644	9643.725
2929.64	9631.725
2932.11205	9605.225
2934.58258	9578.825
2937.05161	9609.825
2939.51912	9598.525
2941.98513	9595.425
2944.44962	9547.225
2946.91261	9504.025
2949.37409	9499.925
2951.83407	9488.825
2954.29254	9470.625
2956.74951	9451.525
2959.20498	9464.825
2961.65895	9453.325
2964.11142	9424.825
2966.56239	9414.825
2969.01186	9446.025
2971.45984	9405.025
2973.90632	9410.925
2976.35131	9377.025
2978.7948	9358.125
2981.23681	9337.925
2983.67732	9310.225
2986.11635	9295.825
2988.55388	9262.325
2990.98993	9234.225
2993.4245	9221.725
2995.85758	9192.025
2998.28917	9157.625
3000.71928	9157.625
3003.14791	9150.925
3005.57506	9092.525
3008.00073	9083.225
3010.42493	8975.425
3012.84764	9063.425
3015.26888	9034.125
3017.68865	9019.525
3020.10694	8993.125
3022.52376	8968.425
3024.9391	8974.425
3027.35298	8968.125
3029.76539	8926.625
3032.17632	8914.025
3034.5858	8900.025
3036.9938	8873.225
3039.40034	8913.325
3041.80542	8886.925
3044.20903	8848.925
3046.61118	8852.525
3049.01187	8819.225
3051.4111	8818.025
3053.80888	8810.025
3056.20519	8787.825
3058.60005	8769.425
3060.99345	8762.325
3063.3854	8735.325
3065.7759	8714.925
3068.16494	8659.725
3070.55254	8627.225
3072.93868	8619.125
3075.32338	8616.125
3077.70662	8602.025
3080.08842	8587.925
3082.46878	8568.525
3084.84769	8539.025
3087.22515	8538.025
3089.60118	8523.925
3091.97576	8521.125
3094.3489	8512.925
3096.72061	8518.625
3099.09087	8504.225
3101.4597	8515.225
3103.82709	8502.725
3106.19305	8489.625
3108.55757	8494.625
3110.92066	8457.625
3113.28232	8462.625
3115.64255	8431.425
3118.00134	8414.325
3120.35871	8391.025
3122.71466	8382.925
3125.06917	8338.725
3127.42226	8333.725
3129.77393	8334.925
3132.12417	8299.725
3134.47299	8328.325
3136.82039	8323.825
3139.16636	8285.125
3141.51092	8309.525
3143.85406	8301.525
