Data from AgNPs_FTO_APTES_UA_5uM_CRN_1uM_R6G_10uM_NaF_0.1M_Addition_RamanShift__25__10-46-26-598.txt Node

Date: Mon Feb 07 10:46:26 GMT 2022
User: TCL
Spectrometer: QEP01345
Trigger mode: 4
Integration Time (sec): 7.000000E0
Scans to average: 10
Electric dark correction enabled: true
Nonlinearity correction enabled: false
Boxcar width: 0
XAxis mode: Raman Shifts
Number of Pixels in Spectrum: 1044
>>>>>Begin Spectral Data<<<<<
46.04893	-0.325
50.45542	-1.525
54.85868	-0.525
59.25871	-0.625
63.6555	91.975
68.04907	97.275
72.43941	104.075
76.82654	104.375
81.21044	110.275
85.59113	111.075
89.96862	120.075
94.34289	121.075
98.71396	123.675
103.08183	130.775
107.4465	134.975
111.80798	135.875
116.16626	142.275
120.52136	146.775
124.87327	154.075
129.222	167.575
133.56755	175.375
137.90993	190.175
142.24913	213.175
146.58517	238.175
150.91804	277.875
155.24774	334.675
159.57429	419.375
163.89768	537.375
168.21792	726.775
172.53501	988.075
176.84895	1382.375
181.15975	1939.075
185.46741	2719.675
189.77193	3752.375
194.07331	5026.975
198.37157	6471.775
202.6667	7992.175
206.9587	9500.875
211.24758	11011.875
215.53334	12593.275
219.81599	14310.175
224.09553	16212.075
228.37195	18382.675
232.64527	20715.075
236.91549	23107.775
241.18261	25374.375
245.44663	27293.175
249.70755	28957.875
253.96539	30451.575
258.22014	31717.575
262.4718	32825.275
266.72039	33683.875
270.96589	34184.875
275.20832	34352.275
279.44768	34250.375
283.68397	34114.375
287.91719	33968.775
292.14735	34042.475
296.37445	34326.075
300.59849	34915.675
304.81948	35733.075
309.03742	36202.775
313.25231	35880.875
317.46415	34434.875
321.67296	32304.675
325.87872	30514.775
330.08145	29637.375
334.28114	29495.675
338.47781	29853.775
342.67145	30517.975
346.86207	31424.375
351.04966	32835.275
355.23424	34421.275
359.4158	35686.175
363.59435	36283.875
367.76989	36455.875
371.94243	36329.175
376.11196	36165.175
380.27849	36014.275
384.44203	35847.475
388.60257	35603.175
392.76012	35662.075
396.91468	36186.575
401.06626	37124.575
405.21485	37924.875
409.36047	37606.675
413.50311	36298.375
417.64277	35074.075
421.77947	34578.075
425.9132	34459.275
430.04396	34537.775
434.17176	34739.075
438.2966	35030.275
442.41849	35634.375
446.53742	36601.075
450.6534	37745.875
454.76644	38613.275
458.87653	38873.775
462.98368	38737.475
467.08789	38202.675
471.18916	37453.375
475.2875	36743.275
479.38291	36221.575
483.4754	35900.075
487.56496	35538.875
491.6516	35107.175
495.73531	34760.575
499.81612	34599.775
503.89401	34854.175
507.96899	35009.575
512.04106	35046.775
516.11023	35081.075
520.1765	34954.175
524.23987	34610.775
528.30034	34056.575
532.35792	33407.675
536.41261	32773.175
540.46441	32160.375
544.51333	32047.875
548.55936	32519.475
552.60252	33496.475
556.64279	34536.075
560.6802	35074.475
564.71473	35525.575
568.7464	36784.275
572.7752	38039.575
576.80114	38105.675
580.82422	37832.775
584.84444	37897.475
588.86181	37911.375
592.87633	37992.975
596.888	38474.375
600.89682	39283.975
604.9028	42208.775
608.90594	50078.575
612.90624	59953.275
616.90371	57292.475
620.89834	42807.875
624.89015	36029.075
628.87913	35046.575
632.86528	35085.675
636.84862	35008.275
640.82913	34166.875
644.80683	32658.375
648.78172	31574.275
652.75379	31445.575
656.72306	32431.175
660.68952	33806.875
664.65319	33777.675
668.61405	32651.275
672.57211	32047.675
676.52738	31984.975
680.47986	31875.775
684.42955	31644.875
688.37646	31511.675
692.32058	31712.275
696.26192	32058.075
700.20048	32535.975
704.13626	32925.975
708.06928	33017.075
711.99952	32675.675
715.927	32446.875
719.85171	32413.075
723.77365	32246.175
727.69284	31752.375
731.60928	31360.775
735.52295	31256.775
739.43388	31359.375
743.34206	31614.475
747.24749	31857.975
751.15017	32334.475
755.05012	33050.875
758.94733	34503.675
762.8418	37624.775
766.73354	42765.775
770.62254	47969.775
774.50882	49715.275
778.39237	46992.975
782.27321	41617.475
786.15132	36719.175
790.02671	33746.675
793.89938	32405.975
797.76935	31847.275
801.6366	31637.375
805.50115	31435.975
809.36299	31219.975
813.22213	30983.775
817.07857	30876.475
820.93231	30919.075
824.78336	30957.075
828.63172	30980.875
832.47738	31129.875
836.32036	31167.275
840.16066	31155.175
843.99827	31285.075
847.8332	31125.275
851.66546	30972.575
855.49504	30853.975
859.32195	30812.475
863.1462	30602.075
866.96777	30382.575
870.78668	30312.575
874.60293	30254.875
878.41652	30332.975
882.22745	30426.975
886.03573	30568.975
889.84136	30583.875
893.64433	30377.775
897.44466	30309.675
901.24235	30228.775
905.0374	30187.375
908.8298	30109.775
912.61957	30143.575
916.40671	30484.575
920.19121	31068.875
923.97308	31654.375
927.75233	32041.875
931.52895	32119.975
935.30295	31625.175
939.07433	30676.875
942.84309	29903.075
946.60924	29531.775
950.37278	29355.975
954.13371	29097.375
957.89203	28888.375
961.64774	28779.575
965.40086	28675.975
969.15137	28592.675
972.89929	28509.575
976.64461	28462.975
980.38733	28528.775
984.12747	28683.975
987.86502	28999.675
991.59999	29450.875
995.33237	30170.575
999.06217	31338.575
1002.78939	32801.375
1006.51404	33850.875
1010.23611	34516.575
1013.95561	34971.675
1017.67255	34972.975
1021.38692	34483.675
1025.09872	34150.275
1028.80796	34526.175
1032.51465	35794.275
1036.21877	36985.175
1039.92035	37108.575
1043.61937	36336.175
1047.31584	35025.375
1051.00976	33757.375
1054.70114	33122.675
1058.38998	32965.975
1062.07627	33132.975
1065.76003	33395.775
1069.44126	33651.775
1073.11995	34143.675
1076.79611	34562.675
1080.46974	34838.675
1084.14085	35359.675
1087.80943	36109.675
1091.47549	36509.775
1095.13903	36204.975
1098.80005	35211.975
1102.45857	34070.775
1106.11456	33297.575
1109.76805	33108.675
1113.41903	33439.575
1117.06751	34021.375
1120.71348	34962.975
1124.35696	35945.975
1127.99793	36874.875
1131.63641	37010.475
1135.2724	36166.775
1138.90589	35144.875
1142.5369	34441.975
1146.16542	34012.975
1149.79145	33879.375
1153.415	34082.275
1157.03607	34609.675
1160.65467	35442.975
1164.27079	36871.475
1167.88443	39074.975
1171.49561	42337.275
1175.10432	47188.475
1178.71056	53386.275
1182.31434	58472.775
1185.91565	60950.075
1189.51451	60814.075
1193.11091	58037.075
1196.70485	54013.975
1200.29634	50315.075
1203.88538	47567.575
1207.47197	45011.475
1211.05612	43035.975
1214.63782	41801.775
1218.21708	41459.175
1221.79391	41743.575
1225.36829	42114.775
1228.94024	42156.475
1232.50976	41775.275
1236.07685	41302.675
1239.6415	40968.075
1243.20374	40719.275
1246.76355	40832.975
1250.32093	41352.275
1253.8759	42522.775
1257.42845	44152.575
1260.97859	45691.975
1264.52631	47048.475
1268.07163	48472.875
1271.61453	50119.475
1275.15503	51812.875
1278.69312	53430.975
1282.22882	54855.775
1285.76211	56272.875
1289.29301	57800.575
1292.82151	59635.175
1296.34761	61858.675
1299.87133	65148.975
1303.39266	69932.875
1306.9116	76604.875
1310.42815	84005.975
1313.94233	89017.975
1317.45412	89150.875
1320.96354	85882.575
1324.47058	81751.275
1327.97525	77983.175
1331.47754	75472.575
1334.97747	74166.375
1338.47502	73899.275
1341.97022	74087.075
1345.46305	74062.175
1348.95352	73812.675
1352.44163	74255.175
1355.92738	76886.175
1359.41078	83395.475
1362.89183	90576.575
1366.37053	89551.475
1369.84688	79584.575
1373.32088	68605.975
1376.79254	61139.675
1380.26186	57449.775
1383.72883	55914.475
1387.19347	54890.175
1390.65578	53834.275
1394.11575	53344.675
1397.57339	53774.975
1401.0287	54882.075
1404.48168	56125.175
1407.93234	57061.675
1411.38068	57274.375
1414.82669	56231.675
1418.27039	54121.775
1421.71177	51666.875
1425.15083	49624.775
1428.58758	48436.775
1432.02203	48283.275
1435.45416	48771.675
1438.88399	49306.375
1442.31151	49833.775
1445.73673	50369.975
1449.15965	51154.675
1452.58027	51600.175
1455.9986	51616.875
1459.41463	51849.475
1462.82837	52442.175
1466.23982	53421.475
1469.64898	54480.575
1473.05586	55073.475
1476.46045	55358.175
1479.86276	55683.075
1483.26279	56108.775
1486.66054	56732.275
1490.05602	57741.575
1493.44922	59309.975
1496.84016	61112.375
1500.22882	63865.775
1503.61521	67805.275
1506.99934	72801.975
1510.38121	77950.975
1513.76081	80911.475
1517.13816	79106.375
1520.51324	73395.775
1523.88607	67151.275
1527.25665	62472.975
1530.62498	59512.975
1533.99105	57646.375
1537.35488	56482.575
1540.71647	55659.975
1544.07581	54849.675
1547.4329	54009.675
1550.78776	53204.175
1554.14038	52771.675
1557.49077	52884.075
1560.83892	53305.975
1564.18484	53870.375
1567.52853	54404.475
1570.86999	54527.775
1574.20922	54769.275
1577.54624	54779.975
1580.88103	53684.975
1584.2136	52439.075
1587.54395	52852.375
1590.87208	55299.475
1594.19801	59396.975
1597.52172	64002.075
1600.84321	65922.475
1604.16251	63287.475
1607.47959	58034.875
1610.79447	52372.075
1614.10715	47351.975
1617.41763	43398.375
1620.7259	40811.875
1624.03199	39576.075
1627.33587	39632.075
1630.63757	40947.475
1633.93707	43609.075
1637.23439	47556.575
1640.52951	52736.575
1643.82246	58680.675
1647.11321	64214.075
1650.40179	66994.575
1653.68819	64158.775
1656.97241	56277.175
1660.25446	47335.175
1663.53433	40506.175
1666.81203	36189.075
1670.08756	33599.275
1673.36092	31992.575
1676.63211	30965.475
1679.90115	30311.175
1683.16801	29809.175
1686.43272	29374.275
1689.69527	29175.975
1692.95567	28960.575
1696.2139	28830.675
1699.46999	28744.275
1702.72392	28639.375
1705.97571	28578.975
1709.22535	28544.075
1712.47284	28497.075
1715.71819	28504.475
1718.96139	28430.575
1722.20246	28402.575
1725.44139	28263.275
1728.67818	28084.575
1731.91284	27863.675
1735.14537	27750.675
1738.37576	27573.975
1741.60403	27505.575
1744.83017	27400.075
1748.05418	27299.975
1751.27607	27237.375
1754.49584	27230.575
1757.71349	27189.175
1760.92903	27142.975
1764.14244	27161.475
1767.35375	27141.975
1770.56294	27118.275
1773.77002	27046.575
1776.97499	27011.875
1780.17785	26941.475
1783.37861	26917.575
1786.57727	26861.775
1789.77382	26827.575
1792.96828	26806.275
1796.16064	26762.275
1799.3509	26743.375
1802.53907	26719.175
1805.72514	26612.075
1808.90913	26551.975
1812.09102	26494.775
1815.27083	26456.875
1818.44856	26441.775
1821.6242	26393.975
1824.79776	26335.075
1827.96924	26315.275
1831.13864	26332.975
1834.30597	26323.175
1837.47122	26282.975
1840.6344	26310.075
1843.7955	26355.575
1846.95454	26388.575
1850.11151	26371.975
1853.26642	26363.075
1856.41926	26397.975
1859.57004	26476.875
1862.71876	26465.175
1865.86542	26479.375
1869.01003	26437.675
1872.15258	26456.375
1875.29308	26502.275
1878.43152	26525.275
1881.56792	26576.875
1884.70227	26583.175
1887.83457	26614.275
1890.96482	26614.575
1894.09304	26675.975
1897.21921	26620.075
1900.34335	26634.375
1903.46544	26655.475
1906.58551	26681.075
1909.70353	26687.975
1912.81953	26663.075
1915.93349	26678.875
1919.04543	26640.775
1922.15534	26577.975
1925.26322	26540.675
1928.36908	26431.075
1931.47292	26310.775
1934.57473	26162.875
1937.67453	26056.775
1940.77232	25896.875
1943.86808	25782.775
1946.96184	25650.475
1950.05358	25557.775
1953.14331	25450.475
1956.23103	25343.175
1959.31675	25262.275
1962.40046	25195.475
1965.48217	25101.175
1968.56188	25077.975
1971.63959	24990.875
1974.7153	24890.175
1977.78901	24817.675
1980.86073	24700.075
1983.93046	24644.175
1986.99819	24557.375
1990.06394	24500.075
1993.1277	24442.075
1996.18947	24349.175
1999.24925	24264.775
2002.30706	24188.675
2005.36288	24120.375
2008.41672	24031.475
2011.46859	23974.675
2014.51848	23903.675
2017.56639	23883.275
2020.61233	23808.375
2023.6563	23780.075
2026.6983	23710.275
2029.73833	23684.975
2032.7764	23633.675
2035.8125	23616.875
2038.84664	23553.175
2041.87881	23552.575
2044.90903	23506.275
2047.93729	23451.375
2050.96359	23383.775
2053.98794	23422.575
2057.01034	23394.375
2060.03078	23387.375
2063.04927	23343.175
2066.06582	23356.075
2069.08042	23363.175
2072.09307	23293.975
2075.10378	23258.775
2078.11255	23208.075
2081.11938	23193.775
2084.12426	23173.875
2087.12722	23182.875
2090.12824	23157.975
2093.12732	23150.075
2096.12447	23170.775
2099.11969	23146.375
2102.11299	23166.575
2105.10435	23132.375
2108.09379	23145.775
2111.08131	23141.675
2114.0669	23169.975
2117.05057	23176.475
2120.03233	23203.275
2123.01216	23253.175
2125.99008	23279.675
2128.96609	23298.875
2131.94018	23298.375
2134.91236	23299.975
2137.88263	23329.775
2140.851	23343.975
2143.81746	23377.275
2146.78201	23379.175
2149.74466	23371.075
2152.7054	23347.775
2155.66425	23334.075
2158.6212	23311.275
2161.57625	23252.075
2164.52941	23297.675
2167.48067	23241.175
2170.43004	23277.575
2173.37752	23312.375
2176.32311	23245.575
2179.26681	23299.675
2182.20863	23273.875
2185.14856	23287.475
2188.08661	23358.775
2191.02278	23330.275
2193.95707	23345.975
2196.88948	23278.175
2199.82001	23273.775
2202.74867	23273.075
2205.67545	23283.475
2208.60037	23255.275
2211.52341	23254.575
2214.44458	23284.775
2217.36388	23208.775
2220.28132	23189.775
2223.1969	23159.075
2226.11061	23103.375
2229.02246	23087.575
2231.93245	23022.275
2234.84058	22955.675
2237.74686	22894.375
2240.65128	22898.775
2243.55385	22839.475
2246.45456	22882.475
2249.35343	22815.875
2252.25044	22766.575
2255.14561	22735.175
2258.03893	22700.375
2260.93041	22700.575
2263.82004	22655.875
2266.70783	22614.375
2269.59378	22558.075
2272.4779	22478.875
2275.36017	22397.475
2278.24061	22395.475
2281.11922	22359.575
2283.996	22303.875
2286.87094	22320.175
2289.74405	22320.275
2292.61534	22294.475
2295.4848	22255.375
2298.35243	22246.475
2301.21824	22218.775
2304.08223	22274.375
2306.94439	22284.175
2309.80474	22346.575
2312.66327	22380.875
2315.51999	22359.275
2318.37489	22332.475
2321.22797	22317.175
2324.07925	22335.075
2326.92871	22313.975
2329.77637	22308.375
2332.62222	22274.975
2335.46626	22270.375
2338.3085	22306.175
2341.14893	22343.575
2343.98756	22359.475
2346.8244	22438.275
2349.65943	22427.075
2352.49267	22405.475
2355.32411	22426.875
2358.15376	22416.375
2360.98161	22415.575
2363.80768	22329.075
2366.63195	22361.575
2369.45444	22312.675
2372.27514	22278.975
2375.09405	22213.475
2377.91118	22158.875
2380.72652	22051.175
2383.54009	22009.075
2386.35187	21959.875
2389.16188	21903.175
2391.97011	21839.975
2394.77657	21839.975
2397.58125	21795.575
2400.38416	21737.575
2403.18529	21710.275
2405.98466	21664.575
2408.78226	21606.975
2411.57809	21535.475
2414.37216	21560.375
2417.16446	21541.675
2419.955	21467.975
2422.74378	21452.675
2425.5308	21427.675
2428.31606	21448.575
2431.09956	21485.075
2433.88131	21429.975
2436.6613	21475.175
2439.43954	21454.975
2442.21603	21461.975
2444.99077	21406.175
2447.76377	21409.475
2450.53501	21370.775
2453.30451	21384.875
2456.07226	21337.275
2458.83827	21413.375
2461.60254	21369.075
2464.36507	21387.875
2467.12586	21358.075
2469.88492	21350.475
2472.64224	21380.075
2475.39782	21423.175
2478.15167	21455.775
2480.90379	21467.775
2483.65417	21500.175
2486.40283	21553.275
2489.14976	21569.875
2491.89497	21597.075
2494.63845	21667.375
2497.3802	21633.875
2500.12024	21629.975
2502.85855	21611.175
2505.59514	21572.175
2508.33002	21544.375
2511.06318	21489.975
2513.79462	21395.675
2516.52435	21403.375
2519.25237	21388.775
2521.97867	21362.275
2524.70327	21340.975
2527.42616	21309.175
2530.14734	21295.975
2532.86681	21300.675
2535.58458	21308.575
2538.30065	21263.475
2541.01501	21301.175
2543.72768	21248.875
2546.43864	21270.375
2549.14791	21241.275
2551.85548	21209.175
2554.56136	21239.075
2557.26554	21191.275
2559.96803	21160.675
2562.66883	21129.875
2565.36794	21101.375
2568.06536	21074.875
2570.7611	21075.075
2573.45514	21081.175
2576.14751	21064.375
2578.83819	21027.875
2581.52719	21077.575
2584.21451	21054.575
2586.90015	21095.675
2589.58411	21082.275
2592.2664	21086.275
2594.94701	21054.475
2597.62594	21032.775
2600.30321	20990.675
2602.9788	21004.775
2605.65273	20999.375
2608.32498	21045.375
2610.99557	21061.175
2613.66449	21091.275
2616.33175	21036.775
2618.99734	21099.075
2621.66128	21089.875
2624.32355	21050.375
2626.98416	21093.775
2629.64311	21105.475
2632.30041	21122.475
2634.95605	21094.875
2637.61004	21073.475
2640.26238	20995.575
2642.91306	20979.875
2645.56209	20965.675
2648.20948	20925.675
2650.85521	20891.875
2653.4993	20891.975
2656.14175	20853.475
2658.78255	20918.775
2661.42171	20917.875
2664.05923	21013.675
2666.6951	20986.575
2669.32934	21001.375
2671.96194	21032.975
2674.59291	21060.775
2677.22224	21073.275
2679.84993	21042.075
2682.476	21036.675
2685.10043	20999.175
2687.72324	20916.375
2690.34441	20936.575
2692.96396	20944.775
2695.58188	20923.475
2698.19818	20885.275
2700.81285	20873.975
2703.4259	20879.275
2706.03733	20939.975
2708.64714	20924.675
2711.25533	20899.375
2713.86191	20885.875
2716.46687	20934.175
2719.07021	20915.375
2721.67194	20941.175
2724.27206	20933.875
2726.87057	20959.975
2729.46747	21020.475
2732.06276	20975.675
2734.65644	20981.575
2737.24852	20976.875
2739.83899	20947.575
2742.42786	20908.075
2745.01513	20882.675
2747.60079	20904.375
2750.18486	20866.075
2752.76733	20876.875
2755.3482	20813.675
2757.92747	20813.275
2760.50515	20817.475
2763.08123	20824.075
2765.65573	20789.275
2768.22863	20801.375
2770.79994	20755.675
2773.36967	20823.175
2775.9378	20812.475
2778.50435	20809.175
2781.06932	20794.375
2783.6327	20807.975
2786.1945	20795.475
2788.75471	20796.475
2791.31335	20757.775
2793.87041	20747.475
2796.42589	20717.775
2798.97979	20707.075
2801.53212	20623.775
2804.08288	20631.275
2806.63206	20543.075
2809.17967	20567.075
2811.72571	20508.775
2814.27018	20509.675
2816.81308	20479.375
2819.35442	20455.575
2821.89419	20471.375
2824.43239	20501.875
2826.96904	20487.275
2829.50412	20482.275
2832.03763	20488.175
2834.56959	20444.575
2837.1	20437.175
2839.62884	20434.375
2842.15613	20440.375
2844.68186	20524.775
2847.20604	20533.675
2849.72867	20541.075
2852.24974	20550.575
2854.76927	20544.275
2857.28724	20531.275
2859.80367	20544.375
2862.31855	20481.975
2864.83189	20484.475
2867.34368	20445.375
2869.85393	20414.175
2872.36264	20372.475
2874.8698	20376.775
2877.37543	20402.575
2879.87952	20395.875
2882.38207	20395.775
2884.88308	20366.975
2887.38256	20353.575
2889.88051	20378.875
2892.37692	20400.675
2894.8718	20392.175
2897.36515	20424.875
2899.85698	20419.475
2902.34727	20487.375
2904.83604	20485.075
2907.32328	20517.975
2909.809	20526.675
2912.29319	20564.675
2914.77587	20550.975
2917.25702	20532.975
2919.73665	20495.775
2922.21476	20456.075
2924.69136	20473.775
2927.16644	20442.875
2929.64	20340.275
2932.11205	20335.875
2934.58258	20249.775
2937.05161	20293.075
2939.51912	20246.975
2941.98513	20206.575
2944.44962	20173.375
2946.91261	20096.075
2949.37409	20140.275
2951.83407	20066.275
2954.29254	20053.475
2956.74951	20015.775
2959.20498	20031.675
2961.65895	19971.375
2964.11142	20018.375
2966.56239	19921.875
2969.01186	19880.875
2971.45984	19834.975
2973.90632	19829.275
2976.35131	19800.875
2978.7948	19757.875
2981.23681	19722.075
2983.67732	19678.775
2986.11635	19652.875
2988.55388	19573.375
2990.98993	19518.875
2993.4245	19471.275
2995.85758	19450.475
2998.28917	19404.575
3000.71928	19347.575
3003.14791	19337.775
3005.57506	19309.075
3008.00073	19227.775
3010.42493	19246.575
3012.84764	19216.375
3015.26888	19192.275
3017.68865	19143.775
3020.10694	19082.475
3022.52376	19055.975
3024.9391	19033.875
3027.35298	19017.175
3029.76539	19042.575
3032.17632	18972.575
3034.5858	18930.875
3036.9938	18938.275
3039.40034	18901.575
3041.80542	18892.975
3044.20903	18848.875
3046.61118	18856.775
3049.01187	18807.275
3051.4111	18759.075
3053.80888	18743.575
3056.20519	18704.475
3058.60005	18649.375
3060.99345	18656.875
3063.3854	18540.475
3065.7759	18470.475
3068.16494	18431.475
3070.55254	18361.775
3072.93868	18331.275
3075.32338	18273.175
3077.70662	18222.275
3080.08842	18165.275
3082.46878	18124.275
3084.84769	18122.675
3087.22515	18172.975
3089.60118	18128.375
3091.97576	18109.375
3094.3489	18099.375
3096.72061	18074.975
3099.09087	18080.275
3101.4597	18027.875
3103.82709	18032.375
3106.19305	18012.975
3108.55757	18013.575
3110.92066	17941.975
3113.28232	17912.875
3115.64255	17874.275
3118.00134	17837.375
3120.35871	17820.475
3122.71466	17746.975
3125.06917	17743.475
3127.42226	17672.875
