Data from AgNPs_FTO_APTES_UA_5uM_CRN_5uM_R6G_10uM_NaF_0.1M_Addition_RamanShift__18__12-05-46-690.txt Node

Date: Mon Feb 07 12:05:46 GMT 2022
User: TCL
Spectrometer: QEP01345
Trigger mode: 4
Integration Time (sec): 7.000000E0
Scans to average: 10
Electric dark correction enabled: true
Nonlinearity correction enabled: false
Boxcar width: 0
XAxis mode: Raman Shifts
Number of Pixels in Spectrum: 1044
>>>>>Begin Spectral Data<<<<<
46.04893	-1.7625
50.45542	-1.2625
54.85868	-0.9625
59.25871	1.0375
63.6555	90.0375
68.04907	94.3375
72.43941	101.3375
76.82654	105.8375
81.21044	108.4375
85.59113	112.7375
89.96862	117.2375
94.34289	116.5375
98.71396	121.6375
103.08183	129.9375
107.4465	133.1375
111.80798	135.1375
116.16626	140.5375
120.52136	145.4375
124.87327	154.0375
129.222	166.0375
133.56755	174.3375
137.90993	190.4375
142.24913	206.5375
146.58517	241.9375
150.91804	281.9375
155.24774	338.6375
159.57429	429.2375
163.89768	554.2375
168.21792	746.1375
172.53501	1026.2375
176.84895	1422.2375
181.15975	2004.6375
185.46741	2807.4375
189.77193	3866.7375
194.07331	5144.2375
198.37157	6618.7375
202.6667	8128.3375
206.9587	9653.2375
211.24758	11139.7375
215.53334	12678.7375
219.81599	14304.0375
224.09553	16100.0375
228.37195	18108.2375
232.64527	20290.6375
236.91549	22518.4375
241.18261	24790.0375
245.44663	26873.4375
249.70755	28728.5375
253.96539	30309.4375
258.22014	31648.3375
262.4718	32896.8375
266.72039	33763.1375
270.96589	34306.5375
275.20832	34574.2375
279.44768	34515.2375
283.68397	34434.8375
287.91719	34400.3375
292.14735	34445.2375
296.37445	34610.9375
300.59849	34761.9375
304.81948	34846.2375
309.03742	34628.3375
313.25231	34047.4375
317.46415	33017.3375
321.67296	31727.2375
325.87872	30690.7375
330.08145	30085.4375
334.28114	29909.4375
338.47781	30053.3375
342.67145	30386.3375
346.86207	30864.7375
351.04966	31499.9375
355.23424	32119.1375
359.4158	32616.4375
363.59435	32971.8375
367.76989	33123.5375
371.94243	33231.9375
376.11196	33355.2375
380.27849	33466.2375
384.44203	33598.9375
388.60257	33863.9375
392.76012	34235.1375
396.91468	34800.3375
401.06626	35362.5375
405.21485	35730.3375
409.36047	35518.0375
413.50311	34914.9375
417.64277	34466.8375
421.77947	34481.9375
425.9132	34713.7375
430.04396	34952.1375
434.17176	35092.7375
438.2966	35313.1375
442.41849	35904.6375
446.53742	36851.0375
450.6534	38069.8375
454.76644	38941.3375
458.87653	39385.8375
462.98368	39384.4375
467.08789	38982.0375
471.18916	38493.2375
475.2875	38135.3375
479.38291	38102.3375
483.4754	37987.9375
487.56496	37475.4375
491.6516	36670.5375
495.73531	35861.1375
499.81612	35379.2375
503.89401	35460.8375
507.96899	35536.2375
512.04106	35388.4375
516.11023	34977.1375
520.1765	34402.5375
524.23987	33734.3375
528.30034	33222.7375
532.35792	32756.9375
536.41261	32302.0375
540.46441	31961.6375
544.51333	32112.0375
548.55936	32718.3375
552.60252	33821.5375
556.64279	34905.0375
560.6802	35698.3375
564.71473	36250.1375
568.7464	37114.1375
572.7752	38443.8375
576.80114	39632.1375
580.82422	40591.3375
584.84444	41270.9375
588.86181	41755.4375
592.87633	42114.0375
596.888	42108.2375
600.89682	41694.1375
604.9028	42604.9375
608.90594	45883.6375
612.90624	48944.9375
616.90371	45199.8375
620.89834	37203.8375
624.89015	33758.3375
628.87913	33561.5375
632.86528	33801.7375
636.84862	33590.6375
640.82913	32837.7375
644.80683	31707.3375
648.78172	30775.0375
652.75379	30523.7375
656.72306	30845.9375
660.68952	31385.8375
664.65319	31227.5375
668.61405	30614.8375
672.57211	30419.3375
676.52738	30442.0375
680.47986	30399.4375
684.42955	30156.0375
688.37646	30081.7375
692.32058	30249.4375
696.26192	30692.5375
700.20048	31076.3375
704.13626	31434.5375
708.06928	31433.6375
711.99952	31226.4375
715.927	31095.5375
719.85171	31186.2375
723.77365	31080.6375
727.69284	30615.5375
731.60928	30118.7375
735.52295	29943.1375
739.43388	29962.7375
743.34206	30015.0375
747.24749	30250.8375
751.15017	30709.3375
755.05012	31455.8375
758.94733	32781.6375
762.8418	34962.1375
766.73354	38216.8375
770.62254	41088.9375
774.50882	41288.4375
778.39237	38695.4375
782.27321	35180.5375
786.15132	32615.9375
790.02671	30997.0375
793.89938	30206.5375
797.76935	29919.9375
801.6366	29871.6375
805.50115	29821.2375
809.36299	29633.5375
813.22213	29295.1375
817.07857	29138.7375
820.93231	29046.6375
824.78336	28821.1375
828.63172	28610.0375
832.47738	28497.9375
836.32036	28492.2375
840.16066	28659.9375
843.99827	28755.2375
847.8332	28662.1375
851.66546	28505.5375
855.49504	28419.4375
859.32195	28384.4375
863.1462	28227.6375
866.96777	28159.9375
870.78668	27995.2375
874.60293	27967.6375
878.41652	27944.5375
882.22745	28017.8375
886.03573	28143.1375
889.84136	28153.0375
893.64433	28014.3375
897.44466	27908.3375
901.24235	27797.4375
905.0374	27622.6375
908.8298	27571.6375
912.61957	27676.9375
916.40671	28090.0375
920.19121	28744.5375
923.97308	29212.4375
927.75233	29198.4375
931.52895	28839.1375
935.30295	28304.9375
939.07433	27528.1375
942.84309	26986.3375
946.60924	26721.4375
950.37278	26643.7375
954.13371	26617.0375
957.89203	26517.0375
961.64774	26480.5375
965.40086	26454.0375
969.15137	26394.3375
972.89929	26219.4375
976.64461	26098.3375
980.38733	26041.0375
984.12747	26116.4375
987.86502	26366.7375
991.59999	26795.3375
995.33237	27402.0375
999.06217	28446.8375
1002.78939	29628.3375
1006.51404	30411.8375
1010.23611	30871.6375
1013.95561	31102.0375
1017.67255	31116.3375
1021.38692	30668.5375
1025.09872	30172.3375
1028.80796	30316.8375
1032.51465	31292.2375
1036.21877	32301.6375
1039.92035	32423.1375
1043.61937	31934.0375
1047.31584	31015.9375
1051.00976	30169.3375
1054.70114	29786.4375
1058.38998	29896.8375
1062.07627	30257.8375
1065.76003	30590.8375
1069.44126	30954.0375
1073.11995	31426.1375
1076.79611	31867.1375
1080.46974	32159.3375
1084.14085	32459.6375
1087.80943	32909.8375
1091.47549	33381.6375
1095.13903	33517.2375
1098.80005	33053.0375
1102.45857	32119.7375
1106.11456	31194.2375
1109.76805	30733.9375
1113.41903	30717.1375
1117.06751	30935.6375
1120.71348	31305.0375
1124.35696	31701.9375
1127.99793	32145.7375
1131.63641	32438.8375
1135.2724	32474.7375
1138.90589	32351.9375
1142.5369	32411.5375
1146.16542	32622.1375
1149.79145	32990.9375
1153.415	33576.8375
1157.03607	34448.9375
1160.65467	35823.7375
1164.27079	37867.6375
1167.88443	40622.3375
1171.49561	43915.6375
1175.10432	47948.1375
1178.71056	52899.3375
1182.31434	57562.8375
1185.91565	60196.6375
1189.51451	60485.7375
1193.11091	58784.9375
1196.70485	56057.5375
1200.29634	53176.9375
1203.88538	50910.0375
1207.47197	49430.1375
1211.05612	48419.0375
1214.63782	47397.2375
1218.21708	46190.3375
1221.79391	45159.4375
1225.36829	44427.1375
1228.94024	43597.6375
1232.50976	42562.0375
1236.07685	41643.1375
1239.6415	41134.4375
1243.20374	40960.0375
1246.76355	41252.6375
1250.32093	42001.6375
1253.8759	43206.4375
1257.42845	44759.4375
1260.97859	46431.9375
1264.52631	48161.8375
1268.07163	49955.7375
1271.61453	51818.4375
1275.15503	53880.5375
1278.69312	56144.7375
1282.22882	58272.0375
1285.76211	60229.9375
1289.29301	62529.3375
1292.82151	65539.6375
1296.34761	69395.9375
1299.87133	74240.4375
1303.39266	79443.9375
1306.9116	84727.9375
1310.42815	89280.9375
1313.94233	91960.8375
1317.45412	92185.2375
1320.96354	91146.2375
1324.47058	90040.0375
1327.97525	89207.7375
1331.47754	88509.5375
1334.97747	88069.9375
1338.47502	87667.3375
1341.97022	86791.3375
1345.46305	85088.9375
1348.95352	82684.6375
1352.44163	80193.8375
1355.92738	79156.2375
1359.41078	80636.0375
1362.89183	82420.2375
1366.37053	80761.3375
1369.84688	74682.5375
1373.32088	67227.9375
1376.79254	62097.6375
1380.26186	60160.4375
1383.72883	60481.2375
1387.19347	61010.3375
1390.65578	61101.9375
1394.11575	61292.9375
1397.57339	62469.6375
1401.0287	64029.2375
1404.48168	65214.5375
1407.93234	65276.6375
1411.38068	63799.1375
1414.82669	60865.4375
1418.27039	57160.4375
1421.71177	53653.9375
1425.15083	50930.3375
1428.58758	49584.0375
1432.02203	49800.0375
1435.45416	51304.9375
1438.88399	53365.2375
1442.31151	55240.2375
1445.73673	56682.8375
1449.15965	57943.4375
1452.58027	58855.3375
1455.9986	59468.5375
1459.41463	60160.3375
1462.82837	61126.3375
1466.23982	62238.5375
1469.64898	63125.4375
1473.05586	63395.3375
1476.46045	62976.2375
1479.86276	61922.8375
1483.26279	60664.7375
1486.66054	59815.1375
1490.05602	59591.5375
1493.44922	59589.6375
1496.84016	59984.5375
1500.22882	60779.6375
1503.61521	62317.5375
1506.99934	64463.3375
1510.38121	66330.2375
1513.76081	67078.4375
1517.13816	66185.3375
1520.51324	64451.8375
1523.88607	62850.0375
1527.25665	62109.7375
1530.62498	61919.8375
1533.99105	61908.5375
1537.35488	61588.3375
1540.71647	60653.3375
1544.07581	59056.6375
1547.4329	57226.7375
1550.78776	55619.0375
1554.14038	54503.4375
1557.49077	53882.2375
1560.83892	53491.2375
1564.18484	53316.3375
1567.52853	53315.8375
1570.86999	53626.7375
1574.20922	54593.6375
1577.54624	55688.8375
1580.88103	56465.3375
1584.2136	57432.3375
1587.54395	59714.8375
1590.87208	63294.7375
1594.19801	67601.5375
1597.52172	71506.6375
1600.84321	72263.7375
1604.16251	68294.3375
1607.47959	61872.7375
1610.79447	55385.0375
1614.10715	49493.7375
1617.41763	44671.1375
1620.7259	41237.9375
1624.03199	39499.9375
1627.33587	39382.4375
1630.63757	41012.0375
1633.93707	44658.2375
1637.23439	50575.4375
1640.52951	58479.1375
1643.82246	66968.5375
1647.11321	72951.4375
1650.40179	73254.7375
1653.68819	67200.5375
1656.97241	57184.7375
1660.25446	47254.9375
1663.53433	39700.4375
1666.81203	34715.3375
1670.08756	31699.6375
1673.36092	29622.2375
1676.63211	28187.0375
1679.90115	27334.1375
1683.16801	26696.6375
1686.43272	26104.8375
1689.69527	25770.2375
1692.95567	25491.8375
1696.2139	25252.8375
1699.46999	25091.3375
1702.72392	24945.9375
1705.97571	24863.1375
1709.22535	24754.0375
1712.47284	24649.5375
1715.71819	24579.6375
1718.96139	24479.5375
1722.20246	24334.0375
1725.44139	24192.3375
1728.67818	24018.0375
1731.91284	23768.6375
1735.14537	23608.4375
1738.37576	23496.9375
1741.60403	23321.1375
1744.83017	23278.4375
1748.05418	23163.7375
1751.27607	23098.2375
1754.49584	23041.3375
1757.71349	22996.3375
1760.92903	22928.7375
1764.14244	22919.7375
1767.35375	22900.3375
1770.56294	22812.3375
1773.77002	22753.0375
1776.97499	22708.7375
1780.17785	22592.8375
1783.37861	22614.4375
1786.57727	22533.3375
1789.77382	22434.0375
1792.96828	22435.6375
1796.16064	22395.6375
1799.3509	22340.5375
1802.53907	22238.9375
1805.72514	22197.0375
1808.90913	22114.9375
1812.09102	22088.6375
1815.27083	22045.1375
1818.44856	21994.2375
1821.6242	21989.3375
1824.79776	21964.3375
1827.96924	21938.9375
1831.13864	21938.0375
1834.30597	21968.7375
1837.47122	21955.6375
1840.6344	21967.6375
1843.7955	22027.7375
1846.95454	22002.3375
1850.11151	22021.6375
1853.26642	21999.1375
1856.41926	21998.7375
1859.57004	22021.7375
1862.71876	21983.3375
1865.86542	21952.4375
1869.01003	21909.0375
1872.15258	21877.6375
1875.29308	21862.0375
1878.43152	21839.5375
1881.56792	21881.9375
1884.70227	21871.7375
1887.83457	21864.8375
1890.96482	21803.0375
1894.09304	21814.0375
1897.21921	21783.7375
1900.34335	21770.5375
1903.46544	21717.3375
1906.58551	21721.6375
1909.70353	21669.6375
1912.81953	21602.1375
1915.93349	21544.3375
1919.04543	21516.6375
1922.15534	21422.6375
1925.26322	21338.9375
1928.36908	21254.4375
1931.47292	21170.4375
1934.57473	21074.3375
1937.67453	21012.0375
1940.77232	20928.6375
1943.86808	20831.0375
1946.96184	20794.7375
1950.05358	20696.3375
1953.14331	20637.6375
1956.23103	20537.5375
1959.31675	20454.5375
1962.40046	20396.0375
1965.48217	20358.6375
1968.56188	20299.6375
1971.63959	20224.3375
1974.7153	20163.5375
1977.78901	20070.8375
1980.86073	19995.5375
1983.93046	19944.0375
1986.99819	19891.7375
1990.06394	19789.0375
1993.1277	19761.5375
1996.18947	19711.1375
1999.24925	19613.7375
2002.30706	19537.1375
2005.36288	19502.9375
2008.41672	19446.6375
2011.46859	19375.1375
2014.51848	19327.9375
2017.56639	19308.5375
2020.61233	19250.7375
2023.6563	19202.9375
2026.6983	19142.9375
2029.73833	19142.9375
2032.7764	19089.5375
2035.8125	19066.2375
2038.84664	19033.4375
2041.87881	19001.2375
2044.90903	18971.3375
2047.93729	18923.6375
2050.96359	18907.6375
2053.98794	18865.9375
2057.01034	18921.5375
2060.03078	18898.4375
2063.04927	18860.7375
2066.06582	18899.8375
2069.08042	18863.5375
2072.09307	18838.9375
2075.10378	18791.9375
2078.11255	18745.1375
2081.11938	18752.3375
2084.12426	18746.6375
2087.12722	18708.8375
2090.12824	18697.7375
2093.12732	18687.4375
2096.12447	18718.6375
2099.11969	18702.4375
2102.11299	18698.0375
2105.10435	18702.0375
2108.09379	18713.0375
2111.08131	18691.3375
2114.0669	18711.4375
2117.05057	18712.6375
2120.03233	18735.4375
2123.01216	18716.4375
2125.99008	18742.1375
2128.96609	18734.5375
2131.94018	18754.0375
2134.91236	18753.4375
2137.88263	18751.5375
2140.851	18768.0375
2143.81746	18775.2375
2146.78201	18749.2375
2149.74466	18762.9375
2152.7054	18757.3375
2155.66425	18732.8375
2158.6212	18725.4375
2161.57625	18712.0375
2164.52941	18708.6375
2167.48067	18684.2375
2170.43004	18699.5375
2173.37752	18682.3375
2176.32311	18660.6375
2179.26681	18675.0375
2182.20863	18673.4375
2185.14856	18699.4375
2188.08661	18686.4375
2191.02278	18736.6375
2193.95707	18753.9375
2196.88948	18708.7375
2199.82001	18672.8375
2202.74867	18650.7375
2205.67545	18616.8375
2208.60037	18610.2375
2211.52341	18586.1375
2214.44458	18582.8375
2217.36388	18563.8375
2220.28132	18518.1375
2223.1969	18503.5375
2226.11061	18479.5375
2229.02246	18455.9375
2231.93245	18417.5375
2234.84058	18388.4375
2237.74686	18309.4375
2240.65128	18286.5375
2243.55385	18255.9375
2246.45456	18194.4375
2249.35343	18177.1375
2252.25044	18151.0375
2255.14561	18104.9375
2258.03893	18072.4375
2260.93041	18039.5375
2263.82004	18018.7375
2266.70783	17968.2375
2269.59378	17869.5375
2272.4779	17846.4375
2275.36017	17763.8375
2278.24061	17755.2375
2281.11922	17712.2375
2283.996	17699.9375
2286.87094	17690.3375
2289.74405	17665.4375
2292.61534	17662.7375
2295.4848	17652.0375
2298.35243	17684.7375
2301.21824	17682.2375
2304.08223	17690.5375
2306.94439	17705.4375
2309.80474	17707.6375
2312.66327	17751.4375
2315.51999	17733.4375
2318.37489	17732.5375
2321.22797	17687.5375
2324.07925	17690.9375
2326.92871	17667.2375
2329.77637	17649.5375
2332.62222	17612.9375
2335.46626	17655.9375
2338.3085	17679.0375
2341.14893	17659.7375
2343.98756	17728.8375
2346.8244	17726.2375
2349.65943	17736.4375
2352.49267	17729.8375
2355.32411	17739.2375
2358.15376	17746.5375
2360.98161	17690.5375
2363.80768	17666.6375
2366.63195	17650.9375
2369.45444	17619.1375
2372.27514	17591.1375
2375.09405	17536.9375
2377.91118	17512.4375
2380.72652	17441.6375
2383.54009	17403.5375
2386.35187	17397.8375
2389.16188	17333.2375
2391.97011	17330.3375
2394.77657	17318.3375
2397.58125	17291.3375
2400.38416	17262.0375
2403.18529	17253.5375
2405.98466	17199.2375
2408.78226	17166.1375
2411.57809	17134.7375
2414.37216	17139.2375
2417.16446	17108.7375
2419.955	17091.7375
2422.74378	17067.5375
2425.5308	17022.2375
2428.31606	17021.3375
2431.09956	17027.5375
2433.88131	17028.3375
2436.6613	17080.0375
2439.43954	17048.2375
2442.21603	17020.2375
2444.99077	17015.3375
2447.76377	17031.8375
2450.53501	17027.2375
2453.30451	17003.4375
2456.07226	17008.2375
2458.83827	17017.1375
2461.60254	16990.8375
2464.36507	17023.5375
2467.12586	17034.8375
2469.88492	17003.7375
2472.64224	17039.8375
2475.39782	17081.8375
2478.15167	17106.0375
2480.90379	17107.6375
2483.65417	17122.2375
2486.40283	17148.3375
2489.14976	17175.4375
2491.89497	17183.0375
2494.63845	17172.0375
2497.3802	17180.5375
2500.12024	17218.0375
2502.85855	17195.7375
2505.59514	17182.1375
2508.33002	17170.4375
2511.06318	17176.2375
2513.79462	17145.8375
2516.52435	17143.6375
2519.25237	17155.5375
2521.97867	17140.4375
2524.70327	17109.4375
2527.42616	17099.1375
2530.14734	17135.2375
2532.86681	17143.8375
2535.58458	17146.9375
2538.30065	17115.4375
2541.01501	17115.6375
2543.72768	17105.3375
2546.43864	17111.9375
2549.14791	17076.5375
2551.85548	17090.5375
2554.56136	17060.9375
2557.26554	17030.3375
2559.96803	16996.9375
2562.66883	17045.3375
2565.36794	17004.0375
2568.06536	16983.8375
2570.7611	17009.0375
2573.45514	17007.0375
2576.14751	16999.8375
2578.83819	16969.1375
2581.52719	17021.0375
2584.21451	16981.4375
2586.90015	17010.1375
2589.58411	17036.8375
2592.2664	17058.0375
2594.94701	17019.9375
2597.62594	17018.8375
2600.30321	17019.3375
2602.9788	17014.0375
2605.65273	17010.2375
2608.32498	17072.0375
2610.99557	17053.1375
2613.66449	17092.2375
2616.33175	17074.5375
2618.99734	17068.5375
2621.66128	17105.6375
2624.32355	17118.4375
2626.98416	17128.8375
2629.64311	17143.7375
2632.30041	17149.9375
2634.95605	17142.1375
2637.61004	17126.5375
2640.26238	17111.9375
2642.91306	17083.2375
2645.56209	17058.3375
2648.20948	17046.1375
2650.85521	17095.6375
2653.4993	17124.4375
2656.14175	17073.8375
2658.78255	17097.2375
2661.42171	17108.9375
2664.05923	17127.9375
2666.6951	17136.9375
2669.32934	17198.5375
2671.96194	17177.2375
2674.59291	17192.4375
2677.22224	17172.1375
2679.84993	17161.9375
2682.476	17170.5375
2685.10043	17136.5375
2687.72324	17087.7375
2690.34441	17068.1375
2692.96396	17050.0375
2695.58188	17066.8375
2698.19818	17035.7375
2700.81285	17051.4375
2703.4259	17037.5375
2706.03733	17076.2375
2708.64714	17088.2375
2711.25533	17097.1375
2713.86191	17078.9375
2716.46687	17113.5375
2719.07021	17105.7375
2721.67194	17172.8375
2724.27206	17154.9375
2726.87057	17224.1375
2729.46747	17188.6375
2732.06276	17230.5375
2734.65644	17227.4375
2737.24852	17234.9375
2739.83899	17227.9375
2742.42786	17246.3375
2745.01513	17206.7375
2747.60079	17204.1375
2750.18486	17202.0375
2752.76733	17220.0375
2755.3482	17173.4375
2757.92747	17199.2375
2760.50515	17190.6375
2763.08123	17190.5375
2765.65573	17197.8375
2768.22863	17206.9375
2770.79994	17190.0375
2773.36967	17171.8375
2775.9378	17217.8375
2778.50435	17216.0375
2781.06932	17228.1375
2783.6327	17205.8375
2786.1945	17249.4375
2788.75471	17237.3375
2791.31335	17218.8375
2793.87041	17195.4375
2796.42589	17109.5375
2798.97979	17140.7375
2801.53212	17113.5375
2804.08288	17100.9375
2806.63206	17003.9375
2809.17967	16986.7375
2811.72571	17004.8375
2814.27018	16941.8375
2816.81308	16939.1375
2819.35442	16904.9375
2821.89419	16881.5375
2824.43239	16908.8375
2826.96904	16897.4375
2829.50412	16881.0375
2832.03763	16832.7375
2834.56959	16798.3375
2837.1	16799.7375
2839.62884	16786.7375
2842.15613	16774.8375
2844.68186	16841.1375
2847.20604	16824.2375
2849.72867	16812.3375
2852.24974	16852.2375
2854.76927	16829.9375
2857.28724	16841.3375
2859.80367	16807.1375
2862.31855	16760.1375
2864.83189	16776.0375
2867.34368	16789.6375
2869.85393	16767.2375
2872.36264	16729.1375
2874.8698	16710.6375
2877.37543	16696.2375
2879.87952	16738.5375
2882.38207	16704.1375
2884.88308	16713.7375
2887.38256	16693.2375
2889.88051	16728.5375
2892.37692	16773.4375
2894.8718	16757.8375
2897.36515	16775.4375
2899.85698	16801.0375
2902.34727	16841.3375
2904.83604	16889.0375
2907.32328	16930.8375
2909.809	16935.5375
2912.29319	16940.5375
2914.77587	16931.0375
2917.25702	16967.0375
2919.73665	16933.8375
2922.21476	16932.6375
2924.69136	16895.2375
2927.16644	16892.0375
2929.64	16879.4375
2932.11205	16806.9375
2934.58258	16754.8375
2937.05161	16772.0375
2939.51912	16765.5375
2941.98513	16730.8375
2944.44962	16675.0375
2946.91261	16622.5375
2949.37409	16634.8375
2951.83407	16587.9375
2954.29254	16631.0375
2956.74951	16576.3375
2959.20498	16556.1375
2961.65895	16528.9375
2964.11142	16513.1375
2966.56239	16467.1375
2969.01186	16473.0375
2971.45984	16423.2375
2973.90632	16416.0375
2976.35131	16351.4375
2978.7948	16308.4375
2981.23681	16288.1375
2983.67732	16280.7375
2986.11635	16226.2375
2988.55388	16211.3375
2990.98993	16132.6375
2993.4245	16066.2375
2995.85758	16017.9375
2998.28917	15963.5375
3000.71928	15970.8375
3003.14791	15917.6375
3005.57506	15903.5375
3008.00073	15838.7375
3010.42493	15728.3375
3012.84764	15800.2375
3015.26888	15807.0375
3017.68865	15715.0375
3020.10694	15698.6375
3022.52376	15674.8375
