Data from AgNPs_FTO_APTES_UA_5uM_CRN_5uM_R6G_10uM_NaF_0.1M_Addition_RamanShift__0__11-44-46-665.txt Node

Date: Mon Feb 07 11:44:46 GMT 2022
User: TCL
Spectrometer: QEP01345
Trigger mode: 4
Integration Time (sec): 7.000000E0
Scans to average: 10
Electric dark correction enabled: true
Nonlinearity correction enabled: false
Boxcar width: 0
XAxis mode: Raman Shifts
Number of Pixels in Spectrum: 1044
>>>>>Begin Spectral Data<<<<<
46.04893	0.325
50.45542	-1.175
54.85868	-0.075
59.25871	-1.075
63.6555	112.325
68.04907	116.625
72.43941	120.025
76.82654	126.025
81.21044	130.125
85.59113	133.425
89.96862	138.925
94.34289	142.025
98.71396	146.625
103.08183	151.225
107.4465	154.425
111.80798	158.725
116.16626	163.525
120.52136	172.325
124.87327	184.525
129.222	195.625
133.56755	208.325
137.90993	227.525
142.24913	255.325
146.58517	298.825
150.91804	341.325
155.24774	414.725
159.57429	520.525
163.89768	676.625
168.21792	903.925
172.53501	1243.625
176.84895	1738.925
181.15975	2454.725
185.46741	3429.225
189.77193	4736.125
194.07331	6322.725
198.37157	8137.825
202.6667	10030.325
206.9587	11915.325
211.24758	13779.825
215.53334	15640.225
219.81599	17655.725
224.09553	19862.525
228.37195	22317.725
232.64527	24908.325
236.91549	27637.625
241.18261	30373.325
245.44663	32898.225
249.70755	35165.425
253.96539	37105.225
258.22014	38751.725
262.4718	40088.825
266.72039	41012.025
270.96589	41427.725
275.20832	41446.325
279.44768	41140.925
283.68397	40801.025
287.91719	40522.625
292.14735	40237.625
296.37445	40251.225
300.59849	40342.225
304.81948	40542.225
309.03742	40678.825
313.25231	40512.825
317.46415	39989.425
321.67296	39290.025
325.87872	38573.925
330.08145	38158.125
334.28114	38057.725
338.47781	38160.325
342.67145	38564.425
346.86207	39227.025
351.04966	39923.525
355.23424	40666.525
359.4158	41288.825
363.59435	41851.625
367.76989	42035.325
371.94243	42199.125
376.11196	42259.925
380.27849	42282.925
384.44203	42413.825
388.60257	42763.125
392.76012	43312.525
396.91468	43956.525
401.06626	44710.425
405.21485	45201.525
409.36047	44968.125
413.50311	44568.425
417.64277	44517.525
421.77947	45040.125
425.9132	45409.425
430.04396	45659.125
434.17176	45797.025
438.2966	46002.225
442.41849	46585.425
446.53742	47894.025
450.6534	49330.325
454.76644	50182.425
458.87653	50354.025
462.98368	49841.325
467.08789	49001.525
471.18916	47929.225
475.2875	47009.325
479.38291	46360.325
483.4754	46006.025
487.56496	45643.825
491.6516	44976.025
495.73531	44259.925
499.81612	43834.225
503.89401	44058.125
507.96899	44364.125
512.04106	44366.025
516.11023	43925.925
520.1765	43204.825
524.23987	42510.225
528.30034	41956.625
532.35792	41524.025
536.41261	40860.525
540.46441	40300.425
544.51333	40197.125
548.55936	40627.025
552.60252	41629.925
556.64279	42826.425
560.6802	43942.225
564.71473	44702.925
568.7464	45823.025
572.7752	47855.425
576.80114	50298.925
580.82422	53014.225
584.84444	56517.825
588.86181	61095.725
592.87633	65140.525
596.888	64637.925
600.89682	59395.725
604.9028	55516.825
608.90594	56186.425
612.90624	58218.625
616.90371	54088.025
620.89834	45956.325
624.89015	42415.725
628.87913	42238.225
632.86528	42610.425
636.84862	42344.525
640.82913	41216.425
644.80683	39919.525
648.78172	39288.725
652.75379	39407.125
656.72306	39884.125
660.68952	40439.125
664.65319	40059.725
668.61405	39263.125
672.57211	39109.825
676.52738	39385.425
680.47986	39319.025
684.42955	38842.925
688.37646	38683.325
692.32058	39012.325
696.26192	39835.025
700.20048	40615.525
704.13626	41095.925
708.06928	41257.025
711.99952	41209.425
715.927	41223.425
719.85171	41387.025
723.77365	41030.725
727.69284	40073.925
731.60928	39223.025
735.52295	38870.025
739.43388	38912.025
743.34206	39061.425
747.24749	39441.025
751.15017	40033.925
755.05012	40933.325
758.94733	42341.925
762.8418	44494.225
766.73354	47433.425
770.62254	50006.525
774.50882	49883.825
778.39237	47288.925
782.27321	44135.625
786.15132	41563.725
790.02671	39926.325
793.89938	39180.825
797.76935	38755.725
801.6366	38649.325
805.50115	38566.925
809.36299	38399.025
813.22213	38122.225
817.07857	37915.425
820.93231	37633.825
824.78336	37290.625
828.63172	37062.525
832.47738	36928.025
836.32036	36914.725
840.16066	36976.725
843.99827	36997.725
847.8332	36984.625
851.66546	37000.725
855.49504	37072.525
859.32195	37057.125
863.1462	36865.425
866.96777	36803.825
870.78668	36735.125
874.60293	36681.825
878.41652	36715.325
882.22745	36841.725
886.03573	36941.725
889.84136	36889.225
893.64433	36744.425
897.44466	36604.525
901.24235	36457.325
905.0374	36354.425
908.8298	36307.025
912.61957	36445.825
916.40671	36901.225
920.19121	37747.525
923.97308	38463.625
927.75233	38544.525
931.52895	37982.325
935.30295	37011.725
939.07433	36101.525
942.84309	35435.425
946.60924	35146.925
950.37278	35086.225
954.13371	35096.725
957.89203	35068.025
961.64774	35112.125
965.40086	35208.325
969.15137	35198.225
972.89929	34943.525
976.64461	34798.325
980.38733	34777.425
984.12747	34819.525
987.86502	34966.525
991.59999	35195.025
995.33237	35631.125
999.06217	36371.525
1002.78939	37431.725
1006.51404	38507.925
1010.23611	39561.825
1013.95561	40078.525
1017.67255	40075.625
1021.38692	39406.925
1025.09872	38352.725
1028.80796	37749.425
1032.51465	37841.125
1036.21877	38193.125
1039.92035	38473.925
1043.61937	38528.725
1047.31584	38329.325
1051.00976	38127.125
1054.70114	38162.525
1058.38998	38340.825
1062.07627	38782.825
1065.76003	39354.225
1069.44126	40089.125
1073.11995	41022.925
1076.79611	41759.725
1080.46974	42042.225
1084.14085	42422.325
1087.80943	43033.725
1091.47549	43652.825
1095.13903	43853.925
1098.80005	43176.225
1102.45857	41705.125
1106.11456	40538.925
1109.76805	39965.925
1113.41903	39844.725
1117.06751	39911.125
1120.71348	40336.625
1124.35696	40723.625
1127.99793	41151.025
1131.63641	41636.725
1135.2724	41758.525
1138.90589	41793.225
1142.5369	42238.425
1146.16542	42813.825
1149.79145	43544.425
1153.415	44276.125
1157.03607	45175.625
1160.65467	46931.425
1164.27079	49958.725
1167.88443	53361.925
1171.49561	56380.625
1175.10432	59817.925
1178.71056	64283.425
1182.31434	68399.225
1185.91565	70093.925
1189.51451	69112.325
1193.11091	66884.525
1196.70485	64566.725
1200.29634	62452.925
1203.88538	61410.425
1207.47197	61656.225
1211.05612	61817.325
1214.63782	60929.225
1218.21708	58750.025
1221.79391	56295.525
1225.36829	54511.125
1228.94024	53431.325
1232.50976	52421.725
1236.07685	51293.725
1239.6415	50507.525
1243.20374	50312.525
1246.76355	50778.825
1250.32093	51886.625
1253.8759	53187.325
1257.42845	54953.125
1260.97859	56915.425
1264.52631	59062.125
1268.07163	61130.125
1271.61453	63325.025
1275.15503	65601.025
1278.69312	68139.625
1282.22882	71087.825
1285.76211	74680.925
1289.29301	78861.325
1292.82151	83467.025
1296.34761	88988.825
1299.87133	95483.825
1303.39266	101733.525
1306.9116	106711.625
1310.42815	109692.825
1313.94233	110331.825
1317.45412	108680.925
1320.96354	106115.925
1324.47058	104262.425
1327.97525	103412.025
1331.47754	103016.025
1334.97747	102140.025
1338.47502	100358.625
1341.97022	97960.825
1345.46305	94974.625
1348.95352	92577.325
1352.44163	91935.825
1355.92738	94076.225
1359.41078	98671.025
1362.89183	102556.325
1366.37053	101961.025
1369.84688	94867.325
1373.32088	83828.025
1376.79254	75652.625
1380.26186	73197.725
1383.72883	74041.625
1387.19347	74697.725
1390.65578	73880.925
1394.11575	73559.625
1397.57339	74796.325
1401.0287	76869.025
1404.48168	78444.825
1407.93234	78584.325
1411.38068	76397.225
1414.82669	72949.425
1418.27039	68895.925
1421.71177	65188.125
1425.15083	62337.525
1428.58758	61283.525
1432.02203	62372.725
1435.45416	64969.025
1438.88399	67802.025
1442.31151	69767.325
1445.73673	70708.325
1449.15965	71054.425
1452.58027	70771.425
1455.9986	70358.425
1459.41463	70445.025
1462.82837	71557.925
1466.23982	73248.825
1469.64898	74809.925
1473.05586	75682.125
1476.46045	75658.725
1479.86276	75003.225
1483.26279	74064.025
1486.66054	73556.725
1490.05602	73787.425
1493.44922	74322.625
1496.84016	74972.325
1500.22882	75482.425
1503.61521	76175.325
1506.99934	77120.825
1510.38121	77918.525
1513.76081	77962.225
1517.13816	77117.725
1520.51324	76434.725
1523.88607	76508.125
1527.25665	77451.525
1530.62498	78162.425
1533.99105	77730.325
1537.35488	76188.625
1540.71647	73661.225
1544.07581	70621.825
1547.4329	67670.325
1550.78776	65362.825
1554.14038	63596.625
1557.49077	62598.025
1560.83892	61894.225
1564.18484	61576.725
1567.52853	61580.325
1570.86999	62195.825
1574.20922	63782.225
1577.54624	65571.525
1580.88103	66720.025
1584.2136	68617.025
1587.54395	72454.725
1590.87208	78173.425
1594.19801	84575.025
1597.52172	89728.925
1600.84321	90056.225
1604.16251	83910.125
1607.47959	74529.025
1610.79447	65331.425
1614.10715	57971.925
1617.41763	52683.925
1620.7259	49449.325
1624.03199	48031.925
1627.33587	48443.925
1630.63757	50796.225
1633.93707	55599.025
1637.23439	63688.025
1640.52951	75437.625
1643.82246	89497.725
1647.11321	100381.625
1650.40179	101226.825
1653.68819	90759.625
1656.97241	74985.325
1660.25446	60829.325
1663.53433	50773.625
1666.81203	44538.025
1670.08756	40693.525
1673.36092	38340.225
1676.63211	36884.425
1679.90115	35851.525
1683.16801	35062.325
1686.43272	34493.625
1689.69527	34026.425
1692.95567	33683.825
1696.2139	33379.725
1699.46999	33227.825
1702.72392	33053.525
1705.97571	32992.325
1709.22535	32808.625
1712.47284	32731.925
1715.71819	32645.725
1718.96139	32550.425
1722.20246	32430.325
1725.44139	32278.725
1728.67818	31979.725
1731.91284	31710.125
1735.14537	31482.725
1738.37576	31313.125
1741.60403	31127.425
1744.83017	31016.925
1748.05418	30895.125
1751.27607	30801.925
1754.49584	30757.225
1757.71349	30668.825
1760.92903	30621.925
1764.14244	30587.325
1767.35375	30569.525
1770.56294	30489.425
1773.77002	30391.425
1776.97499	30288.925
1780.17785	30183.125
1783.37861	30134.625
1786.57727	30092.325
1789.77382	30065.825
1792.96828	29973.025
1796.16064	29921.325
1799.3509	29807.325
1802.53907	29766.625
1805.72514	29665.125
1808.90913	29549.125
1812.09102	29468.425
1815.27083	29403.725
1818.44856	29377.825
1821.6242	29319.825
1824.79776	29292.525
1827.96924	29307.125
1831.13864	29265.825
1834.30597	29262.025
1837.47122	29258.225
1840.6344	29238.725
1843.7955	29295.325
1846.95454	29263.025
1850.11151	29255.725
1853.26642	29162.325
1856.41926	29160.925
1859.57004	29200.425
1862.71876	29094.725
1865.86542	29028.625
1869.01003	29018.125
1872.15258	28923.225
1875.29308	28887.625
1878.43152	28869.325
1881.56792	28885.825
1884.70227	28861.625
1887.83457	28809.825
1890.96482	28734.525
1894.09304	28715.525
1897.21921	28709.925
1900.34335	28629.425
1903.46544	28590.625
1906.58551	28598.925
1909.70353	28489.925
1912.81953	28404.925
1915.93349	28332.325
1919.04543	28317.525
1922.15534	28231.525
1925.26322	28129.325
1928.36908	28069.125
1931.47292	27993.925
1934.57473	27883.925
1937.67453	27804.825
1940.77232	27688.525
1943.86808	27641.325
1946.96184	27523.225
1950.05358	27463.425
1953.14331	27398.725
1956.23103	27321.525
1959.31675	27269.825
1962.40046	27162.225
1965.48217	27087.025
1968.56188	26994.425
1971.63959	26887.325
1974.7153	26758.025
1977.78901	26676.725
1980.86073	26567.925
1983.93046	26472.125
1986.99819	26382.125
1990.06394	26354.825
1993.1277	26290.425
1996.18947	26191.725
1999.24925	26130.525
2002.30706	25996.725
2005.36288	25928.925
2008.41672	25881.225
2011.46859	25804.925
2014.51848	25713.325
2017.56639	25703.525
2020.61233	25614.225
2023.6563	25512.425
2026.6983	25473.425
2029.73833	25420.225
2032.7764	25385.325
2035.8125	25346.925
2038.84664	25260.425
2041.87881	25248.725
2044.90903	25184.025
2047.93729	25101.825
2050.96359	25114.725
2053.98794	25067.125
2057.01034	25069.325
2060.03078	25011.425
2063.04927	25043.425
2066.06582	25010.025
2069.08042	24975.725
2072.09307	24932.825
2075.10378	24903.125
2078.11255	24880.425
2081.11938	24885.925
2084.12426	24853.925
2087.12722	24862.725
2090.12824	24841.225
2093.12732	24826.425
2096.12447	24845.725
2099.11969	24835.725
2102.11299	24853.525
2105.10435	24845.825
2108.09379	24843.825
2111.08131	24826.425
2114.0669	24825.625
2117.05057	24828.225
2120.03233	24810.425
2123.01216	24788.525
2125.99008	24833.225
2128.96609	24882.625
2131.94018	24869.325
2134.91236	24859.325
2137.88263	24833.025
2140.851	24848.125
2143.81746	24846.425
2146.78201	24787.225
2149.74466	24738.725
2152.7054	24752.625
2155.66425	24736.925
2158.6212	24748.725
2161.57625	24677.025
2164.52941	24752.225
2167.48067	24738.925
2170.43004	24707.325
2173.37752	24732.425
2176.32311	24709.025
2179.26681	24709.025
2182.20863	24695.825
2185.14856	24745.225
2188.08661	24751.925
2191.02278	24760.425
2193.95707	24737.425
2196.88948	24655.325
2199.82001	24680.825
2202.74867	24585.125
2205.67545	24572.625
2208.60037	24480.625
2211.52341	24437.925
2214.44458	24406.025
2217.36388	24386.525
2220.28132	24308.325
2223.1969	24252.225
2226.11061	24238.425
2229.02246	24207.825
2231.93245	24242.225
2234.84058	24190.725
2237.74686	24144.825
2240.65128	24126.825
2243.55385	24088.325
2246.45456	24056.625
2249.35343	23942.725
2252.25044	23918.325
2255.14561	23839.025
2258.03893	23821.425
2260.93041	23693.425
2263.82004	23645.125
2266.70783	23574.425
2269.59378	23494.125
2272.4779	23410.525
2275.36017	23346.425
2278.24061	23307.025
2281.11922	23255.125
2283.996	23241.625
2286.87094	23227.125
2289.74405	23169.025
2292.61534	23178.425
2295.4848	23165.925
2298.35243	23179.625
2301.21824	23133.725
2304.08223	23154.025
2306.94439	23163.625
2309.80474	23146.825
2312.66327	23173.125
2315.51999	23107.525
2318.37489	23045.325
2321.22797	23030.425
2324.07925	23011.625
2326.92871	22986.325
2329.77637	22933.325
2332.62222	22896.125
2335.46626	22906.625
2338.3085	22896.525
2341.14893	22885.125
2343.98756	22917.425
2346.8244	22895.525
2349.65943	22943.725
2352.49267	22880.425
2355.32411	22933.025
2358.15376	22863.025
2360.98161	22864.825
2363.80768	22815.225
2366.63195	22834.925
2369.45444	22820.825
2372.27514	22805.125
2375.09405	22747.525
2377.91118	22708.425
2380.72652	22646.425
2383.54009	22547.425
2386.35187	22560.125
2389.16188	22464.925
2391.97011	22474.325
2394.77657	22453.825
2397.58125	22424.225
2400.38416	22368.725
2403.18529	22316.025
2405.98466	22329.625
2408.78226	22256.825
2411.57809	22255.325
2414.37216	22228.525
2417.16446	22258.425
2419.955	22206.525
2422.74378	22213.925
2425.5308	22167.425
2428.31606	22154.425
2431.09956	22142.225
2433.88131	22127.225
2436.6613	22131.525
2439.43954	22135.125
2442.21603	22089.525
2444.99077	22093.325
2447.76377	22060.525
2450.53501	22030.625
2453.30451	22041.525
2456.07226	22022.125
2458.83827	22067.025
2461.60254	22053.725
2464.36507	22046.825
2467.12586	22030.525
2469.88492	21980.725
2472.64224	22019.225
2475.39782	22067.125
2478.15167	22044.225
2480.90379	22027.525
2483.65417	22084.925
2486.40283	22056.225
2489.14976	22082.625
2491.89497	22050.025
2494.63845	22095.225
2497.3802	22077.425
2500.12024	22071.425
2502.85855	22042.025
2505.59514	22062.525
2508.33002	22053.825
2511.06318	21996.725
2513.79462	21993.225
2516.52435	21993.125
2519.25237	21986.425
2521.97867	21986.625
2524.70327	21971.025
2527.42616	21934.125
2530.14734	21951.425
2532.86681	21958.125
2535.58458	22002.425
2538.30065	21959.125
2541.01501	21903.825
2543.72768	21883.925
2546.43864	21923.125
2549.14791	21878.625
2551.85548	21839.625
2554.56136	21846.125
2557.26554	21815.325
2559.96803	21827.725
2562.66883	21800.425
2565.36794	21731.825
2568.06536	21774.225
2570.7611	21743.025
2573.45514	21720.825
2576.14751	21741.225
2578.83819	21699.525
2581.52719	21688.025
2584.21451	21709.025
2586.90015	21693.025
2589.58411	21684.225
2592.2664	21670.525
2594.94701	21668.625
2597.62594	21642.525
2600.30321	21608.725
2602.9788	21651.625
2605.65273	21650.125
2608.32498	21671.225
2610.99557	21644.125
2613.66449	21656.025
2616.33175	21655.925
2618.99734	21660.125
2621.66128	21634.225
2624.32355	21635.025
2626.98416	21566.625
2629.64311	21609.625
2632.30041	21570.525
2634.95605	21553.925
2637.61004	21510.325
2640.26238	21522.125
2642.91306	21548.025
2645.56209	21478.125
2648.20948	21527.825
2650.85521	21559.625
2653.4993	21616.225
2656.14175	21579.725
2658.78255	21655.725
2661.42171	21664.625
2664.05923	21653.625
2666.6951	21653.925
2669.32934	21717.125
2671.96194	21727.125
2674.59291	21693.325
2677.22224	21748.225
2679.84993	21767.725
2682.476	21753.825
2685.10043	21691.525
2687.72324	21663.925
2690.34441	21691.625
2692.96396	21651.925
2695.58188	21661.425
2698.19818	21628.225
2700.81285	21681.025
2703.4259	21679.625
2706.03733	21692.925
2708.64714	21666.525
2711.25533	21669.925
2713.86191	21707.225
2716.46687	21694.025
2719.07021	21751.125
2721.67194	21787.625
2724.27206	21802.625
2726.87057	21855.225
2729.46747	21863.725
2732.06276	21849.525
2734.65644	21867.625
2737.24852	21878.225
2739.83899	21841.725
2742.42786	21829.225
2745.01513	21863.025
2747.60079	21820.125
2750.18486	21815.625
2752.76733	21773.725
2755.3482	21745.425
2757.92747	21782.425
2760.50515	21741.025
2763.08123	21784.525
2765.65573	21768.325
2768.22863	21758.025
2770.79994	21735.725
2773.36967	21704.725
2775.9378	21721.225
2778.50435	21708.025
2781.06932	21700.525
2783.6327	21700.925
2786.1945	21730.425
2788.75471	21748.025
2791.31335	21709.425
2793.87041	21677.925
2796.42589	21652.625
2798.97979	21617.925
2801.53212	21589.825
2804.08288	21551.925
2806.63206	21466.425
2809.17967	21450.025
2811.72571	21406.325
2814.27018	21368.925
2816.81308	21350.825
2819.35442	21301.525
2821.89419	21257.725
2824.43239	21267.225
2826.96904	21235.325
2829.50412	21259.325
2832.03763	21194.725
2834.56959	21170.925
2837.1	21133.725
2839.62884	21107.025
2842.15613	21101.025
2844.68186	21160.625
2847.20604	21160.225
2849.72867	21183.925
2852.24974	21169.925
2854.76927	21162.425
2857.28724	21164.525
2859.80367	21128.925
2862.31855	21064.625
2864.83189	21017.225
2867.34368	20968.825
2869.85393	20954.225
2872.36264	20917.525
2874.8698	20937.825
2877.37543	20903.725
2879.87952	20887.825
2882.38207	20884.325
2884.88308	20883.625
2887.38256	20897.525
2889.88051	20934.125
2892.37692	20919.625
2894.8718	20927.325
2897.36515	20958.225
2899.85698	20967.425
2902.34727	20995.625
2904.83604	21014.325
2907.32328	21062.625
2909.809	21031.225
2912.29319	21013.025
2914.77587	21029.625
2917.25702	21061.425
2919.73665	21035.025
2922.21476	21042.125
2924.69136	21024.825
2927.16644	21040.625
2929.64	20949.325
2932.11205	20966.825
2934.58258	20882.625
2937.05161	20872.725
2939.51912	20877.725
2941.98513	20846.925
2944.44962	20824.325
2946.91261	20729.825
2949.37409	20729.825
2951.83407	20736.225
2954.29254	20694.825
2956.74951	20636.325
2959.20498	20650.925
2961.65895	20640.425
2964.11142	20622.025
2966.56239	20516.725
2969.01186	20563.325
2971.45984	20494.725
2973.90632	20477.125
2976.35131	20426.525
2978.7948	20357.925
2981.23681	20320.325
2983.67732	20286.625
2986.11635	20183.825
2988.55388	20173.025
2990.98993	20112.825
2993.4245	19992.625
2995.85758	19962.125
2998.28917	19913.025
3000.71928	19914.825
3003.14791	19863.425
3005.57506	19804.325
3008.00073	19756.025
3010.42493	19731.125
3012.84764	19693.225
3015.26888	19678.525
3017.68865	19601.425
3020.10694	19556.725
3022.52376	19508.025
3024.9391	19496.025
3027.35298	19427.225
3029.76539	19451.925
3032.17632	19428.825
3034.5858	19387.125
3036.9938	19359.925
3039.40034	19340.625
3041.80542	19358.025
3044.20903	19326.625
3046.61118	19301.725
3049.01187	19260.425
3051.4111	19212.425
3053.80888	19187.325
3056.20519	19183.825
3058.60005	19101.625
3060.99345	19063.925
3063.3854	18959.825
3065.7759	18883.525
3068.16494	18812.525
3070.55254	18759.325
3072.93868	18710.825
3075.32338	18620.325
3077.70662	18580.125
3080.08842	18531.325
3082.46878	18478.925
3084.84769	18474.925
3087.22515	18419.125
3089.60118	18405.325
3091.97576	18392.225
3094.3489	18370.725
3096.72061	18355.125
3099.09087	18366.325
3101.4597	18333.025
3103.82709	18343.125
3106.19305	18283.625
3108.55757	18240.425
3110.92066	18188.325
3113.28232	18191.025
3115.64255	18116.325
3118.00134	18084.425
3120.35871	18058.025
3122.71466	17977.325
3125.06917	17926.425
