Data from AgNPs_FTO_APTES_UA_5uM_CRN_5uM_R6G_10uM_NaF_0.1M_Addition_RamanShift__30__12-19-46-707.txt Node

Date: Mon Feb 07 12:19:46 GMT 2022
User: TCL
Spectrometer: QEP01345
Trigger mode: 4
Integration Time (sec): 7.000000E0
Scans to average: 10
Electric dark correction enabled: true
Nonlinearity correction enabled: false
Boxcar width: 0
XAxis mode: Raman Shifts
Number of Pixels in Spectrum: 1044
>>>>>Begin Spectral Data<<<<<
46.04893	0.0125
50.45542	-2.3875
54.85868	0.4125
59.25871	0.4125
63.6555	55.6125
68.04907	59.9125
72.43941	64.1125
76.82654	66.8125
81.21044	67.8125
85.59113	68.1125
89.96862	76.4125
94.34289	75.9125
98.71396	78.2125
103.08183	82.5125
107.4465	83.7125
111.80798	84.2125
116.16626	82.8125
120.52136	90.0125
124.87327	91.6125
129.222	96.8125
133.56755	103.5125
137.90993	109.5125
142.24913	118.0125
146.58517	134.5125
150.91804	153.3125
155.24774	185.3125
159.57429	232.5125
163.89768	294.7125
168.21792	391.4125
172.53501	529.6125
176.84895	728.6125
181.15975	1025.3125
185.46741	1423.5125
189.77193	1968.9125
194.07331	2629.9125
198.37157	3373.5125
202.6667	4150.7125
206.9587	4943.3125
211.24758	5747.4125
215.53334	6577.5125
219.81599	7560.0125
224.09553	8663.5125
228.37195	9942.2125
232.64527	11274.2125
236.91549	12536.4125
241.18261	13654.4125
245.44663	14548.6125
249.70755	15177.1125
253.96539	15686.6125
258.22014	16143.5125
262.4718	16634.9125
266.72039	16991.4125
270.96589	17264.8125
275.20832	17319.0125
279.44768	17217.5125
283.68397	17075.8125
287.91719	17041.0125
292.14735	17200.1125
296.37445	17676.5125
300.59849	18475.8125
304.81948	19466.6125
309.03742	20235.1125
313.25231	20209.9125
317.46415	19056.6125
321.67296	17203.0125
325.87872	15550.7125
330.08145	14719.0125
334.28114	14615.2125
338.47781	14875.0125
342.67145	15388.8125
346.86207	16200.6125
351.04966	17457.5125
355.23424	18845.6125
359.4158	19905.3125
363.59435	20304.0125
367.76989	20255.9125
371.94243	20050.7125
376.11196	19753.2125
380.27849	19442.5125
384.44203	19080.3125
388.60257	18681.7125
392.76012	18489.1125
396.91468	18700.6125
401.06626	19305.8125
405.21485	19801.0125
409.36047	19380.0125
413.50311	18058.8125
417.64277	16790.2125
421.77947	16050.5125
425.9132	15762.0125
430.04396	15689.9125
434.17176	15698.4125
438.2966	15818.0125
442.41849	16207.7125
446.53742	16695.7125
450.6534	17246.0125
454.76644	17542.2125
458.87653	17543.1125
462.98368	17394.0125
467.08789	17077.1125
471.18916	16655.8125
475.2875	16148.1125
479.38291	15739.2125
483.4754	15400.2125
487.56496	15115.6125
491.6516	14942.8125
495.73531	14942.2125
499.81612	15068.9125
503.89401	15316.4125
507.96899	15597.8125
512.04106	15830.7125
516.11023	16100.6125
520.1765	16255.6125
524.23987	16118.3125
528.30034	15691.9125
532.35792	15158.2125
536.41261	14749.5125
540.46441	14256.2125
544.51333	14035.8125
548.55936	14206.4125
552.60252	14780.0125
556.64279	15358.3125
560.6802	15678.2125
564.71473	16056.2125
568.7464	17000.7125
572.7752	17707.7125
576.80114	17172.6125
580.82422	16427.5125
584.84444	16079.6125
588.86181	15774.5125
592.87633	15596.2125
596.888	15735.8125
600.89682	16445.3125
604.9028	19035.1125
608.90594	26014.7125
612.90624	35642.8125
616.90371	34501.9125
620.89834	22045.6125
624.89015	15980.2125
628.87913	14826.7125
632.86528	14987.0125
636.84862	15392.5125
640.82913	15122.5125
644.80683	14173.1125
648.78172	13501.7125
652.75379	13567.5125
656.72306	14417.5125
660.68952	15517.5125
664.65319	15364.1125
668.61405	14280.8125
672.57211	13659.1125
676.52738	13562.0125
680.47986	13535.2125
684.42955	13341.4125
688.37646	13234.4125
692.32058	13272.2125
696.26192	13495.8125
700.20048	13735.4125
704.13626	13998.1125
708.06928	14055.5125
711.99952	13874.9125
715.927	13778.5125
719.85171	13774.7125
723.77365	13738.4125
727.69284	13506.2125
731.60928	13284.9125
735.52295	13252.9125
739.43388	13292.7125
743.34206	13388.9125
747.24749	13512.9125
751.15017	13668.8125
755.05012	14152.6125
758.94733	15179.7125
762.8418	17573.0125
766.73354	21778.7125
770.62254	26170.6125
774.50882	28118.7125
778.39237	26495.9125
782.27321	22090.0125
786.15132	17726.9125
790.02671	15199.5125
793.89938	14061.5125
797.76935	13567.2125
801.6366	13294.2125
805.50115	13157.7125
809.36299	13046.0125
813.22213	12944.1125
817.07857	12925.3125
820.93231	12899.7125
824.78336	12941.5125
828.63172	13080.0125
832.47738	13092.3125
836.32036	13049.5125
840.16066	12911.1125
843.99827	12793.6125
847.8332	12736.3125
851.66546	12688.5125
855.49504	12674.0125
859.32195	12608.0125
863.1462	12518.7125
866.96777	12434.8125
870.78668	12423.7125
874.60293	12456.4125
878.41652	12494.7125
882.22745	12595.2125
886.03573	12685.0125
889.84136	12640.0125
893.64433	12520.2125
897.44466	12504.7125
901.24235	12527.4125
905.0374	12481.4125
908.8298	12432.9125
912.61957	12389.2125
916.40671	12530.0125
920.19121	12787.1125
923.97308	12965.7125
927.75233	13134.8125
931.52895	13225.8125
935.30295	12994.5125
939.07433	12378.2125
942.84309	11942.0125
946.60924	11666.8125
950.37278	11505.4125
954.13371	11399.7125
957.89203	11355.5125
961.64774	11309.8125
965.40086	11244.4125
969.15137	11232.3125
972.89929	11198.5125
976.64461	11162.1125
980.38733	11174.2125
984.12747	11161.7125
987.86502	11234.6125
991.59999	11322.5125
995.33237	11489.6125
999.06217	11827.7125
1002.78939	12231.9125
1006.51404	12691.3125
1010.23611	13135.1125
1013.95561	13372.2125
1017.67255	13256.6125
1021.38692	12967.8125
1025.09872	12641.4125
1028.80796	12496.0125
1032.51465	12580.5125
1036.21877	12816.1125
1039.92035	13010.3125
1043.61937	13075.0125
1047.31584	13020.3125
1051.00976	12984.2125
1054.70114	12917.1125
1058.38998	12922.1125
1062.07627	13026.4125
1065.76003	13212.5125
1069.44126	13378.5125
1073.11995	13582.2125
1076.79611	13823.3125
1080.46974	14081.7125
1084.14085	14571.2125
1087.80943	15195.0125
1091.47549	15512.4125
1095.13903	15206.5125
1098.80005	14505.3125
1102.45857	13781.2125
1106.11456	13366.3125
1109.76805	13339.9125
1113.41903	13688.9125
1117.06751	14272.8125
1120.71348	15139.0125
1124.35696	16117.0125
1127.99793	17010.7125
1131.63641	16950.2125
1135.2724	15880.6125
1138.90589	14839.6125
1142.5369	14214.2125
1146.16542	13811.0125
1149.79145	13607.4125
1153.415	13598.2125
1157.03607	13842.9125
1160.65467	14301.6125
1164.27079	15057.7125
1167.88443	16212.6125
1171.49561	18085.9125
1175.10432	21215.0125
1178.71056	25315.7125
1182.31434	28027.9125
1185.91565	28480.9125
1189.51451	27391.3125
1193.11091	25302.3125
1196.70485	22801.4125
1200.29634	20973.3125
1203.88538	19572.6125
1207.47197	18026.8125
1211.05612	16637.4125
1214.63782	15837.1125
1218.21708	15583.3125
1221.79391	15595.2125
1225.36829	15796.3125
1228.94024	15978.7125
1232.50976	16164.9125
1236.07685	16215.5125
1239.6415	16175.6125
1243.20374	16099.6125
1246.76355	16142.4125
1250.32093	16386.9125
1253.8759	16822.4125
1257.42845	17466.1125
1260.97859	18263.7125
1264.52631	19088.4125
1268.07163	19835.6125
1271.61453	20602.0125
1275.15503	21164.0125
1278.69312	21396.8125
1282.22882	21593.6125
1285.76211	22152.9125
1289.29301	23107.3125
1292.82151	24008.7125
1296.34761	24973.4125
1299.87133	26394.0125
1303.39266	28945.0125
1306.9116	32987.5125
1310.42815	37796.9125
1313.94233	40892.9125
1317.45412	40404.6125
1320.96354	37485.8125
1324.47058	34015.1125
1327.97525	31002.6125
1331.47754	29034.3125
1334.97747	28210.4125
1338.47502	28044.9125
1341.97022	28484.6125
1345.46305	29481.8125
1348.95352	31233.8125
1352.44163	33647.0125
1355.92738	37347.4125
1359.41078	43593.0125
1362.89183	50171.6125
1366.37053	49285.4125
1369.84688	41006.0125
1373.32088	32575.3125
1376.79254	27275.2125
1380.26186	24719.6125
1383.72883	23388.0125
1387.19347	22385.1125
1390.65578	21331.9125
1394.11575	20460.1125
1397.57339	20077.0125
1401.0287	20115.3125
1404.48168	20349.6125
1407.93234	20670.8125
1411.38068	20833.6125
1414.82669	20623.0125
1418.27039	20133.8125
1421.71177	19491.0125
1425.15083	18853.8125
1428.58758	18434.0125
1432.02203	18398.8125
1435.45416	18547.8125
1438.88399	18680.1125
1442.31151	18707.9125
1445.73673	18904.2125
1449.15965	19098.2125
1452.58027	19121.4125
1455.9986	19005.8125
1459.41463	18910.8125
1462.82837	19147.5125
1466.23982	19631.5125
1469.64898	20189.4125
1473.05586	20577.3125
1476.46045	20864.9125
1479.86276	21267.4125
1483.26279	21938.2125
1486.66054	22706.2125
1490.05602	23707.4125
1493.44922	25084.0125
1496.84016	27206.0125
1500.22882	30569.1125
1503.61521	35127.9125
1506.99934	40257.3125
1510.38121	45342.3125
1513.76081	48177.5125
1517.13816	46340.4125
1520.51324	40420.4125
1523.88607	33888.0125
1527.25665	29290.1125
1530.62498	26554.6125
1533.99105	24862.9125
1537.35488	23703.3125
1540.71647	22860.6125
1544.07581	22370.1125
1547.4329	22023.5125
1550.78776	21749.7125
1554.14038	21724.1125
1557.49077	21954.8125
1560.83892	22643.7125
1564.18484	23589.2125
1567.52853	24600.7125
1570.86999	25287.7125
1574.20922	25711.3125
1577.54624	25504.6125
1580.88103	23919.5125
1584.2136	21847.6125
1587.54395	20809.7125
1590.87208	21193.4125
1594.19801	22556.5125
1597.52172	24377.1125
1600.84321	25008.6125
1604.16251	23704.1125
1607.47959	21715.0125
1610.79447	19760.8125
1614.10715	17898.9125
1617.41763	16379.9125
1620.7259	15442.8125
1624.03199	14995.9125
1627.33587	15061.2125
1630.63757	15539.3125
1633.93707	16589.2125
1637.23439	18291.2125
1640.52951	20679.1125
1643.82246	23863.1125
1647.11321	27741.7125
1650.40179	30808.2125
1653.68819	30427.8125
1656.97241	25999.6125
1660.25446	20605.7125
1663.53433	16650.7125
1666.81203	14263.0125
1670.08756	12879.7125
1673.36092	12099.9125
1676.63211	11601.8125
1679.90115	11269.8125
1683.16801	11018.8125
1686.43272	10826.3125
1689.69527	10692.9125
1692.95567	10583.7125
1696.2139	10507.7125
1699.46999	10477.5125
1702.72392	10425.2125
1705.97571	10395.3125
1709.22535	10384.9125
1712.47284	10388.2125
1715.71819	10390.6125
1718.96139	10405.0125
1722.20246	10360.8125
1725.44139	10308.6125
1728.67818	10214.9125
1731.91284	10094.8125
1735.14537	9983.8125
1738.37576	9879.3125
1741.60403	9862.5125
1744.83017	9770.3125
1748.05418	9740.9125
1751.27607	9689.1125
1754.49584	9667.6125
1757.71349	9642.4125
1760.92903	9623.5125
1764.14244	9617.3125
1767.35375	9581.8125
1770.56294	9532.8125
1773.77002	9493.6125
1776.97499	9451.3125
1780.17785	9407.9125
1783.37861	9377.8125
1786.57727	9350.0125
1789.77382	9307.0125
1792.96828	9320.5125
1796.16064	9308.4125
1799.3509	9292.0125
1802.53907	9259.9125
1805.72514	9217.6125
1808.90913	9197.9125
1812.09102	9149.0125
1815.27083	9117.8125
1818.44856	9103.8125
1821.6242	9074.1125
1824.79776	9078.2125
1827.96924	9056.3125
1831.13864	9052.1125
1834.30597	9018.5125
1837.47122	9019.7125
1840.6344	9019.1125
1843.7955	9007.2125
1846.95454	9038.3125
1850.11151	8999.6125
1853.26642	9010.2125
1856.41926	9013.5125
1859.57004	9009.8125
1862.71876	9037.8125
1865.86542	9050.9125
1869.01003	9025.2125
1872.15258	9047.5125
1875.29308	9071.3125
1878.43152	9097.5125
1881.56792	9093.8125
1884.70227	9141.6125
1887.83457	9162.7125
1890.96482	9161.9125
1894.09304	9170.5125
1897.21921	9183.4125
1900.34335	9171.0125
1903.46544	9191.5125
1906.58551	9190.7125
1909.70353	9215.7125
1912.81953	9208.5125
1915.93349	9226.1125
1919.04543	9203.4125
1922.15534	9211.5125
1925.26322	9155.1125
1928.36908	9107.1125
1931.47292	9045.9125
1934.57473	8963.3125
1937.67453	8869.4125
1940.77232	8802.2125
1943.86808	8720.9125
1946.96184	8655.0125
1950.05358	8621.8125
1953.14331	8579.5125
1956.23103	8511.1125
1959.31675	8474.4125
1962.40046	8446.9125
1965.48217	8405.5125
1968.56188	8410.3125
1971.63959	8381.9125
1974.7153	8346.6125
1977.78901	8324.2125
1980.86073	8276.7125
1983.93046	8224.1125
1986.99819	8194.3125
1990.06394	8156.6125
1993.1277	8130.8125
1996.18947	8128.2125
1999.24925	8067.1125
2002.30706	8054.1125
2005.36288	8011.8125
2008.41672	7968.3125
2011.46859	7974.6125
2014.51848	7935.4125
2017.56639	7915.5125
2020.61233	7869.3125
2023.6563	7845.9125
2026.6983	7830.4125
2029.73833	7796.8125
2032.7764	7787.4125
2035.8125	7764.5125
2038.84664	7752.4125
2041.87881	7727.6125
2044.90903	7712.8125
2047.93729	7681.3125
2050.96359	7667.4125
2053.98794	7668.5125
2057.01034	7643.3125
2060.03078	7654.3125
2063.04927	7633.3125
2066.06582	7641.7125
2069.08042	7615.0125
2072.09307	7590.4125
2075.10378	7589.5125
2078.11255	7585.0125
2081.11938	7570.0125
2084.12426	7548.8125
2087.12722	7552.4125
2090.12824	7557.3125
2093.12732	7555.0125
2096.12447	7552.4125
2099.11969	7536.9125
2102.11299	7531.7125
2105.10435	7527.6125
2108.09379	7534.9125
2111.08131	7550.8125
2114.0669	7561.9125
2117.05057	7553.9125
2120.03233	7537.5125
2123.01216	7543.9125
2125.99008	7565.3125
2128.96609	7568.4125
2131.94018	7562.6125
2134.91236	7564.4125
2137.88263	7566.9125
2140.851	7549.9125
2143.81746	7558.8125
2146.78201	7542.0125
2149.74466	7519.4125
2152.7054	7517.4125
2155.66425	7510.5125
2158.6212	7484.9125
2161.57625	7473.7125
2164.52941	7472.3125
2167.48067	7488.4125
2170.43004	7482.7125
2173.37752	7471.4125
2176.32311	7466.0125
2179.26681	7471.2125
2182.20863	7469.6125
2185.14856	7470.1125
2188.08661	7480.9125
2191.02278	7454.3125
2193.95707	7437.0125
2196.88948	7432.4125
2199.82001	7431.0125
2202.74867	7400.6125
2205.67545	7394.9125
2208.60037	7376.2125
2211.52341	7388.0125
2214.44458	7365.2125
2217.36388	7369.8125
2220.28132	7348.5125
2223.1969	7299.5125
2226.11061	7265.2125
2229.02246	7286.1125
2231.93245	7257.3125
2234.84058	7242.3125
2237.74686	7232.9125
2240.65128	7221.0125
2243.55385	7201.7125
2246.45456	7203.9125
2249.35343	7207.0125
2252.25044	7194.0125
2255.14561	7187.9125
2258.03893	7182.2125
2260.93041	7190.2125
2263.82004	7163.8125
2266.70783	7165.6125
2269.59378	7129.1125
2272.4779	7097.5125
2275.36017	7082.5125
2278.24061	7080.5125
2281.11922	7061.8125
2283.996	7045.9125
2286.87094	7034.7125
2289.74405	7025.8125
2292.61534	6987.9125
2295.4848	6977.3125
2298.35243	6959.8125
2301.21824	6953.8125
2304.08223	6941.4125
2306.94439	6934.2125
2309.80474	6958.8125
2312.66327	6956.8125
2315.51999	6959.6125
2318.37489	6938.3125
2321.22797	6923.2125
2324.07925	6914.0125
2326.92871	6904.0125
2329.77637	6915.5125
2332.62222	6885.3125
2335.46626	6886.7125
2338.3085	6878.6125
2341.14893	6889.8125
2343.98756	6900.3125
2346.8244	6910.2125
2349.65943	6917.7125
2352.49267	6917.2125
2355.32411	6966.5125
2358.15376	6957.9125
2360.98161	6996.9125
2363.80768	6999.2125
2366.63195	7009.7125
2369.45444	7024.1125
2372.27514	7009.7125
2375.09405	7022.2125
2377.91118	6948.6125
2380.72652	6932.2125
2383.54009	6868.0125
2386.35187	6853.9125
2389.16188	6817.2125
2391.97011	6788.2125
2394.77657	6757.7125
2397.58125	6734.3125
2400.38416	6716.0125
2403.18529	6703.8125
2405.98466	6670.3125
2408.78226	6665.9125
2411.57809	6651.3125
2414.37216	6640.8125
2417.16446	6629.3125
2419.955	6620.8125
2422.74378	6617.2125
2425.5308	6599.1125
2428.31606	6605.3125
2431.09956	6596.2125
2433.88131	6605.7125
2436.6613	6623.8125
2439.43954	6619.2125
2442.21603	6616.1125
2444.99077	6613.4125
2447.76377	6619.8125
2450.53501	6616.9125
2453.30451	6625.3125
2456.07226	6631.3125
2458.83827	6620.1125
2461.60254	6627.0125
2464.36507	6607.6125
2467.12586	6616.1125
2469.88492	6620.6125
2472.64224	6588.0125
2475.39782	6623.9125
2478.15167	6661.6125
2480.90379	6656.4125
2483.65417	6698.0125
2486.40283	6693.0125
2489.14976	6705.3125
2491.89497	6736.0125
2494.63845	6771.2125
2497.3802	6747.5125
2500.12024	6735.3125
2502.85855	6721.0125
2505.59514	6698.6125
2508.33002	6655.4125
2511.06318	6649.0125
2513.79462	6588.0125
2516.52435	6559.3125
2519.25237	6560.9125
2521.97867	6519.4125
2524.70327	6473.0125
2527.42616	6474.8125
2530.14734	6453.4125
2532.86681	6457.7125
2535.58458	6458.5125
2538.30065	6428.8125
2541.01501	6454.8125
2543.72768	6462.7125
2546.43864	6454.7125
2549.14791	6459.1125
2551.85548	6448.4125
2554.56136	6426.5125
2557.26554	6428.8125
2559.96803	6420.4125
2562.66883	6420.5125
2565.36794	6397.5125
2568.06536	6393.2125
2570.7611	6382.5125
2573.45514	6370.3125
2576.14751	6341.7125
2578.83819	6337.9125
2581.52719	6337.2125
2584.21451	6345.7125
2586.90015	6347.3125
2589.58411	6333.2125
2592.2664	6340.4125
2594.94701	6331.7125
2597.62594	6316.6125
2600.30321	6327.8125
2602.9788	6308.3125
2605.65273	6306.5125
2608.32498	6329.4125
2610.99557	6313.9125
2613.66449	6316.8125
2616.33175	6322.3125
2618.99734	6317.3125
2621.66128	6302.5125
2624.32355	6291.6125
2626.98416	6284.7125
2629.64311	6264.9125
2632.30041	6279.1125
2634.95605	6259.0125
2637.61004	6244.0125
2640.26238	6229.0125
2642.91306	6241.3125
2645.56209	6202.5125
2648.20948	6206.4125
2650.85521	6205.7125
2653.4993	6208.8125
2656.14175	6207.6125
2658.78255	6206.8125
2661.42171	6214.0125
2664.05923	6238.4125
2666.6951	6236.4125
2669.32934	6266.1125
2671.96194	6267.7125
2674.59291	6264.5125
2677.22224	6281.9125
2679.84993	6299.4125
2682.476	6292.2125
2685.10043	6264.9125
2687.72324	6268.9125
2690.34441	6260.8125
2692.96396	6266.6125
2695.58188	6231.9125
2698.19818	6260.4125
2700.81285	6252.2125
2703.4259	6246.4125
2706.03733	6269.4125
2708.64714	6258.9125
2711.25533	6252.3125
2713.86191	6263.6125
2716.46687	6268.8125
2719.07021	6265.1125
2721.67194	6282.9125
2724.27206	6280.2125
2726.87057	6270.5125
2729.46747	6285.7125
2732.06276	6280.7125
2734.65644	6264.7125
2737.24852	6252.1125
2739.83899	6223.3125
2742.42786	6231.6125
2745.01513	6210.7125
2747.60079	6212.0125
2750.18486	6186.8125
2752.76733	6187.0125
2755.3482	6168.0125
2757.92747	6167.6125
2760.50515	6155.3125
2763.08123	6141.3125
2765.65573	6153.4125
2768.22863	6131.1125
2770.79994	6132.5125
2773.36967	6113.8125
2775.9378	6113.2125
2778.50435	6113.1125
2781.06932	6100.6125
2783.6327	6117.6125
2786.1945	6133.1125
2788.75471	6129.7125
2791.31335	6100.7125
2793.87041	6114.6125
2796.42589	6098.2125
2798.97979	6091.8125
2801.53212	6093.5125
2804.08288	6084.9125
2806.63206	6063.7125
2809.17967	6094.4125
2811.72571	6090.6125
2814.27018	6092.6125
2816.81308	6098.2125
2819.35442	6110.9125
2821.89419	6121.8125
2824.43239	6144.2125
2826.96904	6150.2125
2829.50412	6161.3125
2832.03763	6133.6125
2834.56959	6159.8125
2837.1	6141.0125
2839.62884	6167.2125
2842.15613	6186.7125
2844.68186	6267.9125
2847.20604	6308.2125
2849.72867	6355.7125
2852.24974	6375.2125
2854.76927	6385.7125
2857.28724	6391.2125
2859.80367	6363.8125
2862.31855	6337.5125
2864.83189	6338.3125
2867.34368	6330.5125
2869.85393	6343.9125
2872.36264	6323.9125
2874.8698	6313.5125
2877.37543	6308.1125
2879.87952	6310.5125
2882.38207	6284.3125
2884.88308	6260.2125
2887.38256	6274.2125
2889.88051	6273.1125
2892.37692	6244.0125
2894.8718	6269.4125
2897.36515	6268.0125
2899.85698	6254.5125
2902.34727	6277.5125
2904.83604	6287.3125
2907.32328	6312.9125
2909.809	6296.3125
2912.29319	6307.8125
2914.77587	6287.2125
2917.25702	6282.0125
2919.73665	6272.6125
2922.21476	6274.5125
2924.69136	6257.3125
2927.16644	6261.9125
2929.64	6244.9125
2932.11205	6205.4125
2934.58258	6179.7125
2937.05161	6161.2125
2939.51912	6140.6125
2941.98513	6102.0125
2944.44962	6066.7125
2946.91261	6018.1125
2949.37409	5982.5125
2951.83407	5961.7125
2954.29254	5933.3125
2956.74951	5936.0125
2959.20498	5919.2125
2961.65895	5900.6125
2964.11142	5899.1125
2966.56239	5878.6125
2969.01186	5848.0125
2971.45984	5840.6125
2973.90632	5812.6125
2976.35131	5801.6125
2978.7948	5784.7125
2981.23681	5767.0125
2983.67732	5733.0125
2986.11635	5726.5125
2988.55388	5712.3125
2990.98993	5689.0125
2993.4245	5670.4125
2995.85758	5667.5125
2998.28917	5640.6125
3000.71928	5631.4125
3003.14791	5632.0125
3005.57506	5622.7125
3008.00073	5610.4125
3010.42493	5519.0125
3012.84764	5592.0125
3015.26888	5596.0125
3017.68865	5580.3125
3020.10694	5553.5125
3022.52376	5545.1125
3024.9391	5528.8125
3027.35298	5535.5125
3029.76539	5530.4125
3032.17632	5506.9125
3034.5858	5504.9125
3036.9938	5478.5125
3039.40034	5471.6125
3041.80542	5479.8125
3044.20903	5452.5125
3046.61118	5457.3125
3049.01187	5440.6125
3051.4111	5446.9125
3053.80888	5411.4125
3056.20519	5408.6125
3058.60005	5384.1125
3060.99345	5371.4125
3063.3854	5356.4125
3065.7759	5342.3125
3068.16494	5335.7125
3070.55254	5316.7125
3072.93868	5293.7125
3075.32338	5275.1125
3077.70662	5243.8125
