Data from AgNPs_FTO_APTES_UA_5uM_CRN_50uM_R6G_10uM_NaF_0.1M_Addition_RamanShift__20__14-05-56-829.txt Node

Date: Mon Feb 07 14:05:56 GMT 2022
User: TCL
Spectrometer: QEP01345
Trigger mode: 4
Integration Time (sec): 7.000000E0
Scans to average: 10
Electric dark correction enabled: true
Nonlinearity correction enabled: false
Boxcar width: 0
XAxis mode: Raman Shifts
Number of Pixels in Spectrum: 1044
>>>>>Begin Spectral Data<<<<<
46.04893	-1.05
50.45542	-0.35
54.85868	-1.05
59.25871	0.95
63.6555	73.75
68.04907	78.45
72.43941	83.15
76.82654	85.05
81.21044	89.95
85.59113	93.95
89.96862	97.05
94.34289	93.75
98.71396	98.45
103.08183	103.65
107.4465	104.65
111.80798	109.45
116.16626	111.05
120.52136	118.45
124.87327	123.55
129.222	133.45
133.56755	143.35
137.90993	157.55
142.24913	169.85
146.58517	194.55
150.91804	228.45
155.24774	271.15
159.57429	350.65
163.89768	454.35
168.21792	603.65
172.53501	818.45
176.84895	1153.85
181.15975	1618.85
185.46741	2270.95
189.77193	3140.05
194.07331	4177.45
198.37157	5417.15
202.6667	6683.45
206.9587	7930.75
211.24758	9182.85
215.53334	10429.45
219.81599	11714.25
224.09553	13148.15
228.37195	14743.25
232.64527	16534.35
236.91549	18338.45
241.18261	20214.95
245.44663	22000.55
249.70755	23571.55
253.96539	24966.25
258.22014	26179.75
262.4718	27244.55
266.72039	28024.95
270.96589	28494.15
275.20832	28693.25
279.44768	28724.95
283.68397	28653.75
287.91719	28613.95
292.14735	28649.55
296.37445	28766.55
300.59849	28852.15
304.81948	28806.65
309.03742	28500.35
313.25231	27947.35
317.46415	27109.35
321.67296	26171.05
325.87872	25477.35
330.08145	25130.95
334.28114	25038.45
338.47781	25210.95
342.67145	25438.05
346.86207	25864.35
351.04966	26332.55
355.23424	26846.65
359.4158	27244.65
363.59435	27550.35
367.76989	27719.25
371.94243	27864.95
376.11196	27950.45
380.27849	28177.95
384.44203	28292.55
388.60257	28501.85
392.76012	28845.15
396.91468	29273.35
401.06626	29708.95
405.21485	29996.95
409.36047	29900.65
413.50311	29547.05
417.64277	29161.75
421.77947	29112.55
425.9132	29203.65
430.04396	29468.45
434.17176	29701.55
438.2966	30058.15
442.41849	30560.25
446.53742	31344.65
450.6534	32301.05
454.76644	33046.85
458.87653	33410.25
462.98368	33422.45
467.08789	33169.65
471.18916	32859.05
475.2875	32795.25
479.38291	32841.35
483.4754	32756.05
487.56496	32274.95
491.6516	31486.85
495.73531	30845.55
499.81612	30408.15
503.89401	30373.55
507.96899	30403.15
512.04106	30248.25
516.11023	29955.15
520.1765	29591.45
524.23987	29250.85
528.30034	28901.95
532.35792	28663.75
536.41261	28461.05
540.46441	28285.65
544.51333	28374.05
548.55936	28835.45
552.60252	29560.85
556.64279	30395.95
560.6802	30914.05
564.71473	31273.45
568.7464	31849.75
572.7752	32610.95
576.80114	33221.15
580.82422	33611.25
584.84444	33959.45
588.86181	34264.45
592.87633	34668.85
596.888	35061.25
600.89682	35137.35
604.9028	35840.55
608.90594	37968.65
612.90624	39940.05
616.90371	37354.25
620.89834	31875.45
624.89015	29643.85
628.87913	29570.95
632.86528	29832.15
636.84862	29747.55
640.82913	29236.55
644.80683	28453.35
648.78172	27730.45
652.75379	27477.35
656.72306	27629.65
660.68952	27967.25
664.65319	27951.45
668.61405	27602.85
672.57211	27429.95
676.52738	27435.35
680.47986	27465.65
684.42955	27372.25
688.37646	27277.05
692.32058	27379.95
696.26192	27597.05
700.20048	27914.45
704.13626	28093.65
708.06928	28126.85
711.99952	27956.15
715.927	27847.55
719.85171	27897.15
723.77365	27762.15
727.69284	27546.85
731.60928	27251.65
735.52295	27209.15
739.43388	27235.75
743.34206	27271.65
747.24749	27427.05
751.15017	27706.75
755.05012	28207.65
758.94733	29150.95
762.8418	30642.75
766.73354	32887.85
770.62254	34876.75
774.50882	35064.15
778.39237	33334.95
782.27321	30796.55
786.15132	28884.85
790.02671	27757.55
793.89938	27167.75
797.76935	26966.85
801.6366	26957.75
805.50115	26950.95
809.36299	26845.75
813.22213	26687.85
817.07857	26642.35
820.93231	26555.55
824.78336	26460.95
828.63172	26371.85
832.47738	26214.85
836.32036	26253.25
840.16066	26310.05
843.99827	26419.05
847.8332	26369.35
851.66546	26250.75
855.49504	26175.25
859.32195	26113.05
863.1462	26041.35
866.96777	25996.35
870.78668	25871.85
874.60293	25849.95
878.41652	25834.55
882.22745	25904.05
886.03573	25956.05
889.84136	25954.15
893.64433	25875.45
897.44466	25774.05
901.24235	25698.15
905.0374	25592.65
908.8298	25584.35
912.61957	25673.35
916.40671	25945.25
920.19121	26387.65
923.97308	26663.35
927.75233	26642.45
931.52895	26360.05
935.30295	26044.75
939.07433	25608.75
942.84309	25205.55
946.60924	25042.85
950.37278	24954.95
954.13371	24845.55
957.89203	24768.95
961.64774	24754.65
965.40086	24768.35
969.15137	24630.65
972.89929	24437.95
976.64461	24298.65
980.38733	24296.75
984.12747	24305.05
987.86502	24553.75
991.59999	24858.55
995.33237	25286.85
999.06217	26023.05
1002.78939	26806.65
1006.51404	27240.55
1010.23611	27426.85
1013.95561	27675.85
1017.67255	27746.55
1021.38692	27488.15
1025.09872	27230.15
1028.80796	27336.85
1032.51465	28006.35
1036.21877	28657.15
1039.92035	28736.65
1043.61937	28450.65
1047.31584	27849.35
1051.00976	27262.05
1054.70114	27072.25
1058.38998	27135.15
1062.07627	27459.65
1065.76003	27715.85
1069.44126	27890.35
1073.11995	28107.75
1076.79611	28293.45
1080.46974	28398.75
1084.14085	28532.05
1087.80943	28829.45
1091.47549	29135.05
1095.13903	29250.05
1098.80005	28987.85
1102.45857	28463.85
1106.11456	27942.55
1109.76805	27712.15
1113.41903	27841.05
1117.06751	28090.05
1120.71348	28358.75
1124.35696	28633.25
1127.99793	28916.85
1131.63641	29138.45
1135.2724	29023.15
1138.90589	28799.35
1142.5369	28763.25
1146.16542	28917.85
1149.79145	29203.85
1153.415	29649.45
1157.03607	30250.55
1160.65467	31201.45
1164.27079	32563.95
1167.88443	34363.75
1171.49561	36531.05
1175.10432	39317.35
1178.71056	42618.65
1182.31434	45694.55
1185.91565	47537.45
1189.51451	47772.95
1193.11091	46815.05
1196.70485	45136.65
1200.29634	43161.05
1203.88538	41653.25
1207.47197	40627.15
1211.05612	39876.55
1214.63782	39079.95
1218.21708	38206.75
1221.79391	37526.95
1225.36829	36946.35
1228.94024	36375.65
1232.50976	35716.95
1236.07685	35160.45
1239.6415	34930.45
1243.20374	34927.65
1246.76355	35187.05
1250.32093	35707.25
1253.8759	36567.95
1257.42845	37598.65
1260.97859	38540.95
1264.52631	39443.65
1268.07163	40392.15
1271.61453	41563.05
1275.15503	42877.35
1278.69312	44469.65
1282.22882	45849.75
1285.76211	47155.85
1289.29301	48687.45
1292.82151	50847.65
1296.34761	53631.65
1299.87133	56924.75
1303.39266	60395.25
1306.9116	63971.55
1310.42815	67086.25
1313.94233	69057.85
1317.45412	69461.55
1320.96354	68890.55
1324.47058	68171.25
1327.97525	67517.35
1331.47754	67028.45
1334.97747	66960.75
1338.47502	67004.75
1341.97022	66990.85
1345.46305	66067.25
1348.95352	64337.35
1352.44163	62360.95
1355.92738	61532.45
1359.41078	62222.85
1362.89183	63328.55
1366.37053	61945.85
1369.84688	57545.55
1373.32088	52503.55
1376.79254	48933.35
1380.26186	47740.55
1383.72883	47925.35
1387.19347	48521.65
1390.65578	48800.45
1394.11575	49266.85
1397.57339	50347.95
1401.0287	51755.65
1404.48168	52911.45
1407.93234	53222.05
1411.38068	52306.25
1414.82669	50369.65
1418.27039	47682.65
1421.71177	44872.55
1425.15083	42607.25
1428.58758	41368.85
1432.02203	41140.55
1435.45416	41966.65
1438.88399	43227.75
1442.31151	44551.15
1445.73673	45663.35
1449.15965	46765.05
1452.58027	47813.95
1455.9986	48393.25
1459.41463	49035.75
1462.82837	49818.95
1466.23982	50622.95
1469.64898	51122.95
1473.05586	51299.85
1476.46045	50975.25
1479.86276	50416.15
1483.26279	49567.75
1486.66054	48880.35
1490.05602	48576.55
1493.44922	48520.75
1496.84016	48504.55
1500.22882	48843.15
1503.61521	49634.05
1506.99934	50912.25
1510.38121	52280.55
1513.76081	52920.85
1517.13816	52419.65
1520.51324	51124.25
1523.88607	49965.35
1527.25665	49333.85
1530.62498	49175.55
1533.99105	49180.05
1537.35488	49091.55
1540.71647	48568.85
1544.07581	47766.15
1547.4329	46633.15
1550.78776	45599.55
1554.14038	44903.85
1557.49077	44567.05
1560.83892	44364.15
1564.18484	44236.35
1567.52853	44275.05
1570.86999	44380.65
1574.20922	44989.95
1577.54624	45758.55
1580.88103	46280.95
1584.2136	46985.15
1587.54395	48489.75
1590.87208	50885.35
1594.19801	53791.35
1597.52172	56515.45
1600.84321	57171.05
1604.16251	54744.45
1607.47959	50443.15
1610.79447	46006.25
1614.10715	41955.55
1617.41763	38513.55
1620.7259	36074.75
1624.03199	34717.05
1627.33587	34512.35
1630.63757	35402.55
1633.93707	37754.55
1637.23439	41405.95
1640.52951	46348.35
1643.82246	51765.05
1647.11321	55913.75
1650.40179	56715.15
1653.68819	53156.95
1656.97241	46722.45
1660.25446	40062.75
1663.53433	34799.25
1666.81203	31171.65
1670.08756	28818.05
1673.36092	27367.75
1676.63211	26385.25
1679.90115	25724.15
1683.16801	25186.25
1686.43272	24818.25
1689.69527	24521.65
1692.95567	24285.25
1696.2139	24174.85
1699.46999	24047.35
1702.72392	23954.25
1705.97571	23818.55
1709.22535	23778.65
1712.47284	23683.95
1715.71819	23652.85
1718.96139	23595.25
1722.20246	23485.25
1725.44139	23380.25
1728.67818	23268.05
1731.91284	23069.55
1735.14537	22982.25
1738.37576	22857.55
1741.60403	22770.35
1744.83017	22710.25
1748.05418	22644.95
1751.27607	22658.85
1754.49584	22596.05
1757.71349	22575.85
1760.92903	22536.75
1764.14244	22523.85
1767.35375	22515.25
1770.56294	22447.45
1773.77002	22411.85
1776.97499	22349.45
1780.17785	22282.85
1783.37861	22273.85
1786.57727	22241.15
1789.77382	22182.35
1792.96828	22189.85
1796.16064	22113.35
1799.3509	22093.65
1802.53907	22005.15
1805.72514	21982.65
1808.90913	21928.45
1812.09102	21904.65
1815.27083	21799.25
1818.44856	21798.45
1821.6242	21770.15
1824.79776	21706.85
1827.96924	21697.75
1831.13864	21678.45
1834.30597	21703.85
1837.47122	21673.95
1840.6344	21666.65
1843.7955	21722.75
1846.95454	21647.95
1850.11151	21658.15
1853.26642	21649.95
1856.41926	21669.35
1859.57004	21679.85
1862.71876	21683.25
1865.86542	21664.75
1869.01003	21612.95
1872.15258	21604.85
1875.29308	21580.35
1878.43152	21584.85
1881.56792	21612.45
1884.70227	21586.55
1887.83457	21561.05
1890.96482	21555.35
1894.09304	21517.15
1897.21921	21530.95
1900.34335	21533.25
1903.46544	21517.15
1906.58551	21512.35
1909.70353	21487.35
1912.81953	21391.25
1915.93349	21403.05
1919.04543	21362.85
1922.15534	21324.45
1925.26322	21265.35
1928.36908	21213.45
1931.47292	21164.45
1934.57473	21125.05
1937.67453	21073.55
1940.77232	21001.85
1943.86808	20923.15
1946.96184	20847.75
1950.05358	20821.65
1953.14331	20747.55
1956.23103	20635.05
1959.31675	20592.35
1962.40046	20526.85
1965.48217	20467.45
1968.56188	20380.65
1971.63959	20332.45
1974.7153	20281.75
1977.78901	20209.75
1980.86073	20144.15
1983.93046	20083.05
1986.99819	20040.95
1990.06394	19960.25
1993.1277	19929.65
1996.18947	19892.45
1999.24925	19833.65
2002.30706	19785.55
2005.36288	19716.35
2008.41672	19657.45
2011.46859	19625.35
2014.51848	19559.95
2017.56639	19497.75
2020.61233	19444.75
2023.6563	19396.75
2026.6983	19351.25
2029.73833	19312.65
2032.7764	19287.95
2035.8125	19262.65
2038.84664	19192.45
2041.87881	19200.25
2044.90903	19187.55
2047.93729	19128.25
2050.96359	19151.15
2053.98794	19088.05
2057.01034	19112.35
2060.03078	19076.35
2063.04927	19062.45
2066.06582	19051.05
2069.08042	19022.75
2072.09307	19003.75
2075.10378	18955.95
2078.11255	18955.55
2081.11938	18965.25
2084.12426	18954.95
2087.12722	18935.05
2090.12824	18921.75
2093.12732	18888.25
2096.12447	18883.95
2099.11969	18908.05
2102.11299	18922.35
2105.10435	18934.85
2108.09379	18925.95
2111.08131	18938.25
2114.0669	18960.35
2117.05057	19000.15
2120.03233	18969.45
2123.01216	18984.95
2125.99008	19001.05
2128.96609	18993.25
2131.94018	19028.45
2134.91236	19033.65
2137.88263	19032.15
2140.851	19080.35
2143.81746	19083.65
2146.78201	19078.75
2149.74466	19068.85
2152.7054	19077.55
2155.66425	19060.35
2158.6212	19036.35
2161.57625	19022.75
2164.52941	19031.95
2167.48067	19034.75
2170.43004	19039.35
2173.37752	19014.65
2176.32311	19010.25
2179.26681	19018.45
2182.20863	19032.05
2185.14856	19027.65
2188.08661	19015.65
2191.02278	19066.45
2193.95707	19055.85
2196.88948	18997.45
2199.82001	18993.05
2202.74867	18998.05
2205.67545	18956.55
2208.60037	18980.65
2211.52341	18925.95
2214.44458	18917.65
2217.36388	18934.75
2220.28132	18879.85
2223.1969	18838.85
2226.11061	18793.45
2229.02246	18776.35
2231.93245	18740.75
2234.84058	18659.35
2237.74686	18621.55
2240.65128	18624.35
2243.55385	18595.15
2246.45456	18573.35
2249.35343	18526.85
2252.25044	18512.65
2255.14561	18469.75
2258.03893	18469.55
2260.93041	18422.75
2263.82004	18373.45
2266.70783	18349.35
2269.59378	18265.55
2272.4779	18222.45
2275.36017	18202.75
2278.24061	18156.45
2281.11922	18156.85
2283.996	18097.95
2286.87094	18086.65
2289.74405	18067.75
2292.61534	18053.65
2295.4848	18039.95
2298.35243	18044.25
2301.21824	18043.55
2304.08223	18081.55
2306.94439	18069.45
2309.80474	18098.75
2312.66327	18121.55
2315.51999	18089.45
2318.37489	18074.75
2321.22797	18036.45
2324.07925	18037.15
2326.92871	18014.45
2329.77637	17952.05
2332.62222	17961.35
2335.46626	17956.25
2338.3085	17962.45
2341.14893	17941.75
2343.98756	17983.65
2346.8244	17983.85
2349.65943	17974.55
2352.49267	17986.35
2355.32411	18021.05
2358.15376	17976.85
2360.98161	17950.75
2363.80768	17935.95
2366.63195	17947.75
2369.45444	17884.25
2372.27514	17874.45
2375.09405	17823.35
2377.91118	17788.45
2380.72652	17748.45
2383.54009	17704.75
2386.35187	17693.55
2389.16188	17654.65
2391.97011	17627.05
2394.77657	17599.55
2397.58125	17558.55
2400.38416	17552.35
2403.18529	17501.55
2405.98466	17507.95
2408.78226	17460.55
2411.57809	17459.25
2414.37216	17412.55
2417.16446	17391.25
2419.955	17372.95
2422.74378	17382.85
2425.5308	17331.35
2428.31606	17311.75
2431.09956	17333.65
2433.88131	17300.55
2436.6613	17340.25
2439.43954	17318.55
2442.21603	17308.35
2444.99077	17288.35
2447.76377	17304.95
2450.53501	17273.05
2453.30451	17283.35
2456.07226	17258.65
2458.83827	17298.05
2461.60254	17262.15
2464.36507	17259.95
2467.12586	17233.05
2469.88492	17237.75
2472.64224	17300.55
2475.39782	17296.65
2478.15167	17321.75
2480.90379	17305.05
2483.65417	17311.65
2486.40283	17292.35
2489.14976	17348.55
2491.89497	17326.95
2494.63845	17365.45
2497.3802	17391.55
2500.12024	17378.35
2502.85855	17374.65
2505.59514	17346.15
2508.33002	17308.75
2511.06318	17327.05
2513.79462	17316.75
2516.52435	17270.25
2519.25237	17321.35
2521.97867	17267.05
2524.70327	17274.15
2527.42616	17261.95
2530.14734	17264.65
2532.86681	17270.45
2535.58458	17281.65
2538.30065	17241.05
2541.01501	17272.25
2543.72768	17232.85
2546.43864	17203.15
2549.14791	17185.75
2551.85548	17186.95
2554.56136	17185.35
2557.26554	17140.95
2559.96803	17131.55
2562.66883	17132.65
2565.36794	17109.05
2568.06536	17067.35
2570.7611	17058.65
2573.45514	17048.85
2576.14751	17055.15
2578.83819	17021.45
2581.52719	17044.45
2584.21451	17058.05
2586.90015	17032.55
2589.58411	17054.55
2592.2664	17048.95
2594.94701	17012.15
2597.62594	17044.35
2600.30321	17027.55
2602.9788	17051.25
2605.65273	17013.15
2608.32498	17032.45
2610.99557	17026.15
2613.66449	17012.55
2616.33175	17057.45
2618.99734	17031.05
2621.66128	17038.75
2624.32355	17037.35
2626.98416	17065.95
2629.64311	17052.35
2632.30041	17078.65
2634.95605	17067.35
2637.61004	17020.65
2640.26238	17024.65
2642.91306	17026.25
2645.56209	16983.15
2648.20948	17002.85
2650.85521	17012.95
2653.4993	17033.35
2656.14175	17022.95
2658.78255	17048.15
2661.42171	17017.35
2664.05923	17078.25
2666.6951	17060.55
2669.32934	17054.65
2671.96194	17091.65
2674.59291	17088.25
2677.22224	17081.85
2679.84993	17093.25
2682.476	17068.35
2685.10043	17049.35
2687.72324	17005.45
2690.34441	17023.55
2692.96396	16995.25
2695.58188	17032.15
2698.19818	17001.35
2700.81285	17000.65
2703.4259	17058.55
2706.03733	17086.35
2708.64714	17058.25
2711.25533	17053.45
2713.86191	17051.65
2716.46687	17113.65
2719.07021	17095.25
2721.67194	17126.15
2724.27206	17141.25
2726.87057	17150.05
2729.46747	17156.45
2732.06276	17183.15
2734.65644	17167.25
2737.24852	17150.15
2739.83899	17146.65
2742.42786	17170.25
2745.01513	17128.75
2747.60079	17144.35
2750.18486	17159.55
2752.76733	17121.15
2755.3482	17130.35
2757.92747	17108.55
2760.50515	17126.55
2763.08123	17155.75
2765.65573	17130.15
2768.22863	17154.55
2770.79994	17143.15
2773.36967	17165.05
2775.9378	17136.75
2778.50435	17127.15
2781.06932	17130.95
2783.6327	17135.95
2786.1945	17151.95
2788.75471	17172.65
2791.31335	17131.85
2793.87041	17084.15
2796.42589	17059.15
2798.97979	17060.05
2801.53212	16979.25
2804.08288	16984.45
2806.63206	16915.75
2809.17967	16896.45
2811.72571	16864.75
2814.27018	16856.85
2816.81308	16850.25
2819.35442	16815.05
2821.89419	16762.95
2824.43239	16791.75
2826.96904	16770.15
2829.50412	16778.85
2832.03763	16710.45
2834.56959	16703.75
2837.1	16706.15
2839.62884	16715.65
2842.15613	16690.05
2844.68186	16759.35
2847.20604	16737.75
2849.72867	16778.75
2852.24974	16756.55
2854.76927	16766.35
2857.28724	16765.15
2859.80367	16746.05
2862.31855	16717.15
2864.83189	16695.55
2867.34368	16645.75
2869.85393	16654.35
2872.36264	16623.45
2874.8698	16630.55
2877.37543	16624.95
2879.87952	16611.65
2882.38207	16647.15
2884.88308	16641.15
2887.38256	16622.25
2889.88051	16653.55
2892.37692	16657.55
2894.8718	16675.55
2897.36515	16651.05
2899.85698	16678.85
2902.34727	16735.55
2904.83604	16734.75
2907.32328	16789.45
2909.809	16799.45
2912.29319	16799.65
2914.77587	16806.15
2917.25702	16791.75
2919.73665	16794.65
2922.21476	16773.85
2924.69136	16762.25
2927.16644	16758.15
2929.64	16729.75
2932.11205	16694.75
2934.58258	16664.85
2937.05161	16685.05
2939.51912	16679.15
2941.98513	16651.85
2944.44962	16624.55
2946.91261	16592.85
2949.37409	16595.05
2951.83407	16557.15
2954.29254	16559.95
2956.74951	16530.55
2959.20498	16531.85
2961.65895	16509.25
2964.11142	16489.25
2966.56239	16454.05
2969.01186	16452.55
2971.45984	16412.85
2973.90632	16416.75
2976.35131	16384.15
2978.7948	16346.05
2981.23681	16347.75
2983.67732	16287.25
2986.11635	16262.15
2988.55388	16226.65
2990.98993	16174.25
2993.4245	16137.65
2995.85758	16108.75
2998.28917	16035.85
3000.71928	16011.85
3003.14791	16031.55
3005.57506	16002.05
3008.00073	15922.35
3010.42493	15821.65
3012.84764	15872.45
3015.26888	15880.55
3017.68865	15818.65
3020.10694	15808.55
3022.52376	15785.15
3024.9391	15779.45
3027.35298	15736.15
3029.76539	15744.05
3032.17632	15700.85
3034.5858	15687.45
3036.9938	15667.55
3039.40034	15685.45
3041.80542	15712.05
3044.20903	15662.35
3046.61118	15655.05
3049.01187	15642.95
3051.4111	15619.45
3053.80888	15601.45
3056.20519	15564.65
3058.60005	15512.25
3060.99345	15519.25
3063.3854	15489.25
3065.7759	15403.15
3068.16494	15366.55
3070.55254	15271.75
3072.93868	15298.75
3075.32338	15237.05
3077.70662	15190.35
3080.08842	15131.45
3082.46878	15150.35
3084.84769	15099.95
3087.22515	15090.65
3089.60118	15109.95
3091.97576	15103.45
3094.3489	15070.45
3096.72061	15075.15
3099.09087	15062.85
3101.4597	15062.55
3103.82709	15076.25
3106.19305	15010.45
3108.55757	15039.35
3110.92066	14980.35
3113.28232	15008.55
3115.64255	14955.75
3118.00134	14939.55
3120.35871	14916.05
3122.71466	14843.95
3125.06917	14812.25
3127.42226	14787.95
3129.77393	14762.45
3132.12417	14746.75
3134.47299	14768.95
3136.82039	14735.15
3139.16636	14715.05
3141.51092	14700.85
3143.85406	14684.35
3146.19579	14698.95
3148.53609	14671.15
3150.87499	14715.25
3153.21246	14681.25
3155.54853	14723.65
3157.88318	14727.05
3160.21642	14738.45
3162.54826	14729.85
3164.87868	14733.35
3167.2077	14738.05
3169.5353	14733.55
3171.86151	14724.75
3174.18631	14724.35
3176.5097	14712.35
3178.83169	14681.45
3181.15228	14671.45
3183.47147	14662.45
3185.78926	14658.05
3188.10565	14639.25
3190.42065	14610.65
3192.73424	14602.55
3195.04645	14625.75
3197.35725	14568.15
3199.66667	14573.55
3201.97469	14593.35
3204.28132	14589.05
3206.58656	14599.65
3208.8904	14619.05
3211.19287	14604.05
3213.49394	14570.65
3215.79363	14616.05
3218.09193	14608.25
3220.38884	14594.85
3222.68438	14597.65
3224.97853	14562.35
3227.2713	14604.95
3229.56269	14554.45
3231.8527	14535.25
3234.14133	14550.65
3236.42858	14491.25
3238.71446	14491.95
