Data from AgNPs_FTO_APTES_UA_5uM_CRN_200uM_R6G_10uM_NaF_0.1M_Addition_RamanShift__15__16-17-21-780.txt Node

Date: Mon Feb 07 16:17:21 GMT 2022
User: TCL
Spectrometer: QEP01345
Trigger mode: 4
Integration Time (sec): 7.000000E0
Scans to average: 10
Electric dark correction enabled: true
Nonlinearity correction enabled: false
Boxcar width: 0
XAxis mode: Raman Shifts
Number of Pixels in Spectrum: 1044
>>>>>Begin Spectral Data<<<<<
46.04893	-2.475
50.45542	0.125
54.85868	0.125
59.25871	-1.375
63.6555	66.225
68.04907	71.025
72.43941	78.825
76.82654	77.325
81.21044	79.425
85.59113	79.425
89.96862	84.625
94.34289	89.025
98.71396	94.225
103.08183	96.625
107.4465	96.325
111.80798	101.425
116.16626	101.325
120.52136	111.625
124.87327	113.125
129.222	121.725
133.56755	128.425
137.90993	136.125
142.24913	156.825
146.58517	175.925
150.91804	202.525
155.24774	252.725
159.57429	317.725
163.89768	403.825
168.21792	540.925
172.53501	747.525
176.84895	1044.325
181.15975	1479.025
185.46741	2063.425
189.77193	2872.025
194.07331	3878.125
198.37157	5017.325
202.6667	6211.425
206.9587	7381.225
211.24758	8539.825
215.53334	9708.425
219.81599	10932.525
224.09553	12270.125
228.37195	13717.025
232.64527	15318.825
236.91549	17017.725
241.18261	18695.325
245.44663	20335.525
249.70755	21797.525
253.96539	23145.025
258.22014	24224.325
262.4718	25141.725
266.72039	25776.825
270.96589	26191.425
275.20832	26358.025
279.44768	26358.325
283.68397	26252.925
287.91719	26189.825
292.14735	26178.025
296.37445	26282.825
300.59849	26437.825
304.81948	26450.825
309.03742	26231.225
313.25231	25826.625
317.46415	25176.025
321.67296	24445.625
325.87872	23785.225
330.08145	23498.325
334.28114	23487.325
338.47781	23644.725
342.67145	23867.225
346.86207	24199.925
351.04966	24482.525
355.23424	24795.125
359.4158	25080.425
363.59435	25263.325
367.76989	25414.525
371.94243	25591.225
376.11196	25681.825
380.27849	25741.225
384.44203	25870.325
388.60257	26029.125
392.76012	26285.525
396.91468	26588.925
401.06626	26968.425
405.21485	27231.725
409.36047	27189.525
413.50311	26816.525
417.64277	26457.025
421.77947	26260.125
425.9132	26226.225
430.04396	26304.825
434.17176	26490.325
438.2966	26665.325
442.41849	27012.025
446.53742	27441.325
450.6534	28003.825
454.76644	28371.025
458.87653	28591.225
462.98368	28661.325
467.08789	28687.225
471.18916	28653.625
475.2875	28594.025
479.38291	28571.325
483.4754	28408.325
487.56496	28162.625
491.6516	27746.125
495.73531	27437.325
499.81612	27181.825
503.89401	27263.125
507.96899	27380.625
512.04106	27396.525
516.11023	27346.825
520.1765	27256.525
524.23987	27058.425
528.30034	26811.325
532.35792	26598.925
536.41261	26411.125
540.46441	26294.325
544.51333	26385.225
548.55936	26685.025
552.60252	27266.825
556.64279	27787.725
560.6802	28191.525
564.71473	28432.725
568.7464	28792.625
572.7752	29389.925
576.80114	29863.625
580.82422	30241.325
584.84444	30416.025
588.86181	30287.625
592.87633	29968.025
596.888	29751.125
600.89682	29780.425
604.9028	30394.325
608.90594	32122.525
612.90624	34151.725
616.90371	32637.825
620.89834	28580.825
624.89015	26749.525
628.87913	26508.225
632.86528	26729.425
636.84862	27019.425
640.82913	26824.425
644.80683	26406.725
648.78172	26017.925
652.75379	25851.625
656.72306	26003.125
660.68952	26336.625
664.65319	26309.725
668.61405	26070.325
672.57211	26053.025
676.52738	26072.525
680.47986	26127.725
684.42955	26038.625
688.37646	25955.925
692.32058	26000.925
696.26192	26092.425
700.20048	26268.125
704.13626	26441.025
708.06928	26579.925
711.99952	26502.225
715.927	26436.225
719.85171	26377.625
723.77365	26286.225
727.69284	26036.825
731.60928	25872.525
735.52295	25691.825
739.43388	25648.125
743.34206	25641.425
747.24749	25739.525
751.15017	25924.625
755.05012	26251.725
758.94733	26868.225
762.8418	27917.725
766.73354	29629.425
770.62254	31339.625
774.50882	31794.325
778.39237	30591.925
782.27321	28825.525
786.15132	27299.725
790.02671	26345.725
793.89938	25758.625
797.76935	25552.825
801.6366	25411.225
805.50115	25305.425
809.36299	25230.625
813.22213	25113.925
817.07857	25177.325
820.93231	25208.525
824.78336	25186.725
828.63172	25140.325
832.47738	25118.125
836.32036	25028.425
840.16066	25007.925
843.99827	24978.125
847.8332	24974.925
851.66546	24957.225
855.49504	24974.425
859.32195	24992.325
863.1462	24946.125
866.96777	24889.225
870.78668	24879.425
874.60293	24893.625
878.41652	24893.025
882.22745	24895.525
886.03573	24964.625
889.84136	24989.325
893.64433	24953.925
897.44466	24887.225
901.24235	24819.725
905.0374	24784.925
908.8298	24784.025
912.61957	24873.025
916.40671	25046.525
920.19121	25268.325
923.97308	25382.425
927.75233	25247.325
931.52895	25083.325
935.30295	24879.025
939.07433	24544.425
942.84309	24264.825
946.60924	24149.125
950.37278	23972.725
954.13371	23925.425
957.89203	23847.625
961.64774	23823.225
965.40086	23789.825
969.15137	23744.625
972.89929	23668.025
976.64461	23595.725
980.38733	23528.425
984.12747	23565.225
987.86502	23623.825
991.59999	23730.225
995.33237	23783.725
999.06217	23969.325
1002.78939	24092.525
1006.51404	24283.725
1010.23611	24477.025
1013.95561	24645.525
1017.67255	24698.925
1021.38692	24658.725
1025.09872	24482.725
1028.80796	24352.125
1032.51465	24324.625
1036.21877	24408.225
1039.92035	24561.525
1043.61937	24686.025
1047.31584	24726.125
1051.00976	24850.825
1054.70114	24891.225
1058.38998	25056.725
1062.07627	25322.025
1065.76003	25652.225
1069.44126	25865.225
1073.11995	26119.325
1076.79611	26284.125
1080.46974	26343.425
1084.14085	26418.125
1087.80943	26494.325
1091.47549	26617.425
1095.13903	26737.925
1098.80005	26640.525
1102.45857	26288.925
1106.11456	25817.425
1109.76805	25532.825
1113.41903	25485.125
1117.06751	25553.725
1120.71348	25791.425
1124.35696	26063.425
1127.99793	26391.825
1131.63641	26561.325
1135.2724	26415.525
1138.90589	26103.725
1142.5369	26046.725
1146.16542	26064.325
1149.79145	26185.525
1153.415	26404.925
1157.03607	26731.425
1160.65467	27204.425
1164.27079	27880.525
1167.88443	28776.425
1171.49561	29847.625
1175.10432	31340.025
1178.71056	33159.325
1182.31434	34952.525
1185.91565	36135.125
1189.51451	36574.825
1193.11091	36371.825
1196.70485	35502.325
1200.29634	34342.825
1203.88538	33235.625
1207.47197	32315.625
1211.05612	31602.425
1214.63782	31003.225
1218.21708	30377.025
1221.79391	29728.425
1225.36829	29186.825
1228.94024	28762.225
1232.50976	28610.125
1236.07685	28458.325
1239.6415	28419.625
1243.20374	28483.925
1246.76355	28674.625
1250.32093	28950.925
1253.8759	29270.025
1257.42845	29813.625
1260.97859	30397.925
1264.52631	30958.925
1268.07163	31472.825
1271.61453	31991.525
1275.15503	32499.225
1278.69312	33059.325
1282.22882	33554.025
1285.76211	34193.125
1289.29301	35072.725
1292.82151	36116.925
1296.34761	37416.825
1299.87133	38836.525
1303.39266	40370.125
1306.9116	41832.025
1310.42815	43060.325
1313.94233	43772.925
1317.45412	43764.725
1320.96354	43597.225
1324.47058	43519.125
1327.97525	43378.125
1331.47754	43223.025
1334.97747	43312.825
1338.47502	43653.125
1341.97022	44127.025
1345.46305	44634.325
1348.95352	44908.725
1352.44163	44729.125
1355.92738	44466.725
1359.41078	44785.125
1362.89183	45287.925
1366.37053	44278.925
1369.84688	41412.025
1373.32088	38187.825
1376.79254	35984.425
1380.26186	34964.125
1383.72883	34622.825
1387.19347	34553.725
1390.65578	34455.925
1394.11575	34242.125
1397.57339	34049.225
1401.0287	33921.725
1404.48168	33741.225
1407.93234	33389.125
1411.38068	32821.525
1414.82669	31928.325
1418.27039	30906.125
1421.71177	29953.925
1425.15083	29151.925
1428.58758	28655.325
1432.02203	28639.425
1435.45416	28938.725
1438.88399	29372.025
1442.31151	29769.725
1445.73673	30148.525
1449.15965	30564.025
1452.58027	31005.625
1455.9986	31431.725
1459.41463	31790.025
1462.82837	32168.925
1466.23982	32468.125
1469.64898	32840.125
1473.05586	32987.725
1476.46045	33048.325
1479.86276	32971.825
1483.26279	32973.125
1486.66054	33000.225
1490.05602	33243.825
1493.44922	33790.525
1496.84016	34662.325
1500.22882	36088.325
1503.61521	37949.325
1506.99934	39851.525
1510.38121	41346.925
1513.76081	41737.925
1517.13816	40815.225
1520.51324	39279.425
1523.88607	37984.625
1527.25665	37126.825
1530.62498	36585.625
1533.99105	36122.325
1537.35488	35621.025
1540.71647	34976.425
1544.07581	34135.625
1547.4329	33361.425
1550.78776	32770.825
1554.14038	32397.025
1557.49077	32257.425
1560.83892	32317.225
1564.18484	32499.525
1567.52853	32786.025
1570.86999	33082.825
1574.20922	33527.125
1577.54624	33800.325
1580.88103	33638.525
1584.2136	33218.725
1587.54395	33052.025
1590.87208	33312.325
1594.19801	34012.125
1597.52172	34825.725
1600.84321	35048.125
1604.16251	34227.225
1607.47959	32919.125
1610.79447	31437.125
1614.10715	29916.425
1617.41763	28340.625
1620.7259	27100.825
1624.03199	26334.825
1627.33587	26067.425
1630.63757	26279.525
1633.93707	27000.025
1637.23439	28406.125
1640.52951	30469.825
1643.82246	33159.125
1647.11321	35769.925
1650.40179	37254.725
1653.68819	36715.925
1656.97241	34142.325
1660.25446	30760.525
1663.53433	27808.125
1666.81203	25568.525
1670.08756	24011.425
1673.36092	23017.025
1676.63211	22381.425
1679.90115	21888.625
1683.16801	21561.825
1686.43272	21297.525
1689.69527	21125.525
1692.95567	20983.625
1696.2139	20864.825
1699.46999	20756.325
1702.72392	20727.025
1705.97571	20657.325
1709.22535	20591.725
1712.47284	20542.625
1715.71819	20527.825
1718.96139	20426.825
1722.20246	20408.225
1725.44139	20327.525
1728.67818	20261.225
1731.91284	20153.725
1735.14537	20066.725
1738.37576	19954.225
1741.60403	19897.525
1744.83017	19849.225
1748.05418	19785.125
1751.27607	19786.025
1754.49584	19794.725
1757.71349	19721.625
1760.92903	19700.525
1764.14244	19714.925
1767.35375	19664.525
1770.56294	19569.225
1773.77002	19535.925
1776.97499	19481.325
1780.17785	19424.225
1783.37861	19401.325
1786.57727	19384.825
1789.77382	19365.525
1792.96828	19295.925
1796.16064	19259.825
1799.3509	19201.625
1802.53907	19151.825
1805.72514	19118.625
1808.90913	19064.125
1812.09102	19018.425
1815.27083	18923.225
1818.44856	18878.625
1821.6242	18870.425
1824.79776	18817.925
1827.96924	18779.125
1831.13864	18761.025
1834.30597	18762.325
1837.47122	18699.525
1840.6344	18702.825
1843.7955	18699.925
1846.95454	18653.225
1850.11151	18634.825
1853.26642	18622.425
1856.41926	18595.125
1859.57004	18556.125
1862.71876	18538.825
1865.86542	18527.925
1869.01003	18518.325
1872.15258	18486.125
1875.29308	18432.925
1878.43152	18398.725
1881.56792	18373.325
1884.70227	18316.125
1887.83457	18325.625
1890.96482	18239.725
1894.09304	18206.725
1897.21921	18206.825
1900.34335	18188.325
1903.46544	18115.625
1906.58551	18118.625
1909.70353	18082.625
1912.81953	18038.725
1915.93349	18049.125
1919.04543	18000.125
1922.15534	17967.525
1925.26322	17916.325
1928.36908	17875.125
1931.47292	17879.725
1934.57473	17848.925
1937.67453	17845.725
1940.77232	17738.525
1943.86808	17662.025
1946.96184	17610.125
1950.05358	17559.125
1953.14331	17473.725
1956.23103	17400.025
1959.31675	17376.625
1962.40046	17341.825
1965.48217	17276.825
1968.56188	17236.325
1971.63959	17158.625
1974.7153	17108.725
1977.78901	17078.125
1980.86073	17012.225
1983.93046	16944.125
1986.99819	16883.125
1990.06394	16834.825
1993.1277	16788.025
1996.18947	16693.625
1999.24925	16656.225
2002.30706	16641.525
2005.36288	16551.025
2008.41672	16561.025
2011.46859	16463.925
2014.51848	16427.825
2017.56639	16366.125
2020.61233	16278.025
2023.6563	16228.025
2026.6983	16173.225
2029.73833	16145.125
2032.7764	16111.925
2035.8125	16052.125
2038.84664	16048.825
2041.87881	16018.125
2044.90903	15941.225
2047.93729	15931.825
2050.96359	15912.325
2053.98794	15876.425
2057.01034	15861.625
2060.03078	15822.325
2063.04927	15853.625
2066.06582	15844.425
2069.08042	15837.125
2072.09307	15811.325
2075.10378	15773.625
2078.11255	15762.825
2081.11938	15772.625
2084.12426	15730.125
2087.12722	15744.325
2090.12824	15717.925
2093.12732	15693.625
2096.12447	15697.025
2099.11969	15673.625
2102.11299	15704.225
2105.10435	15684.325
2108.09379	15686.525
2111.08131	15684.025
2114.0669	15711.825
2117.05057	15724.125
2120.03233	15732.325
2123.01216	15740.825
2125.99008	15757.125
2128.96609	15741.725
2131.94018	15743.225
2134.91236	15770.925
2137.88263	15769.325
2140.851	15766.125
2143.81746	15791.125
2146.78201	15752.225
2149.74466	15766.325
2152.7054	15753.725
2155.66425	15760.925
2158.6212	15709.025
2161.57625	15707.725
2164.52941	15682.425
2167.48067	15678.625
2170.43004	15654.025
2173.37752	15684.825
2176.32311	15680.125
2179.26681	15686.725
2182.20863	15687.825
2185.14856	15641.725
2188.08661	15643.425
2191.02278	15625.425
2193.95707	15618.825
2196.88948	15572.725
2199.82001	15536.225
2202.74867	15526.625
2205.67545	15516.225
2208.60037	15490.425
2211.52341	15410.525
2214.44458	15443.325
2217.36388	15385.825
2220.28132	15328.025
2223.1969	15257.525
2226.11061	15289.025
2229.02246	15247.625
2231.93245	15212.025
2234.84058	15185.425
2237.74686	15150.325
2240.65128	15119.225
2243.55385	15128.425
2246.45456	15103.325
2249.35343	15088.025
2252.25044	15060.325
2255.14561	14975.025
2258.03893	14978.325
2260.93041	14935.625
2263.82004	14906.125
2266.70783	14892.025
2269.59378	14817.725
2272.4779	14773.025
2275.36017	14722.425
2278.24061	14708.425
2281.11922	14664.725
2283.996	14682.125
2286.87094	14658.025
2289.74405	14576.225
2292.61534	14570.825
2295.4848	14554.825
2298.35243	14547.625
2301.21824	14542.425
2304.08223	14561.325
2306.94439	14551.725
2309.80474	14531.625
2312.66327	14503.725
2315.51999	14475.025
2318.37489	14456.825
2321.22797	14416.325
2324.07925	14393.125
2326.92871	14385.025
2329.77637	14355.325
2332.62222	14289.925
2335.46626	14314.125
2338.3085	14282.725
2341.14893	14242.125
2343.98756	14281.225
2346.8244	14238.225
2349.65943	14191.125
2352.49267	14203.925
2355.32411	14190.025
2358.15376	14179.925
2360.98161	14182.225
2363.80768	14185.925
2366.63195	14169.425
2369.45444	14139.925
2372.27514	14139.925
2375.09405	14122.525
2377.91118	14054.025
2380.72652	14039.125
2383.54009	14011.725
2386.35187	13996.625
2389.16188	13947.425
2391.97011	13881.625
2394.77657	13871.725
2397.58125	13806.425
2400.38416	13784.925
2403.18529	13756.225
2405.98466	13717.125
2408.78226	13720.725
2411.57809	13735.625
2414.37216	13723.225
2417.16446	13724.225
2419.955	13679.925
2422.74378	13674.025
2425.5308	13637.825
2428.31606	13636.025
2431.09956	13603.025
2433.88131	13588.025
2436.6613	13616.125
2439.43954	13603.525
2442.21603	13573.525
2444.99077	13517.825
2447.76377	13553.725
2450.53501	13506.625
2453.30451	13499.325
2456.07226	13453.125
2458.83827	13445.825
2461.60254	13434.925
2464.36507	13424.825
2467.12586	13452.225
2469.88492	13429.425
2472.64224	13391.325
2475.39782	13383.725
2478.15167	13388.325
2480.90379	13370.025
2483.65417	13362.325
2486.40283	13327.425
2489.14976	13363.025
2491.89497	13350.225
2494.63845	13366.225
2497.3802	13334.625
2500.12024	13320.725
2502.85855	13295.525
2505.59514	13296.925
2508.33002	13253.025
2511.06318	13238.725
2513.79462	13226.325
2516.52435	13206.325
2519.25237	13198.925
2521.97867	13144.625
2524.70327	13132.025
2527.42616	13110.525
2530.14734	13094.725
2532.86681	13091.925
2535.58458	13077.725
2538.30065	13031.325
2541.01501	13077.225
2543.72768	13003.725
2546.43864	12991.425
2549.14791	12982.525
2551.85548	12939.025
2554.56136	12885.025
2557.26554	12883.125
2559.96803	12871.625
2562.66883	12832.925
2565.36794	12823.725
2568.06536	12812.425
2570.7611	12804.325
2573.45514	12767.325
2576.14751	12737.025
2578.83819	12693.825
2581.52719	12702.525
2584.21451	12665.625
2586.90015	12656.425
2589.58411	12624.725
2592.2664	12619.925
2594.94701	12604.125
2597.62594	12557.125
2600.30321	12545.425
2602.9788	12539.325
2605.65273	12516.725
2608.32498	12508.025
2610.99557	12517.725
2613.66449	12487.925
2616.33175	12452.525
2618.99734	12406.725
2621.66128	12422.225
2624.32355	12417.625
2626.98416	12346.125
2629.64311	12366.425
2632.30041	12347.625
2634.95605	12321.125
2637.61004	12292.525
2640.26238	12280.425
2642.91306	12249.925
2645.56209	12232.825
2648.20948	12269.125
2650.85521	12256.025
2653.4993	12240.325
2656.14175	12230.425
2658.78255	12266.225
2661.42171	12248.325
2664.05923	12237.725
2666.6951	12235.125
2669.32934	12256.925
2671.96194	12249.225
2674.59291	12236.925
2677.22224	12223.725
2679.84993	12226.225
2682.476	12198.225
2685.10043	12216.825
2687.72324	12181.725
2690.34441	12178.725
2692.96396	12162.925
2695.58188	12167.125
2698.19818	12157.025
2700.81285	12184.725
2703.4259	12166.025
2706.03733	12166.225
2708.64714	12173.125
2711.25533	12150.225
2713.86191	12211.825
2716.46687	12188.525
2719.07021	12189.225
2721.67194	12181.425
2724.27206	12153.625
2726.87057	12177.225
2729.46747	12179.025
2732.06276	12203.525
2734.65644	12157.225
2737.24852	12131.625
2739.83899	12112.625
2742.42786	12116.925
2745.01513	12086.625
2747.60079	12047.225
2750.18486	12052.925
2752.76733	12047.025
2755.3482	11995.325
2757.92747	11997.425
2760.50515	11983.625
2763.08123	11981.425
2765.65573	11977.325
2768.22863	11919.525
2770.79994	11892.725
2773.36967	11929.125
2775.9378	11910.225
2778.50435	11915.425
2781.06932	11904.325
2783.6327	11890.625
2786.1945	11877.425
2788.75471	11840.125
2791.31335	11838.325
2793.87041	11812.125
2796.42589	11789.825
2798.97979	11778.125
2801.53212	11761.825
2804.08288	11755.625
2806.63206	11699.225
2809.17967	11656.725
2811.72571	11651.025
2814.27018	11646.825
2816.81308	11600.325
2819.35442	11604.125
2821.89419	11530.425
2824.43239	11543.925
2826.96904	11519.725
2829.50412	11529.725
2832.03763	11474.925
2834.56959	11446.825
2837.1	11472.625
2839.62884	11473.125
2842.15613	11512.425
2844.68186	11551.425
2847.20604	11538.425
2849.72867	11556.825
2852.24974	11536.825
2854.76927	11525.525
2857.28724	11537.725
2859.80367	11514.925
2862.31855	11447.225
2864.83189	11441.625
2867.34368	11419.025
2869.85393	11407.425
2872.36264	11406.925
2874.8698	11413.825
2877.37543	11404.925
2879.87952	11397.425
2882.38207	11364.025
2884.88308	11366.725
2887.38256	11376.425
2889.88051	11371.625
2892.37692	11374.825
2894.8718	11370.725
2897.36515	11349.725
2899.85698	11335.825
2902.34727	11360.825
2904.83604	11362.325
2907.32328	11385.925
2909.809	11359.225
2912.29319	11386.625
2914.77587	11365.125
2917.25702	11352.725
2919.73665	11334.125
2922.21476	11338.925
2924.69136	11334.325
2927.16644	11352.525
2929.64	11300.725
2932.11205	11301.325
2934.58258	11275.825
2937.05161	11265.425
2939.51912	11254.525
2941.98513	11244.325
2944.44962	11222.425
2946.91261	11137.825
2949.37409	11166.725
2951.83407	11146.025
2954.29254	11134.225
2956.74951	11133.825
2959.20498	11101.725
2961.65895	11084.225
2964.11142	11104.725
2966.56239	11085.225
2969.01186	11082.125
2971.45984	11073.325
2973.90632	11056.125
2976.35131	10997.525
2978.7948	10993.425
2981.23681	10972.925
2983.67732	10951.825
2986.11635	10902.825
2988.55388	10889.325
2990.98993	10869.425
2993.4245	10823.425
2995.85758	10800.225
2998.28917	10788.725
3000.71928	10768.325
3003.14791	10720.025
3005.57506	10723.025
3008.00073	10657.025
3010.42493	10674.825
3012.84764	10667.925
3015.26888	10690.425
3017.68865	10615.325
3020.10694	10580.125
3022.52376	10583.125
3024.9391	10560.425
3027.35298	10523.725
3029.76539	10551.225
3032.17632	10517.325
3034.5858	10483.025
3036.9938	10522.225
3039.40034	10478.625
3041.80542	10497.825
3044.20903	10480.625
3046.61118	10462.425
3049.01187	10407.425
3051.4111	10410.325
3053.80888	10378.425
3056.20519	10390.025
3058.60005	10317.425
3060.99345	10313.925
3063.3854	10276.225
3065.7759	10235.725
3068.16494	10224.625
3070.55254	10184.125
3072.93868	10167.125
3075.32338	10152.925
3077.70662	10117.325
3080.08842	10094.325
3082.46878	10093.625
3084.84769	10086.325
3087.22515	10076.525
3089.60118	10052.525
3091.97576	10062.525
3094.3489	10046.525
3096.72061	10075.725
3099.09087	10062.625
3101.4597	10068.825
3103.82709	10046.225
3106.19305	10029.925
3108.55757	10047.925
3110.92066	9984.725
3113.28232	9970.025
3115.64255	9935.225
3118.00134	9919.725
3120.35871	9940.425
3122.71466	9903.425
3125.06917	9883.625
3127.42226	9843.725
3129.77393	9815.825
