Data from AgNPs_FTO_APTES_UA_5uM_CRN_100uM_R6G_10uM_NaF_0.1M_Addition_RamanShift__30__15-11-16-904.txt Node

Date: Mon Feb 07 15:11:16 GMT 2022
User: TCL
Spectrometer: QEP01345
Trigger mode: 4
Integration Time (sec): 7.000000E0
Scans to average: 10
Electric dark correction enabled: true
Nonlinearity correction enabled: false
Boxcar width: 0
XAxis mode: Raman Shifts
Number of Pixels in Spectrum: 1044
>>>>>Begin Spectral Data<<<<<
46.04893	-0.3875
50.45542	-0.1875
54.85868	-0.5875
59.25871	-0.5875
63.6555	39.7125
68.04907	40.9125
72.43941	47.6125
76.82654	47.3125
81.21044	52.4125
85.59113	54.3125
89.96862	55.0125
94.34289	56.4125
98.71396	54.4125
103.08183	61.9125
107.4465	65.9125
111.80798	62.0125
116.16626	65.3125
120.52136	71.4125
124.87327	70.4125
129.222	74.5125
133.56755	78.7125
137.90993	86.0125
142.24913	90.7125
146.58517	103.7125
150.91804	116.5125
155.24774	147.0125
159.57429	176.9125
163.89768	230.7125
168.21792	308.8125
172.53501	418.4125
176.84895	577.4125
181.15975	805.5125
185.46741	1134.5125
189.77193	1568.3125
194.07331	2100.5125
198.37157	2708.3125
202.6667	3339.3125
206.9587	3986.4125
211.24758	4616.5125
215.53334	5273.2125
219.81599	6031.0125
224.09553	6910.5125
228.37195	7864.4125
232.64527	8870.4125
236.91549	9861.4125
241.18261	10816.6125
245.44663	11553.9125
249.70755	12142.6125
253.96539	12621.2125
258.22014	13081.5125
262.4718	13464.8125
266.72039	13806.0125
270.96589	14021.4125
275.20832	14033.7125
279.44768	13976.4125
283.68397	13911.8125
287.91719	13854.9125
292.14735	13978.9125
296.37445	14315.4125
300.59849	14860.5125
304.81948	15482.4125
309.03742	15945.6125
313.25231	15871.4125
317.46415	15003.9125
321.67296	13697.1125
325.87872	12645.0125
330.08145	12080.1125
334.28114	12032.5125
338.47781	12237.5125
342.67145	12632.0125
346.86207	13198.3125
351.04966	14127.0125
355.23424	15117.4125
359.4158	15802.7125
363.59435	16116.1125
367.76989	16124.5125
371.94243	16009.4125
376.11196	15838.7125
380.27849	15731.6125
384.44203	15496.9125
388.60257	15187.8125
392.76012	15094.5125
396.91468	15235.5125
401.06626	15727.8125
405.21485	16119.2125
409.36047	15789.4125
413.50311	14866.5125
417.64277	13978.9125
421.77947	13432.8125
425.9132	13243.7125
430.04396	13183.2125
434.17176	13233.0125
438.2966	13369.8125
442.41849	13705.6125
446.53742	14068.2125
450.6534	14463.1125
454.76644	14720.5125
458.87653	14744.8125
462.98368	14637.0125
467.08789	14457.7125
471.18916	14191.9125
475.2875	13876.0125
479.38291	13601.0125
483.4754	13362.8125
487.56496	13133.6125
491.6516	12981.5125
495.73531	12910.4125
499.81612	12963.8125
503.89401	13164.0125
507.96899	13348.6125
512.04106	13558.5125
516.11023	13780.9125
520.1765	13907.7125
524.23987	13820.9125
528.30034	13502.9125
532.35792	13174.1125
536.41261	12876.2125
540.46441	12561.6125
544.51333	12445.1125
548.55936	12584.3125
552.60252	12968.3125
556.64279	13443.2125
560.6802	13663.3125
564.71473	13928.6125
568.7464	14636.1125
572.7752	15094.1125
576.80114	14596.1125
580.82422	13946.5125
584.84444	13662.7125
588.86181	13528.4125
592.87633	13481.7125
596.888	13587.5125
600.89682	14086.7125
604.9028	15862.7125
608.90594	20767.1125
612.90624	27555.7125
616.90371	26697.0125
620.89834	17959.9125
624.89015	13793.4125
628.87913	13000.8125
632.86528	13105.8125
636.84862	13393.7125
640.82913	13177.0125
644.80683	12524.3125
648.78172	12102.9125
652.75379	12130.9125
656.72306	12708.9125
660.68952	13508.6125
664.65319	13401.5125
668.61405	12634.5125
672.57211	12241.9125
676.52738	12200.5125
680.47986	12206.0125
684.42955	12114.1125
688.37646	12025.0125
692.32058	12064.4125
696.26192	12212.5125
700.20048	12370.8125
704.13626	12558.4125
708.06928	12551.8125
711.99952	12454.9125
715.927	12356.4125
719.85171	12359.2125
723.77365	12350.5125
727.69284	12198.1125
731.60928	12057.8125
735.52295	11967.9125
739.43388	12011.8125
743.34206	12067.9125
747.24749	12120.0125
751.15017	12261.4125
755.05012	12589.8125
758.94733	13330.0125
762.8418	14999.1125
766.73354	17937.7125
770.62254	21016.8125
774.50882	22536.8125
778.39237	21440.7125
782.27321	18259.5125
786.15132	15116.2125
790.02671	13340.7125
793.89938	12522.9125
797.76935	12194.9125
801.6366	12036.5125
805.50115	11916.6125
809.36299	11872.7125
813.22213	11808.4125
817.07857	11777.7125
820.93231	11782.6125
824.78336	11843.7125
828.63172	11908.0125
832.47738	11940.5125
836.32036	11857.7125
840.16066	11768.2125
843.99827	11694.6125
847.8332	11654.2125
851.66546	11624.8125
855.49504	11613.6125
859.32195	11577.7125
863.1462	11525.4125
866.96777	11477.9125
870.78668	11482.4125
874.60293	11465.8125
878.41652	11490.6125
882.22745	11583.8125
886.03573	11640.3125
889.84136	11618.7125
893.64433	11551.0125
897.44466	11523.4125
901.24235	11512.5125
905.0374	11515.2125
908.8298	11461.0125
912.61957	11444.1125
916.40671	11537.3125
920.19121	11682.4125
923.97308	11766.9125
927.75233	11875.5125
931.52895	11984.0125
935.30295	11817.7125
939.07433	11426.8125
942.84309	11105.2125
946.60924	10879.8125
950.37278	10780.5125
954.13371	10684.9125
957.89203	10653.3125
961.64774	10638.6125
965.40086	10619.4125
969.15137	10549.6125
972.89929	10533.4125
976.64461	10507.4125
980.38733	10505.6125
984.12747	10527.9125
987.86502	10559.0125
991.59999	10634.8125
995.33237	10739.8125
999.06217	10954.5125
1002.78939	11189.7125
1006.51404	11462.5125
1010.23611	11731.4125
1013.95561	11920.2125
1017.67255	11870.7125
1021.38692	11679.2125
1025.09872	11461.0125
1028.80796	11338.9125
1032.51465	11391.5125
1036.21877	11490.6125
1039.92035	11633.8125
1043.61937	11730.4125
1047.31584	11732.1125
1051.00976	11734.5125
1054.70114	11757.6125
1058.38998	11775.2125
1062.07627	11907.4125
1065.76003	12043.6125
1069.44126	12121.2125
1073.11995	12238.3125
1076.79611	12363.3125
1080.46974	12599.4125
1084.14085	12916.8125
1087.80943	13323.0125
1091.47549	13520.6125
1095.13903	13314.3125
1098.80005	12830.8125
1102.45857	12362.5125
1106.11456	12132.7125
1109.76805	12111.5125
1113.41903	12386.2125
1117.06751	12875.2125
1120.71348	13537.4125
1124.35696	14256.5125
1127.99793	14817.8125
1131.63641	14711.0125
1135.2724	13926.0125
1138.90589	13141.4125
1142.5369	12693.8125
1146.16542	12428.7125
1149.79145	12306.9125
1153.415	12321.9125
1157.03607	12477.7125
1160.65467	12794.9125
1164.27079	13313.7125
1167.88443	14080.8125
1171.49561	15401.3125
1175.10432	17580.1125
1178.71056	20368.0125
1182.31434	22207.0125
1185.91565	22416.4125
1189.51451	21676.1125
1193.11091	20271.7125
1196.70485	18653.8125
1200.29634	17455.1125
1203.88538	16572.6125
1207.47197	15452.1125
1211.05612	14481.9125
1214.63782	13944.1125
1218.21708	13737.1125
1221.79391	13727.1125
1225.36829	13786.2125
1228.94024	13848.9125
1232.50976	13902.8125
1236.07685	13953.8125
1239.6415	13989.6125
1243.20374	14044.7125
1246.76355	14107.8125
1250.32093	14308.5125
1253.8759	14625.8125
1257.42845	15106.5125
1260.97859	15604.8125
1264.52631	16112.4125
1268.07163	16594.7125
1271.61453	17069.2125
1275.15503	17349.4125
1278.69312	17458.8125
1282.22882	17554.7125
1285.76211	17925.5125
1289.29301	18546.6125
1292.82151	19213.9125
1296.34761	19919.8125
1299.87133	20993.3125
1303.39266	22819.0125
1306.9116	25651.8125
1310.42815	28878.9125
1313.94233	30855.5125
1317.45412	30238.7125
1320.96354	28116.5125
1324.47058	25726.2125
1327.97525	23797.6125
1331.47754	22579.8125
1334.97747	22108.7125
1338.47502	22214.3125
1341.97022	22750.6125
1345.46305	23552.5125
1348.95352	24813.1125
1352.44163	26547.0125
1355.92738	29208.4125
1359.41078	33593.3125
1362.89183	37938.8125
1366.37053	36856.1125
1369.84688	30855.6125
1373.32088	25118.5125
1376.79254	21555.6125
1380.26186	19805.5125
1383.72883	18960.0125
1387.19347	18346.6125
1390.65578	17773.1125
1394.11575	17198.5125
1397.57339	16926.2125
1401.0287	16962.8125
1404.48168	17111.4125
1407.93234	17303.6125
1411.38068	17363.7125
1414.82669	17206.9125
1418.27039	16770.4125
1421.71177	16296.5125
1425.15083	15802.9125
1428.58758	15522.8125
1432.02203	15515.7125
1435.45416	15675.8125
1438.88399	15790.2125
1442.31151	15833.3125
1445.73673	15910.6125
1449.15965	16070.0125
1452.58027	16140.6125
1455.9986	16076.3125
1459.41463	16161.9125
1462.82837	16370.6125
1466.23982	16689.7125
1469.64898	17039.4125
1473.05586	17290.4125
1476.46045	17437.0125
1479.86276	17709.0125
1483.26279	18085.5125
1486.66054	18608.9125
1490.05602	19286.8125
1493.44922	20233.4125
1496.84016	21713.2125
1500.22882	24099.4125
1503.61521	27321.7125
1506.99934	30961.5125
1510.38121	34498.5125
1513.76081	36363.1125
1517.13816	34689.2125
1520.51324	30325.6125
1523.88607	25834.0125
1527.25665	22762.6125
1530.62498	21013.2125
1533.99105	19915.4125
1537.35488	19245.9125
1540.71647	18807.4125
1544.07581	18572.4125
1547.4329	18430.7125
1550.78776	18291.5125
1554.14038	18236.2125
1557.49077	18400.6125
1560.83892	18851.4125
1564.18484	19496.7125
1567.52853	20180.4125
1570.86999	20692.6125
1574.20922	20954.9125
1577.54624	20793.5125
1580.88103	19692.6125
1584.2136	18253.5125
1587.54395	17476.9125
1590.87208	17633.9125
1594.19801	18496.4125
1597.52172	19706.6125
1600.84321	20180.2125
1604.16251	19447.5125
1607.47959	18114.6125
1610.79447	16772.6125
1614.10715	15430.7125
1617.41763	14376.1125
1620.7259	13677.8125
1624.03199	13324.0125
1627.33587	13262.8125
1630.63757	13544.3125
1633.93707	14168.4125
1637.23439	15235.3125
1640.52951	16832.4125
1643.82246	19078.0125
1647.11321	21879.9125
1650.40179	24056.0125
1653.68819	23714.3125
1656.97241	20618.0125
1660.25446	16937.2125
1663.53433	14263.5125
1666.81203	12647.9125
1670.08756	11687.8125
1673.36092	11148.5125
1676.63211	10802.2125
1679.90115	10549.1125
1683.16801	10357.6125
1686.43272	10250.0125
1689.69527	10159.3125
1692.95567	10045.0125
1696.2139	10028.0125
1699.46999	9981.2125
1702.72392	9947.7125
1705.97571	9913.6125
1709.22535	9893.0125
1712.47284	9887.7125
1715.71819	9901.6125
1718.96139	9893.9125
1722.20246	9898.1125
1725.44139	9834.0125
1728.67818	9756.5125
1731.91284	9654.3125
1735.14537	9590.4125
1738.37576	9523.5125
1741.60403	9469.8125
1744.83017	9442.9125
1748.05418	9415.7125
1751.27607	9402.6125
1754.49584	9385.6125
1757.71349	9369.9125
1760.92903	9360.1125
1764.14244	9322.2125
1767.35375	9296.1125
1770.56294	9267.8125
1773.77002	9235.1125
1776.97499	9202.4125
1780.17785	9154.8125
1783.37861	9135.5125
1786.57727	9121.1125
1789.77382	9096.8125
1792.96828	9101.4125
1796.16064	9087.5125
1799.3509	9054.0125
1802.53907	9020.2125
1805.72514	8990.0125
1808.90913	8956.1125
1812.09102	8957.0125
1815.27083	8895.1125
1818.44856	8886.9125
1821.6242	8862.3125
1824.79776	8862.1125
1827.96924	8840.7125
1831.13864	8819.3125
1834.30597	8820.6125
1837.47122	8800.0125
1840.6344	8798.9125
1843.7955	8806.2125
1846.95454	8788.9125
1850.11151	8776.3125
1853.26642	8756.8125
1856.41926	8761.9125
1859.57004	8771.7125
1862.71876	8765.7125
1865.86542	8748.9125
1869.01003	8760.6125
1872.15258	8768.4125
1875.29308	8757.8125
1878.43152	8751.8125
1881.56792	8782.3125
1884.70227	8773.4125
1887.83457	8747.1125
1890.96482	8748.5125
1894.09304	8734.5125
1897.21921	8756.0125
1900.34335	8775.1125
1903.46544	8762.1125
1906.58551	8776.3125
1909.70353	8766.9125
1912.81953	8758.4125
1915.93349	8749.5125
1919.04543	8742.8125
1922.15534	8721.7125
1925.26322	8697.5125
1928.36908	8650.5125
1931.47292	8612.8125
1934.57473	8585.3125
1937.67453	8546.7125
1940.77232	8481.8125
1943.86808	8485.8125
1946.96184	8429.2125
1950.05358	8392.6125
1953.14331	8375.0125
1956.23103	8355.5125
1959.31675	8313.5125
1962.40046	8283.2125
1965.48217	8265.7125
1968.56188	8239.9125
1971.63959	8217.9125
1974.7153	8195.1125
1977.78901	8186.1125
1980.86073	8128.9125
1983.93046	8103.9125
1986.99819	8056.6125
1990.06394	8043.5125
1993.1277	7999.9125
1996.18947	7973.0125
1999.24925	7936.0125
2002.30706	7938.7125
2005.36288	7904.7125
2008.41672	7874.3125
2011.46859	7849.6125
2014.51848	7830.8125
2017.56639	7824.3125
2020.61233	7766.9125
2023.6563	7752.8125
2026.6983	7738.0125
2029.73833	7691.4125
2032.7764	7693.8125
2035.8125	7663.7125
2038.84664	7632.8125
2041.87881	7618.0125
2044.90903	7629.5125
2047.93729	7597.9125
2050.96359	7592.4125
2053.98794	7585.4125
2057.01034	7553.3125
2060.03078	7570.2125
2063.04927	7544.0125
2066.06582	7523.9125
2069.08042	7531.8125
2072.09307	7540.7125
2075.10378	7498.9125
2078.11255	7506.9125
2081.11938	7499.7125
2084.12426	7487.2125
2087.12722	7488.9125
2090.12824	7495.4125
2093.12732	7465.4125
2096.12447	7475.6125
2099.11969	7477.8125
2102.11299	7452.3125
2105.10435	7464.3125
2108.09379	7466.8125
2111.08131	7470.3125
2114.0669	7488.3125
2117.05057	7477.5125
2120.03233	7492.7125
2123.01216	7501.1125
2125.99008	7510.3125
2128.96609	7507.6125
2131.94018	7506.2125
2134.91236	7512.2125
2137.88263	7510.3125
2140.851	7512.0125
2143.81746	7515.9125
2146.78201	7507.9125
2149.74466	7494.7125
2152.7054	7498.1125
2155.66425	7487.3125
2158.6212	7472.9125
2161.57625	7431.9125
2164.52941	7438.0125
2167.48067	7437.2125
2170.43004	7449.8125
2173.37752	7437.2125
2176.32311	7438.9125
2179.26681	7451.6125
2182.20863	7430.2125
2185.14856	7432.0125
2188.08661	7427.2125
2191.02278	7413.4125
2193.95707	7413.6125
2196.88948	7404.6125
2199.82001	7391.7125
2202.74867	7384.8125
2205.67545	7369.4125
2208.60037	7341.0125
2211.52341	7350.4125
2214.44458	7353.2125
2217.36388	7334.1125
2220.28132	7302.4125
2223.1969	7291.6125
2226.11061	7272.4125
2229.02246	7240.4125
2231.93245	7234.8125
2234.84058	7215.5125
2237.74686	7181.3125
2240.65128	7191.3125
2243.55385	7164.0125
2246.45456	7166.0125
2249.35343	7148.1125
2252.25044	7161.4125
2255.14561	7137.4125
2258.03893	7164.7125
2260.93041	7162.4125
2263.82004	7134.2125
2266.70783	7129.9125
2269.59378	7088.5125
2272.4779	7066.4125
2275.36017	7059.7125
2278.24061	7047.0125
2281.11922	7028.3125
2283.996	7003.5125
2286.87094	6996.5125
2289.74405	6982.5125
2292.61534	6947.2125
2295.4848	6938.9125
2298.35243	6920.0125
2301.21824	6929.6125
2304.08223	6925.1125
2306.94439	6911.1125
2309.80474	6902.5125
2312.66327	6924.2125
2315.51999	6891.8125
2318.37489	6896.0125
2321.22797	6879.6125
2324.07925	6897.8125
2326.92871	6870.4125
2329.77637	6855.6125
2332.62222	6837.8125
2335.46626	6844.5125
2338.3085	6846.5125
2341.14893	6818.6125
2343.98756	6826.4125
2346.8244	6845.2125
2349.65943	6843.8125
2352.49267	6850.2125
2355.32411	6868.4125
2358.15376	6872.8125
2360.98161	6861.6125
2363.80768	6902.3125
2366.63195	6908.9125
2369.45444	6905.8125
2372.27514	6917.7125
2375.09405	6889.6125
2377.91118	6827.4125
2380.72652	6841.8125
2383.54009	6787.8125
2386.35187	6755.0125
2389.16188	6721.9125
2391.97011	6703.1125
2394.77657	6676.5125
2397.58125	6667.3125
2400.38416	6659.0125
2403.18529	6614.5125
2405.98466	6592.8125
2408.78226	6575.6125
2411.57809	6581.6125
2414.37216	6565.8125
2417.16446	6576.2125
2419.955	6556.4125
2422.74378	6586.3125
2425.5308	6536.9125
2428.31606	6568.2125
2431.09956	6568.7125
2433.88131	6526.7125
2436.6613	6549.8125
2439.43954	6534.3125
2442.21603	6533.2125
2444.99077	6539.4125
2447.76377	6536.2125
2450.53501	6534.3125
2453.30451	6537.0125
2456.07226	6528.6125
2458.83827	6526.5125
2461.60254	6519.3125
2464.36507	6505.5125
2467.12586	6508.7125
2469.88492	6495.8125
2472.64224	6515.2125
2475.39782	6538.2125
2478.15167	6539.5125
2480.90379	6531.6125
2483.65417	6519.2125
2486.40283	6552.6125
2489.14976	6579.9125
2491.89497	6573.8125
2494.63845	6600.8125
2497.3802	6590.0125
2500.12024	6588.1125
2502.85855	6547.4125
2505.59514	6540.3125
2508.33002	6510.5125
2511.06318	6471.8125
2513.79462	6451.2125
2516.52435	6430.0125
2519.25237	6393.8125
2521.97867	6393.4125
2524.70327	6369.5125
2527.42616	6356.5125
2530.14734	6349.4125
2532.86681	6326.2125
2535.58458	6335.4125
2538.30065	6343.1125
2541.01501	6330.1125
2543.72768	6339.9125
2546.43864	6327.0125
2549.14791	6303.8125
2551.85548	6313.2125
2554.56136	6305.2125
2557.26554	6299.5125
2559.96803	6312.5125
2562.66883	6273.5125
2565.36794	6255.0125
2568.06536	6232.0125
2570.7611	6255.6125
2573.45514	6234.6125
2576.14751	6209.6125
2578.83819	6199.4125
2581.52719	6206.6125
2584.21451	6192.7125
2586.90015	6193.2125
2589.58411	6160.4125
2592.2664	6167.6125
2594.94701	6151.1125
2597.62594	6145.0125
2600.30321	6144.4125
2602.9788	6154.9125
2605.65273	6135.1125
2608.32498	6134.0125
2610.99557	6136.3125
2613.66449	6131.0125
2616.33175	6134.0125
2618.99734	6136.9125
2621.66128	6118.2125
2624.32355	6112.6125
2626.98416	6100.9125
2629.64311	6089.8125
2632.30041	6079.6125
2634.95605	6068.8125
2637.61004	6053.0125
2640.26238	6053.2125
2642.91306	6040.9125
2645.56209	6028.8125
2648.20948	6025.1125
2650.85521	6015.7125
2653.4993	6016.6125
2656.14175	6036.7125
2658.78255	6037.4125
2661.42171	6033.6125
2664.05923	6043.9125
2666.6951	6038.3125
2669.32934	6050.9125
2671.96194	6060.2125
2674.59291	6076.3125
2677.22224	6068.7125
2679.84993	6079.6125
2682.476	6071.4125
2685.10043	6057.4125
2687.72324	6035.4125
2690.34441	6042.2125
2692.96396	6035.2125
2695.58188	6046.5125
2698.19818	6039.7125
2700.81285	6073.8125
2703.4259	6073.8125
2706.03733	6128.9125
2708.64714	6101.5125
2711.25533	6082.5125
2713.86191	6086.6125
2716.46687	6089.6125
2719.07021	6084.1125
2721.67194	6088.2125
2724.27206	6064.4125
2726.87057	6084.6125
2729.46747	6081.4125
2732.06276	6060.7125
2734.65644	6063.6125
2737.24852	6047.8125
2739.83899	6044.5125
2742.42786	6047.1125
2745.01513	6014.4125
2747.60079	5998.2125
2750.18486	6001.5125
2752.76733	5999.2125
2755.3482	5986.8125
2757.92747	5980.5125
2760.50515	5965.3125
2763.08123	5961.7125
2765.65573	5942.2125
2768.22863	5954.5125
2770.79994	5936.6125
2773.36967	5936.7125
2775.9378	5934.6125
2778.50435	5913.4125
2781.06932	5920.1125
2783.6327	5930.1125
2786.1945	5943.7125
2788.75471	5943.7125
2791.31335	5929.6125
2793.87041	5918.8125
2796.42589	5888.6125
2798.97979	5894.1125
2801.53212	5887.1125
2804.08288	5894.0125
2806.63206	5852.8125
2809.17967	5835.5125
2811.72571	5855.4125
2814.27018	5865.2125
2816.81308	5853.6125
2819.35442	5862.7125
2821.89419	5852.9125
2824.43239	5859.8125
2826.96904	5879.8125
2829.50412	5882.4125
2832.03763	5874.6125
2834.56959	5901.2125
2837.1	5888.7125
2839.62884	5910.3125
2842.15613	5945.5125
2844.68186	6017.0125
2847.20604	6075.8125
2849.72867	6116.3125
2852.24974	6153.5125
2854.76927	6164.1125
2857.28724	6138.2125
2859.80367	6136.1125
2862.31855	6102.6125
2864.83189	6108.1125
2867.34368	6076.8125
2869.85393	6065.5125
2872.36264	6057.5125
2874.8698	6064.6125
2877.37543	6044.5125
2879.87952	6037.8125
2882.38207	6043.8125
2884.88308	6013.0125
2887.38256	6024.2125
2889.88051	6010.3125
2892.37692	6029.6125
2894.8718	5998.6125
2897.36515	6015.0125
2899.85698	6031.1125
2902.34727	6042.0125
2904.83604	6028.3125
2907.32328	6034.1125
2909.809	6024.0125
2912.29319	6024.2125
2914.77587	6021.7125
2917.25702	6024.7125
2919.73665	6015.9125
2922.21476	6005.1125
2924.69136	5996.9125
2927.16644	6001.7125
2929.64	5987.3125
2932.11205	5943.5125
2934.58258	5951.2125
2937.05161	5916.0125
2939.51912	5908.5125
2941.98513	5877.3125
2944.44962	5840.1125
2946.91261	5802.4125
2949.37409	5763.5125
2951.83407	5741.1125
2954.29254	5710.1125
2956.74951	5696.2125
2959.20498	5680.6125
2961.65895	5668.7125
2964.11142	5662.6125
2966.56239	5647.9125
2969.01186	5636.1125
2971.45984	5617.2125
2973.90632	5614.8125
2976.35131	5589.0125
2978.7948	5591.0125
2981.23681	5557.2125
2983.67732	5549.9125
2986.11635	5524.1125
2988.55388	5511.4125
2990.98993	5504.0125
2993.4245	5485.9125
2995.85758	5472.3125
2998.28917	5456.8125
3000.71928	5443.9125
3003.14791	5423.2125
3005.57506	5421.9125
3008.00073	5403.6125
3010.42493	5296.5125
3012.84764	5403.5125
3015.26888	5401.4125
3017.68865	5365.9125
3020.10694	5354.7125
3022.52376	5384.4125
3024.9391	5373.3125
3027.35298	5360.5125
3029.76539	5333.5125
3032.17632	5327.5125
3034.5858	5320.3125
3036.9938	5319.5125
3039.40034	5300.8125
3041.80542	5314.6125
3044.20903	5299.2125
3046.61118	5301.2125
3049.01187	5266.1125
3051.4111	5270.9125
3053.80888	5257.3125
3056.20519	5231.6125
3058.60005	5226.3125
3060.99345	5230.8125
3063.3854	5218.2125
3065.7759	5187.2125
3068.16494	5175.3125
3070.55254	5157.7125
3072.93868	5153.7125
3075.32338	5129.9125
3077.70662	5118.8125
3080.08842	5099.6125
