Data from AgNPs_FTO_APTES_UA_5uM_CRN_200uM_R6G_10uM_NaF_0.1M_Addition_RamanShift__3__16-03-21-763.txt Node

Date: Mon Feb 07 16:03:21 GMT 2022
User: TCL
Spectrometer: QEP01345
Trigger mode: 4
Integration Time (sec): 7.000000E0
Scans to average: 10
Electric dark correction enabled: true
Nonlinearity correction enabled: false
Boxcar width: 0
XAxis mode: Raman Shifts
Number of Pixels in Spectrum: 1044
>>>>>Begin Spectral Data<<<<<
46.04893	-1.9875
50.45542	-0.9875
54.85868	0.4125
59.25871	-0.5875
63.6555	72.0125
68.04907	79.9125
72.43941	86.1125
76.82654	82.6125
81.21044	88.2125
85.59113	86.6125
89.96862	94.1125
94.34289	94.9125
98.71396	100.5125
103.08183	101.8125
107.4465	105.6125
111.80798	108.8125
116.16626	110.0125
120.52136	115.6125
124.87327	123.2125
129.222	131.7125
133.56755	139.4125
137.90993	154.1125
142.24913	171.7125
146.58517	196.6125
150.91804	228.1125
155.24774	282.2125
159.57429	354.9125
163.89768	458.1125
168.21792	620.3125
172.53501	838.0125
176.84895	1191.2125
181.15975	1667.9125
185.46741	2350.2125
189.77193	3233.1125
194.07331	4370.3125
198.37157	5606.4125
202.6667	6925.4125
206.9587	8239.5125
211.24758	9552.8125
215.53334	10843.1125
219.81599	12244.7125
224.09553	13806.8125
228.37195	15460.6125
232.64527	17315.9125
236.91549	19226.8125
241.18261	21072.4125
245.44663	22790.0125
249.70755	24305.8125
253.96539	25623.9125
258.22014	26714.7125
262.4718	27654.0125
266.72039	28358.6125
270.96589	28804.4125
275.20832	28990.8125
279.44768	28916.0125
283.68397	28810.4125
287.91719	28752.9125
292.14735	28851.4125
296.37445	29186.2125
300.59849	29485.4125
304.81948	29789.6125
309.03742	29810.5125
313.25231	29419.4125
317.46415	28544.7125
321.67296	27410.2125
325.87872	26450.2125
330.08145	25841.9125
334.28114	25709.6125
338.47781	25841.8125
342.67145	26198.7125
346.86207	26550.5125
351.04966	27066.8125
355.23424	27543.1125
359.4158	27908.7125
363.59435	28140.9125
367.76989	28303.5125
371.94243	28371.3125
376.11196	28386.4125
380.27849	28352.8125
384.44203	28512.4125
388.60257	28676.6125
392.76012	28929.7125
396.91468	29372.6125
401.06626	29841.2125
405.21485	30187.4125
409.36047	29915.7125
413.50311	29232.4125
417.64277	28625.1125
421.77947	28270.5125
425.9132	28176.7125
430.04396	28293.5125
434.17176	28448.7125
438.2966	28731.7125
442.41849	29229.2125
446.53742	29993.6125
450.6534	30871.3125
454.76644	31475.6125
458.87653	31726.6125
462.98368	31727.6125
467.08789	31604.6125
471.18916	31487.0125
475.2875	31424.6125
479.38291	31446.6125
483.4754	31322.7125
487.56496	30773.6125
491.6516	29958.8125
495.73531	29218.4125
499.81612	28668.9125
503.89401	28728.0125
507.96899	28785.5125
512.04106	28913.1125
516.11023	28827.6125
520.1765	28672.2125
524.23987	28415.9125
528.30034	28050.2125
532.35792	27764.7125
536.41261	27388.7125
540.46441	27146.3125
544.51333	27138.9125
548.55936	27557.1125
552.60252	28352.4125
556.64279	29301.2125
560.6802	29861.6125
564.71473	30286.4125
568.7464	31116.5125
572.7752	32156.5125
576.80114	32972.4125
580.82422	33431.8125
584.84444	33601.9125
588.86181	33843.8125
592.87633	33908.3125
596.888	33577.3125
600.89682	33153.6125
604.9028	33664.4125
608.90594	36409.2125
612.90624	39775.1125
616.90371	37456.2125
620.89834	30612.3125
624.89015	27492.0125
628.87913	27112.7125
632.86528	27382.2125
636.84862	27640.5125
640.82913	27297.8125
644.80683	26638.8125
648.78172	26071.8125
652.75379	25931.2125
656.72306	26183.7125
660.68952	26638.4125
664.65319	26494.6125
668.61405	25965.3125
672.57211	25731.4125
676.52738	25780.2125
680.47986	25831.3125
684.42955	25755.9125
688.37646	25617.3125
692.32058	25640.2125
696.26192	25858.1125
700.20048	26113.4125
704.13626	26360.6125
708.06928	26481.2125
711.99952	26436.7125
715.927	26372.2125
719.85171	26363.6125
723.77365	26230.2125
727.69284	25913.3125
731.60928	25615.8125
735.52295	25469.4125
739.43388	25414.7125
743.34206	25419.4125
747.24749	25544.2125
751.15017	25801.5125
755.05012	26329.3125
758.94733	27273.4125
762.8418	29121.4125
766.73354	31830.0125
770.62254	34458.7125
774.50882	35003.4125
778.39237	33181.8125
782.27321	30245.5125
786.15132	27800.1125
790.02671	26315.2125
793.89938	25565.4125
797.76935	25226.0125
801.6366	25070.3125
805.50115	24948.7125
809.36299	24845.1125
813.22213	24731.4125
817.07857	24768.3125
820.93231	24788.9125
824.78336	24688.2125
828.63172	24562.0125
832.47738	24496.9125
836.32036	24430.7125
840.16066	24363.9125
843.99827	24324.9125
847.8332	24267.4125
851.66546	24249.8125
855.49504	24289.6125
859.32195	24260.4125
863.1462	24187.7125
866.96777	24081.7125
870.78668	24029.7125
874.60293	24018.2125
878.41652	23985.1125
882.22745	24085.2125
886.03573	24157.2125
889.84136	24106.1125
893.64433	24068.3125
897.44466	23988.9125
901.24235	23902.9125
905.0374	23811.1125
908.8298	23796.5125
912.61957	23889.2125
916.40671	24231.5125
920.19121	24641.0125
923.97308	24826.8125
927.75233	24686.9125
931.52895	24425.5125
935.30295	24037.3125
939.07433	23557.4125
942.84309	23142.6125
946.60924	22857.8125
950.37278	22688.0125
954.13371	22645.2125
957.89203	22701.0125
961.64774	22677.3125
965.40086	22662.5125
969.15137	22533.8125
972.89929	22361.9125
976.64461	22277.2125
980.38733	22171.3125
984.12747	22204.0125
987.86502	22290.1125
991.59999	22440.4125
995.33237	22557.6125
999.06217	22884.8125
1002.78939	23233.8125
1006.51404	23487.0125
1010.23611	23795.5125
1013.95561	24050.2125
1017.67255	24136.9125
1021.38692	24006.7125
1025.09872	23695.2125
1028.80796	23470.3125
1032.51465	23508.0125
1036.21877	23703.1125
1039.92035	23888.9125
1043.61937	23965.2125
1047.31584	23998.7125
1051.00976	24004.7125
1054.70114	24075.0125
1058.38998	24269.5125
1062.07627	24579.5125
1065.76003	24984.5125
1069.44126	25230.5125
1073.11995	25554.5125
1076.79611	25801.7125
1080.46974	25922.0125
1084.14085	26068.4125
1087.80943	26299.0125
1091.47549	26585.3125
1095.13903	26722.8125
1098.80005	26479.4125
1102.45857	25799.1125
1106.11456	25251.0125
1109.76805	24928.9125
1113.41903	24939.9125
1117.06751	25216.4125
1120.71348	25675.9125
1124.35696	26153.1125
1127.99793	26707.8125
1131.63641	26934.6125
1135.2724	26528.9125
1138.90589	26147.7125
1142.5369	26042.7125
1146.16542	26171.7125
1149.79145	26476.6125
1153.415	26861.5125
1157.03607	27430.9125
1160.65467	28279.2125
1164.27079	29448.0125
1167.88443	31091.0125
1171.49561	33052.0125
1175.10432	35620.4125
1178.71056	38860.5125
1182.31434	41702.4125
1185.91565	43112.5125
1189.51451	43147.0125
1193.11091	42181.3125
1196.70485	40628.7125
1200.29634	38759.2125
1203.88538	37388.6125
1207.47197	36322.6125
1211.05612	35485.1125
1214.63782	34691.6125
1218.21708	33548.9125
1221.79391	32385.0125
1225.36829	31593.8125
1228.94024	30948.9125
1232.50976	30487.8125
1236.07685	30116.6125
1239.6415	29999.4125
1243.20374	30091.2125
1246.76355	30378.7125
1250.32093	30722.5125
1253.8759	31279.8125
1257.42845	32092.5125
1260.97859	32978.1125
1264.52631	33839.5125
1268.07163	34739.1125
1271.61453	35671.1125
1275.15503	36678.1125
1278.69312	37780.3125
1282.22882	38783.1125
1285.76211	40191.6125
1289.29301	42079.0125
1292.82151	44409.9125
1296.34761	47157.7125
1299.87133	50167.1125
1303.39266	53092.3125
1306.9116	55903.0125
1310.42815	58169.4125
1313.94233	59457.9125
1317.45412	59299.6125
1320.96354	58530.6125
1324.47058	57760.2125
1327.97525	56947.8125
1331.47754	56200.1125
1334.97747	55732.1125
1338.47502	55382.7125
1341.97022	55161.5125
1345.46305	55214.8125
1348.95352	55078.2125
1352.44163	55078.1125
1355.92738	55605.7125
1359.41078	57371.6125
1362.89183	59407.3125
1366.37053	58040.9125
1369.84688	52778.4125
1373.32088	46884.4125
1376.79254	43071.2125
1380.26186	41764.9125
1383.72883	41780.2125
1387.19347	42126.7125
1390.65578	42107.0125
1394.11575	42094.8125
1397.57339	42182.6125
1401.0287	42280.2125
1404.48168	42226.2125
1407.93234	41567.2125
1411.38068	40274.2125
1414.82669	38362.2125
1418.27039	36428.9125
1421.71177	34642.4125
1425.15083	33234.6125
1428.58758	32473.1125
1432.02203	32570.4125
1435.45416	33313.0125
1438.88399	34352.7125
1442.31151	35261.5125
1445.73673	35953.2125
1449.15965	36680.5125
1452.58027	37397.7125
1455.9986	37905.2125
1459.41463	38280.8125
1462.82837	38674.8125
1466.23982	39087.5125
1469.64898	39438.1125
1473.05586	39615.9125
1476.46045	39535.9125
1479.86276	39220.9125
1483.26279	38901.6125
1486.66054	38743.9125
1490.05602	39078.2125
1493.44922	39903.9125
1496.84016	41168.4125
1500.22882	43275.6125
1503.61521	46093.7125
1506.99934	49226.6125
1510.38121	51735.6125
1513.76081	52445.2125
1517.13816	50815.2125
1520.51324	48033.4125
1523.88607	45768.4125
1527.25665	44495.7125
1530.62498	43939.4125
1533.99105	43495.0125
1537.35488	42753.1125
1540.71647	41644.7125
1544.07581	40129.2125
1547.4329	38788.7125
1550.78776	37684.7125
1554.14038	37124.4125
1557.49077	36871.5125
1560.83892	36910.8125
1564.18484	37231.6125
1567.52853	37698.0125
1570.86999	38355.9125
1574.20922	39307.5125
1577.54624	40134.3125
1580.88103	40199.0125
1584.2136	40029.2125
1587.54395	40339.3125
1590.87208	41234.1125
1594.19801	42680.1125
1597.52172	44135.1125
1600.84321	44246.4125
1604.16251	42283.0125
1607.47959	39311.4125
1610.79447	36247.9125
1614.10715	33363.4125
1617.41763	30855.2125
1620.7259	29051.9125
1624.03199	28030.5125
1627.33587	27941.2125
1630.63757	28627.5125
1633.93707	30385.4125
1637.23439	33274.0125
1640.52951	37639.8125
1643.82246	42964.6125
1647.11321	47848.3125
1650.40179	49918.0125
1653.68819	47584.5125
1656.97241	41799.5125
1660.25446	35291.8125
1663.53433	30088.5125
1666.81203	26531.5125
1670.08756	24265.0125
1673.36092	22851.5125
1676.63211	21994.9125
1679.90115	21340.8125
1683.16801	20868.1125
1686.43272	20523.9125
1689.69527	20262.8125
1692.95567	20073.6125
1696.2139	19955.4125
1699.46999	19783.2125
1702.72392	19698.0125
1705.97571	19631.8125
1709.22535	19541.0125
1712.47284	19466.7125
1715.71819	19398.1125
1718.96139	19392.5125
1722.20246	19295.2125
1725.44139	19144.9125
1728.67818	19035.6125
1731.91284	18927.6125
1735.14537	18788.3125
1738.37576	18684.0125
1741.60403	18588.1125
1744.83017	18514.4125
1748.05418	18471.3125
1751.27607	18467.5125
1754.49584	18431.5125
1757.71349	18394.6125
1760.92903	18376.1125
1764.14244	18335.6125
1767.35375	18270.8125
1770.56294	18240.6125
1773.77002	18158.1125
1776.97499	18105.9125
1780.17785	18054.2125
1783.37861	17981.6125
1786.57727	17966.7125
1789.77382	17909.3125
1792.96828	17863.8125
1796.16064	17826.4125
1799.3509	17797.1125
1802.53907	17713.9125
1805.72514	17681.6125
1808.90913	17625.8125
1812.09102	17559.6125
1815.27083	17493.9125
1818.44856	17462.1125
1821.6242	17411.1125
1824.79776	17369.6125
1827.96924	17342.0125
1831.13864	17308.6125
1834.30597	17285.8125
1837.47122	17261.5125
1840.6344	17232.9125
1843.7955	17204.8125
1846.95454	17212.7125
1850.11151	17179.7125
1853.26642	17161.6125
1856.41926	17124.7125
1859.57004	17133.8125
1862.71876	17106.2125
1865.86542	17066.1125
1869.01003	17033.2125
1872.15258	17046.6125
1875.29308	17023.0125
1878.43152	16964.0125
1881.56792	16983.1125
1884.70227	16951.1125
1887.83457	16887.8125
1890.96482	16835.8125
1894.09304	16822.4125
1897.21921	16789.2125
1900.34335	16771.3125
1903.46544	16750.9125
1906.58551	16708.9125
1909.70353	16710.3125
1912.81953	16648.6125
1915.93349	16628.7125
1919.04543	16576.4125
1922.15534	16557.6125
1925.26322	16488.3125
1928.36908	16450.7125
1931.47292	16438.2125
1934.57473	16431.2125
1937.67453	16385.4125
1940.77232	16314.6125
1943.86808	16250.5125
1946.96184	16170.4125
1950.05358	16145.7125
1953.14331	16068.9125
1956.23103	15990.8125
1959.31675	15983.1125
1962.40046	15945.3125
1965.48217	15847.0125
1968.56188	15791.3125
1971.63959	15743.3125
1974.7153	15724.2125
1977.78901	15658.7125
1980.86073	15613.2125
1983.93046	15547.3125
1986.99819	15478.9125
1990.06394	15436.0125
1993.1277	15399.4125
1996.18947	15335.6125
1999.24925	15278.3125
2002.30706	15271.5125
2005.36288	15183.3125
2008.41672	15178.7125
2011.46859	15095.8125
2014.51848	15034.4125
2017.56639	14984.4125
2020.61233	14915.9125
2023.6563	14866.9125
2026.6983	14826.7125
2029.73833	14776.2125
2032.7764	14744.2125
2035.8125	14732.2125
2038.84664	14693.6125
2041.87881	14678.7125
2044.90903	14622.2125
2047.93729	14597.1125
2050.96359	14566.8125
2053.98794	14573.8125
2057.01034	14542.5125
2060.03078	14536.6125
2063.04927	14532.0125
2066.06582	14503.6125
2069.08042	14508.8125
2072.09307	14481.5125
2075.10378	14447.7125
2078.11255	14439.5125
2081.11938	14456.0125
2084.12426	14428.0125
2087.12722	14409.8125
2090.12824	14401.6125
2093.12732	14379.8125
2096.12447	14398.5125
2099.11969	14375.3125
2102.11299	14362.8125
2105.10435	14350.4125
2108.09379	14345.3125
2111.08131	14375.3125
2114.0669	14347.2125
2117.05057	14374.5125
2120.03233	14425.5125
2123.01216	14393.7125
2125.99008	14411.3125
2128.96609	14401.6125
2131.94018	14396.5125
2134.91236	14397.9125
2137.88263	14429.4125
2140.851	14399.8125
2143.81746	14410.0125
2146.78201	14371.2125
2149.74466	14364.1125
2152.7054	14379.3125
2155.66425	14363.6125
2158.6212	14337.3125
2161.57625	14327.9125
2164.52941	14310.6125
2167.48067	14285.3125
2170.43004	14304.7125
2173.37752	14273.2125
2176.32311	14274.7125
2179.26681	14271.3125
2182.20863	14292.1125
2185.14856	14272.2125
2188.08661	14285.5125
2191.02278	14285.8125
2193.95707	14259.0125
2196.88948	14209.7125
2199.82001	14173.3125
2202.74867	14134.2125
2205.67545	14122.0125
2208.60037	14111.9125
2211.52341	14093.3125
2214.44458	14075.0125
2217.36388	14026.7125
2220.28132	13963.6125
2223.1969	13924.7125
2226.11061	13930.5125
2229.02246	13927.7125
2231.93245	13868.5125
2234.84058	13854.5125
2237.74686	13777.0125
2240.65128	13784.9125
2243.55385	13761.8125
2246.45456	13787.0125
2249.35343	13760.0125
2252.25044	13736.9125
2255.14561	13654.7125
2258.03893	13627.6125
2260.93041	13588.0125
2263.82004	13582.1125
2266.70783	13552.5125
2269.59378	13497.5125
2272.4779	13459.3125
2275.36017	13410.7125
2278.24061	13395.4125
2281.11922	13368.0125
2283.996	13367.0125
2286.87094	13319.6125
2289.74405	13256.0125
2292.61534	13271.1125
2295.4848	13242.1125
2298.35243	13248.2125
2301.21824	13238.6125
2304.08223	13265.6125
2306.94439	13283.6125
2309.80474	13228.0125
2312.66327	13211.2125
2315.51999	13208.3125
2318.37489	13187.1125
2321.22797	13121.2125
2324.07925	13125.9125
2326.92871	13094.7125
2329.77637	13094.3125
2332.62222	13064.3125
2335.46626	13060.8125
2338.3085	13043.0125
2341.14893	13018.1125
2343.98756	13022.3125
2346.8244	13010.2125
2349.65943	13000.2125
2352.49267	13029.1125
2355.32411	13019.7125
2358.15376	13007.3125
2360.98161	13000.1125
2363.80768	13003.7125
2366.63195	13030.9125
2369.45444	13014.0125
2372.27514	12977.4125
2375.09405	12959.0125
2377.91118	12915.1125
2380.72652	12891.8125
2383.54009	12829.6125
2386.35187	12823.8125
2389.16188	12751.5125
2391.97011	12714.6125
2394.77657	12679.2125
2397.58125	12643.4125
2400.38416	12638.0125
2403.18529	12612.9125
2405.98466	12596.6125
2408.78226	12587.7125
2411.57809	12563.5125
2414.37216	12572.2125
2417.16446	12566.5125
2419.955	12543.8125
2422.74378	12528.7125
2425.5308	12512.6125
2428.31606	12493.4125
2431.09956	12515.8125
2433.88131	12477.3125
2436.6613	12464.3125
2439.43954	12478.9125
2442.21603	12473.9125
2444.99077	12445.3125
2447.76377	12442.6125
2450.53501	12438.8125
2453.30451	12405.0125
2456.07226	12408.1125
2458.83827	12382.2125
2461.60254	12372.3125
2464.36507	12371.8125
2467.12586	12381.8125
2469.88492	12384.7125
2472.64224	12365.5125
2475.39782	12329.4125
2478.15167	12358.4125
2480.90379	12389.6125
2483.65417	12347.0125
2486.40283	12362.3125
2489.14976	12386.8125
2491.89497	12386.0125
2494.63845	12411.0125
2497.3802	12384.6125
2500.12024	12387.7125
2502.85855	12341.5125
2505.59514	12343.4125
2508.33002	12315.8125
2511.06318	12287.1125
2513.79462	12269.2125
2516.52435	12275.7125
2519.25237	12227.1125
2521.97867	12215.3125
2524.70327	12199.8125
2527.42616	12164.0125
2530.14734	12186.0125
2532.86681	12195.0125
2535.58458	12171.3125
2538.30065	12149.4125
2541.01501	12142.0125
2543.72768	12106.3125
2546.43864	12099.5125
2549.14791	12076.3125
2551.85548	12073.8125
2554.56136	12070.1125
2557.26554	12029.6125
2559.96803	12027.0125
2562.66883	11986.6125
2565.36794	11970.2125
2568.06536	11965.4125
2570.7611	11947.0125
2573.45514	11924.2125
2576.14751	11941.0125
2578.83819	11923.9125
2581.52719	11912.0125
2584.21451	11901.6125
2586.90015	11861.2125
2589.58411	11871.8125
2592.2664	11849.1125
2594.94701	11822.1125
2597.62594	11800.8125
2600.30321	11803.1125
2602.9788	11783.5125
2605.65273	11785.0125
2608.32498	11811.7125
2610.99557	11802.9125
2613.66449	11797.0125
2616.33175	11763.5125
2618.99734	11761.4125
2621.66128	11759.0125
2624.32355	11764.5125
2626.98416	11722.4125
2629.64311	11706.2125
2632.30041	11690.5125
2634.95605	11686.7125
2637.61004	11666.3125
2640.26238	11662.5125
2642.91306	11630.8125
2645.56209	11648.1125
2648.20948	11648.4125
2650.85521	11656.9125
2653.4993	11640.6125
2656.14175	11622.4125
2658.78255	11655.3125
2661.42171	11647.7125
2664.05923	11633.9125
2666.6951	11647.1125
2669.32934	11660.8125
2671.96194	11657.6125
2674.59291	11652.2125
2677.22224	11635.7125
2679.84993	11647.6125
2682.476	11637.3125
2685.10043	11638.2125
2687.72324	11636.1125
2690.34441	11630.5125
2692.96396	11603.2125
2695.58188	11601.3125
2698.19818	11618.9125
2700.81285	11636.8125
2703.4259	11617.8125
2706.03733	11609.8125
2708.64714	11625.0125
2711.25533	11609.1125
2713.86191	11643.1125
2716.46687	11634.2125
2719.07021	11649.2125
2721.67194	11660.8125
2724.27206	11648.2125
2726.87057	11650.5125
2729.46747	11659.2125
2732.06276	11647.2125
2734.65644	11641.5125
2737.24852	11644.6125
2739.83899	11620.4125
2742.42786	11619.2125
2745.01513	11593.4125
2747.60079	11620.0125
2750.18486	11588.0125
2752.76733	11573.2125
2755.3482	11536.2125
2757.92747	11527.3125
2760.50515	11507.5125
2763.08123	11544.5125
2765.65573	11502.5125
2768.22863	11508.8125
2770.79994	11504.0125
2773.36967	11516.5125
2775.9378	11499.0125
2778.50435	11506.5125
2781.06932	11490.1125
2783.6327	11470.3125
2786.1945	11464.3125
2788.75471	11464.5125
2791.31335	11458.1125
2793.87041	11476.9125
2796.42589	11439.9125
2798.97979	11451.9125
2801.53212	11402.5125
2804.08288	11380.5125
2806.63206	11358.7125
2809.17967	11330.1125
2811.72571	11318.8125
2814.27018	11314.2125
2816.81308	11288.8125
2819.35442	11267.0125
2821.89419	11202.8125
2824.43239	11230.4125
2826.96904	11229.9125
2829.50412	11210.9125
2832.03763	11182.8125
2834.56959	11194.9125
2837.1	11204.4125
2839.62884	11215.9125
2842.15613	11228.8125
2844.68186	11281.9125
2847.20604	11332.3125
2849.72867	11341.9125
2852.24974	11323.3125
2854.76927	11308.8125
2857.28724	11317.7125
2859.80367	11267.2125
2862.31855	11278.6125
2864.83189	11220.0125
2867.34368	11221.7125
2869.85393	11214.0125
2872.36264	11233.5125
2874.8698	11213.1125
2877.37543	11237.4125
2879.87952	11177.9125
2882.38207	11190.9125
2884.88308	11170.5125
2887.38256	11186.0125
2889.88051	11148.6125
2892.37692	11166.9125
2894.8718	11178.0125
2897.36515	11183.8125
2899.85698	11178.0125
2902.34727	11199.5125
2904.83604	11199.6125
2907.32328	11228.7125
2909.809	11222.3125
2912.29319	11232.5125
2914.77587	11219.2125
2917.25702	11212.0125
2919.73665	11231.8125
2922.21476	11192.1125
2924.69136	11211.3125
2927.16644	11185.2125
2929.64	11163.0125
2932.11205	11177.9125
2934.58258	11135.1125
2937.05161	11143.7125
2939.51912	11099.4125
2941.98513	11078.7125
2944.44962	11040.7125
2946.91261	10984.8125
2949.37409	10975.5125
2951.83407	10976.0125
2954.29254	10936.9125
2956.74951	10925.6125
2959.20498	10931.5125
2961.65895	10909.9125
2964.11142	10887.3125
2966.56239	10870.3125
2969.01186	10887.2125
2971.45984	10863.3125
2973.90632	10824.8125
2976.35131	10833.7125
2978.7948	10795.1125
2981.23681	10771.7125
2983.67732	10748.0125
2986.11635	10705.6125
2988.55388	10675.4125
2990.98993	10636.3125
2993.4245	10604.9125
2995.85758	10584.6125
2998.28917	10563.1125
3000.71928	10540.6125
3003.14791	10515.6125
3005.57506	10497.0125
3008.00073	10461.1125
3010.42493	10446.7125
3012.84764	10407.9125
3015.26888	10413.9125
3017.68865	10350.9125
3020.10694	10358.3125
3022.52376	10333.8125
