Data from AgNPs_FTO_APTES_UA_5uM_CRN_1uM_R6G_10uM_NaF_0.1M_Addition_RamanShift__28__10-49-56-602.txt Node

Date: Mon Feb 07 10:49:56 GMT 2022
User: TCL
Spectrometer: QEP01345
Trigger mode: 4
Integration Time (sec): 7.000000E0
Scans to average: 10
Electric dark correction enabled: true
Nonlinearity correction enabled: false
Boxcar width: 0
XAxis mode: Raman Shifts
Number of Pixels in Spectrum: 1044
>>>>>Begin Spectral Data<<<<<
46.04893	0.6125
50.45542	-1.4875
54.85868	0.1125
59.25871	0.1125
63.6555	80.4125
68.04907	83.1125
72.43941	89.4125
76.82654	92.4125
81.21044	93.9125
85.59113	100.4125
89.96862	100.3125
94.34289	102.2125
98.71396	107.9125
103.08183	112.2125
107.4465	113.9125
111.80798	115.0125
116.16626	117.1125
120.52136	127.6125
124.87327	131.5125
129.222	139.0125
133.56755	144.7125
137.90993	162.7125
142.24913	175.2125
146.58517	200.1125
150.91804	232.4125
155.24774	275.3125
159.57429	344.9125
163.89768	447.8125
168.21792	599.5125
172.53501	821.7125
176.84895	1121.9125
181.15975	1588.1125
185.46741	2222.4125
189.77193	3069.9125
194.07331	4092.4125
198.37157	5267.0125
202.6667	6506.6125
206.9587	7759.9125
211.24758	9030.9125
215.53334	10317.6125
219.81599	11756.3125
224.09553	13419.0125
228.37195	15234.2125
232.64527	17181.8125
236.91549	19162.2125
241.18261	20983.0125
245.44663	22454.3125
249.70755	23662.8125
253.96539	24752.0125
258.22014	25659.5125
262.4718	26533.5125
266.72039	27154.3125
270.96589	27553.8125
275.20832	27639.3125
279.44768	27484.8125
283.68397	27312.2125
287.91719	27251.9125
292.14735	27299.5125
296.37445	27680.0125
300.59849	28403.4125
304.81948	29394.3125
309.03742	30111.5125
313.25231	29982.0125
317.46415	28657.2125
321.67296	26439.6125
325.87872	24555.0125
330.08145	23607.7125
334.28114	23440.3125
338.47781	23735.8125
342.67145	24320.5125
346.86207	25336.7125
351.04966	26727.5125
355.23424	28428.7125
359.4158	29654.1125
363.59435	30219.8125
367.76989	30220.1125
371.94243	30081.3125
376.11196	29769.2125
380.27849	29466.4125
384.44203	29171.8125
388.60257	28828.6125
392.76012	28747.1125
396.91468	29100.4125
401.06626	29997.4125
405.21485	30682.6125
409.36047	30244.6125
413.50311	28834.0125
417.64277	27514.6125
421.77947	26840.5125
425.9132	26646.9125
430.04396	26661.3125
434.17176	26749.9125
438.2966	26971.7125
442.41849	27551.4125
446.53742	28460.1125
450.6534	29425.2125
454.76644	30090.6125
458.87653	30206.2125
462.98368	30016.6125
467.08789	29531.2125
471.18916	28894.4125
475.2875	28274.5125
479.38291	27863.6125
483.4754	27474.3125
487.56496	27104.7125
491.6516	26753.5125
495.73531	26449.9125
499.81612	26402.6125
503.89401	26622.1125
507.96899	26831.7125
512.04106	26938.7125
516.11023	27072.2125
520.1765	27014.2125
524.23987	26789.7125
528.30034	26247.1125
532.35792	25661.0125
536.41261	25027.3125
540.46441	24394.2125
544.51333	24185.9125
548.55936	24542.4125
552.60252	25352.8125
556.64279	26262.4125
560.6802	26800.6125
564.71473	27379.7125
568.7464	28687.5125
572.7752	29915.6125
576.80114	29614.1125
580.82422	29032.4125
584.84444	28851.1125
588.86181	28713.0125
592.87633	28807.4125
596.888	29163.9125
600.89682	29936.4125
604.9028	32771.1125
608.90594	40612.6125
612.90624	51067.0125
616.90371	48990.5125
620.89834	34427.8125
624.89015	27374.2125
628.87913	26152.4125
632.86528	26347.6125
636.84862	26551.7125
640.82913	25881.0125
644.80683	24479.1125
648.78172	23494.8125
652.75379	23453.5125
656.72306	24422.8125
660.68952	25719.1125
664.65319	25639.3125
668.61405	24478.8125
672.57211	23820.3125
676.52738	23734.3125
680.47986	23638.8125
684.42955	23420.9125
688.37646	23250.2125
692.32058	23377.8125
696.26192	23739.2125
700.20048	24093.2125
704.13626	24460.1125
708.06928	24490.5125
711.99952	24247.0125
715.927	24040.7125
719.85171	24049.4125
723.77365	23930.0125
727.69284	23550.5125
731.60928	23230.8125
735.52295	23116.8125
739.43388	23247.5125
743.34206	23406.4125
747.24749	23638.8125
751.15017	23978.9125
755.05012	24599.4125
758.94733	25972.3125
762.8418	28881.0125
766.73354	33978.5125
770.62254	39167.5125
774.50882	41084.8125
778.39237	38709.3125
782.27321	33548.3125
786.15132	28551.2125
790.02671	25549.1125
793.89938	24186.8125
797.76935	23580.1125
801.6366	23370.8125
805.50115	23137.1125
809.36299	22944.7125
813.22213	22788.9125
817.07857	22721.2125
820.93231	22718.0125
824.78336	22745.8125
828.63172	22860.6125
832.47738	22972.8125
836.32036	22943.6125
840.16066	22886.1125
843.99827	22841.2125
847.8332	22732.9125
851.66546	22657.3125
855.49504	22570.8125
859.32195	22530.7125
863.1462	22340.2125
866.96777	22178.9125
870.78668	22108.8125
874.60293	22101.0125
878.41652	22202.4125
882.22745	22300.8125
886.03573	22443.1125
889.84136	22383.8125
893.64433	22219.2125
897.44466	22152.5125
901.24235	22173.1125
905.0374	22104.8125
908.8298	22003.0125
912.61957	21985.0125
916.40671	22200.9125
920.19121	22683.8125
923.97308	23158.7125
927.75233	23475.1125
931.52895	23559.8125
935.30295	23186.9125
939.07433	22342.3125
942.84309	21615.7125
946.60924	21252.7125
950.37278	21067.2125
954.13371	20888.2125
957.89203	20767.5125
961.64774	20681.1125
965.40086	20666.1125
969.15137	20606.3125
972.89929	20494.6125
976.64461	20511.8125
980.38733	20536.3125
984.12747	20654.2125
987.86502	20828.5125
991.59999	21115.5125
995.33237	21558.4125
999.06217	22367.2125
1002.78939	23371.1125
1006.51404	24284.3125
1010.23611	24924.2125
1013.95561	25297.0125
1017.67255	25213.7125
1021.38692	24755.8125
1025.09872	24311.7125
1028.80796	24348.0125
1032.51465	24975.6125
1036.21877	25651.2125
1039.92035	25732.0125
1043.61937	25419.9125
1047.31584	24778.7125
1051.00976	24098.6125
1054.70114	23713.4125
1058.38998	23651.8125
1062.07627	23802.3125
1065.76003	23983.1125
1069.44126	24318.8125
1073.11995	24733.6125
1076.79611	25112.0125
1080.46974	25488.0125
1084.14085	25972.2125
1087.80943	26764.8125
1091.47549	27160.2125
1095.13903	26820.0125
1098.80005	25930.7125
1102.45857	24888.2125
1106.11456	24237.1125
1109.76805	24059.2125
1113.41903	24399.7125
1117.06751	25042.3125
1120.71348	25954.2125
1124.35696	27039.5125
1127.99793	28017.8125
1131.63641	28180.1125
1135.2724	27171.7125
1138.90589	26062.5125
1142.5369	25337.6125
1146.16542	24984.9125
1149.79145	24778.7125
1153.415	24911.0125
1157.03607	25298.2125
1160.65467	26007.2125
1164.27079	27176.7125
1167.88443	29064.4125
1171.49561	31872.2125
1175.10432	36209.4125
1178.71056	41818.4125
1182.31434	46238.6125
1185.91565	48071.4125
1189.51451	47509.0125
1193.11091	44915.3125
1196.70485	41464.2125
1200.29634	38432.7125
1203.88538	36030.5125
1207.47197	33742.7125
1211.05612	31872.0125
1214.63782	30768.3125
1218.21708	30521.5125
1221.79391	30634.0125
1225.36829	30889.3125
1228.94024	30889.1125
1232.50976	30663.7125
1236.07685	30399.5125
1239.6415	30182.0125
1243.20374	30037.3125
1246.76355	30050.0125
1250.32093	30456.2125
1253.8759	31308.4125
1257.42845	32534.5125
1260.97859	33848.2125
1264.52631	35029.0125
1268.07163	36277.3125
1271.61453	37525.3125
1275.15503	38763.0125
1278.69312	39753.8125
1282.22882	40659.5125
1285.76211	41755.8125
1289.29301	43239.2125
1292.82151	44910.0125
1296.34761	46855.9125
1299.87133	49473.5125
1303.39266	53429.9125
1306.9116	59176.3125
1310.42815	65707.2125
1313.94233	70357.4125
1317.45412	70577.2125
1320.96354	67595.7125
1324.47058	63742.3125
1327.97525	60198.1125
1331.47754	57769.9125
1334.97747	56374.7125
1338.47502	55985.0125
1341.97022	56100.1125
1345.46305	56394.8125
1348.95352	56810.1125
1352.44163	58102.0125
1355.92738	61327.9125
1359.41078	67769.8125
1362.89183	75238.3125
1366.37053	74797.1125
1369.84688	65343.2125
1373.32088	54769.9125
1376.79254	47783.8125
1380.26186	44397.3125
1383.72883	42910.3125
1387.19347	41871.0125
1390.65578	40862.3125
1394.11575	40316.6125
1397.57339	40509.6125
1401.0287	41353.5125
1404.48168	42319.3125
1407.93234	43080.8125
1411.38068	43234.2125
1414.82669	42338.9125
1418.27039	40630.9125
1421.71177	38711.4125
1425.15083	36997.3125
1428.58758	35986.5125
1432.02203	35840.3125
1435.45416	36233.9125
1438.88399	36653.9125
1442.31151	37025.2125
1445.73673	37531.9125
1449.15965	38107.6125
1452.58027	38499.5125
1455.9986	38567.9125
1459.41463	38734.3125
1462.82837	39204.4125
1466.23982	40021.2125
1469.64898	40861.5125
1473.05586	41305.0125
1476.46045	41533.4125
1479.86276	41831.1125
1483.26279	42292.2125
1486.66054	42894.1125
1490.05602	43872.5125
1493.44922	45276.8125
1496.84016	47217.7125
1500.22882	50130.7125
1503.61521	54337.2125
1506.99934	59449.9125
1510.38121	64855.0125
1513.76081	68199.7125
1517.13816	66640.1125
1520.51324	60756.4125
1523.88607	54056.8125
1527.25665	49123.9125
1530.62498	46039.3125
1533.99105	44154.9125
1537.35488	42899.4125
1540.71647	42117.2125
1544.07581	41326.7125
1547.4329	40656.7125
1550.78776	40012.8125
1554.14038	39697.3125
1557.49077	39840.8125
1560.83892	40364.8125
1564.18484	41154.2125
1567.52853	41850.9125
1570.86999	42305.4125
1574.20922	42701.2125
1577.54624	42725.7125
1580.88103	41390.5125
1584.2136	39709.0125
1587.54395	39457.7125
1590.87208	41171.1125
1594.19801	44302.2125
1597.52172	47999.4125
1600.84321	49545.7125
1604.16251	47532.0125
1607.47959	43427.1125
1610.79447	38896.5125
1614.10715	34877.3125
1617.41763	31709.8125
1620.7259	29681.9125
1624.03199	28739.8125
1627.33587	28699.2125
1630.63757	29758.8125
1633.93707	31746.9125
1637.23439	34912.7125
1640.52951	39309.4125
1643.82246	44602.2125
1647.11321	50021.8125
1650.40179	53339.3125
1653.68819	51597.2125
1656.97241	44921.1125
1660.25446	36827.7125
1663.53433	30647.1125
1666.81203	26786.6125
1670.08756	24406.4125
1673.36092	23078.6125
1676.63211	22191.4125
1679.90115	21607.8125
1683.16801	21175.9125
1686.43272	20857.7125
1689.69527	20642.6125
1692.95567	20466.8125
1696.2139	20375.7125
1699.46999	20301.5125
1702.72392	20220.1125
1705.97571	20177.3125
1709.22535	20138.8125
1712.47284	20118.6125
1715.71819	20128.1125
1718.96139	20095.9125
1722.20246	20043.2125
1725.44139	19958.4125
1728.67818	19810.4125
1731.91284	19652.5125
1735.14537	19477.9125
1738.37576	19361.0125
1741.60403	19278.9125
1744.83017	19205.0125
1748.05418	19127.7125
1751.27607	19106.7125
1754.49584	19055.1125
1757.71349	19037.8125
1760.92903	19036.6125
1764.14244	19003.0125
1767.35375	18998.4125
1770.56294	18924.2125
1773.77002	18907.9125
1776.97499	18829.7125
1780.17785	18785.6125
1783.37861	18732.9125
1786.57727	18718.2125
1789.77382	18692.9125
1792.96828	18661.6125
1796.16064	18663.6125
1799.3509	18613.7125
1802.53907	18577.8125
1805.72514	18527.0125
1808.90913	18441.3125
1812.09102	18432.4125
1815.27083	18326.9125
1818.44856	18326.8125
1821.6242	18291.0125
1824.79776	18306.9125
1827.96924	18297.9125
1831.13864	18253.5125
1834.30597	18278.2125
1837.47122	18247.0125
1840.6344	18258.3125
1843.7955	18253.1125
1846.95454	18287.2125
1850.11151	18273.9125
1853.26642	18267.7125
1856.41926	18279.1125
1859.57004	18341.7125
1862.71876	18351.7125
1865.86542	18328.0125
1869.01003	18320.2125
1872.15258	18329.6125
1875.29308	18365.5125
1878.43152	18391.9125
1881.56792	18416.5125
1884.70227	18472.5125
1887.83457	18470.6125
1890.96482	18479.8125
1894.09304	18486.4125
1897.21921	18534.1125
1900.34335	18509.1125
1903.46544	18508.5125
1906.58551	18540.6125
1909.70353	18542.0125
1912.81953	18551.2125
1915.93349	18511.2125
1919.04543	18534.2125
1922.15534	18494.7125
1925.26322	18421.8125
1928.36908	18358.6125
1931.47292	18302.4125
1934.57473	18175.0125
1937.67453	18045.3125
1940.77232	17939.7125
1943.86808	17827.8125
1946.96184	17755.9125
1950.05358	17666.7125
1953.14331	17582.9125
1956.23103	17521.5125
1959.31675	17444.4125
1962.40046	17402.7125
1965.48217	17355.4125
1968.56188	17324.1125
1971.63959	17249.4125
1974.7153	17209.2125
1977.78901	17159.6125
1980.86073	17077.9125
1983.93046	17012.3125
1986.99819	16915.6125
1990.06394	16893.2125
1993.1277	16813.7125
1996.18947	16794.1125
1999.24925	16746.2125
2002.30706	16642.4125
2005.36288	16611.5125
2008.41672	16596.7125
2011.46859	16546.6125
2014.51848	16470.4125
2017.56639	16425.1125
2020.61233	16364.6125
2023.6563	16356.6125
2026.6983	16283.9125
2029.73833	16303.9125
2032.7764	16257.4125
2035.8125	16190.5125
2038.84664	16202.4125
2041.87881	16180.0125
2044.90903	16132.0125
2047.93729	16127.4125
2050.96359	16105.7125
2053.98794	16050.8125
2057.01034	16061.7125
2060.03078	16058.1125
2063.04927	16031.4125
2066.06582	16018.9125
2069.08042	16014.4125
2072.09307	15980.5125
2075.10378	15960.4125
2078.11255	15921.4125
2081.11938	15925.9125
2084.12426	15888.3125
2087.12722	15897.5125
2090.12824	15864.5125
2093.12732	15874.2125
2096.12447	15860.7125
2099.11969	15903.6125
2102.11299	15886.8125
2105.10435	15892.4125
2108.09379	15852.4125
2111.08131	15885.8125
2114.0669	15845.9125
2117.05057	15900.5125
2120.03233	15917.0125
2123.01216	15930.2125
2125.99008	15962.9125
2128.96609	15950.5125
2131.94018	15994.5125
2134.91236	15979.8125
2137.88263	15991.5125
2140.851	16005.1125
2143.81746	16005.1125
2146.78201	15977.6125
2149.74466	15967.6125
2152.7054	15946.4125
2155.66425	15944.9125
2158.6212	15923.3125
2161.57625	15874.4125
2164.52941	15933.8125
2167.48067	15919.5125
2170.43004	15917.8125
2173.37752	15894.6125
2176.32311	15867.7125
2179.26681	15918.1125
2182.20863	15904.4125
2185.14856	15895.0125
2188.08661	15925.2125
2191.02278	15947.2125
2193.95707	15910.4125
2196.88948	15893.1125
2199.82001	15883.3125
2202.74867	15831.5125
2205.67545	15859.9125
2208.60037	15830.4125
2211.52341	15855.9125
2214.44458	15837.5125
2217.36388	15807.5125
2220.28132	15775.3125
2223.1969	15737.3125
2226.11061	15719.6125
2229.02246	15710.6125
2231.93245	15664.1125
2234.84058	15630.2125
2237.74686	15571.0125
2240.65128	15571.3125
2243.55385	15551.9125
2246.45456	15547.3125
2249.35343	15505.9125
2252.25044	15497.7125
2255.14561	15488.5125
2258.03893	15454.6125
2260.93041	15446.9125
2263.82004	15422.1125
2266.70783	15395.5125
2269.59378	15345.6125
2272.4779	15286.1125
2275.36017	15243.5125
2278.24061	15231.2125
2281.11922	15215.3125
2283.996	15177.7125
2286.87094	15170.9125
2289.74405	15119.7125
2292.61534	15130.5125
2295.4848	15066.9125
2298.35243	15087.7125
2301.21824	15076.5125
2304.08223	15116.0125
2306.94439	15127.5125
2309.80474	15134.1125
2312.66327	15168.8125
2315.51999	15138.2125
2318.37489	15134.3125
2321.22797	15099.8125
2324.07925	15111.2125
2326.92871	15111.8125
2329.77637	15112.1125
2332.62222	15052.5125
2335.46626	15059.4125
2338.3085	15104.4125
2341.14893	15103.4125
2343.98756	15131.7125
2346.8244	15189.3125
2349.65943	15155.7125
2352.49267	15171.2125
2355.32411	15171.8125
2358.15376	15192.8125
2360.98161	15173.0125
2363.80768	15159.9125
2366.63195	15186.5125
2369.45444	15165.7125
2372.27514	15125.9125
2375.09405	15086.9125
2377.91118	15072.5125
2380.72652	14997.9125
2383.54009	14927.4125
2386.35187	14886.8125
2389.16188	14849.2125
2391.97011	14826.2125
2394.77657	14798.5125
2397.58125	14736.5125
2400.38416	14719.6125
2403.18529	14704.4125
2405.98466	14659.0125
2408.78226	14629.2125
2411.57809	14576.6125
2414.37216	14590.9125
2417.16446	14587.1125
2419.955	14545.4125
2422.74378	14522.8125
2425.5308	14490.4125
2428.31606	14507.4125
2431.09956	14504.4125
2433.88131	14498.2125
2436.6613	14484.9125
2439.43954	14523.8125
2442.21603	14486.9125
2444.99077	14497.5125
2447.76377	14484.8125
2450.53501	14480.0125
2453.30451	14471.9125
2456.07226	14479.4125
2458.83827	14477.2125
2461.60254	14465.6125
2464.36507	14491.7125
2467.12586	14491.6125
2469.88492	14474.0125
2472.64224	14504.1125
2475.39782	14552.6125
2478.15167	14542.8125
2480.90379	14562.8125
2483.65417	14583.6125
2486.40283	14600.9125
2489.14976	14654.4125
2491.89497	14664.4125
2494.63845	14660.9125
2497.3802	14664.6125
2500.12024	14682.9125
2502.85855	14644.6125
2505.59514	14630.8125
2508.33002	14604.5125
2511.06318	14565.9125
2513.79462	14491.4125
2516.52435	14448.2125
2519.25237	14448.3125
2521.97867	14437.6125
2524.70327	14424.2125
2527.42616	14378.8125
2530.14734	14371.7125
2532.86681	14355.1125
2535.58458	14387.4125
2538.30065	14335.1125
2541.01501	14353.7125
2543.72768	14348.0125
2546.43864	14349.2125
2549.14791	14357.5125
2551.85548	14313.2125
2554.56136	14324.9125
2557.26554	14320.7125
2559.96803	14289.9125
2562.66883	14294.1125
2565.36794	14274.2125
2568.06536	14261.0125
2570.7611	14226.7125
2573.45514	14221.0125
2576.14751	14240.1125
2578.83819	14210.7125
2581.52719	14207.4125
2584.21451	14211.1125
2586.90015	14198.5125
2589.58411	14243.9125
2592.2664	14205.7125
2594.94701	14186.9125
2597.62594	14189.5125
2600.30321	14168.8125
2602.9788	14190.4125
2605.65273	14168.4125
2608.32498	14220.3125
2610.99557	14216.2125
2613.66449	14212.2125
2616.33175	14185.6125
2618.99734	14237.0125
2621.66128	14194.0125
2624.32355	14188.6125
2626.98416	14202.0125
2629.64311	14199.0125
2632.30041	14228.1125
2634.95605	14189.0125
2637.61004	14216.4125
2640.26238	14140.3125
2642.91306	14155.9125
2645.56209	14103.7125
2648.20948	14108.2125
2650.85521	14087.3125
2653.4993	14081.1125
2656.14175	14097.0125
2658.78255	14081.3125
2661.42171	14082.4125
2664.05923	14124.4125
2666.6951	14148.1125
2669.32934	14177.2125
2671.96194	14179.4125
2674.59291	14229.4125
2677.22224	14206.0125
2679.84993	14226.8125
2682.476	14185.1125
2685.10043	14179.1125
2687.72324	14148.2125
2690.34441	14109.6125
2692.96396	14122.1125
2695.58188	14140.3125
2698.19818	14106.2125
2700.81285	14085.2125
2703.4259	14116.0125
2706.03733	14142.3125
2708.64714	14149.5125
2711.25533	14148.2125
2713.86191	14092.9125
2716.46687	14137.6125
2719.07021	14142.7125
2721.67194	14163.0125
2724.27206	14142.9125
2726.87057	14170.4125
2729.46747	14181.1125
2732.06276	14167.5125
2734.65644	14174.9125
2737.24852	14175.3125
2739.83899	14116.5125
2742.42786	14151.6125
2745.01513	14104.8125
2747.60079	14098.7125
2750.18486	14103.1125
2752.76733	14094.7125
2755.3482	14066.0125
2757.92747	14080.9125
2760.50515	14032.1125
2763.08123	14037.5125
2765.65573	14029.5125
2768.22863	13996.3125
2770.79994	13991.0125
2773.36967	14025.6125
2775.9378	14057.5125
2778.50435	14018.2125
2781.06932	14027.5125
2783.6327	14029.0125
2786.1945	14055.2125
2788.75471	14094.3125
2791.31335	14023.2125
2793.87041	14004.7125
2796.42589	13989.7125
2798.97979	13966.8125
2801.53212	13951.8125
2804.08288	13920.2125
2806.63206	13875.4125
2809.17967	13895.2125
2811.72571	13878.3125
2814.27018	13859.7125
2816.81308	13825.1125
2819.35442	13830.3125
2821.89419	13862.4125
2824.43239	13871.4125
2826.96904	13889.4125
2829.50412	13875.4125
2832.03763	13862.1125
2834.56959	13868.4125
2837.1	13857.5125
2839.62884	13839.3125
2842.15613	13877.6125
2844.68186	13951.3125
2847.20604	13999.5125
2849.72867	14024.4125
2852.24974	14015.4125
2854.76927	14022.1125
2857.28724	14018.3125
2859.80367	14004.6125
2862.31855	13989.7125
2864.83189	13984.5125
2867.34368	13932.1125
2869.85393	13915.1125
2872.36264	13917.4125
2874.8698	13879.1125
2877.37543	13908.2125
2879.87952	13904.3125
2882.38207	13910.7125
2884.88308	13882.1125
2887.38256	13917.8125
2889.88051	13875.5125
2892.37692	13894.2125
2894.8718	13880.1125
2897.36515	13904.2125
2899.85698	13921.2125
2902.34727	13941.8125
2904.83604	13942.1125
2907.32328	13965.0125
2909.809	13991.4125
2912.29319	13983.7125
2914.77587	13991.0125
2917.25702	13959.8125
2919.73665	13958.2125
2922.21476	13967.0125
2924.69136	13915.7125
2927.16644	13914.7125
2929.64	13865.2125
2932.11205	13822.3125
2934.58258	13758.5125
2937.05161	13737.7125
2939.51912	13762.1125
2941.98513	13713.3125
2944.44962	13687.1125
2946.91261	13590.5125
2949.37409	13586.6125
2951.83407	13556.8125
2954.29254	13543.3125
2956.74951	13496.5125
2959.20498	13500.1125
2961.65895	13499.3125
2964.11142	13457.3125
2966.56239	13425.5125
2969.01186	13408.7125
2971.45984	13357.9125
2973.90632	13380.7125
2976.35131	13322.0125
2978.7948	13287.2125
2981.23681	13266.2125
2983.67732	13262.2125
2986.11635	13213.9125
2988.55388	13168.4125
2990.98993	13134.6125
2993.4245	13103.1125
2995.85758	13052.9125
2998.28917	13029.9125
3000.71928	13009.4125
3003.14791	12966.7125
3005.57506	12962.8125
3008.00073	12908.9125
3010.42493	12924.9125
3012.84764	12887.3125
3015.26888	12878.4125
3017.68865	12879.7125
3020.10694	12841.8125
3022.52376	12788.0125
