Data from AgNPs_FTO_APTES_UA_5uM_CRN_1000uM_R6G_10uM_NaF_0.1M_Addition_RamanShift__21__17-48-21-889.txt Node

Date: Mon Feb 07 17:48:21 GMT 2022
User: TCL
Spectrometer: QEP01345
Trigger mode: 4
Integration Time (sec): 7.000000E0
Scans to average: 10
Electric dark correction enabled: true
Nonlinearity correction enabled: false
Boxcar width: 0
XAxis mode: Raman Shifts
Number of Pixels in Spectrum: 1044
>>>>>Begin Spectral Data<<<<<
46.04893	-1.5875
50.45542	0.2125
54.85868	-0.9875
59.25871	-0.3875
63.6555	50.1125
68.04907	52.4125
72.43941	58.2125
76.82654	55.9125
81.21044	59.3125
85.59113	59.0125
89.96862	63.3125
94.34289	65.7125
98.71396	67.0125
103.08183	68.9125
107.4465	71.1125
111.80798	73.0125
116.16626	73.4125
120.52136	80.7125
124.87327	83.6125
129.222	87.5125
133.56755	93.2125
137.90993	102.3125
142.24913	114.4125
146.58517	128.9125
150.91804	145.3125
155.24774	181.8125
159.57429	229.2125
163.89768	295.1125
168.21792	395.0125
172.53501	530.8125
176.84895	742.5125
181.15975	1042.3125
185.46741	1462.2125
189.77193	2033.5125
194.07331	2704.7125
198.37157	3504.5125
202.6667	4328.0125
206.9587	5161.5125
211.24758	5961.3125
215.53334	6786.0125
219.81599	7653.4125
224.09553	8601.2125
228.37195	9663.9125
232.64527	10798.6125
236.91549	11974.7125
241.18261	13173.2125
245.44663	14297.2125
249.70755	15327.7125
253.96539	16204.6125
258.22014	16927.4125
262.4718	17547.8125
266.72039	17969.7125
270.96589	18220.6125
275.20832	18251.7125
279.44768	18213.7125
283.68397	18116.4125
287.91719	18009.5125
292.14735	17978.4125
296.37445	18054.0125
300.59849	18127.0125
304.81948	18158.1125
309.03742	18070.5125
313.25231	17778.0125
317.46415	17345.5125
321.67296	16853.1125
325.87872	16429.9125
330.08145	16187.9125
334.28114	16191.3125
338.47781	16249.0125
342.67145	16409.4125
346.86207	16657.8125
351.04966	16979.0125
355.23424	17334.6125
359.4158	17591.2125
363.59435	17774.3125
367.76989	17924.1125
371.94243	18030.7125
376.11196	18169.5125
380.27849	18216.3125
384.44203	18386.1125
388.60257	18523.7125
392.76012	18691.1125
396.91468	18887.9125
401.06626	19186.9125
405.21485	19355.8125
409.36047	19290.9125
413.50311	19034.3125
417.64277	18814.4125
421.77947	18812.8125
425.9132	18922.5125
430.04396	19119.9125
434.17176	19310.0125
438.2966	19611.3125
442.41849	20097.7125
446.53742	20779.1125
450.6534	21568.3125
454.76644	22146.4125
458.87653	22259.2125
462.98368	21997.9125
467.08789	21624.1125
471.18916	21287.1125
475.2875	21115.5125
479.38291	21145.8125
483.4754	21074.0125
487.56496	20826.1125
491.6516	20324.4125
495.73531	19845.0125
499.81612	19506.4125
503.89401	19417.1125
507.96899	19411.5125
512.04106	19275.8125
516.11023	19091.9125
520.1765	18885.6125
524.23987	18730.7125
528.30034	18648.1125
532.35792	18557.3125
536.41261	18396.7125
540.46441	18195.4125
544.51333	18161.2125
548.55936	18394.0125
552.60252	18806.1125
556.64279	19437.5125
560.6802	19965.3125
564.71473	20345.3125
568.7464	20815.3125
572.7752	21436.7125
576.80114	21755.5125
580.82422	21875.9125
584.84444	22051.6125
588.86181	22614.8125
592.87633	23307.6125
596.888	23482.8125
600.89682	22959.3125
604.9028	22849.7125
608.90594	24028.8125
612.90624	25510.5125
616.90371	23930.3125
620.89834	20179.8125
624.89015	18483.5125
628.87913	18250.4125
632.86528	18400.3125
636.84862	18519.4125
640.82913	18319.4125
644.80683	17831.0125
648.78172	17468.1125
652.75379	17292.0125
656.72306	17430.4125
660.68952	17643.4125
664.65319	17576.8125
668.61405	17343.2125
672.57211	17321.0125
676.52738	17405.8125
680.47986	17446.8125
684.42955	17314.4125
688.37646	17210.1125
692.32058	17218.7125
696.26192	17324.8125
700.20048	17506.7125
704.13626	17643.8125
708.06928	17649.6125
711.99952	17527.1125
715.927	17498.2125
719.85171	17532.2125
723.77365	17499.1125
727.69284	17414.7125
731.60928	17341.9125
735.52295	17290.3125
739.43388	17284.7125
743.34206	17325.1125
747.24749	17371.8125
751.15017	17501.5125
755.05012	17761.3125
758.94733	18265.1125
762.8418	19215.5125
766.73354	20590.8125
770.62254	21997.9125
774.50882	22342.9125
778.39237	21338.5125
782.27321	19696.6125
786.15132	18328.4125
790.02671	17478.6125
793.89938	17077.5125
797.76935	16916.0125
801.6366	16884.1125
805.50115	16838.2125
809.36299	16758.0125
813.22213	16651.8125
817.07857	16647.3125
820.93231	16613.6125
824.78336	16507.3125
828.63172	16426.8125
832.47738	16391.3125
836.32036	16334.2125
840.16066	16320.3125
843.99827	16315.8125
847.8332	16265.5125
851.66546	16234.0125
855.49504	16243.0125
859.32195	16248.9125
863.1462	16233.4125
866.96777	16237.0125
870.78668	16211.9125
874.60293	16186.1125
878.41652	16200.3125
882.22745	16258.4125
886.03573	16234.4125
889.84136	16259.5125
893.64433	16201.2125
897.44466	16156.8125
901.24235	16069.2125
905.0374	15957.2125
908.8298	15864.1125
912.61957	15867.3125
916.40671	16028.0125
920.19121	16224.6125
923.97308	16360.5125
927.75233	16347.1125
931.52895	16235.3125
935.30295	15983.9125
939.07433	15722.7125
942.84309	15479.7125
946.60924	15356.6125
950.37278	15303.9125
954.13371	15284.4125
957.89203	15281.1125
961.64774	15238.3125
965.40086	15225.6125
969.15137	15116.2125
972.89929	15000.6125
976.64461	14924.8125
980.38733	14875.0125
984.12747	14882.6125
987.86502	14972.0125
991.59999	15116.6125
995.33237	15327.7125
999.06217	15681.1125
1002.78939	16089.3125
1006.51404	16416.5125
1010.23611	16627.1125
1013.95561	16803.0125
1017.67255	16813.5125
1021.38692	16614.6125
1025.09872	16229.7125
1028.80796	16029.1125
1032.51465	16074.7125
1036.21877	16178.6125
1039.92035	16226.3125
1043.61937	16236.7125
1047.31584	16122.7125
1051.00976	16075.9125
1054.70114	16046.4125
1058.38998	16086.3125
1062.07627	16250.4125
1065.76003	16392.1125
1069.44126	16528.4125
1073.11995	16652.6125
1076.79611	16803.3125
1080.46974	16864.4125
1084.14085	17002.7125
1087.80943	17163.8125
1091.47549	17345.9125
1095.13903	17403.5125
1098.80005	17238.4125
1102.45857	16939.2125
1106.11456	16661.3125
1109.76805	16557.7125
1113.41903	16655.4125
1117.06751	16828.5125
1120.71348	17090.5125
1124.35696	17324.2125
1127.99793	17625.3125
1131.63641	17823.1125
1135.2724	17678.7125
1138.90589	17513.5125
1142.5369	17461.1125
1146.16542	17541.5125
1149.79145	17702.5125
1153.415	17881.0125
1157.03607	18224.5125
1160.65467	18770.6125
1164.27079	19609.0125
1167.88443	20741.3125
1171.49561	22090.9125
1175.10432	23892.3125
1178.71056	26093.9125
1182.31434	28009.9125
1185.91565	28930.7125
1189.51451	28724.9125
1193.11091	27971.4125
1196.70485	27032.9125
1200.29634	26019.1125
1203.88538	25160.4125
1207.47197	24489.3125
1211.05612	24019.1125
1214.63782	23540.1125
1218.21708	23152.6125
1221.79391	22856.3125
1225.36829	22520.9125
1228.94024	21965.3125
1232.50976	21332.1125
1236.07685	20820.7125
1239.6415	20618.8125
1243.20374	20547.6125
1246.76355	20708.5125
1250.32093	20993.8125
1253.8759	21407.0125
1257.42845	21944.3125
1260.97859	22571.3125
1264.52631	23147.4125
1268.07163	23755.8125
1271.61453	24423.6125
1275.15503	25119.9125
1278.69312	25845.6125
1282.22882	26580.4125
1285.76211	27488.5125
1289.29301	28697.8125
1292.82151	30279.4125
1296.34761	32156.5125
1299.87133	34317.6125
1303.39266	36568.0125
1306.9116	38771.5125
1310.42815	40844.7125
1313.94233	42195.2125
1317.45412	42481.9125
1320.96354	41958.1125
1324.47058	41167.8125
1327.97525	40358.2125
1331.47754	39790.1125
1334.97747	39609.7125
1338.47502	39615.4125
1341.97022	39410.8125
1345.46305	38706.0125
1348.95352	37784.2125
1352.44163	37310.6125
1355.92738	37458.9125
1359.41078	38417.6125
1362.89183	39313.9125
1366.37053	38735.9125
1369.84688	35789.3125
1373.32088	31939.7125
1376.79254	29303.5125
1380.26186	28393.2125
1383.72883	28498.8125
1387.19347	28801.2125
1390.65578	28957.6125
1394.11575	29376.6125
1397.57339	30179.9125
1401.0287	31302.0125
1404.48168	32246.1125
1407.93234	32601.6125
1411.38068	32206.7125
1414.82669	30923.9125
1418.27039	29181.1125
1421.71177	27325.7125
1425.15083	25713.7125
1428.58758	24829.3125
1432.02203	24831.6125
1435.45416	25411.0125
1438.88399	26309.1125
1442.31151	27125.8125
1445.73673	27831.8125
1449.15965	28563.3125
1452.58027	29105.6125
1455.9986	29314.7125
1459.41463	29527.4125
1462.82837	29915.1125
1466.23982	30435.8125
1469.64898	30946.6125
1473.05586	31066.8125
1476.46045	30956.9125
1479.86276	30614.3125
1483.26279	30074.4125
1486.66054	29582.7125
1490.05602	29362.3125
1493.44922	29097.8125
1496.84016	28786.4125
1500.22882	28642.1125
1503.61521	28918.0125
1506.99934	29609.6125
1510.38121	30399.3125
1513.76081	30706.1125
1517.13816	30160.3125
1520.51324	29138.5125
1523.88607	28313.8125
1527.25665	27956.7125
1530.62498	28003.0125
1533.99105	28232.0125
1537.35488	28256.7125
1540.71647	28011.4125
1544.07581	27506.6125
1547.4329	26844.4125
1550.78776	26186.5125
1554.14038	25644.1125
1557.49077	25335.5125
1560.83892	25120.6125
1564.18484	25084.9125
1567.52853	25084.1125
1570.86999	25282.0125
1574.20922	25739.4125
1577.54624	26236.7125
1580.88103	26529.4125
1584.2136	26888.9125
1587.54395	27786.0125
1590.87208	29365.4125
1594.19801	31399.6125
1597.52172	33374.6125
1600.84321	34325.4125
1604.16251	33140.9125
1607.47959	30367.1125
1610.79447	27125.1125
1614.10715	24142.1125
1617.41763	21766.7125
1620.7259	20227.2125
1624.03199	19417.6125
1627.33587	19309.4125
1630.63757	19893.9125
1633.93707	21252.5125
1637.23439	23595.3125
1640.52951	27028.5125
1643.82246	31102.3125
1647.11321	34474.3125
1650.40179	35183.2125
1653.68819	32625.5125
1656.97241	28057.3125
1660.25446	23475.2125
1663.53433	20043.1125
1666.81203	17793.0125
1670.08756	16382.9125
1673.36092	15568.9125
1676.63211	14994.5125
1679.90115	14589.6125
1683.16801	14297.1125
1686.43272	14073.3125
1689.69527	13877.3125
1692.95567	13753.8125
1696.2139	13632.4125
1699.46999	13545.4125
1702.72392	13478.5125
1705.97571	13431.6125
1709.22535	13397.0125
1712.47284	13330.4125
1715.71819	13322.8125
1718.96139	13285.4125
1722.20246	13206.4125
1725.44139	13133.8125
1728.67818	13075.9125
1731.91284	13004.2125
1735.14537	12895.4125
1738.37576	12862.6125
1741.60403	12807.6125
1744.83017	12774.1125
1748.05418	12783.1125
1751.27607	12703.3125
1754.49584	12720.7125
1757.71349	12698.1125
1760.92903	12643.3125
1764.14244	12622.5125
1767.35375	12586.1125
1770.56294	12579.6125
1773.77002	12531.4125
1776.97499	12467.8125
1780.17785	12484.5125
1783.37861	12452.5125
1786.57727	12437.2125
1789.77382	12384.7125
1792.96828	12364.2125
1796.16064	12343.9125
1799.3509	12315.5125
1802.53907	12270.7125
1805.72514	12231.1125
1808.90913	12183.1125
1812.09102	12149.3125
1815.27083	12145.0125
1818.44856	12116.0125
1821.6242	12089.3125
1824.79776	12063.4125
1827.96924	12017.9125
1831.13864	12024.1125
1834.30597	12016.2125
1837.47122	11953.5125
1840.6344	11969.2125
1843.7955	11958.1125
1846.95454	11957.2125
1850.11151	11931.3125
1853.26642	11940.0125
1856.41926	11925.5125
1859.57004	11918.0125
1862.71876	11943.5125
1865.86542	11910.8125
1869.01003	11902.6125
1872.15258	11885.0125
1875.29308	11879.2125
1878.43152	11857.1125
1881.56792	11852.4125
1884.70227	11856.8125
1887.83457	11851.4125
1890.96482	11822.8125
1894.09304	11832.4125
1897.21921	11825.2125
1900.34335	11789.0125
1903.46544	11796.0125
1906.58551	11775.7125
1909.70353	11731.9125
1912.81953	11733.0125
1915.93349	11706.5125
1919.04543	11672.3125
1922.15534	11660.0125
1925.26322	11607.6125
1928.36908	11580.1125
1931.47292	11581.6125
1934.57473	11553.2125
1937.67453	11515.1125
1940.77232	11474.8125
1943.86808	11421.3125
1946.96184	11397.8125
1950.05358	11345.1125
1953.14331	11295.9125
1956.23103	11282.3125
1959.31675	11225.8125
1962.40046	11212.1125
1965.48217	11186.5125
1968.56188	11135.7125
1971.63959	11102.5125
1974.7153	11071.0125
1977.78901	11007.9125
1980.86073	10982.7125
1983.93046	10940.6125
1986.99819	10920.4125
1990.06394	10903.8125
1993.1277	10837.6125
1996.18947	10809.8125
1999.24925	10776.0125
2002.30706	10761.6125
2005.36288	10714.5125
2008.41672	10645.5125
2011.46859	10645.6125
2014.51848	10628.5125
2017.56639	10599.0125
2020.61233	10579.4125
2023.6563	10546.3125
2026.6983	10466.0125
2029.73833	10465.1125
2032.7764	10439.6125
2035.8125	10444.5125
2038.84664	10416.3125
2041.87881	10392.6125
2044.90903	10388.9125
2047.93729	10353.6125
2050.96359	10358.1125
2053.98794	10335.9125
2057.01034	10325.2125
2060.03078	10311.3125
2063.04927	10331.6125
2066.06582	10323.0125
2069.08042	10319.5125
2072.09307	10282.9125
2075.10378	10263.6125
2078.11255	10247.8125
2081.11938	10240.9125
2084.12426	10243.7125
2087.12722	10200.8125
2090.12824	10215.8125
2093.12732	10205.3125
2096.12447	10209.8125
2099.11969	10212.7125
2102.11299	10176.9125
2105.10435	10180.7125
2108.09379	10190.2125
2111.08131	10181.1125
2114.0669	10182.1125
2117.05057	10197.8125
2120.03233	10198.2125
2123.01216	10216.7125
2125.99008	10210.1125
2128.96609	10202.2125
2131.94018	10201.4125
2134.91236	10204.3125
2137.88263	10216.3125
2140.851	10229.7125
2143.81746	10228.9125
2146.78201	10216.3125
2149.74466	10207.7125
2152.7054	10203.2125
2155.66425	10163.6125
2158.6212	10176.5125
2161.57625	10140.9125
2164.52941	10153.0125
2167.48067	10157.1125
2170.43004	10162.8125
2173.37752	10134.1125
2176.32311	10142.2125
2179.26681	10134.0125
2182.20863	10119.6125
2185.14856	10134.4125
2188.08661	10187.2125
2191.02278	10145.7125
2193.95707	10124.5125
2196.88948	10111.7125
2199.82001	10094.8125
2202.74867	10070.2125
2205.67545	10059.3125
2208.60037	10041.5125
2211.52341	10041.1125
2214.44458	10004.3125
2217.36388	9976.0125
2220.28132	9980.8125
2223.1969	9927.8125
2226.11061	9926.6125
2229.02246	9917.8125
2231.93245	9908.0125
2234.84058	9871.3125
2237.74686	9850.6125
2240.65128	9824.4125
2243.55385	9824.4125
2246.45456	9831.4125
2249.35343	9806.3125
2252.25044	9778.0125
2255.14561	9731.1125
2258.03893	9718.5125
2260.93041	9676.3125
2263.82004	9696.9125
2266.70783	9647.9125
2269.59378	9619.4125
2272.4779	9578.3125
2275.36017	9537.0125
2278.24061	9531.9125
2281.11922	9528.6125
2283.996	9516.8125
2286.87094	9494.3125
2289.74405	9461.5125
2292.61534	9453.6125
2295.4848	9432.5125
2298.35243	9443.0125
2301.21824	9451.8125
2304.08223	9471.4125
2306.94439	9452.6125
2309.80474	9442.3125
2312.66327	9445.0125
2315.51999	9418.3125
2318.37489	9411.0125
2321.22797	9418.9125
2324.07925	9383.9125
2326.92871	9364.3125
2329.77637	9360.7125
2332.62222	9328.1125
2335.46626	9332.3125
2338.3085	9334.7125
2341.14893	9317.0125
2343.98756	9334.4125
2346.8244	9321.7125
2349.65943	9296.3125
2352.49267	9309.8125
2355.32411	9292.7125
2358.15376	9307.4125
2360.98161	9293.1125
2363.80768	9300.0125
2366.63195	9300.0125
2369.45444	9267.2125
2372.27514	9270.7125
2375.09405	9222.7125
2377.91118	9209.8125
2380.72652	9170.8125
2383.54009	9159.0125
2386.35187	9147.6125
2389.16188	9113.2125
2391.97011	9087.9125
2394.77657	9071.1125
2397.58125	9073.1125
2400.38416	9063.0125
2403.18529	9028.4125
2405.98466	9019.4125
2408.78226	9011.4125
2411.57809	9013.1125
2414.37216	8997.7125
2417.16446	8973.2125
2419.955	8939.6125
2422.74378	8960.5125
2425.5308	8946.9125
2428.31606	8926.6125
2431.09956	8906.6125
2433.88131	8887.8125
2436.6613	8909.6125
2439.43954	8879.1125
2442.21603	8904.1125
2444.99077	8879.9125
2447.76377	8881.6125
2450.53501	8898.1125
2453.30451	8870.4125
2456.07226	8866.7125
2458.83827	8858.1125
2461.60254	8877.5125
2464.36507	8851.8125
2467.12586	8866.1125
2469.88492	8848.6125
2472.64224	8869.7125
2475.39782	8852.2125
2478.15167	8846.3125
2480.90379	8844.6125
2483.65417	8847.7125
2486.40283	8848.1125
2489.14976	8861.7125
2491.89497	8866.7125
2494.63845	8861.1125
2497.3802	8853.6125
2500.12024	8858.6125
2502.85855	8818.0125
2505.59514	8834.9125
2508.33002	8834.2125
2511.06318	8812.4125
2513.79462	8816.9125
2516.52435	8823.4125
2519.25237	8797.7125
2521.97867	8773.9125
2524.70327	8773.2125
2527.42616	8752.6125
2530.14734	8767.5125
2532.86681	8765.6125
2535.58458	8776.3125
2538.30065	8732.1125
2541.01501	8743.0125
2543.72768	8724.5125
2546.43864	8711.2125
2549.14791	8687.9125
2551.85548	8700.0125
2554.56136	8694.8125
2557.26554	8678.5125
2559.96803	8668.8125
2562.66883	8652.3125
2565.36794	8621.7125
2568.06536	8650.8125
2570.7611	8624.6125
2573.45514	8619.3125
2576.14751	8596.3125
2578.83819	8592.7125
2581.52719	8611.5125
2584.21451	8590.6125
2586.90015	8585.3125
2589.58411	8583.3125
2592.2664	8578.4125
2594.94701	8571.8125
2597.62594	8570.1125
2600.30321	8546.2125
2602.9788	8542.7125
2605.65273	8556.8125
2608.32498	8583.9125
2610.99557	8563.2125
2613.66449	8559.2125
2616.33175	8541.4125
2618.99734	8548.8125
2621.66128	8581.1125
2624.32355	8549.2125
2626.98416	8521.1125
2629.64311	8514.4125
2632.30041	8532.6125
2634.95605	8510.1125
2637.61004	8524.4125
2640.26238	8496.3125
2642.91306	8490.8125
2645.56209	8493.5125
2648.20948	8490.9125
2650.85521	8497.2125
2653.4993	8498.0125
2656.14175	8493.8125
2658.78255	8521.3125
2661.42171	8487.3125
2664.05923	8522.4125
2666.6951	8516.5125
2669.32934	8533.8125
2671.96194	8526.1125
2674.59291	8515.8125
2677.22224	8515.5125
2679.84993	8509.2125
2682.476	8483.7125
2685.10043	8494.2125
2687.72324	8463.4125
2690.34441	8473.4125
2692.96396	8484.3125
2695.58188	8487.3125
2698.19818	8475.4125
2700.81285	8502.0125
2703.4259	8476.8125
2706.03733	8485.5125
2708.64714	8484.6125
2711.25533	8493.6125
2713.86191	8499.8125
2716.46687	8512.4125
2719.07021	8506.6125
2721.67194	8524.8125
2724.27206	8520.6125
2726.87057	8541.3125
2729.46747	8535.8125
2732.06276	8555.4125
2734.65644	8520.0125
2737.24852	8514.6125
2739.83899	8508.7125
2742.42786	8518.4125
2745.01513	8491.9125
2747.60079	8478.0125
2750.18486	8480.5125
2752.76733	8489.8125
2755.3482	8481.9125
2757.92747	8497.4125
2760.50515	8479.3125
2763.08123	8479.2125
2765.65573	8460.5125
2768.22863	8447.2125
2770.79994	8455.8125
2773.36967	8477.0125
2775.9378	8479.5125
2778.50435	8482.6125
2781.06932	8450.8125
2783.6327	8440.2125
2786.1945	8468.4125
2788.75471	8469.4125
2791.31335	8463.2125
2793.87041	8444.4125
2796.42589	8432.8125
2798.97979	8437.1125
2801.53212	8438.1125
2804.08288	8385.0125
2806.63206	8380.1125
2809.17967	8361.1125
2811.72571	8348.0125
2814.27018	8337.1125
2816.81308	8332.0125
2819.35442	8289.3125
2821.89419	8294.4125
2824.43239	8307.5125
2826.96904	8281.6125
2829.50412	8306.0125
2832.03763	8274.9125
2834.56959	8254.4125
2837.1	8253.5125
2839.62884	8260.5125
2842.15613	8263.4125
2844.68186	8286.6125
2847.20604	8308.3125
2849.72867	8324.7125
2852.24974	8331.4125
2854.76927	8300.3125
2857.28724	8289.0125
2859.80367	8294.4125
2862.31855	8263.8125
2864.83189	8272.3125
2867.34368	8250.3125
2869.85393	8252.6125
2872.36264	8238.0125
2874.8698	8255.4125
2877.37543	8252.6125
2879.87952	8245.9125
2882.38207	8214.6125
2884.88308	8233.0125
2887.38256	8255.4125
2889.88051	8248.9125
2892.37692	8251.7125
2894.8718	8241.2125
2897.36515	8250.1125
2899.85698	8260.2125
2902.34727	8285.2125
2904.83604	8290.8125
2907.32328	8316.2125
2909.809	8316.3125
2912.29319	8298.2125
2914.77587	8298.4125
2917.25702	8292.4125
2919.73665	8292.1125
2922.21476	8300.7125
2924.69136	8283.4125
2927.16644	8288.7125
2929.64	8280.9125
2932.11205	8255.9125
2934.58258	8220.7125
2937.05161	8251.1125
2939.51912	8262.7125
2941.98513	8233.6125
2944.44962	8212.3125
2946.91261	8180.6125
2949.37409	8179.2125
2951.83407	8154.4125
2954.29254	8155.3125
2956.74951	8133.7125
2959.20498	8103.5125
2961.65895	8101.7125
2964.11142	8102.1125
2966.56239	8057.5125
2969.01186	8044.1125
2971.45984	8016.5125
2973.90632	8025.5125
2976.35131	7993.2125
2978.7948	7966.6125
2981.23681	7956.9125
2983.67732	7929.3125
2986.11635	7909.6125
2988.55388	7873.2125
2990.98993	7862.9125
2993.4245	7832.5125
2995.85758	7825.5125
2998.28917	7800.0125
3000.71928	7779.2125
3003.14791	7768.3125
3005.57506	7760.4125
3008.00073	7744.7125
3010.42493	7731.4125
3012.84764	7704.2125
3015.26888	7705.5125
3017.68865	7676.8125
3020.10694	7660.1125
3022.52376	7637.3125
3024.9391	7627.0125
3027.35298	7631.3125
3029.76539	7601.7125
3032.17632	7593.0125
3034.5858	7574.6125
3036.9938	7582.6125
3039.40034	7595.6125
3041.80542	7584.7125
3044.20903	7568.9125
3046.61118	7579.9125
3049.01187	7554.6125
3051.4111	7561.7125
3053.80888	7525.8125
3056.20519	7504.6125
3058.60005	7501.9125
3060.99345	7464.8125
