Data from AgNPs_FTO_APTES_UA_5uM_CRN_20uM_R6G_10uM_NaF_0.1M_Addition_RamanShift__16__13-21-36-777.txt Node

Date: Mon Feb 07 13:21:36 GMT 2022
User: TCL
Spectrometer: QEP01345
Trigger mode: 4
Integration Time (sec): 7.000000E0
Scans to average: 10
Electric dark correction enabled: true
Nonlinearity correction enabled: false
Boxcar width: 0
XAxis mode: Raman Shifts
Number of Pixels in Spectrum: 1044
>>>>>Begin Spectral Data<<<<<
46.04893	-0.425
50.45542	-1.625
54.85868	-1.325
59.25871	-0.225
63.6555	81.875
68.04907	85.775
72.43941	92.875
76.82654	92.075
81.21044	93.575
85.59113	99.775
89.96862	107.275
94.34289	105.275
98.71396	110.275
103.08183	114.975
107.4465	117.075
111.80798	122.575
116.16626	123.175
120.52136	133.375
124.87327	138.975
129.222	148.675
133.56755	158.975
137.90993	172.375
142.24913	194.075
146.58517	217.875
150.91804	255.675
155.24774	308.075
159.57429	391.475
163.89768	509.975
168.21792	689.375
172.53501	938.475
176.84895	1312.375
181.15975	1868.675
185.46741	2609.675
189.77193	3599.575
194.07331	4801.375
198.37157	6181.575
202.6667	7633.875
206.9587	9037.075
211.24758	10452.675
215.53334	11850.675
219.81599	13313.875
224.09553	14987.775
228.37195	16863.775
232.64527	18845.275
236.91549	20953.475
241.18261	23039.075
245.44663	25024.675
249.70755	26766.775
253.96539	28276.475
258.22014	29612.075
262.4718	30722.775
266.72039	31561.375
270.96589	32076.175
275.20832	32294.075
279.44768	32301.375
283.68397	32201.275
287.91719	32177.375
292.14735	32221.775
296.37445	32329.675
300.59849	32423.775
304.81948	32457.675
309.03742	32212.775
313.25231	31642.575
317.46415	30778.775
321.67296	29677.375
325.87872	28786.375
330.08145	28269.675
334.28114	28128.575
338.47781	28247.675
342.67145	28569.775
346.86207	28945.075
351.04966	29474.675
355.23424	29998.575
359.4158	30425.975
363.59435	30748.275
367.76989	30919.875
371.94243	31034.875
376.11196	31158.075
380.27849	31295.075
384.44203	31506.775
388.60257	31774.275
392.76012	32180.975
396.91468	32614.075
401.06626	33070.275
405.21485	33422.275
409.36047	33204.175
413.50311	32682.975
417.64277	32254.475
421.77947	32247.775
425.9132	32366.175
430.04396	32595.375
434.17176	32736.075
438.2966	33030.775
442.41849	33519.975
446.53742	34388.775
450.6534	35423.375
454.76644	36240.375
458.87653	36605.275
462.98368	36592.075
467.08789	36346.675
471.18916	36056.975
475.2875	35877.475
479.38291	36008.075
483.4754	35952.675
487.56496	35499.875
491.6516	34626.675
495.73531	33745.275
499.81612	33276.475
503.89401	33244.775
507.96899	33272.375
512.04106	33142.075
516.11023	32774.375
520.1765	32294.775
524.23987	31772.675
528.30034	31336.475
532.35792	31020.775
536.41261	30676.775
540.46441	30424.075
544.51333	30555.575
548.55936	31162.475
552.60252	32085.375
556.64279	33062.275
560.6802	33786.375
564.71473	34271.275
568.7464	35071.475
572.7752	36089.575
576.80114	37058.575
580.82422	37733.375
584.84444	38293.275
588.86181	38633.675
592.87633	38869.475
596.888	38837.175
600.89682	38533.375
604.9028	39269.575
608.90594	41747.675
612.90624	44041.275
616.90371	40918.175
620.89834	34426.975
624.89015	31658.375
628.87913	31542.975
632.86528	31795.175
636.84862	31786.975
640.82913	31238.975
644.80683	30325.175
648.78172	29524.075
652.75379	29267.675
656.72306	29436.675
660.68952	29839.575
664.65319	29711.875
668.61405	29202.075
672.57211	29092.375
676.52738	29093.175
680.47986	29077.175
684.42955	28931.575
688.37646	28814.375
692.32058	28941.975
696.26192	29262.475
700.20048	29622.275
704.13626	29908.875
708.06928	29958.575
711.99952	29775.275
715.927	29650.975
719.85171	29712.575
723.77365	29590.975
727.69284	29226.575
731.60928	28932.675
735.52295	28761.575
739.43388	28737.675
743.34206	28756.075
747.24749	28922.475
751.15017	29261.375
755.05012	29927.175
758.94733	30972.275
762.8418	32791.275
766.73354	35468.375
770.62254	37811.475
774.50882	37938.275
778.39237	35870.475
782.27321	33036.875
786.15132	30773.075
790.02671	29485.975
793.89938	28783.975
797.76935	28500.375
801.6366	28501.775
805.50115	28401.275
809.36299	28269.675
813.22213	28041.975
817.07857	27947.075
820.93231	27867.075
824.78336	27700.875
828.63172	27483.175
832.47738	27325.175
836.32036	27331.175
840.16066	27390.675
843.99827	27527.375
847.8332	27436.275
851.66546	27284.475
855.49504	27287.275
859.32195	27229.975
863.1462	27136.375
866.96777	27051.175
870.78668	26924.275
874.60293	26915.275
878.41652	26885.275
882.22745	26919.775
886.03573	27033.075
889.84136	27007.375
893.64433	26918.675
897.44466	26860.375
901.24235	26722.375
905.0374	26612.975
908.8298	26541.575
912.61957	26629.475
916.40671	26993.675
920.19121	27458.175
923.97308	27797.375
927.75233	27723.575
931.52895	27356.675
935.30295	26901.475
939.07433	26377.075
942.84309	25949.775
946.60924	25679.975
950.37278	25605.875
954.13371	25530.275
957.89203	25517.875
961.64774	25550.875
965.40086	25521.075
969.15137	25437.275
972.89929	25238.875
976.64461	25095.575
980.38733	25031.175
984.12747	25099.975
987.86502	25281.075
991.59999	25616.175
995.33237	26040.475
999.06217	26736.275
1002.78939	27575.275
1006.51404	28061.775
1010.23611	28409.575
1013.95561	28615.475
1017.67255	28707.375
1021.38692	28417.575
1025.09872	28007.075
1028.80796	27921.575
1032.51465	28423.575
1036.21877	29041.675
1039.92035	29161.875
1043.61937	28974.275
1047.31584	28498.275
1051.00976	27989.675
1054.70114	27904.275
1058.38998	28102.275
1062.07627	28413.775
1065.76003	28787.875
1069.44126	29151.075
1073.11995	29479.975
1076.79611	29768.475
1080.46974	29917.475
1084.14085	30141.775
1087.80943	30485.775
1091.47549	30880.475
1095.13903	31057.275
1098.80005	30798.875
1102.45857	30074.575
1106.11456	29290.775
1109.76805	28931.875
1113.41903	28915.975
1117.06751	29058.975
1120.71348	29394.375
1124.35696	29711.075
1127.99793	30090.975
1131.63641	30318.375
1135.2724	30289.175
1138.90589	30220.275
1142.5369	30256.575
1146.16542	30473.975
1149.79145	30805.075
1153.415	31321.375
1157.03607	32057.675
1160.65467	33182.275
1164.27079	34897.775
1167.88443	37107.275
1171.49561	39812.675
1175.10432	43005.775
1178.71056	46880.475
1182.31434	50568.775
1185.91565	52659.875
1189.51451	52898.975
1193.11091	51742.075
1196.70485	49737.075
1200.29634	47284.275
1203.88538	45559.575
1207.47197	44441.575
1211.05612	43741.675
1214.63782	42847.975
1218.21708	41737.575
1221.79391	40677.575
1225.36829	39836.175
1228.94024	39120.975
1232.50976	38198.575
1236.07685	37592.575
1239.6415	37226.475
1243.20374	37178.375
1246.76355	37430.675
1250.32093	38009.075
1253.8759	38905.675
1257.42845	40171.975
1260.97859	41454.475
1264.52631	42715.675
1268.07163	44010.875
1271.61453	45446.375
1275.15503	47014.775
1278.69312	48747.175
1282.22882	50443.475
1285.76211	52128.675
1289.29301	54266.275
1292.82151	56989.775
1296.34761	60395.775
1299.87133	64375.875
1303.39266	68457.575
1306.9116	72375.475
1310.42815	75513.875
1313.94233	77471.975
1317.45412	77699.175
1320.96354	77082.675
1324.47058	76469.975
1327.97525	76117.175
1331.47754	75688.275
1334.97747	75398.975
1338.47502	75097.475
1341.97022	74575.875
1345.46305	73397.475
1348.95352	71340.775
1352.44163	69364.175
1355.92738	68423.975
1359.41078	69101.675
1362.89183	70051.975
1366.37053	68632.575
1369.84688	63718.275
1373.32088	57926.575
1376.79254	53819.475
1380.26186	52503.375
1383.72883	52912.675
1387.19347	53559.875
1390.65578	53772.975
1394.11575	54052.475
1397.57339	54951.375
1401.0287	56205.575
1404.48168	57031.875
1407.93234	56853.375
1411.38068	55322.075
1414.82669	52786.775
1418.27039	49767.375
1421.71177	46827.275
1425.15083	44525.675
1428.58758	43353.275
1432.02203	43493.075
1435.45416	44644.275
1438.88399	46361.575
1442.31151	47963.975
1445.73673	49249.675
1449.15965	50412.175
1452.58027	51389.275
1455.9986	51994.575
1459.41463	52520.075
1462.82837	53270.675
1466.23982	54049.475
1469.64898	54640.475
1473.05586	54639.275
1476.46045	54303.375
1479.86276	53393.975
1483.26279	52431.975
1486.66054	51849.975
1490.05602	51629.275
1493.44922	51722.575
1496.84016	52097.575
1500.22882	52909.675
1503.61521	54296.975
1506.99934	56024.475
1510.38121	57576.875
1513.76081	58210.175
1517.13816	57461.575
1520.51324	56005.075
1523.88607	54777.675
1527.25665	54266.775
1530.62498	54168.475
1533.99105	54137.775
1537.35488	53811.975
1540.71647	52978.475
1544.07581	51546.875
1547.4329	49942.575
1550.78776	48627.275
1554.14038	47740.575
1557.49077	47272.975
1560.83892	47020.475
1564.18484	46986.775
1567.52853	46994.375
1570.86999	47337.675
1574.20922	48279.175
1577.54624	49268.275
1580.88103	49939.575
1584.2136	50703.475
1587.54395	52432.275
1590.87208	54926.875
1594.19801	57996.975
1597.52172	60786.275
1600.84321	61267.775
1604.16251	58310.975
1607.47959	53460.475
1610.79447	48433.875
1614.10715	43720.375
1617.41763	39902.775
1620.7259	37135.675
1624.03199	35600.675
1627.33587	35422.575
1630.63757	36592.775
1633.93707	39358.775
1637.23439	43921.275
1640.52951	50259.975
1643.82246	57246.775
1647.11321	62495.875
1650.40179	63204.375
1653.68819	58659.775
1656.97241	50678.275
1660.25446	42556.175
1663.53433	36200.275
1666.81203	31925.375
1670.08756	29176.175
1673.36092	27465.475
1676.63211	26350.475
1679.90115	25611.475
1683.16801	24985.075
1686.43272	24550.275
1689.69527	24219.975
1692.95567	23981.575
1696.2139	23820.275
1699.46999	23652.575
1702.72392	23500.675
1705.97571	23404.275
1709.22535	23324.775
1712.47284	23226.775
1715.71819	23159.075
1718.96139	23065.675
1722.20246	22975.875
1725.44139	22803.075
1728.67818	22680.475
1731.91284	22479.575
1735.14537	22315.875
1738.37576	22238.175
1741.60403	22167.275
1744.83017	22033.875
1748.05418	21967.975
1751.27607	21886.075
1754.49584	21857.375
1757.71349	21864.075
1760.92903	21777.775
1764.14244	21755.175
1767.35375	21753.775
1770.56294	21664.175
1773.77002	21615.775
1776.97499	21533.375
1780.17785	21516.275
1783.37861	21445.275
1786.57727	21413.275
1789.77382	21374.775
1792.96828	21311.575
1796.16064	21256.075
1799.3509	21178.875
1802.53907	21200.875
1805.72514	21094.875
1808.90913	20999.275
1812.09102	20955.475
1815.27083	20906.975
1818.44856	20874.575
1821.6242	20858.975
1824.79776	20813.475
1827.96924	20805.375
1831.13864	20759.775
1834.30597	20801.475
1837.47122	20766.075
1840.6344	20769.975
1843.7955	20777.475
1846.95454	20778.375
1850.11151	20782.275
1853.26642	20765.475
1856.41926	20765.475
1859.57004	20761.575
1862.71876	20732.575
1865.86542	20699.975
1869.01003	20683.875
1872.15258	20615.775
1875.29308	20628.275
1878.43152	20586.775
1881.56792	20604.275
1884.70227	20608.375
1887.83457	20521.975
1890.96482	20504.075
1894.09304	20477.775
1897.21921	20493.575
1900.34335	20481.175
1903.46544	20403.475
1906.58551	20419.175
1909.70353	20396.075
1912.81953	20327.375
1915.93349	20240.875
1919.04543	20223.375
1922.15534	20158.775
1925.26322	20070.075
1928.36908	20029.675
1931.47292	19975.575
1934.57473	19932.675
1937.67453	19877.575
1940.77232	19777.075
1943.86808	19727.375
1946.96184	19654.675
1950.05358	19600.775
1953.14331	19540.575
1956.23103	19461.075
1959.31675	19374.675
1962.40046	19317.375
1965.48217	19285.575
1968.56188	19213.275
1971.63959	19137.275
1974.7153	19110.475
1977.78901	19031.575
1980.86073	18938.075
1983.93046	18892.775
1986.99819	18844.675
1990.06394	18758.875
1993.1277	18714.975
1996.18947	18681.375
1999.24925	18600.975
2002.30706	18558.875
2005.36288	18502.475
2008.41672	18470.275
2011.46859	18400.675
2014.51848	18310.375
2017.56639	18273.175
2020.61233	18238.275
2023.6563	18224.875
2026.6983	18153.175
2029.73833	18105.175
2032.7764	18074.775
2035.8125	18054.475
2038.84664	17976.575
2041.87881	17990.575
2044.90903	17931.775
2047.93729	17915.275
2050.96359	17875.375
2053.98794	17875.675
2057.01034	17850.375
2060.03078	17847.275
2063.04927	17817.775
2066.06582	17828.975
2069.08042	17818.275
2072.09307	17767.575
2075.10378	17751.775
2078.11255	17725.575
2081.11938	17733.975
2084.12426	17711.075
2087.12722	17716.275
2090.12824	17671.075
2093.12732	17680.075
2096.12447	17686.775
2099.11969	17676.475
2102.11299	17677.275
2105.10435	17670.375
2108.09379	17650.175
2111.08131	17679.075
2114.0669	17669.175
2117.05057	17705.375
2120.03233	17723.675
2123.01216	17723.975
2125.99008	17727.875
2128.96609	17765.975
2131.94018	17744.175
2134.91236	17774.975
2137.88263	17785.975
2140.851	17786.575
2143.81746	17798.175
2146.78201	17753.775
2149.74466	17737.775
2152.7054	17718.875
2155.66425	17735.375
2158.6212	17706.175
2161.57625	17691.175
2164.52941	17700.775
2167.48067	17728.975
2170.43004	17671.975
2173.37752	17649.475
2176.32311	17663.275
2179.26681	17652.675
2182.20863	17698.975
2185.14856	17668.175
2188.08661	17683.575
2191.02278	17686.875
2193.95707	17660.675
2196.88948	17692.275
2199.82001	17610.575
2202.74867	17599.075
2205.67545	17575.475
2208.60037	17590.175
2211.52341	17533.575
2214.44458	17561.775
2217.36388	17523.275
2220.28132	17471.175
2223.1969	17413.775
2226.11061	17381.975
2229.02246	17360.675
2231.93245	17309.875
2234.84058	17270.675
2237.74686	17257.975
2240.65128	17210.875
2243.55385	17195.875
2246.45456	17162.375
2249.35343	17120.475
2252.25044	17098.275
2255.14561	17097.175
2258.03893	17035.275
2260.93041	17010.475
2263.82004	16957.575
2266.70783	16937.075
2269.59378	16860.675
2272.4779	16817.575
2275.36017	16792.775
2278.24061	16748.075
2281.11922	16696.775
2283.996	16695.375
2286.87094	16659.375
2289.74405	16659.275
2292.61534	16629.575
2295.4848	16624.575
2298.35243	16605.475
2301.21824	16589.975
2304.08223	16614.175
2306.94439	16628.075
2309.80474	16655.975
2312.66327	16624.775
2315.51999	16610.275
2318.37489	16584.575
2321.22797	16576.775
2324.07925	16582.575
2326.92871	16531.075
2329.77637	16540.375
2332.62222	16497.275
2335.46626	16497.375
2338.3085	16510.475
2341.14893	16515.875
2343.98756	16508.275
2346.8244	16540.075
2349.65943	16513.775
2352.49267	16514.275
2355.32411	16546.475
2358.15376	16514.875
2360.98161	16482.675
2363.80768	16506.575
2366.63195	16480.375
2369.45444	16447.275
2372.27514	16391.475
2375.09405	16391.475
2377.91118	16354.875
2380.72652	16271.875
2383.54009	16276.475
2386.35187	16263.275
2389.16188	16186.375
2391.97011	16162.675
2394.77657	16133.075
2397.58125	16134.275
2400.38416	16100.375
2403.18529	16077.575
2405.98466	16051.675
2408.78226	16013.175
2411.57809	16022.975
2414.37216	16011.275
2417.16446	15971.475
2419.955	15956.275
2422.74378	15949.875
2425.5308	15908.075
2428.31606	15883.575
2431.09956	15932.175
2433.88131	15896.275
2436.6613	15892.275
2439.43954	15898.475
2442.21603	15873.775
2444.99077	15848.975
2447.76377	15849.075
2450.53501	15846.775
2453.30451	15858.975
2456.07226	15864.775
2458.83827	15864.775
2461.60254	15871.675
2464.36507	15864.175
2467.12586	15808.575
2469.88492	15884.375
2472.64224	15867.675
2475.39782	15888.675
2478.15167	15907.275
2480.90379	15881.375
2483.65417	15901.175
2486.40283	15894.175
2489.14976	15933.575
2491.89497	15929.975
2494.63845	15957.675
2497.3802	15956.675
2500.12024	15956.875
2502.85855	15971.075
2505.59514	15936.075
2508.33002	15898.675
2511.06318	15885.175
2513.79462	15905.375
2516.52435	15869.175
2519.25237	15901.175
2521.97867	15864.275
2524.70327	15862.975
2527.42616	15834.575
2530.14734	15852.275
2532.86681	15835.475
2535.58458	15870.175
2538.30065	15803.875
2541.01501	15796.175
2543.72768	15821.975
2546.43864	15817.275
2549.14791	15751.275
2551.85548	15763.875
2554.56136	15759.175
2557.26554	15720.475
2559.96803	15699.275
2562.66883	15709.075
2565.36794	15686.475
2568.06536	15661.375
2570.7611	15648.275
2573.45514	15644.475
2576.14751	15647.975
2578.83819	15633.475
2581.52719	15612.575
2584.21451	15626.675
2586.90015	15643.475
2589.58411	15647.575
2592.2664	15644.975
2594.94701	15605.075
2597.62594	15647.675
2600.30321	15615.475
2602.9788	15617.775
2605.65273	15630.475
2608.32498	15624.275
2610.99557	15630.875
2613.66449	15638.275
2616.33175	15614.875
2618.99734	15613.575
2621.66128	15623.675
2624.32355	15622.075
2626.98416	15617.375
2629.64311	15629.275
2632.30041	15670.975
2634.95605	15618.975
2637.61004	15617.475
2640.26238	15599.075
2642.91306	15578.275
2645.56209	15554.875
2648.20948	15603.175
2650.85521	15620.375
2653.4993	15595.275
2656.14175	15593.075
2658.78255	15614.075
2661.42171	15618.675
2664.05923	15647.675
2666.6951	15631.175
2669.32934	15672.175
2671.96194	15669.875
2674.59291	15654.175
2677.22224	15647.975
2679.84993	15690.075
2682.476	15619.875
2685.10043	15642.875
2687.72324	15601.175
2690.34441	15605.175
2692.96396	15569.775
2695.58188	15585.075
2698.19818	15551.275
2700.81285	15592.575
2703.4259	15610.075
2706.03733	15650.975
2708.64714	15662.375
2711.25533	15615.875
2713.86191	15635.475
2716.46687	15685.675
2719.07021	15664.375
2721.67194	15734.975
2724.27206	15678.275
2726.87057	15686.275
2729.46747	15698.975
2732.06276	15730.675
2734.65644	15716.775
2737.24852	15734.975
2739.83899	15699.475
2742.42786	15737.775
2745.01513	15690.775
2747.60079	15711.475
2750.18486	15701.475
2752.76733	15704.075
2755.3482	15678.675
2757.92747	15708.275
2760.50515	15671.475
2763.08123	15674.875
2765.65573	15711.275
2768.22863	15682.675
2770.79994	15677.075
2773.36967	15682.975
2775.9378	15682.575
2778.50435	15651.175
2781.06932	15709.775
2783.6327	15667.075
2786.1945	15687.475
2788.75471	15685.175
2791.31335	15667.675
2793.87041	15645.875
2796.42589	15596.375
2798.97979	15597.275
2801.53212	15559.475
2804.08288	15562.775
2806.63206	15495.175
2809.17967	15487.675
2811.72571	15439.175
2814.27018	15433.175
2816.81308	15420.875
2819.35442	15374.175
2821.89419	15324.475
2824.43239	15365.275
2826.96904	15357.675
2829.50412	15373.075
2832.03763	15318.075
2834.56959	15310.375
2837.1	15251.775
2839.62884	15287.575
2842.15613	15254.975
2844.68186	15317.375
2847.20604	15332.475
2849.72867	15356.675
2852.24974	15348.575
2854.76927	15340.875
2857.28724	15298.975
2859.80367	15337.975
2862.31855	15303.575
2864.83189	15256.175
2867.34368	15238.175
2869.85393	15234.575
2872.36264	15220.175
2874.8698	15179.475
2877.37543	15176.775
2879.87952	15199.875
2882.38207	15151.875
2884.88308	15183.075
2887.38256	15213.575
2889.88051	15179.875
2892.37692	15174.875
2894.8718	15190.175
2897.36515	15214.175
2899.85698	15230.575
2902.34727	15276.475
2904.83604	15280.075
2907.32328	15342.875
2909.809	15336.075
2912.29319	15345.175
2914.77587	15366.575
2917.25702	15369.175
2919.73665	15345.375
2922.21476	15331.775
2924.69136	15319.175
2927.16644	15298.675
2929.64	15266.675
2932.11205	15249.875
2934.58258	15218.975
2937.05161	15247.875
2939.51912	15231.375
2941.98513	15197.875
2944.44962	15171.975
2946.91261	15097.375
2949.37409	15097.275
2951.83407	15099.375
2954.29254	15084.175
2956.74951	15049.675
2959.20498	15053.075
2961.65895	15003.375
2964.11142	15002.375
2966.56239	14958.875
2969.01186	14946.675
2971.45984	14956.375
2973.90632	14938.375
2976.35131	14930.275
2978.7948	14837.875
2981.23681	14837.375
2983.67732	14794.575
2986.11635	14744.075
2988.55388	14755.175
2990.98993	14689.575
2993.4245	14632.075
2995.85758	14572.075
2998.28917	14529.475
3000.71928	14517.275
3003.14791	14497.675
3005.57506	14474.975
3008.00073	14425.775
3010.42493	14303.675
3012.84764	14376.475
3015.26888	14370.875
3017.68865	14335.075
3020.10694	14300.975
3022.52376	14274.275
3024.9391	14250.075
3027.35298	14228.775
3029.76539	14255.275
3032.17632	14217.475
3034.5858	14199.475
3036.9938	14182.175
3039.40034	14196.375
3041.80542	14196.175
3044.20903	14190.675
3046.61118	14141.075
3049.01187	14110.375
3051.4111	14128.475
3053.80888	14097.275
3056.20519	14048.575
3058.60005	14053.175
3060.99345	13982.475
3063.3854	13971.875
3065.7759	13912.975
3068.16494	13844.575
3070.55254	13792.475
3072.93868	13788.575
3075.32338	13730.075
3077.70662	13701.975
3080.08842	13649.975
3082.46878	13623.975
3084.84769	13583.975
3087.22515	13575.975
3089.60118	13598.075
3091.97576	13578.475
3094.3489	13564.275
3096.72061	13554.575
3099.09087	13539.875
3101.4597	13562.175
3103.82709	13544.775
3106.19305	13528.875
3108.55757	13528.675
3110.92066	13446.575
3113.28232	13441.775
3115.64255	13429.275
3118.00134	13414.875
3120.35871	13360.975
3122.71466	13336.975
3125.06917	13303.175
3127.42226	13268.675
