Data from AgNPs_FTO_APTES_UA_5uM_CRN_10uM_R6G_10uM_NaF_0.1M_Addition_RamanShift__5__12-29-06-717.txt Node

Date: Mon Feb 07 12:29:06 GMT 2022
User: TCL
Spectrometer: QEP01345
Trigger mode: 4
Integration Time (sec): 7.000000E0
Scans to average: 10
Electric dark correction enabled: true
Nonlinearity correction enabled: false
Boxcar width: 0
XAxis mode: Raman Shifts
Number of Pixels in Spectrum: 1044
>>>>>Begin Spectral Data<<<<<
46.04893	-1.3875
50.45542	-2.0875
54.85868	-1.6875
59.25871	-0.2875
63.6555	93.5125
68.04907	95.8125
72.43941	103.0125
76.82654	104.7125
81.21044	106.4125
85.59113	113.4125
89.96862	118.3125
94.34289	118.7125
98.71396	120.9125
103.08183	128.8125
107.4465	129.3125
111.80798	133.4125
116.16626	138.3125
120.52136	148.7125
124.87327	152.3125
129.222	164.1125
133.56755	175.2125
137.90993	194.0125
142.24913	209.3125
146.58517	238.4125
150.91804	277.0125
155.24774	339.2125
159.57429	426.1125
163.89768	553.5125
168.21792	736.7125
172.53501	1011.2125
176.84895	1417.6125
181.15975	1992.8125
185.46741	2805.0125
189.77193	3846.8125
194.07331	5140.7125
198.37157	6572.9125
202.6667	8097.4125
206.9587	9625.6125
211.24758	11103.0125
215.53334	12626.8125
219.81599	14236.3125
224.09553	16066.6125
228.37195	18040.7125
232.64527	20152.2125
236.91549	22356.5125
241.18261	24543.4125
245.44663	26527.4125
249.70755	28303.5125
253.96539	29877.4125
258.22014	31219.7125
262.4718	32313.2125
266.72039	33052.8125
270.96589	33513.2125
275.20832	33616.0125
279.44768	33414.1125
283.68397	33218.9125
287.91719	33082.9125
292.14735	32991.3125
296.37445	33010.3125
300.59849	33206.1125
304.81948	33338.1125
309.03742	33364.9125
313.25231	33083.0125
317.46415	32486.6125
321.67296	31659.9125
325.87872	30983.1125
330.08145	30597.1125
334.28114	30454.7125
338.47781	30595.8125
342.67145	30929.6125
346.86207	31372.3125
351.04966	31906.1125
355.23424	32552.4125
359.4158	33104.3125
363.59435	33569.2125
367.76989	33873.4125
371.94243	34017.0125
376.11196	34126.1125
380.27849	34302.1125
384.44203	34405.2125
388.60257	34701.8125
392.76012	35145.0125
396.91468	35681.6125
401.06626	36294.3125
405.21485	36671.9125
409.36047	36510.6125
413.50311	36207.3125
417.64277	36138.4125
421.77947	36390.4125
425.9132	36580.3125
430.04396	36815.3125
434.17176	36989.2125
438.2966	37245.7125
442.41849	37930.7125
446.53742	39138.3125
450.6534	40601.6125
454.76644	41646.9125
458.87653	41870.1125
462.98368	41399.7125
467.08789	40655.4125
471.18916	39847.5125
475.2875	39068.6125
479.38291	38806.2125
483.4754	38590.5125
487.56496	38242.9125
491.6516	37492.4125
495.73531	36651.1125
499.81612	36153.6125
503.89401	36244.6125
507.96899	36417.9125
512.04106	36306.6125
516.11023	35805.8125
520.1765	35283.7125
524.23987	34740.2125
528.30034	34350.4125
532.35792	33997.0125
536.41261	33538.8125
540.46441	33071.9125
544.51333	33018.8125
548.55936	33466.8125
552.60252	34380.3125
556.64279	35511.9125
560.6802	36452.4125
564.71473	37107.8125
568.7464	38024.9125
572.7752	39492.1125
576.80114	41054.3125
580.82422	42691.5125
584.84444	44780.8125
588.86181	47283.2125
592.87633	49073.4125
596.888	48402.3125
600.89682	45474.1125
604.9028	44128.1125
608.90594	46076.6125
612.90624	48435.2125
616.90371	45032.3125
620.89834	37925.0125
624.89015	34735.5125
628.87913	34372.1125
632.86528	34404.4125
636.84862	34039.8125
640.82913	33215.3125
644.80683	32250.4125
648.78172	31716.9125
652.75379	31826.8125
656.72306	32188.4125
660.68952	32610.0125
664.65319	32345.8125
668.61405	31684.4125
672.57211	31574.2125
676.52738	31687.0125
680.47986	31691.3125
684.42955	31369.9125
688.37646	31229.9125
692.32058	31530.7125
696.26192	32150.8125
700.20048	32832.8125
704.13626	33157.3125
708.06928	33161.3125
711.99952	32977.5125
715.927	32973.7125
719.85171	33261.0125
723.77365	33149.6125
727.69284	32493.4125
731.60928	31935.3125
735.52295	31676.6125
739.43388	31689.0125
743.34206	31799.5125
747.24749	32061.3125
751.15017	32577.7125
755.05012	33306.2125
758.94733	34436.3125
762.8418	36273.1125
766.73354	38808.2125
770.62254	40954.6125
774.50882	40810.6125
778.39237	38647.8125
782.27321	35866.8125
786.15132	33718.5125
790.02671	32409.1125
793.89938	31802.9125
797.76935	31616.9125
801.6366	31567.4125
805.50115	31541.5125
809.36299	31353.6125
813.22213	31041.8125
817.07857	30893.5125
820.93231	30663.5125
824.78336	30377.9125
828.63172	30185.7125
832.47738	30100.4125
836.32036	30216.5125
840.16066	30388.5125
843.99827	30599.2125
847.8332	30506.7125
851.66546	30257.1125
855.49504	30241.8125
859.32195	30177.5125
863.1462	30029.3125
866.96777	29868.1125
870.78668	29813.5125
874.60293	29732.4125
878.41652	29743.2125
882.22745	29866.9125
886.03573	29998.5125
889.84136	29915.6125
893.64433	29804.9125
897.44466	29647.3125
901.24235	29568.0125
905.0374	29430.4125
908.8298	29435.5125
912.61957	29548.9125
916.40671	30007.5125
920.19121	30669.0125
923.97308	31227.2125
927.75233	31243.0125
931.52895	30817.3125
935.30295	30182.3125
939.07433	29460.9125
942.84309	29035.3125
946.60924	28791.0125
950.37278	28763.4125
954.13371	28729.8125
957.89203	28670.8125
961.64774	28663.1125
965.40086	28657.3125
969.15137	28614.0125
972.89929	28411.3125
976.64461	28282.5125
980.38733	28295.3125
984.12747	28418.1125
987.86502	28624.6125
991.59999	28999.3125
995.33237	29621.4125
999.06217	30642.5125
1002.78939	31778.6125
1006.51404	32683.5125
1010.23611	33284.8125
1013.95561	33618.3125
1017.67255	33627.0125
1021.38692	33065.8125
1025.09872	32454.1125
1028.80796	32483.0125
1032.51465	33474.6125
1036.21877	34487.7125
1039.92035	34821.1125
1043.61937	34482.2125
1047.31584	33613.4125
1051.00976	32613.6125
1054.70114	32077.0125
1058.38998	31972.7125
1062.07627	32080.2125
1065.76003	32377.1125
1069.44126	32730.9125
1073.11995	33279.9125
1076.79611	33787.5125
1080.46974	34039.9125
1084.14085	34388.8125
1087.80943	34872.5125
1091.47549	35261.0125
1095.13903	35338.5125
1098.80005	34750.5125
1102.45857	33826.3125
1106.11456	33015.8125
1109.76805	32721.7125
1113.41903	32773.8125
1117.06751	32959.5125
1120.71348	33242.6125
1124.35696	33527.5125
1127.99793	33903.0125
1131.63641	34249.6125
1135.2724	34316.3125
1138.90589	34365.6125
1142.5369	34618.7125
1146.16542	35063.6125
1149.79145	35593.0125
1153.415	36203.0125
1157.03607	37174.1125
1160.65467	38954.5125
1164.27079	41626.9125
1167.88443	44604.2125
1171.49561	47391.6125
1175.10432	50811.9125
1178.71056	55155.4125
1182.31434	59329.2125
1185.91565	61160.7125
1189.51451	60381.0125
1193.11091	58350.7125
1196.70485	56006.8125
1200.29634	53907.7125
1203.88538	52749.4125
1207.47197	52444.4125
1211.05612	52082.9125
1214.63782	51096.6125
1218.21708	49344.8125
1221.79391	47726.2125
1225.36829	46423.1125
1228.94024	45327.4125
1232.50976	44122.3125
1236.07685	43035.7125
1239.6415	42526.3125
1243.20374	42501.2125
1246.76355	43009.6125
1250.32093	43955.8125
1253.8759	45224.0125
1257.42845	46730.6125
1260.97859	48339.3125
1264.52631	50026.9125
1268.07163	51891.7125
1271.61453	53815.6125
1275.15503	55948.1125
1278.69312	58271.1125
1282.22882	60689.7125
1285.76211	63469.4125
1289.29301	66672.5125
1292.82151	70731.2125
1296.34761	75749.2125
1299.87133	81730.1125
1303.39266	87739.8125
1306.9116	92952.5125
1310.42815	96255.4125
1313.94233	97248.1125
1317.45412	95973.8125
1320.96354	93803.5125
1324.47058	92005.6125
1327.97525	90963.6125
1331.47754	90181.6125
1334.97747	89357.8125
1338.47502	87743.4125
1341.97022	85326.0125
1345.46305	82382.9125
1348.95352	80165.0125
1352.44163	79670.8125
1355.92738	81730.8125
1359.41078	85601.6125
1362.89183	88439.7125
1366.37053	87176.5125
1369.84688	80344.1125
1373.32088	70968.4125
1376.79254	64370.5125
1380.26186	62505.7125
1383.72883	63469.1125
1387.19347	64186.5125
1390.65578	63708.6125
1394.11575	63762.2125
1397.57339	65038.5125
1401.0287	67057.1125
1404.48168	68599.9125
1407.93234	68850.1125
1411.38068	67297.0125
1414.82669	64268.6125
1418.27039	60543.7125
1421.71177	56894.0125
1425.15083	53917.8125
1428.58758	52549.5125
1432.02203	53192.1125
1435.45416	55382.3125
1438.88399	57979.6125
1442.31151	59945.9125
1445.73673	61126.9125
1449.15965	61802.4125
1452.58027	61864.4125
1455.9986	61447.1125
1459.41463	61246.7125
1462.82837	62124.4125
1466.23982	63432.7125
1469.64898	64943.3125
1473.05586	65810.5125
1476.46045	66014.0125
1479.86276	65325.4125
1483.26279	64195.2125
1486.66054	63383.4125
1490.05602	63261.6125
1493.44922	63423.6125
1496.84016	63371.5125
1500.22882	63371.4125
1503.61521	63899.9125
1506.99934	64805.8125
1510.38121	65712.8125
1513.76081	65927.6125
1517.13816	65134.5125
1520.51324	64135.6125
1523.88607	63740.8125
1527.25665	64188.1125
1530.62498	64993.1125
1533.99105	65333.5125
1537.35488	64615.8125
1540.71647	63115.3125
1544.07581	60873.8125
1547.4329	58459.0125
1550.78776	56432.6125
1554.14038	54873.9125
1557.49077	53845.0125
1560.83892	53155.0125
1564.18484	52789.6125
1567.52853	52736.5125
1570.86999	53306.1125
1574.20922	54651.2125
1577.54624	56225.1125
1580.88103	57562.7125
1584.2136	59391.1125
1587.54395	62992.6125
1590.87208	68114.7125
1594.19801	73754.5125
1597.52172	78159.9125
1600.84321	78593.5125
1604.16251	73346.4125
1607.47959	65175.3125
1610.79447	57007.7125
1614.10715	50337.2125
1617.41763	45514.4125
1620.7259	42566.2125
1624.03199	41375.8125
1627.33587	41828.1125
1630.63757	43925.9125
1633.93707	48034.7125
1637.23439	54648.2125
1640.52951	63998.6125
1643.82246	74760.6125
1647.11321	82680.0125
1650.40179	82720.7125
1653.68819	74248.5125
1656.97241	61613.8125
1660.25446	50174.3125
1663.53433	42169.3125
1666.81203	37115.4125
1670.08756	33952.4125
1673.36092	32054.1125
1676.63211	30801.4125
1679.90115	29998.7125
1683.16801	29323.8125
1686.43272	28858.7125
1689.69527	28521.8125
1692.95567	28257.4125
1696.2139	28006.9125
1699.46999	27830.9125
1702.72392	27692.3125
1705.97571	27616.0125
1709.22535	27534.3125
1712.47284	27484.8125
1715.71819	27375.8125
1718.96139	27280.2125
1722.20246	27165.9125
1725.44139	27046.1125
1728.67818	26861.2125
1731.91284	26667.9125
1735.14537	26438.7125
1738.37576	26290.8125
1741.60403	26198.5125
1744.83017	26090.9125
1748.05418	25963.3125
1751.27607	25936.2125
1754.49584	25839.4125
1757.71349	25827.2125
1760.92903	25799.0125
1764.14244	25774.5125
1767.35375	25791.0125
1770.56294	25693.4125
1773.77002	25627.7125
1776.97499	25550.6125
1780.17785	25469.8125
1783.37861	25440.5125
1786.57727	25429.9125
1789.77382	25381.9125
1792.96828	25332.8125
1796.16064	25296.7125
1799.3509	25293.2125
1802.53907	25200.9125
1805.72514	25121.6125
1808.90913	25058.1125
1812.09102	24962.1125
1815.27083	24916.4125
1818.44856	24871.4125
1821.6242	24818.8125
1824.79776	24832.3125
1827.96924	24837.0125
1831.13864	24836.0125
1834.30597	24848.5125
1837.47122	24861.7125
1840.6344	24822.3125
1843.7955	24810.0125
1846.95454	24854.3125
1850.11151	24891.4125
1853.26642	24811.2125
1856.41926	24848.2125
1859.57004	24807.8125
1862.71876	24804.7125
1865.86542	24745.5125
1869.01003	24700.4125
1872.15258	24644.5125
1875.29308	24638.4125
1878.43152	24637.8125
1881.56792	24642.3125
1884.70227	24606.5125
1887.83457	24610.8125
1890.96482	24561.6125
1894.09304	24552.6125
1897.21921	24512.4125
1900.34335	24488.2125
1903.46544	24436.1125
1906.58551	24448.7125
1909.70353	24389.4125
1912.81953	24324.0125
1915.93349	24286.7125
1919.04543	24242.1125
1922.15534	24183.9125
1925.26322	24105.8125
1928.36908	24039.3125
1931.47292	23996.8125
1934.57473	23904.4125
1937.67453	23835.0125
1940.77232	23803.8125
1943.86808	23708.1125
1946.96184	23637.9125
1950.05358	23579.7125
1953.14331	23538.2125
1956.23103	23436.6125
1959.31675	23340.7125
1962.40046	23308.5125
1965.48217	23243.2125
1968.56188	23194.3125
1971.63959	23107.6125
1974.7153	23059.9125
1977.78901	22997.8125
1980.86073	22867.0125
1983.93046	22818.0125
1986.99819	22726.6125
1990.06394	22667.8125
1993.1277	22651.6125
1996.18947	22588.1125
1999.24925	22545.4125
2002.30706	22439.9125
2005.36288	22338.9125
2008.41672	22330.0125
2011.46859	22288.1125
2014.51848	22205.2125
2017.56639	22158.6125
2020.61233	22101.8125
2023.6563	22021.2125
2026.6983	22021.6125
2029.73833	21999.3125
2032.7764	21944.5125
2035.8125	21915.0125
2038.84664	21896.1125
2041.87881	21890.2125
2044.90903	21825.8125
2047.93729	21791.1125
2050.96359	21777.9125
2053.98794	21716.2125
2057.01034	21754.5125
2060.03078	21732.0125
2063.04927	21702.8125
2066.06582	21726.2125
2069.08042	21746.9125
2072.09307	21682.6125
2075.10378	21655.1125
2078.11255	21649.9125
2081.11938	21619.6125
2084.12426	21610.5125
2087.12722	21567.7125
2090.12824	21562.1125
2093.12732	21560.9125
2096.12447	21566.3125
2099.11969	21609.2125
2102.11299	21587.0125
2105.10435	21586.1125
2108.09379	21596.1125
2111.08131	21625.1125
2114.0669	21614.8125
2117.05057	21636.1125
2120.03233	21620.2125
2123.01216	21622.6125
2125.99008	21672.6125
2128.96609	21675.2125
2131.94018	21670.8125
2134.91236	21701.3125
2137.88263	21716.4125
2140.851	21747.2125
2143.81746	21712.7125
2146.78201	21671.8125
2149.74466	21701.1125
2152.7054	21679.7125
2155.66425	21697.8125
2158.6212	21681.6125
2161.57625	21678.4125
2164.52941	21690.9125
2167.48067	21686.0125
2170.43004	21679.8125
2173.37752	21635.6125
2176.32311	21665.7125
2179.26681	21692.1125
2182.20863	21655.1125
2185.14856	21687.1125
2188.08661	21707.8125
2191.02278	21722.4125
2193.95707	21698.7125
2196.88948	21707.7125
2199.82001	21672.0125
2202.74867	21624.9125
2205.67545	21635.3125
2208.60037	21598.3125
2211.52341	21595.2125
2214.44458	21593.2125
2217.36388	21538.2125
2220.28132	21528.9125
2223.1969	21513.1125
2226.11061	21465.3125
2229.02246	21416.2125
2231.93245	21364.5125
2234.84058	21384.6125
2237.74686	21358.4125
2240.65128	21336.9125
2243.55385	21288.0125
2246.45456	21270.4125
2249.35343	21193.1125
2252.25044	21174.3125
2255.14561	21119.8125
2258.03893	21032.7125
2260.93041	21012.2125
2263.82004	21001.1125
2266.70783	20937.2125
2269.59378	20842.5125
2272.4779	20812.8125
2275.36017	20741.8125
2278.24061	20758.7125
2281.11922	20710.7125
2283.996	20657.3125
2286.87094	20696.8125
2289.74405	20663.2125
2292.61534	20669.4125
2295.4848	20659.0125
2298.35243	20678.6125
2301.21824	20715.8125
2304.08223	20704.6125
2306.94439	20719.3125
2309.80474	20731.3125
2312.66327	20755.6125
2315.51999	20743.9125
2318.37489	20716.0125
2321.22797	20719.9125
2324.07925	20734.7125
2326.92871	20649.9125
2329.77637	20643.5125
2332.62222	20578.8125
2335.46626	20631.7125
2338.3085	20660.5125
2341.14893	20665.8125
2343.98756	20695.3125
2346.8244	20694.1125
2349.65943	20689.8125
2352.49267	20643.8125
2355.32411	20704.9125
2358.15376	20644.9125
2360.98161	20634.0125
2363.80768	20600.0125
2366.63195	20591.6125
2369.45444	20545.1125
2372.27514	20561.0125
2375.09405	20523.4125
2377.91118	20466.5125
2380.72652	20421.7125
2383.54009	20354.4125
2386.35187	20380.9125
2389.16188	20329.0125
2391.97011	20297.8125
2394.77657	20280.8125
2397.58125	20255.5125
2400.38416	20230.3125
2403.18529	20206.9125
2405.98466	20189.9125
2408.78226	20143.0125
2411.57809	20114.5125
2414.37216	20110.9125
2417.16446	20092.1125
2419.955	20057.4125
2422.74378	20091.6125
2425.5308	20037.9125
2428.31606	20022.1125
2431.09956	20033.3125
2433.88131	20008.7125
2436.6613	20050.9125
2439.43954	20057.4125
2442.21603	20062.6125
2444.99077	20000.9125
2447.76377	20031.4125
2450.53501	20045.8125
2453.30451	20047.3125
2456.07226	20012.0125
2458.83827	20002.0125
2461.60254	20069.8125
2464.36507	20054.9125
2467.12586	20035.8125
2469.88492	20090.0125
2472.64224	20078.7125
2475.39782	20123.1125
2478.15167	20150.5125
2480.90379	20136.5125
2483.65417	20170.3125
2486.40283	20171.6125
2489.14976	20211.5125
2491.89497	20170.0125
2494.63845	20254.9125
2497.3802	20250.9125
2500.12024	20223.4125
2502.85855	20233.9125
2505.59514	20225.9125
2508.33002	20195.5125
2511.06318	20209.6125
2513.79462	20210.4125
2516.52435	20200.5125
2519.25237	20208.5125
2521.97867	20195.4125
2524.70327	20198.2125
2527.42616	20199.4125
2530.14734	20184.2125
2532.86681	20187.9125
2535.58458	20187.6125
2538.30065	20193.7125
2541.01501	20179.7125
2543.72768	20173.1125
2546.43864	20200.2125
2549.14791	20133.4125
2551.85548	20147.4125
2554.56136	20122.9125
2557.26554	20094.1125
2559.96803	20103.5125
2562.66883	20139.7125
2565.36794	20083.7125
2568.06536	20146.6125
2570.7611	20116.3125
2573.45514	20145.3125
2576.14751	20140.6125
2578.83819	20115.6125
2581.52719	20135.5125
2584.21451	20142.0125
2586.90015	20160.4125
2589.58411	20153.7125
2592.2664	20178.1125
2594.94701	20133.0125
2597.62594	20138.6125
2600.30321	20159.1125
2602.9788	20166.5125
2605.65273	20173.8125
2608.32498	20173.2125
2610.99557	20151.5125
2613.66449	20227.4125
2616.33175	20163.4125
2618.99734	20260.3125
2621.66128	20203.1125
2624.32355	20217.0125
2626.98416	20217.5125
2629.64311	20220.2125
2632.30041	20223.9125
2634.95605	20193.4125
2637.61004	20172.0125
2640.26238	20133.2125
2642.91306	20176.4125
2645.56209	20138.5125
2648.20948	20200.6125
2650.85521	20219.5125
2653.4993	20198.7125
2656.14175	20219.2125
2658.78255	20188.6125
2661.42171	20251.8125
2664.05923	20308.6125
2666.6951	20312.8125
2669.32934	20330.3125
2671.96194	20350.1125
2674.59291	20384.5125
2677.22224	20341.0125
2679.84993	20341.3125
2682.476	20368.2125
2685.10043	20350.7125
2687.72324	20302.3125
2690.34441	20299.0125
2692.96396	20260.7125
2695.58188	20276.3125
2698.19818	20240.4125
2700.81285	20304.2125
2703.4259	20301.6125
2706.03733	20353.0125
2708.64714	20354.0125
2711.25533	20356.6125
2713.86191	20341.5125
2716.46687	20393.2125
2719.07021	20391.3125
2721.67194	20447.2125
2724.27206	20477.1125
2726.87057	20527.1125
2729.46747	20555.8125
2732.06276	20586.3125
2734.65644	20564.7125
2737.24852	20550.0125
2739.83899	20561.7125
2742.42786	20544.8125
2745.01513	20518.9125
2747.60079	20561.8125
2750.18486	20547.5125
2752.76733	20554.0125
2755.3482	20508.0125
2757.92747	20548.1125
2760.50515	20538.3125
2763.08123	20566.4125
2765.65573	20550.8125
2768.22863	20604.4125
2770.79994	20509.5125
2773.36967	20569.5125
2775.9378	20572.0125
2778.50435	20596.6125
2781.06932	20596.9125
2783.6327	20600.2125
2786.1945	20622.7125
2788.75471	20628.0125
2791.31335	20620.1125
2793.87041	20603.8125
2796.42589	20539.4125
2798.97979	20544.3125
2801.53212	20524.9125
2804.08288	20524.6125
2806.63206	20430.9125
2809.17967	20382.1125
2811.72571	20363.0125
2814.27018	20331.8125
2816.81308	20321.6125
2819.35442	20281.4125
2821.89419	20242.6125
2824.43239	20244.2125
2826.96904	20255.1125
2829.50412	20252.7125
2832.03763	20220.7125
2834.56959	20201.9125
2837.1	20183.4125
2839.62884	20227.7125
2842.15613	20148.9125
2844.68186	20264.6125
2847.20604	20264.3125
2849.72867	20236.0125
2852.24974	20244.8125
2854.76927	20233.0125
2857.28724	20240.3125
2859.80367	20216.9125
2862.31855	20180.0125
2864.83189	20162.6125
2867.34368	20133.3125
2869.85393	20170.9125
2872.36264	20091.8125
2874.8698	20096.4125
2877.37543	20110.1125
2879.87952	20129.7125
2882.38207	20128.1125
2884.88308	20132.7125
2887.38256	20125.3125
2889.88051	20172.0125
2892.37692	20186.6125
2894.8718	20225.1125
2897.36515	20239.9125
2899.85698	20271.6125
2902.34727	20306.2125
2904.83604	20333.7125
2907.32328	20385.0125
2909.809	20372.1125
2912.29319	20399.4125
2914.77587	20423.1125
2917.25702	20394.9125
2919.73665	20347.8125
2922.21476	20341.3125
2924.69136	20341.7125
2927.16644	20331.6125
2929.64	20311.9125
2932.11205	20283.7125
2934.58258	20226.6125
2937.05161	20270.3125
2939.51912	20253.5125
2941.98513	20228.7125
2944.44962	20209.5125
2946.91261	20163.9125
2949.37409	20175.8125
2951.83407	20136.1125
2954.29254	20136.9125
2956.74951	20116.1125
2959.20498	20104.9125
2961.65895	20088.6125
2964.11142	20075.6125
2966.56239	20072.1125
2969.01186	20028.7125
2971.45984	20038.9125
2973.90632	20022.1125
2976.35131	19960.9125
2978.7948	19897.9125
2981.23681	19832.2125
2983.67732	19814.5125
2986.11635	19762.4125
2988.55388	19728.7125
2990.98993	19709.0125
2993.4245	19620.1125
2995.85758	19568.8125
2998.28917	19527.0125
3000.71928	19522.4125
3003.14791	19484.5125
3005.57506	19476.0125
3008.00073	19410.1125
3010.42493	19273.2125
3012.84764	19305.5125
3015.26888	19304.9125
3017.68865	19317.9125
3020.10694	19226.6125
3022.52376	19229.2125
