Data from AgNPs_FTO_APTES_UA_5uM_CRN_50uM_R6G_10uM_NaF_0.1M_Addition_RamanShift__28__14-15-16-838.txt Node

Date: Mon Feb 07 14:15:16 GMT 2022
User: TCL
Spectrometer: QEP01345
Trigger mode: 4
Integration Time (sec): 7.000000E0
Scans to average: 10
Electric dark correction enabled: true
Nonlinearity correction enabled: false
Boxcar width: 0
XAxis mode: Raman Shifts
Number of Pixels in Spectrum: 1044
>>>>>Begin Spectral Data<<<<<
46.04893	-0.175
50.45542	-1.875
54.85868	-0.275
59.25871	0.825
63.6555	62.825
68.04907	67.025
72.43941	71.325
76.82654	74.825
81.21044	76.625
85.59113	77.425
89.96862	82.525
94.34289	81.125
98.71396	84.925
103.08183	91.525
107.4465	91.625
111.80798	93.625
116.16626	98.025
120.52136	103.725
124.87327	108.925
129.222	113.025
133.56755	120.725
137.90993	132.725
142.24913	142.125
146.58517	162.725
150.91804	190.425
155.24774	232.725
159.57429	290.825
163.89768	371.725
168.21792	504.725
172.53501	676.425
176.84895	944.825
181.15975	1328.925
185.46741	1872.825
189.77193	2584.925
194.07331	3454.825
198.37157	4440.025
202.6667	5482.925
206.9587	6545.225
211.24758	7588.325
215.53334	8644.725
219.81599	9795.725
224.09553	11112.025
228.37195	12609.325
232.64527	14163.225
236.91549	15772.425
241.18261	17309.425
245.44663	18651.925
249.70755	19786.125
253.96539	20749.325
258.22014	21649.025
262.4718	22438.225
266.72039	23075.225
270.96589	23508.125
275.20832	23692.425
279.44768	23631.425
283.68397	23546.225
287.91719	23508.225
292.14735	23644.125
296.37445	23965.125
300.59849	24413.525
304.81948	24923.825
309.03742	25191.325
313.25231	24903.525
317.46415	23798.925
321.67296	22335.525
325.87872	21074.325
330.08145	20450.425
334.28114	20383.225
338.47781	20643.425
342.67145	21117.025
346.86207	21803.725
351.04966	22731.225
355.23424	23846.825
359.4158	24674.325
363.59435	25072.225
367.76989	25174.025
371.94243	25190.825
376.11196	25057.025
380.27849	25002.825
384.44203	24825.925
388.60257	24663.225
392.76012	24671.125
396.91468	24972.125
401.06626	25573.425
405.21485	26051.325
409.36047	25767.725
413.50311	24735.025
417.64277	23766.525
421.77947	23265.825
425.9132	23133.825
430.04396	23230.825
434.17176	23393.725
438.2966	23635.925
442.41849	24143.425
446.53742	24745.625
450.6534	25508.925
454.76644	26007.125
458.87653	26166.525
462.98368	26067.725
467.08789	25762.525
471.18916	25434.125
475.2875	25074.225
479.38291	24806.125
483.4754	24524.825
487.56496	24210.125
491.6516	23788.325
495.73531	23494.725
499.81612	23416.625
503.89401	23540.625
507.96899	23670.725
512.04106	23797.025
516.11023	23887.125
520.1765	24006.725
524.23987	23818.325
528.30034	23413.425
532.35792	23053.325
536.41261	22731.725
540.46441	22382.025
544.51333	22297.725
548.55936	22646.725
552.60252	23259.725
556.64279	23967.925
560.6802	24354.025
564.71473	24606.525
568.7464	25397.925
572.7752	26046.325
576.80114	25786.425
580.82422	25356.225
584.84444	25151.825
588.86181	25140.025
592.87633	25222.325
596.888	25450.825
600.89682	25986.025
604.9028	27935.025
608.90594	33285.125
612.90624	40483.025
616.90371	38881.125
620.89834	28888.625
624.89015	24249.125
628.87913	23496.425
632.86528	23618.725
636.84862	23765.025
640.82913	23299.825
644.80683	22417.225
648.78172	21786.825
652.75379	21730.625
656.72306	22371.825
660.68952	23236.725
664.65319	23204.725
668.61405	22370.625
672.57211	21923.525
676.52738	21879.825
680.47986	21903.825
684.42955	21797.225
688.37646	21693.025
692.32058	21779.025
696.26192	22005.825
700.20048	22274.025
704.13626	22493.825
708.06928	22489.725
711.99952	22324.325
715.927	22218.925
719.85171	22221.325
723.77365	22118.925
727.69284	21967.725
731.60928	21732.225
735.52295	21653.825
739.43388	21681.525
743.34206	21785.225
747.24749	21904.425
751.15017	22147.925
755.05012	22603.225
758.94733	23556.125
762.8418	25644.025
766.73354	29121.825
770.62254	32653.625
774.50882	34173.725
778.39237	32400.425
782.27321	28528.425
786.15132	25065.625
790.02671	23088.925
793.89938	22142.025
797.76935	21764.625
801.6366	21608.625
805.50115	21474.225
809.36299	21378.325
813.22213	21320.125
817.07857	21319.625
820.93231	21316.625
824.78336	21296.925
828.63172	21359.525
832.47738	21361.325
836.32036	21316.125
840.16066	21249.825
843.99827	21217.425
847.8332	21157.025
851.66546	21098.725
855.49504	21083.125
859.32195	21013.825
863.1462	20900.525
866.96777	20808.825
870.78668	20783.925
874.60293	20804.325
878.41652	20807.425
882.22745	20883.225
886.03573	20993.625
889.84136	20977.125
893.64433	20860.325
897.44466	20820.525
901.24235	20785.325
905.0374	20755.425
908.8298	20720.525
912.61957	20784.725
916.40671	20974.625
920.19121	21219.125
923.97308	21405.125
927.75233	21470.525
931.52895	21511.625
935.30295	21276.625
939.07433	20759.325
942.84309	20330.525
946.60924	20061.525
950.37278	19903.125
954.13371	19808.225
957.89203	19737.625
961.64774	19680.325
965.40086	19657.625
969.15137	19596.425
972.89929	19556.225
976.64461	19458.925
980.38733	19420.825
984.12747	19498.325
987.86502	19603.225
991.59999	19791.025
995.33237	20060.425
999.06217	20530.425
1002.78939	21164.925
1006.51404	21582.525
1010.23611	21936.025
1013.95561	22255.325
1017.67255	22197.325
1021.38692	21945.325
1025.09872	21633.725
1028.80796	21611.225
1032.51465	21875.025
1036.21877	22254.825
1039.92035	22394.525
1043.61937	22302.025
1047.31584	22036.325
1051.00976	21770.025
1054.70114	21706.725
1058.38998	21760.225
1062.07627	22033.125
1065.76003	22209.125
1069.44126	22334.625
1073.11995	22482.125
1076.79611	22662.025
1080.46974	22833.025
1084.14085	23176.625
1087.80943	23655.125
1091.47549	23929.025
1095.13903	23716.625
1098.80005	23168.925
1102.45857	22613.525
1106.11456	22188.025
1109.76805	22160.825
1113.41903	22475.025
1117.06751	22951.325
1120.71348	23670.525
1124.35696	24322.525
1127.99793	24964.625
1131.63641	24974.025
1135.2724	24216.625
1138.90589	23479.525
1142.5369	22976.625
1146.16542	22764.825
1149.79145	22720.625
1153.415	22794.225
1157.03607	23143.725
1160.65467	23692.325
1164.27079	24563.325
1167.88443	25848.225
1171.49561	27719.025
1175.10432	30636.025
1178.71056	34359.025
1182.31434	37252.625
1185.91565	38252.525
1189.51451	37769.525
1193.11091	36083.225
1196.70485	33935.125
1200.29634	32095.525
1203.88538	30619.925
1207.47197	29123.625
1211.05612	27906.025
1214.63782	27073.325
1218.21708	26700.925
1221.79391	26578.625
1225.36829	26574.525
1228.94024	26584.825
1232.50976	26483.325
1236.07685	26403.725
1239.6415	26375.825
1243.20374	26427.825
1246.76355	26608.525
1250.32093	26939.025
1253.8759	27561.325
1257.42845	28412.125
1260.97859	29155.825
1264.52631	29879.825
1268.07163	30635.625
1271.61453	31373.225
1275.15503	32108.525
1278.69312	32588.225
1282.22882	33100.325
1285.76211	33803.725
1289.29301	34796.625
1292.82151	35954.125
1296.34761	37366.225
1299.87133	39311.625
1303.39266	42007.025
1306.9116	45836.025
1310.42815	50186.325
1313.94233	52991.225
1317.45412	52891.825
1320.96354	50969.025
1324.47058	48474.225
1327.97525	46307.925
1331.47754	44875.625
1334.97747	44375.125
1338.47502	44542.125
1341.97022	45086.725
1345.46305	45528.125
1348.95352	45931.525
1352.44163	46757.525
1355.92738	48894.125
1359.41078	53310.525
1362.89183	57954.425
1366.37053	56792.525
1369.84688	49712.925
1373.32088	42529.425
1376.79254	37954.525
1380.26186	35913.725
1383.72883	35145.125
1387.19347	34722.625
1390.65578	34256.925
1394.11575	33873.825
1397.57339	34032.325
1401.0287	34594.525
1404.48168	35196.225
1407.93234	35719.025
1411.38068	35662.125
1414.82669	34992.625
1418.27039	33752.325
1421.71177	32321.025
1425.15083	31087.425
1428.58758	30324.325
1432.02203	30256.725
1435.45416	30531.525
1438.88399	30926.725
1442.31151	31270.025
1445.73673	31669.525
1449.15965	32156.825
1452.58027	32507.525
1455.9986	32670.825
1459.41463	32862.925
1462.82837	33285.125
1466.23982	33876.925
1469.64898	34469.325
1473.05586	34720.725
1476.46045	34799.925
1479.86276	34944.725
1483.26279	35135.525
1486.66054	35546.925
1490.05602	36129.625
1493.44922	37005.025
1496.84016	38287.725
1500.22882	40526.125
1503.61521	43634.925
1506.99934	47429.825
1510.38121	51285.325
1513.76081	53352.625
1517.13816	51938.425
1520.51324	47573.225
1523.88607	42896.525
1527.25665	39611.225
1530.62498	37721.125
1533.99105	36552.825
1537.35488	35885.725
1540.71647	35385.625
1544.07581	34942.825
1547.4329	34449.225
1550.78776	34037.225
1554.14038	33810.425
1557.49077	33890.525
1560.83892	34257.225
1564.18484	34823.125
1567.52853	35443.425
1570.86999	35808.025
1574.20922	36103.025
1577.54624	36117.825
1580.88103	35199.525
1584.2136	34042.125
1587.54395	33838.925
1590.87208	34793.725
1594.19801	36721.825
1597.52172	38999.725
1600.84321	39796.025
1604.16251	38403.925
1607.47959	35700.025
1610.79447	32882.025
1614.10715	30211.125
1617.41763	28028.525
1620.7259	26580.625
1624.03199	25795.925
1627.33587	25722.425
1630.63757	26276.025
1633.93707	27642.825
1637.23439	29774.925
1640.52951	32766.625
1643.82246	36426.325
1647.11321	40174.225
1650.40179	42479.125
1653.68819	41128.925
1656.97241	36315.525
1660.25446	30772.425
1663.53433	26557.025
1666.81203	23942.725
1670.08756	22311.425
1673.36092	21301.925
1676.63211	20695.025
1679.90115	20223.825
1683.16801	19922.125
1686.43272	19676.025
1689.69527	19472.725
1692.95567	19325.525
1696.2139	19211.225
1699.46999	19194.025
1702.72392	19148.025
1705.97571	19095.325
1709.22535	19043.825
1712.47284	19014.525
1715.71819	18987.225
1718.96139	18989.525
1722.20246	18917.525
1725.44139	18862.825
1728.67818	18752.925
1731.91284	18638.025
1735.14537	18518.725
1738.37576	18409.125
1741.60403	18351.125
1744.83017	18281.425
1748.05418	18247.525
1751.27607	18241.125
1754.49584	18211.425
1757.71349	18195.725
1760.92903	18154.525
1764.14244	18177.525
1767.35375	18143.425
1770.56294	18104.925
1773.77002	18078.325
1776.97499	18006.725
1780.17785	17940.325
1783.37861	17925.425
1786.57727	17924.525
1789.77382	17859.625
1792.96828	17854.425
1796.16064	17848.525
1799.3509	17760.425
1802.53907	17765.425
1805.72514	17705.425
1808.90913	17662.725
1812.09102	17634.125
1815.27083	17584.925
1818.44856	17532.525
1821.6242	17523.825
1824.79776	17505.425
1827.96924	17502.425
1831.13864	17472.025
1834.30597	17452.125
1837.47122	17451.125
1840.6344	17412.725
1843.7955	17435.525
1846.95454	17418.925
1850.11151	17427.525
1853.26642	17405.525
1856.41926	17410.125
1859.57004	17426.325
1862.71876	17463.025
1865.86542	17464.925
1869.01003	17432.825
1872.15258	17430.925
1875.29308	17414.925
1878.43152	17395.125
1881.56792	17430.425
1884.70227	17453.325
1887.83457	17444.025
1890.96482	17427.725
1894.09304	17393.425
1897.21921	17423.125
1900.34335	17460.925
1903.46544	17444.225
1906.58551	17428.525
1909.70353	17443.125
1912.81953	17428.125
1915.93349	17400.025
1919.04543	17420.825
1922.15534	17376.525
1925.26322	17326.125
1928.36908	17280.125
1931.47292	17225.625
1934.57473	17144.125
1937.67453	17088.925
1940.77232	17042.125
1943.86808	16960.925
1946.96184	16882.725
1950.05358	16825.225
1953.14331	16762.925
1956.23103	16690.025
1959.31675	16635.925
1962.40046	16585.425
1965.48217	16556.925
1968.56188	16531.725
1971.63959	16480.325
1974.7153	16389.925
1977.78901	16360.825
1980.86073	16305.725
1983.93046	16245.025
1986.99819	16177.925
1990.06394	16125.825
1993.1277	16100.625
1996.18947	16030.325
1999.24925	16002.225
2002.30706	15966.525
2005.36288	15918.225
2008.41672	15870.625
2011.46859	15822.925
2014.51848	15782.225
2017.56639	15706.525
2020.61233	15677.625
2023.6563	15662.125
2026.6983	15581.925
2029.73833	15533.525
2032.7764	15533.925
2035.8125	15509.725
2038.84664	15472.225
2041.87881	15455.325
2044.90903	15428.025
2047.93729	15391.625
2050.96359	15381.925
2053.98794	15352.725
2057.01034	15342.625
2060.03078	15311.025
2063.04927	15279.425
2066.06582	15299.225
2069.08042	15301.725
2072.09307	15268.925
2075.10378	15240.625
2078.11255	15217.725
2081.11938	15253.725
2084.12426	15230.325
2087.12722	15222.825
2090.12824	15204.725
2093.12732	15190.225
2096.12447	15167.225
2099.11969	15204.625
2102.11299	15173.625
2105.10435	15206.625
2108.09379	15176.525
2111.08131	15175.525
2114.0669	15209.925
2117.05057	15204.225
2120.03233	15251.425
2123.01216	15262.925
2125.99008	15268.025
2128.96609	15260.525
2131.94018	15280.325
2134.91236	15269.325
2137.88263	15313.525
2140.851	15300.125
2143.81746	15339.125
2146.78201	15281.025
2149.74466	15304.425
2152.7054	15262.025
2155.66425	15292.125
2158.6212	15273.225
2161.57625	15241.925
2164.52941	15250.225
2167.48067	15226.525
2170.43004	15247.625
2173.37752	15208.825
2176.32311	15229.825
2179.26681	15231.425
2182.20863	15227.525
2185.14856	15216.625
2188.08661	15233.625
2191.02278	15248.925
2193.95707	15214.825
2196.88948	15224.925
2199.82001	15195.125
2202.74867	15155.025
2205.67545	15161.025
2208.60037	15137.125
2211.52341	15128.925
2214.44458	15125.725
2217.36388	15099.525
2220.28132	15051.725
2223.1969	15024.825
2226.11061	15031.925
2229.02246	14974.325
2231.93245	14923.525
2234.84058	14854.825
2237.74686	14834.725
2240.65128	14867.825
2243.55385	14825.525
2246.45456	14828.825
2249.35343	14800.025
2252.25044	14788.925
2255.14561	14788.925
2258.03893	14756.425
2260.93041	14750.325
2263.82004	14717.825
2266.70783	14696.825
2269.59378	14599.525
2272.4779	14608.925
2275.36017	14569.525
2278.24061	14533.525
2281.11922	14521.425
2283.996	14479.725
2286.87094	14487.725
2289.74405	14421.025
2292.61534	14394.325
2295.4848	14365.825
2298.35243	14388.525
2301.21824	14372.725
2304.08223	14387.225
2306.94439	14386.425
2309.80474	14373.725
2312.66327	14423.825
2315.51999	14408.225
2318.37489	14358.325
2321.22797	14354.025
2324.07925	14317.525
2326.92871	14334.625
2329.77637	14289.425
2332.62222	14281.525
2335.46626	14256.225
2338.3085	14260.825
2341.14893	14260.925
2343.98756	14284.325
2346.8244	14291.225
2349.65943	14300.325
2352.49267	14290.825
2355.32411	14308.025
2358.15376	14317.225
2360.98161	14287.725
2363.80768	14297.525
2366.63195	14307.925
2369.45444	14313.225
2372.27514	14289.625
2375.09405	14237.625
2377.91118	14187.425
2380.72652	14132.125
2383.54009	14101.725
2386.35187	14084.825
2389.16188	14005.325
2391.97011	14000.325
2394.77657	13931.525
2397.58125	13947.325
2400.38416	13912.425
2403.18529	13877.625
2405.98466	13859.125
2408.78226	13836.225
2411.57809	13796.025
2414.37216	13779.625
2417.16446	13779.025
2419.955	13761.125
2422.74378	13774.625
2425.5308	13715.325
2428.31606	13705.125
2431.09956	13750.825
2433.88131	13702.625
2436.6613	13724.525
2439.43954	13705.825
2442.21603	13681.825
2444.99077	13686.725
2447.76377	13673.525
2450.53501	13675.625
2453.30451	13678.525
2456.07226	13663.425
2458.83827	13674.925
2461.60254	13657.125
2464.36507	13636.725
2467.12586	13611.625
2469.88492	13615.925
2472.64224	13655.125
2475.39782	13640.825
2478.15167	13678.225
2480.90379	13679.425
2483.65417	13677.925
2486.40283	13684.925
2489.14976	13714.725
2491.89497	13739.925
2494.63845	13771.625
2497.3802	13746.325
2500.12024	13725.625
2502.85855	13682.125
2505.59514	13691.925
2508.33002	13649.025
2511.06318	13657.325
2513.79462	13578.025
2516.52435	13584.325
2519.25237	13542.425
2521.97867	13545.725
2524.70327	13531.825
2527.42616	13488.225
2530.14734	13478.125
2532.86681	13480.225
2535.58458	13473.125
2538.30065	13435.125
2541.01501	13460.425
2543.72768	13439.925
2546.43864	13458.325
2549.14791	13450.725
2551.85548	13414.725
2554.56136	13427.525
2557.26554	13369.725
2559.96803	13376.225
2562.66883	13337.725
2565.36794	13316.625
2568.06536	13277.925
2570.7611	13285.125
2573.45514	13246.825
2576.14751	13229.325
2578.83819	13228.725
2581.52719	13224.725
2584.21451	13234.925
2586.90015	13226.525
2589.58411	13226.225
2592.2664	13197.125
2594.94701	13195.625
2597.62594	13187.825
2600.30321	13159.125
2602.9788	13161.025
2605.65273	13172.425
2608.32498	13193.725
2610.99557	13160.625
2613.66449	13179.025
2616.33175	13171.525
2618.99734	13163.525
2621.66128	13155.625
2624.32355	13139.125
2626.98416	13122.525
2629.64311	13147.925
2632.30041	13130.925
2634.95605	13092.125
2637.61004	13083.325
2640.26238	13074.525
2642.91306	13063.025
2645.56209	13053.825
2648.20948	13016.625
2650.85521	13049.625
2653.4993	13054.225
2656.14175	13043.725
2658.78255	13037.725
2661.42171	13050.425
2664.05923	13083.825
2666.6951	13086.125
2669.32934	13097.825
2671.96194	13120.525
2674.59291	13103.525
2677.22224	13111.925
2679.84993	13153.125
2682.476	13094.925
2685.10043	13062.325
2687.72324	13050.025
2690.34441	13071.425
2692.96396	13042.025
2695.58188	13055.725
2698.19818	13050.725
2700.81285	13065.225
2703.4259	13075.525
2706.03733	13146.425
2708.64714	13089.125
2711.25533	13119.625
2713.86191	13090.725
2716.46687	13091.425
2719.07021	13105.525
2721.67194	13115.525
2724.27206	13116.625
2726.87057	13132.625
2729.46747	13127.425
2732.06276	13148.125
2734.65644	13127.025
2737.24852	13090.725
2739.83899	13095.525
2742.42786	13064.925
2745.01513	13056.325
2747.60079	13078.525
2750.18486	13054.825
2752.76733	13044.725
2755.3482	13021.325
2757.92747	12989.725
2760.50515	13014.225
2763.08123	13026.425
2765.65573	12982.825
2768.22863	13019.525
2770.79994	12934.625
2773.36967	12960.725
2775.9378	12950.125
2778.50435	12958.425
2781.06932	12946.425
2783.6327	12964.325
2786.1945	12946.525
2788.75471	12966.625
2791.31335	12931.025
2793.87041	12901.225
2796.42589	12878.325
2798.97979	12857.325
2801.53212	12829.725
2804.08288	12813.725
2806.63206	12789.425
2809.17967	12769.925
2811.72571	12722.925
2814.27018	12746.425
2816.81308	12719.625
2819.35442	12715.825
2821.89419	12709.725
2824.43239	12721.025
2826.96904	12738.125
2829.50412	12696.625
2832.03763	12685.025
2834.56959	12688.325
2837.1	12695.425
2839.62884	12712.425
2842.15613	12692.825
2844.68186	12788.625
2847.20604	12811.325
2849.72867	12844.725
2852.24974	12850.625
2854.76927	12836.625
2857.28724	12836.325
2859.80367	12846.525
2862.31855	12789.325
2864.83189	12763.725
2867.34368	12748.025
2869.85393	12715.925
2872.36264	12710.125
2874.8698	12702.825
2877.37543	12683.725
2879.87952	12687.925
2882.38207	12686.925
2884.88308	12682.725
2887.38256	12671.325
2889.88051	12665.525
2892.37692	12667.025
2894.8718	12667.025
2897.36515	12666.225
2899.85698	12686.125
2902.34727	12708.225
2904.83604	12716.725
2907.32328	12726.525
2909.809	12734.725
2912.29319	12741.225
2914.77587	12752.025
2917.25702	12738.825
2919.73665	12725.725
2922.21476	12732.825
2924.69136	12680.425
2927.16644	12673.325
2929.64	12636.425
2932.11205	12629.325
2934.58258	12580.625
2937.05161	12587.625
2939.51912	12574.025
2941.98513	12569.025
2944.44962	12495.825
2946.91261	12436.125
2949.37409	12444.825
2951.83407	12386.425
2954.29254	12402.525
2956.74951	12375.925
2959.20498	12364.325
2961.65895	12341.925
2964.11142	12320.925
2966.56239	12289.125
2969.01186	12291.225
2971.45984	12277.025
2973.90632	12283.925
2976.35131	12247.825
2978.7948	12234.425
2981.23681	12178.825
2983.67732	12138.025
2986.11635	12131.425
2988.55388	12089.725
2990.98993	12073.925
2993.4245	12044.325
2995.85758	12005.725
2998.28917	11950.325
3000.71928	11967.025
3003.14791	11933.625
3005.57506	11932.225
3008.00073	11882.125
3010.42493	11807.925
3012.84764	11841.925
3015.26888	11868.125
3017.68865	11808.525
3020.10694	11774.225
3022.52376	11751.525
3024.9391	11738.425
3027.35298	11743.125
3029.76539	11729.025
3032.17632	11703.225
3034.5858	11670.225
3036.9938	11662.225
3039.40034	11659.625
3041.80542	11656.225
3044.20903	11635.125
3046.61118	11623.325
3049.01187	11585.825
3051.4111	11557.125
3053.80888	11541.925
3056.20519	11511.025
3058.60005	11498.125
3060.99345	11465.925
3063.3854	11447.225
3065.7759	11392.025
3068.16494	11375.125
3070.55254	11318.225
3072.93868	11286.525
3075.32338	11269.825
3077.70662	11232.625
3080.08842	11199.325
3082.46878	11166.825
3084.84769	11164.425
3087.22515	11153.625
3089.60118	11149.625
3091.97576	11126.525
3094.3489	11098.025
3096.72061	11131.425
3099.09087	11105.825
3101.4597	11119.325
3103.82709	11101.025
3106.19305	11065.325
3108.55757	11082.725
3110.92066	11048.825
3113.28232	11047.425
3115.64255	11021.325
3118.00134	10988.825
3120.35871	10995.525
3122.71466	10944.225
3125.06917	10952.925
3127.42226	10919.125
