Data from AgNPs_FTO_APTES_UA_5uM_CRN_2uM_R6G_10uM_NaF_0.1M_Addition_RamanShift__17__11-16-46-633.txt Node

Date: Mon Feb 07 11:16:46 GMT 2022
User: TCL
Spectrometer: QEP01345
Trigger mode: 4
Integration Time (sec): 7.000000E0
Scans to average: 10
Electric dark correction enabled: true
Nonlinearity correction enabled: false
Boxcar width: 0
XAxis mode: Raman Shifts
Number of Pixels in Spectrum: 1044
>>>>>Begin Spectral Data<<<<<
46.04893	-2.375
50.45542	-2.075
54.85868	-0.475
59.25871	1.125
63.6555	95.425
68.04907	99.925
72.43941	110.125
76.82654	108.525
81.21044	115.625
85.59113	118.925
89.96862	122.925
94.34289	124.125
98.71396	128.425
103.08183	134.525
107.4465	141.825
111.80798	141.225
116.16626	145.725
120.52136	153.125
124.87327	159.925
129.222	174.425
133.56755	186.425
137.90993	201.325
142.24913	218.125
146.58517	247.825
150.91804	286.825
155.24774	349.625
159.57429	435.925
163.89768	569.725
168.21792	750.125
172.53501	1029.225
176.84895	1437.625
181.15975	2022.925
185.46741	2839.825
189.77193	3910.825
194.07331	5221.825
198.37157	6710.225
202.6667	8288.625
206.9587	9826.025
211.24758	11397.125
215.53334	12942.625
219.81599	14632.725
224.09553	16552.625
228.37195	18575.425
232.64527	20860.825
236.91549	23192.125
241.18261	25498.725
245.44663	27639.325
249.70755	29497.025
253.96539	31101.625
258.22014	32489.925
262.4718	33661.725
266.72039	34499.025
270.96589	34987.225
275.20832	35117.725
279.44768	35003.625
283.68397	34831.925
287.91719	34704.525
292.14735	34692.925
296.37445	34798.425
300.59849	34967.425
304.81948	35170.225
309.03742	35147.625
313.25231	34685.925
317.46415	33680.025
321.67296	32358.525
325.87872	31212.925
330.08145	30585.225
334.28114	30422.025
338.47781	30599.925
342.67145	30974.425
346.86207	31474.225
351.04966	32240.025
355.23424	32992.325
359.4158	33608.025
363.59435	34092.025
367.76989	34351.525
371.94243	34502.225
376.11196	34578.725
380.27849	34675.425
384.44203	34803.825
388.60257	35066.625
392.76012	35399.225
396.91468	35877.325
401.06626	36561.125
405.21485	37016.925
409.36047	36767.425
413.50311	36131.825
417.64277	35603.825
421.77947	35570.725
425.9132	35701.325
430.04396	35951.825
434.17176	36028.325
438.2966	36204.325
442.41849	36692.825
446.53742	37618.525
450.6534	38825.425
454.76644	39750.325
458.87653	40103.925
462.98368	39898.525
467.08789	39423.025
471.18916	38791.625
475.2875	38312.825
479.38291	38117.725
483.4754	38043.525
487.56496	37703.625
491.6516	37090.125
495.73531	36521.125
499.81612	36151.025
503.89401	36287.825
507.96899	36416.725
512.04106	36262.025
516.11023	35765.525
520.1765	35205.725
524.23987	34611.625
528.30034	34124.025
532.35792	33657.225
536.41261	33057.125
540.46441	32609.325
544.51333	32598.825
548.55936	33216.425
552.60252	34317.125
556.64279	35412.125
560.6802	36197.225
564.71473	36671.025
568.7464	37600.225
572.7752	38950.825
576.80114	40097.625
580.82422	41193.225
584.84444	42054.525
588.86181	42770.325
592.87633	43172.725
596.888	43156.125
600.89682	42669.825
604.9028	43826.025
608.90594	47963.725
612.90624	52157.825
616.90371	48437.725
620.89834	39061.725
624.89015	34974.425
628.87913	34619.925
632.86528	34788.125
636.84862	34568.025
640.82913	33822.925
644.80683	32560.825
648.78172	31611.525
652.75379	31386.425
656.72306	31870.525
660.68952	32488.225
664.65319	32338.425
668.61405	31605.825
672.57211	31307.925
676.52738	31402.125
680.47986	31316.025
684.42955	31049.325
688.37646	30884.925
692.32058	31147.725
696.26192	31612.525
700.20048	32176.425
704.13626	32491.925
708.06928	32466.225
711.99952	32211.225
715.927	32076.425
719.85171	32229.225
723.77365	32130.125
727.69284	31544.125
731.60928	31018.325
735.52295	30835.225
739.43388	30874.625
743.34206	30981.025
747.24749	31207.125
751.15017	31624.225
755.05012	32387.725
758.94733	33689.425
762.8418	35973.425
766.73354	39547.325
770.62254	42790.925
774.50882	43342.525
778.39237	40704.425
782.27321	37026.225
786.15132	34006.325
790.02671	32205.325
793.89938	31352.925
797.76935	31032.925
801.6366	31005.525
805.50115	30889.825
809.36299	30655.225
813.22213	30295.925
817.07857	30046.225
820.93231	29931.125
824.78336	29710.125
828.63172	29541.325
832.47738	29459.625
836.32036	29496.125
840.16066	29624.225
843.99827	29777.325
847.8332	29648.025
851.66546	29525.425
855.49504	29468.825
859.32195	29436.425
863.1462	29312.425
866.96777	29122.325
870.78668	29073.025
874.60293	28996.825
878.41652	29006.425
882.22745	29095.425
886.03573	29248.925
889.84136	29246.525
893.64433	29050.325
897.44466	28967.225
901.24235	28816.325
905.0374	28708.425
908.8298	28522.825
912.61957	28639.125
916.40671	29010.625
920.19121	29633.425
923.97308	30153.925
927.75233	30384.925
931.52895	30088.125
935.30295	29522.725
939.07433	28699.525
942.84309	28078.625
946.60924	27787.925
950.37278	27719.925
954.13371	27677.725
957.89203	27545.325
961.64774	27498.725
965.40086	27453.925
969.15137	27478.325
972.89929	27345.125
976.64461	27156.125
980.38733	27117.425
984.12747	27259.725
987.86502	27567.225
991.59999	27988.525
995.33237	28727.625
999.06217	29804.225
1002.78939	31084.525
1006.51404	31900.825
1010.23611	32342.725
1013.95561	32669.825
1017.67255	32696.525
1021.38692	32150.825
1025.09872	31600.925
1028.80796	31752.525
1032.51465	32847.325
1036.21877	33922.225
1039.92035	34132.725
1043.61937	33546.425
1047.31584	32522.725
1051.00976	31556.025
1054.70114	31100.125
1058.38998	31149.125
1062.07627	31425.425
1065.76003	31765.725
1069.44126	32138.425
1073.11995	32701.925
1076.79611	33265.525
1080.46974	33654.825
1084.14085	33978.625
1087.80943	34588.525
1091.47549	35105.225
1095.13903	35154.025
1098.80005	34594.525
1102.45857	33490.625
1106.11456	32515.525
1109.76805	32103.325
1113.41903	32053.025
1117.06751	32261.325
1120.71348	32680.925
1124.35696	33135.225
1127.99793	33678.525
1131.63641	34038.525
1135.2724	33927.825
1138.90589	33682.325
1142.5369	33645.625
1146.16542	33757.225
1149.79145	33989.225
1153.415	34416.725
1157.03607	35218.925
1160.65467	36562.525
1164.27079	38730.125
1167.88443	41503.325
1171.49561	44873.225
1175.10432	49069.725
1178.71056	54374.925
1182.31434	59342.425
1185.91565	62038.925
1189.51451	62070.525
1193.11091	59982.425
1196.70485	56804.325
1200.29634	53570.825
1203.88538	51253.225
1207.47197	49785.125
1211.05612	48751.625
1214.63782	47681.425
1218.21708	46570.925
1221.79391	45669.525
1225.36829	45068.925
1228.94024	44364.025
1232.50976	43342.625
1236.07685	42399.625
1239.6415	41879.225
1243.20374	41635.325
1246.76355	41827.725
1250.32093	42631.125
1253.8759	43904.925
1257.42845	45580.425
1260.97859	47290.025
1264.52631	49123.325
1268.07163	50959.425
1271.61453	52996.025
1275.15503	55195.525
1278.69312	57463.525
1282.22882	59437.225
1285.76211	61365.525
1289.29301	63578.625
1292.82151	66402.825
1296.34761	70130.125
1299.87133	74796.925
1303.39266	80426.425
1306.9116	86228.325
1310.42815	91415.325
1313.94233	94304.525
1317.45412	94251.925
1320.96354	92381.225
1324.47058	90642.525
1327.97525	89289.225
1331.47754	88395.725
1334.97747	87736.625
1338.47502	86982.525
1341.97022	85874.225
1345.46305	83993.825
1348.95352	81835.825
1352.44163	80039.225
1355.92738	80418.325
1359.41078	83316.925
1362.89183	86324.425
1366.37053	85068.425
1369.84688	78173.525
1373.32088	69505.825
1376.79254	63332.025
1380.26186	60808.425
1383.72883	60715.025
1387.19347	60769.825
1390.65578	60270.525
1394.11575	60200.325
1397.57339	61188.825
1401.0287	62880.725
1404.48168	64377.525
1407.93234	64712.725
1411.38068	63483.525
1414.82669	60864.125
1418.27039	57561.725
1421.71177	54217.825
1425.15083	51556.225
1428.58758	50288.125
1432.02203	50534.025
1435.45416	52111.125
1438.88399	53945.625
1442.31151	55773.025
1445.73673	57028.425
1449.15965	58094.225
1452.58027	58759.625
1455.9986	59065.225
1459.41463	59596.725
1462.82837	60610.225
1466.23982	61883.825
1469.64898	63019.425
1473.05586	63541.325
1476.46045	63252.225
1479.86276	62545.025
1483.26279	61637.525
1486.66054	61010.025
1490.05602	60961.725
1493.44922	61229.425
1496.84016	61791.025
1500.22882	62956.325
1503.61521	64931.425
1506.99934	67509.025
1510.38121	69807.925
1513.76081	70675.425
1517.13816	69304.025
1520.51324	66558.925
1523.88607	64123.525
1527.25665	62694.325
1530.62498	62151.425
1533.99105	61862.625
1537.35488	61380.525
1540.71647	60395.725
1544.07581	58875.225
1547.4329	57214.525
1550.78776	55696.725
1554.14038	54572.025
1557.49077	54018.625
1560.83892	53596.425
1564.18484	53565.925
1567.52853	53674.025
1570.86999	53983.225
1574.20922	54914.525
1577.54624	55859.625
1580.88103	56173.825
1584.2136	56855.225
1587.54395	58999.125
1590.87208	62724.825
1594.19801	67576.525
1597.52172	72047.025
1600.84321	73132.725
1604.16251	69137.925
1607.47959	62471.725
1610.79447	55690.325
1614.10715	49549.325
1617.41763	44728.425
1620.7259	41409.025
1624.03199	39762.025
1627.33587	39726.025
1630.63757	41345.025
1633.93707	44961.925
1637.23439	50774.825
1640.52951	58898.425
1643.82246	67863.625
1647.11321	74609.625
1650.40179	75541.625
1653.68819	69228.225
1656.97241	58775.825
1660.25446	48447.325
1663.53433	40568.525
1666.81203	35495.825
1670.08756	32348.025
1673.36092	30362.525
1676.63211	29118.225
1679.90115	28278.225
1683.16801	27625.025
1686.43272	27067.325
1689.69527	26689.025
1692.95567	26452.725
1696.2139	26276.525
1699.46999	26086.925
1702.72392	25965.225
1705.97571	25863.225
1709.22535	25774.025
1712.47284	25631.325
1715.71819	25626.725
1718.96139	25489.425
1722.20246	25376.525
1725.44139	25247.825
1728.67818	25052.625
1731.91284	24854.025
1735.14537	24643.225
1738.37576	24503.425
1741.60403	24403.825
1744.83017	24284.725
1748.05418	24184.325
1751.27607	24077.525
1754.49584	24079.325
1757.71349	24050.325
1760.92903	23971.125
1764.14244	23937.625
1767.35375	23966.025
1770.56294	23878.225
1773.77002	23784.125
1776.97499	23723.825
1780.17785	23657.525
1783.37861	23640.625
1786.57727	23555.025
1789.77382	23500.725
1792.96828	23497.525
1796.16064	23414.825
1799.3509	23330.625
1802.53907	23311.325
1805.72514	23242.725
1808.90913	23180.825
1812.09102	23116.825
1815.27083	23068.225
1818.44856	23062.925
1821.6242	23003.325
1824.79776	22999.225
1827.96924	22982.725
1831.13864	22967.925
1834.30597	23017.425
1837.47122	23027.125
1840.6344	23001.025
1843.7955	23072.425
1846.95454	23081.725
1850.11151	23090.425
1853.26642	23092.725
1856.41926	23093.525
1859.57004	23090.825
1862.71876	23010.625
1865.86542	23071.425
1869.01003	23023.225
1872.15258	22983.025
1875.29308	22964.425
1878.43152	22973.525
1881.56792	22980.025
1884.70227	22976.825
1887.83457	22959.425
1890.96482	22940.725
1894.09304	22906.225
1897.21921	22920.225
1900.34335	22848.925
1903.46544	22814.925
1906.58551	22814.125
1909.70353	22757.125
1912.81953	22722.225
1915.93349	22681.425
1919.04543	22603.725
1922.15534	22512.125
1925.26322	22435.125
1928.36908	22344.225
1931.47292	22270.125
1934.57473	22173.325
1937.67453	22085.125
1940.77232	21995.525
1943.86808	21925.225
1946.96184	21827.325
1950.05358	21760.825
1953.14331	21651.725
1956.23103	21578.125
1959.31675	21522.225
1962.40046	21410.925
1965.48217	21376.625
1968.56188	21328.325
1971.63959	21263.125
1974.7153	21164.825
1977.78901	21095.625
1980.86073	20998.225
1983.93046	20976.825
1986.99819	20898.725
1990.06394	20828.325
1993.1277	20766.925
1996.18947	20681.425
1999.24925	20645.125
2002.30706	20535.925
2005.36288	20471.725
2008.41672	20421.925
2011.46859	20379.725
2014.51848	20318.025
2017.56639	20324.225
2020.61233	20246.325
2023.6563	20206.425
2026.6983	20202.025
2029.73833	20169.125
2032.7764	20118.825
2035.8125	20082.125
2038.84664	20044.025
2041.87881	20019.925
2044.90903	19997.325
2047.93729	19948.225
2050.96359	19956.625
2053.98794	19911.425
2057.01034	19905.325
2060.03078	19867.525
2063.04927	19876.225
2066.06582	19847.825
2069.08042	19862.125
2072.09307	19787.825
2075.10378	19731.325
2078.11255	19739.725
2081.11938	19768.725
2084.12426	19703.725
2087.12722	19684.925
2090.12824	19682.825
2093.12732	19668.025
2096.12447	19694.125
2099.11969	19678.825
2102.11299	19704.425
2105.10435	19670.925
2108.09379	19672.025
2111.08131	19692.125
2114.0669	19675.625
2117.05057	19702.825
2120.03233	19711.925
2123.01216	19751.125
2125.99008	19763.825
2128.96609	19776.325
2131.94018	19780.425
2134.91236	19769.025
2137.88263	19824.425
2140.851	19787.725
2143.81746	19800.125
2146.78201	19811.125
2149.74466	19789.625
2152.7054	19782.125
2155.66425	19739.525
2158.6212	19758.825
2161.57625	19728.125
2164.52941	19725.025
2167.48067	19691.025
2170.43004	19727.925
2173.37752	19727.125
2176.32311	19699.925
2179.26681	19723.225
2182.20863	19673.125
2185.14856	19732.125
2188.08661	19725.625
2191.02278	19730.225
2193.95707	19731.825
2196.88948	19705.125
2199.82001	19685.125
2202.74867	19679.225
2205.67545	19661.225
2208.60037	19637.425
2211.52341	19645.025
2214.44458	19639.525
2217.36388	19627.825
2220.28132	19532.125
2223.1969	19521.825
2226.11061	19507.625
2229.02246	19478.825
2231.93245	19451.225
2234.84058	19370.825
2237.74686	19346.425
2240.65128	19281.125
2243.55385	19298.925
2246.45456	19239.525
2249.35343	19221.825
2252.25044	19161.925
2255.14561	19138.025
2258.03893	19111.125
2260.93041	19062.125
2263.82004	19024.725
2266.70783	19005.225
2269.59378	18914.625
2272.4779	18855.325
2275.36017	18820.225
2278.24061	18758.325
2281.11922	18727.125
2283.996	18719.425
2286.87094	18721.725
2289.74405	18699.025
2292.61534	18709.025
2295.4848	18677.925
2298.35243	18692.725
2301.21824	18651.625
2304.08223	18686.425
2306.94439	18742.825
2309.80474	18769.925
2312.66327	18793.225
2315.51999	18727.925
2318.37489	18734.925
2321.22797	18742.025
2324.07925	18719.325
2326.92871	18703.125
2329.77637	18682.425
2332.62222	18673.625
2335.46626	18680.125
2338.3085	18670.325
2341.14893	18699.225
2343.98756	18764.625
2346.8244	18772.525
2349.65943	18780.025
2352.49267	18754.525
2355.32411	18776.125
2358.15376	18732.525
2360.98161	18748.025
2363.80768	18689.125
2366.63195	18690.225
2369.45444	18678.425
2372.27514	18642.025
2375.09405	18592.225
2377.91118	18537.725
2380.72652	18455.725
2383.54009	18442.325
2386.35187	18390.725
2389.16188	18351.125
2391.97011	18324.925
2394.77657	18281.625
2397.58125	18247.325
2400.38416	18244.225
2403.18529	18198.725
2405.98466	18202.625
2408.78226	18131.225
2411.57809	18104.525
2414.37216	18104.725
2417.16446	18105.825
2419.955	18078.125
2422.74378	18028.825
2425.5308	17995.525
2428.31606	18004.525
2431.09956	18015.325
2433.88131	17999.025
2436.6613	18031.025
2439.43954	18026.825
2442.21603	18005.725
2444.99077	18001.225
2447.76377	18020.125
2450.53501	18001.825
2453.30451	17977.725
2456.07226	17962.525
2458.83827	17998.125
2461.60254	18021.525
2464.36507	18009.925
2467.12586	17993.825
2469.88492	17994.225
2472.64224	18024.325
2475.39782	18080.125
2478.15167	18101.025
2480.90379	18086.125
2483.65417	18102.725
2486.40283	18126.225
2489.14976	18167.225
2491.89497	18185.625
2494.63845	18172.925
2497.3802	18231.025
2500.12024	18191.925
2502.85855	18193.025
2505.59514	18181.625
2508.33002	18128.225
2511.06318	18117.225
2513.79462	18107.325
2516.52435	18072.225
2519.25237	18082.325
2521.97867	18084.625
2524.70327	18058.925
2527.42616	18054.325
2530.14734	18097.325
2532.86681	18047.925
2535.58458	18087.925
2538.30065	18082.325
2541.01501	18046.725
2543.72768	18074.125
2546.43864	18027.325
2549.14791	17997.125
2551.85548	18013.325
2554.56136	17995.625
2557.26554	17968.425
2559.96803	17946.125
2562.66883	17957.125
2565.36794	17931.825
2568.06536	17891.625
2570.7611	17914.525
2573.45514	17897.125
2576.14751	17893.025
2578.83819	17889.025
2581.52719	17919.525
2584.21451	17889.925
2586.90015	17941.125
2589.58411	17934.325
2592.2664	17950.825
2594.94701	17928.325
2597.62594	17922.425
2600.30321	17877.725
2602.9788	17909.725
2605.65273	17899.225
2608.32498	17961.425
2610.99557	17969.825
2613.66449	17976.425
2616.33175	17988.625
2618.99734	17994.325
2621.66128	17981.925
2624.32355	17973.225
2626.98416	17979.125
2629.64311	18007.225
2632.30041	18044.825
2634.95605	18003.125
2637.61004	17984.425
2640.26238	17940.925
2642.91306	17955.425
2645.56209	17924.025
2648.20948	17902.225
2650.85521	17953.625
2653.4993	17935.225
2656.14175	17920.625
2658.78255	17966.025
2661.42171	17978.725
2664.05923	18030.025
2666.6951	17980.925
2669.32934	18059.925
2671.96194	18018.825
2674.59291	18048.725
2677.22224	18016.525
2679.84993	18051.125
2682.476	18000.625
2685.10043	18021.725
2687.72324	17949.525
2690.34441	17960.925
2692.96396	17927.425
2695.58188	17932.525
2698.19818	17888.325
2700.81285	17919.325
2703.4259	17911.925
2706.03733	17959.225
2708.64714	17965.025
2711.25533	17929.625
2713.86191	17945.825
2716.46687	17980.325
2719.07021	17952.925
2721.67194	18034.525
2724.27206	18010.725
2726.87057	18061.725
2729.46747	18037.925
2732.06276	18040.925
2734.65644	18059.025
2737.24852	18104.125
2739.83899	18050.125
2742.42786	18040.725
2745.01513	18028.325
2747.60079	18036.125
2750.18486	18029.425
2752.76733	17995.625
2755.3482	17997.925
2757.92747	18027.225
2760.50515	17997.725
2763.08123	17992.825
2765.65573	17999.425
2768.22863	17995.125
2770.79994	17986.825
2773.36967	18022.625
2775.9378	18030.325
2778.50435	18035.525
2781.06932	18048.025
2783.6327	18047.025
2786.1945	18075.325
2788.75471	18068.725
2791.31335	18038.425
2793.87041	17993.025
2796.42589	17972.225
2798.97979	17951.425
2801.53212	17903.025
2804.08288	17907.225
2806.63206	17828.925
2809.17967	17816.525
2811.72571	17813.125
2814.27018	17780.525
2816.81308	17784.325
2819.35442	17708.725
2821.89419	17689.025
2824.43239	17710.125
2826.96904	17665.525
2829.50412	17668.825
2832.03763	17607.025
2834.56959	17587.825
2837.1	17599.425
2839.62884	17639.925
2842.15613	17608.725
2844.68186	17641.425
2847.20604	17643.525
2849.72867	17671.725
2852.24974	17640.625
2854.76927	17655.125
2857.28724	17656.625
2859.80367	17669.125
2862.31855	17616.425
2864.83189	17568.125
2867.34368	17550.425
2869.85393	17544.325
2872.36264	17530.425
2874.8698	17527.425
2877.37543	17497.825
2879.87952	17511.025
2882.38207	17541.625
2884.88308	17560.425
2887.38256	17548.425
2889.88051	17549.125
2892.37692	17564.025
2894.8718	17567.225
2897.36515	17580.025
2899.85698	17610.625
2902.34727	17657.825
2904.83604	17681.025
2907.32328	17756.925
2909.809	17766.425
2912.29319	17761.625
2914.77587	17755.125
2917.25702	17736.725
2919.73665	17749.525
2922.21476	17741.625
2924.69136	17723.425
2927.16644	17691.525
2929.64	17625.825
2932.11205	17632.125
2934.58258	17552.025
2937.05161	17557.125
2939.51912	17537.925
2941.98513	17549.425
2944.44962	17496.525
2946.91261	17393.325
2949.37409	17475.525
2951.83407	17414.425
2954.29254	17384.725
2956.74951	17404.525
2959.20498	17366.025
2961.65895	17314.625
2964.11142	17302.825
2966.56239	17248.125
2969.01186	17217.025
2971.45984	17194.825
2973.90632	17209.425
2976.35131	17147.725
2978.7948	17063.025
2981.23681	17025.925
2983.67732	17027.725
2986.11635	16989.525
2988.55388	16953.625
2990.98993	16873.725
2993.4245	16820.025
2995.85758	16782.125
2998.28917	16761.925
3000.71928	16726.525
3003.14791	16676.225
3005.57506	16679.325
3008.00073	16601.925
3010.42493	16590.325
3012.84764	16584.125
3015.26888	16561.125
3017.68865	16538.425
3020.10694	16465.225
3022.52376	16457.025
3024.9391	16415.825
3027.35298	16392.925
3029.76539	16413.525
3032.17632	16378.525
3034.5858	16342.925
3036.9938	16343.025
3039.40034	16346.925
3041.80542	16320.625
3044.20903	16324.625
3046.61118	16352.125
3049.01187	16281.925
3051.4111	16278.725
3053.80888	16240.625
3056.20519	16183.325
3058.60005	16160.225
3060.99345	16111.025
3063.3854	16084.325
3065.7759	16015.025
3068.16494	15974.425
3070.55254	15918.925
3072.93868	15862.225
3075.32338	15832.125
3077.70662	15776.225
3080.08842	15744.025
3082.46878	15698.925
3084.84769	15672.525
3087.22515	15666.725
3089.60118	15670.625
3091.97576	15653.125
3094.3489	15631.625
3096.72061	15634.125
3099.09087	15630.025
3101.4597	15599.525
3103.82709	15625.925
3106.19305	15595.225
3108.55757	15552.325
3110.92066	15496.625
3113.28232	15518.925
3115.64255	15446.425
3118.00134	15402.425
3120.35871	15405.425
3122.71466	15354.225
3125.06917	15325.125
3127.42226	15275.625
