Data from AgNPs_FTO_APTES_UA_5uM_CRN_500uM_R6G_10uM_NaF_0.1M_Addition_RamanShift__34__17-20-21-855.txt Node

Date: Mon Feb 07 17:20:21 GMT 2022
User: TCL
Spectrometer: QEP01345
Trigger mode: 4
Integration Time (sec): 7.000000E0
Scans to average: 10
Electric dark correction enabled: true
Nonlinearity correction enabled: false
Boxcar width: 0
XAxis mode: Raman Shifts
Number of Pixels in Spectrum: 1044
>>>>>Begin Spectral Data<<<<<
46.04893	-1.2875
50.45542	0.0125
54.85868	-0.6875
59.25871	-0.6875
63.6555	63.4125
68.04907	65.9125
72.43941	70.0125
76.82654	68.3125
81.21044	74.8125
85.59113	71.8125
89.96862	78.8125
94.34289	81.8125
98.71396	84.6125
103.08183	85.9125
107.4465	90.7125
111.80798	90.6125
116.16626	87.8125
120.52136	96.1125
124.87327	99.9125
129.222	110.6125
133.56755	113.3125
137.90993	119.8125
142.24913	139.8125
146.58517	153.9125
150.91804	178.3125
155.24774	215.6125
159.57429	268.7125
163.89768	346.9125
168.21792	468.6125
172.53501	632.1125
176.84895	881.6125
181.15975	1255.7125
185.46741	1750.6125
189.77193	2416.3125
194.07331	3243.0125
198.37157	4189.1125
202.6667	5176.0125
206.9587	6167.0125
211.24758	7146.3125
215.53334	8134.2125
219.81599	9152.6125
224.09553	10326.3125
228.37195	11589.1125
232.64527	12950.5125
236.91549	14393.6125
241.18261	15846.5125
245.44663	17137.8125
249.70755	18329.3125
253.96539	19407.5125
258.22014	20299.0125
262.4718	21050.7125
266.72039	21589.0125
270.96589	21876.4125
275.20832	21897.9125
279.44768	21744.1125
283.68397	21515.6125
287.91719	21242.1125
292.14735	21138.1125
296.37445	21141.1125
300.59849	21211.8125
304.81948	21374.2125
309.03742	21365.8125
313.25231	21248.4125
317.46415	20901.6125
321.67296	20440.7125
325.87872	20020.9125
330.08145	19866.9125
334.28114	19900.6125
338.47781	20020.5125
342.67145	20239.2125
346.86207	20554.3125
351.04966	20927.2125
355.23424	21338.4125
359.4158	21716.0125
363.59435	21937.4125
367.76989	22136.9125
371.94243	22286.3125
376.11196	22424.6125
380.27849	22509.3125
384.44203	22657.0125
388.60257	22829.8125
392.76012	22994.6125
396.91468	23190.8125
401.06626	23531.3125
405.21485	23805.3125
409.36047	23682.6125
413.50311	23368.4125
417.64277	23080.4125
421.77947	23003.8125
425.9132	23038.3125
430.04396	23222.7125
434.17176	23502.9125
438.2966	23880.3125
442.41849	24509.7125
446.53742	25541.1125
450.6534	26594.8125
454.76644	27260.0125
458.87653	27294.4125
462.98368	26875.5125
467.08789	26339.9125
471.18916	25935.2125
475.2875	25665.1125
479.38291	25438.3125
483.4754	25240.6125
487.56496	24964.4125
491.6516	24457.6125
495.73531	23923.7125
499.81612	23544.7125
503.89401	23491.2125
507.96899	23489.4125
512.04106	23411.4125
516.11023	23309.0125
520.1765	23217.4125
524.23987	23181.1125
528.30034	23147.1125
532.35792	23105.5125
536.41261	22862.2125
540.46441	22569.4125
544.51333	22475.1125
548.55936	22703.5125
552.60252	23158.5125
556.64279	23832.5125
560.6802	24386.0125
564.71473	24750.4125
568.7464	25222.2125
572.7752	25908.6125
576.80114	26123.8125
580.82422	26168.8125
584.84444	26555.8125
588.86181	27559.7125
592.87633	28918.3125
596.888	29653.2125
600.89682	29106.9125
604.9028	28814.6125
608.90594	30147.1125
612.90624	32189.9125
616.90371	30556.0125
620.89834	25682.2125
624.89015	23514.2125
628.87913	23204.5125
632.86528	23259.9125
636.84862	23219.1125
640.82913	22886.6125
644.80683	22415.8125
648.78172	22038.5125
652.75379	21989.3125
656.72306	22256.0125
660.68952	22553.9125
664.65319	22444.6125
668.61405	22034.2125
672.57211	21973.4125
676.52738	21979.0125
680.47986	21969.9125
684.42955	21836.4125
688.37646	21771.0125
692.32058	21845.7125
696.26192	22032.2125
700.20048	22272.5125
704.13626	22446.7125
708.06928	22380.9125
711.99952	22249.5125
715.927	22321.2125
719.85171	22388.7125
723.77365	22343.6125
727.69284	22142.6125
731.60928	21974.5125
735.52295	21964.1125
739.43388	22047.7125
743.34206	22058.2125
747.24749	22158.4125
751.15017	22291.9125
755.05012	22616.1125
758.94733	23185.5125
762.8418	24262.6125
766.73354	25892.3125
770.62254	27514.2125
774.50882	28055.7125
778.39237	27111.8125
782.27321	25205.8125
786.15132	23500.9125
790.02671	22531.5125
793.89938	22034.5125
797.76935	21854.8125
801.6366	21804.9125
805.50115	21779.1125
809.36299	21683.8125
813.22213	21585.9125
817.07857	21583.5125
820.93231	21564.4125
824.78336	21506.6125
828.63172	21459.7125
832.47738	21493.2125
836.32036	21466.1125
840.16066	21509.4125
843.99827	21514.0125
847.8332	21498.4125
851.66546	21442.3125
855.49504	21373.5125
859.32195	21361.8125
863.1462	21350.3125
866.96777	21254.0125
870.78668	21177.5125
874.60293	21226.7125
878.41652	21271.0125
882.22745	21366.7125
886.03573	21395.8125
889.84136	21331.0125
893.64433	21292.9125
897.44466	21212.6125
901.24235	21129.7125
905.0374	21037.1125
908.8298	20996.1125
912.61957	21007.4125
916.40671	21185.1125
920.19121	21475.6125
923.97308	21657.7125
927.75233	21772.9125
931.52895	21659.6125
935.30295	21416.3125
939.07433	21025.2125
942.84309	20785.3125
946.60924	20615.0125
950.37278	20568.0125
954.13371	20506.8125
957.89203	20468.3125
961.64774	20397.9125
965.40086	20385.5125
969.15137	20308.8125
972.89929	20232.7125
976.64461	20164.0125
980.38733	20199.5125
984.12747	20236.3125
987.86502	20417.9125
991.59999	20609.8125
995.33237	20910.2125
999.06217	21430.9125
1002.78939	22015.7125
1006.51404	22395.5125
1010.23611	22585.0125
1013.95561	22746.6125
1017.67255	22683.4125
1021.38692	22386.7125
1025.09872	22001.5125
1028.80796	21892.6125
1032.51465	22171.7125
1036.21877	22550.4125
1039.92035	22685.9125
1043.61937	22556.5125
1047.31584	22304.3125
1051.00976	22036.9125
1054.70114	21824.7125
1058.38998	21802.9125
1062.07627	21892.7125
1065.76003	22007.5125
1069.44126	22030.7125
1073.11995	22179.4125
1076.79611	22424.2125
1080.46974	22592.2125
1084.14085	22784.1125
1087.80943	23049.1125
1091.47549	23235.2125
1095.13903	23214.1125
1098.80005	22930.7125
1102.45857	22557.9125
1106.11456	22340.9125
1109.76805	22293.5125
1113.41903	22422.5125
1117.06751	22697.9125
1120.71348	22983.4125
1124.35696	23333.9125
1127.99793	23672.2125
1131.63641	23818.3125
1135.2724	23550.1125
1138.90589	23285.5125
1142.5369	23218.0125
1146.16542	23325.1125
1149.79145	23561.2125
1153.415	23810.7125
1157.03607	24111.3125
1160.65467	24723.1125
1164.27079	25728.8125
1167.88443	27002.5125
1171.49561	28658.9125
1175.10432	30814.9125
1178.71056	33536.0125
1182.31434	35914.2125
1185.91565	36813.0125
1189.51451	36117.6125
1193.11091	34682.0125
1196.70485	33241.6125
1200.29634	31954.4125
1203.88538	31116.1125
1207.47197	30386.0125
1211.05612	29757.9125
1214.63782	29266.0125
1218.21708	28950.3125
1221.79391	28883.8125
1225.36829	28835.3125
1228.94024	28457.4125
1232.50976	27777.8125
1236.07685	27169.4125
1239.6415	26870.7125
1243.20374	26845.6125
1246.76355	27098.5125
1250.32093	27365.5125
1253.8759	27941.0125
1257.42845	28541.5125
1260.97859	29280.9125
1264.52631	29952.7125
1268.07163	30628.8125
1271.61453	31336.1125
1275.15503	32047.0125
1278.69312	32909.1125
1282.22882	33761.0125
1285.76211	34898.1125
1289.29301	36442.4125
1292.82151	38232.4125
1296.34761	40373.9125
1299.87133	42897.8125
1303.39266	45482.8125
1306.9116	48167.4125
1310.42815	50816.4125
1313.94233	52552.1125
1317.45412	52626.1125
1320.96354	51438.6125
1324.47058	49772.6125
1327.97525	48008.1125
1331.47754	46758.5125
1334.97747	46031.0125
1338.47502	45505.8125
1341.97022	44718.5125
1345.46305	43777.6125
1348.95352	43243.2125
1352.44163	43644.4125
1355.92738	45374.5125
1359.41078	48125.8125
1362.89183	50597.7125
1366.37053	50152.4125
1369.84688	45968.4125
1373.32088	40590.2125
1376.79254	37131.1125
1380.26186	36003.2125
1383.72883	36167.7125
1387.19347	36174.4125
1390.65578	35909.3125
1394.11575	35970.8125
1397.57339	36723.3125
1401.0287	37791.1125
1404.48168	38656.7125
1407.93234	38739.8125
1411.38068	37987.5125
1414.82669	36571.0125
1418.27039	34793.5125
1421.71177	33115.4125
1425.15083	31656.0125
1428.58758	31013.1125
1432.02203	31244.3125
1435.45416	32143.0125
1438.88399	33185.2125
1442.31151	33996.7125
1445.73673	34547.9125
1449.15965	34994.1125
1452.58027	35241.8125
1455.9986	35117.2125
1459.41463	34960.0125
1462.82837	35208.8125
1466.23982	35863.4125
1469.64898	36469.1125
1473.05586	36849.7125
1476.46045	37006.3125
1479.86276	36919.1125
1483.26279	36647.9125
1486.66054	36371.8125
1490.05602	36281.1125
1493.44922	36233.3125
1496.84016	36075.2125
1500.22882	36148.7125
1503.61521	36701.9125
1506.99934	37685.2125
1510.38121	38748.1125
1513.76081	39180.2125
1517.13816	38449.6125
1520.51324	36960.5125
1523.88607	35750.2125
1527.25665	35202.4125
1530.62498	35223.6125
1533.99105	35372.0125
1537.35488	35227.7125
1540.71647	34741.0125
1544.07581	34025.1125
1547.4329	33156.6125
1550.78776	32351.8125
1554.14038	31687.6125
1557.49077	31268.8125
1560.83892	30989.1125
1564.18484	31015.4125
1567.52853	31243.2125
1570.86999	31659.5125
1574.20922	32317.0125
1577.54624	32870.6125
1580.88103	33042.3125
1584.2136	33285.2125
1587.54395	34229.2125
1590.87208	36024.5125
1594.19801	38485.5125
1597.52172	40950.8125
1600.84321	41970.4125
1604.16251	40262.1125
1607.47959	36727.9125
1610.79447	32794.6125
1614.10715	29529.9125
1617.41763	27186.8125
1620.7259	25824.7125
1624.03199	25321.0125
1627.33587	25554.9125
1630.63757	26440.9125
1633.93707	28231.7125
1637.23439	31090.4125
1640.52951	35179.3125
1643.82246	40138.8125
1647.11321	44062.6125
1650.40179	44548.5125
1653.68819	40921.3125
1656.97241	35043.2125
1660.25446	29544.8125
1663.53433	25676.5125
1666.81203	23343.0125
1670.08756	21917.5125
1673.36092	21054.8125
1676.63211	20542.4125
1679.90115	20111.2125
1683.16801	19797.3125
1686.43272	19583.1125
1689.69527	19401.7125
1692.95567	19263.6125
1696.2139	19174.0125
1699.46999	19054.9125
1702.72392	19022.7125
1705.97571	19000.7125
1709.22535	18945.9125
1712.47284	18926.9125
1715.71819	18882.8125
1718.96139	18869.4125
1722.20246	18777.5125
1725.44139	18723.2125
1728.67818	18624.8125
1731.91284	18507.6125
1735.14537	18392.5125
1738.37576	18392.4125
1741.60403	18296.9125
1744.83017	18238.6125
1748.05418	18192.7125
1751.27607	18186.6125
1754.49584	18133.2125
1757.71349	18121.6125
1760.92903	18094.8125
1764.14244	18085.4125
1767.35375	18109.8125
1770.56294	18048.8125
1773.77002	18015.7125
1776.97499	17974.2125
1780.17785	17939.0125
1783.37861	17914.0125
1786.57727	17927.9125
1789.77382	17879.0125
1792.96828	17855.9125
1796.16064	17821.8125
1799.3509	17791.7125
1802.53907	17744.3125
1805.72514	17673.8125
1808.90913	17636.4125
1812.09102	17601.8125
1815.27083	17557.3125
1818.44856	17545.2125
1821.6242	17461.3125
1824.79776	17455.2125
1827.96924	17434.9125
1831.13864	17384.7125
1834.30597	17380.2125
1837.47122	17365.7125
1840.6344	17331.0125
1843.7955	17360.9125
1846.95454	17330.9125
1850.11151	17266.9125
1853.26642	17279.1125
1856.41926	17263.9125
1859.57004	17263.7125
1862.71876	17260.2125
1865.86542	17253.6125
1869.01003	17259.6125
1872.15258	17230.1125
1875.29308	17220.2125
1878.43152	17188.3125
1881.56792	17219.2125
1884.70227	17175.7125
1887.83457	17191.7125
1890.96482	17131.2125
1894.09304	17108.8125
1897.21921	17115.8125
1900.34335	17142.8125
1903.46544	17113.7125
1906.58551	17093.8125
1909.70353	17070.3125
1912.81953	17050.6125
1915.93349	17024.7125
1919.04543	17018.8125
1922.15534	16964.7125
1925.26322	16917.4125
1928.36908	16908.9125
1931.47292	16852.2125
1934.57473	16845.4125
1937.67453	16801.3125
1940.77232	16735.5125
1943.86808	16658.6125
1946.96184	16629.3125
1950.05358	16588.6125
1953.14331	16561.6125
1956.23103	16453.6125
1959.31675	16428.5125
1962.40046	16394.3125
1965.48217	16326.7125
1968.56188	16263.1125
1971.63959	16238.5125
1974.7153	16154.6125
1977.78901	16165.2125
1980.86073	16095.8125
1983.93046	16037.6125
1986.99819	16011.4125
1990.06394	15974.2125
1993.1277	15899.9125
1996.18947	15846.6125
1999.24925	15803.3125
2002.30706	15772.7125
2005.36288	15720.4125
2008.41672	15682.1125
2011.46859	15636.0125
2014.51848	15591.0125
2017.56639	15571.3125
2020.61233	15514.5125
2023.6563	15443.3125
2026.6983	15386.9125
2029.73833	15398.7125
2032.7764	15334.6125
2035.8125	15349.6125
2038.84664	15317.0125
2041.87881	15283.3125
2044.90903	15257.3125
2047.93729	15229.4125
2050.96359	15192.6125
2053.98794	15176.5125
2057.01034	15164.7125
2060.03078	15180.0125
2063.04927	15187.4125
2066.06582	15177.3125
2069.08042	15189.0125
2072.09307	15156.1125
2075.10378	15132.9125
2078.11255	15099.2125
2081.11938	15130.0125
2084.12426	15100.8125
2087.12722	15064.5125
2090.12824	15079.3125
2093.12732	15065.8125
2096.12447	15097.6125
2099.11969	15062.1125
2102.11299	15039.2125
2105.10435	15029.0125
2108.09379	15044.5125
2111.08131	15056.5125
2114.0669	15067.8125
2117.05057	15077.1125
2120.03233	15065.8125
2123.01216	15079.5125
2125.99008	15126.7125
2128.96609	15104.4125
2131.94018	15126.1125
2134.91236	15136.0125
2137.88263	15136.6125
2140.851	15150.0125
2143.81746	15159.5125
2146.78201	15111.6125
2149.74466	15124.3125
2152.7054	15138.2125
2155.66425	15103.3125
2158.6212	15075.4125
2161.57625	15086.1125
2164.52941	15088.7125
2167.48067	15069.3125
2170.43004	15062.3125
2173.37752	15055.7125
2176.32311	15074.7125
2179.26681	15085.0125
2182.20863	15094.8125
2185.14856	15079.7125
2188.08661	15106.4125
2191.02278	15118.3125
2193.95707	15106.5125
2196.88948	15054.0125
2199.82001	15048.3125
2202.74867	15019.2125
2205.67545	15005.0125
2208.60037	14982.2125
2211.52341	14946.6125
2214.44458	14934.0125
2217.36388	14882.5125
2220.28132	14854.3125
2223.1969	14835.7125
2226.11061	14798.9125
2229.02246	14787.8125
2231.93245	14784.4125
2234.84058	14740.4125
2237.74686	14671.3125
2240.65128	14716.4125
2243.55385	14667.1125
2246.45456	14673.8125
2249.35343	14650.3125
2252.25044	14626.3125
2255.14561	14590.8125
2258.03893	14561.2125
2260.93041	14520.0125
2263.82004	14479.6125
2266.70783	14466.5125
2269.59378	14426.2125
2272.4779	14362.0125
2275.36017	14328.8125
2278.24061	14321.1125
2281.11922	14267.8125
2283.996	14315.2125
2286.87094	14272.9125
2289.74405	14244.9125
2292.61534	14209.0125
2295.4848	14216.5125
2298.35243	14228.7125
2301.21824	14236.5125
2304.08223	14237.1125
2306.94439	14229.4125
2309.80474	14227.0125
2312.66327	14199.7125
2315.51999	14222.1125
2318.37489	14206.1125
2321.22797	14152.4125
2324.07925	14129.7125
2326.92871	14112.3125
2329.77637	14110.9125
2332.62222	14104.9125
2335.46626	14082.7125
2338.3085	14079.2125
2341.14893	14080.8125
2343.98756	14037.7125
2346.8244	14040.5125
2349.65943	14006.5125
2352.49267	13999.3125
2355.32411	14022.4125
2358.15376	13996.6125
2360.98161	13996.3125
2363.80768	14000.4125
2366.63195	13968.9125
2369.45444	13983.2125
2372.27514	13959.3125
2375.09405	13912.7125
2377.91118	13877.2125
2380.72652	13840.8125
2383.54009	13870.1125
2386.35187	13817.6125
2389.16188	13799.3125
2391.97011	13756.2125
2394.77657	13725.9125
2397.58125	13703.2125
2400.38416	13685.7125
2403.18529	13658.7125
2405.98466	13642.8125
2408.78226	13636.2125
2411.57809	13636.0125
2414.37216	13585.4125
2417.16446	13593.5125
2419.955	13600.5125
2422.74378	13574.6125
2425.5308	13552.0125
2428.31606	13527.0125
2431.09956	13520.0125
2433.88131	13494.9125
2436.6613	13516.5125
2439.43954	13501.9125
2442.21603	13521.4125
2444.99077	13470.5125
2447.76377	13452.2125
2450.53501	13450.8125
2453.30451	13445.1125
2456.07226	13440.6125
2458.83827	13432.2125
2461.60254	13439.1125
2464.36507	13406.9125
2467.12586	13434.9125
2469.88492	13423.1125
2472.64224	13422.8125
2475.39782	13436.6125
2478.15167	13433.0125
2480.90379	13431.6125
2483.65417	13430.8125
2486.40283	13446.2125
2489.14976	13468.9125
2491.89497	13448.9125
2494.63845	13452.0125
2497.3802	13460.5125
2500.12024	13426.7125
2502.85855	13378.6125
2505.59514	13406.4125
2508.33002	13393.8125
2511.06318	13380.0125
2513.79462	13376.5125
2516.52435	13352.2125
2519.25237	13354.9125
2521.97867	13318.4125
2524.70327	13315.4125
2527.42616	13274.9125
2530.14734	13294.0125
2532.86681	13277.1125
2535.58458	13264.2125
2538.30065	13274.2125
2541.01501	13286.6125
2543.72768	13252.0125
2546.43864	13236.5125
2549.14791	13222.0125
2551.85548	13198.4125
2554.56136	13148.5125
2557.26554	13168.8125
2559.96803	13158.4125
2562.66883	13119.6125
2565.36794	13140.6125
2568.06536	13132.4125
2570.7611	13127.8125
2573.45514	13106.0125
2576.14751	13089.1125
2578.83819	13048.8125
2581.52719	13066.6125
2584.21451	13058.8125
2586.90015	13065.2125
2589.58411	13070.9125
2592.2664	13022.5125
2594.94701	13005.3125
2597.62594	13008.4125
2600.30321	12996.4125
2602.9788	12986.0125
2605.65273	12987.8125
2608.32498	12995.0125
2610.99557	12967.7125
2613.66449	12990.3125
2616.33175	12964.2125
2618.99734	12940.8125
2621.66128	12961.8125
2624.32355	12930.5125
2626.98416	12914.6125
2629.64311	12901.1125
2632.30041	12917.0125
2634.95605	12895.4125
2637.61004	12881.2125
2640.26238	12870.1125
2642.91306	12837.7125
2645.56209	12818.3125
2648.20948	12841.6125
2650.85521	12880.0125
2653.4993	12859.0125
2656.14175	12857.2125
2658.78255	12892.0125
2661.42171	12869.4125
2664.05923	12878.0125
2666.6951	12892.4125
2669.32934	12919.1125
2671.96194	12908.7125
2674.59291	12869.1125
2677.22224	12846.0125
2679.84993	12858.3125
2682.476	12842.7125
2685.10043	12831.9125
2687.72324	12834.7125
2690.34441	12860.4125
2692.96396	12824.6125
2695.58188	12830.4125
2698.19818	12823.7125
2700.81285	12859.2125
2703.4259	12819.1125
2706.03733	12848.7125
2708.64714	12831.5125
2711.25533	12869.4125
2713.86191	12901.8125
2716.46687	12952.6125
2719.07021	12897.4125
2721.67194	12929.5125
2724.27206	12917.2125
2726.87057	12916.5125
2729.46747	12946.4125
2732.06276	12920.1125
2734.65644	12911.8125
2737.24852	12911.1125
2739.83899	12873.2125
2742.42786	12897.9125
2745.01513	12904.7125
2747.60079	12885.3125
2750.18486	12854.0125
2752.76733	12838.0125
2755.3482	12861.5125
2757.92747	12832.5125
2760.50515	12873.4125
2763.08123	12843.9125
2765.65573	12805.6125
2768.22863	12826.9125
2770.79994	12804.6125
2773.36967	12809.6125
2775.9378	12821.3125
2778.50435	12815.6125
2781.06932	12782.4125
2783.6327	12794.5125
2786.1945	12778.0125
2788.75471	12821.2125
2791.31335	12801.8125
2793.87041	12782.9125
2796.42589	12728.1125
2798.97979	12737.6125
2801.53212	12681.0125
2804.08288	12679.9125
2806.63206	12647.9125
2809.17967	12621.8125
2811.72571	12620.6125
2814.27018	12605.7125
2816.81308	12588.0125
2819.35442	12572.3125
2821.89419	12523.7125
2824.43239	12552.9125
2826.96904	12534.3125
2829.50412	12521.2125
2832.03763	12497.7125
2834.56959	12478.6125
2837.1	12479.8125
2839.62884	12520.5125
2842.15613	12524.4125
2844.68186	12593.8125
2847.20604	12622.4125
2849.72867	12662.8125
2852.24974	12649.9125
2854.76927	12635.9125
2857.28724	12649.5125
2859.80367	12585.8125
2862.31855	12559.1125
2864.83189	12537.4125
2867.34368	12511.2125
2869.85393	12527.9125
2872.36264	12520.4125
2874.8698	12518.4125
2877.37543	12508.0125
2879.87952	12483.3125
2882.38207	12489.6125
2884.88308	12494.7125
2887.38256	12511.6125
2889.88051	12509.7125
2892.37692	12509.8125
2894.8718	12529.8125
2897.36515	12522.7125
2899.85698	12537.4125
2902.34727	12557.1125
2904.83604	12570.2125
2907.32328	12606.6125
2909.809	12581.4125
2912.29319	12563.1125
2914.77587	12570.4125
2917.25702	12544.4125
2919.73665	12530.4125
2922.21476	12541.7125
2924.69136	12542.6125
2927.16644	12577.0125
2929.64	12553.0125
2932.11205	12509.0125
2934.58258	12473.9125
2937.05161	12476.8125
2939.51912	12445.7125
2941.98513	12427.8125
2944.44962	12439.2125
2946.91261	12382.1125
2949.37409	12355.1125
2951.83407	12358.0125
2954.29254	12308.6125
2956.74951	12300.4125
2959.20498	12325.1125
2961.65895	12289.9125
2964.11142	12247.8125
2966.56239	12262.0125
2969.01186	12251.0125
2971.45984	12222.8125
2973.90632	12220.0125
2976.35131	12165.1125
2978.7948	12108.2125
2981.23681	12100.1125
2983.67732	12085.3125
2986.11635	12053.1125
2988.55388	12003.7125
2990.98993	11981.4125
2993.4245	11964.7125
2995.85758	11889.8125
2998.28917	11889.0125
3000.71928	11875.2125
3003.14791	11871.9125
3005.57506	11850.3125
3008.00073	11817.2125
3010.42493	11807.7125
3012.84764	11798.4125
3015.26888	11792.7125
3017.68865	11744.8125
3020.10694	11750.0125
3022.52376	11676.7125
3024.9391	11703.7125
