Data from AgNPs_FTO_APTES_UA_5uM_CRN_10uM_R6G_10uM_NaF_0.1M_Addition_RamanShift__4__12-27-56-716.txt Node

Date: Mon Feb 07 12:27:56 GMT 2022
User: TCL
Spectrometer: QEP01345
Trigger mode: 4
Integration Time (sec): 7.000000E0
Scans to average: 10
Electric dark correction enabled: true
Nonlinearity correction enabled: false
Boxcar width: 0
XAxis mode: Raman Shifts
Number of Pixels in Spectrum: 1044
>>>>>Begin Spectral Data<<<<<
46.04893	0.15
50.45542	-1.95
54.85868	-0.85
59.25871	-0.05
63.6555	94.35
68.04907	97.05
72.43941	102.15
76.82654	102.35
81.21044	109.95
85.59113	112.35
89.96862	116.65
94.34289	118.25
98.71396	122.75
103.08183	124.05
107.4465	131.05
111.80798	128.55
116.16626	136.85
120.52136	146.35
124.87327	153.55
129.222	161.15
133.56755	175.45
137.90993	192.05
142.24913	208.55
146.58517	240.45
150.91804	283.15
155.24774	335.65
159.57429	427.05
163.89768	551.25
168.21792	731.65
172.53501	1012.55
176.84895	1408.95
181.15975	1987.45
185.46741	2794.55
189.77193	3830.55
194.07331	5115.95
198.37157	6576.45
202.6667	8088.05
206.9587	9610.45
211.24758	11100.15
215.53334	12614.75
219.81599	14242.55
224.09553	16050.15
228.37195	18023.75
232.64527	20124.75
236.91549	22277.65
241.18261	24467.75
245.44663	26504.95
249.70755	28267.15
253.96539	29841.55
258.22014	31187.95
262.4718	32259.55
266.72039	33038.15
270.96589	33478.15
275.20832	33579.55
279.44768	33400.15
283.68397	33176.95
287.91719	32974.95
292.14735	32917.75
296.37445	32963.65
300.59849	33116.55
304.81948	33272.65
309.03742	33273.55
313.25231	33045.25
317.46415	32437.85
321.67296	31711.15
325.87872	31006.45
330.08145	30618.35
334.28114	30463.25
338.47781	30529.95
342.67145	30887.35
346.86207	31420.05
351.04966	31974.25
355.23424	32605.55
359.4158	33179.75
363.59435	33618.75
367.76989	33845.65
371.94243	34085.45
376.11196	34168.45
380.27849	34289.35
384.44203	34452.55
388.60257	34734.75
392.76012	35137.55
396.91468	35741.45
401.06626	36298.05
405.21485	36676.75
409.36047	36554.95
413.50311	36245.25
417.64277	36153.05
421.77947	36348.45
425.9132	36534.55
430.04396	36813.15
434.17176	36967.45
438.2966	37200.45
442.41849	37840.55
446.53742	39154.05
450.6534	40680.45
454.76644	41620.95
458.87653	41870.65
462.98368	41450.25
467.08789	40652.75
471.18916	39758.35
475.2875	39097.15
479.38291	38750.35
483.4754	38554.25
487.56496	38145.25
491.6516	37445.05
495.73531	36667.85
499.81612	36178.75
503.89401	36280.05
507.96899	36380.05
512.04106	36235.15
516.11023	35833.75
520.1765	35285.45
524.23987	34782.05
528.30034	34417.25
532.35792	34054.75
536.41261	33597.25
540.46441	33158.55
544.51333	33077.45
548.55936	33512.85
552.60252	34432.55
556.64279	35586.95
560.6802	36458.65
564.71473	37131.15
568.7464	38008.45
572.7752	39430.75
576.80114	40969.15
580.82422	42556.45
584.84444	44527.95
588.86181	47055.65
592.87633	48861.35
596.888	48355.65
600.89682	45525.55
604.9028	44149.65
608.90594	46231.05
612.90624	48669.05
616.90371	45367.25
620.89834	38134.95
624.89015	34929.65
628.87913	34560.65
632.86528	34594.15
636.84862	34216.95
640.82913	33356.35
644.80683	32399.05
648.78172	31905.15
652.75379	31888.85
656.72306	32339.05
660.68952	32773.05
664.65319	32504.35
668.61405	31858.55
672.57211	31778.45
676.52738	31900.15
680.47986	31870.55
684.42955	31489.55
688.37646	31377.25
692.32058	31703.35
696.26192	32331.35
700.20048	32992.85
704.13626	33335.75
708.06928	33331.05
711.99952	33090.45
715.927	33153.45
719.85171	33476.35
723.77365	33284.45
727.69284	32722.95
731.60928	32079.35
735.52295	31846.45
739.43388	31874.35
743.34206	31968.05
747.24749	32276.95
751.15017	32748.15
755.05012	33433.55
758.94733	34608.55
762.8418	36403.05
766.73354	38942.75
770.62254	41087.75
774.50882	41061.05
778.39237	38999.85
782.27321	36168.05
786.15132	33989.35
790.02671	32702.05
793.89938	32011.25
797.76935	31789.25
801.6366	31808.15
805.50115	31756.45
809.36299	31612.15
813.22213	31266.35
817.07857	31070.75
820.93231	30912.05
824.78336	30657.75
828.63172	30483.45
832.47738	30391.95
836.32036	30477.85
840.16066	30711.65
843.99827	30846.45
847.8332	30771.35
851.66546	30560.15
855.49504	30496.45
859.32195	30469.65
863.1462	30299.55
866.96777	30166.25
870.78668	30075.15
874.60293	30051.65
878.41652	30010.55
882.22745	30153.75
886.03573	30266.85
889.84136	30232.35
893.64433	30064.75
897.44466	29924.95
901.24235	29801.75
905.0374	29733.65
908.8298	29703.85
912.61957	29867.65
916.40671	30264.65
920.19121	30943.65
923.97308	31495.35
927.75233	31560.55
931.52895	31151.75
935.30295	30519.45
939.07433	29861.85
942.84309	29377.15
946.60924	29190.05
950.37278	29160.15
954.13371	29126.45
957.89203	29037.65
961.64774	28990.65
965.40086	28980.45
969.15137	28930.65
972.89929	28802.25
976.64461	28673.75
980.38733	28679.05
984.12747	28836.45
987.86502	29069.25
991.59999	29413.65
995.33237	30063.75
999.06217	31109.05
1002.78939	32257.75
1006.51404	33141.75
1010.23611	33737.65
1013.95561	34105.95
1017.67255	34066.85
1021.38692	33560.55
1025.09872	32841.65
1028.80796	32957.85
1032.51465	33960.15
1036.21877	35055.55
1039.92035	35449.75
1043.61937	35038.15
1047.31584	34147.25
1051.00976	33101.85
1054.70114	32524.75
1058.38998	32398.95
1062.07627	32523.65
1065.76003	32740.65
1069.44126	33113.85
1073.11995	33666.95
1076.79611	34110.05
1080.46974	34419.95
1084.14085	34748.45
1087.80943	35264.85
1091.47549	35642.35
1095.13903	35671.65
1098.80005	35153.65
1102.45857	34216.95
1106.11456	33418.85
1109.76805	33130.65
1113.41903	33187.25
1117.06751	33362.15
1120.71348	33664.85
1124.35696	33967.65
1127.99793	34364.35
1131.63641	34650.35
1135.2724	34712.25
1138.90589	34757.35
1142.5369	34984.05
1146.16542	35360.15
1149.79145	35918.05
1153.415	36470.95
1157.03607	37413.65
1160.65467	39159.65
1164.27079	41745.95
1167.88443	44668.15
1171.49561	47525.65
1175.10432	50888.75
1178.71056	55364.35
1182.31434	59530.55
1185.91565	61384.35
1189.51451	60585.65
1193.11091	58425.65
1196.70485	56036.15
1200.29634	53955.95
1203.88538	52842.55
1207.47197	52499.65
1211.05612	52120.75
1214.63782	51046.85
1218.21708	49334.25
1221.79391	47817.15
1225.36829	46582.05
1228.94024	45520.15
1232.50976	44352.35
1236.07685	43312.85
1239.6415	42678.15
1243.20374	42751.25
1246.76355	43218.65
1250.32093	44189.25
1253.8759	45442.75
1257.42845	46989.85
1260.97859	48554.45
1264.52631	50234.65
1268.07163	52059.55
1271.61453	54014.45
1275.15503	56165.85
1278.69312	58474.55
1282.22882	60798.75
1285.76211	63433.85
1289.29301	66671.65
1292.82151	70544.75
1296.34761	75402.35
1299.87133	81229.25
1303.39266	87348.95
1306.9116	92500.55
1310.42815	95958.55
1313.94233	97034.45
1317.45412	95829.75
1320.96354	93546.95
1324.47058	91676.55
1327.97525	90377.25
1331.47754	89539.35
1334.97747	88622.15
1338.47502	87025.65
1341.97022	84600.05
1345.46305	81721.85
1348.95352	79507.05
1352.44163	79185.25
1355.92738	81465.15
1359.41078	85419.85
1362.89183	88425.95
1366.37053	87292.35
1369.84688	80416.65
1373.32088	70909.25
1376.79254	64361.35
1380.26186	62468.15
1383.72883	63298.45
1387.19347	63973.55
1390.65578	63469.25
1394.11575	63457.95
1397.57339	64688.45
1401.0287	66597.45
1404.48168	68229.05
1407.93234	68449.15
1411.38068	66930.75
1414.82669	64011.25
1418.27039	60449.25
1421.71177	56867.15
1425.15083	53931.55
1428.58758	52573.25
1432.02203	53229.55
1435.45416	55360.25
1438.88399	57920.65
1442.31151	59820.05
1445.73673	61013.95
1449.15965	61576.95
1452.58027	61623.95
1455.9986	61237.55
1459.41463	61070.65
1462.82837	61823.85
1466.23982	63250.55
1469.64898	64653.25
1473.05586	65609.85
1476.46045	65750.25
1479.86276	65181.15
1483.26279	64063.85
1486.66054	63355.15
1490.05602	63287.15
1493.44922	63385.25
1496.84016	63359.75
1500.22882	63419.75
1503.61521	64026.65
1506.99934	64946.35
1510.38121	65920.55
1513.76081	66176.55
1517.13816	65407.95
1520.51324	64191.45
1523.88607	63585.25
1527.25665	63914.55
1530.62498	64668.35
1533.99105	64825.15
1537.35488	64310.95
1540.71647	62773.75
1544.07581	60610.75
1547.4329	58295.85
1550.78776	56317.25
1554.14038	54792.15
1557.49077	53835.05
1560.83892	53173.85
1564.18484	52777.95
1567.52853	52802.75
1570.86999	53364.65
1574.20922	54683.95
1577.54624	56183.75
1580.88103	57468.05
1584.2136	59254.35
1587.54395	62677.55
1590.87208	67700.75
1594.19801	73323.95
1597.52172	77789.05
1600.84321	78253.65
1604.16251	73197.65
1607.47959	65062.35
1610.79447	56989.35
1614.10715	50369.25
1617.41763	45550.65
1620.7259	42655.15
1624.03199	41500.85
1627.33587	42023.35
1630.63757	44069.05
1633.93707	48133.55
1637.23439	54575.85
1640.52951	63793.65
1643.82246	74367.95
1647.11321	82153.05
1650.40179	82360.15
1653.68819	74012.35
1656.97241	61546.95
1660.25446	50288.05
1663.53433	42312.35
1666.81203	37353.95
1670.08756	34271.15
1673.36092	32388.85
1676.63211	31203.05
1679.90115	30371.25
1683.16801	29733.75
1686.43272	29250.85
1689.69527	28929.95
1692.95567	28629.95
1696.2139	28466.75
1699.46999	28234.95
1702.72392	28146.45
1705.97571	28079.45
1709.22535	27987.25
1712.47284	27912.55
1715.71819	27859.25
1718.96139	27722.55
1722.20246	27638.65
1725.44139	27491.45
1728.67818	27321.25
1731.91284	27083.15
1735.14537	26923.55
1738.37576	26795.65
1741.60403	26637.05
1744.83017	26526.85
1748.05418	26496.35
1751.27607	26377.35
1754.49584	26317.35
1757.71349	26271.55
1760.92903	26273.25
1764.14244	26278.85
1767.35375	26227.35
1770.56294	26210.15
1773.77002	26080.25
1776.97499	26032.05
1780.17785	26018.45
1783.37861	25942.15
1786.57727	25934.65
1789.77382	25851.55
1792.96828	25834.25
1796.16064	25759.75
1799.3509	25733.35
1802.53907	25661.95
1805.72514	25568.85
1808.90913	25493.65
1812.09102	25466.85
1815.27083	25427.75
1818.44856	25361.45
1821.6242	25291.75
1824.79776	25291.95
1827.96924	25312.15
1831.13864	25324.05
1834.30597	25321.85
1837.47122	25332.05
1840.6344	25294.55
1843.7955	25301.05
1846.95454	25322.05
1850.11151	25332.35
1853.26642	25274.25
1856.41926	25307.55
1859.57004	25271.15
1862.71876	25253.65
1865.86542	25197.25
1869.01003	25152.85
1872.15258	25136.15
1875.29308	25107.45
1878.43152	25120.25
1881.56792	25121.85
1884.70227	25103.15
1887.83457	25101.95
1890.96482	25043.25
1894.09304	24975.15
1897.21921	25005.85
1900.34335	24957.35
1903.46544	24926.05
1906.58551	24935.75
1909.70353	24876.55
1912.81953	24791.85
1915.93349	24764.45
1919.04543	24734.75
1922.15534	24665.85
1925.26322	24604.25
1928.36908	24534.35
1931.47292	24499.85
1934.57473	24384.15
1937.67453	24285.55
1940.77232	24264.85
1943.86808	24165.55
1946.96184	24137.45
1950.05358	24058.25
1953.14331	24008.95
1956.23103	23914.55
1959.31675	23878.85
1962.40046	23791.15
1965.48217	23702.85
1968.56188	23658.15
1971.63959	23608.25
1974.7153	23534.95
1977.78901	23454.75
1980.86073	23315.05
1983.93046	23289.25
1986.99819	23204.65
1990.06394	23160.15
1993.1277	23140.25
1996.18947	23044.35
1999.24925	22994.45
2002.30706	22951.25
2005.36288	22886.55
2008.41672	22807.45
2011.46859	22715.35
2014.51848	22702.45
2017.56639	22621.95
2020.61233	22576.05
2023.6563	22502.35
2026.6983	22490.55
2029.73833	22480.05
2032.7764	22411.15
2035.8125	22388.65
2038.84664	22359.95
2041.87881	22334.25
2044.90903	22311.65
2047.93729	22269.45
2050.96359	22218.75
2053.98794	22236.25
2057.01034	22226.05
2060.03078	22223.45
2063.04927	22169.35
2066.06582	22191.45
2069.08042	22186.25
2072.09307	22180.15
2075.10378	22111.35
2078.11255	22087.25
2081.11938	22097.35
2084.12426	22086.15
2087.12722	22034.95
2090.12824	22023.85
2093.12732	22053.15
2096.12447	22046.45
2099.11969	22119.65
2102.11299	22065.55
2105.10435	22060.05
2108.09379	22042.95
2111.08131	22081.55
2114.0669	22120.55
2117.05057	22140.45
2120.03233	22102.55
2123.01216	22110.85
2125.99008	22112.85
2128.96609	22137.65
2131.94018	22178.15
2134.91236	22205.35
2137.88263	22207.85
2140.851	22234.55
2143.81746	22248.95
2146.78201	22177.35
2149.74466	22196.75
2152.7054	22202.05
2155.66425	22185.65
2158.6212	22156.75
2161.57625	22158.65
2164.52941	22170.05
2167.48067	22166.75
2170.43004	22170.85
2173.37752	22142.45
2176.32311	22196.25
2179.26681	22170.85
2182.20863	22197.65
2185.14856	22225.85
2188.08661	22238.65
2191.02278	22219.15
2193.95707	22197.85
2196.88948	22228.55
2199.82001	22189.25
2202.74867	22185.05
2205.67545	22151.05
2208.60037	22129.85
2211.52341	22088.35
2214.44458	22111.65
2217.36388	22072.65
2220.28132	22028.65
2223.1969	22006.55
2226.11061	21958.95
2229.02246	21944.35
2231.93245	21937.85
2234.84058	21909.35
2237.74686	21828.65
2240.65128	21839.05
2243.55385	21796.65
2246.45456	21773.95
2249.35343	21751.95
2252.25044	21675.85
2255.14561	21605.65
2258.03893	21576.75
2260.93041	21541.55
2263.82004	21512.35
2266.70783	21477.95
2269.59378	21398.25
2272.4779	21312.75
2275.36017	21300.25
2278.24061	21271.25
2281.11922	21248.15
2283.996	21209.15
2286.87094	21202.75
2289.74405	21151.65
2292.61534	21170.15
2295.4848	21142.65
2298.35243	21187.15
2301.21824	21236.55
2304.08223	21231.35
2306.94439	21258.65
2309.80474	21268.95
2312.66327	21280.05
2315.51999	21254.95
2318.37489	21264.35
2321.22797	21227.65
2324.07925	21228.05
2326.92871	21189.45
2329.77637	21147.25
2332.62222	21129.95
2335.46626	21142.75
2338.3085	21153.35
2341.14893	21197.55
2343.98756	21228.15
2346.8244	21223.65
2349.65943	21218.55
2352.49267	21206.45
2355.32411	21222.25
2358.15376	21179.75
2360.98161	21154.35
2363.80768	21144.95
2366.63195	21118.45
2369.45444	21113.15
2372.27514	21060.75
2375.09405	21055.65
2377.91118	20993.05
2380.72652	20936.35
2383.54009	20891.45
2386.35187	20858.95
2389.16188	20837.75
2391.97011	20817.55
2394.77657	20802.85
2397.58125	20778.75
2400.38416	20764.25
2403.18529	20716.65
2405.98466	20746.15
2408.78226	20663.45
2411.57809	20642.35
2414.37216	20618.65
2417.16446	20646.35
2419.955	20571.85
2422.74378	20562.65
2425.5308	20531.55
2428.31606	20550.45
2431.09956	20567.15
2433.88131	20536.55
2436.6613	20549.15
2439.43954	20537.65
2442.21603	20540.35
2444.99077	20534.15
2447.76377	20564.85
2450.53501	20534.45
2453.30451	20551.75
2456.07226	20518.15
2458.83827	20559.55
2461.60254	20538.35
2464.36507	20544.35
2467.12586	20539.75
2469.88492	20600.95
2472.64224	20617.15
2475.39782	20638.65
2478.15167	20671.05
2480.90379	20629.85
2483.65417	20677.95
2486.40283	20672.55
2489.14976	20704.75
2491.89497	20724.05
2494.63845	20722.85
2497.3802	20753.35
2500.12024	20761.95
2502.85855	20758.05
2505.59514	20737.15
2508.33002	20719.25
2511.06318	20731.05
2513.79462	20730.05
2516.52435	20708.45
2519.25237	20701.75
2521.97867	20704.05
2524.70327	20699.05
2527.42616	20674.25
2530.14734	20727.15
2532.86681	20674.55
2535.58458	20712.45
2538.30065	20738.75
2541.01501	20700.55
2543.72768	20677.35
2546.43864	20685.75
2549.14791	20668.25
2551.85548	20678.95
2554.56136	20650.75
2557.26554	20631.05
2559.96803	20638.65
2562.66883	20646.75
2565.36794	20620.75
2568.06536	20638.65
2570.7611	20643.25
2573.45514	20649.45
2576.14751	20621.05
2578.83819	20635.65
2581.52719	20664.55
2584.21451	20661.05
2586.90015	20649.85
2589.58411	20640.25
2592.2664	20697.75
2594.94701	20638.85
2597.62594	20678.45
2600.30321	20629.15
2602.9788	20681.75
2605.65273	20653.85
2608.32498	20706.75
2610.99557	20720.25
2613.66449	20697.45
2616.33175	20675.55
2618.99734	20714.35
2621.66128	20672.55
2624.32355	20702.25
2626.98416	20692.95
2629.64311	20705.35
2632.30041	20724.45
2634.95605	20731.05
2637.61004	20685.85
2640.26238	20675.65
2642.91306	20647.45
2645.56209	20630.95
2648.20948	20648.15
2650.85521	20669.55
2653.4993	20710.05
2656.14175	20698.35
2658.78255	20726.95
2661.42171	20749.35
2664.05923	20809.05
2666.6951	20782.95
2669.32934	20830.05
2671.96194	20846.35
2674.59291	20859.95
2677.22224	20859.75
2679.84993	20862.25
2682.476	20822.15
2685.10043	20829.45
2687.72324	20803.95
2690.34441	20785.05
2692.96396	20784.75
2695.58188	20772.25
2698.19818	20758.95
2700.81285	20827.15
2703.4259	20803.15
2706.03733	20889.05
2708.64714	20829.45
2711.25533	20878.75
2713.86191	20834.15
2716.46687	20866.85
2719.07021	20879.55
2721.67194	20977.55
2724.27206	20995.55
2726.87057	20990.65
2729.46747	21059.05
2732.06276	21061.95
2734.65644	21058.65
2737.24852	21055.55
2739.83899	21009.65
2742.42786	21065.15
2745.01513	21036.35
2747.60079	21023.25
2750.18486	21008.05
2752.76733	20986.65
2755.3482	21009.55
2757.92747	21024.55
2760.50515	21023.75
2763.08123	21064.35
2765.65573	21036.35
2768.22863	21067.05
2770.79994	21054.05
2773.36967	21071.35
2775.9378	21056.85
2778.50435	21051.25
2781.06932	21070.65
2783.6327	21101.35
2786.1945	21093.95
2788.75471	21109.75
2791.31335	21075.55
2793.87041	21074.65
2796.42589	21036.85
2798.97979	21053.95
2801.53212	20994.25
2804.08288	20955.85
2806.63206	20890.05
2809.17967	20844.75
2811.72571	20807.15
2814.27018	20796.65
2816.81308	20785.75
2819.35442	20758.85
2821.89419	20720.05
2824.43239	20730.35
2826.96904	20757.25
2829.50412	20700.95
2832.03763	20725.35
2834.56959	20667.95
2837.1	20641.55
2839.62884	20673.55
2842.15613	20682.95
2844.68186	20722.25
2847.20604	20763.65
2849.72867	20731.75
2852.24974	20723.75
2854.76927	20755.15
2857.28724	20728.15
2859.80367	20698.05
2862.31855	20602.75
2864.83189	20598.05
2867.34368	20599.05
2869.85393	20615.65
2872.36264	20598.85
2874.8698	20555.45
2877.37543	20541.55
2879.87952	20582.55
2882.38207	20574.45
2884.88308	20602.45
2887.38256	20644.75
2889.88051	20633.35
2892.37692	20658.15
2894.8718	20691.35
2897.36515	20702.35
2899.85698	20729.95
2902.34727	20789.75
2904.83604	20796.95
2907.32328	20833.05
2909.809	20813.85
2912.29319	20852.35
2914.77587	20860.35
2917.25702	20885.85
2919.73665	20819.65
2922.21476	20837.15
2924.69136	20813.85
2927.16644	20799.55
2929.64	20786.55
2932.11205	20736.05
2934.58258	20672.95
2937.05161	20713.35
2939.51912	20749.65
2941.98513	20718.35
2944.44962	20712.75
2946.91261	20601.05
2949.37409	20633.75
2951.83407	20590.25
2954.29254	20599.75
2956.74951	20635.35
2959.20498	20602.45
2961.65895	20555.95
2964.11142	20558.55
2966.56239	20521.05
2969.01186	20503.85
2971.45984	20454.05
2973.90632	20489.35
2976.35131	20387.65
2978.7948	20369.85
2981.23681	20302.75
2983.67732	20304.45
2986.11635	20258.45
2988.55388	20223.65
2990.98993	20148.25
2993.4245	20089.45
2995.85758	20009.65
2998.28917	19986.35
3000.71928	20001.15
3003.14791	19955.35
3005.57506	19929.05
3008.00073	19902.55
3010.42493	19770.05
3012.84764	19789.15
3015.26888	19807.35
3017.68865	19781.05
3020.10694	19737.95
3022.52376	19706.55
3024.9391	19668.25
3027.35298	19639.45
3029.76539	19662.15
3032.17632	19597.65
3034.5858	19610.95
3036.9938	19610.15
3039.40034	19629.55
3041.80542	19626.05
3044.20903	19583.85
3046.61118	19571.35
3049.01187	19541.95
3051.4111	19566.95
3053.80888	19526.15
3056.20519	19475.75
3058.60005	19432.05
3060.99345	19421.65
3063.3854	19345.75
3065.7759	19248.15
3068.16494	19200.05
3070.55254	19154.45
3072.93868	19108.15
3075.32338	19038.85
3077.70662	18987.35
3080.08842	18978.85
3082.46878	18931.75
3084.84769	18904.05
3087.22515	18882.95
3089.60118	18936.95
3091.97576	18910.55
3094.3489	18879.25
3096.72061	18878.45
3099.09087	18892.65
3101.4597	18886.35
3103.82709	18887.45
3106.19305	18821.45
3108.55757	18816.35
3110.92066	18770.65
3113.28232	18737.45
3115.64255	18693.55
3118.00134	18681.15
3120.35871	18642.95
3122.71466	18604.35
3125.06917	18593.15
3127.42226	18503.55
3129.77393	18496.35
3132.12417	18447.45
3134.47299	18477.45
3136.82039	18466.05
3139.16636	18458.45
3141.51092	18434.15
3143.85406	18394.85
3146.19579	18420.15
3148.53609	18412.55
3150.87499	18420.85
3153.21246	18402.35
3155.54853	18455.85
3157.88318	18412.75
3160.21642	18426.35
3162.54826	18416.15
3164.87868	18418.85
3167.2077	18419.55
3169.5353	18420.95
3171.86151	18439.45
3174.18631	18423.75
3176.5097	18410.05
3178.83169	18351.85
3181.15228	18357.35
3183.47147	18348.75
3185.78926	18340.95
3188.10565	18286.85
3190.42065	18274.55
3192.73424	18258.45
3195.04645	18209.95
3197.35725	18193.65
3199.66667	18182.95
3201.97469	18218.65
3204.28132	18201.55
3206.58656	18182.55
3208.8904	18181.65
3211.19287	18220.25
3213.49394	18176.85
3215.79363	18209.45
3218.09193	18206.15
3220.38884	18215.55
3222.68438	18238.65
3224.97853	18193.65
3227.2713	18153.55
3229.56269	18192.85
3231.8527	18166.55
3234.14133	18144.45
3236.42858	18122.85
3238.71446	18136.25
