Data from AgNPs_FTO_APTES_UA_5uM_CRN_10uM_R6G_10uM_NaF_0.1M_Addition_RamanShift__29__12-57-06-749.txt Node

Date: Mon Feb 07 12:57:06 GMT 2022
User: TCL
Spectrometer: QEP01345
Trigger mode: 4
Integration Time (sec): 7.000000E0
Scans to average: 10
Electric dark correction enabled: true
Nonlinearity correction enabled: false
Boxcar width: 0
XAxis mode: Raman Shifts
Number of Pixels in Spectrum: 1044
>>>>>Begin Spectral Data<<<<<
46.04893	-0.2375
50.45542	-0.5375
54.85868	-0.0375
59.25871	0.4625
63.6555	61.9625
68.04907	67.0625
72.43941	69.4625
76.82654	72.5625
81.21044	78.6625
85.59113	78.4625
89.96862	86.1625
94.34289	84.2625
98.71396	89.9625
103.08183	90.6625
107.4465	90.8625
111.80798	93.7625
116.16626	97.2625
120.52136	103.3625
124.87327	106.5625
129.222	110.4625
133.56755	121.8625
137.90993	129.0625
142.24913	140.6625
146.58517	163.7625
150.91804	187.6625
155.24774	227.8625
159.57429	285.9625
163.89768	368.2625
168.21792	486.5625
172.53501	663.1625
176.84895	922.5625
181.15975	1312.2625
185.46741	1825.4625
189.77193	2514.7625
194.07331	3348.2625
198.37157	4305.5625
202.6667	5308.8625
206.9587	6316.1625
211.24758	7312.6625
215.53334	8354.7625
219.81599	9508.3625
224.09553	10837.7625
228.37195	12313.5625
232.64527	13859.3625
236.91549	15457.1625
241.18261	16945.1625
245.44663	18165.6625
249.70755	19179.7625
253.96539	20069.8625
258.22014	20822.5625
262.4718	21495.9625
266.72039	22053.0625
270.96589	22451.7625
275.20832	22599.7625
279.44768	22569.5625
283.68397	22543.0625
287.91719	22549.0625
292.14735	22713.0625
296.37445	23099.5625
300.59849	23668.6625
304.81948	24329.0625
309.03742	24787.3625
313.25231	24599.4625
317.46415	23404.7625
321.67296	21718.8625
325.87872	20245.7625
330.08145	19533.2625
334.28114	19435.2625
338.47781	19690.5625
342.67145	20159.5625
346.86207	20962.3625
351.04966	22053.0625
355.23424	23321.6625
359.4158	24264.7625
363.59435	24631.9625
367.76989	24641.4625
371.94243	24484.0625
376.11196	24297.1625
380.27849	24129.5625
384.44203	23861.5625
388.60257	23579.9625
392.76012	23584.8625
396.91468	23920.0625
401.06626	24529.9625
405.21485	25119.6625
409.36047	24721.7625
413.50311	23560.7625
417.64277	22463.5625
421.77947	21915.6625
425.9132	21729.4625
430.04396	21763.1625
434.17176	21883.5625
438.2966	22089.2625
442.41849	22531.3625
446.53742	23142.6625
450.6534	23853.1625
454.76644	24349.9625
458.87653	24413.0625
462.98368	24298.7625
467.08789	23975.4625
471.18916	23523.6625
475.2875	23007.9625
479.38291	22650.2625
483.4754	22310.4625
487.56496	21975.8625
491.6516	21700.8625
495.73531	21547.4625
499.81612	21543.5625
503.89401	21778.5625
507.96899	21950.3625
512.04106	22135.1625
516.11023	22247.8625
520.1765	22315.9625
524.23987	22133.8625
528.30034	21681.5625
532.35792	21235.1625
536.41261	20838.3625
540.46441	20416.9625
544.51333	20305.0625
548.55936	20636.2625
552.60252	21303.9625
556.64279	22027.8625
560.6802	22369.5625
564.71473	22705.0625
568.7464	23566.7625
572.7752	24335.4625
576.80114	24009.0625
580.82422	23505.1625
584.84444	23300.1625
588.86181	23171.5625
592.87633	23076.6625
596.888	23261.2625
600.89682	23897.0625
604.9028	26275.4625
608.90594	32540.1625
612.90624	40945.5625
616.90371	39203.5625
620.89834	27855.1625
624.89015	22496.6625
628.87913	21523.1625
632.86528	21660.9625
636.84862	21875.6625
640.82913	21415.3625
644.80683	20469.0625
648.78172	19722.0625
652.75379	19786.0625
656.72306	20532.3625
660.68952	21554.5625
664.65319	21456.2625
668.61405	20489.9625
672.57211	19997.0625
676.52738	19901.7625
680.47986	19904.9625
684.42955	19705.2625
688.37646	19657.3625
692.32058	19729.2625
696.26192	19982.1625
700.20048	20305.7625
704.13626	20564.7625
708.06928	20641.3625
711.99952	20460.0625
715.927	20271.1625
719.85171	20257.9625
723.77365	20174.8625
727.69284	19929.2625
731.60928	19638.8625
735.52295	19576.1625
739.43388	19599.9625
743.34206	19721.8625
747.24749	19834.5625
751.15017	20131.9625
755.05012	20654.7625
758.94733	21747.2625
762.8418	24157.0625
766.73354	28224.3625
770.62254	32364.3625
774.50882	33890.1625
778.39237	31846.4625
782.27321	27500.9625
786.15132	23584.6625
790.02671	21292.2625
793.89938	20204.2625
797.76935	19754.6625
801.6366	19528.4625
805.50115	19387.5625
809.36299	19237.7625
813.22213	19167.3625
817.07857	19102.2625
820.93231	19088.4625
824.78336	19137.2625
828.63172	19224.7625
832.47738	19238.8625
836.32036	19222.9625
840.16066	19157.2625
843.99827	19081.3625
847.8332	18971.9625
851.66546	18924.3625
855.49504	18898.3625
859.32195	18822.0625
863.1462	18714.2625
866.96777	18610.8625
870.78668	18560.2625
874.60293	18576.9625
878.41652	18638.5625
882.22745	18717.4625
886.03573	18829.6625
889.84136	18777.4625
893.64433	18655.4625
897.44466	18609.6625
901.24235	18610.2625
905.0374	18572.9625
908.8298	18543.9625
912.61957	18574.9625
916.40671	18746.4625
920.19121	19093.1625
923.97308	19308.7625
927.75233	19393.7625
931.52895	19393.2625
935.30295	19119.2625
939.07433	18521.3625
942.84309	17991.9625
946.60924	17724.3625
950.37278	17572.2625
954.13371	17485.5625
957.89203	17389.0625
961.64774	17360.6625
965.40086	17298.7625
969.15137	17288.5625
972.89929	17194.1625
976.64461	17156.5625
980.38733	17164.3625
984.12747	17176.6625
987.86502	17296.5625
991.59999	17468.1625
995.33237	17734.2625
999.06217	18250.6625
1002.78939	18883.2625
1006.51404	19392.2625
1010.23611	19841.3625
1013.95561	20150.3625
1017.67255	20072.0625
1021.38692	19720.0625
1025.09872	19331.1625
1028.80796	19220.2625
1032.51465	19518.2625
1036.21877	19851.5625
1039.92035	20069.7625
1043.61937	19999.0625
1047.31584	19799.0625
1051.00976	19583.9625
1054.70114	19443.0625
1058.38998	19547.3625
1062.07627	19784.9625
1065.76003	19968.4625
1069.44126	20196.7625
1073.11995	20443.9625
1076.79611	20619.8625
1080.46974	20830.9625
1084.14085	21251.1625
1087.80943	21800.0625
1091.47549	22107.8625
1095.13903	21869.2625
1098.80005	21149.3625
1102.45857	20417.7625
1106.11456	19928.3625
1109.76805	19838.6625
1113.41903	20120.7625
1117.06751	20686.6625
1120.71348	21482.3625
1124.35696	22273.4625
1127.99793	23072.9625
1131.63641	23045.9625
1135.2724	22176.5625
1138.90589	21338.6625
1142.5369	20788.4625
1146.16542	20453.5625
1149.79145	20337.7625
1153.415	20470.7625
1157.03607	20791.1625
1160.65467	21331.6625
1164.27079	22250.5625
1167.88443	23578.7625
1171.49561	25642.7625
1175.10432	28827.2625
1178.71056	33047.7625
1182.31434	36075.1625
1185.91565	36993.1625
1189.51451	36414.1625
1193.11091	34507.9625
1196.70485	31999.8625
1200.29634	29887.4625
1203.88538	28308.9625
1207.47197	26602.6625
1211.05612	25138.3625
1214.63782	24271.5625
1218.21708	23914.6625
1221.79391	23928.2625
1225.36829	24115.7625
1228.94024	24243.6625
1232.50976	24335.5625
1236.07685	24363.9625
1239.6415	24310.6625
1243.20374	24219.0625
1246.76355	24215.3625
1250.32093	24518.7625
1253.8759	25165.6625
1257.42845	26043.0625
1260.97859	26911.3625
1264.52631	27802.9625
1268.07163	28628.7625
1271.61453	29489.8625
1275.15503	30213.2625
1278.69312	30765.4625
1282.22882	31199.0625
1285.76211	31997.8625
1289.29301	33092.6625
1292.82151	34176.1625
1296.34761	35397.7625
1299.87133	37222.2625
1303.39266	40043.0625
1306.9116	44214.4625
1310.42815	49049.0625
1313.94233	52295.4625
1317.45412	52260.8625
1320.96354	49959.2625
1324.47058	46948.1625
1327.97525	44402.9625
1331.47754	42620.7625
1334.97747	41892.6625
1338.47502	41843.6625
1341.97022	42323.8625
1345.46305	42969.2625
1348.95352	43760.5625
1352.44163	45118.4625
1355.92738	47946.2625
1359.41078	53127.8625
1362.89183	58673.2625
1366.37053	57627.8625
1369.84688	49858.2625
1373.32088	41861.3625
1376.79254	36784.3625
1380.26186	34418.4625
1383.72883	33322.5625
1387.19347	32546.3625
1390.65578	31741.3625
1394.11575	31102.7625
1397.57339	31018.0625
1401.0287	31346.1625
1404.48168	31915.4625
1407.93234	32331.9625
1411.38068	32415.3625
1414.82669	31871.9625
1418.27039	30817.9625
1421.71177	29566.1625
1425.15083	28513.7625
1428.58758	27855.0625
1432.02203	27800.5625
1435.45416	28019.7625
1438.88399	28278.6625
1442.31151	28503.5625
1445.73673	28788.6625
1449.15965	29173.0625
1452.58027	29263.5625
1455.9986	29314.1625
1459.41463	29398.5625
1462.82837	29790.7625
1466.23982	30343.0625
1469.64898	31023.1625
1473.05586	31371.6625
1476.46045	31574.0625
1479.86276	31849.3625
1483.26279	32307.8625
1486.66054	32968.4625
1490.05602	33808.4625
1493.44922	34978.3625
1496.84016	36792.3625
1500.22882	39524.6625
1503.61521	43332.9625
1506.99934	47749.7625
1510.38121	52139.3625
1513.76081	54713.6625
1517.13816	53137.0625
1520.51324	48214.9625
1523.88607	42758.7625
1527.25665	38879.2625
1530.62498	36434.5625
1533.99105	34920.2625
1537.35488	33958.6625
1540.71647	33236.4625
1544.07581	32652.4625
1547.4329	32096.2625
1550.78776	31627.1625
1554.14038	31469.8625
1557.49077	31584.3625
1560.83892	32118.2625
1564.18484	32972.2625
1567.52853	33676.8625
1570.86999	34107.5625
1574.20922	34453.6625
1577.54624	34266.3625
1580.88103	33031.9625
1584.2136	31493.7625
1587.54395	30970.6625
1590.87208	31899.5625
1594.19801	33866.3625
1597.52172	36105.6625
1600.84321	36862.7625
1604.16251	35250.2625
1607.47959	32593.1625
1610.79447	29845.5625
1614.10715	27200.2625
1617.41763	25208.4625
1620.7259	23785.5625
1624.03199	23118.7625
1627.33587	23079.2625
1630.63757	23729.7625
1633.93707	25210.3625
1637.23439	27418.4625
1640.52951	30456.5625
1643.82246	34110.0625
1647.11321	37930.1625
1650.40179	40513.2625
1653.68819	39318.4625
1656.97241	34341.8625
1660.25446	28532.7625
1663.53433	24129.6625
1666.81203	21413.7625
1670.08756	19755.0625
1673.36092	18785.7625
1676.63211	18128.9625
1679.90115	17722.3625
1683.16801	17388.7625
1686.43272	17113.5625
1689.69527	16946.7625
1692.95567	16831.1625
1696.2139	16724.6625
1699.46999	16639.7625
1702.72392	16579.0625
1705.97571	16508.5625
1709.22535	16520.1625
1712.47284	16490.4625
1715.71819	16504.4625
1718.96139	16473.5625
1722.20246	16455.0625
1725.44139	16389.3625
1728.67818	16264.9625
1731.91284	16120.5625
1735.14537	15990.9625
1738.37576	15899.4625
1741.60403	15809.0625
1744.83017	15765.1625
1748.05418	15715.6625
1751.27607	15668.0625
1754.49584	15645.5625
1757.71349	15628.6625
1760.92903	15567.7625
1764.14244	15565.4625
1767.35375	15553.9625
1770.56294	15507.8625
1773.77002	15460.8625
1776.97499	15414.8625
1780.17785	15386.9625
1783.37861	15358.4625
1786.57727	15327.2625
1789.77382	15289.9625
1792.96828	15263.9625
1796.16064	15274.2625
1799.3509	15217.8625
1802.53907	15211.7625
1805.72514	15139.6625
1808.90913	15077.1625
1812.09102	15073.5625
1815.27083	15007.3625
1818.44856	14976.9625
1821.6242	14949.6625
1824.79776	14945.8625
1827.96924	14916.8625
1831.13864	14925.8625
1834.30597	14894.7625
1837.47122	14901.0625
1840.6344	14894.2625
1843.7955	14878.4625
1846.95454	14899.6625
1850.11151	14887.2625
1853.26642	14873.2625
1856.41926	14894.0625
1859.57004	14898.7625
1862.71876	14918.3625
1865.86542	14929.3625
1869.01003	14948.3625
1872.15258	14924.3625
1875.29308	14935.8625
1878.43152	14953.4625
1881.56792	14998.5625
1884.70227	15025.8625
1887.83457	15051.1625
1890.96482	15032.0625
1894.09304	15052.2625
1897.21921	15052.7625
1900.34335	15065.1625
1903.46544	15097.0625
1906.58551	15100.5625
1909.70353	15106.2625
1912.81953	15115.0625
1915.93349	15105.9625
1919.04543	15119.8625
1922.15534	15103.7625
1925.26322	15045.9625
1928.36908	14977.9625
1931.47292	14913.2625
1934.57473	14796.3625
1937.67453	14677.4625
1940.77232	14591.1625
1943.86808	14509.5625
1946.96184	14422.6625
1950.05358	14340.4625
1953.14331	14253.0625
1956.23103	14196.1625
1959.31675	14137.5625
1962.40046	14076.5625
1965.48217	14034.6625
1968.56188	13980.1625
1971.63959	13960.9625
1974.7153	13918.6625
1977.78901	13863.3625
1980.86073	13802.0625
1983.93046	13775.8625
1986.99819	13716.0625
1990.06394	13651.9625
1993.1277	13646.5625
1996.18947	13594.5625
1999.24925	13541.1625
2002.30706	13492.3625
2005.36288	13487.3625
2008.41672	13417.1625
2011.46859	13367.3625
2014.51848	13362.3625
2017.56639	13305.2625
2020.61233	13250.7625
2023.6563	13210.1625
2026.6983	13188.0625
2029.73833	13160.1625
2032.7764	13121.2625
2035.8125	13083.2625
2038.84664	13036.1625
2041.87881	13049.3625
2044.90903	13014.2625
2047.93729	13004.5625
2050.96359	12945.4625
2053.98794	12978.1625
2057.01034	12935.3625
2060.03078	12910.8625
2063.04927	12886.8625
2066.06582	12894.9625
2069.08042	12879.8625
2072.09307	12872.8625
2075.10378	12841.4625
2078.11255	12845.2625
2081.11938	12814.8625
2084.12426	12821.0625
2087.12722	12824.2625
2090.12824	12797.6625
2093.12732	12781.9625
2096.12447	12792.6625
2099.11969	12788.8625
2102.11299	12776.5625
2105.10435	12753.2625
2108.09379	12765.4625
2111.08131	12785.8625
2114.0669	12801.0625
2117.05057	12816.8625
2120.03233	12830.7625
2123.01216	12784.4625
2125.99008	12832.5625
2128.96609	12840.4625
2131.94018	12837.3625
2134.91236	12849.2625
2137.88263	12862.9625
2140.851	12860.1625
2143.81746	12873.2625
2146.78201	12838.5625
2149.74466	12819.7625
2152.7054	12822.4625
2155.66425	12799.9625
2158.6212	12789.4625
2161.57625	12797.7625
2164.52941	12781.0625
2167.48067	12776.0625
2170.43004	12801.0625
2173.37752	12774.1625
2176.32311	12744.5625
2179.26681	12786.2625
2182.20863	12795.3625
2185.14856	12787.4625
2188.08661	12777.5625
2191.02278	12787.6625
2193.95707	12772.0625
2196.88948	12743.8625
2199.82001	12732.3625
2202.74867	12712.0625
2205.67545	12709.7625
2208.60037	12668.9625
2211.52341	12672.0625
2214.44458	12670.2625
2217.36388	12671.3625
2220.28132	12605.8625
2223.1969	12557.7625
2226.11061	12548.2625
2229.02246	12543.8625
2231.93245	12467.5625
2234.84058	12472.2625
2237.74686	12417.1625
2240.65128	12413.6625
2243.55385	12421.7625
2246.45456	12402.1625
2249.35343	12383.0625
2252.25044	12379.8625
2255.14561	12376.2625
2258.03893	12352.4625
2260.93041	12333.3625
2263.82004	12333.2625
2266.70783	12310.1625
2269.59378	12244.3625
2272.4779	12225.8625
2275.36017	12191.9625
2278.24061	12167.3625
2281.11922	12148.2625
2283.996	12115.8625
2286.87094	12101.7625
2289.74405	12083.1625
2292.61534	12088.1625
2295.4848	12041.6625
2298.35243	12026.3625
2301.21824	12034.3625
2304.08223	11997.4625
2306.94439	12014.1625
2309.80474	12031.4625
2312.66327	12031.1625
2315.51999	12026.9625
2318.37489	12004.4625
2321.22797	11988.0625
2324.07925	11993.3625
2326.92871	11955.5625
2329.77637	11923.5625
2332.62222	11935.2625
2335.46626	11924.0625
2338.3085	11931.6625
2341.14893	11919.9625
2343.98756	11946.4625
2346.8244	11975.2625
2349.65943	11963.3625
2352.49267	11971.9625
2355.32411	11980.3625
2358.15376	12006.5625
2360.98161	11994.5625
2363.80768	11970.3625
2366.63195	11987.2625
2369.45444	11975.9625
2372.27514	11966.3625
2375.09405	11950.8625
2377.91118	11919.2625
2380.72652	11862.9625
2383.54009	11827.8625
2386.35187	11795.2625
2389.16188	11743.4625
2391.97011	11706.0625
2394.77657	11675.3625
2397.58125	11657.5625
2400.38416	11605.7625
2403.18529	11596.0625
2405.98466	11555.2625
2408.78226	11535.7625
2411.57809	11520.6625
2414.37216	11512.8625
2417.16446	11483.7625
2419.955	11484.5625
2422.74378	11461.6625
2425.5308	11446.5625
2428.31606	11447.8625
2431.09956	11434.0625
2433.88131	11456.1625
2436.6613	11455.1625
2439.43954	11428.8625
2442.21603	11427.6625
2444.99077	11413.9625
2447.76377	11445.9625
2450.53501	11423.6625
2453.30451	11425.2625
2456.07226	11414.4625
2458.83827	11417.2625
2461.60254	11412.4625
2464.36507	11408.7625
2467.12586	11378.5625
2469.88492	11395.6625
2472.64224	11422.0625
2475.39782	11454.6625
2478.15167	11437.2625
2480.90379	11420.5625
2483.65417	11472.0625
2486.40283	11474.7625
2489.14976	11501.0625
2491.89497	11521.7625
2494.63845	11536.1625
2497.3802	11514.8625
2500.12024	11523.9625
2502.85855	11494.9625
2505.59514	11490.3625
2508.33002	11430.2625
2511.06318	11421.7625
2513.79462	11355.3625
2516.52435	11350.6625
2519.25237	11325.3625
2521.97867	11293.4625
2524.70327	11264.2625
2527.42616	11261.5625
2530.14734	11247.0625
2532.86681	11226.6625
2535.58458	11238.0625
2538.30065	11241.3625
2541.01501	11234.2625
2543.72768	11204.8625
2546.43864	11199.2625
2549.14791	11202.6625
2551.85548	11228.8625
2554.56136	11198.4625
2557.26554	11153.4625
2559.96803	11179.7625
2562.66883	11151.1625
2565.36794	11100.6625
2568.06536	11097.9625
2570.7611	11096.2625
2573.45514	11067.8625
2576.14751	11050.6625
2578.83819	11055.9625
2581.52719	11030.0625
2584.21451	11039.0625
2586.90015	11019.8625
2589.58411	11043.5625
2592.2664	11019.5625
2594.94701	11028.6625
2597.62594	11005.9625
2600.30321	11014.3625
2602.9788	11014.6625
2605.65273	11000.7625
2608.32498	11010.9625
2610.99557	11008.9625
2613.66449	10997.9625
2616.33175	10975.0625
2618.99734	11023.5625
2621.66128	11020.9625
2624.32355	10978.0625
2626.98416	10989.1625
2629.64311	10980.7625
2632.30041	10978.6625
2634.95605	10950.8625
2637.61004	10952.4625
2640.26238	10924.0625
2642.91306	10904.3625
2645.56209	10859.8625
2648.20948	10892.1625
2650.85521	10890.5625
2653.4993	10886.0625
2656.14175	10876.5625
2658.78255	10875.0625
2661.42171	10884.7625
2664.05923	10905.2625
2666.6951	10923.7625
2669.32934	10930.1625
2671.96194	10944.1625
2674.59291	10948.5625
2677.22224	10962.1625
2679.84993	10971.0625
2682.476	10966.1625
2685.10043	10953.8625
2687.72324	10934.7625
2690.34441	10914.1625
2692.96396	10919.9625
2695.58188	10918.0625
2698.19818	10919.4625
2700.81285	10920.9625
2703.4259	10925.4625
2706.03733	10946.3625
2708.64714	10939.6625
2711.25533	10928.9625
2713.86191	10925.1625
2716.46687	10930.6625
2719.07021	10939.7625
2721.67194	10974.4625
2724.27206	10928.9625
2726.87057	10950.7625
2729.46747	10975.6625
2732.06276	10944.5625
2734.65644	10971.7625
2737.24852	10941.3625
2739.83899	10899.5625
2742.42786	10939.3625
2745.01513	10891.9625
2747.60079	10891.0625
2750.18486	10875.5625
2752.76733	10867.0625
2755.3482	10827.7625
2757.92747	10816.1625
2760.50515	10837.5625
2763.08123	10836.9625
2765.65573	10845.4625
2768.22863	10830.8625
2770.79994	10797.7625
2773.36967	10804.0625
2775.9378	10772.8625
2778.50435	10797.1625
2781.06932	10797.3625
2783.6327	10804.9625
2786.1945	10802.3625
2788.75471	10819.6625
2791.31335	10763.8625
2793.87041	10765.1625
2796.42589	10707.9625
2798.97979	10729.9625
2801.53212	10718.2625
2804.08288	10684.2625
2806.63206	10641.2625
2809.17967	10667.3625
2811.72571	10625.4625
2814.27018	10665.3625
2816.81308	10623.0625
2819.35442	10620.7625
2821.89419	10618.4625
2824.43239	10649.5625
2826.96904	10672.0625
2829.50412	10691.1625
2832.03763	10640.1625
2834.56959	10633.4625
2837.1	10642.5625
2839.62884	10622.3625
2842.15613	10654.6625
2844.68186	10729.7625
2847.20604	10772.9625
2849.72867	10806.6625
2852.24974	10810.7625
2854.76927	10842.3625
2857.28724	10808.0625
2859.80367	10805.5625
2862.31855	10745.0625
2864.83189	10722.0625
2867.34368	10729.2625
2869.85393	10710.9625
2872.36264	10708.7625
2874.8698	10695.5625
2877.37543	10662.8625
2879.87952	10657.5625
2882.38207	10667.0625
2884.88308	10647.7625
2887.38256	10668.3625
2889.88051	10656.9625
2892.37692	10645.0625
2894.8718	10649.7625
2897.36515	10672.1625
2899.85698	10652.8625
2902.34727	10691.8625
2904.83604	10675.4625
2907.32328	10703.9625
2909.809	10701.8625
2912.29319	10700.8625
2914.77587	10712.9625
2917.25702	10723.2625
2919.73665	10693.3625
2922.21476	10682.7625
2924.69136	10649.2625
2927.16644	10663.1625
2929.64	10617.8625
2932.11205	10599.4625
2934.58258	10553.6625
2937.05161	10541.4625
2939.51912	10507.1625
2941.98513	10465.8625
2944.44962	10452.4625
2946.91261	10399.9625
2949.37409	10373.7625
2951.83407	10364.5625
2954.29254	10336.6625
2956.74951	10321.3625
2959.20498	10325.1625
2961.65895	10291.7625
2964.11142	10275.4625
2966.56239	10237.6625
2969.01186	10252.1625
2971.45984	10200.6625
2973.90632	10192.3625
2976.35131	10167.9625
2978.7948	10135.3625
2981.23681	10095.9625
2983.67732	10078.1625
2986.11635	10046.4625
2988.55388	10013.9625
2990.98993	10009.9625
2993.4245	9957.3625
2995.85758	9932.0625
2998.28917	9906.7625
3000.71928	9908.3625
3003.14791	9918.6625
3005.57506	9880.9625
3008.00073	9860.6625
3010.42493	9763.1625
3012.84764	9833.0625
3015.26888	9837.4625
3017.68865	9781.8625
3020.10694	9768.7625
3022.52376	9735.0625
3024.9391	9733.0625
