Data from AgNPs_FTO_APTES_UA_5uM_CRN_1000uM_R6G_10uM_NaF_0.1M_Addition_RamanShift__30__17-58-51-901.txt Node

Date: Mon Feb 07 17:58:51 GMT 2022
User: TCL
Spectrometer: QEP01345
Trigger mode: 4
Integration Time (sec): 7.000000E0
Scans to average: 10
Electric dark correction enabled: true
Nonlinearity correction enabled: false
Boxcar width: 0
XAxis mode: Raman Shifts
Number of Pixels in Spectrum: 1044
>>>>>Begin Spectral Data<<<<<
46.04893	-2.725
50.45542	1.375
54.85868	0.375
59.25871	-0.225
63.6555	31.575
68.04907	34.975
72.43941	40.775
76.82654	33.775
81.21044	37.575
85.59113	39.275
89.96862	42.875
94.34289	43.275
98.71396	43.875
103.08183	46.675
107.4465	48.775
111.80798	50.175
116.16626	47.075
120.52136	52.375
124.87327	49.975
129.222	55.875
133.56755	52.675
137.90993	59.875
142.24913	67.775
146.58517	72.275
150.91804	83.275
155.24774	99.875
159.57429	122.075
163.89768	150.675
168.21792	204.575
172.53501	270.875
176.84895	372.875
181.15975	523.975
185.46741	736.675
189.77193	1018.775
194.07331	1365.375
198.37157	1761.275
202.6667	2174.375
206.9587	2578.875
211.24758	3010.075
215.53334	3449.775
219.81599	3914.775
224.09553	4490.775
228.37195	5090.775
232.64527	5777.975
236.91549	6448.675
241.18261	7065.475
245.44663	7546.175
249.70755	7939.475
253.96539	8295.475
258.22014	8542.975
262.4718	8749.075
266.72039	8869.475
270.96589	8955.775
275.20832	8905.575
279.44768	8843.775
283.68397	8724.775
287.91719	8687.675
292.14735	8758.375
296.37445	8981.375
300.59849	9346.275
304.81948	9793.075
309.03742	10122.275
313.25231	10142.275
317.46415	9639.175
321.67296	8785.975
325.87872	8071.175
330.08145	7733.875
334.28114	7696.775
338.47781	7838.475
342.67145	8080.175
346.86207	8498.875
351.04966	9081.575
355.23424	9732.175
359.4158	10203.875
363.59435	10360.775
367.76989	10345.675
371.94243	10256.275
376.11196	10159.675
380.27849	9996.275
384.44203	9852.075
388.60257	9674.775
392.76012	9605.775
396.91468	9695.375
401.06626	10029.175
405.21485	10268.975
409.36047	10094.475
413.50311	9486.875
417.64277	8906.175
421.77947	8572.775
425.9132	8435.075
430.04396	8391.475
434.17176	8435.675
438.2966	8549.575
442.41849	8745.075
446.53742	8997.875
450.6534	9286.575
454.76644	9404.175
458.87653	9428.075
462.98368	9325.275
467.08789	9179.575
471.18916	8981.475
475.2875	8766.175
479.38291	8581.475
483.4754	8429.975
487.56496	8272.375
491.6516	8170.975
495.73531	8144.375
499.81612	8169.775
503.89401	8299.975
507.96899	8416.675
512.04106	8531.475
516.11023	8714.175
520.1765	8771.275
524.23987	8757.975
528.30034	8561.275
532.35792	8371.675
536.41261	8170.775
540.46441	7946.775
544.51333	7834.675
548.55936	7896.575
552.60252	8094.375
556.64279	8382.675
560.6802	8553.875
564.71473	8777.875
568.7464	9285.975
572.7752	9606.775
576.80114	9247.875
580.82422	8769.475
584.84444	8560.375
588.86181	8504.175
592.87633	8513.875
596.888	8589.875
600.89682	8855.075
604.9028	9926.375
608.90594	13006.675
612.90624	17431.775
616.90371	16957.875
620.89834	11337.575
624.89015	8629.875
628.87913	8120.075
632.86528	8165.775
636.84862	8339.275
640.82913	8207.675
644.80683	7792.075
648.78172	7488.175
652.75379	7526.075
656.72306	7911.175
660.68952	8410.175
664.65319	8341.375
668.61405	7863.475
672.57211	7618.675
676.52738	7595.875
680.47986	7623.375
684.42955	7541.975
688.37646	7480.975
692.32058	7495.075
696.26192	7586.175
700.20048	7682.075
704.13626	7804.475
708.06928	7772.675
711.99952	7674.675
715.927	7599.675
719.85171	7607.175
723.77365	7618.775
727.69284	7510.575
731.60928	7415.175
735.52295	7398.375
739.43388	7403.475
743.34206	7424.175
747.24749	7464.875
751.15017	7539.875
755.05012	7705.875
758.94733	8194.875
762.8418	9262.975
766.73354	11125.275
770.62254	13036.975
774.50882	14044.375
778.39237	13481.975
782.27321	11461.775
786.15132	9406.575
790.02671	8249.775
793.89938	7713.175
797.76935	7493.175
801.6366	7373.775
805.50115	7318.075
809.36299	7278.375
813.22213	7233.675
817.07857	7230.875
820.93231	7215.575
824.78336	7241.075
828.63172	7297.175
832.47738	7319.375
836.32036	7298.275
840.16066	7207.875
843.99827	7172.375
847.8332	7111.375
851.66546	7108.475
855.49504	7110.975
859.32195	7094.075
863.1462	7043.075
866.96777	7011.275
870.78668	6978.875
874.60293	6997.775
878.41652	7031.675
882.22745	7104.375
886.03573	7104.775
889.84136	7104.975
893.64433	7062.875
897.44466	7042.875
901.24235	7037.275
905.0374	7011.175
908.8298	6959.975
912.61957	6962.175
916.40671	6993.975
920.19121	7077.075
923.97308	7156.975
927.75233	7248.175
931.52895	7312.675
935.30295	7217.875
939.07433	6964.375
942.84309	6705.275
946.60924	6566.075
950.37278	6500.675
954.13371	6448.775
957.89203	6442.675
961.64774	6401.075
965.40086	6373.275
969.15137	6361.975
972.89929	6342.175
976.64461	6330.275
980.38733	6304.975
984.12747	6314.675
987.86502	6341.575
991.59999	6372.175
995.33237	6428.975
999.06217	6557.975
1002.78939	6707.375
1006.51404	6876.575
1010.23611	7050.275
1013.95561	7148.075
1017.67255	7093.675
1021.38692	6964.075
1025.09872	6842.575
1028.80796	6741.775
1032.51465	6745.975
1036.21877	6841.175
1039.92035	6944.175
1043.61937	7010.275
1047.31584	7035.075
1051.00976	7061.175
1054.70114	7059.675
1058.38998	7053.375
1062.07627	7104.275
1065.76003	7153.375
1069.44126	7223.675
1073.11995	7316.375
1076.79611	7413.975
1080.46974	7567.075
1084.14085	7767.575
1087.80943	8050.975
1091.47549	8142.975
1095.13903	7989.875
1098.80005	7646.175
1102.45857	7355.475
1106.11456	7231.275
1109.76805	7260.475
1113.41903	7435.775
1117.06751	7756.275
1120.71348	8201.675
1124.35696	8707.375
1127.99793	9127.175
1131.63641	8994.475
1135.2724	8443.775
1138.90589	7933.175
1142.5369	7633.675
1146.16542	7483.775
1149.79145	7383.775
1153.415	7398.775
1157.03607	7453.975
1160.65467	7665.375
1164.27079	7967.575
1167.88443	8477.375
1171.49561	9328.775
1175.10432	10714.875
1178.71056	12452.475
1182.31434	13608.975
1185.91565	13672.975
1189.51451	13162.975
1193.11091	12293.775
1196.70485	11312.775
1200.29634	10624.275
1203.88538	10060.675
1207.47197	9369.375
1211.05612	8757.075
1214.63782	8451.275
1218.21708	8337.675
1221.79391	8356.675
1225.36829	8367.975
1228.94024	8370.475
1232.50976	8385.875
1236.07685	8392.375
1239.6415	8370.675
1243.20374	8416.575
1246.76355	8449.475
1250.32093	8552.675
1253.8759	8729.875
1257.42845	8996.875
1260.97859	9298.275
1264.52631	9614.175
1268.07163	9922.575
1271.61453	10201.775
1275.15503	10342.275
1278.69312	10415.675
1282.22882	10444.375
1285.76211	10699.375
1289.29301	11134.675
1292.82151	11577.675
1296.34761	12054.175
1299.87133	12757.075
1303.39266	13971.975
1306.9116	15798.075
1310.42815	17857.675
1313.94233	18963.475
1317.45412	18413.875
1320.96354	16908.675
1324.47058	15370.775
1327.97525	14098.275
1331.47754	13318.575
1334.97747	13006.575
1338.47502	13067.775
1341.97022	13434.975
1345.46305	14047.175
1348.95352	14925.175
1352.44163	16143.975
1355.92738	18004.875
1359.41078	20873.475
1362.89183	23315.975
1366.37053	22348.275
1369.84688	18712.675
1373.32088	15236.875
1376.79254	13069.175
1380.26186	11911.475
1383.72883	11267.875
1387.19347	10822.575
1390.65578	10419.675
1394.11575	10104.475
1397.57339	9959.275
1401.0287	9995.075
1404.48168	10079.075
1407.93234	10142.975
1411.38068	10160.275
1414.82669	10066.475
1418.27039	9847.675
1421.71177	9563.475
1425.15083	9297.975
1428.58758	9128.675
1432.02203	9183.575
1435.45416	9228.875
1438.88399	9276.975
1442.31151	9274.275
1445.73673	9336.375
1449.15965	9419.975
1452.58027	9429.175
1455.9986	9378.575
1459.41463	9389.575
1462.82837	9579.375
1466.23982	9771.575
1469.64898	10017.575
1473.05586	10166.775
1476.46045	10250.275
1479.86276	10407.875
1483.26279	10633.175
1486.66054	10934.175
1490.05602	11357.975
1493.44922	11961.775
1496.84016	12885.275
1500.22882	14413.875
1503.61521	16495.675
1506.99934	18733.275
1510.38121	20870.075
1513.76081	21869.675
1517.13816	20612.775
1520.51324	17782.275
1523.88607	15033.175
1527.25665	13230.875
1530.62498	12228.975
1533.99105	11632.175
1537.35488	11297.475
1540.71647	11077.775
1544.07581	10922.675
1547.4329	10820.475
1550.78776	10760.675
1554.14038	10713.975
1557.49077	10802.575
1560.83892	11016.575
1564.18484	11381.775
1567.52853	11838.075
1570.86999	12167.175
1574.20922	12353.375
1577.54624	12224.475
1580.88103	11497.875
1584.2136	10549.375
1587.54395	10072.575
1590.87208	10143.975
1594.19801	10731.175
1597.52172	11518.875
1600.84321	11896.275
1604.16251	11428.275
1607.47959	10594.075
1610.79447	9707.075
1614.10715	8874.875
1617.41763	8212.275
1620.7259	7785.075
1624.03199	7599.175
1627.33587	7577.375
1630.63757	7740.275
1633.93707	8108.375
1637.23439	8732.675
1640.52951	9759.275
1643.82246	11262.875
1647.11321	13080.075
1650.40179	14376.375
1653.68819	14028.775
1656.97241	12060.875
1660.25446	9804.375
1663.53433	8193.675
1666.81203	7259.075
1670.08756	6718.475
1673.36092	6418.375
1676.63211	6213.775
1679.90115	6060.575
1683.16801	5960.775
1686.43272	5878.775
1689.69527	5792.875
1692.95567	5734.075
1696.2139	5689.575
1699.46999	5661.775
1702.72392	5641.775
1705.97571	5622.075
1709.22535	5619.375
1712.47284	5629.775
1715.71819	5631.375
1718.96139	5656.875
1722.20246	5614.775
1725.44139	5600.075
1728.67818	5553.175
1731.91284	5486.575
1735.14537	5456.475
1738.37576	5401.175
1741.60403	5368.675
1744.83017	5348.875
1748.05418	5317.475
1751.27607	5311.575
1754.49584	5290.775
1757.71349	5276.375
1760.92903	5267.875
1764.14244	5239.675
1767.35375	5237.775
1770.56294	5202.175
1773.77002	5186.675
1776.97499	5144.675
1780.17785	5129.875
1783.37861	5120.975
1786.57727	5119.475
1789.77382	5088.775
1792.96828	5088.675
1796.16064	5069.975
1799.3509	5062.875
1802.53907	5070.175
1805.72514	5036.175
1808.90913	5007.575
1812.09102	4994.375
1815.27083	4977.875
1818.44856	4962.175
1821.6242	4957.975
1824.79776	4934.675
1827.96924	4935.875
1831.13864	4921.075
1834.30597	4918.575
1837.47122	4889.575
1840.6344	4900.975
1843.7955	4886.075
1846.95454	4889.175
1850.11151	4890.775
1853.26642	4873.975
1856.41926	4864.075
1859.57004	4852.575
1862.71876	4864.275
1865.86542	4868.375
1869.01003	4851.275
1872.15258	4875.975
1875.29308	4855.575
1878.43152	4849.975
1881.56792	4845.175
1884.70227	4846.175
1887.83457	4847.775
1890.96482	4820.675
1894.09304	4833.975
1897.21921	4829.075
1900.34335	4813.875
1903.46544	4821.175
1906.58551	4847.075
1909.70353	4820.675
1912.81953	4812.675
1915.93349	4787.975
1919.04543	4805.275
1922.15534	4806.575
1925.26322	4790.675
1928.36908	4771.975
1931.47292	4758.275
1934.57473	4734.575
1937.67453	4704.775
1940.77232	4695.075
1943.86808	4669.775
1946.96184	4636.775
1950.05358	4611.475
1953.14331	4605.175
1956.23103	4578.875
1959.31675	4561.575
1962.40046	4558.075
1965.48217	4551.875
1968.56188	4540.475
1971.63959	4514.975
1974.7153	4516.875
1977.78901	4493.675
1980.86073	4478.775
1983.93046	4460.175
1986.99819	4432.275
1990.06394	4418.675
1993.1277	4417.375
1996.18947	4391.675
1999.24925	4386.775
2002.30706	4348.475
2005.36288	4334.775
2008.41672	4316.975
2011.46859	4306.475
2014.51848	4294.975
2017.56639	4289.075
2020.61233	4261.975
2023.6563	4258.675
2026.6983	4240.775
2029.73833	4204.275
2032.7764	4198.575
2035.8125	4213.375
2038.84664	4192.175
2041.87881	4200.475
2044.90903	4190.275
2047.93729	4170.675
2050.96359	4164.775
2053.98794	4153.675
2057.01034	4146.875
2060.03078	4144.675
2063.04927	4148.875
2066.06582	4131.675
2069.08042	4123.475
2072.09307	4121.175
2075.10378	4122.775
2078.11255	4088.875
2081.11938	4107.075
2084.12426	4095.775
2087.12722	4098.675
2090.12824	4099.275
2093.12732	4095.675
2096.12447	4097.375
2099.11969	4097.475
2102.11299	4096.775
2105.10435	4081.975
2108.09379	4080.475
2111.08131	4086.075
2114.0669	4084.775
2117.05057	4093.675
2120.03233	4098.275
2123.01216	4114.875
2125.99008	4096.975
2128.96609	4092.375
2131.94018	4109.075
2134.91236	4103.475
2137.88263	4104.175
2140.851	4114.375
2143.81746	4108.975
2146.78201	4092.675
2149.74466	4093.475
2152.7054	4075.375
2155.66425	4079.475
2158.6212	4060.775
2161.57625	4055.075
2164.52941	4061.375
2167.48067	4049.275
2170.43004	4051.975
2173.37752	4054.075
2176.32311	4057.575
2179.26681	4063.075
2182.20863	4061.875
2185.14856	4050.375
2188.08661	4046.775
2191.02278	4040.175
2193.95707	4025.575
2196.88948	4023.275
2199.82001	4004.775
2202.74867	3987.075
2205.67545	3984.075
2208.60037	4001.975
2211.52341	3980.975
2214.44458	3993.675
2217.36388	3967.175
2220.28132	3965.375
2223.1969	3927.975
2226.11061	3939.475
2229.02246	3919.675
2231.93245	3910.775
2234.84058	3905.075
2237.74686	3888.075
2240.65128	3889.575
2243.55385	3884.575
2246.45456	3887.175
2249.35343	3884.875
2252.25044	3892.575
2255.14561	3873.175
2258.03893	3871.675
2260.93041	3861.475
2263.82004	3858.675
2266.70783	3851.375
2269.59378	3838.575
2272.4779	3833.175
2275.36017	3816.575
2278.24061	3812.075
2281.11922	3795.375
2283.996	3793.575
2286.87094	3770.275
2289.74405	3773.375
2292.61534	3760.475
2295.4848	3750.275
2298.35243	3751.875
2301.21824	3742.375
2304.08223	3748.075
2306.94439	3750.975
2309.80474	3738.175
2312.66327	3723.675
2315.51999	3742.975
2318.37489	3750.075
2321.22797	3715.675
2324.07925	3708.975
2326.92871	3721.075
2329.77637	3697.475
2332.62222	3701.275
2335.46626	3696.675
2338.3085	3680.175
2341.14893	3687.975
2343.98756	3679.275
2346.8244	3671.775
2349.65943	3680.475
2352.49267	3686.775
2355.32411	3687.375
2358.15376	3693.575
2360.98161	3701.975
2363.80768	3712.675
2366.63195	3718.275
2369.45444	3723.775
2372.27514	3723.175
2375.09405	3696.275
2377.91118	3680.975
2380.72652	3676.575
2383.54009	3652.375
2386.35187	3653.675
2389.16188	3613.475
2391.97011	3607.075
2394.77657	3597.275
2397.58125	3579.475
2400.38416	3562.175
2403.18529	3547.375
2405.98466	3556.975
2408.78226	3552.175
2411.57809	3538.775
2414.37216	3533.075
2417.16446	3527.575
2419.955	3524.875
2422.74378	3526.775
2425.5308	3510.875
2428.31606	3516.075
2431.09956	3507.475
2433.88131	3518.975
2436.6613	3500.075
2439.43954	3508.875
2442.21603	3517.375
2444.99077	3503.275
2447.76377	3511.875
2450.53501	3513.175
2453.30451	3517.475
2456.07226	3490.575
2458.83827	3512.575
2461.60254	3497.075
2464.36507	3491.775
2467.12586	3492.975
2469.88492	3489.775
2472.64224	3504.875
2475.39782	3495.275
2478.15167	3479.475
2480.90379	3496.475
2483.65417	3516.275
2486.40283	3520.475
2489.14976	3526.475
2491.89497	3530.675
2494.63845	3519.375
2497.3802	3525.675
2500.12024	3520.675
2502.85855	3493.175
2505.59514	3491.575
2508.33002	3495.475
2511.06318	3482.575
2513.79462	3450.175
2516.52435	3431.975
2519.25237	3417.275
2521.97867	3403.275
2524.70327	3404.675
2527.42616	3397.975
2530.14734	3375.175
2532.86681	3388.175
2535.58458	3378.575
2538.30065	3379.275
2541.01501	3382.175
2543.72768	3376.775
2546.43864	3379.975
2549.14791	3360.975
2551.85548	3367.275
2554.56136	3354.375
2557.26554	3350.475
2559.96803	3350.675
2562.66883	3349.775
2565.36794	3327.475
2568.06536	3340.975
2570.7611	3338.175
2573.45514	3321.275
2576.14751	3321.775
2578.83819	3305.475
2581.52719	3308.075
2584.21451	3300.175
2586.90015	3297.175
2589.58411	3284.475
2592.2664	3277.875
2594.94701	3280.075
2597.62594	3266.875
2600.30321	3268.375
2602.9788	3275.875
2605.65273	3260.675
2608.32498	3267.675
2610.99557	3264.375
2613.66449	3278.175
2616.33175	3256.675
2618.99734	3258.475
2621.66128	3247.075
2624.32355	3235.075
2626.98416	3232.675
2629.64311	3232.975
2632.30041	3214.075
2634.95605	3219.175
2637.61004	3191.975
2640.26238	3209.075
2642.91306	3189.575
2645.56209	3176.675
2648.20948	3188.175
2650.85521	3193.575
2653.4993	3191.375
2656.14175	3189.575
2658.78255	3194.175
2661.42171	3196.975
2664.05923	3196.075
2666.6951	3207.275
2669.32934	3211.275
2671.96194	3214.875
2674.59291	3221.775
2677.22224	3211.675
2679.84993	3200.875
2682.476	3199.575
2685.10043	3197.375
2687.72324	3207.075
2690.34441	3212.975
2692.96396	3211.375
2695.58188	3212.975
2698.19818	3203.075
2700.81285	3213.775
2703.4259	3195.775
2706.03733	3204.275
2708.64714	3218.475
2711.25533	3217.375
2713.86191	3224.375
2716.46687	3234.875
2719.07021	3220.275
2721.67194	3237.575
2724.27206	3230.675
2726.87057	3222.275
2729.46747	3234.075
2732.06276	3212.275
2734.65644	3196.475
2737.24852	3192.075
2739.83899	3183.875
2742.42786	3182.275
2745.01513	3162.275
2747.60079	3167.075
2750.18486	3166.375
2752.76733	3160.775
2755.3482	3156.575
2757.92747	3162.775
2760.50515	3158.275
2763.08123	3132.675
2765.65573	3141.175
2768.22863	3134.175
2770.79994	3114.575
2773.36967	3132.775
2775.9378	3133.175
2778.50435	3129.375
2781.06932	3140.475
2783.6327	3137.675
2786.1945	3123.575
2788.75471	3139.375
2791.31335	3134.375
2793.87041	3128.575
2796.42589	3128.975
2798.97979	3137.875
2801.53212	3135.475
2804.08288	3131.775
2806.63206	3125.175
2809.17967	3123.275
2811.72571	3132.975
2814.27018	3149.875
2816.81308	3138.975
2819.35442	3147.475
2821.89419	3148.875
2824.43239	3156.375
2826.96904	3167.375
2829.50412	3174.075
2832.03763	3167.175
2834.56959	3177.475
2837.1	3186.775
2839.62884	3211.075
2842.15613	3237.175
2844.68186	3305.175
2847.20604	3367.475
2849.72867	3419.475
2852.24974	3447.875
2854.76927	3432.675
2857.28724	3421.575
2859.80367	3426.275
2862.31855	3393.975
2864.83189	3382.675
2867.34368	3368.275
2869.85393	3354.575
2872.36264	3364.575
2874.8698	3359.175
2877.37543	3358.175
2879.87952	3364.075
2882.38207	3358.175
2884.88308	3339.975
2887.38256	3341.875
2889.88051	3343.975
2892.37692	3345.475
2894.8718	3351.075
2897.36515	3358.775
2899.85698	3340.875
2902.34727	3359.875
2904.83604	3352.975
2907.32328	3353.175
2909.809	3348.375
2912.29319	3348.175
2914.77587	3348.675
2917.25702	3340.575
2919.73665	3324.475
2922.21476	3324.775
2924.69136	3329.975
2927.16644	3324.175
2929.64	3335.875
2932.11205	3306.875
2934.58258	3290.275
2937.05161	3279.975
2939.51912	3250.375
2941.98513	3229.075
2944.44962	3195.575
2946.91261	3162.775
2949.37409	3134.575
2951.83407	3120.375
2954.29254	3087.675
2956.74951	3077.775
2959.20498	3066.975
2961.65895	3047.275
2964.11142	3041.575
2966.56239	3021.775
2969.01186	3026.675
2971.45984	3003.075
2973.90632	2999.575
2976.35131	2978.075
2978.7948	2983.375
2981.23681	2963.475
2983.67732	2944.175
2986.11635	2938.075
2988.55388	2922.475
2990.98993	2911.075
2993.4245	2912.975
2995.85758	2904.075
2998.28917	2905.375
3000.71928	2901.175
3003.14791	2893.475
3005.57506	2880.775
3008.00073	2878.475
3010.42493	2964.975
3012.84764	2883.575
3015.26888	2877.575
3017.68865	2855.675
3020.10694	2859.175
3022.52376	2851.175
3024.9391	2844.775
3027.35298	2830.975
3029.76539	2840.075
3032.17632	2837.675
3034.5858	2810.675
3036.9938	2822.675
3039.40034	2824.375
3041.80542	2822.475
3044.20903	2809.575
3046.61118	2813.375
3049.01187	2803.675
3051.4111	2807.475
3053.80888	2799.475
3056.20519	2783.875
3058.60005	2783.075
3060.99345	2788.275
3063.3854	2780.175
3065.7759	2771.075
3068.16494	2764.575
3070.55254	2768.375
3072.93868	2761.975
3075.32338	2759.875
3077.70662	2735.475
3080.08842	2725.875
3082.46878	2731.675
3084.84769	2719.875
3087.22515	2709.275
3089.60118	2723.475
3091.97576	2716.875
3094.3489	2715.875
3096.72061	2706.175
3099.09087	2707.975
3101.4597	2706.675
3103.82709	2703.375
3106.19305	2709.275
3108.55757	2718.175
3110.92066	2691.475
3113.28232	2708.775
3115.64255	2689.775
3118.00134	2693.275
3120.35871	2681.475
3122.71466	2686.975
3125.06917	2683.375
3127.42226	2681.575
3129.77393	2679.575
3132.12417	2686.575
3134.47299	2698.475
3136.82039	2695.875
3139.16636	2696.975
3141.51092	2701.275
3143.85406	2692.975
3146.19579	2700.075
3148.53609	2700.375
3150.87499	2708.875
3153.21246	2729.275
3155.54853	2736.875
3157.88318	2723.075
3160.21642	2745.575
3162.54826	2739.375
3164.87868	2756.275
3167.2077	2737.175
3169.5353	2760.075
3171.86151	2747.475
3174.18631	2758.275
3176.5097	2749.575
3178.83169	2738.675
3181.15228	2750.375
3183.47147	2740.875
3185.78926	2747.575
3188.10565	2743.375
3190.42065	2753.875
3192.73424	2755.675
3195.04645	2754.275
3197.35725	2749.875
3199.66667	2754.875
3201.97469	2763.975
3204.28132	2769.375
3206.58656	2772.075
3208.8904	2761.175
3211.19287	2779.675
3213.49394	2786.875
3215.79363	2788.375
3218.09193	2786.475
3220.38884	2783.775
3222.68438	2790.075
