Data from AgNPs_FTO_APTES_UA_5uM_CRN_5uM_R6G_10uM_NaF_0.1M_Addition_RamanShift__32__12-22-06-709.txt Node

Date: Mon Feb 07 12:22:06 GMT 2022
User: TCL
Spectrometer: QEP01345
Trigger mode: 4
Integration Time (sec): 7.000000E0
Scans to average: 10
Electric dark correction enabled: true
Nonlinearity correction enabled: false
Boxcar width: 0
XAxis mode: Raman Shifts
Number of Pixels in Spectrum: 1044
>>>>>Begin Spectral Data<<<<<
46.04893	-0.2375
50.45542	-0.3375
54.85868	-0.7375
59.25871	0.8625
63.6555	48.9625
68.04907	55.1625
72.43941	60.9625
76.82654	61.6625
81.21044	61.1625
85.59113	69.4625
89.96862	71.6625
94.34289	70.7625
98.71396	71.8625
103.08183	76.7625
107.4465	79.2625
111.80798	77.5625
116.16626	81.4625
120.52136	81.4625
124.87327	89.3625
129.222	93.3625
133.56755	99.5625
137.90993	105.1625
142.24913	111.7625
146.58517	130.3625
150.91804	147.3625
155.24774	175.5625
159.57429	223.6625
163.89768	280.5625
168.21792	377.5625
172.53501	508.4625
176.84895	700.1625
181.15975	983.3625
185.46741	1374.9625
189.77193	1895.1625
194.07331	2526.6625
198.37157	3246.0625
202.6667	4009.5625
206.9587	4758.7625
211.24758	5526.0625
215.53334	6357.9625
219.81599	7297.6625
224.09553	8380.4625
228.37195	9609.2625
232.64527	10889.0625
236.91549	12137.9625
241.18261	13244.0625
245.44663	14047.5625
249.70755	14610.3625
253.96539	15043.7625
258.22014	15486.7625
262.4718	15913.8625
266.72039	16291.8625
270.96589	16509.4625
275.20832	16555.4625
279.44768	16427.2625
283.68397	16247.9625
287.91719	16184.6625
292.14735	16285.0625
296.37445	16766.4625
300.59849	17632.3625
304.81948	18699.2625
309.03742	19530.5625
313.25231	19530.6625
317.46415	18405.4625
321.67296	16496.5625
325.87872	14852.7625
330.08145	14029.3625
334.28114	13870.5625
338.47781	14119.1625
342.67145	14623.9625
346.86207	15484.4625
351.04966	16699.6625
355.23424	18144.3625
359.4158	19194.2625
363.59435	19655.7625
367.76989	19621.6625
371.94243	19373.3625
376.11196	19070.7625
380.27849	18814.2625
384.44203	18421.3625
388.60257	17975.0625
392.76012	17771.5625
396.91468	17958.3625
401.06626	18530.9625
405.21485	19037.0625
409.36047	18569.6625
413.50311	17186.9625
417.64277	15875.9625
421.77947	15122.4625
425.9132	14801.0625
430.04396	14707.2625
434.17176	14715.2625
438.2966	14882.6625
442.41849	15279.1625
446.53742	15782.6625
450.6534	16300.6625
454.76644	16617.9625
458.87653	16600.5625
462.98368	16409.9625
467.08789	16133.4625
471.18916	15694.1625
475.2875	15184.4625
479.38291	14802.8625
483.4754	14461.5625
487.56496	14164.6625
491.6516	14016.7625
495.73531	13937.2625
499.81612	14055.5625
503.89401	14292.5625
507.96899	14584.2625
512.04106	14842.0625
516.11023	15148.5625
520.1765	15311.4625
524.23987	15181.0625
528.30034	14733.7625
532.35792	14268.5625
536.41261	13812.3625
540.46441	13336.7625
544.51333	13080.5625
548.55936	13253.0625
552.60252	13715.0625
556.64279	14350.4625
560.6802	14671.7625
564.71473	15083.1625
568.7464	16056.8625
572.7752	16791.1625
576.80114	16176.1625
580.82422	15292.7625
584.84444	14899.9625
588.86181	14669.6625
592.87633	14553.3625
596.888	14713.6625
600.89682	15442.9625
604.9028	17984.7625
608.90594	25043.9625
612.90624	34841.2625
616.90371	33743.0625
620.89834	21130.3625
624.89015	14911.8625
628.87913	13773.7625
632.86528	13942.3625
636.84862	14337.1625
640.82913	14092.6625
644.80683	13121.3625
648.78172	12469.3625
652.75379	12499.9625
656.72306	13348.3625
660.68952	14467.6625
664.65319	14322.2625
668.61405	13166.2625
672.57211	12540.4625
676.52738	12468.2625
680.47986	12460.9625
684.42955	12259.8625
688.37646	12147.8625
692.32058	12216.4625
696.26192	12373.6625
700.20048	12639.3625
704.13626	12843.4625
708.06928	12891.9625
711.99952	12745.5625
715.927	12637.7625
719.85171	12683.0625
723.77365	12650.5625
727.69284	12449.2625
731.60928	12236.0625
735.52295	12173.3625
739.43388	12205.9625
743.34206	12295.7625
747.24749	12393.3625
751.15017	12608.7625
755.05012	12998.1625
758.94733	14001.7625
762.8418	16409.6625
766.73354	20588.7625
770.62254	24992.4625
774.50882	27043.9625
778.39237	25484.9625
782.27321	21109.5625
786.15132	16742.2625
790.02671	14171.5625
793.89938	13000.7625
797.76935	12502.6625
801.6366	12278.9625
805.50115	12123.7625
809.36299	12002.6625
813.22213	11912.1625
817.07857	11848.1625
820.93231	11862.1625
824.78336	11893.7625
828.63172	11987.1625
832.47738	12068.5625
836.32036	12002.4625
840.16066	11869.0625
843.99827	11743.0625
847.8332	11679.8625
851.66546	11608.4625
855.49504	11633.6625
859.32195	11581.2625
863.1462	11455.7625
866.96777	11402.0625
870.78668	11361.3625
874.60293	11379.1625
878.41652	11440.7625
882.22745	11550.0625
886.03573	11645.7625
889.84136	11613.5625
893.64433	11474.3625
897.44466	11458.5625
901.24235	11473.3625
905.0374	11428.3625
908.8298	11364.4625
912.61957	11357.8625
916.40671	11447.0625
920.19121	11646.2625
923.97308	11824.2625
927.75233	11992.0625
931.52895	12146.0625
935.30295	11964.2625
939.07433	11358.7625
942.84309	10908.2625
946.60924	10601.5625
950.37278	10444.0625
954.13371	10376.4625
957.89203	10292.1625
961.64774	10277.0625
965.40086	10210.6625
969.15137	10193.3625
972.89929	10158.5625
976.64461	10136.5625
980.38733	10125.8625
984.12747	10136.7625
987.86502	10215.6625
991.59999	10312.2625
995.33237	10431.9625
999.06217	10731.5625
1002.78939	11120.2625
1006.51404	11540.1625
1010.23611	11968.1625
1013.95561	12182.8625
1017.67255	12060.4625
1021.38692	11791.6625
1025.09872	11505.8625
1028.80796	11299.7625
1032.51465	11355.9625
1036.21877	11547.1625
1039.92035	11732.3625
1043.61937	11825.2625
1047.31584	11826.5625
1051.00976	11766.0625
1054.70114	11698.1625
1058.38998	11654.9625
1062.07627	11770.2625
1065.76003	11937.0625
1069.44126	12077.7625
1073.11995	12288.1625
1076.79611	12531.3625
1080.46974	12831.0625
1084.14085	13366.9625
1087.80943	13988.5625
1091.47549	14295.3625
1095.13903	13974.8625
1098.80005	13246.5625
1102.45857	12592.9625
1106.11456	12237.2625
1109.76805	12235.1625
1113.41903	12616.4625
1117.06751	13204.0625
1120.71348	14100.7625
1124.35696	15070.9625
1127.99793	15970.5625
1131.63641	15901.3625
1135.2724	14805.8625
1138.90589	13728.5625
1142.5369	13089.7625
1146.16542	12717.2625
1149.79145	12500.5625
1153.415	12526.5625
1157.03607	12724.7625
1160.65467	13159.1625
1164.27079	13896.2625
1167.88443	15059.3625
1171.49561	16959.1625
1175.10432	20084.2625
1178.71056	24160.1625
1182.31434	26987.5625
1185.91565	27363.7625
1189.51451	26231.8625
1193.11091	24090.6625
1196.70485	21532.2625
1200.29634	19675.7625
1203.88538	18350.4625
1207.47197	16816.4625
1211.05612	15463.2625
1214.63782	14707.3625
1218.21708	14412.0625
1221.79391	14455.3625
1225.36829	14590.8625
1228.94024	14732.2625
1232.50976	14844.1625
1236.07685	14925.6625
1239.6415	14860.8625
1243.20374	14830.1625
1246.76355	14879.0625
1250.32093	15079.5625
1253.8759	15509.4625
1257.42845	16142.0625
1260.97859	16920.9625
1264.52631	17673.5625
1268.07163	18493.6625
1271.61453	19195.5625
1275.15503	19724.1625
1278.69312	19922.6625
1282.22882	19991.0625
1285.76211	20609.2625
1289.29301	21499.7625
1292.82151	22454.3625
1296.34761	23462.0625
1299.87133	24952.0625
1303.39266	27468.6625
1306.9116	31541.8625
1310.42815	36362.4625
1313.94233	39502.3625
1317.45412	38993.5625
1320.96354	35966.5625
1324.47058	32332.4625
1327.97525	29222.0625
1331.47754	27233.6625
1334.97747	26282.1625
1338.47502	26118.3625
1341.97022	26616.5625
1345.46305	27594.2625
1348.95352	29423.1625
1352.44163	32021.7625
1355.92738	36011.2625
1359.41078	42418.3625
1362.89183	49220.4625
1366.37053	48514.1625
1369.84688	39998.4625
1373.32088	31259.6625
1376.79254	25805.5625
1380.26186	23208.5625
1383.72883	21951.1625
1387.19347	20964.3625
1390.65578	19917.4625
1394.11575	19066.7625
1397.57339	18675.9625
1401.0287	18746.5625
1404.48168	18990.5625
1407.93234	19277.2625
1411.38068	19345.5625
1414.82669	19149.2625
1418.27039	18675.2625
1421.71177	18086.7625
1425.15083	17491.9625
1428.58758	17044.0625
1432.02203	16985.4625
1435.45416	17224.7625
1438.88399	17357.6625
1442.31151	17409.6625
1445.73673	17616.3625
1449.15965	17854.5625
1452.58027	17844.1625
1455.9986	17728.0625
1459.41463	17690.1625
1462.82837	17901.5625
1466.23982	18381.9625
1469.64898	18922.6625
1473.05586	19308.8625
1476.46045	19570.5625
1479.86276	19992.3625
1483.26279	20561.0625
1486.66054	21294.4625
1490.05602	22240.3625
1493.44922	23514.1625
1496.84016	25628.4625
1500.22882	28955.7625
1503.61521	33476.7625
1506.99934	38827.2625
1510.38121	44033.9625
1513.76081	47039.6625
1517.13816	45111.1625
1520.51324	39043.5625
1523.88607	32395.9625
1527.25665	27652.0625
1530.62498	24846.6625
1533.99105	23108.1625
1537.35488	21995.6625
1540.71647	21223.6625
1544.07581	20744.4625
1547.4329	20402.8625
1550.78776	20171.1625
1554.14038	20156.6625
1557.49077	20395.2625
1560.83892	21072.6625
1564.18484	21984.8625
1567.52853	23013.3625
1570.86999	23808.7625
1574.20922	24279.2625
1577.54624	24125.8625
1580.88103	22595.1625
1584.2136	20492.5625
1587.54395	19395.4625
1590.87208	19629.2625
1594.19801	20968.8625
1597.52172	22813.3625
1600.84321	23480.8625
1604.16251	22222.3625
1607.47959	20277.4625
1610.79447	18349.5625
1614.10715	16495.6625
1617.41763	15034.8625
1620.7259	14063.9625
1624.03199	13667.4625
1627.33587	13702.7625
1630.63757	14165.8625
1633.93707	15178.2625
1637.23439	16777.8625
1640.52951	19182.6625
1643.82246	22458.9625
1647.11321	26552.8625
1650.40179	29818.4625
1653.68819	29474.7625
1656.97241	24987.7625
1660.25446	19498.5625
1663.53433	15494.6625
1666.81203	13117.6625
1670.08756	11750.0625
1673.36092	10937.3625
1676.63211	10469.2625
1679.90115	10145.6625
1683.16801	9911.4625
1686.43272	9732.9625
1689.69527	9581.7625
1692.95567	9493.3625
1696.2139	9439.0625
1699.46999	9385.9625
1702.72392	9349.5625
1705.97571	9309.8625
1709.22535	9307.5625
1712.47284	9339.8625
1715.71819	9303.9625
1718.96139	9346.1625
1722.20246	9300.2625
1725.44139	9241.1625
1728.67818	9150.3625
1731.91284	9017.8625
1735.14537	8897.5625
1738.37576	8830.3625
1741.60403	8757.0625
1744.83017	8721.7625
1748.05418	8675.9625
1751.27607	8635.1625
1754.49584	8608.1625
1757.71349	8602.3625
1760.92903	8555.6625
1764.14244	8552.1625
1767.35375	8526.1625
1770.56294	8485.4625
1773.77002	8438.8625
1776.97499	8389.6625
1780.17785	8355.2625
1783.37861	8330.9625
1786.57727	8299.3625
1789.77382	8268.4625
1792.96828	8249.0625
1796.16064	8236.8625
1799.3509	8241.8625
1802.53907	8213.4625
1805.72514	8176.7625
1808.90913	8145.5625
1812.09102	8103.2625
1815.27083	8072.6625
1818.44856	8058.2625
1821.6242	8029.1625
1824.79776	8006.7625
1827.96924	7989.9625
1831.13864	7968.3625
1834.30597	7986.2625
1837.47122	7960.3625
1840.6344	7959.5625
1843.7955	7954.8625
1846.95454	7951.9625
1850.11151	7947.3625
1853.26642	7940.0625
1856.41926	7957.2625
1859.57004	7955.4625
1862.71876	7947.6625
1865.86542	7951.9625
1869.01003	7975.8625
1872.15258	7990.4625
1875.29308	8001.5625
1878.43152	8028.0625
1881.56792	8031.7625
1884.70227	8061.6625
1887.83457	8081.2625
1890.96482	8091.5625
1894.09304	8076.8625
1897.21921	8092.9625
1900.34335	8082.6625
1903.46544	8085.8625
1906.58551	8098.1625
1909.70353	8113.8625
1912.81953	8101.6625
1915.93349	8109.9625
1919.04543	8094.5625
1922.15534	8081.0625
1925.26322	8048.4625
1928.36908	8010.3625
1931.47292	7948.3625
1934.57473	7875.2625
1937.67453	7792.1625
1940.77232	7722.0625
1943.86808	7672.7625
1946.96184	7626.1625
1950.05358	7578.6625
1953.14331	7525.1625
1956.23103	7485.0625
1959.31675	7460.2625
1962.40046	7434.8625
1965.48217	7393.0625
1968.56188	7398.9625
1971.63959	7377.0625
1974.7153	7353.1625
1977.78901	7316.5625
1980.86073	7271.7625
1983.93046	7251.8625
1986.99819	7210.6625
1990.06394	7167.8625
1993.1277	7158.5625
1996.18947	7131.4625
1999.24925	7097.1625
2002.30706	7078.7625
2005.36288	7044.8625
2008.41672	7020.2625
2011.46859	6997.0625
2014.51848	6974.5625
2017.56639	6956.5625
2020.61233	6933.6625
2023.6563	6905.9625
2026.6983	6884.0625
2029.73833	6862.6625
2032.7764	6842.5625
2035.8125	6814.3625
2038.84664	6814.8625
2041.87881	6775.2625
2044.90903	6765.1625
2047.93729	6764.7625
2050.96359	6741.5625
2053.98794	6722.3625
2057.01034	6721.6625
2060.03078	6731.9625
2063.04927	6705.5625
2066.06582	6697.4625
2069.08042	6691.5625
2072.09307	6686.5625
2075.10378	6659.4625
2078.11255	6662.2625
2081.11938	6647.2625
2084.12426	6637.1625
2087.12722	6651.0625
2090.12824	6630.3625
2093.12732	6626.8625
2096.12447	6603.3625
2099.11969	6634.7625
2102.11299	6635.7625
2105.10435	6612.4625
2108.09379	6605.3625
2111.08131	6609.6625
2114.0669	6608.9625
2117.05057	6609.5625
2120.03233	6623.1625
2123.01216	6622.9625
2125.99008	6633.7625
2128.96609	6664.5625
2131.94018	6641.4625
2134.91236	6640.6625
2137.88263	6632.2625
2140.851	6628.7625
2143.81746	6627.1625
2146.78201	6616.3625
2149.74466	6601.3625
2152.7054	6593.6625
2155.66425	6574.7625
2158.6212	6574.2625
2161.57625	6556.9625
2164.52941	6552.9625
2167.48067	6545.7625
2170.43004	6556.6625
2173.37752	6531.6625
2176.32311	6530.3625
2179.26681	6522.2625
2182.20863	6533.4625
2185.14856	6532.6625
2188.08661	6544.0625
2191.02278	6532.3625
2193.95707	6517.8625
2196.88948	6509.4625
2199.82001	6497.1625
2202.74867	6494.3625
2205.67545	6481.0625
2208.60037	6459.4625
2211.52341	6476.2625
2214.44458	6461.6625
2217.36388	6418.4625
2220.28132	6425.6625
2223.1969	6383.6625
2226.11061	6371.6625
2229.02246	6354.8625
2231.93245	6367.8625
2234.84058	6345.8625
2237.74686	6320.9625
2240.65128	6304.7625
2243.55385	6295.8625
2246.45456	6297.1625
2249.35343	6284.9625
2252.25044	6290.5625
2255.14561	6281.5625
2258.03893	6297.6625
2260.93041	6304.7625
2263.82004	6287.7625
2266.70783	6251.8625
2269.59378	6250.4625
2272.4779	6241.1625
2275.36017	6221.0625
2278.24061	6191.4625
2281.11922	6173.9625
2283.996	6171.6625
2286.87094	6140.8625
2289.74405	6151.5625
2292.61534	6114.1625
2295.4848	6088.7625
2298.35243	6104.5625
2301.21824	6093.0625
2304.08223	6093.5625
2306.94439	6064.0625
2309.80474	6100.6625
2312.66327	6070.0625
2315.51999	6051.9625
2318.37489	6061.8625
2321.22797	6046.5625
2324.07925	6041.7625
2326.92871	6053.5625
2329.77637	6028.0625
2332.62222	6011.3625
2335.46626	6020.8625
2338.3085	6021.1625
2341.14893	6033.4625
2343.98756	6033.8625
2346.8244	6025.5625
2349.65943	6071.4625
2352.49267	6061.9625
2355.32411	6075.0625
2358.15376	6093.3625
2360.98161	6107.6625
2363.80768	6120.8625
2366.63195	6133.3625
2369.45444	6154.8625
2372.27514	6148.1625
2375.09405	6152.5625
2377.91118	6099.4625
2380.72652	6068.8625
2383.54009	6013.9625
2386.35187	5992.4625
2389.16188	5940.3625
2391.97011	5933.6625
2394.77657	5901.1625
2397.58125	5869.4625
2400.38416	5865.1625
2403.18529	5830.8625
2405.98466	5844.8625
2408.78226	5811.7625
2411.57809	5807.3625
2414.37216	5786.9625
2417.16446	5798.8625
2419.955	5780.0625
2422.74378	5803.5625
2425.5308	5763.3625
2428.31606	5786.2625
2431.09956	5771.7625
2433.88131	5769.8625
2436.6613	5797.1625
2439.43954	5791.0625
2442.21603	5792.9625
2444.99077	5793.3625
2447.76377	5792.5625
2450.53501	5807.5625
2453.30451	5809.2625
2456.07226	5789.6625
2458.83827	5807.0625
2461.60254	5799.7625
2464.36507	5801.6625
2467.12586	5804.5625
2469.88492	5791.0625
2472.64224	5801.8625
2475.39782	5806.4625
2478.15167	5839.0625
2480.90379	5853.7625
2483.65417	5869.3625
2486.40283	5895.2625
2489.14976	5915.9625
2491.89497	5928.8625
2494.63845	5936.1625
2497.3802	5919.3625
2500.12024	5932.3625
2502.85855	5900.7625
2505.59514	5878.5625
2508.33002	5834.8625
2511.06318	5822.5625
2513.79462	5764.7625
2516.52435	5744.5625
2519.25237	5715.6625
2521.97867	5706.5625
2524.70327	5672.0625
2527.42616	5653.0625
2530.14734	5649.6625
2532.86681	5650.9625
2535.58458	5663.4625
2538.30065	5635.2625
2541.01501	5637.8625
2543.72768	5635.8625
2546.43864	5654.1625
2549.14791	5633.8625
2551.85548	5645.2625
2554.56136	5635.1625
2557.26554	5627.6625
2559.96803	5640.6625
2562.66883	5619.2625
2565.36794	5607.8625
2568.06536	5599.2625
2570.7611	5583.1625
2573.45514	5581.2625
2576.14751	5565.6625
2578.83819	5546.9625
2581.52719	5562.9625
2584.21451	5540.4625
2586.90015	5548.6625
2589.58411	5529.2625
2592.2664	5545.3625
2594.94701	5537.1625
2597.62594	5528.8625
2600.30321	5516.3625
2602.9788	5503.2625
2605.65273	5523.1625
2608.32498	5523.0625
2610.99557	5525.5625
2613.66449	5536.6625
2616.33175	5524.1625
2618.99734	5525.5625
2621.66128	5530.5625
2624.32355	5511.0625
2626.98416	5510.1625
2629.64311	5493.4625
2632.30041	5493.4625
2634.95605	5468.4625
2637.61004	5447.7625
2640.26238	5452.9625
2642.91306	5435.7625
2645.56209	5440.0625
2648.20948	5433.1625
2650.85521	5430.8625
2653.4993	5433.1625
2656.14175	5427.7625
2658.78255	5436.4625
2661.42171	5462.9625
2664.05923	5449.1625
2666.6951	5459.4625
2669.32934	5487.8625
2671.96194	5494.4625
2674.59291	5493.8625
2677.22224	5499.2625
2679.84993	5503.2625
2682.476	5475.5625
2685.10043	5488.2625
2687.72324	5482.8625
2690.34441	5471.6625
2692.96396	5461.5625
2695.58188	5479.4625
2698.19818	5456.8625
2700.81285	5459.0625
2703.4259	5488.5625
2706.03733	5513.5625
2708.64714	5487.4625
2711.25533	5478.3625
2713.86191	5479.8625
2716.46687	5506.3625
2719.07021	5496.3625
2721.67194	5519.8625
2724.27206	5506.7625
2726.87057	5510.7625
2729.46747	5510.4625
2732.06276	5503.6625
2734.65644	5481.9625
2737.24852	5490.2625
2739.83899	5452.9625
2742.42786	5473.3625
2745.01513	5451.5625
2747.60079	5424.5625
2750.18486	5438.0625
2752.76733	5407.2625
2755.3482	5413.7625
2757.92747	5413.8625
2760.50515	5383.4625
2763.08123	5396.3625
2765.65573	5381.1625
2768.22863	5379.8625
2770.79994	5368.3625
2773.36967	5362.7625
2775.9378	5348.3625
2778.50435	5364.6625
2781.06932	5344.5625
2783.6327	5359.1625
2786.1945	5369.7625
2788.75471	5368.8625
2791.31335	5360.3625
2793.87041	5364.8625
2796.42589	5339.3625
2798.97979	5346.1625
2801.53212	5352.7625
2804.08288	5357.0625
2806.63206	5346.9625
2809.17967	5357.7625
2811.72571	5349.1625
2814.27018	5364.0625
2816.81308	5361.8625
2819.35442	5365.0625
2821.89419	5371.5625
2824.43239	5389.5625
2826.96904	5407.6625
2829.50412	5437.2625
2832.03763	5423.6625
2834.56959	5427.6625
2837.1	5402.8625
2839.62884	5424.4625
2842.15613	5458.8625
2844.68186	5552.8625
2847.20604	5595.8625
2849.72867	5650.6625
2852.24974	5664.8625
2854.76927	5676.0625
2857.28724	5660.4625
2859.80367	5649.0625
2862.31855	5632.4625
2864.83189	5603.6625
2867.34368	5608.2625
2869.85393	5615.3625
2872.36264	5614.2625
2874.8698	5615.6625
2877.37543	5610.8625
2879.87952	5596.4625
2882.38207	5573.2625
2884.88308	5568.7625
2887.38256	5555.8625
2889.88051	5560.5625
2892.37692	5533.2625
2894.8718	5550.4625
2897.36515	5554.1625
2899.85698	5538.6625
2902.34727	5561.0625
2904.83604	5577.2625
2907.32328	5591.5625
2909.809	5579.7625
2912.29319	5582.7625
2914.77587	5586.0625
2917.25702	5584.4625
2919.73665	5578.7625
2922.21476	5584.2625
2924.69136	5573.6625
2927.16644	5556.9625
2929.64	5530.4625
2932.11205	5516.9625
2934.58258	5470.7625
2937.05161	5474.1625
2939.51912	5442.4625
2941.98513	5402.1625
2944.44962	5358.7625
2946.91261	5313.4625
2949.37409	5281.4625
2951.83407	5279.5625
2954.29254	5258.5625
2956.74951	5237.6625
2959.20498	5223.4625
2961.65895	5213.0625
2964.11142	5210.4625
2966.56239	5184.0625
2969.01186	5155.2625
2971.45984	5147.7625
2973.90632	5133.2625
2976.35131	5106.8625
2978.7948	5110.0625
2981.23681	5082.7625
2983.67732	5067.9625
2986.11635	5049.5625
2988.55388	5038.5625
2990.98993	5016.3625
2993.4245	4995.7625
2995.85758	4974.1625
2998.28917	4969.9625
3000.71928	4964.5625
3003.14791	4957.2625
3005.57506	4948.4625
3008.00073	4934.0625
3010.42493	4850.8625
3012.84764	4915.2625
3015.26888	4922.4625
3017.68865	4901.5625
3020.10694	4906.6625
3022.52376	4888.1625
3024.9391	4883.6625
3027.35298	4866.1625
3029.76539	4855.0625
3032.17632	4852.2625
3034.5858	4836.2625
3036.9938	4825.2625
3039.40034	4823.5625
3041.80542	4811.8625
3044.20903	4814.0625
3046.61118	4798.0625
3049.01187	4780.0625
3051.4111	4793.0625
3053.80888	4767.6625
3056.20519	4762.7625
3058.60005	4763.5625
3060.99345	4738.5625
3063.3854	4714.6625
3065.7759	4710.4625
3068.16494	4690.1625
3070.55254	4688.8625
3072.93868	4677.8625
3075.32338	4641.8625
3077.70662	4635.1625
3080.08842	4620.2625
