Data from AgNPs_FTO_APTES_UA_5uM_CRN_5uM_R6G_10uM_NaF_0.1M_Addition_RamanShift__27__12-16-16-703.txt Node

Date: Mon Feb 07 12:16:16 GMT 2022
User: TCL
Spectrometer: QEP01345
Trigger mode: 4
Integration Time (sec): 7.000000E0
Scans to average: 10
Electric dark correction enabled: true
Nonlinearity correction enabled: false
Boxcar width: 0
XAxis mode: Raman Shifts
Number of Pixels in Spectrum: 1044
>>>>>Begin Spectral Data<<<<<
46.04893	-0.425
50.45542	-0.825
54.85868	-1.125
59.25871	0.075
63.6555	84.575
68.04907	85.475
72.43941	92.175
76.82654	98.675
81.21044	100.575
85.59113	104.975
89.96862	112.675
94.34289	109.775
98.71396	114.475
103.08183	118.075
107.4465	121.275
111.80798	123.675
116.16626	129.575
120.52136	131.875
124.87327	141.475
129.222	152.675
133.56755	161.575
137.90993	175.175
142.24913	197.575
146.58517	223.475
150.91804	256.975
155.24774	312.875
159.57429	391.875
163.89768	511.375
168.21792	689.475
172.53501	936.575
176.84895	1297.275
181.15975	1837.075
185.46741	2581.275
189.77193	3541.775
194.07331	4718.675
198.37157	6080.375
202.6667	7476.775
206.9587	8912.775
211.24758	10295.075
215.53334	11759.675
219.81599	13380.575
224.09553	15240.575
228.37195	17318.575
232.64527	19505.775
236.91549	21737.075
241.18261	23771.775
245.44663	25509.175
249.70755	26950.775
253.96539	28191.775
258.22014	29300.875
262.4718	30360.475
266.72039	31137.175
270.96589	31618.575
275.20832	31861.175
279.44768	31793.775
283.68397	31666.375
287.91719	31646.775
292.14735	31834.075
296.37445	32328.875
300.59849	33000.575
304.81948	33900.375
309.03742	34470.675
313.25231	34085.375
317.46415	32580.075
321.67296	30245.575
325.87872	28255.375
330.08145	27277.475
334.28114	27084.175
338.47781	27443.875
342.67145	28111.675
346.86207	29116.175
351.04966	30572.175
355.23424	32218.875
359.4158	33433.975
363.59435	33990.975
367.76989	34009.275
371.94243	33817.975
376.11196	33628.775
380.27849	33458.975
384.44203	33187.875
388.60257	32909.175
392.76012	32881.775
396.91468	33310.275
401.06626	34166.275
405.21485	34864.375
409.36047	34318.675
413.50311	32828.775
417.64277	31396.975
421.77947	30703.975
425.9132	30626.375
430.04396	30662.375
434.17176	30791.675
438.2966	31120.575
442.41849	31739.475
446.53742	32706.175
450.6534	33812.775
454.76644	34556.775
458.87653	34796.375
462.98368	34623.175
467.08789	34177.775
471.18916	33530.075
475.2875	32887.275
479.38291	32454.175
483.4754	32015.875
487.56496	31456.175
491.6516	30874.775
495.73531	30464.575
499.81612	30319.675
503.89401	30562.275
507.96899	30814.075
512.04106	30918.975
516.11023	30990.575
520.1765	30939.375
524.23987	30645.775
528.30034	30050.975
532.35792	29452.075
536.41261	28832.375
540.46441	28279.775
544.51333	28171.675
548.55936	28596.275
552.60252	29595.875
556.64279	30666.475
560.6802	31305.375
564.71473	31885.875
568.7464	33187.275
572.7752	34399.175
576.80114	34168.375
580.82422	33550.375
584.84444	33272.375
588.86181	33119.375
592.87633	33180.475
596.888	33563.475
600.89682	34364.375
604.9028	37437.075
608.90594	45663.875
612.90624	56282.075
616.90371	53544.375
620.89834	38261.975
624.89015	31117.475
628.87913	29955.975
632.86528	30108.275
636.84862	30265.575
640.82913	29528.575
644.80683	28033.375
648.78172	27011.775
652.75379	26985.375
656.72306	27932.875
660.68952	29294.775
664.65319	29182.775
668.61405	27951.075
672.57211	27257.175
676.52738	27209.775
680.47986	27169.075
684.42955	26941.675
688.37646	26798.575
692.32058	26947.075
696.26192	27274.275
700.20048	27704.275
704.13626	28097.175
708.06928	28110.675
711.99952	27854.475
715.927	27673.775
719.85171	27658.775
723.77365	27555.575
727.69284	27105.075
731.60928	26709.875
735.52295	26591.775
739.43388	26666.475
743.34206	26790.275
747.24749	27063.175
751.15017	27417.375
755.05012	28145.775
758.94733	29685.975
762.8418	32948.675
766.73354	38384.575
770.62254	43870.175
774.50882	45798.675
778.39237	42809.475
782.27321	37039.575
786.15132	31919.175
790.02671	28886.475
793.89938	27456.575
797.76935	26857.675
801.6366	26597.475
805.50115	26377.575
809.36299	26201.075
813.22213	26029.775
817.07857	25983.175
820.93231	25942.575
824.78336	25994.875
828.63172	26076.075
832.47738	26092.675
836.32036	26057.675
840.16066	26000.575
843.99827	25972.775
847.8332	25846.275
851.66546	25695.375
855.49504	25614.875
859.32195	25534.475
863.1462	25348.575
866.96777	25233.875
870.78668	25144.375
874.60293	25157.775
878.41652	25202.675
882.22745	25356.775
886.03573	25439.075
889.84136	25404.975
893.64433	25248.675
897.44466	25150.575
901.24235	25115.475
905.0374	25054.175
908.8298	24977.375
912.61957	25062.675
916.40671	25373.275
920.19121	25839.175
923.97308	26257.275
927.75233	26412.775
931.52895	26432.875
935.30295	25986.375
939.07433	25124.775
942.84309	24451.375
946.60924	24068.875
950.37278	23887.975
954.13371	23696.475
957.89203	23541.375
961.64774	23473.975
965.40086	23463.975
969.15137	23355.975
972.89929	23266.575
976.64461	23167.875
980.38733	23187.475
984.12747	23278.075
987.86502	23537.375
991.59999	23788.375
995.33237	24312.675
999.06217	25210.975
1002.78939	26336.275
1006.51404	27250.775
1010.23611	27913.275
1013.95561	28333.575
1017.67255	28206.475
1021.38692	27707.375
1025.09872	27198.575
1028.80796	27222.175
1032.51465	27855.075
1036.21877	28602.375
1039.92035	28740.575
1043.61937	28418.275
1047.31584	27789.875
1051.00976	27094.075
1054.70114	26723.575
1058.38998	26741.275
1062.07627	26948.075
1065.76003	27232.975
1069.44126	27527.075
1073.11995	27869.475
1076.79611	28142.275
1080.46974	28514.375
1084.14085	29055.575
1087.80943	29860.275
1091.47549	30278.175
1095.13903	30013.175
1098.80005	29120.075
1102.45857	28117.975
1106.11456	27429.575
1109.76805	27326.375
1113.41903	27700.875
1117.06751	28421.875
1120.71348	29353.475
1124.35696	30414.775
1127.99793	31376.975
1131.63641	31483.375
1135.2724	30475.475
1138.90589	29333.675
1142.5369	28738.875
1146.16542	28329.975
1149.79145	28270.175
1153.415	28498.375
1157.03607	29004.375
1160.65467	29870.975
1164.27079	31315.975
1167.88443	33470.075
1171.49561	36555.075
1175.10432	41290.975
1178.71056	47309.175
1182.31434	52117.375
1185.91565	54149.975
1189.51451	53647.475
1193.11091	51060.275
1196.70485	47493.275
1200.29634	44220.375
1203.88538	41672.675
1207.47197	39158.175
1211.05612	37068.175
1214.63782	35816.675
1218.21708	35356.875
1221.79391	35347.675
1225.36829	35487.775
1228.94024	35507.975
1232.50976	35299.275
1236.07685	34969.775
1239.6415	34779.175
1243.20374	34561.875
1246.76355	34640.275
1250.32093	35184.675
1253.8759	36164.875
1257.42845	37532.775
1260.97859	38961.075
1264.52631	40284.075
1268.07163	41645.675
1271.61453	43011.375
1275.15503	44344.175
1278.69312	45507.375
1282.22882	46427.275
1285.76211	47692.575
1289.29301	49341.775
1292.82151	51194.475
1296.34761	53447.875
1299.87133	56468.375
1303.39266	60863.675
1306.9116	67002.375
1310.42815	73999.475
1313.94233	78868.975
1317.45412	79207.875
1320.96354	76506.875
1324.47058	72639.475
1327.97525	69131.475
1331.47754	66604.775
1334.97747	65449.975
1338.47502	65232.475
1341.97022	65755.475
1345.46305	66021.775
1348.95352	66300.675
1352.44163	67244.075
1355.92738	70117.075
1359.41078	76775.175
1362.89183	84143.875
1366.37053	82797.275
1369.84688	72128.675
1373.32088	60937.275
1376.79254	53787.875
1380.26186	50540.675
1383.72883	49316.975
1387.19347	48540.775
1390.65578	47663.075
1394.11575	47176.875
1397.57339	47562.475
1401.0287	48612.575
1404.48168	49708.675
1407.93234	50578.275
1411.38068	50485.575
1414.82669	49314.875
1418.27039	47172.475
1421.71177	44779.775
1425.15083	42750.375
1428.58758	41542.075
1432.02203	41265.875
1435.45416	41742.575
1438.88399	42395.975
1442.31151	43012.475
1445.73673	43731.375
1449.15965	44496.275
1452.58027	44982.475
1455.9986	45166.275
1459.41463	45547.575
1462.82837	46310.775
1466.23982	47216.475
1469.64898	48209.075
1473.05586	48658.675
1476.46045	48747.375
1479.86276	48796.875
1483.26279	49075.675
1486.66054	49619.275
1490.05602	50494.575
1493.44922	51717.375
1496.84016	53518.075
1500.22882	56554.175
1503.61521	60819.975
1506.99934	66286.575
1510.38121	71976.175
1513.76081	75498.075
1517.13816	73979.375
1520.51324	67928.875
1523.88607	61082.675
1527.25665	56041.375
1530.62498	52909.975
1533.99105	51016.275
1537.35488	49927.175
1540.71647	48990.575
1544.07581	48023.175
1547.4329	47161.775
1550.78776	46485.375
1554.14038	46030.475
1557.49077	46213.575
1560.83892	46813.375
1564.18484	47575.175
1567.52853	48343.175
1570.86999	48657.775
1574.20922	49065.775
1577.54624	49051.875
1580.88103	47810.475
1584.2136	46266.875
1587.54395	46316.475
1590.87208	48379.575
1594.19801	51862.575
1597.52172	55627.675
1600.84321	56896.775
1604.16251	54196.475
1607.47959	49618.575
1610.79447	44818.175
1614.10715	40427.275
1617.41763	36864.075
1620.7259	34399.075
1624.03199	33252.475
1627.33587	33268.775
1630.63757	34291.475
1633.93707	36774.075
1637.23439	40480.575
1640.52951	45594.275
1643.82246	51481.875
1647.11321	57229.275
1650.40179	60523.375
1653.68819	58102.075
1656.97241	50237.375
1660.25446	41257.275
1663.53433	34528.375
1666.81203	30207.175
1670.08756	27595.975
1673.36092	26060.875
1676.63211	25063.375
1679.90115	24362.475
1683.16801	23891.775
1686.43272	23502.275
1689.69527	23230.875
1692.95567	23006.475
1696.2139	22871.975
1699.46999	22726.475
1702.72392	22637.075
1705.97571	22584.675
1709.22535	22605.875
1712.47284	22509.375
1715.71819	22554.375
1718.96139	22470.575
1722.20246	22425.775
1725.44139	22305.675
1728.67818	22170.075
1731.91284	21962.475
1735.14537	21793.675
1738.37576	21685.275
1741.60403	21545.175
1744.83017	21489.475
1748.05418	21423.475
1751.27607	21304.575
1754.49584	21291.175
1757.71349	21251.275
1760.92903	21231.475
1764.14244	21247.175
1767.35375	21178.175
1770.56294	21124.575
1773.77002	21018.975
1776.97499	21041.375
1780.17785	20909.475
1783.37861	20896.275
1786.57727	20847.375
1789.77382	20794.375
1792.96828	20815.075
1796.16064	20783.275
1799.3509	20737.375
1802.53907	20676.475
1805.72514	20646.875
1808.90913	20572.975
1812.09102	20508.175
1815.27083	20480.675
1818.44856	20438.375
1821.6242	20399.175
1824.79776	20378.975
1827.96924	20357.175
1831.13864	20292.775
1834.30597	20308.075
1837.47122	20301.075
1840.6344	20306.175
1843.7955	20334.575
1846.95454	20358.975
1850.11151	20332.475
1853.26642	20336.975
1856.41926	20338.275
1859.57004	20396.775
1862.71876	20388.075
1865.86542	20385.875
1869.01003	20411.475
1872.15258	20438.375
1875.29308	20423.275
1878.43152	20468.575
1881.56792	20542.475
1884.70227	20544.775
1887.83457	20562.575
1890.96482	20569.375
1894.09304	20596.875
1897.21921	20598.775
1900.34335	20600.675
1903.46544	20632.675
1906.58551	20648.575
1909.70353	20696.075
1912.81953	20664.275
1915.93349	20673.875
1919.04543	20627.075
1922.15534	20571.375
1925.26322	20496.875
1928.36908	20419.975
1931.47292	20316.475
1934.57473	20195.475
1937.67453	20009.075
1940.77232	19895.675
1943.86808	19790.975
1946.96184	19653.775
1950.05358	19574.075
1953.14331	19469.175
1956.23103	19371.775
1959.31675	19329.875
1962.40046	19214.875
1965.48217	19179.275
1968.56188	19172.675
1971.63959	19084.175
1974.7153	19026.875
1977.78901	18955.975
1980.86073	18841.575
1983.93046	18788.475
1986.99819	18722.275
1990.06394	18655.775
1993.1277	18600.775
1996.18947	18554.375
1999.24925	18503.175
2002.30706	18452.275
2005.36288	18372.375
2008.41672	18336.575
2011.46859	18247.375
2014.51848	18232.175
2017.56639	18176.375
2020.61233	18115.475
2023.6563	18041.375
2026.6983	17976.775
2029.73833	17966.075
2032.7764	17929.675
2035.8125	17896.575
2038.84664	17856.475
2041.87881	17871.975
2044.90903	17865.075
2047.93729	17821.475
2050.96359	17775.275
2053.98794	17745.175
2057.01034	17731.975
2060.03078	17703.375
2063.04927	17668.975
2066.06582	17672.175
2069.08042	17667.775
2072.09307	17592.075
2075.10378	17617.175
2078.11255	17561.275
2081.11938	17539.975
2084.12426	17553.975
2087.12722	17502.075
2090.12824	17503.975
2093.12732	17512.775
2096.12447	17478.175
2099.11969	17503.175
2102.11299	17488.675
2105.10435	17464.775
2108.09379	17486.375
2111.08131	17510.575
2114.0669	17488.175
2117.05057	17486.175
2120.03233	17519.975
2123.01216	17520.575
2125.99008	17551.175
2128.96609	17565.275
2131.94018	17583.275
2134.91236	17571.675
2137.88263	17549.375
2140.851	17564.575
2143.81746	17597.275
2146.78201	17567.775
2149.74466	17548.675
2152.7054	17550.975
2155.66425	17522.975
2158.6212	17532.275
2161.57625	17478.475
2164.52941	17483.975
2167.48067	17480.875
2170.43004	17474.975
2173.37752	17486.275
2176.32311	17481.975
2179.26681	17473.475
2182.20863	17448.575
2185.14856	17472.775
2188.08661	17472.175
2191.02278	17531.375
2193.95707	17483.675
2196.88948	17495.375
2199.82001	17453.275
2202.74867	17410.775
2205.67545	17442.775
2208.60037	17425.675
2211.52341	17388.775
2214.44458	17397.875
2217.36388	17360.175
2220.28132	17333.375
2223.1969	17272.175
2226.11061	17244.175
2229.02246	17223.675
2231.93245	17173.375
2234.84058	17117.775
2237.74686	17104.775
2240.65128	17076.675
2243.55385	17052.875
2246.45456	17029.875
2249.35343	17048.175
2252.25044	17019.975
2255.14561	16955.675
2258.03893	16947.275
2260.93041	16957.275
2263.82004	16881.175
2266.70783	16891.375
2269.59378	16798.675
2272.4779	16722.975
2275.36017	16691.575
2278.24061	16688.575
2281.11922	16651.175
2283.996	16638.075
2286.87094	16609.975
2289.74405	16566.975
2292.61534	16543.375
2295.4848	16515.775
2298.35243	16538.775
2301.21824	16544.475
2304.08223	16558.875
2306.94439	16576.575
2309.80474	16576.475
2312.66327	16575.075
2315.51999	16593.675
2318.37489	16570.975
2321.22797	16567.775
2324.07925	16528.375
2326.92871	16546.175
2329.77637	16510.375
2332.62222	16462.275
2335.46626	16498.875
2338.3085	16499.175
2341.14893	16554.475
2343.98756	16571.675
2346.8244	16577.775
2349.65943	16584.675
2352.49267	16599.475
2355.32411	16634.775
2358.15376	16617.575
2360.98161	16623.175
2363.80768	16579.875
2366.63195	16596.975
2369.45444	16580.275
2372.27514	16543.875
2375.09405	16541.975
2377.91118	16480.275
2380.72652	16388.675
2383.54009	16320.775
2386.35187	16293.075
2389.16188	16260.475
2391.97011	16182.275
2394.77657	16182.875
2397.58125	16157.175
2400.38416	16115.275
2403.18529	16080.275
2405.98466	16040.975
2408.78226	16007.175
2411.57809	16007.275
2414.37216	15943.275
2417.16446	15937.375
2419.955	15918.975
2422.74378	15896.175
2425.5308	15855.375
2428.31606	15815.775
2431.09956	15894.975
2433.88131	15855.975
2436.6613	15908.375
2439.43954	15866.475
2442.21603	15859.075
2444.99077	15825.675
2447.76377	15847.975
2450.53501	15864.675
2453.30451	15848.375
2456.07226	15816.275
2458.83827	15824.975
2461.60254	15830.575
2464.36507	15845.575
2467.12586	15814.775
2469.88492	15823.475
2472.64224	15855.275
2475.39782	15902.975
2478.15167	15916.775
2480.90379	15908.675
2483.65417	15948.375
2486.40283	15968.875
2489.14976	16001.575
2491.89497	16038.975
2494.63845	16065.375
2497.3802	16069.075
2500.12024	16079.475
2502.85855	16070.475
2505.59514	16018.075
2508.33002	15989.275
2511.06318	15933.475
2513.79462	15886.575
2516.52435	15869.575
2519.25237	15867.375
2521.97867	15818.775
2524.70327	15781.875
2527.42616	15761.775
2530.14734	15744.375
2532.86681	15772.375
2535.58458	15805.475
2538.30065	15750.675
2541.01501	15760.775
2543.72768	15740.475
2546.43864	15749.775
2549.14791	15716.175
2551.85548	15704.475
2554.56136	15700.975
2557.26554	15703.775
2559.96803	15672.775
2562.66883	15686.875
2565.36794	15631.275
2568.06536	15613.075
2570.7611	15582.175
2573.45514	15601.875
2576.14751	15607.775
2578.83819	15554.975
2581.52719	15561.275
2584.21451	15601.575
2586.90015	15612.175
2589.58411	15576.775
2592.2664	15581.775
2594.94701	15548.575
2597.62594	15599.075
2600.30321	15565.675
2602.9788	15563.975
2605.65273	15583.775
2608.32498	15606.375
2610.99557	15611.375
2613.66449	15599.775
2616.33175	15604.275
2618.99734	15610.475
2621.66128	15617.975
2624.32355	15616.875
2626.98416	15613.175
2629.64311	15624.875
2632.30041	15615.175
2634.95605	15590.175
2637.61004	15576.375
2640.26238	15561.075
2642.91306	15531.575
2645.56209	15506.275
2648.20948	15512.275
2650.85521	15509.875
2653.4993	15524.675
2656.14175	15505.575
2658.78255	15508.575
2661.42171	15513.675
2664.05923	15552.875
2666.6951	15543.575
2669.32934	15584.375
2671.96194	15610.075
2674.59291	15606.575
2677.22224	15610.375
2679.84993	15619.275
2682.476	15589.175
2685.10043	15616.775
2687.72324	15561.475
2690.34441	15547.275
2692.96396	15525.975
2695.58188	15523.875
2698.19818	15490.175
2700.81285	15523.975
2703.4259	15510.475
2706.03733	15547.975
2708.64714	15505.975
2711.25533	15497.275
2713.86191	15557.575
2716.46687	15531.075
2719.07021	15542.675
2721.67194	15572.075
2724.27206	15565.975
2726.87057	15562.075
2729.46747	15607.975
2732.06276	15616.075
2734.65644	15584.375
2737.24852	15582.475
2739.83899	15531.075
2742.42786	15566.175
2745.01513	15533.675
2747.60079	15531.875
2750.18486	15525.075
2752.76733	15499.675
2755.3482	15492.775
2757.92747	15509.875
2760.50515	15472.075
2763.08123	15489.175
2765.65573	15497.375
2768.22863	15494.175
2770.79994	15460.375
2773.36967	15466.775
2775.9378	15427.375
2778.50435	15452.275
2781.06932	15459.575
2783.6327	15451.075
2786.1945	15466.575
2788.75471	15446.375
2791.31335	15432.875
2793.87041	15410.875
2796.42589	15387.975
2798.97979	15375.175
2801.53212	15356.875
2804.08288	15320.775
2806.63206	15290.975
2809.17967	15255.275
2811.72571	15268.575
2814.27018	15243.275
2816.81308	15236.475
2819.35442	15210.275
2821.89419	15232.275
2824.43239	15258.275
2826.96904	15280.175
2829.50412	15276.675
2832.03763	15203.275
2834.56959	15234.175
2837.1	15187.875
2839.62884	15216.375
2842.15613	15208.775
2844.68186	15306.675
2847.20604	15288.475
2849.72867	15325.975
2852.24974	15293.575
2854.76927	15323.075
2857.28724	15290.475
2859.80367	15282.075
2862.31855	15254.675
2864.83189	15252.575
2867.34368	15222.575
2869.85393	15250.675
2872.36264	15212.275
2874.8698	15202.675
2877.37543	15225.675
2879.87952	15183.075
2882.38207	15177.675
2884.88308	15179.475
2887.38256	15165.875
2889.88051	15174.775
2892.37692	15143.275
2894.8718	15178.275
2897.36515	15187.175
2899.85698	15192.375
2902.34727	15228.575
2904.83604	15255.875
2907.32328	15286.575
2909.809	15261.775
2912.29319	15278.075
2914.77587	15311.775
2917.25702	15277.475
2919.73665	15256.775
2922.21476	15245.275
2924.69136	15246.475
2927.16644	15254.175
2929.64	15168.475
2932.11205	15139.275
2934.58258	15109.275
2937.05161	15068.675
2939.51912	15057.275
2941.98513	15044.775
2944.44962	14967.475
2946.91261	14890.075
2949.37409	14918.275
2951.83407	14896.775
2954.29254	14861.075
2956.74951	14867.875
2959.20498	14812.975
2961.65895	14840.575
2964.11142	14800.675
2966.56239	14755.375
2969.01186	14713.675
2971.45984	14659.375
2973.90632	14661.675
2976.35131	14652.675
2978.7948	14604.375
2981.23681	14572.175
2983.67732	14533.175
2986.11635	14487.075
2988.55388	14463.475
2990.98993	14431.975
2993.4245	14378.075
2995.85758	14347.075
2998.28917	14289.675
3000.71928	14274.175
3003.14791	14282.975
3005.57506	14261.175
3008.00073	14223.775
3010.42493	14125.375
3012.84764	14169.275
3015.26888	14149.275
3017.68865	14122.575
3020.10694	14073.075
3022.52376	14057.675
3024.9391	14037.375
3027.35298	13999.475
3029.76539	14010.275
3032.17632	13960.875
3034.5858	13928.075
3036.9938	13921.075
3039.40034	13899.075
3041.80542	13935.575
3044.20903	13865.775
3046.61118	13879.075
3049.01187	13807.775
3051.4111	13814.175
3053.80888	13778.875
3056.20519	13766.675
3058.60005	13678.775
3060.99345	13701.675
3063.3854	13651.575
3065.7759	13578.475
3068.16494	13521.975
3070.55254	13462.275
3072.93868	13396.875
3075.32338	13367.975
3077.70662	13357.075
3080.08842	13300.975
3082.46878	13246.275
3084.84769	13228.575
3087.22515	13240.675
3089.60118	13224.275
3091.97576	13226.075
3094.3489	13220.975
3096.72061	13220.075
3099.09087	13193.175
3101.4597	13188.575
3103.82709	13175.075
3106.19305	13153.675
3108.55757	13136.375
3110.92066	13053.975
3113.28232	13048.975
3115.64255	13054.675
3118.00134	13024.675
3120.35871	12983.875
3122.71466	12952.875
3125.06917	12938.175
3127.42226	12853.075
