Data from AgNPs_FTO_APTES_UA_5uM_CRN_200uM_R6G_10uM_NaF_0.1M_Addition_RamanShift__32__16-37-11-804.txt Node

Date: Mon Feb 07 16:37:11 GMT 2022
User: TCL
Spectrometer: QEP01345
Trigger mode: 4
Integration Time (sec): 7.000000E0
Scans to average: 10
Electric dark correction enabled: true
Nonlinearity correction enabled: false
Boxcar width: 0
XAxis mode: Raman Shifts
Number of Pixels in Spectrum: 1044
>>>>>Begin Spectral Data<<<<<
46.04893	-0.9875
50.45542	-0.5875
54.85868	0.7125
59.25871	-0.6875
63.6555	45.8125
68.04907	46.5125
72.43941	49.2125
76.82654	51.6125
81.21044	51.2125
85.59113	53.5125
89.96862	57.0125
94.34289	61.3125
98.71396	58.3125
103.08183	62.2125
107.4465	67.9125
111.80798	67.2125
116.16626	65.6125
120.52136	72.6125
124.87327	73.8125
129.222	76.7125
133.56755	79.9125
137.90993	87.9125
142.24913	97.8125
146.58517	108.1125
150.91804	119.6125
155.24774	152.3125
159.57429	186.7125
163.89768	236.1125
168.21792	315.2125
172.53501	423.0125
176.84895	587.9125
181.15975	822.6125
185.46741	1146.4125
189.77193	1578.9125
194.07331	2124.6125
198.37157	2748.7125
202.6667	3388.0125
206.9587	4026.9125
211.24758	4690.7125
215.53334	5372.0125
219.81599	6145.5125
224.09553	7055.3125
228.37195	8051.2125
232.64527	9113.8125
236.91549	10173.9125
241.18261	11092.7125
245.44663	11825.5125
249.70755	12380.8125
253.96539	12863.1125
258.22014	13266.9125
262.4718	13583.2125
266.72039	13863.8125
270.96589	14040.1125
275.20832	14077.6125
279.44768	13975.8125
283.68397	13836.7125
287.91719	13753.7125
292.14735	13976.5125
296.37445	14390.4125
300.59849	15045.4125
304.81948	15803.7125
309.03742	16289.2125
313.25231	16260.4125
317.46415	15349.1125
321.67296	13889.7125
325.87872	12661.3125
330.08145	12057.6125
334.28114	11983.9125
338.47781	12214.0125
342.67145	12640.5125
346.86207	13320.6125
351.04966	14306.4125
355.23424	15407.7125
359.4158	16196.0125
363.59435	16455.9125
367.76989	16469.5125
371.94243	16325.6125
376.11196	16157.0125
380.27849	15945.7125
384.44203	15685.5125
388.60257	15356.1125
392.76012	15197.0125
396.91468	15318.0125
401.06626	15811.7125
405.21485	16184.5125
409.36047	15810.8125
413.50311	14756.3125
417.64277	13705.3125
421.77947	13106.0125
425.9132	12876.3125
430.04396	12828.7125
434.17176	12865.6125
438.2966	13027.8125
442.41849	13359.6125
446.53742	13760.3125
450.6534	14221.2125
454.76644	14471.8125
458.87653	14429.6125
462.98368	14266.6125
467.08789	14105.9125
471.18916	13786.3125
475.2875	13439.9125
479.38291	13168.0125
483.4754	12869.6125
487.56496	12611.6125
491.6516	12424.8125
495.73531	12342.3125
499.81612	12396.9125
503.89401	12624.1125
507.96899	12852.8125
512.04106	13097.5125
516.11023	13375.0125
520.1765	13548.1125
524.23987	13501.3125
528.30034	13177.0125
532.35792	12804.2125
536.41261	12469.9125
540.46441	12102.4125
544.51333	11936.3125
548.55936	12075.4125
552.60252	12486.9125
556.64279	12961.4125
560.6802	13250.8125
564.71473	13588.9125
568.7464	14357.1125
572.7752	14889.4125
576.80114	14255.5125
580.82422	13449.2125
584.84444	13040.5125
588.86181	12893.4125
592.87633	12902.6125
596.888	13052.4125
600.89682	13577.9125
604.9028	15526.8125
608.90594	20940.6125
612.90624	28688.6125
616.90371	27804.6125
620.89834	17932.2125
624.89015	13197.3125
628.87913	12305.2125
632.86528	12426.7125
636.84862	12726.9125
640.82913	12549.0125
644.80683	11855.6125
648.78172	11371.4125
652.75379	11405.2125
656.72306	12054.5125
660.68952	12913.7125
664.65319	12765.6125
668.61405	11906.0125
672.57211	11477.6125
676.52738	11448.4125
680.47986	11448.2125
684.42955	11335.9125
688.37646	11238.4125
692.32058	11269.1125
696.26192	11394.2125
700.20048	11546.4125
704.13626	11734.2125
708.06928	11692.6125
711.99952	11576.8125
715.927	11510.5125
719.85171	11555.1125
723.77365	11541.5125
727.69284	11365.1125
731.60928	11219.3125
735.52295	11170.7125
739.43388	11163.2125
743.34206	11213.0125
747.24749	11268.0125
751.15017	11362.6125
755.05012	11681.0125
758.94733	12482.2125
762.8418	14356.2125
766.73354	17612.9125
770.62254	21059.7125
774.50882	22882.3125
778.39237	21812.0125
782.27321	18276.3125
786.15132	14678.2125
790.02671	12619.8125
793.89938	11725.7125
797.76935	11331.5125
801.6366	11137.5125
805.50115	11029.4125
809.36299	10983.1125
813.22213	10885.0125
817.07857	10877.3125
820.93231	10899.1125
824.78336	10930.2125
828.63172	11009.9125
832.47738	11082.5125
836.32036	10974.8125
840.16066	10849.2125
843.99827	10771.3125
847.8332	10723.5125
851.66546	10692.6125
855.49504	10687.5125
859.32195	10653.7125
863.1462	10567.9125
866.96777	10518.0125
870.78668	10493.6125
874.60293	10531.1125
878.41652	10563.9125
882.22745	10652.3125
886.03573	10709.4125
889.84136	10664.5125
893.64433	10607.6125
897.44466	10580.0125
901.24235	10583.0125
905.0374	10532.0125
908.8298	10475.0125
912.61957	10469.6125
916.40671	10567.9125
920.19121	10680.9125
923.97308	10783.7125
927.75233	10895.6125
931.52895	11039.0125
935.30295	10894.6125
939.07433	10466.6125
942.84309	10081.7125
946.60924	9843.0125
950.37278	9718.6125
954.13371	9642.7125
957.89203	9611.3125
961.64774	9597.2125
965.40086	9518.5125
969.15137	9522.2125
972.89929	9485.8125
976.64461	9469.5125
980.38733	9449.0125
984.12747	9460.6125
987.86502	9489.5125
991.59999	9539.2125
995.33237	9642.8125
999.06217	9811.4125
1002.78939	10081.4125
1006.51404	10337.9125
1010.23611	10638.7125
1013.95561	10809.8125
1017.67255	10714.7125
1021.38692	10520.9125
1025.09872	10314.1125
1028.80796	10122.0125
1032.51465	10114.3125
1036.21877	10238.2125
1039.92035	10409.1125
1043.61937	10521.6125
1047.31584	10574.6125
1051.00976	10630.7125
1054.70114	10622.9125
1058.38998	10626.4125
1062.07627	10724.8125
1065.76003	10833.8125
1069.44126	10900.1125
1073.11995	11000.0125
1076.79611	11221.8125
1080.46974	11488.7125
1084.14085	11880.6125
1087.80943	12369.2125
1091.47549	12537.2125
1095.13903	12287.7125
1098.80005	11729.6125
1102.45857	11271.6125
1106.11456	11024.5125
1109.76805	11072.7125
1113.41903	11416.1125
1117.06751	12023.5125
1120.71348	12758.3125
1124.35696	13574.2125
1127.99793	14289.3125
1131.63641	14114.9125
1135.2724	13154.5125
1138.90589	12202.8125
1142.5369	11737.9125
1146.16542	11417.2125
1149.79145	11294.9125
1153.415	11289.2125
1157.03607	11436.3125
1160.65467	11764.8125
1164.27079	12320.9125
1167.88443	13208.3125
1171.49561	14610.7125
1175.10432	17017.0125
1178.71056	20209.9125
1182.31434	22241.5125
1185.91565	22422.9125
1189.51451	21450.3125
1193.11091	19859.1125
1196.70485	18118.5125
1200.29634	16828.3125
1203.88538	15862.6125
1207.47197	14593.2125
1211.05612	13512.1125
1214.63782	12949.7125
1218.21708	12715.6125
1221.79391	12695.1125
1225.36829	12737.2125
1228.94024	12781.4125
1232.50976	12771.9125
1236.07685	12772.0125
1239.6415	12781.6125
1243.20374	12881.7125
1246.76355	12958.8125
1250.32093	13136.3125
1253.8759	13433.2125
1257.42845	13871.9125
1260.97859	14424.8125
1264.52631	14970.1125
1268.07163	15509.6125
1271.61453	15999.8125
1275.15503	16295.8125
1278.69312	16362.6125
1282.22882	16390.7125
1285.76211	16785.8125
1289.29301	17489.3125
1292.82151	18225.1125
1296.34761	19064.5125
1299.87133	20290.3125
1303.39266	22330.1125
1306.9116	25497.2125
1310.42815	29131.4125
1313.94233	31233.1125
1317.45412	30434.8125
1320.96354	27950.1125
1324.47058	25186.0125
1327.97525	22853.8125
1331.47754	21428.6125
1334.97747	20853.4125
1338.47502	20913.9125
1341.97022	21424.1125
1345.46305	22493.5125
1348.95352	24092.1125
1352.44163	26320.5125
1355.92738	29610.9125
1359.41078	34760.9125
1362.89183	39792.0125
1366.37053	38289.9125
1369.84688	31442.0125
1373.32088	24994.2125
1376.79254	20971.9125
1380.26186	19006.6125
1383.72883	18050.6125
1387.19347	17342.2125
1390.65578	16644.1125
1394.11575	16057.0125
1397.57339	15754.4125
1401.0287	15755.7125
1404.48168	15851.1125
1407.93234	15934.0125
1411.38068	15971.6125
1414.82669	15765.0125
1418.27039	15388.8125
1421.71177	14936.9125
1425.15083	14479.1125
1428.58758	14194.3125
1432.02203	14246.1125
1435.45416	14382.5125
1438.88399	14531.6125
1442.31151	14592.3125
1445.73673	14662.4125
1449.15965	14823.9125
1452.58027	14851.3125
1455.9986	14888.2125
1459.41463	14961.4125
1462.82837	15170.4125
1466.23982	15533.6125
1469.64898	15912.8125
1473.05586	16147.2125
1476.46045	16289.4125
1479.86276	16549.1125
1483.26279	16927.6125
1486.66054	17443.4125
1490.05602	18173.7125
1493.44922	19201.2125
1496.84016	20868.7125
1500.22882	23589.5125
1503.61521	27296.7125
1506.99934	31553.5125
1510.38121	35679.0125
1513.76081	37648.6125
1517.13816	35637.9125
1520.51324	30516.7125
1523.88607	25385.3125
1527.25665	21915.7125
1530.62498	19999.1125
1533.99105	18873.5125
1537.35488	18200.0125
1540.71647	17693.9125
1544.07581	17451.3125
1547.4329	17299.1125
1550.78776	17167.3125
1554.14038	17143.6125
1557.49077	17345.1125
1560.83892	17765.8125
1564.18484	18525.2125
1567.52853	19332.5125
1570.86999	19953.2125
1574.20922	20292.9125
1577.54624	20097.9125
1580.88103	18837.8125
1584.2136	17164.4125
1587.54395	16213.6125
1590.87208	16187.3125
1594.19801	17083.4125
1597.52172	18372.5125
1600.84321	18945.6125
1604.16251	18240.3125
1607.47959	16856.3125
1610.79447	15462.2125
1614.10715	14059.7125
1617.41763	12923.4125
1620.7259	12213.0125
1624.03199	11854.5125
1627.33587	11842.5125
1630.63757	12077.8125
1633.93707	12717.6125
1637.23439	13794.6125
1640.52951	15531.5125
1643.82246	18103.9125
1647.11321	21369.2125
1650.40179	23887.3125
1653.68819	23547.0125
1656.97241	20096.5125
1660.25446	16046.7125
1663.53433	13117.9125
1666.81203	11387.5125
1670.08756	10409.6125
1673.36092	9830.5125
1676.63211	9485.4125
1679.90115	9232.8125
1683.16801	9022.2125
1686.43272	8898.4125
1689.69527	8748.4125
1692.95567	8697.9125
1696.2139	8640.0125
1699.46999	8581.1125
1702.72392	8522.0125
1705.97571	8522.2125
1709.22535	8511.7125
1712.47284	8525.1125
1715.71819	8527.0125
1718.96139	8527.9125
1722.20246	8515.7125
1725.44139	8473.5125
1728.67818	8384.1125
1731.91284	8305.2125
1735.14537	8206.1125
1738.37576	8158.0125
1741.60403	8089.6125
1744.83017	8058.2125
1748.05418	8029.1125
1751.27607	8003.1125
1754.49584	7982.8125
1757.71349	7957.9125
1760.92903	7924.5125
1764.14244	7916.4125
1767.35375	7907.9125
1770.56294	7856.2125
1773.77002	7822.4125
1776.97499	7762.2125
1780.17785	7729.7125
1783.37861	7695.9125
1786.57727	7686.2125
1789.77382	7679.1125
1792.96828	7657.4125
1796.16064	7635.5125
1799.3509	7630.1125
1802.53907	7616.1125
1805.72514	7599.9125
1808.90913	7548.3125
1812.09102	7521.0125
1815.27083	7480.9125
1818.44856	7448.7125
1821.6242	7447.3125
1824.79776	7420.0125
1827.96924	7394.5125
1831.13864	7397.0125
1834.30597	7399.4125
1837.47122	7352.9125
1840.6344	7354.3125
1843.7955	7354.3125
1846.95454	7336.3125
1850.11151	7318.9125
1853.26642	7316.5125
1856.41926	7290.9125
1859.57004	7309.7125
1862.71876	7294.3125
1865.86542	7292.4125
1869.01003	7291.0125
1872.15258	7281.2125
1875.29308	7288.8125
1878.43152	7289.2125
1881.56792	7285.9125
1884.70227	7275.5125
1887.83457	7268.1125
1890.96482	7259.9125
1894.09304	7236.2125
1897.21921	7238.1125
1900.34335	7248.4125
1903.46544	7240.1125
1906.58551	7232.5125
1909.70353	7236.6125
1912.81953	7228.6125
1915.93349	7231.3125
1919.04543	7236.0125
1922.15534	7204.6125
1925.26322	7169.0125
1928.36908	7171.4125
1931.47292	7153.4125
1934.57473	7126.0125
1937.67453	7081.9125
1940.77232	7046.1125
1943.86808	6999.7125
1946.96184	6977.9125
1950.05358	6931.9125
1953.14331	6903.7125
1956.23103	6870.1125
1959.31675	6856.1125
1962.40046	6853.2125
1965.48217	6830.8125
1968.56188	6817.0125
1971.63959	6795.6125
1974.7153	6779.2125
1977.78901	6771.8125
1980.86073	6724.2125
1983.93046	6692.3125
1986.99819	6669.7125
1990.06394	6628.4125
1993.1277	6593.2125
1996.18947	6589.5125
1999.24925	6558.9125
2002.30706	6558.3125
2005.36288	6531.6125
2008.41672	6492.9125
2011.46859	6489.2125
2014.51848	6447.0125
2017.56639	6445.4125
2020.61233	6401.6125
2023.6563	6369.6125
2026.6983	6370.8125
2029.73833	6332.5125
2032.7764	6324.3125
2035.8125	6301.8125
2038.84664	6273.9125
2041.87881	6280.7125
2044.90903	6256.4125
2047.93729	6249.8125
2050.96359	6237.2125
2053.98794	6246.9125
2057.01034	6218.0125
2060.03078	6220.5125
2063.04927	6220.6125
2066.06582	6218.6125
2069.08042	6205.0125
2072.09307	6171.8125
2075.10378	6183.1125
2078.11255	6166.8125
2081.11938	6176.6125
2084.12426	6158.4125
2087.12722	6162.0125
2090.12824	6164.4125
2093.12732	6140.6125
2096.12447	6140.4125
2099.11969	6131.2125
2102.11299	6127.0125
2105.10435	6117.7125
2108.09379	6126.8125
2111.08131	6124.6125
2114.0669	6160.5125
2117.05057	6154.8125
2120.03233	6173.9125
2123.01216	6157.2125
2125.99008	6167.4125
2128.96609	6172.1125
2131.94018	6165.9125
2134.91236	6163.2125
2137.88263	6160.4125
2140.851	6170.0125
2143.81746	6172.9125
2146.78201	6158.0125
2149.74466	6138.3125
2152.7054	6146.1125
2155.66425	6130.2125
2158.6212	6095.9125
2161.57625	6092.1125
2164.52941	6095.6125
2167.48067	6088.4125
2170.43004	6083.0125
2173.37752	6090.6125
2176.32311	6102.1125
2179.26681	6095.5125
2182.20863	6101.5125
2185.14856	6090.7125
2188.08661	6080.2125
2191.02278	6083.8125
2193.95707	6055.4125
2196.88948	6045.8125
2199.82001	6020.1125
2202.74867	6020.9125
2205.67545	6018.5125
2208.60037	5998.1125
2211.52341	6000.2125
2214.44458	5973.6125
2217.36388	5973.6125
2220.28132	5950.1125
2223.1969	5934.0125
2226.11061	5902.3125
2229.02246	5910.5125
2231.93245	5876.8125
2234.84058	5874.0125
2237.74686	5853.4125
2240.65128	5844.5125
2243.55385	5841.5125
2246.45456	5845.8125
2249.35343	5850.1125
2252.25044	5828.2125
2255.14561	5828.8125
2258.03893	5818.4125
2260.93041	5809.1125
2263.82004	5810.1125
2266.70783	5801.3125
2269.59378	5800.8125
2272.4779	5758.6125
2275.36017	5745.3125
2278.24061	5726.9125
2281.11922	5734.4125
2283.996	5725.6125
2286.87094	5685.4125
2289.74405	5661.7125
2292.61534	5650.4125
2295.4848	5649.1125
2298.35243	5661.2125
2301.21824	5647.1125
2304.08223	5642.9125
2306.94439	5636.3125
2309.80474	5647.6125
2312.66327	5613.5125
2315.51999	5642.0125
2318.37489	5619.3125
2321.22797	5577.9125
2324.07925	5591.7125
2326.92871	5593.9125
2329.77637	5565.8125
2332.62222	5562.5125
2335.46626	5575.4125
2338.3085	5570.0125
2341.14893	5558.0125
2343.98756	5563.5125
2346.8244	5558.9125
2349.65943	5559.7125
2352.49267	5558.5125
2355.32411	5587.1125
2358.15376	5591.3125
2360.98161	5613.8125
2363.80768	5626.7125
2366.63195	5643.1125
2369.45444	5645.2125
2372.27514	5651.1125
2375.09405	5641.4125
2377.91118	5599.8125
2380.72652	5561.0125
2383.54009	5523.0125
2386.35187	5531.3125
2389.16188	5467.5125
2391.97011	5445.7125
2394.77657	5415.8125
2397.58125	5394.5125
2400.38416	5397.6125
2403.18529	5368.5125
2405.98466	5365.3125
2408.78226	5362.6125
2411.57809	5358.9125
2414.37216	5345.7125
2417.16446	5349.7125
2419.955	5330.5125
2422.74378	5322.9125
2425.5308	5334.2125
2428.31606	5344.4125
2431.09956	5305.9125
2433.88131	5311.5125
2436.6613	5333.1125
2439.43954	5322.1125
2442.21603	5322.4125
2444.99077	5338.2125
2447.76377	5334.4125
2450.53501	5309.4125
2453.30451	5313.8125
2456.07226	5319.5125
2458.83827	5323.9125
2461.60254	5301.4125
2464.36507	5299.0125
2467.12586	5289.1125
2469.88492	5302.3125
2472.64224	5313.0125
2475.39782	5306.9125
2478.15167	5321.7125
2480.90379	5333.1125
2483.65417	5341.0125
2486.40283	5344.5125
2489.14976	5380.7125
2491.89497	5392.1125
2494.63845	5395.4125
2497.3802	5411.5125
2500.12024	5383.1125
2502.85855	5336.7125
2505.59514	5334.4125
2508.33002	5312.4125
2511.06318	5270.2125
2513.79462	5252.1125
2516.52435	5233.8125
2519.25237	5205.7125
2521.97867	5197.0125
2524.70327	5139.8125
2527.42616	5142.2125
2530.14734	5129.6125
2532.86681	5161.1125
2535.58458	5126.0125
2538.30065	5129.2125
2541.01501	5120.6125
2543.72768	5141.6125
2546.43864	5119.3125
2549.14791	5110.5125
2551.85548	5110.5125
2554.56136	5110.2125
2557.26554	5099.8125
2559.96803	5111.6125
2562.66883	5087.4125
2565.36794	5077.1125
2568.06536	5079.1125
2570.7611	5071.4125
2573.45514	5071.1125
2576.14751	5056.0125
2578.83819	5049.8125
2581.52719	5035.1125
2584.21451	5016.2125
2586.90015	5004.1125
2589.58411	5005.7125
2592.2664	4991.0125
2594.94701	5000.4125
2597.62594	4970.3125
2600.30321	4962.0125
2602.9788	4964.7125
2605.65273	4968.7125
2608.32498	4980.5125
2610.99557	4974.5125
2613.66449	4983.8125
2616.33175	4980.6125
2618.99734	4961.2125
2621.66128	4960.9125
2624.32355	4948.8125
2626.98416	4941.3125
2629.64311	4924.3125
2632.30041	4928.1125
2634.95605	4900.4125
2637.61004	4897.5125
2640.26238	4897.9125
2642.91306	4891.3125
2645.56209	4888.7125
2648.20948	4877.8125
2650.85521	4869.3125
2653.4993	4865.1125
2656.14175	4870.3125
2658.78255	4892.8125
2661.42171	4876.7125
2664.05923	4890.7125
2666.6951	4885.4125
2669.32934	4915.9125
2671.96194	4916.3125
2674.59291	4920.6125
2677.22224	4924.5125
2679.84993	4920.9125
2682.476	4910.4125
2685.10043	4905.7125
2687.72324	4903.5125
2690.34441	4902.1125
2692.96396	4882.3125
2695.58188	4907.2125
2698.19818	4899.7125
2700.81285	4897.9125
2703.4259	4908.3125
2706.03733	4909.8125
2708.64714	4920.4125
2711.25533	4922.1125
2713.86191	4920.0125
2716.46687	4939.7125
2719.07021	4938.4125
2721.67194	4943.9125
2724.27206	4931.9125
2726.87057	4947.8125
2729.46747	4926.6125
2732.06276	4944.0125
2734.65644	4925.7125
2737.24852	4914.1125
2739.83899	4898.3125
2742.42786	4890.3125
2745.01513	4866.3125
2747.60079	4879.6125
2750.18486	4863.7125
2752.76733	4846.6125
2755.3482	4837.7125
2757.92747	4833.2125
2760.50515	4813.2125
2763.08123	4812.4125
2765.65573	4808.5125
2768.22863	4794.0125
2770.79994	4804.3125
2773.36967	4779.3125
2775.9378	4789.9125
2778.50435	4781.9125
2781.06932	4785.5125
2783.6327	4789.6125
2786.1945	4779.2125
2788.75471	4790.0125
2791.31335	4782.5125
2793.87041	4788.5125
2796.42589	4781.8125
2798.97979	4794.2125
2801.53212	4779.7125
2804.08288	4754.9125
2806.63206	4771.8125
2809.17967	4776.5125
2811.72571	4771.9125
2814.27018	4782.4125
2816.81308	4781.3125
2819.35442	4787.1125
2821.89419	4789.3125
2824.43239	4795.9125
2826.96904	4804.2125
2829.50412	4826.0125
2832.03763	4811.2125
2834.56959	4814.5125
2837.1	4834.3125
2839.62884	4859.0125
2842.15613	4928.1125
2844.68186	4998.1125
2847.20604	5101.9125
2849.72867	5154.8125
2852.24974	5197.1125
2854.76927	5186.5125
2857.28724	5163.7125
2859.80367	5170.6125
2862.31855	5126.5125
2864.83189	5116.6125
2867.34368	5079.4125
2869.85393	5100.1125
2872.36264	5097.7125
2874.8698	5111.5125
2877.37543	5085.4125
2879.87952	5076.5125
2882.38207	5076.0125
2884.88308	5061.9125
2887.38256	5056.6125
2889.88051	5053.2125
2892.37692	5044.0125
2894.8718	5054.2125
2897.36515	5066.7125
2899.85698	5070.3125
2902.34727	5050.9125
2904.83604	5069.1125
2907.32328	5083.5125
2909.809	5055.4125
2912.29319	5058.4125
2914.77587	5061.4125
2917.25702	5041.3125
2919.73665	5033.7125
2922.21476	5036.0125
2924.69136	5034.4125
2927.16644	5022.7125
2929.64	5020.7125
2932.11205	5001.4125
2934.58258	4976.0125
2937.05161	4959.0125
2939.51912	4926.1125
2941.98513	4886.4125
2944.44962	4855.8125
2946.91261	4781.2125
2949.37409	4756.9125
2951.83407	4719.6125
2954.29254	4717.4125
2956.74951	4689.7125
2959.20498	4693.8125
2961.65895	4661.2125
2964.11142	4647.8125
2966.56239	4641.6125
2969.01186	4636.7125
2971.45984	4599.0125
2973.90632	4596.9125
2976.35131	4577.1125
2978.7948	4550.6125
2981.23681	4539.8125
2983.67732	4537.2125
2986.11635	4509.7125
2988.55388	4499.3125
2990.98993	4485.1125
2993.4245	4461.0125
2995.85758	4460.4125
2998.28917	4455.9125
3000.71928	4441.8125
3003.14791	4442.5125
3005.57506	4412.2125
3008.00073	4413.2125
3010.42493	4432.8125
3012.84764	4398.2125
3015.26888	4408.0125
3017.68865	4386.6125
3020.10694	4382.5125
3022.52376	4361.3125
3024.9391	4381.0125
3027.35298	4359.8125
3029.76539	4356.1125
3032.17632	4358.2125
3034.5858	4339.9125
3036.9938	4334.1125
3039.40034	4335.6125
3041.80542	4329.2125
3044.20903	4317.4125
3046.61118	4309.2125
3049.01187	4292.5125
3051.4111	4290.7125
3053.80888	4275.9125
3056.20519	4277.9125
3058.60005	4265.9125
3060.99345	4266.2125
3063.3854	4257.9125
3065.7759	4238.5125
3068.16494	4240.2125
3070.55254	4226.4125
3072.93868	4200.1125
3075.32338	4200.6125
3077.70662	4186.5125
3080.08842	4162.7125
3082.46878	4158.4125
