Data from AgNPs_FTO_APTES_UA_5uM_CRN_20uM_R6G_10uM_NaF_0.1M_Addition_RamanShift__1__13-04-06-758.txt Node

Date: Mon Feb 07 13:04:06 GMT 2022
User: TCL
Spectrometer: QEP01345
Trigger mode: 4
Integration Time (sec): 7.000000E0
Scans to average: 10
Electric dark correction enabled: true
Nonlinearity correction enabled: false
Boxcar width: 0
XAxis mode: Raman Shifts
Number of Pixels in Spectrum: 1044
>>>>>Begin Spectral Data<<<<<
46.04893	-1.2875
50.45542	-1.6875
54.85868	-0.8875
59.25871	-0.6875
63.6555	87.9125
68.04907	91.8125
72.43941	92.0125
76.82654	97.5125
81.21044	101.3125
85.59113	105.1125
89.96862	108.3125
94.34289	110.9125
98.71396	114.2125
103.08183	118.1125
107.4465	122.3125
111.80798	126.7125
116.16626	129.8125
120.52136	136.3125
124.87327	145.1125
129.222	152.3125
133.56755	163.6125
137.90993	178.5125
142.24913	200.2125
146.58517	230.4125
150.91804	268.8125
155.24774	320.5125
159.57429	407.8125
163.89768	533.7125
168.21792	714.8125
172.53501	985.9125
176.84895	1360.4125
181.15975	1919.5125
185.46741	2706.7125
189.77193	3725.6125
194.07331	4959.8125
198.37157	6388.5125
202.6667	7877.0125
206.9587	9339.2125
211.24758	10825.1125
215.53334	12294.0125
219.81599	13891.4125
224.09553	15652.8125
228.37195	17631.6125
232.64527	19685.4125
236.91549	21841.2125
241.18261	23957.0125
245.44663	25895.5125
249.70755	27605.9125
253.96539	29113.6125
258.22014	30389.5125
262.4718	31429.4125
266.72039	32180.6125
270.96589	32642.1125
275.20832	32690.2125
279.44768	32495.7125
283.68397	32239.1125
287.91719	31927.7125
292.14735	31876.2125
296.37445	31920.9125
300.59849	32176.9125
304.81948	32491.2125
309.03742	32608.9125
313.25231	32436.1125
317.46415	31794.5125
321.67296	30933.3125
325.87872	30165.6125
330.08145	29790.9125
334.28114	29713.2125
338.47781	29795.8125
342.67145	30211.4125
346.86207	30662.7125
351.04966	31316.3125
355.23424	32004.4125
359.4158	32602.9125
363.59435	33042.1125
367.76989	33307.5125
371.94243	33409.4125
376.11196	33534.7125
380.27849	33639.5125
384.44203	33795.1125
388.60257	34020.3125
392.76012	34363.0125
396.91468	34791.1125
401.06626	35322.8125
405.21485	35735.3125
409.36047	35472.9125
413.50311	34991.6125
417.64277	34667.6125
421.77947	34666.6125
425.9132	34736.9125
430.04396	34878.1125
434.17176	35103.0125
438.2966	35360.7125
442.41849	36107.0125
446.53742	37393.0125
450.6534	38796.8125
454.76644	39736.3125
458.87653	39870.0125
462.98368	39418.3125
467.08789	38743.9125
471.18916	37973.0125
475.2875	37339.7125
479.38291	37049.8125
483.4754	36907.4125
487.56496	36551.7125
491.6516	35863.3125
495.73531	35217.7125
499.81612	34701.1125
503.89401	34747.4125
507.96899	34811.8125
512.04106	34642.7125
516.11023	34338.1125
520.1765	34003.5125
524.23987	33663.8125
528.30034	33417.4125
532.35792	33155.1125
536.41261	32716.3125
540.46441	32212.3125
544.51333	32092.3125
548.55936	32453.9125
552.60252	33254.7125
556.64279	34328.8125
560.6802	35276.0125
564.71473	35832.3125
568.7464	36651.1125
572.7752	37953.0125
576.80114	38988.8125
580.82422	39988.8125
584.84444	41442.5125
588.86181	43443.0125
592.87633	45222.1125
596.888	45059.8125
600.89682	42863.0125
604.9028	41988.0125
608.90594	44623.3125
612.90624	48240.9125
616.90371	45339.4125
620.89834	37531.3125
624.89015	33983.3125
628.87913	33471.6125
632.86528	33585.9125
636.84862	33369.9125
640.82913	32643.8125
644.80683	31717.5125
648.78172	31188.4125
652.75379	31165.2125
656.72306	31615.7125
660.68952	32197.4125
664.65319	31976.0125
668.61405	31264.3125
672.57211	31123.0125
676.52738	31252.5125
680.47986	31193.1125
684.42955	30875.4125
688.37646	30786.0125
692.32058	31049.1125
696.26192	31584.3125
700.20048	32153.6125
704.13626	32466.9125
708.06928	32490.6125
711.99952	32304.3125
715.927	32340.6125
719.85171	32544.2125
723.77365	32428.7125
727.69284	31844.5125
731.60928	31350.9125
735.52295	31189.6125
739.43388	31198.2125
743.34206	31299.3125
747.24749	31554.1125
751.15017	31945.9125
755.05012	32614.0125
758.94733	33634.4125
762.8418	35481.6125
766.73354	38199.3125
770.62254	40747.3125
774.50882	41166.4125
778.39237	39259.4125
782.27321	36263.4125
786.15132	33820.8125
790.02671	32314.4125
793.89938	31596.9125
797.76935	31264.3125
801.6366	31170.3125
805.50115	31043.5125
809.36299	30931.0125
813.22213	30744.3125
817.07857	30602.5125
820.93231	30500.8125
824.78336	30361.6125
828.63172	30214.5125
832.47738	30121.9125
836.32036	30275.2125
840.16066	30427.5125
843.99827	30539.9125
847.8332	30441.7125
851.66546	30285.7125
855.49504	30245.5125
859.32195	30164.7125
863.1462	30070.2125
866.96777	29914.7125
870.78668	29818.6125
874.60293	29802.8125
878.41652	29808.4125
882.22745	29957.5125
886.03573	30041.1125
889.84136	30032.9125
893.64433	29894.0125
897.44466	29763.0125
901.24235	29585.9125
905.0374	29544.8125
908.8298	29533.6125
912.61957	29635.7125
916.40671	29981.3125
920.19121	30486.9125
923.97308	30998.8125
927.75233	31119.3125
931.52895	30853.9125
935.30295	30286.4125
939.07433	29633.9125
942.84309	29168.5125
946.60924	28979.0125
950.37278	28902.5125
954.13371	28876.3125
957.89203	28782.7125
961.64774	28703.7125
965.40086	28742.2125
969.15137	28683.1125
972.89929	28621.7125
976.64461	28558.2125
980.38733	28616.7125
984.12747	28736.8125
987.86502	28989.3125
991.59999	29252.1125
995.33237	29755.3125
999.06217	30575.8125
1002.78939	31572.7125
1006.51404	32274.0125
1010.23611	32727.3125
1013.95561	33041.0125
1017.67255	33050.4125
1021.38692	32583.2125
1025.09872	31992.3125
1028.80796	31991.2125
1032.51465	32763.7125
1036.21877	33600.6125
1039.92035	33870.1125
1043.61937	33606.0125
1047.31584	33023.4125
1051.00976	32228.2125
1054.70114	31848.8125
1058.38998	31769.4125
1062.07627	31922.4125
1065.76003	32156.9125
1069.44126	32484.0125
1073.11995	32978.7125
1076.79611	33432.9125
1080.46974	33750.8125
1084.14085	34092.9125
1087.80943	34526.1125
1091.47549	34932.6125
1095.13903	34972.8125
1098.80005	34453.1125
1102.45857	33614.0125
1106.11456	32909.6125
1109.76805	32669.3125
1113.41903	32693.9125
1117.06751	32934.0125
1120.71348	33306.1125
1124.35696	33669.3125
1127.99793	34139.5125
1131.63641	34388.5125
1135.2724	34235.8125
1138.90589	34044.2125
1142.5369	34077.1125
1146.16542	34385.7125
1149.79145	34809.9125
1153.415	35269.1125
1157.03607	35997.6125
1160.65467	37302.7125
1164.27079	39387.5125
1167.88443	41802.5125
1171.49561	44399.7125
1175.10432	47702.3125
1178.71056	52019.3125
1182.31434	55878.7125
1185.91565	57326.1125
1189.51451	56406.4125
1193.11091	54312.1125
1196.70485	52021.3125
1200.29634	50067.2125
1203.88538	48879.5125
1207.47197	48343.9125
1211.05612	47711.2125
1214.63782	46765.9125
1218.21708	45458.5125
1221.79391	44326.3125
1225.36829	43612.3125
1228.94024	42842.4125
1232.50976	41790.1125
1236.07685	40918.2125
1239.6415	40419.8125
1243.20374	40426.4125
1246.76355	40815.8125
1250.32093	41652.2125
1253.8759	42675.1125
1257.42845	43882.8125
1260.97859	45222.9125
1264.52631	46699.4125
1268.07163	48197.4125
1271.61453	49748.1125
1275.15503	51489.0125
1278.69312	53278.3125
1282.22882	55146.7125
1285.76211	57417.3125
1289.29301	60089.8125
1292.82151	63412.3125
1296.34761	67576.1125
1299.87133	72445.9125
1303.39266	77486.5125
1306.9116	82105.1125
1310.42815	85691.1125
1313.94233	87226.0125
1317.45412	86230.2125
1320.96354	83976.2125
1324.47058	81794.5125
1327.97525	80018.7125
1331.47754	78617.2125
1334.97747	77655.6125
1338.47502	76268.2125
1341.97022	74505.0125
1345.46305	72499.2125
1348.95352	71221.8125
1352.44163	71538.0125
1355.92738	73964.9125
1359.41078	78320.5125
1362.89183	81774.3125
1366.37053	80811.5125
1369.84688	73925.6125
1373.32088	64980.3125
1376.79254	58964.6125
1380.26186	57076.0125
1383.72883	57550.5125
1387.19347	57976.4125
1390.65578	57459.3125
1394.11575	57385.1125
1397.57339	58149.5125
1401.0287	59566.0125
1404.48168	60471.0125
1407.93234	60372.2125
1411.38068	58937.3125
1414.82669	56626.4125
1418.27039	53811.0125
1421.71177	51043.5125
1425.15083	48766.6125
1428.58758	47691.3125
1432.02203	48195.1125
1435.45416	49863.4125
1438.88399	51742.7125
1442.31151	53130.6125
1445.73673	54035.2125
1449.15965	54672.2125
1452.58027	54879.1125
1455.9986	54541.9125
1459.41463	54413.0125
1462.82837	54929.5125
1466.23982	55955.1125
1469.64898	57157.0125
1473.05586	57900.6125
1476.46045	58109.0125
1479.86276	57826.6125
1483.26279	57225.2125
1486.66054	56864.0125
1490.05602	56881.0125
1493.44922	57372.8125
1496.84016	57820.2125
1500.22882	58675.9125
1503.61521	59953.2125
1506.99934	61777.9125
1510.38121	63521.6125
1513.76081	64172.6125
1517.13816	63110.6125
1520.51324	61018.2125
1523.88607	59277.5125
1527.25665	58730.9125
1530.62498	58671.9125
1533.99105	58534.9125
1537.35488	57811.8125
1540.71647	56394.5125
1544.07581	54590.0125
1547.4329	52729.0125
1550.78776	51229.2125
1554.14038	50205.7125
1557.49077	49573.5125
1560.83892	49252.6125
1564.18484	49164.4125
1567.52853	49418.4125
1570.86999	50049.0125
1574.20922	51267.0125
1577.54624	52447.7125
1580.88103	53129.9125
1584.2136	53983.9125
1587.54395	56352.1125
1590.87208	59996.0125
1594.19801	64267.8125
1597.52172	67753.5125
1600.84321	68262.3125
1604.16251	64264.7125
1607.47959	57781.5125
1610.79447	51316.6125
1614.10715	45919.9125
1617.41763	42090.1125
1620.7259	39779.1125
1624.03199	38822.8125
1627.33587	39200.0125
1630.63757	40798.9125
1633.93707	44100.6125
1637.23439	49312.9125
1640.52951	56822.6125
1643.82246	65788.7125
1647.11321	73084.3125
1650.40179	74189.6125
1653.68819	67753.3125
1656.97241	57178.0125
1660.25446	47218.9125
1663.53433	40161.3125
1666.81203	35778.0125
1670.08756	33122.6125
1673.36092	31449.2125
1676.63211	30374.7125
1679.90115	29672.9125
1683.16801	29136.8125
1686.43272	28774.8125
1689.69527	28430.5125
1692.95567	28188.0125
1696.2139	28005.0125
1699.46999	27890.3125
1702.72392	27769.0125
1705.97571	27658.4125
1709.22535	27656.9125
1712.47284	27585.5125
1715.71819	27541.8125
1718.96139	27436.7125
1722.20246	27369.5125
1725.44139	27235.0125
1728.67818	27027.5125
1731.91284	26857.2125
1735.14537	26690.6125
1738.37576	26541.1125
1741.60403	26457.0125
1744.83017	26365.9125
1748.05418	26311.8125
1751.27607	26254.7125
1754.49584	26183.4125
1757.71349	26201.9125
1760.92903	26174.1125
1764.14244	26158.7125
1767.35375	26159.1125
1770.56294	26121.9125
1773.77002	26019.4125
1776.97499	25939.2125
1780.17785	25884.5125
1783.37861	25824.5125
1786.57727	25846.4125
1789.77382	25774.5125
1792.96828	25746.1125
1796.16064	25691.6125
1799.3509	25623.7125
1802.53907	25593.7125
1805.72514	25465.2125
1808.90913	25475.8125
1812.09102	25360.7125
1815.27083	25305.3125
1818.44856	25291.7125
1821.6242	25272.8125
1824.79776	25220.5125
1827.96924	25218.6125
1831.13864	25171.0125
1834.30597	25215.1125
1837.47122	25194.8125
1840.6344	25137.9125
1843.7955	25149.5125
1846.95454	25173.1125
1850.11151	25158.3125
1853.26642	25129.0125
1856.41926	25084.7125
1859.57004	25091.7125
1862.71876	25092.8125
1865.86542	25137.9125
1869.01003	25076.5125
1872.15258	25003.2125
1875.29308	24984.6125
1878.43152	24955.4125
1881.56792	24969.6125
1884.70227	24925.0125
1887.83457	24885.1125
1890.96482	24909.8125
1894.09304	24877.3125
1897.21921	24856.3125
1900.34335	24824.3125
1903.46544	24834.6125
1906.58551	24818.2125
1909.70353	24773.7125
1912.81953	24709.9125
1915.93349	24687.4125
1919.04543	24625.1125
1922.15534	24527.4125
1925.26322	24490.0125
1928.36908	24467.9125
1931.47292	24405.1125
1934.57473	24381.6125
1937.67453	24295.2125
1940.77232	24231.6125
1943.86808	24156.2125
1946.96184	24102.0125
1950.05358	24020.3125
1953.14331	23982.6125
1956.23103	23912.8125
1959.31675	23832.9125
1962.40046	23757.2125
1965.48217	23686.5125
1968.56188	23610.9125
1971.63959	23576.1125
1974.7153	23503.9125
1977.78901	23431.8125
1980.86073	23329.6125
1983.93046	23236.7125
1986.99819	23196.8125
1990.06394	23156.2125
1993.1277	23115.4125
1996.18947	23073.0125
1999.24925	22978.9125
2002.30706	22914.6125
2005.36288	22862.7125
2008.41672	22779.5125
2011.46859	22729.9125
2014.51848	22690.3125
2017.56639	22618.6125
2020.61233	22582.6125
2023.6563	22564.9125
2026.6983	22474.3125
2029.73833	22438.4125
2032.7764	22377.1125
2035.8125	22385.0125
2038.84664	22322.9125
2041.87881	22318.1125
2044.90903	22263.7125
2047.93729	22288.2125
2050.96359	22205.9125
2053.98794	22196.7125
2057.01034	22167.6125
2060.03078	22144.7125
2063.04927	22133.0125
2066.06582	22133.2125
2069.08042	22126.7125
2072.09307	22094.0125
2075.10378	22063.4125
2078.11255	22030.9125
2081.11938	22043.5125
2084.12426	22049.0125
2087.12722	22052.0125
2090.12824	22039.2125
2093.12732	22026.3125
2096.12447	22036.3125
2099.11969	22035.0125
2102.11299	22072.8125
2105.10435	22028.1125
2108.09379	22051.3125
2111.08131	22057.9125
2114.0669	22079.3125
2117.05057	22113.0125
2120.03233	22127.3125
2123.01216	22121.0125
2125.99008	22128.3125
2128.96609	22161.4125
2131.94018	22171.9125
2134.91236	22179.0125
2137.88263	22232.8125
2140.851	22254.8125
2143.81746	22271.0125
2146.78201	22265.2125
2149.74466	22207.0125
2152.7054	22179.8125
2155.66425	22175.1125
2158.6212	22175.7125
2161.57625	22189.5125
2164.52941	22181.5125
2167.48067	22191.6125
2170.43004	22187.2125
2173.37752	22138.8125
2176.32311	22155.1125
2179.26681	22210.3125
2182.20863	22216.4125
2185.14856	22232.1125
2188.08661	22248.3125
2191.02278	22236.1125
2193.95707	22232.2125
2196.88948	22224.1125
2199.82001	22170.8125
2202.74867	22155.8125
2205.67545	22193.5125
2208.60037	22155.4125
2211.52341	22135.6125
2214.44458	22100.4125
2217.36388	22061.1125
2220.28132	22021.6125
2223.1969	21987.8125
2226.11061	21982.0125
2229.02246	21921.5125
2231.93245	21902.1125
2234.84058	21878.6125
2237.74686	21844.6125
2240.65128	21826.7125
2243.55385	21769.2125
2246.45456	21753.8125
2249.35343	21696.1125
2252.25044	21663.4125
2255.14561	21626.4125
2258.03893	21613.0125
2260.93041	21546.3125
2263.82004	21491.6125
2266.70783	21464.3125
2269.59378	21390.4125
2272.4779	21362.9125
2275.36017	21335.0125
2278.24061	21284.8125
2281.11922	21247.9125
2283.996	21213.3125
2286.87094	21212.9125
2289.74405	21234.6125
2292.61534	21170.0125
2295.4848	21163.1125
2298.35243	21195.6125
2301.21824	21183.2125
2304.08223	21201.0125
2306.94439	21209.7125
2309.80474	21243.2125
2312.66327	21288.4125
2315.51999	21226.1125
2318.37489	21210.9125
2321.22797	21211.8125
2324.07925	21171.0125
2326.92871	21148.5125
2329.77637	21115.2125
2332.62222	21103.6125
2335.46626	21085.8125
2338.3085	21140.3125
2341.14893	21092.9125
2343.98756	21132.0125
2346.8244	21109.1125
2349.65943	21104.5125
2352.49267	21097.3125
2355.32411	21092.6125
2358.15376	21126.3125
2360.98161	21083.4125
2363.80768	21056.4125
2366.63195	21048.4125
2369.45444	21047.9125
2372.27514	20990.2125
2375.09405	20962.8125
2377.91118	20932.5125
2380.72652	20864.7125
2383.54009	20832.9125
2386.35187	20855.4125
2389.16188	20770.9125
2391.97011	20755.4125
2394.77657	20732.1125
2397.58125	20709.8125
2400.38416	20683.2125
2403.18529	20659.3125
2405.98466	20639.2125
2408.78226	20627.6125
2411.57809	20574.0125
2414.37216	20581.8125
2417.16446	20539.9125
2419.955	20532.3125
2422.74378	20480.9125
2425.5308	20432.1125
2428.31606	20488.0125
2431.09956	20460.9125
2433.88131	20457.4125
2436.6613	20476.3125
2439.43954	20450.6125
2442.21603	20460.3125
2444.99077	20431.0125
2447.76377	20440.6125
2450.53501	20449.0125
2453.30451	20446.2125
2456.07226	20429.3125
2458.83827	20442.6125
2461.60254	20447.2125
2464.36507	20418.9125
2467.12586	20398.9125
2469.88492	20437.5125
2472.64224	20491.4125
2475.39782	20515.7125
2478.15167	20539.9125
2480.90379	20505.5125
2483.65417	20518.0125
2486.40283	20555.7125
2489.14976	20570.8125
2491.89497	20536.8125
2494.63845	20565.8125
2497.3802	20523.7125
2500.12024	20568.3125
2502.85855	20529.6125
2505.59514	20511.2125
2508.33002	20528.7125
2511.06318	20475.9125
2513.79462	20461.5125
2516.52435	20470.3125
2519.25237	20477.0125
2521.97867	20395.4125
2524.70327	20429.0125
2527.42616	20422.8125
2530.14734	20432.6125
2532.86681	20405.8125
2535.58458	20446.7125
2538.30065	20404.8125
2541.01501	20422.3125
2543.72768	20391.0125
2546.43864	20402.4125
2549.14791	20377.8125
2551.85548	20367.0125
2554.56136	20365.1125
2557.26554	20350.7125
2559.96803	20304.5125
2562.66883	20274.8125
2565.36794	20278.6125
2568.06536	20293.9125
2570.7611	20290.5125
2573.45514	20310.1125
2576.14751	20248.4125
2578.83819	20253.3125
2581.52719	20237.7125
2584.21451	20268.3125
2586.90015	20231.8125
2589.58411	20263.3125
2592.2664	20284.0125
2594.94701	20228.2125
2597.62594	20228.9125
2600.30321	20229.4125
2602.9788	20224.2125
2605.65273	20223.5125
2608.32498	20253.4125
2610.99557	20199.8125
2613.66449	20256.4125
2616.33175	20232.3125
2618.99734	20223.9125
2621.66128	20217.3125
2624.32355	20204.2125
2626.98416	20185.3125
2629.64311	20165.7125
2632.30041	20208.5125
2634.95605	20182.2125
2637.61004	20154.3125
2640.26238	20111.3125
2642.91306	20095.7125
2645.56209	20100.0125
2648.20948	20100.8125
2650.85521	20093.5125
2653.4993	20132.3125
2656.14175	20121.5125
2658.78255	20151.9125
2661.42171	20195.3125
2664.05923	20223.6125
2666.6951	20213.1125
2669.32934	20263.3125
2671.96194	20255.7125
2674.59291	20268.9125
2677.22224	20271.8125
2679.84993	20261.9125
2682.476	20247.0125
2685.10043	20215.3125
2687.72324	20228.4125
2690.34441	20196.4125
2692.96396	20176.8125
2695.58188	20183.6125
2698.19818	20178.5125
2700.81285	20238.7125
2703.4259	20217.2125
2706.03733	20289.1125
2708.64714	20254.5125
2711.25533	20260.4125
2713.86191	20268.8125
2716.46687	20359.0125
2719.07021	20320.2125
2721.67194	20386.4125
2724.27206	20380.6125
2726.87057	20412.6125
2729.46747	20410.7125
2732.06276	20461.4125
2734.65644	20426.3125
2737.24852	20405.5125
2739.83899	20400.4125
2742.42786	20396.6125
2745.01513	20378.4125
2747.60079	20391.3125
2750.18486	20359.3125
2752.76733	20356.7125
2755.3482	20347.2125
2757.92747	20379.4125
2760.50515	20360.6125
2763.08123	20387.4125
2765.65573	20374.9125
2768.22863	20387.9125
2770.79994	20335.5125
2773.36967	20383.2125
2775.9378	20364.4125
2778.50435	20357.0125
2781.06932	20355.3125
2783.6327	20393.8125
2786.1945	20403.2125
2788.75471	20390.2125
2791.31335	20337.9125
2793.87041	20313.3125
2796.42589	20292.1125
2798.97979	20266.6125
2801.53212	20237.4125
2804.08288	20201.7125
2806.63206	20167.0125
2809.17967	20089.4125
2811.72571	20064.2125
2814.27018	20065.9125
2816.81308	20017.4125
2819.35442	20030.1125
2821.89419	19983.4125
2824.43239	19994.0125
2826.96904	20001.5125
2829.50412	20009.4125
2832.03763	19965.1125
2834.56959	19921.1125
2837.1	19928.0125
2839.62884	19945.6125
2842.15613	19920.1125
2844.68186	19992.1125
2847.20604	19976.8125
2849.72867	20012.6125
2852.24974	20000.1125
2854.76927	19990.0125
2857.28724	20013.2125
2859.80367	19979.1125
2862.31855	19939.3125
2864.83189	19892.4125
2867.34368	19889.3125
2869.85393	19884.3125
2872.36264	19833.1125
2874.8698	19838.1125
2877.37543	19808.6125
2879.87952	19805.2125
2882.38207	19823.9125
2884.88308	19867.0125
2887.38256	19831.6125
2889.88051	19871.6125
2892.37692	19850.2125
2894.8718	19867.5125
2897.36515	19906.8125
2899.85698	19930.2125
2902.34727	19977.3125
2904.83604	20008.6125
2907.32328	20039.7125
2909.809	20024.8125
2912.29319	20016.7125
2914.77587	20048.5125
2917.25702	20052.8125
2919.73665	20061.6125
2922.21476	20029.3125
2924.69136	20003.2125
2927.16644	20015.7125
2929.64	19929.1125
2932.11205	19931.4125
2934.58258	19886.1125
2937.05161	19899.1125
2939.51912	19927.4125
2941.98513	19877.7125
2944.44962	19895.7125
2946.91261	19797.9125
2949.37409	19816.1125
2951.83407	19793.0125
2954.29254	19796.9125
2956.74951	19796.5125
2959.20498	19760.0125
2961.65895	19748.2125
2964.11142	19751.5125
2966.56239	19739.9125
2969.01186	19727.6125
2971.45984	19708.4125
2973.90632	19701.8125
2976.35131	19632.1125
2978.7948	19611.6125
2981.23681	19552.0125
2983.67732	19495.4125
2986.11635	19462.2125
2988.55388	19412.4125
2990.98993	19404.9125
2993.4245	19322.8125
2995.85758	19265.8125
2998.28917	19226.1125
3000.71928	19249.8125
3003.14791	19196.4125
3005.57506	19203.1125
3008.00073	19109.9125
3010.42493	18988.6125
3012.84764	19072.7125
3015.26888	19067.3125
3017.68865	19037.4125
3020.10694	19008.0125
3022.52376	18955.2125
