Data from AgNPs_FTO_APTES_UA_5uM_CRN_0uM_R6G_10uM_NaF_0.1M_Addition_RamanShift__9__09-49-16-530.txt Node

Date: Mon Feb 07 09:49:16 GMT 2022
User: TCL
Spectrometer: QEP01345
Trigger mode: 4
Integration Time (sec): 7.000000E0
Scans to average: 10
Electric dark correction enabled: true
Nonlinearity correction enabled: false
Boxcar width: 0
XAxis mode: Raman Shifts
Number of Pixels in Spectrum: 1044
>>>>>Begin Spectral Data<<<<<
46.04893	-1.15
50.45542	-1.15
54.85868	0.45
59.25871	1.55
63.6555	71.45
68.04907	79.35
72.43941	83.35
76.82654	86.05
81.21044	86.55
85.59113	89.95
89.96862	96.55
94.34289	96.45
98.71396	102.35
103.08183	106.45
107.4465	104.25
111.80798	110.65
116.16626	113.75
120.52136	120.05
124.87327	128.45
129.222	134.15
133.56755	148.05
137.90993	158.05
142.24913	174.65
146.58517	205.05
150.91804	241.55
155.24774	289.25
159.57429	367.85
163.89768	487.05
168.21792	647.35
172.53501	891.15
176.84895	1247.75
181.15975	1758.25
185.46741	2462.85
189.77193	3406.15
194.07331	4550.55
198.37157	5865.85
202.6667	7226.75
206.9587	8608.95
211.24758	9927.15
215.53334	11279.85
219.81599	12784.65
224.09553	14402.35
228.37195	16200.25
232.64527	18150.75
236.91549	20227.35
241.18261	22267.05
245.44663	24122.35
249.70755	25782.15
253.96539	27289.75
258.22014	28529.05
262.4718	29513.85
266.72039	30084.55
270.96589	30471.95
275.20832	30527.15
279.44768	30400.55
283.68397	30193.35
287.91719	30060.45
292.14735	29983.15
296.37445	29947.25
300.59849	30010.55
304.81948	30167.25
309.03742	30261.65
313.25231	30084.95
317.46415	29377.75
321.67296	28281.35
325.87872	27208.05
330.08145	26481.15
334.28114	26244.05
338.47781	26322.45
342.67145	26588.45
346.86207	26871.55
351.04966	27370.05
355.23424	27873.45
359.4158	28369.55
363.59435	28747.85
367.76989	28940.55
371.94243	28900.65
376.11196	28849.85
380.27849	28650.65
384.44203	28435.95
388.60257	28576.05
392.76012	28921.25
396.91468	29587.65
401.06626	30291.35
405.21485	30750.15
409.36047	30572.45
413.50311	29932.95
417.64277	29638.45
421.77947	29641.25
425.9132	29652.65
430.04396	29683.15
434.17176	29543.95
438.2966	29363.25
442.41849	29408.65
446.53742	29836.75
450.6534	30476.55
454.76644	31071.35
458.87653	31465.35
462.98368	31519.85
467.08789	31456.25
471.18916	31245.75
475.2875	31041.65
479.38291	31181.25
483.4754	31530.35
487.56496	31671.75
491.6516	31449.95
495.73531	30897.85
499.81612	30507.25
503.89401	30440.55
507.96899	30381.55
512.04106	30162.15
516.11023	29605.15
520.1765	28852.35
524.23987	28100.25
528.30034	27557.55
532.35792	27017.15
536.41261	26637.65
540.46441	26319.55
544.51333	26346.25
548.55936	26883.65
552.60252	27799.95
556.64279	28762.75
560.6802	29398.35
564.71473	29839.75
568.7464	30838.95
572.7752	32530.75
576.80114	34505.55
580.82422	36360.75
584.84444	38155.45
588.86181	39919.35
592.87633	40968.85
596.888	39801.25
600.89682	37125.75
604.9028	36211.05
608.90594	38395.95
612.90624	41026.85
616.90371	38051.95
620.89834	30908.75
624.89015	27539.45
628.87913	27360.55
632.86528	28100.55
636.84862	28417.45
640.82913	27754.95
644.80683	26642.55
648.78172	25883.15
652.75379	25756.05
656.72306	26034.25
660.68952	26450.75
664.65319	26329.85
668.61405	25828.25
672.57211	25602.55
676.52738	25660.85
680.47986	25566.35
684.42955	25342.35
688.37646	25074.55
692.32058	25241.85
696.26192	25715.95
700.20048	26256.65
704.13626	26715.95
708.06928	27051.35
711.99952	27138.45
715.927	27104.85
719.85171	26996.75
723.77365	26701.55
727.69284	25997.35
731.60928	25358.95
735.52295	24975.75
739.43388	24864.65
743.34206	24938.55
747.24749	25199.15
751.15017	25721.25
755.05012	26508.95
758.94733	27704.15
762.8418	29673.55
766.73354	32579.15
770.62254	35134.15
774.50882	34962.15
778.39237	32380.45
782.27321	29534.95
786.15132	27301.85
790.02671	25904.55
793.89938	25140.45
797.76935	24710.25
801.6366	24604.25
805.50115	24485.35
809.36299	24353.25
813.22213	24256.85
817.07857	24177.65
820.93231	24101.85
824.78336	23940.35
828.63172	23657.95
832.47738	23447.75
836.32036	23371.95
840.16066	23339.45
843.99827	23365.05
847.8332	23352.25
851.66546	23373.85
855.49504	23491.05
859.32195	23488.55
863.1462	23420.25
866.96777	23310.55
870.78668	23245.25
874.60293	23176.85
878.41652	23125.95
882.22745	23166.05
886.03573	23232.95
889.84136	23271.85
893.64433	23246.15
897.44466	23279.55
901.24235	23301.15
905.0374	23235.15
908.8298	23120.95
912.61957	23159.65
916.40671	23462.75
920.19121	24139.35
923.97308	24779.65
927.75233	24931.35
931.52895	24519.55
935.30295	23690.65
939.07433	22791.35
942.84309	22134.65
946.60924	21778.25
950.37278	21680.25
954.13371	21678.15
957.89203	21774.25
961.64774	21868.85
965.40086	21854.85
969.15137	21833.45
972.89929	21729.55
976.64461	21476.85
980.38733	21252.75
984.12747	21167.55
987.86502	21150.55
991.59999	21189.75
995.33237	21279.85
999.06217	21500.95
1002.78939	21815.75
1006.51404	22182.75
1010.23611	22653.85
1013.95561	23090.55
1017.67255	23231.55
1021.38692	23010.95
1025.09872	22632.45
1028.80796	22213.35
1032.51465	22046.95
1036.21877	22082.05
1039.92035	22258.75
1043.61937	22522.75
1047.31584	22675.25
1051.00976	22888.55
1054.70114	23100.95
1058.38998	23372.15
1062.07627	23757.65
1065.76003	24263.85
1069.44126	25002.25
1073.11995	25949.25
1076.79611	26868.55
1080.46974	27135.55
1084.14085	27218.65
1087.80943	27567.45
1091.47549	28119.55
1095.13903	28458.55
1098.80005	28068.15
1102.45857	26717.55
1106.11456	25207.85
1109.76805	24187.15
1113.41903	23733.05
1117.06751	23679.35
1120.71348	23943.55
1124.35696	24316.75
1127.99793	24825.45
1131.63641	25319.05
1135.2724	25399.95
1138.90589	25402.15
1142.5369	25538.45
1146.16542	25777.35
1149.79145	26168.65
1153.415	26648.25
1157.03607	27303.05
1160.65467	28467.15
1164.27079	30256.55
1167.88443	32454.95
1171.49561	34782.95
1175.10432	37458.75
1178.71056	40768.75
1182.31434	43847.95
1185.91565	45448.35
1189.51451	45507.15
1193.11091	44513.35
1196.70485	42452.05
1200.29634	40045.75
1203.88538	38588.45
1207.47197	38054.25
1211.05612	37989.85
1214.63782	37451.05
1218.21708	36073.95
1221.79391	34214.55
1225.36829	32653.15
1228.94024	31663.65
1232.50976	31025.45
1236.07685	30646.85
1239.6415	30338.85
1243.20374	30285.55
1246.76355	30445.95
1250.32093	30946.25
1253.8759	31773.95
1257.42845	33092.65
1260.97859	34654.05
1264.52631	36214.15
1268.07163	37675.35
1271.61453	39161.35
1275.15503	40729.55
1278.69312	42513.15
1282.22882	44712.35
1285.76211	47226.35
1289.29301	49987.65
1292.82151	52908.25
1296.34761	56222.85
1299.87133	59976.35
1303.39266	63471.75
1306.9116	66102.25
1310.42815	67486.05
1313.94233	67864.05
1317.45412	67320.95
1320.96354	67089.45
1324.47058	67683.15
1327.97525	68577.55
1331.47754	68998.35
1334.97747	68475.95
1338.47502	67004.45
1341.97022	65161.05
1345.46305	63472.55
1348.95352	61608.65
1352.44163	59767.05
1355.92738	58964.25
1359.41078	60193.45
1362.89183	62626.15
1366.37053	63524.25
1369.84688	60682.85
1373.32088	54841.65
1376.79254	49369.45
1380.26186	46450.45
1383.72883	45638.65
1387.19347	45645.55
1390.65578	45448.65
1394.11575	45279.25
1397.57339	45736.65
1401.0287	46658.05
1404.48168	47245.45
1407.93234	46524.05
1411.38068	44435.85
1414.82669	41578.55
1418.27039	38711.85
1421.71177	36156.55
1425.15083	34381.35
1428.58758	33561.45
1432.02203	33837.85
1435.45416	34993.75
1438.88399	36370.85
1442.31151	37540.55
1445.73673	38463.75
1449.15965	39287.75
1452.58027	39861.85
1455.9986	40170.95
1459.41463	40528.95
1462.82837	41302.65
1466.23982	42210.15
1469.64898	42978.35
1473.05586	43294.65
1476.46045	43177.95
1479.86276	42877.15
1483.26279	42735.15
1486.66054	43061.75
1490.05602	43826.95
1493.44922	44999.65
1496.84016	46507.25
1500.22882	48325.65
1503.61521	50497.25
1506.99934	52667.25
1510.38121	54570.35
1513.76081	55466.15
1517.13816	55133.25
1520.51324	54123.75
1523.88607	53195.55
1527.25665	52595.25
1530.62498	51964.25
1533.99105	50856.55
1537.35488	49305.75
1540.71647	47068.45
1544.07581	44653.75
1547.4329	42349.35
1550.78776	40564.25
1554.14038	39533.65
1557.49077	39146.05
1560.83892	39146.95
1564.18484	39282.25
1567.52853	39359.15
1570.86999	39486.85
1574.20922	40155.65
1577.54624	41049.05
1580.88103	41360.55
1584.2136	41935.85
1587.54395	43650.05
1590.87208	46228.65
1594.19801	48971.05
1597.52172	50806.85
1600.84321	50018.55
1604.16251	46181.85
1607.47959	41472.25
1610.79447	37239.55
1614.10715	33530.55
1617.41763	30411.55
1620.7259	28238.45
1624.03199	27173.95
1627.33587	27141.05
1630.63757	28115.95
1633.93707	30587.15
1637.23439	35010.45
1640.52951	41683.55
1643.82246	50202.65
1647.11321	58115.85
1650.40179	61297.55
1653.68819	57760.35
1656.97241	49333.65
1660.25446	39940.55
1663.53433	32326.55
1666.81203	27275.15
1670.08756	24173.75
1673.36092	22274.55
1676.63211	21103.55
1679.90115	20300.55
1683.16801	19735.25
1686.43272	19309.75
1689.69527	18982.35
1692.95567	18755.25
1696.2139	18585.85
1699.46999	18401.25
1702.72392	18283.65
1705.97571	18188.95
1709.22535	18091.25
1712.47284	17970.85
1715.71819	17888.35
1718.96139	17779.05
1722.20246	17702.95
1725.44139	17508.45
1728.67818	17381.45
1731.91284	17234.85
1735.14537	17059.25
1738.37576	16919.05
1741.60403	16846.25
1744.83017	16760.95
1748.05418	16671.15
1751.27607	16593.55
1754.49584	16532.05
1757.71349	16510.75
1760.92903	16447.05
1764.14244	16417.05
1767.35375	16431.65
1770.56294	16331.95
1773.77002	16305.95
1776.97499	16247.25
1780.17785	16172.25
1783.37861	16125.95
1786.57727	16100.55
1789.77382	16054.45
1792.96828	15971.15
1796.16064	15928.45
1799.3509	15874.75
1802.53907	15829.95
1805.72514	15781.15
1808.90913	15671.95
1812.09102	15626.75
1815.27083	15572.85
1818.44856	15566.25
1821.6242	15536.45
1824.79776	15466.25
1827.96924	15442.75
1831.13864	15443.15
1834.30597	15432.05
1837.47122	15461.95
1840.6344	15411.25
1843.7955	15397.55
1846.95454	15423.95
1850.11151	15404.65
1853.26642	15371.05
1856.41926	15354.25
1859.57004	15314.15
1862.71876	15312.35
1865.86542	15246.35
1869.01003	15187.35
1872.15258	15171.85
1875.29308	15090.25
1878.43152	15048.75
1881.56792	14979.85
1884.70227	14993.55
1887.83457	14997.05
1890.96482	14975.45
1894.09304	14924.15
1897.21921	14899.95
1900.34335	14851.35
1903.46544	14798.55
1906.58551	14763.95
1909.70353	14790.45
1912.81953	14681.45
1915.93349	14649.55
1919.04543	14648.95
1922.15534	14569.85
1925.26322	14511.95
1928.36908	14479.55
1931.47292	14444.05
1934.57473	14359.15
1937.67453	14301.45
1940.77232	14241.45
1943.86808	14205.65
1946.96184	14159.95
1950.05358	14120.55
1953.14331	14076.25
1956.23103	14059.25
1959.31675	14017.05
1962.40046	13962.05
1965.48217	13880.35
1968.56188	13845.55
1971.63959	13807.75
1974.7153	13728.05
1977.78901	13683.15
1980.86073	13610.55
1983.93046	13544.55
1986.99819	13493.35
1990.06394	13469.25
1993.1277	13408.85
1996.18947	13331.35
1999.24925	13295.65
2002.30706	13238.85
2005.36288	13186.25
2008.41672	13132.95
2011.46859	13087.45
2014.51848	13028.35
2017.56639	12995.35
2020.61233	12960.25
2023.6563	12925.75
2026.6983	12869.25
2029.73833	12843.75
2032.7764	12834.85
2035.8125	12784.05
2038.84664	12734.65
2041.87881	12698.55
2044.90903	12656.65
2047.93729	12642.75
2050.96359	12599.25
2053.98794	12630.15
2057.01034	12602.75
2060.03078	12574.25
2063.04927	12561.85
2066.06582	12551.05
2069.08042	12521.35
2072.09307	12516.25
2075.10378	12510.15
2078.11255	12491.95
2081.11938	12463.05
2084.12426	12447.25
2087.12722	12453.25
2090.12824	12439.15
2093.12732	12467.55
2096.12447	12417.55
2099.11969	12417.65
2102.11299	12424.75
2105.10435	12400.05
2108.09379	12412.35
2111.08131	12387.05
2114.0669	12413.55
2117.05057	12433.75
2120.03233	12426.85
2123.01216	12425.15
2125.99008	12438.55
2128.96609	12430.85
2131.94018	12438.15
2134.91236	12411.15
2137.88263	12410.55
2140.851	12400.75
2143.81746	12368.95
2146.78201	12381.05
2149.74466	12354.05
2152.7054	12348.35
2155.66425	12329.55
2158.6212	12298.45
2161.57625	12277.85
2164.52941	12253.35
2167.48067	12257.95
2170.43004	12227.75
2173.37752	12186.45
2176.32311	12215.65
2179.26681	12191.25
2182.20863	12196.25
2185.14856	12204.95
2188.08661	12179.65
2191.02278	12182.45
2193.95707	12122.45
2196.88948	12119.65
2199.82001	12083.45
2202.74867	12031.45
2205.67545	12030.05
2208.60037	11994.45
2211.52341	11976.45
2214.44458	11969.95
2217.36388	11927.35
2220.28132	11909.05
2223.1969	11872.85
2226.11061	11860.55
2229.02246	11826.65
2231.93245	11842.55
2234.84058	11823.35
2237.74686	11827.05
2240.65128	11758.75
2243.55385	11746.85
2246.45456	11714.05
2249.35343	11671.55
2252.25044	11655.15
2255.14561	11607.85
2258.03893	11551.95
2260.93041	11548.75
2263.82004	11516.45
2266.70783	11442.55
2269.59378	11403.15
2272.4779	11377.55
2275.36017	11352.65
2278.24061	11331.45
2281.11922	11293.75
2283.996	11274.45
2286.87094	11277.85
2289.74405	11260.85
2292.61534	11214.95
2295.4848	11170.35
2298.35243	11174.35
2301.21824	11175.85
2304.08223	11161.85
2306.94439	11129.95
2309.80474	11136.55
2312.66327	11128.45
2315.51999	11082.65
2318.37489	11079.15
2321.22797	11081.85
2324.07925	11046.45
2326.92871	11036.75
2329.77637	11006.05
2332.62222	10981.45
2335.46626	10961.75
2338.3085	10958.65
2341.14893	10960.75
2343.98756	10941.95
2346.8244	10958.55
2349.65943	10963.15
2352.49267	10982.05
2355.32411	10989.05
2358.15376	10996.55
2360.98161	10988.25
2363.80768	10988.05
2366.63195	10971.85
2369.45444	10981.35
2372.27514	10931.95
2375.09405	10943.05
2377.91118	10897.75
2380.72652	10853.35
2383.54009	10823.55
2386.35187	10790.05
2389.16188	10764.25
2391.97011	10724.65
2394.77657	10687.65
2397.58125	10650.25
2400.38416	10640.75
2403.18529	10612.15
2405.98466	10597.85
2408.78226	10564.75
2411.57809	10552.95
2414.37216	10554.55
2417.16446	10555.15
2419.955	10501.15
2422.74378	10525.25
2425.5308	10497.85
2428.31606	10494.15
2431.09956	10487.65
2433.88131	10468.25
2436.6613	10491.35
2439.43954	10484.15
2442.21603	10510.55
2444.99077	10477.05
2447.76377	10474.05
2450.53501	10467.75
2453.30451	10454.05
2456.07226	10446.35
2458.83827	10434.75
2461.60254	10437.55
2464.36507	10429.65
2467.12586	10426.25
2469.88492	10401.95
2472.64224	10402.05
2475.39782	10414.95
2478.15167	10408.95
2480.90379	10384.15
2483.65417	10383.75
2486.40283	10387.95
2489.14976	10394.55
2491.89497	10417.25
2494.63845	10421.35
2497.3802	10389.85
2500.12024	10364.95
2502.85855	10353.95
2505.59514	10352.95
2508.33002	10323.95
2511.06318	10310.95
2513.79462	10288.65
2516.52435	10301.25
2519.25237	10294.25
2521.97867	10256.75
2524.70327	10257.95
2527.42616	10200.65
2530.14734	10205.05
2532.86681	10194.15
2535.58458	10212.55
2538.30065	10192.15
2541.01501	10174.85
2543.72768	10176.25
2546.43864	10155.95
2549.14791	10120.15
2551.85548	10129.45
2554.56136	10114.35
2557.26554	10061.95
2559.96803	10106.45
2562.66883	10089.05
2565.36794	10072.05
2568.06536	10051.95
2570.7611	10034.95
2573.45514	10029.75
2576.14751	10011.75
2578.83819	9999.85
2581.52719	9995.65
2584.21451	9980.85
2586.90015	9984.35
2589.58411	9965.75
2592.2664	9945.85
2594.94701	9942.65
2597.62594	9944.15
2600.30321	9920.75
2602.9788	9928.35
2605.65273	9930.15
2608.32498	9947.95
2610.99557	9932.65
2613.66449	9935.65
2616.33175	9911.65
2618.99734	9898.05
2621.66128	9872.45
2624.32355	9877.45
2626.98416	9864.45
2629.64311	9852.25
2632.30041	9840.25
2634.95605	9821.05
2637.61004	9840.25
2640.26238	9819.05
2642.91306	9824.75
2645.56209	9806.95
2648.20948	9830.95
2650.85521	9840.85
2653.4993	9834.15
2656.14175	9807.65
2658.78255	9820.95
2661.42171	9818.55
2664.05923	9816.25
2666.6951	9817.05
2669.32934	9835.85
2671.96194	9834.95
2674.59291	9819.05
2677.22224	9844.45
2679.84993	9858.55
2682.476	9824.25
2685.10043	9845.55
2687.72324	9816.25
2690.34441	9822.05
2692.96396	9815.65
2695.58188	9797.85
2698.19818	9815.35
2700.81285	9788.75
2703.4259	9812.25
2706.03733	9803.75
2708.64714	9797.75
2711.25533	9817.15
2713.86191	9779.45
2716.46687	9810.05
2719.07021	9795.85
2721.67194	9810.65
2724.27206	9821.85
2726.87057	9815.65
2729.46747	9814.85
2732.06276	9837.85
2734.65644	9817.65
2737.24852	9832.85
2739.83899	9811.85
2742.42786	9815.65
2745.01513	9819.65
2747.60079	9806.95
2750.18486	9782.35
2752.76733	9728.95
2755.3482	9732.95
2757.92747	9734.85
2760.50515	9700.85
2763.08123	9703.25
2765.65573	9717.35
2768.22863	9696.35
2770.79994	9705.15
2773.36967	9718.05
2775.9378	9696.75
2778.50435	9689.15
2781.06932	9685.85
2783.6327	9692.65
2786.1945	9707.65
2788.75471	9707.85
2791.31335	9690.35
2793.87041	9690.05
2796.42589	9665.35
2798.97979	9660.35
2801.53212	9663.75
2804.08288	9634.05
2806.63206	9614.85
2809.17967	9604.75
2811.72571	9578.15
2814.27018	9555.25
2816.81308	9558.35
2819.35442	9520.05
2821.89419	9524.95
2824.43239	9537.25
2826.96904	9490.05
2829.50412	9498.55
2832.03763	9487.95
2834.56959	9475.35
2837.1	9477.35
2839.62884	9481.75
2842.15613	9491.35
2844.68186	9520.45
2847.20604	9495.25
2849.72867	9511.45
2852.24974	9514.25
2854.76927	9494.35
2857.28724	9492.15
2859.80367	9509.55
2862.31855	9490.95
2864.83189	9483.55
2867.34368	9460.65
2869.85393	9447.55
2872.36264	9425.15
2874.8698	9390.25
2877.37543	9404.85
2879.87952	9423.25
2882.38207	9414.95
2884.88308	9388.65
2887.38256	9411.65
2889.88051	9430.75
2892.37692	9434.15
2894.8718	9450.05
2897.36515	9426.45
2899.85698	9431.05
2902.34727	9467.85
2904.83604	9481.75
2907.32328	9478.15
2909.809	9485.25
2912.29319	9480.95
2914.77587	9477.05
2917.25702	9471.85
2919.73665	9453.25
2922.21476	9447.45
2924.69136	9443.95
2927.16644	9443.65
2929.64	9421.55
2932.11205	9404.55
2934.58258	9404.25
2937.05161	9373.15
2939.51912	9381.65
2941.98513	9364.25
2944.44962	9311.45
2946.91261	9270.25
2949.37409	9264.95
2951.83407	9237.85
2954.29254	9229.85
2956.74951	9211.45
2959.20498	9205.45
2961.65895	9152.05
2964.11142	9151.75
2966.56239	9125.75
2969.01186	9115.85
2971.45984	9059.45
2973.90632	9072.85
2976.35131	9043.15
2978.7948	9034.35
2981.23681	9008.75
2983.67732	8989.75
2986.11635	8950.35
2988.55388	8919.35
2990.98993	8900.15
2993.4245	8848.55
2995.85758	8804.35
2998.28917	8815.15
3000.71928	8755.95
3003.14791	8720.05
3005.57506	8709.35
3008.00073	8678.95
3010.42493	8659.45
3012.84764	8644.85
3015.26888	8648.25
3017.68865	8606.55
3020.10694	8599.85
3022.52376	8551.45
3024.9391	8535.15
3027.35298	8509.85
3029.76539	8528.95
3032.17632	8534.25
3034.5858	8499.65
3036.9938	8509.95
3039.40034	8505.25
3041.80542	8486.95
3044.20903	8475.05
3046.61118	8469.85
3049.01187	8452.35
3051.4111	8436.75
3053.80888	8408.55
3056.20519	8392.85
3058.60005	8350.35
3060.99345	8318.85
3063.3854	8316.75
3065.7759	8271.15
3068.16494	8243.75
3070.55254	8201.75
3072.93868	8168.85
3075.32338	8146.05
3077.70662	8101.85
3080.08842	8063.65
3082.46878	8069.65
3084.84769	8044.05
3087.22515	8043.65
3089.60118	8023.75
3091.97576	8002.05
3094.3489	8021.85
3096.72061	7993.05
3099.09087	8017.35
3101.4597	7957.55
3103.82709	7974.05
3106.19305	7980.75
3108.55757	7967.95
3110.92066	7947.45
3113.28232	7924.85
3115.64255	7900.85
3118.00134	7878.05
3120.35871	7850.85
3122.71466	7836.55
3125.06917	7829.05
3127.42226	7817.05
3129.77393	7823.55
3132.12417	7788.25
3134.47299	7780.05
3136.82039	7781.25
3139.16636	7787.35
3141.51092	7768.95
3143.85406	7750.75
3146.19579	7741.55
3148.53609	7753.15
3150.87499	7734.05
3153.21246	7731.05
3155.54853	7741.65
3157.88318	7747.95
3160.21642	7751.45
3162.54826	7764.45
3164.87868	7735.75
3167.2077	7753.35
3169.5353	7736.55
3171.86151	7748.05
3174.18631	7742.55
3176.5097	7744.25
3178.83169	7726.55
3181.15228	7720.75
3183.47147	7704.55
3185.78926	7689.95
3188.10565	7696.45
3190.42065	7644.05
3192.73424	7632.95
3195.04645	7616.85
3197.35725	7616.65
3199.66667	7597.65
3201.97469	7585.65
3204.28132	7577.65
3206.58656	7584.75
3208.8904	7579.05
3211.19287	7599.95
3213.49394	7571.85
3215.79363	7582.75
3218.09193	7569.75
3220.38884	7570.35
3222.68438	7587.65
3224.97853	7586.35
3227.2713	7592.85
3229.56269	7559.05
3231.8527	7550.05
3234.14133	7555.05
3236.42858	7545.05
3238.71446	7511.65
3240.99896	7539.35
3243.28209	7513.25
3245.56384	7504.05
3247.84423	7500.05
3250.12324	7463.55
3252.40088	7427.95
3254.67715	7427.05
3256.95205	7388.95
3259.22558	7413.35
3261.49775	7388.05
3263.76855	7386.15
3266.03799	7357.25
3268.30606	7358.45
3270.57277	7336.15
