Data from AgNPs_FTO_APTES_UA_5uM_CRN_100uM_R6G_10uM_NaF_0.1M_Addition_RamanShift__21__15-00-46-892.txt Node

Date: Mon Feb 07 15:00:46 GMT 2022
User: TCL
Spectrometer: QEP01345
Trigger mode: 4
Integration Time (sec): 7.000000E0
Scans to average: 10
Electric dark correction enabled: true
Nonlinearity correction enabled: false
Boxcar width: 0
XAxis mode: Raman Shifts
Number of Pixels in Spectrum: 1044
>>>>>Begin Spectral Data<<<<<
46.04893	-1
50.45542	-1.5
54.85868	-0.2
59.25871	0.9
63.6555	66.6
68.04907	69.8
72.43941	71.9
76.82654	77.3
81.21044	77.5
85.59113	82.5
89.96862	90.3
94.34289	85.1
98.71396	89.2
103.08183	92
107.4465	94.3
111.80798	98.2
116.16626	99.5
120.52136	109.3
124.87327	115.6
129.222	118
133.56755	126.5
137.90993	138.7
142.24913	154.1
146.58517	177.4
150.91804	205.1
155.24774	253.7
159.57429	317
163.89768	406.4
168.21792	552.8
172.53501	748.6
176.84895	1052.2
181.15975	1475
185.46741	2078.1
189.77193	2877.1
194.07331	3826.8
198.37157	4950.8
202.6667	6097.6
206.9587	7260.9
211.24758	8391.4
215.53334	9520.8
219.81599	10720.3
224.09553	12056.3
228.37195	13489.3
232.64527	15095
236.91549	16767.7
241.18261	18451.4
245.44663	20038.6
249.70755	21454
253.96539	22735.8
258.22014	23821
262.4718	24753.9
266.72039	25452.3
270.96589	25859.5
275.20832	26017.5
279.44768	26032.8
283.68397	26040.2
287.91719	25974.7
292.14735	26017.8
296.37445	26136.3
300.59849	26189.9
304.81948	26189.6
309.03742	25915
313.25231	25414.9
317.46415	24651.3
321.67296	23795.4
325.87872	23169.5
330.08145	22845.2
334.28114	22761.1
338.47781	22926.5
342.67145	23099.4
346.86207	23449.1
351.04966	23915.7
355.23424	24401.8
359.4158	24765.3
363.59435	25054.1
367.76989	25233.9
371.94243	25340.8
376.11196	25451.6
380.27849	25583.4
384.44203	25763.6
388.60257	25953.4
392.76012	26205.9
396.91468	26528
401.06626	26966.2
405.21485	27216.9
409.36047	27159.5
413.50311	26803
417.64277	26521.5
421.77947	26506.2
425.9132	26649.2
430.04396	26814.8
434.17176	27075.5
438.2966	27367.8
442.41849	27870.1
446.53742	28650.9
450.6534	29575.1
454.76644	30320.2
458.87653	30589.7
462.98368	30578.1
467.08789	30311.1
471.18916	30115.2
475.2875	30028.5
479.38291	30154.1
483.4754	30105.2
487.56496	29619.8
491.6516	28914
495.73531	28128.4
499.81612	27693.2
503.89401	27658.8
507.96899	27666.6
512.04106	27540.1
516.11023	27296.7
520.1765	26922.3
524.23987	26631.1
528.30034	26328.1
532.35792	26123.9
536.41261	25907.8
540.46441	25759.4
544.51333	25862.9
548.55936	26263.3
552.60252	26887.6
556.64279	27666.2
560.6802	28192.3
564.71473	28620
568.7464	29231.2
572.7752	30050.8
576.80114	30540.4
580.82422	30877.5
584.84444	31085.7
588.86181	31411.4
592.87633	31832.2
596.888	32128.7
600.89682	32119.1
604.9028	32599.8
608.90594	34348.1
612.90624	36174
616.90371	33844.3
620.89834	28871.3
624.89015	26751.6
628.87913	26679.2
632.86528	26930.4
636.84862	26968.6
640.82913	26621
644.80683	25891.3
648.78172	25251.3
652.75379	24999.3
656.72306	25104.3
660.68952	25425.9
664.65319	25360.2
668.61405	25025.5
672.57211	24860.2
676.52738	24914.3
680.47986	24934.9
684.42955	24862.9
688.37646	24800.5
692.32058	24856.6
696.26192	25042.8
700.20048	25353.4
704.13626	25489.8
708.06928	25546
711.99952	25423
715.927	25266.5
719.85171	25275.3
723.77365	25222.5
727.69284	25037.6
731.60928	24889.4
735.52295	24785.1
739.43388	24801.3
743.34206	24815.7
747.24749	24907.7
751.15017	25180
755.05012	25681.1
758.94733	26484.3
762.8418	27864.7
766.73354	29897.5
770.62254	31646.8
774.50882	31856.8
778.39237	30244.3
782.27321	27982.1
786.15132	26279.5
790.02671	25206.1
793.89938	24694.1
797.76935	24501.4
801.6366	24483
805.50115	24472.9
809.36299	24376.9
813.22213	24251.8
817.07857	24265.4
820.93231	24196.2
824.78336	24091.9
828.63172	23945.9
832.47738	23891.8
836.32036	23835.2
840.16066	23889
843.99827	23925
847.8332	23865.3
851.66546	23741
855.49504	23718.4
859.32195	23704.1
863.1462	23671.2
866.96777	23615.6
870.78668	23533.5
874.60293	23518.8
878.41652	23497
882.22745	23551.4
886.03573	23585.8
889.84136	23589.4
893.64433	23546.9
897.44466	23470.2
901.24235	23350.2
905.0374	23266.4
908.8298	23257.6
912.61957	23322.6
916.40671	23563.7
920.19121	23945.3
923.97308	24169.2
927.75233	24087.8
931.52895	23912.8
935.30295	23618.2
939.07433	23184
942.84309	22848
946.60924	22663.7
950.37278	22577.3
954.13371	22498.6
957.89203	22473.7
961.64774	22479.1
965.40086	22424.1
969.15137	22323.4
972.89929	22162.8
976.64461	22056.5
980.38733	22009.8
984.12747	22029.3
987.86502	22238
991.59999	22479.3
995.33237	22826.8
999.06217	23369.5
1002.78939	24029.2
1006.51404	24436.1
1010.23611	24673.2
1013.95561	24843.6
1017.67255	24859.3
1021.38692	24605.1
1025.09872	24327.2
1028.80796	24384.7
1032.51465	24797.8
1036.21877	25241.1
1039.92035	25315.2
1043.61937	25136.7
1047.31584	24704.7
1051.00976	24364.4
1054.70114	24257.7
1058.38998	24352.3
1062.07627	24578.4
1065.76003	24856.1
1069.44126	25025.8
1073.11995	25253
1076.79611	25393
1080.46974	25504.9
1084.14085	25638.9
1087.80943	25886.2
1091.47549	26142.8
1095.13903	26287.9
1098.80005	26054.4
1102.45857	25595.2
1106.11456	25128.2
1109.76805	24958.2
1113.41903	25046.8
1117.06751	25263.9
1120.71348	25596.6
1124.35696	25883.6
1127.99793	26178.6
1131.63641	26342.2
1135.2724	26257.4
1138.90589	26049.6
1142.5369	26030.8
1146.16542	26131.8
1149.79145	26380.4
1153.415	26835.9
1157.03607	27351.8
1160.65467	28231.8
1164.27079	29501.2
1167.88443	31091.7
1171.49561	33074.1
1175.10432	35537.3
1178.71056	38522.8
1182.31434	41246
1185.91565	42761.9
1189.51451	42914.3
1193.11091	42135.7
1196.70485	40807.8
1200.29634	39297.2
1203.88538	37921.6
1207.47197	37023.8
1211.05612	36313.1
1214.63782	35603
1218.21708	34770.7
1221.79391	34075.7
1225.36829	33511.2
1228.94024	32893
1232.50976	32203.8
1236.07685	31671.2
1239.6415	31461.6
1243.20374	31480.8
1246.76355	31678.1
1250.32093	32106.6
1253.8759	32847.1
1257.42845	33736.4
1260.97859	34612.3
1264.52631	35478
1268.07163	36247
1271.61453	37331.3
1275.15503	38410.6
1278.69312	39681.9
1282.22882	40904.2
1285.76211	42177.2
1289.29301	43726.5
1292.82151	45870.9
1296.34761	48510.9
1299.87133	51597.2
1303.39266	54842.6
1306.9116	57996.5
1310.42815	60751.8
1313.94233	62457.5
1317.45412	62788.9
1320.96354	62312.7
1324.47058	61767.5
1327.97525	61342.7
1331.47754	60906.6
1334.97747	60785.7
1338.47502	60801.1
1341.97022	60613.2
1345.46305	59640.1
1348.95352	58028.5
1352.44163	56307.7
1355.92738	55428.6
1359.41078	56016.2
1362.89183	56952.2
1366.37053	55804.3
1369.84688	51830.7
1373.32088	47197.1
1376.79254	44151.8
1380.26186	43071.7
1383.72883	43525
1387.19347	44154.3
1390.65578	44630.2
1394.11575	45143.9
1397.57339	46262.5
1401.0287	47658.1
1404.48168	48749.8
1407.93234	49003.8
1411.38068	48114.1
1414.82669	46167.5
1418.27039	43513.8
1421.71177	40859.3
1425.15083	38694.7
1428.58758	37398.2
1432.02203	37246.9
1435.45416	38041.9
1438.88399	39266.5
1442.31151	40502.7
1445.73673	41610.6
1449.15965	42703.9
1452.58027	43637.3
1455.9986	44312.8
1459.41463	44917.6
1462.82837	45528.6
1466.23982	46220
1469.64898	46649.3
1473.05586	46673
1476.46045	46284.3
1479.86276	45664.7
1483.26279	44803.4
1486.66054	44048.9
1490.05602	43728.9
1493.44922	43500.6
1496.84016	43338.4
1500.22882	43633.3
1503.61521	44249
1506.99934	45386.2
1510.38121	46593.7
1513.76081	47138.5
1517.13816	46678.6
1520.51324	45510
1523.88607	44431.5
1527.25665	43930.9
1530.62498	43904.5
1533.99105	43988.3
1537.35488	43999.1
1540.71647	43608.9
1544.07581	42918.2
1547.4329	41833.7
1550.78776	40960.9
1554.14038	40266.6
1557.49077	39931.4
1560.83892	39793.9
1564.18484	39709.6
1567.52853	39719.2
1570.86999	39950.4
1574.20922	40559.1
1577.54624	41242.4
1580.88103	41816.2
1584.2136	42595.3
1587.54395	44078
1590.87208	46274.7
1594.19801	48803.1
1597.52172	51167.8
1600.84321	51630.7
1604.16251	49408.3
1607.47959	45527.1
1610.79447	41364.2
1614.10715	37593.5
1617.41763	34501
1620.7259	32266.8
1624.03199	31025.2
1627.33587	30863.4
1630.63757	31723.6
1633.93707	33772.6
1637.23439	37171
1640.52951	41828.9
1643.82246	47002.8
1647.11321	50944.1
1650.40179	51773.1
1653.68819	48550.9
1656.97241	42510.7
1660.25446	36240.3
1663.53433	31333.4
1666.81203	27934.7
1670.08756	25837.4
1673.36092	24504.4
1676.63211	23598.4
1679.90115	22976.4
1683.16801	22509.8
1686.43272	22197.9
1689.69527	21932.8
1692.95567	21745.7
1696.2139	21573
1699.46999	21446.7
1702.72392	21329
1705.97571	21266
1709.22535	21190.2
1712.47284	21153.2
1715.71819	21084.6
1718.96139	21011.9
1722.20246	20959.9
1725.44139	20845
1728.67818	20722.2
1731.91284	20571.3
1735.14537	20480.9
1738.37576	20367.6
1741.60403	20313.9
1744.83017	20249.2
1748.05418	20209.9
1751.27607	20191
1754.49584	20129.7
1757.71349	20123.6
1760.92903	20115.4
1764.14244	20050.4
1767.35375	20069.7
1770.56294	19975.3
1773.77002	19928.2
1776.97499	19871.8
1780.17785	19814.6
1783.37861	19814.7
1786.57727	19773.9
1789.77382	19763.4
1792.96828	19745.3
1796.16064	19686.1
1799.3509	19604.2
1802.53907	19607.3
1805.72514	19523.7
1808.90913	19497.4
1812.09102	19420.7
1815.27083	19364.1
1818.44856	19374
1821.6242	19309.2
1824.79776	19296.4
1827.96924	19261.3
1831.13864	19244.9
1834.30597	19255.4
1837.47122	19217.4
1840.6344	19210.1
1843.7955	19197.9
1846.95454	19213.4
1850.11151	19187.7
1853.26642	19212.2
1856.41926	19223.4
1859.57004	19218.9
1862.71876	19233.9
1865.86542	19199.2
1869.01003	19179
1872.15258	19138
1875.29308	19144.2
1878.43152	19137.5
1881.56792	19126.5
1884.70227	19110.8
1887.83457	19109
1890.96482	19077
1894.09304	19056.8
1897.21921	19064.3
1900.34335	19039.3
1903.46544	19051.2
1906.58551	19035.7
1909.70353	19020.3
1912.81953	18944.7
1915.93349	18975.9
1919.04543	18939.1
1922.15534	18876.9
1925.26322	18803.2
1928.36908	18743.2
1931.47292	18735.7
1934.57473	18681.6
1937.67453	18613
1940.77232	18598.2
1943.86808	18510.6
1946.96184	18458.3
1950.05358	18424.5
1953.14331	18385.1
1956.23103	18304.9
1959.31675	18198.7
1962.40046	18162.8
1965.48217	18116.4
1968.56188	18074.3
1971.63959	18012.1
1974.7153	17956.7
1977.78901	17899.4
1980.86073	17797.2
1983.93046	17779.1
1986.99819	17710.4
1990.06394	17669.9
1993.1277	17636.3
1996.18947	17542.3
1999.24925	17509.5
2002.30706	17451.6
2005.36288	17419.2
2008.41672	17389.7
2011.46859	17299.7
2014.51848	17275.2
2017.56639	17242.4
2020.61233	17200.2
2023.6563	17162
2026.6983	17102.4
2029.73833	17067.3
2032.7764	17049.4
2035.8125	17005.4
2038.84664	16976
2041.87881	16980.8
2044.90903	16930.6
2047.93729	16909.8
2050.96359	16888.4
2053.98794	16882.5
2057.01034	16883.5
2060.03078	16855.8
2063.04927	16843.8
2066.06582	16851.8
2069.08042	16830.1
2072.09307	16810.9
2075.10378	16755.2
2078.11255	16755.3
2081.11938	16738.8
2084.12426	16759.7
2087.12722	16736.8
2090.12824	16718.8
2093.12732	16680.8
2096.12447	16721
2099.11969	16706.5
2102.11299	16686.9
2105.10435	16696
2108.09379	16696.3
2111.08131	16724.7
2114.0669	16727.8
2117.05057	16729.2
2120.03233	16753.4
2123.01216	16743.1
2125.99008	16770.6
2128.96609	16769.5
2131.94018	16785.4
2134.91236	16789.7
2137.88263	16807.6
2140.851	16816.3
2143.81746	16815.2
2146.78201	16859.1
2149.74466	16826.7
2152.7054	16804
2155.66425	16791.8
2158.6212	16760.6
2161.57625	16737.3
2164.52941	16775.8
2167.48067	16759.8
2170.43004	16765.7
2173.37752	16777.3
2176.32311	16758.9
2179.26681	16744
2182.20863	16767.8
2185.14856	16741.7
2188.08661	16745.2
2191.02278	16772
2193.95707	16743.4
2196.88948	16734
2199.82001	16723.3
2202.74867	16709.7
2205.67545	16680.9
2208.60037	16695.4
2211.52341	16673.7
2214.44458	16707.2
2217.36388	16632.1
2220.28132	16593
2223.1969	16551
2226.11061	16564.5
2229.02246	16503.6
2231.93245	16517.3
2234.84058	16420.1
2237.74686	16386.7
2240.65128	16388.3
2243.55385	16347.7
2246.45456	16335.3
2249.35343	16297.2
2252.25044	16269.2
2255.14561	16261.1
2258.03893	16248.1
2260.93041	16205.7
2263.82004	16182
2266.70783	16120.1
2269.59378	16047.8
2272.4779	16032.4
2275.36017	15984.5
2278.24061	15954.6
2281.11922	15908.1
2283.996	15900.3
2286.87094	15877.4
2289.74405	15868
2292.61534	15848.3
2295.4848	15811.9
2298.35243	15834.3
2301.21824	15811.1
2304.08223	15852.7
2306.94439	15815.6
2309.80474	15865.4
2312.66327	15865.1
2315.51999	15825.7
2318.37489	15836.7
2321.22797	15816.6
2324.07925	15792.7
2326.92871	15775
2329.77637	15734.6
2332.62222	15718.3
2335.46626	15713.7
2338.3085	15720.4
2341.14893	15749.9
2343.98756	15755.2
2346.8244	15768.4
2349.65943	15734.5
2352.49267	15741
2355.32411	15715
2358.15376	15704.2
2360.98161	15672.9
2363.80768	15676.5
2366.63195	15673.3
2369.45444	15650.9
2372.27514	15615.1
2375.09405	15599.2
2377.91118	15557.6
2380.72652	15511.6
2383.54009	15490.1
2386.35187	15475.4
2389.16188	15424.8
2391.97011	15384.4
2394.77657	15387.7
2397.58125	15364.5
2400.38416	15375.6
2403.18529	15338.1
2405.98466	15289
2408.78226	15253.1
2411.57809	15248.5
2414.37216	15219.2
2417.16446	15217
2419.955	15228.4
2422.74378	15224
2425.5308	15117.9
2428.31606	15179.1
2431.09956	15134.4
2433.88131	15150.1
2436.6613	15140.8
2439.43954	15140.2
2442.21603	15137.7
2444.99077	15114.5
2447.76377	15120
2450.53501	15106.9
2453.30451	15107.1
2456.07226	15107.7
2458.83827	15087.9
2461.60254	15082.1
2464.36507	15079.6
2467.12586	15066.5
2469.88492	15090.2
2472.64224	15070.2
2475.39782	15076.1
2478.15167	15107.6
2480.90379	15071.4
2483.65417	15094.3
2486.40283	15115.6
2489.14976	15149.9
2491.89497	15143.8
2494.63845	15150.6
2497.3802	15153.7
2500.12024	15183.6
2502.85855	15126.8
2505.59514	15129.1
2508.33002	15108.9
2511.06318	15115
2513.79462	15124.4
2516.52435	15075.1
2519.25237	15087.1
2521.97867	15074.1
2524.70327	15055
2527.42616	15043.9
2530.14734	15042.3
2532.86681	15049
2535.58458	15031.1
2538.30065	15021.1
2541.01501	15004.2
2543.72768	14997.6
2546.43864	15012.7
2549.14791	14974.4
2551.85548	14958.1
2554.56136	14945.3
2557.26554	14915.8
2559.96803	14900.5
2562.66883	14923.3
2565.36794	14873.8
2568.06536	14887
2570.7611	14849.7
2573.45514	14849
2576.14751	14801.6
2578.83819	14818.8
2581.52719	14831
2584.21451	14850.3
2586.90015	14857.1
2589.58411	14864.7
2592.2664	14821.3
2594.94701	14791.7
2597.62594	14816.7
2600.30321	14798.3
2602.9788	14805.1
2605.65273	14769.8
2608.32498	14809.3
2610.99557	14798.5
2613.66449	14826.9
2616.33175	14805.7
2618.99734	14829.4
2621.66128	14811.4
2624.32355	14809.3
2626.98416	14816.1
2629.64311	14824.7
2632.30041	14833
2634.95605	14817
2637.61004	14822.3
2640.26238	14792.7
2642.91306	14785
2645.56209	14752.2
2648.20948	14776.2
2650.85521	14774.3
2653.4993	14788.7
2656.14175	14762.9
2658.78255	14752.3
2661.42171	14775.6
2664.05923	14807.9
2666.6951	14767.4
2669.32934	14842.4
2671.96194	14874.2
2674.59291	14827.3
2677.22224	14845.9
2679.84993	14849.6
2682.476	14800.7
2685.10043	14797.1
2687.72324	14761.9
2690.34441	14787.3
2692.96396	14751.2
2695.58188	14756
2698.19818	14753.4
2700.81285	14791.6
2703.4259	14798.1
2706.03733	14861.8
2708.64714	14837.8
2711.25533	14818.9
2713.86191	14812.4
2716.46687	14876.3
2719.07021	14857.4
2721.67194	14869.9
2724.27206	14849.5
2726.87057	14900
2729.46747	14893.6
2732.06276	14910.5
2734.65644	14911
2737.24852	14887.9
2739.83899	14859.8
2742.42786	14877.3
2745.01513	14874.5
2747.60079	14872.1
2750.18486	14843.9
2752.76733	14865.3
2755.3482	14840
2757.92747	14856.2
2760.50515	14887.1
2763.08123	14882.6
2765.65573	14862.6
2768.22863	14866
2770.79994	14829.2
2773.36967	14876.9
2775.9378	14870.9
2778.50435	14869.2
2781.06932	14856.4
2783.6327	14898.1
2786.1945	14923.8
2788.75471	14900
2791.31335	14888.2
2793.87041	14865.4
2796.42589	14809.9
2798.97979	14813.4
2801.53212	14761.4
2804.08288	14758.9
2806.63206	14697.6
2809.17967	14655.8
2811.72571	14659.8
2814.27018	14632
2816.81308	14591.6
2819.35442	14580.2
2821.89419	14546.9
2824.43239	14575.8
2826.96904	14571.7
2829.50412	14534.1
2832.03763	14498.3
2834.56959	14492.6
2837.1	14501.2
2839.62884	14533.6
2842.15613	14523
2844.68186	14530.6
2847.20604	14535.3
2849.72867	14551.7
2852.24974	14542.1
2854.76927	14544
2857.28724	14569.9
2859.80367	14516.7
2862.31855	14487.9
2864.83189	14473.5
2867.34368	14454.3
2869.85393	14475.2
2872.36264	14432.9
2874.8698	14427.4
2877.37543	14424.7
2879.87952	14430.5
2882.38207	14441.4
2884.88308	14407.1
2887.38256	14461.3
2889.88051	14445.8
2892.37692	14445.5
2894.8718	14465.2
2897.36515	14480.4
2899.85698	14478.2
2902.34727	14542.9
2904.83604	14542.5
2907.32328	14594.7
2909.809	14540.2
2912.29319	14591.4
2914.77587	14591.9
2917.25702	14602.8
2919.73665	14549.2
2922.21476	14577.9
2924.69136	14594
2927.16644	14558.9
2929.64	14535.4
2932.11205	14524.4
2934.58258	14472.9
2937.05161	14507.7
2939.51912	14484.3
2941.98513	14497.8
2944.44962	14444.5
2946.91261	14394.4
2949.37409	14401.2
2951.83407	14367.6
2954.29254	14367.5
2956.74951	14345.1
2959.20498	14332.4
2961.65895	14312.9
2964.11142	14291.7
2966.56239	14280.5
2969.01186	14269.4
2971.45984	14250.4
2973.90632	14228.2
2976.35131	14213.1
2978.7948	14144
2981.23681	14136.2
2983.67732	14138.5
2986.11635	14064.7
2988.55388	14038.5
2990.98993	13987.3
2993.4245	13955.6
2995.85758	13927.8
2998.28917	13852.1
3000.71928	13841.8
3003.14791	13841.5
3005.57506	13804.8
3008.00073	13773.5
3010.42493	13660.2
3012.84764	13731.7
3015.26888	13747.2
3017.68865	13664.1
3020.10694	13650.1
3022.52376	13619.1
3024.9391	13623.3
3027.35298	13586.3
3029.76539	13592.4
3032.17632	13573.1
3034.5858	13561
3036.9938	13548.5
3039.40034	13588.2
3041.80542	13567
3044.20903	13532.3
3046.61118	13532.4
3049.01187	13514.5
3051.4111	13496.3
3053.80888	13477.8
3056.20519	13442.2
3058.60005	13390.1
3060.99345	13375.2
3063.3854	13337.9
3065.7759	13272.2
3068.16494	13223
3070.55254	13201.7
3072.93868	13172.9
3075.32338	13144.6
3077.70662	13089.2
3080.08842	13063.4
3082.46878	13059.2
3084.84769	13032
3087.22515	13022.8
3089.60118	13013.3
3091.97576	13010.6
3094.3489	12997.9
3096.72061	12969.1
3099.09087	12989.9
3101.4597	12984.1
3103.82709	12972.6
3106.19305	12961.9
3108.55757	12963
3110.92066	12895.7
3113.28232	12912.8
3115.64255	12867.1
3118.00134	12816.6
3120.35871	12797.6
3122.71466	12782.9
3125.06917	12758.8
3127.42226	12702.9
3129.77393	12705.7
3132.12417	12699.9
3134.47299	12692.3
3136.82039	12668.6
3139.16636	12657.9
3141.51092	12665
3143.85406	12646.3
3146.19579	12653.5
3148.53609	12630.5
3150.87499	12635.1
3153.21246	12606.3
3155.54853	12645.5
3157.88318	12655.1
3160.21642	12662.1
3162.54826	12662.2
3164.87868	12674.8
3167.2077	12631.7
3169.5353	12667.9
3171.86151	12671.1
3174.18631	12655.7
3176.5097	12657.9
3178.83169	12651
3181.15228	12633.4
3183.47147	12609.2
3185.78926	12602.3
3188.10565	12550.4
3190.42065	12565.8
3192.73424	12562.2
3195.04645	12533.5
3197.35725	12528.7
3199.66667	12511.8
3201.97469	12550.4
3204.28132	12521.1
3206.58656	12566.3
3208.8904	12561.6
3211.19287	12547.8
3213.49394	12555.5
3215.79363	12561.2
3218.09193	12538.7
3220.38884	12541.6
3222.68438	12570.9
3224.97853	12531.2
3227.2713	12529.6
3229.56269	12505.4
3231.8527	12508.7
3234.14133	12481
3236.42858	12447.5
3238.71446	12433.6
3240.99896	12407
3243.28209	12384.2
3245.56384	12394.1
3247.84423	12386.7
3250.12324	12372.3
3252.40088	12334.2
3254.67715	12321.6
3256.95205	12325.4
3259.22558	12316.5
3261.49775	12316.2
3263.76855	12302.8
3266.03799	12264.4
3268.30606	12233
3270.57277	12205.8
3272.83812	12178.8
3275.10211	12164.6
3277.36474	12154.3
3279.62601	12126.5
3281.88593	12119.4
3284.14448	12142
3286.40168	12107.8
3288.65753	12124.8
3290.91202	12133.7
3293.16516	12085.4
3295.41695	12072
3297.66738	11953.9
3299.91647	11930.4
3302.16421	11848
3304.4106	11797.2
3306.65564	11706.4
3308.89933	11648.3
3311.14169	11555.6
3313.38269	11489.6
3315.62236	11424.2
3317.86068	11335.5
3320.09766	11214.9
3322.3333	11142.1
3324.5676	11111.2
3326.80056	10916.8
3329.03219	10845.2
3331.26248	2.8
3333.49143	-1.4
3335.71905	-0.5
