Data from AgNPs_FTO_APTES_UA_5uM_CRN_50uM_R6G_10uM_NaF_0.1M_Addition_RamanShift__26__14-12-56-837.txt Node

Date: Mon Feb 07 14:12:56 GMT 2022
User: TCL
Spectrometer: QEP01345
Trigger mode: 4
Integration Time (sec): 7.000000E0
Scans to average: 10
Electric dark correction enabled: true
Nonlinearity correction enabled: false
Boxcar width: 0
XAxis mode: Raman Shifts
Number of Pixels in Spectrum: 1044
>>>>>Begin Spectral Data<<<<<
46.04893	-0.675
50.45542	-2.475
54.85868	-0.775
59.25871	0.925
63.6555	78.925
68.04907	80.725
72.43941	85.925
76.82654	88.625
81.21044	88.225
85.59113	94.725
89.96862	98.525
94.34289	97.625
98.71396	101.225
103.08183	104.825
107.4465	109.825
111.80798	110.825
116.16626	111.625
120.52136	123.825
124.87327	127.025
129.222	136.125
133.56755	146.325
137.90993	159.325
142.24913	175.725
146.58517	203.625
150.91804	234.525
155.24774	286.225
159.57429	361.925
163.89768	464.025
168.21792	634.225
172.53501	863.325
176.84895	1199.625
181.15975	1693.425
185.46741	2379.325
189.77193	3287.025
194.07331	4396.825
198.37157	5671.225
202.6667	7021.625
206.9587	8341.525
211.24758	9678.225
215.53334	11028.725
219.81599	12509.925
224.09553	14148.125
228.37195	15960.325
232.64527	17974.225
236.91549	19985.725
241.18261	21978.425
245.44663	23665.225
249.70755	25179.525
253.96539	26469.325
258.22014	27603.725
262.4718	28633.625
266.72039	29448.725
270.96589	29993.125
275.20832	30200.325
279.44768	30185.825
283.68397	30004.225
287.91719	29886.425
292.14735	29972.225
296.37445	30370.825
300.59849	30918.625
304.81948	31437.425
309.03742	31602.525
313.25231	31151.025
317.46415	29852.325
321.67296	28116.825
325.87872	26661.625
330.08145	25943.025
334.28114	25872.825
338.47781	26163.825
342.67145	26693.425
346.86207	27446.625
351.04966	28575.725
355.23424	29843.725
359.4158	30728.625
363.59435	31234.525
367.76989	31441.725
371.94243	31464.225
376.11196	31461.825
380.27849	31379.025
384.44203	31307.225
388.60257	31175.325
392.76012	31245.325
396.91468	31583.525
401.06626	32247.025
405.21485	32755.325
409.36047	32364.425
413.50311	31236.925
417.64277	30149.525
421.77947	29579.925
425.9132	29438.925
430.04396	29563.325
434.17176	29769.525
438.2966	30131.425
442.41849	30826.425
446.53742	31686.425
450.6534	32680.625
454.76644	33373.225
458.87653	33658.425
462.98368	33557.225
467.08789	33197.425
471.18916	32755.025
475.2875	32419.825
479.38291	32176.725
483.4754	31811.625
487.56496	31327.825
491.6516	30671.225
495.73531	30159.325
499.81612	29934.225
503.89401	29983.725
507.96899	30243.625
512.04106	30305.925
516.11023	30336.025
520.1765	30334.825
524.23987	30079.225
528.30034	29586.425
532.35792	29199.825
536.41261	28763.425
540.46441	28418.125
544.51333	28333.425
548.55936	28771.125
552.60252	29558.825
556.64279	30428.825
560.6802	30976.725
564.71473	31420.025
568.7464	32279.625
572.7752	33229.025
576.80114	33035.525
580.82422	32494.125
584.84444	32317.825
588.86181	32416.425
592.87633	32663.925
596.888	32972.125
600.89682	33494.925
604.9028	35649.825
608.90594	41679.825
612.90624	49642.125
616.90371	47473.125
620.89834	35858.425
624.89015	30507.625
628.87913	29685.525
632.86528	29832.625
636.84862	29908.525
640.82913	29300.525
644.80683	28164.225
648.78172	27372.625
652.75379	27247.525
656.72306	27870.425
660.68952	28847.025
664.65319	28804.825
668.61405	27905.925
672.57211	27424.925
676.52738	27378.025
680.47986	27390.725
684.42955	27253.325
688.37646	27140.925
692.32058	27256.125
696.26192	27518.025
700.20048	27842.325
704.13626	28048.925
708.06928	27995.425
711.99952	27838.725
715.927	27731.325
719.85171	27748.525
723.77365	27690.925
727.69284	27463.825
731.60928	27177.525
735.52295	27104.725
739.43388	27105.925
743.34206	27248.325
747.24749	27360.025
751.15017	27671.625
755.05012	28216.725
758.94733	29400.025
762.8418	31822.825
766.73354	35807.925
770.62254	39975.525
774.50882	41549.025
778.39237	39437.225
782.27321	34893.225
786.15132	30939.425
790.02671	28599.825
793.89938	27535.825
797.76935	27081.825
801.6366	26918.425
805.50115	26791.425
809.36299	26730.525
813.22213	26612.325
817.07857	26607.025
820.93231	26567.825
824.78336	26576.025
828.63172	26561.125
832.47738	26575.625
836.32036	26527.125
840.16066	26505.425
843.99827	26474.125
847.8332	26420.725
851.66546	26293.525
855.49504	26231.025
859.32195	26193.025
863.1462	26056.725
866.96777	25949.525
870.78668	25854.825
874.60293	25841.325
878.41652	25852.525
882.22745	26003.225
886.03573	26088.725
889.84136	26061.225
893.64433	25929.025
897.44466	25813.225
901.24235	25751.625
905.0374	25767.325
908.8298	25667.525
912.61957	25745.225
916.40671	26008.725
920.19121	26373.625
923.97308	26597.925
927.75233	26686.125
931.52895	26740.625
935.30295	26459.325
939.07433	25815.825
942.84309	25282.825
946.60924	24967.025
950.37278	24796.425
954.13371	24654.625
957.89203	24550.925
961.64774	24508.825
965.40086	24491.525
969.15137	24387.125
972.89929	24276.625
976.64461	24169.525
980.38733	24143.625
984.12747	24212.225
987.86502	24393.325
991.59999	24688.825
995.33237	25099.625
999.06217	25775.125
1002.78939	26647.125
1006.51404	27188.325
1010.23611	27602.425
1013.95561	27910.925
1017.67255	27911.125
1021.38692	27537.925
1025.09872	27237.425
1028.80796	27251.325
1032.51465	27768.825
1036.21877	28309.625
1039.92035	28472.225
1043.61937	28199.525
1047.31584	27750.325
1051.00976	27207.325
1054.70114	26979.325
1058.38998	27010.625
1062.07627	27257.725
1065.76003	27454.225
1069.44126	27643.725
1073.11995	27796.725
1076.79611	28069.025
1080.46974	28269.625
1084.14085	28679.725
1087.80943	29275.525
1091.47549	29604.425
1095.13903	29388.125
1098.80005	28839.725
1102.45857	28119.725
1106.11456	27708.825
1109.76805	27655.925
1113.41903	28013.125
1117.06751	28653.925
1120.71348	29374.525
1124.35696	30116.425
1127.99793	30784.525
1131.63641	30849.725
1135.2724	30104.625
1138.90589	29221.525
1142.5369	28738.025
1146.16542	28511.125
1149.79145	28496.525
1153.415	28754.625
1157.03607	29205.025
1160.65467	29894.125
1164.27079	31128.925
1167.88443	32819.325
1171.49561	35300.425
1175.10432	38951.025
1178.71056	43640.625
1182.31434	47461.425
1185.91565	49045.725
1189.51451	48649.325
1193.11091	46596.025
1196.70485	43908.625
1200.29634	41453.925
1203.88538	39650.625
1207.47197	37896.825
1211.05612	36446.425
1214.63782	35394.225
1218.21708	34787.725
1221.79391	34513.925
1225.36829	34447.325
1228.94024	34200.925
1232.50976	33821.225
1236.07685	33563.325
1239.6415	33511.025
1243.20374	33543.825
1246.76355	33797.825
1250.32093	34320.425
1253.8759	35221.825
1257.42845	36292.825
1260.97859	37277.125
1264.52631	38210.825
1268.07163	39225.525
1271.61453	40266.125
1275.15503	41271.625
1278.69312	42193.425
1282.22882	42930.625
1285.76211	43896.925
1289.29301	45228.625
1292.82151	46900.125
1296.34761	48981.925
1299.87133	51803.025
1303.39266	55466.225
1306.9116	60289.325
1310.42815	65629.425
1313.94233	69126.225
1317.45412	69289.425
1320.96354	67103.525
1324.47058	64390.225
1327.97525	61893.325
1331.47754	60178.325
1334.97747	59508.325
1338.47502	59762.625
1341.97022	60302.425
1345.46305	60518.625
1348.95352	60430.225
1352.44163	60719.825
1355.92738	62689.925
1359.41078	67473.625
1362.89183	72696.325
1366.37053	71306.325
1369.84688	62806.025
1373.32088	53996.225
1376.79254	48470.625
1380.26186	46032.025
1383.72883	45389.725
1387.19347	45179.125
1390.65578	44885.925
1394.11575	44764.125
1397.57339	45304.825
1401.0287	46342.525
1404.48168	47402.525
1407.93234	47997.125
1411.38068	47799.825
1414.82669	46704.625
1418.27039	44661.825
1421.71177	42456.725
1425.15083	40563.025
1428.58758	39437.825
1432.02203	39231.125
1435.45416	39749.225
1438.88399	40417.925
1442.31151	41158.325
1445.73673	41863.825
1449.15965	42669.125
1452.58027	43363.825
1455.9986	43708.825
1459.41463	44175.525
1462.82837	44799.125
1466.23982	45692.025
1469.64898	46312.225
1473.05586	46521.725
1476.46045	46455.725
1479.86276	46357.825
1483.26279	46293.325
1486.66054	46549.925
1490.05602	46926.825
1493.44922	47642.625
1496.84016	48778.025
1500.22882	50892.225
1503.61521	54041.625
1506.99934	58149.125
1510.38121	62462.925
1513.76081	64939.225
1517.13816	63441.125
1520.51324	58693.225
1523.88607	53594.325
1527.25665	49947.425
1530.62498	47970.525
1533.99105	46852.125
1537.35488	46122.925
1540.71647	45598.125
1544.07581	45074.125
1547.4329	44382.525
1550.78776	43749.125
1554.14038	43426.725
1557.49077	43431.125
1560.83892	43826.625
1564.18484	44325.025
1567.52853	44813.225
1570.86999	45157.325
1574.20922	45576.625
1577.54624	45791.225
1580.88103	45142.125
1584.2136	44202.425
1587.54395	44397.125
1590.87208	46044.625
1594.19801	48778.425
1597.52172	51812.525
1600.84321	52851.825
1604.16251	50770.925
1607.47959	47010.025
1610.79447	42945.325
1614.10715	39195.025
1617.41763	36083.425
1620.7259	33960.225
1624.03199	32866.425
1627.33587	32738.025
1630.63757	33543.025
1633.93707	35469.725
1637.23439	38561.025
1640.52951	42725.425
1643.82246	47748.525
1647.11321	52537.425
1650.40179	55189.125
1653.68819	53096.525
1656.97241	46585.825
1660.25446	39297.825
1663.53433	33707.725
1666.81203	30134.125
1670.08756	27943.625
1673.36092	26593.425
1676.63211	25736.825
1679.90115	25114.725
1683.16801	24685.625
1686.43272	24378.325
1689.69527	24109.625
1692.95567	23938.825
1696.2139	23794.025
1699.46999	23706.025
1702.72392	23657.925
1705.97571	23546.125
1709.22535	23504.525
1712.47284	23481.625
1715.71819	23436.225
1718.96139	23387.925
1722.20246	23342.825
1725.44139	23253.325
1728.67818	23147.025
1731.91284	22927.325
1735.14537	22774.425
1738.37576	22694.425
1741.60403	22633.625
1744.83017	22565.425
1748.05418	22499.625
1751.27607	22425.925
1754.49584	22448.925
1757.71349	22399.625
1760.92903	22375.425
1764.14244	22382.425
1767.35375	22343.125
1770.56294	22264.525
1773.77002	22275.725
1776.97499	22139.925
1780.17785	22098.825
1783.37861	22089.025
1786.57727	22049.225
1789.77382	22049.725
1792.96828	22003.125
1796.16064	21983.825
1799.3509	21926.025
1802.53907	21927.125
1805.72514	21849.825
1808.90913	21740.925
1812.09102	21719.025
1815.27083	21642.325
1818.44856	21610.825
1821.6242	21576.325
1824.79776	21560.825
1827.96924	21520.025
1831.13864	21566.225
1834.30597	21506.825
1837.47122	21502.225
1840.6344	21496.125
1843.7955	21463.625
1846.95454	21471.225
1850.11151	21479.125
1853.26642	21456.925
1856.41926	21523.625
1859.57004	21453.925
1862.71876	21477.425
1865.86542	21491.225
1869.01003	21479.025
1872.15258	21457.425
1875.29308	21423.725
1878.43152	21453.825
1881.56792	21467.625
1884.70227	21474.525
1887.83457	21471.225
1890.96482	21455.925
1894.09304	21434.725
1897.21921	21442.625
1900.34335	21428.125
1903.46544	21454.925
1906.58551	21469.425
1909.70353	21450.325
1912.81953	21431.225
1915.93349	21415.825
1919.04543	21383.725
1922.15534	21375.825
1925.26322	21276.925
1928.36908	21197.525
1931.47292	21197.525
1934.57473	21105.625
1937.67453	21029.225
1940.77232	20926.725
1943.86808	20875.625
1946.96184	20789.725
1950.05358	20733.025
1953.14331	20645.225
1956.23103	20552.625
1959.31675	20484.425
1962.40046	20452.025
1965.48217	20385.225
1968.56188	20333.825
1971.63959	20249.325
1974.7153	20183.325
1977.78901	20145.925
1980.86073	20078.125
1983.93046	19988.925
1986.99819	19944.325
1990.06394	19870.225
1993.1277	19813.025
1996.18947	19747.425
1999.24925	19703.325
2002.30706	19651.925
2005.36288	19632.725
2008.41672	19559.725
2011.46859	19495.425
2014.51848	19447.025
2017.56639	19377.925
2020.61233	19323.525
2023.6563	19284.725
2026.6983	19222.925
2029.73833	19202.025
2032.7764	19151.825
2035.8125	19105.825
2038.84664	19093.025
2041.87881	19058.125
2044.90903	19043.125
2047.93729	19029.625
2050.96359	18985.025
2053.98794	18954.525
2057.01034	18979.925
2060.03078	18923.925
2063.04927	18880.925
2066.06582	18886.525
2069.08042	18850.625
2072.09307	18834.425
2075.10378	18816.125
2078.11255	18788.525
2081.11938	18819.225
2084.12426	18782.725
2087.12722	18797.725
2090.12824	18759.025
2093.12732	18720.025
2096.12447	18705.025
2099.11969	18739.725
2102.11299	18727.925
2105.10435	18741.325
2108.09379	18739.325
2111.08131	18750.425
2114.0669	18768.525
2117.05057	18815.925
2120.03233	18805.025
2123.01216	18820.625
2125.99008	18805.125
2128.96609	18823.125
2131.94018	18849.925
2134.91236	18873.925
2137.88263	18894.325
2140.851	18861.225
2143.81746	18900.125
2146.78201	18862.925
2149.74466	18857.025
2152.7054	18842.925
2155.66425	18875.225
2158.6212	18855.225
2161.57625	18854.625
2164.52941	18776.125
2167.48067	18816.025
2170.43004	18803.025
2173.37752	18786.825
2176.32311	18769.625
2179.26681	18793.025
2182.20863	18802.725
2185.14856	18798.225
2188.08661	18795.725
2191.02278	18825.825
2193.95707	18828.925
2196.88948	18773.325
2199.82001	18770.925
2202.74867	18733.525
2205.67545	18749.525
2208.60037	18737.125
2211.52341	18708.125
2214.44458	18702.525
2217.36388	18674.525
2220.28132	18629.625
2223.1969	18585.825
2226.11061	18580.825
2229.02246	18564.525
2231.93245	18490.325
2234.84058	18420.825
2237.74686	18380.925
2240.65128	18399.325
2243.55385	18347.725
2246.45456	18324.825
2249.35343	18323.225
2252.25044	18291.825
2255.14561	18268.725
2258.03893	18256.925
2260.93041	18210.025
2263.82004	18162.225
2266.70783	18155.825
2269.59378	18081.725
2272.4779	18027.325
2275.36017	17983.725
2278.24061	17966.225
2281.11922	17952.725
2283.996	17912.725
2286.87094	17866.225
2289.74405	17866.325
2292.61534	17813.525
2295.4848	17812.625
2298.35243	17815.725
2301.21824	17792.825
2304.08223	17833.725
2306.94439	17817.225
2309.80474	17829.525
2312.66327	17867.725
2315.51999	17857.925
2318.37489	17828.825
2321.22797	17836.225
2324.07925	17796.425
2326.92871	17776.425
2329.77637	17741.525
2332.62222	17720.025
2335.46626	17715.225
2338.3085	17691.425
2341.14893	17730.625
2343.98756	17722.025
2346.8244	17742.325
2349.65943	17750.325
2352.49267	17766.225
2355.32411	17774.125
2358.15376	17799.825
2360.98161	17771.925
2363.80768	17757.325
2366.63195	17756.625
2369.45444	17724.925
2372.27514	17721.425
2375.09405	17667.925
2377.91118	17619.425
2380.72652	17543.925
2383.54009	17478.625
2386.35187	17462.825
2389.16188	17416.525
2391.97011	17382.625
2394.77657	17346.325
2397.58125	17330.125
2400.38416	17281.525
2403.18529	17237.625
2405.98466	17240.325
2408.78226	17171.925
2411.57809	17147.625
2414.37216	17130.225
2417.16446	17137.525
2419.955	17096.225
2422.74378	17073.725
2425.5308	17021.325
2428.31606	17043.025
2431.09956	17041.125
2433.88131	17042.925
2436.6613	17045.725
2439.43954	17053.025
2442.21603	17054.225
2444.99077	17021.925
2447.76377	17019.625
2450.53501	16999.125
2453.30451	16991.125
2456.07226	16976.525
2458.83827	16988.825
2461.60254	16989.725
2464.36507	16981.325
2467.12586	16954.825
2469.88492	16968.225
2472.64224	16990.125
2475.39782	17021.325
2478.15167	17038.225
2480.90379	17003.025
2483.65417	17040.825
2486.40283	17056.325
2489.14976	17086.425
2491.89497	17058.925
2494.63845	17127.225
2497.3802	17140.125
2500.12024	17171.525
2502.85855	17100.225
2505.59514	17078.325
2508.33002	17020.725
2511.06318	17003.325
2513.79462	16927.625
2516.52435	16922.425
2519.25237	16912.725
2521.97867	16914.125
2524.70327	16865.725
2527.42616	16844.425
2530.14734	16886.125
2532.86681	16849.325
2535.58458	16851.925
2538.30065	16809.625
2541.01501	16822.425
2543.72768	16822.425
2546.43864	16832.325
2549.14791	16796.425
2551.85548	16765.625
2554.56136	16788.025
2557.26554	16731.425
2559.96803	16742.225
2562.66883	16729.025
2565.36794	16697.725
2568.06536	16641.725
2570.7611	16645.425
2573.45514	16618.625
2576.14751	16599.325
2578.83819	16565.625
2581.52719	16585.725
2584.21451	16578.325
2586.90015	16602.425
2589.58411	16568.925
2592.2664	16588.925
2594.94701	16597.925
2597.62594	16564.625
2600.30321	16547.125
2602.9788	16531.425
2605.65273	16516.225
2608.32498	16544.825
2610.99557	16562.525
2613.66449	16554.825
2616.33175	16528.125
2618.99734	16532.625
2621.66128	16560.125
2624.32355	16543.125
2626.98416	16547.525
2629.64311	16531.425
2632.30041	16586.525
2634.95605	16518.025
2637.61004	16530.725
2640.26238	16481.025
2642.91306	16474.925
2645.56209	16455.925
2648.20948	16450.325
2650.85521	16464.125
2653.4993	16448.825
2656.14175	16443.925
2658.78255	16466.125
2661.42171	16491.625
2664.05923	16502.325
2666.6951	16470.925
2669.32934	16537.025
2671.96194	16525.025
2674.59291	16546.125
2677.22224	16564.625
2679.84993	16558.325
2682.476	16520.925
2685.10043	16511.625
2687.72324	16458.625
2690.34441	16468.125
2692.96396	16452.225
2695.58188	16440.425
2698.19818	16447.725
2700.81285	16497.125
2703.4259	16483.525
2706.03733	16562.625
2708.64714	16516.125
2711.25533	16505.725
2713.86191	16485.525
2716.46687	16529.625
2719.07021	16513.625
2721.67194	16573.725
2724.27206	16543.625
2726.87057	16566.525
2729.46747	16559.925
2732.06276	16596.025
2734.65644	16568.125
2737.24852	16522.725
2739.83899	16533.325
2742.42786	16547.225
2745.01513	16509.825
2747.60079	16503.525
2750.18486	16504.925
2752.76733	16477.625
2755.3482	16470.925
2757.92747	16445.625
2760.50515	16472.925
2763.08123	16475.625
2765.65573	16461.125
2768.22863	16491.725
2770.79994	16424.525
2773.36967	16479.425
2775.9378	16406.325
2778.50435	16417.225
2781.06932	16441.125
2783.6327	16453.125
2786.1945	16451.525
2788.75471	16461.525
2791.31335	16405.025
2793.87041	16376.525
2796.42589	16298.125
2798.97979	16344.925
2801.53212	16253.125
2804.08288	16269.025
2806.63206	16195.525
2809.17967	16174.025
2811.72571	16169.025
2814.27018	16152.125
2816.81308	16149.825
2819.35442	16144.325
2821.89419	16124.725
2824.43239	16174.625
2826.96904	16141.725
2829.50412	16133.225
2832.03763	16084.325
2834.56959	16102.125
2837.1	16096.525
2839.62884	16076.725
2842.15613	16069.925
2844.68186	16131.925
2847.20604	16158.325
2849.72867	16178.725
2852.24974	16186.425
2854.76927	16179.425
2857.28724	16141.525
2859.80367	16129.025
2862.31855	16100.025
2864.83189	16089.025
2867.34368	16078.225
2869.85393	16068.225
2872.36264	16043.125
2874.8698	16016.925
2877.37543	16006.525
2879.87952	16005.325
2882.38207	16019.925
2884.88308	16045.625
2887.38256	16047.225
2889.88051	16013.925
2892.37692	16019.825
2894.8718	16033.425
2897.36515	16034.225
2899.85698	16025.525
2902.34727	16053.025
2904.83604	16075.825
2907.32328	16113.725
2909.809	16082.525
2912.29319	16124.325
2914.77587	16135.125
2917.25702	16110.325
2919.73665	16104.825
2922.21476	16089.825
2924.69136	16076.425
2927.16644	16104.725
2929.64	16020.225
2932.11205	15987.425
2934.58258	15935.025
2937.05161	15960.225
2939.51912	15961.125
2941.98513	15903.025
2944.44962	15851.925
2946.91261	15807.125
2949.37409	15795.925
2951.83407	15808.125
2954.29254	15757.025
2956.74951	15762.725
2959.20498	15723.825
2961.65895	15697.125
2964.11142	15713.625
2966.56239	15686.925
2969.01186	15646.025
2971.45984	15652.925
2973.90632	15644.925
2976.35131	15582.625
2978.7948	15565.425
2981.23681	15525.525
2983.67732	15505.025
2986.11635	15482.025
2988.55388	15406.525
2990.98993	15394.225
2993.4245	15349.125
2995.85758	15277.325
2998.28917	15233.925
3000.71928	15255.725
3003.14791	15229.025
3005.57506	15235.225
3008.00073	15132.525
3010.42493	15063.825
3012.84764	15132.825
3015.26888	15093.125
3017.68865	15074.825
3020.10694	15040.125
3022.52376	14994.425
3024.9391	14976.525
3027.35298	14960.925
3029.76539	14935.025
3032.17632	14926.725
3034.5858	14880.625
3036.9938	14884.025
3039.40034	14883.325
3041.80542	14865.425
3044.20903	14835.125
3046.61118	14841.925
3049.01187	14804.725
3051.4111	14774.925
3053.80888	14744.625
3056.20519	14739.125
3058.60005	14685.825
3060.99345	14645.025
3063.3854	14617.125
3065.7759	14552.925
3068.16494	14511.825
3070.55254	14441.325
3072.93868	14405.025
3075.32338	14353.425
3077.70662	14324.225
3080.08842	14278.425
3082.46878	14255.025
3084.84769	14238.625
3087.22515	14214.725
3089.60118	14225.225
3091.97576	14211.425
3094.3489	14195.125
3096.72061	14190.925
3099.09087	14188.225
3101.4597	14181.525
3103.82709	14151.925
3106.19305	14141.625
3108.55757	14156.925
3110.92066	14094.525
3113.28232	14081.925
3115.64255	14039.425
3118.00134	14042.525
3120.35871	14002.825
3122.71466	13989.725
3125.06917	13926.725
3127.42226	13893.025
