Data from AgNPs_FTO_APTES_UA_5uM_CRN_20uM_R6G_10uM_NaF_0.1M_Addition_RamanShift__8__13-12-16-767.txt Node

Date: Mon Feb 07 13:12:16 GMT 2022
User: TCL
Spectrometer: QEP01345
Trigger mode: 4
Integration Time (sec): 7.000000E0
Scans to average: 10
Electric dark correction enabled: true
Nonlinearity correction enabled: false
Boxcar width: 0
XAxis mode: Raman Shifts
Number of Pixels in Spectrum: 1044
>>>>>Begin Spectral Data<<<<<
46.04893	-0.0875
50.45542	-1.4875
54.85868	-1.3875
59.25871	-0.1875
63.6555	84.4125
68.04907	92.3125
72.43941	95.2125
76.82654	96.2125
81.21044	102.7125
85.59113	104.8125
89.96862	109.5125
94.34289	109.7125
98.71396	112.1125
103.08183	116.2125
107.4465	121.5125
111.80798	128.2125
116.16626	133.0125
120.52136	138.9125
124.87327	144.4125
129.222	154.0125
133.56755	165.0125
137.90993	181.2125
142.24913	202.7125
146.58517	234.5125
150.91804	278.4125
155.24774	333.8125
159.57429	427.6125
163.89768	554.9125
168.21792	747.0125
172.53501	1023.9125
176.84895	1429.4125
181.15975	2024.5125
185.46741	2834.6125
189.77193	3906.5125
194.07331	5222.4125
198.37157	6735.5125
202.6667	8291.7125
206.9587	9862.2125
211.24758	11378.4125
215.53334	12895.3125
219.81599	14533.8125
224.09553	16296.8125
228.37195	18277.1125
232.64527	20369.4125
236.91549	22571.5125
241.18261	24779.9125
245.44663	26857.1125
249.70755	28717.6125
253.96539	30334.1125
258.22014	31698.8125
262.4718	32794.2125
266.72039	33614.3125
270.96589	34010.1125
275.20832	34129.2125
279.44768	34019.3125
283.68397	33770.6125
287.91719	33651.2125
292.14735	33567.5125
296.37445	33644.5125
300.59849	33812.2125
304.81948	33948.8125
309.03742	33944.8125
313.25231	33675.3125
317.46415	32994.5125
321.67296	32202.2125
325.87872	31405.7125
330.08145	31020.5125
334.28114	30929.5125
338.47781	31062.2125
342.67145	31334.8125
346.86207	31719.6125
351.04966	32219.6125
355.23424	32710.6125
359.4158	33147.1125
363.59435	33528.2125
367.76989	33745.0125
371.94243	33843.5125
376.11196	33838.8125
380.27849	33907.5125
384.44203	33955.9125
388.60257	34225.4125
392.76012	34684.0125
396.91468	35312.1125
401.06626	35953.3125
405.21485	36294.8125
409.36047	36103.4125
413.50311	35660.0125
417.64277	35582.6125
421.77947	35822.4125
425.9132	36079.0125
430.04396	36294.2125
434.17176	36424.9125
438.2966	36563.4125
442.41849	37024.2125
446.53742	38024.8125
450.6534	39149.6125
454.76644	39917.5125
458.87653	40171.5125
462.98368	40021.4125
467.08789	39599.6125
471.18916	39035.1125
475.2875	38600.1125
479.38291	38580.1125
483.4754	38552.1125
487.56496	38167.0125
491.6516	37335.3125
495.73531	36411.8125
499.81612	35767.7125
503.89401	35711.9125
507.96899	35913.4125
512.04106	35973.6125
516.11023	35582.7125
520.1765	35007.3125
524.23987	34329.7125
528.30034	33798.0125
532.35792	33394.3125
536.41261	32976.9125
540.46441	32685.4125
544.51333	32744.2125
548.55936	33182.8125
552.60252	34008.6125
556.64279	35130.7125
560.6802	35969.4125
564.71473	36711.8125
568.7464	37845.8125
572.7752	39658.7125
576.80114	41792.0125
580.82422	43685.5125
584.84444	45675.1125
588.86181	48046.4125
592.87633	50028.0125
596.888	49114.7125
600.89682	45782.7125
604.9028	43696.8125
608.90594	44357.5125
612.90624	45473.3125
616.90371	42115.5125
620.89834	36224.3125
624.89015	33735.2125
628.87913	33652.5125
632.86528	34042.1125
636.84862	33904.4125
640.82913	33169.2125
644.80683	32198.0125
648.78172	31674.0125
652.75379	31611.2125
656.72306	31885.7125
660.68952	32215.5125
664.65319	31962.3125
668.61405	31418.8125
672.57211	31335.6125
676.52738	31500.7125
680.47986	31425.0125
684.42955	31231.5125
688.37646	31044.0125
692.32058	31244.9125
696.26192	31779.6125
700.20048	32326.5125
704.13626	32711.8125
708.06928	32965.0125
711.99952	32965.0125
715.927	32973.9125
719.85171	32958.3125
723.77365	32606.7125
727.69284	31965.5125
731.60928	31403.3125
735.52295	31077.8125
739.43388	31011.6125
743.34206	31157.3125
747.24749	31428.7125
751.15017	31942.5125
755.05012	32728.7125
758.94733	33875.4125
762.8418	35617.1125
766.73354	37971.1125
770.62254	39829.1125
774.50882	39545.5125
778.39237	37443.1125
782.27321	34882.5125
786.15132	32996.2125
790.02671	31787.9125
793.89938	31094.3125
797.76935	30787.2125
801.6366	30692.0125
805.50115	30596.6125
809.36299	30494.3125
813.22213	30323.5125
817.07857	30238.7125
820.93231	30100.0125
824.78336	29836.6125
828.63172	29547.8125
832.47738	29350.0125
836.32036	29267.3125
840.16066	29320.3125
843.99827	29344.0125
847.8332	29358.6125
851.66546	29332.3125
855.49504	29369.8125
859.32195	29334.7125
863.1462	29197.9125
866.96777	29120.7125
870.78668	29013.4125
874.60293	28996.7125
878.41652	28914.5125
882.22745	29063.2125
886.03573	29095.0125
889.84136	29117.0125
893.64433	28998.1125
897.44466	28887.7125
901.24235	28839.3125
905.0374	28744.5125
908.8298	28814.5125
912.61957	28964.8125
916.40671	29386.5125
920.19121	30120.7125
923.97308	30560.5125
927.75233	30392.7125
931.52895	29804.1125
935.30295	29018.2125
939.07433	28332.9125
942.84309	27807.3125
946.60924	27562.2125
950.37278	27457.5125
954.13371	27472.7125
957.89203	27561.2125
961.64774	27621.6125
965.40086	27634.1125
969.15137	27562.1125
972.89929	27340.8125
976.64461	27109.7125
980.38733	26986.7125
984.12747	26940.9125
987.86502	27053.4125
991.59999	27195.8125
995.33237	27462.4125
999.06217	27910.2125
1002.78939	28435.7125
1006.51404	29142.5125
1010.23611	29735.1125
1013.95561	30178.3125
1017.67255	30239.0125
1021.38692	29881.3125
1025.09872	29254.0125
1028.80796	28838.3125
1032.51465	28800.0125
1036.21877	28959.4125
1039.92035	29102.8125
1043.61937	29188.3125
1047.31584	29216.6125
1051.00976	29244.5125
1054.70114	29365.4125
1058.38998	29717.3125
1062.07627	30092.0125
1065.76003	30668.0125
1069.44126	31237.1125
1073.11995	31841.0125
1076.79611	32297.7125
1080.46974	32465.6125
1084.14085	32619.0125
1087.80943	33024.9125
1091.47549	33513.4125
1095.13903	33742.5125
1098.80005	33307.0125
1102.45857	32229.7125
1106.11456	31259.2125
1109.76805	30748.7125
1113.41903	30620.4125
1117.06751	30800.7125
1120.71348	31107.4125
1124.35696	31458.9125
1127.99793	31952.6125
1131.63641	32261.6125
1135.2724	32349.8125
1138.90589	32471.1125
1142.5369	32791.1125
1146.16542	33355.8125
1149.79145	33966.0125
1153.415	34653.9125
1157.03607	35581.8125
1160.65467	37180.8125
1164.27079	39535.5125
1167.88443	42127.7125
1171.49561	44596.6125
1175.10432	47306.1125
1178.71056	50667.3125
1182.31434	53829.6125
1185.91565	55225.1125
1189.51451	54838.0125
1193.11091	53571.1125
1196.70485	51844.6125
1200.29634	50078.3125
1203.88538	49204.4125
1207.47197	49326.4125
1211.05612	49640.5125
1214.63782	48917.3125
1218.21708	46990.4125
1221.79391	44547.1125
1225.36829	42804.0125
1228.94024	41665.6125
1232.50976	40850.4125
1236.07685	40160.6125
1239.6415	39793.6125
1243.20374	39856.9125
1246.76355	40183.7125
1250.32093	40916.6125
1253.8759	41883.9125
1257.42845	43203.8125
1260.97859	44653.2125
1264.52631	46146.1125
1268.07163	47668.1125
1271.61453	49260.7125
1275.15503	51013.2125
1278.69312	53045.1125
1282.22882	55528.7125
1285.76211	58457.0125
1289.29301	61899.0125
1292.82151	65917.4125
1296.34761	70704.0125
1299.87133	75885.9125
1303.39266	80535.9125
1306.9116	83799.5125
1310.42815	85490.3125
1313.94233	85703.8125
1317.45412	84787.9125
1320.96354	83789.1125
1324.47058	83433.2125
1327.97525	83650.0125
1331.47754	83686.3125
1334.97747	83163.8125
1338.47502	81949.5125
1341.97022	80251.8125
1345.46305	78243.2125
1348.95352	76264.2125
1352.44163	74980.4125
1355.92738	75222.0125
1359.41078	77024.6125
1362.89183	78484.6125
1366.37053	77443.1125
1369.84688	72339.7125
1373.32088	64940.1125
1376.79254	59603.5125
1380.26186	58259.9125
1383.72883	59421.9125
1387.19347	60398.0125
1390.65578	60290.7125
1394.11575	60312.9125
1397.57339	61298.9125
1401.0287	62641.2125
1404.48168	63610.2125
1407.93234	63120.2125
1411.38068	60891.8125
1414.82669	57585.6125
1418.27039	53862.7125
1421.71177	50537.0125
1425.15083	48143.5125
1428.58758	47140.0125
1432.02203	47753.4125
1435.45416	49682.4125
1438.88399	51941.7125
1442.31151	53605.5125
1445.73673	54724.3125
1449.15965	55505.0125
1452.58027	55881.1125
1455.9986	55914.4125
1459.41463	56059.0125
1462.82837	56718.1125
1466.23982	57643.3125
1469.64898	58543.2125
1473.05586	58922.0125
1476.46045	58772.8125
1479.86276	58055.5125
1483.26279	57193.3125
1486.66054	56700.0125
1490.05602	56729.4125
1493.44922	57129.8125
1496.84016	57747.6125
1500.22882	58387.9125
1503.61521	59167.3125
1506.99934	60210.0125
1510.38121	61052.0125
1513.76081	61338.9125
1517.13816	61177.4125
1520.51324	61067.2125
1523.88607	61502.8125
1527.25665	62485.0125
1530.62498	63192.8125
1533.99105	62973.3125
1537.35488	61713.0125
1540.71647	59585.6125
1544.07581	56899.5125
1547.4329	54328.9125
1550.78776	52296.3125
1554.14038	50815.6125
1557.49077	49992.5125
1560.83892	49454.0125
1564.18484	49141.7125
1567.52853	49228.6125
1570.86999	49888.8125
1574.20922	51519.1125
1577.54624	53246.5125
1580.88103	54698.3125
1584.2136	56354.5125
1587.54395	59069.1125
1590.87208	62797.0125
1594.19801	66706.6125
1597.52172	69452.9125
1600.84321	68980.7125
1604.16251	64316.7125
1607.47959	57599.3125
1610.79447	51344.6125
1614.10715	45991.3125
1617.41763	41953.8125
1620.7259	39335.1125
1624.03199	38090.8125
1627.33587	38323.9125
1630.63757	40123.8125
1633.93707	43871.7125
1637.23439	50097.6125
1640.52951	58936.6125
1643.82246	69329.4125
1647.11321	77270.4125
1650.40179	78174.0125
1653.68819	70945.5125
1656.97241	59401.5125
1660.25446	48466.4125
1663.53433	40448.2125
1666.81203	35191.8125
1670.08756	31891.5125
1673.36092	29872.4125
1676.63211	28628.4125
1679.90115	27674.1125
1683.16801	27052.5125
1686.43272	26545.9125
1689.69527	26153.0125
1692.95567	25885.1125
1696.2139	25657.0125
1699.46999	25505.9125
1702.72392	25315.8125
1705.97571	25188.7125
1709.22535	25019.9125
1712.47284	24998.0125
1715.71819	24902.6125
1718.96139	24763.9125
1722.20246	24641.6125
1725.44139	24498.0125
1728.67818	24315.9125
1731.91284	24100.8125
1735.14537	23913.1125
1738.37576	23780.6125
1741.60403	23637.9125
1744.83017	23544.3125
1748.05418	23460.4125
1751.27607	23392.0125
1754.49584	23338.4125
1757.71349	23325.2125
1760.92903	23293.0125
1764.14244	23243.1125
1767.35375	23213.8125
1770.56294	23157.2125
1773.77002	23031.2125
1776.97499	22974.4125
1780.17785	22912.5125
1783.37861	22849.5125
1786.57727	22821.4125
1789.77382	22771.2125
1792.96828	22711.2125
1796.16064	22643.6125
1799.3509	22581.5125
1802.53907	22498.5125
1805.72514	22417.8125
1808.90913	22373.8125
1812.09102	22283.3125
1815.27083	22244.9125
1818.44856	22192.4125
1821.6242	22170.1125
1824.79776	22125.3125
1827.96924	22107.6125
1831.13864	22085.1125
1834.30597	22091.1125
1837.47122	22111.3125
1840.6344	22086.5125
1843.7955	22103.5125
1846.95454	22055.7125
1850.11151	22063.0125
1853.26642	22010.9125
1856.41926	21974.0125
1859.57004	21978.6125
1862.71876	21929.3125
1865.86542	21883.7125
1869.01003	21841.9125
1872.15258	21773.7125
1875.29308	21782.5125
1878.43152	21696.5125
1881.56792	21694.2125
1884.70227	21622.7125
1887.83457	21614.8125
1890.96482	21573.3125
1894.09304	21547.6125
1897.21921	21529.8125
1900.34335	21487.7125
1903.46544	21488.4125
1906.58551	21407.6125
1909.70353	21379.1125
1912.81953	21317.5125
1915.93349	21274.7125
1919.04543	21210.9125
1922.15534	21147.9125
1925.26322	21068.4125
1928.36908	21017.9125
1931.47292	20979.3125
1934.57473	20895.6125
1937.67453	20837.8125
1940.77232	20777.3125
1943.86808	20692.1125
1946.96184	20624.5125
1950.05358	20603.1125
1953.14331	20550.6125
1956.23103	20449.7125
1959.31675	20383.0125
1962.40046	20288.8125
1965.48217	20254.2125
1968.56188	20191.7125
1971.63959	20127.4125
1974.7153	20013.5125
1977.78901	19959.1125
1980.86073	19858.0125
1983.93046	19817.9125
1986.99819	19746.3125
1990.06394	19682.3125
1993.1277	19688.9125
1996.18947	19572.7125
1999.24925	19537.2125
2002.30706	19453.4125
2005.36288	19386.5125
2008.41672	19355.9125
2011.46859	19246.4125
2014.51848	19177.4125
2017.56639	19135.1125
2020.61233	19105.4125
2023.6563	19064.6125
2026.6983	18981.1125
2029.73833	18937.1125
2032.7764	18888.3125
2035.8125	18850.9125
2038.84664	18766.6125
2041.87881	18763.3125
2044.90903	18754.1125
2047.93729	18705.0125
2050.96359	18697.2125
2053.98794	18638.1125
2057.01034	18627.1125
2060.03078	18615.7125
2063.04927	18569.0125
2066.06582	18579.1125
2069.08042	18557.7125
2072.09307	18518.5125
2075.10378	18497.6125
2078.11255	18495.8125
2081.11938	18503.5125
2084.12426	18490.9125
2087.12722	18469.7125
2090.12824	18455.8125
2093.12732	18418.3125
2096.12447	18449.3125
2099.11969	18429.8125
2102.11299	18401.4125
2105.10435	18397.1125
2108.09379	18429.5125
2111.08131	18418.6125
2114.0669	18440.2125
2117.05057	18423.2125
2120.03233	18436.9125
2123.01216	18408.8125
2125.99008	18440.4125
2128.96609	18458.1125
2131.94018	18455.0125
2134.91236	18428.8125
2137.88263	18465.8125
2140.851	18452.0125
2143.81746	18462.2125
2146.78201	18419.0125
2149.74466	18376.7125
2152.7054	18351.1125
2155.66425	18317.8125
2158.6212	18329.0125
2161.57625	18306.6125
2164.52941	18297.4125
2167.48067	18290.1125
2170.43004	18272.1125
2173.37752	18265.8125
2176.32311	18254.1125
2179.26681	18238.9125
2182.20863	18268.0125
2185.14856	18271.1125
2188.08661	18265.2125
2191.02278	18273.0125
2193.95707	18243.2125
2196.88948	18176.9125
2199.82001	18135.5125
2202.74867	18127.9125
2205.67545	18115.7125
2208.60037	18040.8125
2211.52341	18074.0125
2214.44458	18041.7125
2217.36388	17983.6125
2220.28132	17951.6125
2223.1969	17921.6125
2226.11061	17877.5125
2229.02246	17848.8125
2231.93245	17817.7125
2234.84058	17815.8125
2237.74686	17739.5125
2240.65128	17804.4125
2243.55385	17739.5125
2246.45456	17704.8125
2249.35343	17651.4125
2252.25044	17614.0125
2255.14561	17512.9125
2258.03893	17502.0125
2260.93041	17443.6125
2263.82004	17362.6125
2266.70783	17312.0125
2269.59378	17245.0125
2272.4779	17197.8125
2275.36017	17170.4125
2278.24061	17139.6125
2281.11922	17107.1125
2283.996	17045.8125
2286.87094	17050.8125
2289.74405	17026.1125
2292.61534	16984.3125
2295.4848	16965.8125
2298.35243	16968.2125
2301.21824	16993.2125
2304.08223	16960.4125
2306.94439	16934.2125
2309.80474	16948.0125
2312.66327	16931.9125
2315.51999	16887.1125
2318.37489	16861.3125
2321.22797	16864.5125
2324.07925	16811.7125
2326.92871	16798.9125
2329.77637	16772.2125
2332.62222	16726.0125
2335.46626	16723.6125
2338.3085	16724.9125
2341.14893	16730.3125
2343.98756	16734.2125
2346.8244	16707.2125
2349.65943	16710.4125
2352.49267	16689.7125
2355.32411	16722.5125
2358.15376	16688.9125
2360.98161	16663.0125
2363.80768	16664.2125
2366.63195	16686.3125
2369.45444	16637.5125
2372.27514	16635.0125
2375.09405	16570.7125
2377.91118	16605.3125
2380.72652	16519.9125
2383.54009	16459.8125
2386.35187	16455.4125
2389.16188	16393.8125
2391.97011	16391.3125
2394.77657	16345.2125
2397.58125	16331.1125
2400.38416	16291.4125
2403.18529	16282.8125
2405.98466	16260.5125
2408.78226	16228.9125
2411.57809	16244.7125
2414.37216	16216.2125
2417.16446	16226.7125
2419.955	16180.2125
2422.74378	16154.6125
2425.5308	16108.6125
2428.31606	16114.9125
2431.09956	16106.1125
2433.88131	16072.4125
2436.6613	16105.7125
2439.43954	16094.6125
2442.21603	16061.3125
2444.99077	16038.2125
2447.76377	16066.5125
2450.53501	16073.6125
2453.30451	16054.2125
2456.07226	16054.5125
2458.83827	16007.6125
2461.60254	16000.7125
2464.36507	16013.1125
2467.12586	16001.6125
2469.88492	15994.9125
2472.64224	16012.5125
2475.39782	16052.5125
2478.15167	16040.9125
2480.90379	15988.8125
2483.65417	16019.0125
2486.40283	16050.4125
2489.14976	16027.6125
2491.89497	16019.4125
2494.63845	16038.2125
2497.3802	16035.0125
2500.12024	16026.8125
2502.85855	16014.0125
2505.59514	16014.9125
2508.33002	16001.1125
2511.06318	15995.0125
2513.79462	15954.2125
2516.52435	15960.6125
2519.25237	15940.5125
2521.97867	15929.0125
2524.70327	15934.7125
2527.42616	15923.1125
2530.14734	15909.6125
2532.86681	15924.3125
2535.58458	15921.8125
2538.30065	15879.2125
2541.01501	15872.4125
2543.72768	15876.0125
2546.43864	15871.0125
2549.14791	15869.4125
2551.85548	15839.6125
2554.56136	15815.0125
2557.26554	15748.7125
2559.96803	15743.1125
2562.66883	15732.2125
2565.36794	15753.7125
2568.06536	15715.9125
2570.7611	15722.0125
2573.45514	15740.5125
2576.14751	15718.7125
2578.83819	15691.7125
2581.52719	15684.1125
2584.21451	15651.5125
2586.90015	15699.4125
2589.58411	15670.7125
2592.2664	15683.9125
2594.94701	15672.7125
2597.62594	15656.7125
2600.30321	15651.8125
2602.9788	15659.8125
2605.65273	15657.2125
2608.32498	15659.6125
2610.99557	15654.3125
2613.66449	15668.0125
2616.33175	15634.9125
2618.99734	15673.8125
2621.66128	15628.1125
2624.32355	15657.8125
2626.98416	15614.0125
2629.64311	15589.2125
2632.30041	15620.6125
2634.95605	15589.8125
2637.61004	15596.7125
2640.26238	15587.2125
2642.91306	15583.4125
2645.56209	15536.7125
2648.20948	15586.3125
2650.85521	15592.4125
2653.4993	15643.3125
2656.14175	15625.2125
2658.78255	15617.1125
2661.42171	15659.1125
2664.05923	15697.6125
2666.6951	15678.4125
2669.32934	15677.0125
2671.96194	15694.0125
2674.59291	15712.8125
2677.22224	15685.6125
2679.84993	15701.1125
2682.476	15671.4125
2685.10043	15698.3125
2687.72324	15608.5125
2690.34441	15654.9125
2692.96396	15613.1125
2695.58188	15661.6125
2698.19818	15640.9125
2700.81285	15678.6125
2703.4259	15660.8125
2706.03733	15707.2125
2708.64714	15704.7125
2711.25533	15710.1125
2713.86191	15681.4125
2716.46687	15721.8125
2719.07021	15714.6125
2721.67194	15754.4125
2724.27206	15764.5125
2726.87057	15800.5125
2729.46747	15794.1125
2732.06276	15821.0125
2734.65644	15822.6125
2737.24852	15805.1125
2739.83899	15805.0125
2742.42786	15800.9125
2745.01513	15767.2125
2747.60079	15787.9125
2750.18486	15759.7125
2752.76733	15748.3125
2755.3482	15720.6125
2757.92747	15738.9125
2760.50515	15749.6125
2763.08123	15778.2125
2765.65573	15752.2125
2768.22863	15762.3125
2770.79994	15710.7125
2773.36967	15745.6125
2775.9378	15719.2125
2778.50435	15723.0125
2781.06932	15729.9125
2783.6327	15725.1125
2786.1945	15751.4125
2788.75471	15754.5125
2791.31335	15712.7125
2793.87041	15684.3125
2796.42589	15630.7125
2798.97979	15659.7125
2801.53212	15659.6125
2804.08288	15609.2125
2806.63206	15537.1125
2809.17967	15542.0125
2811.72571	15508.6125
2814.27018	15494.6125
2816.81308	15439.2125
2819.35442	15415.1125
2821.89419	15406.4125
2824.43239	15429.0125
2826.96904	15376.5125
2829.50412	15374.8125
2832.03763	15341.7125
2834.56959	15336.1125
2837.1	15320.8125
2839.62884	15287.3125
2842.15613	15317.2125
2844.68186	15353.7125
2847.20604	15355.2125
2849.72867	15361.6125
2852.24974	15343.4125
2854.76927	15369.3125
2857.28724	15372.4125
2859.80367	15329.9125
2862.31855	15296.3125
2864.83189	15254.1125
2867.34368	15235.9125
2869.85393	15227.3125
2872.36264	15181.7125
2874.8698	15155.4125
2877.37543	15117.3125
2879.87952	15114.2125
2882.38207	15145.2125
2884.88308	15135.8125
2887.38256	15131.5125
2889.88051	15131.6125
2892.37692	15115.0125
2894.8718	15145.5125
2897.36515	15160.8125
2899.85698	15161.0125
2902.34727	15195.6125
2904.83604	15213.3125
2907.32328	15239.9125
2909.809	15236.9125
2912.29319	15233.1125
2914.77587	15269.9125
2917.25702	15244.6125
2919.73665	15230.8125
2922.21476	15255.2125
2924.69136	15213.7125
2927.16644	15215.0125
2929.64	15206.3125
2932.11205	15160.3125
2934.58258	15126.5125
2937.05161	15151.8125
2939.51912	15146.6125
2941.98513	15117.8125
2944.44962	15079.8125
2946.91261	15040.5125
2949.37409	15055.1125
2951.83407	15000.4125
2954.29254	14978.5125
2956.74951	14983.5125
2959.20498	14943.8125
2961.65895	14891.1125
2964.11142	14929.2125
2966.56239	14871.1125
2969.01186	14919.8125
2971.45984	14862.0125
2973.90632	14852.0125
2976.35131	14807.2125
2978.7948	14775.1125
2981.23681	14697.1125
2983.67732	14655.9125
2986.11635	14642.5125
2988.55388	14612.2125
2990.98993	14547.8125
2993.4245	14495.6125
2995.85758	14451.1125
2998.28917	14402.9125
3000.71928	14388.7125
3003.14791	14343.5125
3005.57506	14320.6125
3008.00073	14275.8125
3010.42493	14139.9125
3012.84764	14205.9125
3015.26888	14169.8125
3017.68865	14129.8125
3020.10694	14106.8125
3022.52376	14084.0125
