Data from AgNPs_FTO_APTES_UA_5uM_CRN_500uM_R6G_10uM_NaF_0.1M_Addition_RamanShift__4__16-45-21-814.txt Node

Date: Mon Feb 07 16:45:21 GMT 2022
User: TCL
Spectrometer: QEP01345
Trigger mode: 4
Integration Time (sec): 7.000000E0
Scans to average: 10
Electric dark correction enabled: true
Nonlinearity correction enabled: false
Boxcar width: 0
XAxis mode: Raman Shifts
Number of Pixels in Spectrum: 1044
>>>>>Begin Spectral Data<<<<<
46.04893	-1.2875
50.45542	0.1125
54.85868	0.3125
59.25871	0.2125
63.6555	70.2125
68.04907	71.4125
72.43941	78.1125
76.82654	78.2125
81.21044	80.9125
85.59113	80.2125
89.96862	88.5125
94.34289	89.4125
98.71396	92.6125
103.08183	97.0125
107.4465	99.2125
111.80798	106.0125
116.16626	105.1125
120.52136	112.0125
124.87327	116.1125
129.222	120.4125
133.56755	130.4125
137.90993	141.3125
142.24913	160.0125
146.58517	181.8125
150.91804	211.0125
155.24774	255.5125
159.57429	327.5125
163.89768	415.9125
168.21792	567.7125
172.53501	777.8125
176.84895	1082.4125
181.15975	1522.3125
185.46741	2141.7125
189.77193	2958.9125
194.07331	3966.6125
198.37157	5090.6125
202.6667	6265.7125
206.9587	7438.7125
211.24758	8608.8125
215.53334	9785.3125
219.81599	11007.8125
224.09553	12400.9125
228.37195	13911.7125
232.64527	15504.7125
236.91549	17181.4125
241.18261	18901.4125
245.44663	20485.4125
249.70755	21928.6125
253.96539	23190.5125
258.22014	24273.1125
262.4718	25088.7125
266.72039	25710.2125
270.96589	26116.6125
275.20832	26189.1125
279.44768	26094.7125
283.68397	25883.3125
287.91719	25772.7125
292.14735	25687.6125
296.37445	25810.1125
300.59849	25919.8125
304.81948	26108.5125
309.03742	26054.0125
313.25231	25737.0125
317.46415	25178.5125
321.67296	24504.7125
325.87872	23960.5125
330.08145	23586.5125
334.28114	23502.6125
338.47781	23557.0125
342.67145	23755.3125
346.86207	24123.3125
351.04966	24519.7125
355.23424	24908.9125
359.4158	25252.2125
363.59435	25501.0125
367.76989	25683.3125
371.94243	25846.0125
376.11196	25963.8125
380.27849	25993.9125
384.44203	26183.3125
388.60257	26407.6125
392.76012	26724.7125
396.91468	27056.8125
401.06626	27451.7125
405.21485	27703.4125
409.36047	27552.0125
413.50311	27174.8125
417.64277	26974.3125
421.77947	27014.8125
425.9132	27084.3125
430.04396	27252.5125
434.17176	27461.6125
438.2966	27668.1125
442.41849	28156.4125
446.53742	29076.3125
450.6534	30043.3125
454.76644	30681.6125
458.87653	30814.1125
462.98368	30694.0125
467.08789	30293.0125
471.18916	29964.3125
475.2875	29716.5125
479.38291	29751.9125
483.4754	29697.8125
487.56496	29289.2125
491.6516	28537.2125
495.73531	27769.2125
499.81612	27287.3125
503.89401	27276.4125
507.96899	27323.2125
512.04106	27220.6125
516.11023	27017.9125
520.1765	26685.8125
524.23987	26406.3125
528.30034	26104.6125
532.35792	25935.0125
536.41261	25594.8125
540.46441	25368.7125
544.51333	25351.5125
548.55936	25740.5125
552.60252	26404.7125
556.64279	27286.1125
560.6802	28035.2125
564.71473	28498.9125
568.7464	29103.4125
572.7752	30212.7125
576.80114	31210.8125
580.82422	32037.1125
584.84444	32935.4125
588.86181	34289.0125
592.87633	35321.7125
596.888	34917.4125
600.89682	33160.7125
604.9028	32311.7125
608.90594	33496.4125
612.90624	35202.8125
616.90371	32989.1125
620.89834	27980.4125
624.89015	25751.5125
628.87913	25560.6125
632.86528	25756.3125
636.84862	25697.6125
640.82913	25361.8125
644.80683	24797.8125
648.78172	24424.5125
652.75379	24312.2125
656.72306	24501.4125
660.68952	24784.1125
664.65319	24566.4125
668.61405	24145.0125
672.57211	24026.2125
676.52738	24110.7125
680.47986	24172.5125
684.42955	24057.8125
688.37646	23923.4125
692.32058	24042.8125
696.26192	24317.9125
700.20048	24626.4125
704.13626	24836.7125
708.06928	24947.0125
711.99952	24931.0125
715.927	24867.9125
719.85171	24943.3125
723.77365	24828.8125
727.69284	24540.0125
731.60928	24208.0125
735.52295	24112.0125
739.43388	24093.2125
743.34206	24122.1125
747.24749	24272.8125
751.15017	24552.2125
755.05012	25070.0125
758.94733	25814.1125
762.8418	27147.7125
766.73354	29029.9125
770.62254	30734.8125
774.50882	30905.4125
778.39237	29467.2125
782.27321	27363.6125
786.15132	25609.5125
790.02671	24584.3125
793.89938	24003.4125
797.76935	23837.0125
801.6366	23765.5125
805.50115	23714.6125
809.36299	23587.0125
813.22213	23437.1125
817.07857	23396.1125
820.93231	23318.8125
824.78336	23140.9125
828.63172	22985.7125
832.47738	22844.3125
836.32036	22831.2125
840.16066	22829.9125
843.99827	22854.7125
847.8332	22820.3125
851.66546	22763.8125
855.49504	22809.7125
859.32195	22773.9125
863.1462	22719.2125
866.96777	22625.3125
870.78668	22561.6125
874.60293	22545.0125
878.41652	22589.6125
882.22745	22666.5125
886.03573	22668.6125
889.84136	22675.5125
893.64433	22611.8125
897.44466	22520.3125
901.24235	22421.5125
905.0374	22362.5125
908.8298	22312.8125
912.61957	22399.1125
916.40671	22672.7125
920.19121	23058.5125
923.97308	23341.1125
927.75233	23217.0125
931.52895	22924.6125
935.30295	22511.6125
939.07433	22048.1125
942.84309	21698.0125
946.60924	21505.0125
950.37278	21428.4125
954.13371	21398.1125
957.89203	21410.0125
961.64774	21443.9125
965.40086	21418.5125
969.15137	21345.5125
972.89929	21131.5125
976.64461	20977.3125
980.38733	20892.8125
984.12747	20894.3125
987.86502	21002.5125
991.59999	21180.3125
995.33237	21410.0125
999.06217	21744.4125
1002.78939	22199.9125
1006.51404	22626.3125
1010.23611	22970.7125
1013.95561	23265.8125
1017.67255	23401.6125
1021.38692	23169.2125
1025.09872	22722.1125
1028.80796	22431.6125
1032.51465	22482.6125
1036.21877	22712.9125
1039.92035	22808.4125
1043.61937	22800.9125
1047.31584	22702.8125
1051.00976	22635.1125
1054.70114	22634.3125
1058.38998	22718.3125
1062.07627	23005.5125
1065.76003	23273.5125
1069.44126	23549.5125
1073.11995	23820.8125
1076.79611	24111.3125
1080.46974	24201.6125
1084.14085	24365.5125
1087.80943	24575.4125
1091.47549	24876.4125
1095.13903	24973.8125
1098.80005	24713.2125
1102.45857	24154.1125
1106.11456	23633.0125
1109.76805	23446.2125
1113.41903	23489.8125
1117.06751	23707.3125
1120.71348	24001.1125
1124.35696	24299.7125
1127.99793	24690.6125
1131.63641	24971.8125
1135.2724	24847.5125
1138.90589	24652.5125
1142.5369	24746.8125
1146.16542	25026.5125
1149.79145	25454.6125
1153.415	25884.0125
1157.03607	26467.9125
1160.65467	27471.0125
1164.27079	28994.0125
1167.88443	30906.2125
1171.49561	32779.2125
1175.10432	35132.8125
1178.71056	38089.8125
1182.31434	40814.8125
1185.91565	42013.5125
1189.51451	41548.0125
1193.11091	40262.0125
1196.70485	38745.0125
1200.29634	37315.3125
1203.88538	36335.5125
1207.47197	35931.0125
1211.05612	35612.6125
1214.63782	34912.8125
1218.21708	33761.5125
1221.79391	32532.9125
1225.36829	31708.3125
1228.94024	31146.0125
1232.50976	30431.5125
1236.07685	29847.2125
1239.6415	29461.2125
1243.20374	29454.9125
1246.76355	29698.3125
1250.32093	30089.1125
1253.8759	30691.0125
1257.42845	31545.4125
1260.97859	32436.9125
1264.52631	33337.4125
1268.07163	34284.4125
1271.61453	35315.9125
1275.15503	36501.4125
1278.69312	37854.8125
1282.22882	39263.4125
1285.76211	41094.7125
1289.29301	43412.0125
1292.82151	46225.9125
1296.34761	49545.2125
1299.87133	53279.4125
1303.39266	56809.3125
1306.9116	59840.6125
1310.42815	61881.6125
1313.94233	62907.4125
1317.45412	62490.4125
1320.96354	61432.8125
1324.47058	60418.8125
1327.97525	59609.5125
1331.47754	59055.1125
1334.97747	58460.5125
1338.47502	57581.0125
1341.97022	56381.5125
1345.46305	55119.2125
1348.95352	54154.1125
1352.44163	53896.1125
1355.92738	54877.8125
1359.41078	56810.4125
1362.89183	58297.7125
1366.37053	57148.9125
1369.84688	52472.8125
1373.32088	46680.3125
1376.79254	42857.7125
1380.26186	41882.1125
1383.72883	42442.3125
1387.19347	42968.3125
1390.65578	43056.7125
1394.11575	43383.6125
1397.57339	44258.0125
1401.0287	45351.2125
1404.48168	45999.0125
1407.93234	45672.0125
1411.38068	44210.3125
1414.82669	41980.6125
1418.27039	39444.1125
1421.71177	37071.0125
1425.15083	35151.6125
1428.58758	34271.9125
1432.02203	34539.9125
1435.45416	35672.7125
1438.88399	37129.8125
1442.31151	38260.6125
1445.73673	39010.0125
1449.15965	39558.1125
1452.58027	39946.0125
1455.9986	40120.0125
1459.41463	40378.8125
1462.82837	40782.7125
1466.23982	41374.2125
1469.64898	41878.1125
1473.05586	42129.5125
1476.46045	41980.0125
1479.86276	41505.7125
1483.26279	40724.1125
1486.66054	40259.6125
1490.05602	40183.5125
1493.44922	40361.7125
1496.84016	40740.3125
1500.22882	41353.1125
1503.61521	42502.3125
1506.99934	43753.7125
1510.38121	45016.1125
1513.76081	45322.1125
1517.13816	44603.8125
1520.51324	43450.7125
1523.88607	42773.5125
1527.25665	42773.5125
1530.62498	43169.4125
1533.99105	43207.4125
1537.35488	42751.7125
1540.71647	41690.9125
1544.07581	40260.6125
1547.4329	38705.1125
1550.78776	37366.3125
1554.14038	36373.7125
1557.49077	35813.7125
1560.83892	35500.4125
1564.18484	35472.8125
1567.52853	35649.4125
1570.86999	36238.1125
1574.20922	37279.9125
1577.54624	38396.5125
1580.88103	39058.1125
1584.2136	39855.3125
1587.54395	41331.8125
1590.87208	43606.5125
1594.19801	46273.1125
1597.52172	48579.4125
1600.84321	49034.1125
1604.16251	46483.6125
1607.47959	42092.1125
1610.79447	37605.9125
1614.10715	33592.2125
1617.41763	30617.2125
1620.7259	28654.6125
1624.03199	27795.9125
1627.33587	27903.4125
1630.63757	29019.3125
1633.93707	31363.9125
1637.23439	35207.8125
1640.52951	40824.0125
1643.82246	47493.9125
1647.11321	52841.2125
1650.40179	53723.1125
1653.68819	49269.0125
1656.97241	41617.2125
1660.25446	34372.9125
1663.53433	29038.8125
1666.81203	25541.7125
1670.08756	23365.4125
1673.36092	21984.1125
1676.63211	21136.2125
1679.90115	20554.0125
1683.16801	20130.0125
1686.43272	19761.0125
1689.69527	19537.3125
1692.95567	19358.9125
1696.2139	19209.2125
1699.46999	19039.5125
1702.72392	18965.3125
1705.97571	18854.2125
1709.22535	18848.3125
1712.47284	18744.2125
1715.71819	18711.4125
1718.96139	18644.8125
1722.20246	18578.5125
1725.44139	18423.8125
1728.67818	18299.6125
1731.91284	18170.1125
1735.14537	18044.1125
1738.37576	17979.9125
1741.60403	17879.0125
1744.83017	17830.1125
1748.05418	17754.4125
1751.27607	17722.3125
1754.49584	17689.2125
1757.71349	17657.4125
1760.92903	17621.4125
1764.14244	17629.4125
1767.35375	17580.2125
1770.56294	17549.7125
1773.77002	17452.7125
1776.97499	17386.5125
1780.17785	17349.2125
1783.37861	17312.8125
1786.57727	17310.2125
1789.77382	17248.0125
1792.96828	17195.5125
1796.16064	17180.5125
1799.3509	17124.4125
1802.53907	17077.3125
1805.72514	17027.7125
1808.90913	16966.8125
1812.09102	16903.1125
1815.27083	16877.7125
1818.44856	16823.9125
1821.6242	16804.1125
1824.79776	16771.1125
1827.96924	16765.4125
1831.13864	16736.9125
1834.30597	16719.1125
1837.47122	16714.2125
1840.6344	16681.1125
1843.7955	16690.8125
1846.95454	16696.0125
1850.11151	16637.2125
1853.26642	16608.2125
1856.41926	16620.2125
1859.57004	16574.5125
1862.71876	16551.1125
1865.86542	16540.1125
1869.01003	16527.7125
1872.15258	16483.7125
1875.29308	16478.0125
1878.43152	16428.4125
1881.56792	16398.1125
1884.70227	16384.7125
1887.83457	16375.8125
1890.96482	16362.0125
1894.09304	16316.9125
1897.21921	16328.9125
1900.34335	16250.4125
1903.46544	16278.9125
1906.58551	16239.7125
1909.70353	16194.2125
1912.81953	16129.6125
1915.93349	16101.1125
1919.04543	16076.9125
1922.15534	16053.5125
1925.26322	16013.4125
1928.36908	15970.4125
1931.47292	15951.4125
1934.57473	15910.8125
1937.67453	15848.2125
1940.77232	15809.1125
1943.86808	15735.0125
1946.96184	15672.5125
1950.05358	15634.9125
1953.14331	15597.1125
1956.23103	15491.2125
1959.31675	15445.6125
1962.40046	15408.0125
1965.48217	15375.6125
1968.56188	15333.6125
1971.63959	15249.6125
1974.7153	15210.0125
1977.78901	15152.3125
1980.86073	15107.6125
1983.93046	15077.7125
1986.99819	15021.2125
1990.06394	14967.2125
1993.1277	14934.2125
1996.18947	14840.9125
1999.24925	14823.7125
2002.30706	14765.6125
2005.36288	14704.1125
2008.41672	14689.3125
2011.46859	14608.5125
2014.51848	14581.2125
2017.56639	14559.4125
2020.61233	14495.6125
2023.6563	14430.5125
2026.6983	14405.7125
2029.73833	14367.6125
2032.7764	14333.1125
2035.8125	14341.8125
2038.84664	14287.7125
2041.87881	14257.0125
2044.90903	14222.4125
2047.93729	14182.1125
2050.96359	14143.2125
2053.98794	14150.8125
2057.01034	14125.1125
2060.03078	14127.8125
2063.04927	14149.6125
2066.06582	14110.3125
2069.08042	14105.4125
2072.09307	14077.9125
2075.10378	14059.4125
2078.11255	14049.1125
2081.11938	14047.6125
2084.12426	14027.5125
2087.12722	14015.9125
2090.12824	13980.1125
2093.12732	14005.3125
2096.12447	14010.0125
2099.11969	13968.2125
2102.11299	13934.1125
2105.10435	13960.3125
2108.09379	13949.0125
2111.08131	13966.0125
2114.0669	13929.9125
2117.05057	13985.3125
2120.03233	13962.4125
2123.01216	13969.9125
2125.99008	13994.0125
2128.96609	13970.3125
2131.94018	13978.3125
2134.91236	13999.9125
2137.88263	13982.8125
2140.851	13979.8125
2143.81746	13969.8125
2146.78201	13941.8125
2149.74466	13954.7125
2152.7054	13951.5125
2155.66425	13932.9125
2158.6212	13910.6125
2161.57625	13881.1125
2164.52941	13905.1125
2167.48067	13884.9125
2170.43004	13849.2125
2173.37752	13854.5125
2176.32311	13898.6125
2179.26681	13844.2125
2182.20863	13897.4125
2185.14856	13845.5125
2188.08661	13873.0125
2191.02278	13875.0125
2193.95707	13849.3125
2196.88948	13826.4125
2199.82001	13790.9125
2202.74867	13782.7125
2205.67545	13747.4125
2208.60037	13741.9125
2211.52341	13701.8125
2214.44458	13645.0125
2217.36388	13630.5125
2220.28132	13600.2125
2223.1969	13528.8125
2226.11061	13548.5125
2229.02246	13547.3125
2231.93245	13537.8125
2234.84058	13508.0125
2237.74686	13450.2125
2240.65128	13454.2125
2243.55385	13414.3125
2246.45456	13388.8125
2249.35343	13375.1125
2252.25044	13334.3125
2255.14561	13295.0125
2258.03893	13254.3125
2260.93041	13200.1125
2263.82004	13168.7125
2266.70783	13134.0125
2269.59378	13121.4125
2272.4779	13066.3125
2275.36017	13008.2125
2278.24061	13010.5125
2281.11922	12995.5125
2283.996	12989.0125
2286.87094	12921.1125
2289.74405	12908.3125
2292.61534	12880.7125
2295.4848	12883.4125
2298.35243	12888.1125
2301.21824	12894.2125
2304.08223	12920.0125
2306.94439	12902.3125
2309.80474	12857.8125
2312.66327	12881.6125
2315.51999	12840.5125
2318.37489	12824.5125
2321.22797	12813.9125
2324.07925	12806.8125
2326.92871	12762.6125
2329.77637	12756.6125
2332.62222	12718.9125
2335.46626	12736.5125
2338.3085	12711.3125
2341.14893	12714.5125
2343.98756	12697.9125
2346.8244	12689.4125
2349.65943	12672.6125
2352.49267	12672.6125
2355.32411	12666.9125
2358.15376	12665.0125
2360.98161	12688.4125
2363.80768	12643.6125
2366.63195	12659.2125
2369.45444	12636.0125
2372.27514	12616.1125
2375.09405	12563.2125
2377.91118	12547.5125
2380.72652	12508.7125
2383.54009	12505.6125
2386.35187	12494.9125
2389.16188	12417.2125
2391.97011	12405.2125
2394.77657	12373.1125
2397.58125	12356.0125
2400.38416	12345.0125
2403.18529	12313.4125
2405.98466	12332.4125
2408.78226	12304.3125
2411.57809	12268.5125
2414.37216	12271.7125
2417.16446	12285.4125
2419.955	12233.9125
2422.74378	12238.4125
2425.5308	12211.8125
2428.31606	12184.1125
2431.09956	12175.5125
2433.88131	12176.5125
2436.6613	12186.8125
2439.43954	12196.3125
2442.21603	12173.1125
2444.99077	12142.4125
2447.76377	12137.5125
2450.53501	12127.1125
2453.30451	12125.9125
2456.07226	12113.7125
2458.83827	12103.1125
2461.60254	12098.5125
2464.36507	12113.4125
2467.12586	12093.1125
2469.88492	12120.7125
2472.64224	12120.1125
2475.39782	12100.1125
2478.15167	12110.7125
2480.90379	12097.1125
2483.65417	12117.6125
2486.40283	12106.4125
2489.14976	12083.0125
2491.89497	12086.6125
2494.63845	12115.7125
2497.3802	12116.5125
2500.12024	12124.8125
2502.85855	12099.2125
2505.59514	12089.1125
2508.33002	12043.0125
2511.06318	12063.8125
2513.79462	12039.3125
2516.52435	12016.1125
2519.25237	11998.0125
2521.97867	11995.5125
2524.70327	11983.8125
2527.42616	11967.1125
2530.14734	11963.5125
2532.86681	11973.5125
2535.58458	11979.3125
2538.30065	11953.6125
2541.01501	11960.2125
2543.72768	11938.3125
2546.43864	11935.0125
2549.14791	11909.0125
2551.85548	11883.5125
2554.56136	11874.3125
2557.26554	11861.1125
2559.96803	11848.8125
2562.66883	11845.7125
2565.36794	11808.8125
2568.06536	11855.7125
2570.7611	11824.2125
2573.45514	11803.6125
2576.14751	11770.9125
2578.83819	11769.2125
2581.52719	11823.1125
2584.21451	11795.0125
2586.90015	11769.9125
2589.58411	11740.0125
2592.2664	11750.6125
2594.94701	11762.3125
2597.62594	11743.7125
2600.30321	11734.2125
2602.9788	11720.2125
2605.65273	11726.7125
2608.32498	11738.0125
2610.99557	11736.5125
2613.66449	11745.5125
2616.33175	11728.6125
2618.99734	11735.0125
2621.66128	11711.9125
2624.32355	11727.4125
2626.98416	11699.9125
2629.64311	11664.2125
2632.30041	11695.9125
2634.95605	11657.1125
2637.61004	11635.8125
2640.26238	11625.1125
2642.91306	11636.5125
2645.56209	11648.7125
2648.20948	11650.0125
2650.85521	11648.4125
2653.4993	11648.4125
2656.14175	11627.7125
2658.78255	11672.3125
2661.42171	11656.1125
2664.05923	11667.6125
2666.6951	11674.7125
2669.32934	11692.1125
2671.96194	11692.6125
2674.59291	11663.4125
2677.22224	11661.9125
2679.84993	11687.6125
2682.476	11638.8125
2685.10043	11649.2125
2687.72324	11617.4125
2690.34441	11628.2125
2692.96396	11611.0125
2695.58188	11600.9125
2698.19818	11634.8125
2700.81285	11638.6125
2703.4259	11661.5125
2706.03733	11637.5125
2708.64714	11637.1125
2711.25533	11657.7125
2713.86191	11672.1125
2716.46687	11705.2125
2719.07021	11692.7125
2721.67194	11707.9125
2724.27206	11691.1125
2726.87057	11697.5125
2729.46747	11726.3125
2732.06276	11731.6125
2734.65644	11726.3125
2737.24852	11715.9125
2739.83899	11706.7125
2742.42786	11705.6125
2745.01513	11714.9125
2747.60079	11678.2125
2750.18486	11679.2125
2752.76733	11686.7125
2755.3482	11659.8125
2757.92747	11686.7125
2760.50515	11647.5125
2763.08123	11668.1125
2765.65573	11647.2125
2768.22863	11678.1125
2770.79994	11641.2125
2773.36967	11643.0125
2775.9378	11657.5125
2778.50435	11670.4125
2781.06932	11641.0125
2783.6327	11669.1125
2786.1945	11643.1125
2788.75471	11647.0125
2791.31335	11618.6125
2793.87041	11635.4125
2796.42589	11610.3125
2798.97979	11599.8125
2801.53212	11584.2125
2804.08288	11547.7125
2806.63206	11520.7125
2809.17967	11488.1125
2811.72571	11490.1125
2814.27018	11467.3125
2816.81308	11447.8125
2819.35442	11415.8125
2821.89419	11399.9125
2824.43239	11380.4125
2826.96904	11380.5125
2829.50412	11398.1125
2832.03763	11346.9125
2834.56959	11325.5125
2837.1	11332.1125
2839.62884	11368.1125
2842.15613	11391.2125
2844.68186	11443.9125
2847.20604	11486.5125
2849.72867	11491.3125
2852.24974	11485.4125
2854.76927	11465.3125
2857.28724	11453.4125
2859.80367	11449.2125
2862.31855	11404.3125
2864.83189	11400.7125
2867.34368	11367.4125
2869.85393	11365.6125
2872.36264	11362.7125
2874.8698	11374.0125
2877.37543	11336.9125
2879.87952	11331.0125
2882.38207	11344.8125
2884.88308	11327.3125
2887.38256	11369.9125
2889.88051	11342.5125
2892.37692	11351.7125
2894.8718	11333.3125
2897.36515	11342.3125
2899.85698	11350.2125
2902.34727	11424.4125
2904.83604	11374.8125
2907.32328	11415.1125
2909.809	11432.4125
2912.29319	11397.7125
2914.77587	11381.9125
2917.25702	11402.9125
2919.73665	11370.5125
2922.21476	11365.2125
2924.69136	11387.0125
2927.16644	11369.9125
2929.64	11399.2125
2932.11205	11357.6125
2934.58258	11339.1125
2937.05161	11345.0125
2939.51912	11304.6125
2941.98513	11301.3125
2944.44962	11276.3125
2946.91261	11228.4125
2949.37409	11218.0125
2951.83407	11195.0125
2954.29254	11185.6125
2956.74951	11172.9125
2959.20498	11170.0125
2961.65895	11126.0125
2964.11142	11133.7125
2966.56239	11101.6125
2969.01186	11094.8125
2971.45984	11093.3125
2973.90632	11067.1125
2976.35131	11036.2125
2978.7948	10985.9125
2981.23681	10936.2125
2983.67732	10948.0125
2986.11635	10935.8125
2988.55388	10876.1125
2990.98993	10831.0125
2993.4245	10811.0125
2995.85758	10779.6125
2998.28917	10718.3125
3000.71928	10717.1125
3003.14791	10692.2125
3005.57506	10682.0125
3008.00073	10631.4125
3010.42493	10618.0125
3012.84764	10623.1125
3015.26888	10609.9125
3017.68865	10538.5125
3020.10694	10518.5125
3022.52376	10501.7125
3024.9391	10503.9125
