Data from AgNPs_FTO_APTES_UA_5uM_CRN_5uM_R6G_10uM_NaF_0.1M_Addition_RamanShift__13__11-59-56-684.txt Node

Date: Mon Feb 07 11:59:56 GMT 2022
User: TCL
Spectrometer: QEP01345
Trigger mode: 4
Integration Time (sec): 7.000000E0
Scans to average: 10
Electric dark correction enabled: true
Nonlinearity correction enabled: false
Boxcar width: 0
XAxis mode: Raman Shifts
Number of Pixels in Spectrum: 1044
>>>>>Begin Spectral Data<<<<<
46.04893	0.625
50.45542	-0.975
54.85868	-1.275
59.25871	-0.175
63.6555	103.725
68.04907	105.725
72.43941	111.625
76.82654	116.425
81.21044	122.125
85.59113	126.825
89.96862	127.425
94.34289	129.225
98.71396	133.525
103.08183	141.225
107.4465	142.825
111.80798	150.625
116.16626	152.825
120.52136	164.325
124.87327	168.325
129.222	181.725
133.56755	196.825
137.90993	215.325
142.24913	236.725
146.58517	270.425
150.91804	314.025
155.24774	384.025
159.57429	485.625
163.89768	628.325
168.21792	839.625
172.53501	1152.125
176.84895	1607.725
181.15975	2262.125
185.46741	3181.425
189.77193	4392.925
194.07331	5894.925
198.37157	7597.225
202.6667	9397.825
206.9587	11155.725
211.24758	12904.425
215.53334	14594.125
219.81599	16427.725
224.09553	18416.125
228.37195	20567.825
232.64527	22975.925
236.91549	25492.625
241.18261	28046.325
245.44663	30545.125
249.70755	32788.525
253.96539	34721.025
258.22014	36370.325
262.4718	37631.825
266.72039	38515.325
270.96589	39007.125
275.20832	39156.625
279.44768	38993.425
283.68397	38785.225
287.91719	38638.625
292.14735	38480.325
296.37445	38461.225
300.59849	38466.825
304.81948	38467.325
309.03742	38402.625
313.25231	38145.125
317.46415	37433.025
321.67296	36567.725
325.87872	35813.525
330.08145	35426.625
334.28114	35348.825
338.47781	35561.425
342.67145	35814.225
346.86207	36219.425
351.04966	36725.025
355.23424	37150.025
359.4158	37560.325
363.59435	37850.725
367.76989	38067.125
371.94243	38200.525
376.11196	38247.025
380.27849	38291.425
384.44203	38240.725
388.60257	38522.425
392.76012	38952.925
396.91468	39634.325
401.06626	40364.225
405.21485	40813.525
409.36047	40651.225
413.50311	40221.725
417.64277	40036.625
421.77947	40209.025
425.9132	40503.525
430.04396	40699.125
434.17176	40816.325
438.2966	40943.925
442.41849	41335.025
446.53742	42000.025
450.6534	42826.725
454.76644	43476.625
458.87653	43816.625
462.98368	43880.925
467.08789	43648.225
471.18916	43283.425
475.2875	42939.525
479.38291	42849.225
483.4754	42794.425
487.56496	42562.725
491.6516	42054.925
495.73531	41402.225
499.81612	40934.625
503.89401	40886.125
507.96899	41059.625
512.04106	41151.825
516.11023	40948.625
520.1765	40447.825
524.23987	39833.625
528.30034	39245.825
532.35792	38809.925
536.41261	38438.725
540.46441	38100.525
544.51333	38226.925
548.55936	38691.925
552.60252	39522.425
556.64279	40345.025
560.6802	41037.825
564.71473	41737.625
568.7464	42772.525
572.7752	44540.025
576.80114	46824.425
580.82422	48883.325
584.84444	50364.325
588.86181	51623.225
592.87633	52810.425
596.888	52378.525
600.89682	50225.625
604.9028	48828.725
608.90594	49738.925
612.90624	50829.725
616.90371	47632.025
620.89834	41927.925
624.89015	39692.325
628.87913	39703.225
632.86528	40240.125
636.84862	40252.625
640.82913	39428.325
644.80683	38441.425
648.78172	37726.925
652.75379	37473.025
656.72306	37742.925
660.68952	38144.225
664.65319	38077.225
668.61405	37722.825
672.57211	37667.725
676.52738	37750.025
680.47986	37645.525
684.42955	37443.325
688.37646	37285.325
692.32058	37442.425
696.26192	37882.625
700.20048	38259.425
704.13626	38685.125
708.06928	38944.925
711.99952	39016.625
715.927	38893.025
719.85171	38650.725
723.77365	38300.925
727.69284	37706.525
731.60928	37131.225
735.52295	36811.525
739.43388	36697.625
743.34206	36755.025
747.24749	37002.725
751.15017	37497.425
755.05012	38211.225
758.94733	39277.425
762.8418	41048.725
766.73354	43502.825
770.62254	45610.125
774.50882	45504.725
778.39237	43453.925
782.27321	40937.725
786.15132	39089.125
790.02671	37748.825
793.89938	37014.125
797.76935	36570.125
801.6366	36351.225
805.50115	36237.225
809.36299	36115.525
813.22213	35971.525
817.07857	35915.025
820.93231	35838.025
824.78336	35719.425
828.63172	35493.125
832.47738	35301.825
836.32036	35250.725
840.16066	35216.425
843.99827	35212.325
847.8332	35204.725
851.66546	35228.725
855.49504	35349.825
859.32195	35384.025
863.1462	35213.225
866.96777	35204.025
870.78668	35145.725
874.60293	35147.425
878.41652	35073.925
882.22745	35143.825
886.03573	35252.425
889.84136	35223.225
893.64433	35153.125
897.44466	35125.325
901.24235	35080.525
905.0374	35033.425
908.8298	35015.925
912.61957	35181.025
916.40671	35599.825
920.19121	36259.825
923.97308	36740.925
927.75233	36589.925
931.52895	35985.525
935.30295	35240.425
939.07433	34560.125
942.84309	34017.425
946.60924	33699.225
950.37278	33555.625
954.13371	33474.225
957.89203	33489.225
961.64774	33520.225
965.40086	33562.025
969.15137	33476.325
972.89929	33307.225
976.64461	33075.225
980.38733	32981.625
984.12747	32930.225
987.86502	33044.325
991.59999	33149.625
995.33237	33337.525
999.06217	33748.625
1002.78939	34174.225
1006.51404	34759.325
1010.23611	35351.925
1013.95561	35733.025
1017.67255	35748.725
1021.38692	35438.725
1025.09872	34940.225
1028.80796	34501.825
1032.51465	34336.225
1036.21877	34365.625
1039.92035	34455.725
1043.61937	34685.425
1047.31584	34877.025
1051.00976	35075.725
1054.70114	35367.625
1058.38998	35734.625
1062.07627	36246.025
1065.76003	36876.125
1069.44126	37549.925
1073.11995	38194.625
1076.79611	38638.925
1080.46974	38813.025
1084.14085	38931.625
1087.80943	39299.425
1091.47549	39808.925
1095.13903	40210.325
1098.80005	39729.825
1102.45857	38665.225
1106.11456	37661.525
1109.76805	36998.125
1113.41903	36686.325
1117.06751	36708.225
1120.71348	36934.325
1124.35696	37270.325
1127.99793	37646.425
1131.63641	37992.625
1135.2724	38097.925
1138.90589	38169.525
1142.5369	38398.725
1146.16542	38724.325
1149.79145	39277.725
1153.415	39921.125
1157.03607	40587.125
1160.65467	41741.425
1164.27079	43457.825
1167.88443	45559.925
1171.49561	47818.225
1175.10432	50265.425
1178.71056	53159.125
1182.31434	56040.325
1185.91565	57762.325
1189.51451	58368.325
1193.11091	57941.325
1196.70485	56576.525
1200.29634	54633.525
1203.88538	53225.825
1207.47197	52797.725
1211.05612	52800.525
1214.63782	52182.625
1218.21708	50656.125
1221.79391	48631.225
1225.36829	46869.425
1228.94024	45838.425
1232.50976	45241.125
1236.07685	44843.825
1239.6415	44641.525
1243.20374	44648.425
1246.76355	44988.325
1250.32093	45557.025
1253.8759	46508.025
1257.42845	47813.225
1260.97859	49275.225
1264.52631	50711.025
1268.07163	52154.725
1271.61453	53555.725
1275.15503	55149.025
1278.69312	56953.625
1282.22882	58803.125
1285.76211	61058.625
1289.29301	63510.125
1292.82151	66334.425
1296.34761	69648.125
1299.87133	73201.825
1303.39266	76560.025
1306.9116	79150.825
1310.42815	80634.425
1313.94233	80902.925
1317.45412	80420.525
1320.96354	80083.025
1324.47058	80355.625
1327.97525	81019.125
1331.47754	81577.625
1334.97747	81900.425
1338.47502	81955.425
1341.97022	82022.725
1345.46305	81681.425
1348.95352	80657.325
1352.44163	78946.825
1355.92738	77459.125
1359.41078	77048.825
1362.89183	77033.525
1366.37053	75702.725
1369.84688	71798.325
1373.32088	66267.625
1376.79254	62103.725
1380.26186	60513.225
1383.72883	60713.825
1387.19347	61091.025
1390.65578	60883.225
1394.11575	60588.925
1397.57339	60854.025
1401.0287	61440.625
1404.48168	61801.425
1407.93234	61328.825
1411.38068	59683.025
1414.82669	57199.725
1418.27039	54423.025
1421.71177	51916.325
1425.15083	50108.925
1428.58758	49357.125
1432.02203	49867.625
1435.45416	51126.725
1438.88399	52682.225
1442.31151	53895.725
1445.73673	54945.425
1449.15965	55736.725
1452.58027	56377.225
1455.9986	56796.325
1459.41463	57423.225
1462.82837	58327.325
1466.23982	59249.825
1469.64898	59877.225
1473.05586	60059.925
1476.46045	59892.925
1479.86276	59391.825
1483.26279	58915.325
1486.66054	58798.325
1490.05602	58977.825
1493.44922	59753.225
1496.84016	60798.325
1500.22882	62074.225
1503.61521	63487.525
1506.99934	64932.325
1510.38121	65825.025
1513.76081	66155.325
1517.13816	65909.525
1520.51324	65694.625
1523.88607	65905.225
1527.25665	66201.725
1530.62498	66292.725
1533.99105	65650.825
1537.35488	64224.925
1540.71647	62247.925
1544.07581	59870.725
1547.4329	57695.225
1550.78776	55981.125
1554.14038	54883.625
1557.49077	54275.825
1560.83892	53931.825
1564.18484	53774.725
1567.52853	53794.125
1570.86999	54208.725
1574.20922	55281.425
1577.54624	56530.325
1580.88103	57231.825
1584.2136	58100.625
1587.54395	59835.025
1590.87208	62111.025
1594.19801	64855.925
1597.52172	66887.825
1600.84321	66438.525
1604.16251	63046.625
1607.47959	58490.225
1610.79447	53950.425
1614.10715	49785.225
1617.41763	46196.225
1620.7259	43614.325
1624.03199	42217.725
1627.33587	42156.425
1630.63757	43355.425
1633.93707	46282.725
1637.23439	51315.925
1640.52951	58480.525
1643.82246	66913.825
1647.11321	73592.225
1650.40179	75002.025
1653.68819	70029.125
1656.97241	61090.925
1660.25446	51947.225
1663.53433	44694.725
1666.81203	39754.125
1670.08756	36559.625
1673.36092	34545.125
1676.63211	33317.325
1679.90115	32495.825
1683.16801	31850.925
1686.43272	31280.225
1689.69527	30918.625
1692.95567	30655.725
1696.2139	30401.225
1699.46999	30185.725
1702.72392	30047.525
1705.97571	29945.325
1709.22535	29849.325
1712.47284	29769.025
1715.71819	29635.625
1718.96139	29576.025
1722.20246	29407.825
1725.44139	29308.425
1728.67818	29096.925
1731.91284	28879.125
1735.14537	28705.425
1738.37576	28511.325
1741.60403	28412.225
1744.83017	28280.925
1748.05418	28191.825
1751.27607	28113.625
1754.49584	28029.125
1757.71349	27981.725
1760.92903	27922.125
1764.14244	27889.625
1767.35375	27801.325
1770.56294	27791.625
1773.77002	27696.125
1776.97499	27646.925
1780.17785	27514.825
1783.37861	27476.825
1786.57727	27403.925
1789.77382	27372.025
1792.96828	27316.425
1796.16064	27249.425
1799.3509	27192.225
1802.53907	27137.025
1805.72514	27026.025
1808.90913	26920.525
1812.09102	26848.325
1815.27083	26773.225
1818.44856	26766.025
1821.6242	26727.025
1824.79776	26689.825
1827.96924	26616.325
1831.13864	26615.725
1834.30597	26624.925
1837.47122	26599.725
1840.6344	26549.825
1843.7955	26573.725
1846.95454	26616.625
1850.11151	26581.925
1853.26642	26554.225
1856.41926	26541.425
1859.57004	26500.725
1862.71876	26466.725
1865.86542	26429.925
1869.01003	26364.525
1872.15258	26231.625
1875.29308	26202.025
1878.43152	26151.825
1881.56792	26068.725
1884.70227	26066.025
1887.83457	25944.525
1890.96482	25929.525
1894.09304	25863.925
1897.21921	25814.925
1900.34335	25816.525
1903.46544	25737.825
1906.58551	25726.925
1909.70353	25645.625
1912.81953	25546.625
1915.93349	25495.425
1919.04543	25429.725
1922.15534	25355.425
1925.26322	25297.025
1928.36908	25200.025
1931.47292	25165.825
1934.57473	25071.825
1937.67453	24989.825
1940.77232	24889.325
1943.86808	24851.225
1946.96184	24756.225
1950.05358	24673.725
1953.14331	24621.925
1956.23103	24525.525
1959.31675	24447.725
1962.40046	24344.725
1965.48217	24260.625
1968.56188	24184.625
1971.63959	24081.625
1974.7153	23951.625
1977.78901	23882.825
1980.86073	23797.425
1983.93046	23706.325
1986.99819	23605.225
1990.06394	23560.025
1993.1277	23496.525
1996.18947	23414.225
1999.24925	23328.125
2002.30706	23240.625
2005.36288	23128.625
2008.41672	23094.025
2011.46859	23023.725
2014.51848	22964.825
2017.56639	22878.225
2020.61233	22821.625
2023.6563	22745.725
2026.6983	22664.425
2029.73833	22599.525
2032.7764	22560.825
2035.8125	22512.425
2038.84664	22422.025
2041.87881	22401.625
2044.90903	22307.825
2047.93729	22253.325
2050.96359	22206.825
2053.98794	22146.625
2057.01034	22165.625
2060.03078	22146.525
2063.04927	22138.725
2066.06582	22142.625
2069.08042	22112.325
2072.09307	22090.625
2075.10378	22034.325
2078.11255	21995.425
2081.11938	22026.825
2084.12426	21996.525
2087.12722	21965.925
2090.12824	21921.025
2093.12732	21905.525
2096.12447	21937.125
2099.11969	21940.425
2102.11299	21907.125
2105.10435	21884.125
2108.09379	21862.925
2111.08131	21862.325
2114.0669	21906.225
2117.05057	21917.625
2120.03233	21889.825
2123.01216	21900.525
2125.99008	21947.925
2128.96609	21907.425
2131.94018	21894.725
2134.91236	21900.525
2137.88263	21923.225
2140.851	21901.125
2143.81746	21935.325
2146.78201	21878.325
2149.74466	21838.725
2152.7054	21809.425
2155.66425	21796.325
2158.6212	21807.825
2161.57625	21767.525
2164.52941	21734.625
2167.48067	21745.425
2170.43004	21752.725
2173.37752	21718.325
2176.32311	21651.125
2179.26681	21683.525
2182.20863	21626.725
2185.14856	21666.425
2188.08661	21649.425
2191.02278	21677.825
2193.95707	21626.025
2196.88948	21610.225
2199.82001	21544.625
2202.74867	21505.325
2205.67545	21445.225
2208.60037	21396.525
2211.52341	21384.025
2214.44458	21344.125
2217.36388	21286.525
2220.28132	21225.825
2223.1969	21162.525
2226.11061	21158.525
2229.02246	21108.325
2231.93245	21103.925
2234.84058	21095.025
2237.74686	21013.925
2240.65128	20973.825
2243.55385	20965.125
2246.45456	20929.425
2249.35343	20858.025
2252.25044	20803.325
2255.14561	20760.225
2258.03893	20695.925
2260.93041	20614.625
2263.82004	20548.125
2266.70783	20499.425
2269.59378	20397.425
2272.4779	20332.825
2275.36017	20308.225
2278.24061	20260.025
2281.11922	20172.925
2283.996	20157.225
2286.87094	20128.125
2289.74405	20027.025
2292.61534	20027.225
2295.4848	20004.825
2298.35243	20002.525
2301.21824	19988.825
2304.08223	19973.125
2306.94439	19910.425
2309.80474	19906.925
2312.66327	19925.125
2315.51999	19868.325
2318.37489	19799.025
2321.22797	19799.325
2324.07925	19744.925
2326.92871	19741.525
2329.77637	19683.525
2332.62222	19652.025
2335.46626	19615.125
2338.3085	19616.125
2341.14893	19630.825
2343.98756	19597.025
2346.8244	19593.725
2349.65943	19589.025
2352.49267	19573.725
2355.32411	19559.925
2358.15376	19564.725
2360.98161	19534.525
2363.80768	19528.925
2366.63195	19491.725
2369.45444	19472.925
2372.27514	19472.425
2375.09405	19466.425
2377.91118	19407.325
2380.72652	19344.825
2383.54009	19285.825
2386.35187	19288.525
2389.16188	19194.325
2391.97011	19167.325
2394.77657	19087.025
2397.58125	19090.625
2400.38416	19033.925
2403.18529	19020.025
2405.98466	19013.325
2408.78226	18960.325
2411.57809	18944.025
2414.37216	18927.025
2417.16446	18921.525
2419.955	18888.225
2422.74378	18854.125
2425.5308	18802.725
2428.31606	18815.425
2431.09956	18805.325
2433.88131	18793.125
2436.6613	18780.425
2439.43954	18796.025
2442.21603	18744.225
2444.99077	18707.425
2447.76377	18707.225
2450.53501	18697.425
2453.30451	18663.825
2456.07226	18615.725
2458.83827	18642.925
2461.60254	18620.025
2464.36507	18600.625
2467.12586	18550.425
2469.88492	18521.325
2472.64224	18534.325
2475.39782	18560.525
2478.15167	18551.825
2480.90379	18539.325
2483.65417	18539.425
2486.40283	18517.325
2489.14976	18532.125
2491.89497	18500.325
2494.63845	18553.325
2497.3802	18513.025
2500.12024	18530.025
2502.85855	18475.525
2505.59514	18460.425
2508.33002	18413.925
2511.06318	18440.425
2513.79462	18416.025
2516.52435	18392.925
2519.25237	18387.325
2521.97867	18387.825
2524.70327	18338.025
2527.42616	18338.825
2530.14734	18345.125
2532.86681	18292.725
2535.58458	18338.625
2538.30065	18272.625
2541.01501	18262.125
2543.72768	18253.425
2546.43864	18202.925
2549.14791	18176.125
2551.85548	18168.925
2554.56136	18126.825
2557.26554	18083.225
2559.96803	18068.025
2562.66883	18046.525
2565.36794	17993.425
2568.06536	17972.325
2570.7611	17932.525
2573.45514	17920.925
2576.14751	17877.325
2578.83819	17865.525
2581.52719	17885.725
2584.21451	17871.025
2586.90015	17825.025
2589.58411	17796.025
2592.2664	17823.525
2594.94701	17747.025
2597.62594	17752.225
2600.30321	17740.725
2602.9788	17713.225
2605.65273	17714.025
2608.32498	17746.625
2610.99557	17707.325
2613.66449	17690.125
2616.33175	17691.825
2618.99734	17698.325
2621.66128	17667.525
2624.32355	17585.525
2626.98416	17614.025
2629.64311	17591.725
2632.30041	17594.725
2634.95605	17584.925
2637.61004	17533.225
2640.26238	17514.025
2642.91306	17532.125
2645.56209	17521.025
2648.20948	17532.825
2650.85521	17549.725
2653.4993	17567.125
2656.14175	17544.425
2658.78255	17548.025
2661.42171	17563.825
2664.05923	17549.025
2666.6951	17557.025
2669.32934	17590.625
2671.96194	17569.925
2674.59291	17578.525
2677.22224	17572.625
2679.84993	17578.025
2682.476	17568.525
2685.10043	17536.625
2687.72324	17499.925
2690.34441	17486.625
2692.96396	17508.425
2695.58188	17542.925
2698.19818	17487.925
2700.81285	17511.225
2703.4259	17512.925
2706.03733	17540.925
2708.64714	17487.225
2711.25533	17497.925
2713.86191	17479.425
2716.46687	17483.125
2719.07021	17487.025
2721.67194	17517.825
2724.27206	17536.925
2726.87057	17598.825
2729.46747	17543.725
2732.06276	17563.525
2734.65644	17569.025
2737.24852	17594.625
2739.83899	17537.425
2742.42786	17540.025
2745.01513	17493.425
2747.60079	17507.825
2750.18486	17479.925
2752.76733	17454.425
2755.3482	17442.125
2757.92747	17410.925
2760.50515	17396.125
2763.08123	17364.225
2765.65573	17383.025
2768.22863	17371.225
2770.79994	17346.925
2773.36967	17331.025
2775.9378	17354.325
2778.50435	17311.925
2781.06932	17307.425
2783.6327	17320.325
2786.1945	17314.125
2788.75471	17307.225
2791.31335	17259.625
2793.87041	17222.525
2796.42589	17171.225
2798.97979	17194.925
2801.53212	17151.125
2804.08288	17119.425
2806.63206	17029.025
2809.17967	17009.225
2811.72571	16982.425
2814.27018	16958.925
2816.81308	16914.425
2819.35442	16871.025
2821.89419	16820.725
2824.43239	16842.725
2826.96904	16819.425
2829.50412	16812.125
2832.03763	16743.125
2834.56959	16715.725
2837.1	16745.325
2839.62884	16723.125
2842.15613	16655.625
2844.68186	16728.425
2847.20604	16733.525
2849.72867	16702.325
2852.24974	16698.725
2854.76927	16695.125
2857.28724	16706.925
2859.80367	16683.525
2862.31855	16638.425
2864.83189	16605.025
2867.34368	16595.625
2869.85393	16560.525
2872.36264	16483.225
2874.8698	16432.425
2877.37543	16441.825
2879.87952	16419.525
2882.38207	16406.625
2884.88308	16392.725
2887.38256	16438.325
2889.88051	16424.225
2892.37692	16386.425
2894.8718	16393.625
2897.36515	16417.025
2899.85698	16393.125
2902.34727	16422.325
2904.83604	16439.425
2907.32328	16517.825
2909.809	16469.525
2912.29319	16451.425
2914.77587	16413.925
2917.25702	16438.925
2919.73665	16427.025
2922.21476	16441.725
2924.69136	16435.625
2927.16644	16433.025
2929.64	16386.225
2932.11205	16343.125
2934.58258	16293.125
2937.05161	16319.825
2939.51912	16292.025
2941.98513	16262.725
2944.44962	16264.525
2946.91261	16156.825
2949.37409	16212.725
2951.83407	16154.425
2954.29254	16123.425
2956.74951	16126.325
2959.20498	16071.625
2961.65895	16052.725
2964.11142	16069.725
2966.56239	16008.925
2969.01186	16008.925
2971.45984	15951.325
2973.90632	15983.325
2976.35131	15914.825
2978.7948	15868.625
2981.23681	15826.925
2983.67732	15816.125
2986.11635	15777.125
2988.55388	15749.325
2990.98993	15697.425
2993.4245	15620.025
2995.85758	15565.825
2998.28917	15473.725
3000.71928	15485.425
3003.14791	15450.125
3005.57506	15430.925
3008.00073	15355.925
3010.42493	15324.925
3012.84764	15263.625
3015.26888	15300.825
3017.68865	15260.425
3020.10694	15181.025
3022.52376	15164.125
3024.9391	15142.625
3027.35298	15120.825
3029.76539	15107.225
3032.17632	15066.425
3034.5858	15047.925
3036.9938	15037.425
3039.40034	15023.925
3041.80542	15019.225
3044.20903	14972.825
3046.61118	14944.125
3049.01187	14926.625
3051.4111	14924.125
3053.80888	14841.325
3056.20519	14859.925
3058.60005	14780.625
3060.99345	14700.725
3063.3854	14675.125
3065.7759	14602.325
3068.16494	14552.625
3070.55254	14489.525
3072.93868	14453.025
3075.32338	14403.425
3077.70662	14354.625
3080.08842	14320.625
3082.46878	14300.325
3084.84769	14252.425
3087.22515	14228.725
3089.60118	14195.425
3091.97576	14216.025
3094.3489	14184.725
3096.72061	14183.025
3099.09087	14211.525
3101.4597	14155.025
3103.82709	14162.425
3106.19305	14148.825
3108.55757	14135.125
3110.92066	14065.625
3113.28232	14035.925
3115.64255	14004.825
3118.00134	13977.025
3120.35871	13939.525
3122.71466	13889.925
3125.06917	13843.925
