Data from AgNPs_FTO_APTES_UA_5uM_CRN_1uM_R6G_10uM_NaF_0.1M_Addition_RamanShift__19__10-39-26-590.txt Node

Date: Mon Feb 07 10:39:26 GMT 2022
User: TCL
Spectrometer: QEP01345
Trigger mode: 4
Integration Time (sec): 7.000000E0
Scans to average: 10
Electric dark correction enabled: true
Nonlinearity correction enabled: false
Boxcar width: 0
XAxis mode: Raman Shifts
Number of Pixels in Spectrum: 1044
>>>>>Begin Spectral Data<<<<<
46.04893	-0.575
50.45542	-1.375
54.85868	-1.675
59.25871	-0.275
63.6555	91.125
68.04907	94.825
72.43941	95.225
76.82654	100.625
81.21044	105.825
85.59113	111.025
89.96862	117.325
94.34289	115.225
98.71396	117.925
103.08183	124.525
107.4465	126.225
111.80798	130.625
116.16626	131.025
120.52136	143.025
124.87327	145.425
129.222	158.625
133.56755	170.925
137.90993	185.225
142.24913	205.825
146.58517	234.225
150.91804	272.025
155.24774	327.825
159.57429	409.725
163.89768	533.125
168.21792	715.825
172.53501	976.425
176.84895	1357.825
181.15975	1926.925
185.46741	2683.225
189.77193	3705.125
194.07331	4962.225
198.37157	6378.225
202.6667	7844.425
206.9587	9323.825
211.24758	10776.625
215.53334	12306.625
219.81599	13937.425
224.09553	15715.925
228.37195	17708.525
232.64527	19892.625
236.91549	22179.925
241.18261	24393.225
245.44663	26329.225
249.70755	28114.925
253.96539	29551.725
258.22014	30848.525
262.4718	31936.525
266.72039	32742.825
270.96589	33218.325
275.20832	33366.425
279.44768	33239.225
283.68397	33107.625
287.91719	32999.125
292.14735	33029.325
296.37445	33131.725
300.59849	33310.925
304.81948	33601.225
309.03742	33574.525
313.25231	33140.325
317.46415	32157.725
321.67296	30795.125
325.87872	29563.625
330.08145	28881.225
334.28114	28731.125
338.47781	28898.325
342.67145	29250.325
346.86207	29746.825
351.04966	30498.725
355.23424	31283.625
359.4158	31952.325
363.59435	32420.525
367.76989	32694.325
371.94243	32819.525
376.11196	32898.825
380.27849	32948.525
384.44203	33025.225
388.60257	33201.525
392.76012	33516.925
396.91468	34036.725
401.06626	34710.425
405.21485	35170.825
409.36047	34956.625
413.50311	34297.225
417.64277	33791.025
421.77947	33769.225
425.9132	33912.625
430.04396	34153.925
434.17176	34251.425
438.2966	34302.125
442.41849	34716.325
446.53742	35557.425
450.6534	36659.825
454.76644	37601.125
458.87653	37966.025
462.98368	37781.825
467.08789	37293.325
471.18916	36643.425
475.2875	36135.725
479.38291	36096.525
483.4754	36077.725
487.56496	35883.325
491.6516	35376.225
495.73531	34775.225
499.81612	34432.925
503.89401	34550.425
507.96899	34618.725
512.04106	34411.525
516.11023	33886.825
520.1765	33224.725
524.23987	32617.425
528.30034	32092.025
532.35792	31609.425
536.41261	30999.425
540.46441	30468.225
544.51333	30516.725
548.55936	31143.125
552.60252	32193.725
556.64279	33286.525
560.6802	34039.125
564.71473	34528.025
568.7464	35482.325
572.7752	36905.125
576.80114	38092.525
580.82422	39203.325
584.84444	40201.125
588.86181	40854.125
592.87633	41174.725
596.888	40992.325
600.89682	40453.525
604.9028	41618.625
608.90594	46076.525
612.90624	50827.825
616.90371	47172.125
620.89834	37504.425
624.89015	33125.625
628.87913	32706.525
632.86528	32847.725
636.84862	32528.025
640.82913	31747.725
644.80683	30463.925
648.78172	29525.925
652.75379	29312.925
656.72306	29792.225
660.68952	30494.225
664.65319	30384.125
668.61405	29678.625
672.57211	29380.725
676.52738	29405.025
680.47986	29353.925
684.42955	29077.325
688.37646	28906.325
692.32058	29170.225
696.26192	29608.025
700.20048	30175.225
704.13626	30541.125
708.06928	30514.325
711.99952	30266.725
715.927	30162.425
719.85171	30288.525
723.77365	30167.325
727.69284	29585.025
731.60928	29052.125
735.52295	28877.725
739.43388	28891.925
743.34206	29016.725
747.24749	29242.425
751.15017	29713.425
755.05012	30462.425
758.94733	31783.525
762.8418	34080.125
766.73354	37721.925
770.62254	41194.825
774.50882	41732.225
778.39237	39085.225
782.27321	35301.825
786.15132	32210.725
790.02671	30355.525
793.89938	29490.925
797.76935	29221.225
801.6366	29198.425
805.50115	29137.325
809.36299	28801.625
813.22213	28469.925
817.07857	28271.325
820.93231	28142.725
824.78336	27911.825
828.63172	27750.525
832.47738	27695.625
836.32036	27758.425
840.16066	27871.325
843.99827	28064.525
847.8332	28039.525
851.66546	27832.025
855.49504	27723.425
859.32195	27694.325
863.1462	27529.625
866.96777	27363.725
870.78668	27233.825
874.60293	27153.725
878.41652	27162.425
882.22745	27253.025
886.03573	27382.825
889.84136	27379.025
893.64433	27235.425
897.44466	27108.825
901.24235	26975.025
905.0374	26853.225
908.8298	26718.425
912.61957	26797.725
916.40671	27156.325
920.19121	27815.725
923.97308	28515.225
927.75233	28787.025
931.52895	28610.825
935.30295	28020.225
939.07433	27102.725
942.84309	26359.725
946.60924	26119.225
950.37278	26073.425
954.13371	25970.825
957.89203	25825.925
961.64774	25727.125
965.40086	25679.525
969.15137	25600.625
972.89929	25499.225
976.64461	25418.125
980.38733	25347.925
984.12747	25435.825
987.86502	25767.825
991.59999	26187.025
995.33237	26943.425
999.06217	28175.225
1002.78939	29656.225
1006.51404	30511.125
1010.23611	31019.325
1013.95561	31245.425
1017.67255	31227.125
1021.38692	30700.325
1025.09872	30257.725
1028.80796	30709.125
1032.51465	32169.025
1036.21877	33602.625
1039.92035	33741.125
1043.61937	32927.125
1047.31584	31608.225
1051.00976	30277.525
1054.70114	29640.525
1058.38998	29572.425
1062.07627	29761.125
1065.76003	30035.825
1069.44126	30378.725
1073.11995	30966.225
1076.79611	31606.225
1080.46974	31948.225
1084.14085	32350.925
1087.80943	32867.825
1091.47549	33401.325
1095.13903	33430.925
1098.80005	32831.525
1102.45857	31654.525
1106.11456	30602.125
1109.76805	30102.625
1113.41903	30015.825
1117.06751	30223.525
1120.71348	30630.125
1124.35696	31097.325
1127.99793	31700.425
1131.63641	32036.525
1135.2724	31991.925
1138.90589	31706.625
1142.5369	31636.725
1146.16542	31701.025
1149.79145	31910.725
1153.415	32328.825
1157.03607	33121.425
1160.65467	34401.125
1164.27079	36540.425
1167.88443	39378.625
1171.49561	42668.525
1175.10432	46984.525
1178.71056	52503.425
1182.31434	57532.625
1185.91565	60320.325
1189.51451	60239.425
1193.11091	57865.225
1196.70485	54381.525
1200.29634	51121.125
1203.88538	48799.725
1207.47197	47356.625
1211.05612	46280.725
1214.63782	45218.825
1218.21708	44143.025
1221.79391	43331.225
1225.36829	42837.425
1228.94024	42116.825
1232.50976	40895.625
1236.07685	39911.625
1239.6415	39359.425
1243.20374	39143.725
1246.76355	39428.425
1250.32093	40250.025
1253.8759	41585.125
1257.42845	43273.425
1260.97859	45077.825
1264.52631	46898.625
1268.07163	48827.925
1271.61453	50865.225
1275.15503	53086.125
1278.69312	55401.125
1282.22882	57436.025
1285.76211	59428.925
1289.29301	61623.025
1292.82151	64484.825
1296.34761	68276.225
1299.87133	73191.525
1303.39266	79045.125
1306.9116	85210.125
1310.42815	90641.825
1313.94233	93632.025
1317.45412	93268.425
1320.96354	91154.325
1324.47058	88846.525
1327.97525	87225.025
1331.47754	86119.725
1334.97747	85204.525
1338.47502	84208.325
1341.97022	82810.625
1345.46305	80734.325
1348.95352	78431.325
1352.44163	76882.625
1355.92738	77675.025
1359.41078	81235.325
1362.89183	84988.525
1366.37053	84201.225
1369.84688	77310.325
1373.32088	68244.925
1376.79254	61505.925
1380.26186	58700.925
1383.72883	58294.225
1387.19347	58281.025
1390.65578	57740.025
1394.11575	57577.525
1397.57339	58560.425
1401.0287	60201.025
1404.48168	61696.525
1407.93234	62061.025
1411.38068	60798.225
1414.82669	58161.925
1418.27039	54768.625
1421.71177	51466.325
1425.15083	48842.425
1428.58758	47602.425
1432.02203	47808.725
1435.45416	49271.925
1438.88399	51152.325
1442.31151	52880.425
1445.73673	54090.925
1449.15965	55153.325
1452.58027	55857.625
1455.9986	56102.425
1459.41463	56538.625
1462.82837	57436.025
1466.23982	58877.725
1469.64898	60159.425
1473.05586	60796.225
1476.46045	60757.725
1479.86276	60149.325
1483.26279	59267.125
1486.66054	58629.825
1490.05602	58636.125
1493.44922	58939.125
1496.84016	59515.825
1500.22882	60683.225
1503.61521	62718.225
1506.99934	65492.625
1510.38121	68035.025
1513.76081	69013.425
1517.13816	67666.825
1520.51324	64857.125
1523.88607	62251.325
1527.25665	60587.625
1530.62498	59854.925
1533.99105	59435.525
1537.35488	58887.825
1540.71647	57881.725
1544.07581	56386.125
1547.4329	54688.625
1550.78776	53142.425
1554.14038	52013.425
1557.49077	51410.725
1560.83892	51066.325
1564.18484	51006.025
1567.52853	51094.825
1570.86999	51458.025
1574.20922	52361.025
1577.54624	53245.525
1580.88103	53513.725
1584.2136	54083.125
1587.54395	56335.125
1590.87208	60316.425
1594.19801	65390.925
1597.52172	70285.225
1600.84321	71614.825
1604.16251	67413.525
1607.47959	60276.125
1610.79447	53041.325
1614.10715	46833.425
1617.41763	42023.525
1620.7259	38899.425
1624.03199	37301.225
1627.33587	37325.725
1630.63757	38962.225
1633.93707	42437.925
1637.23439	48063.025
1640.52951	55902.025
1643.82246	64883.225
1647.11321	72030.125
1650.40179	73335.625
1653.68819	67362.425
1656.97241	56975.825
1660.25446	46566.125
1663.53433	38717.725
1666.81203	33641.025
1670.08756	30518.425
1673.36092	28624.225
1676.63211	27339.225
1679.90115	26496.125
1683.16801	25864.525
1686.43272	25409.325
1689.69527	25063.125
1692.95567	24813.525
1696.2139	24672.825
1699.46999	24503.925
1702.72392	24372.925
1705.97571	24251.425
1709.22535	24150.925
1712.47284	24068.425
1715.71819	24031.125
1718.96139	23942.125
1722.20246	23837.925
1725.44139	23710.125
1728.67818	23489.325
1731.91284	23284.525
1735.14537	23106.425
1738.37576	22993.525
1741.60403	22840.225
1744.83017	22775.825
1748.05418	22663.025
1751.27607	22607.425
1754.49584	22594.825
1757.71349	22508.525
1760.92903	22496.825
1764.14244	22465.325
1767.35375	22430.225
1770.56294	22397.725
1773.77002	22325.425
1776.97499	22278.325
1780.17785	22226.325
1783.37861	22184.925
1786.57727	22113.725
1789.77382	22089.525
1792.96828	22056.625
1796.16064	21984.525
1799.3509	21972.725
1802.53907	21880.625
1805.72514	21851.025
1808.90913	21758.325
1812.09102	21720.925
1815.27083	21656.525
1818.44856	21597.825
1821.6242	21612.325
1824.79776	21564.025
1827.96924	21546.025
1831.13864	21557.825
1834.30597	21610.425
1837.47122	21579.125
1840.6344	21582.125
1843.7955	21643.925
1846.95454	21642.825
1850.11151	21677.325
1853.26642	21635.425
1856.41926	21664.925
1859.57004	21708.825
1862.71876	21666.425
1865.86542	21652.325
1869.01003	21585.425
1872.15258	21595.425
1875.29308	21618.825
1878.43152	21585.425
1881.56792	21590.125
1884.70227	21608.525
1887.83457	21626.225
1890.96482	21589.825
1894.09304	21591.825
1897.21921	21573.325
1900.34335	21546.925
1903.46544	21493.525
1906.58551	21511.425
1909.70353	21435.625
1912.81953	21351.125
1915.93349	21378.825
1919.04543	21324.525
1922.15534	21217.825
1925.26322	21134.925
1928.36908	21066.725
1931.47292	20979.225
1934.57473	20899.325
1937.67453	20835.625
1940.77232	20733.225
1943.86808	20669.425
1946.96184	20575.325
1950.05358	20475.225
1953.14331	20436.625
1956.23103	20334.525
1959.31675	20272.725
1962.40046	20232.625
1965.48217	20139.625
1968.56188	20143.525
1971.63959	20062.825
1974.7153	20008.725
1977.78901	19943.625
1980.86073	19866.625
1983.93046	19788.325
1986.99819	19710.725
1990.06394	19676.625
1993.1277	19619.525
1996.18947	19559.625
1999.24925	19475.925
2002.30706	19382.325
2005.36288	19334.325
2008.41672	19316.425
2011.46859	19256.225
2014.51848	19220.925
2017.56639	19154.525
2020.61233	19121.725
2023.6563	19065.425
2026.6983	19061.625
2029.73833	19023.125
2032.7764	19031.125
2035.8125	18981.325
2038.84664	18934.725
2041.87881	18942.825
2044.90903	18893.225
2047.93729	18869.625
2050.96359	18866.725
2053.98794	18811.625
2057.01034	18827.025
2060.03078	18818.425
2063.04927	18805.325
2066.06582	18789.825
2069.08042	18791.925
2072.09307	18713.025
2075.10378	18702.625
2078.11255	18665.725
2081.11938	18675.925
2084.12426	18635.925
2087.12722	18616.825
2090.12824	18624.125
2093.12732	18620.725
2096.12447	18619.925
2099.11969	18598.525
2102.11299	18608.625
2105.10435	18626.425
2108.09379	18605.825
2111.08131	18634.125
2114.0669	18632.025
2117.05057	18673.025
2120.03233	18645.725
2123.01216	18676.525
2125.99008	18696.525
2128.96609	18705.625
2131.94018	18739.925
2134.91236	18747.125
2137.88263	18753.725
2140.851	18759.125
2143.81746	18784.025
2146.78201	18735.225
2149.74466	18732.325
2152.7054	18746.825
2155.66425	18707.325
2158.6212	18744.625
2161.57625	18703.525
2164.52941	18727.225
2167.48067	18701.025
2170.43004	18717.425
2173.37752	18676.325
2176.32311	18668.425
2179.26681	18682.525
2182.20863	18663.325
2185.14856	18670.625
2188.08661	18722.625
2191.02278	18716.025
2193.95707	18715.025
2196.88948	18693.325
2199.82001	18678.525
2202.74867	18664.425
2205.67545	18682.125
2208.60037	18656.025
2211.52341	18619.625
2214.44458	18679.225
2217.36388	18640.325
2220.28132	18620.125
2223.1969	18583.825
2226.11061	18570.725
2229.02246	18533.325
2231.93245	18480.625
2234.84058	18419.025
2237.74686	18378.725
2240.65128	18383.125
2243.55385	18317.725
2246.45456	18291.625
2249.35343	18249.725
2252.25044	18216.725
2255.14561	18178.625
2258.03893	18170.625
2260.93041	18124.325
2263.82004	18114.425
2266.70783	18070.525
2269.59378	17973.325
2272.4779	17925.425
2275.36017	17884.525
2278.24061	17891.425
2281.11922	17858.725
2283.996	17831.725
2286.87094	17841.525
2289.74405	17806.825
2292.61534	17824.125
2295.4848	17758.925
2298.35243	17783.325
2301.21824	17792.725
2304.08223	17825.625
2306.94439	17849.925
2309.80474	17892.925
2312.66327	17918.925
2315.51999	17941.025
2318.37489	17905.825
2321.22797	17887.725
2324.07925	17906.825
2326.92871	17884.925
2329.77637	17891.225
2332.62222	17826.425
2335.46626	17893.125
2338.3085	17907.225
2341.14893	17931.225
2343.98756	17970.125
2346.8244	17998.925
2349.65943	18005.825
2352.49267	18034.225
2355.32411	18042.625
2358.15376	17971.225
2360.98161	17996.325
2363.80768	17940.925
2366.63195	17940.025
2369.45444	17882.125
2372.27514	17851.125
2375.09405	17823.325
2377.91118	17770.725
2380.72652	17703.125
2383.54009	17624.625
2386.35187	17630.325
2389.16188	17555.125
2391.97011	17560.725
2394.77657	17539.325
2397.58125	17497.825
2400.38416	17502.625
2403.18529	17450.025
2405.98466	17457.125
2408.78226	17366.025
2411.57809	17339.525
2414.37216	17316.925
2417.16446	17316.725
2419.955	17246.925
2422.74378	17255.825
2425.5308	17229.625
2428.31606	17245.425
2431.09956	17252.525
2433.88131	17247.225
2436.6613	17275.725
2439.43954	17290.825
2442.21603	17261.125
2444.99077	17273.525
2447.76377	17260.625
2450.53501	17234.525
2453.30451	17246.325
2456.07226	17238.225
2458.83827	17219.125
2461.60254	17225.225
2464.36507	17240.225
2467.12586	17272.625
2469.88492	17311.525
2472.64224	17302.925
2475.39782	17344.025
2478.15167	17388.825
2480.90379	17387.825
2483.65417	17406.625
2486.40283	17417.625
2489.14976	17458.825
2491.89497	17463.425
2494.63845	17514.525
2497.3802	17491.825
2500.12024	17509.825
2502.85855	17463.225
2505.59514	17454.325
2508.33002	17418.925
2511.06318	17393.125
2513.79462	17399.225
2516.52435	17383.925
2519.25237	17394.925
2521.97867	17374.225
2524.70327	17343.625
2527.42616	17345.625
2530.14734	17354.425
2532.86681	17358.125
2535.58458	17390.925
2538.30065	17357.325
2541.01501	17362.225
2543.72768	17350.825
2546.43864	17334.725
2549.14791	17343.425
2551.85548	17320.525
2554.56136	17284.525
2557.26554	17275.825
2559.96803	17300.625
2562.66883	17276.225
2565.36794	17277.025
2568.06536	17246.625
2570.7611	17234.125
2573.45514	17249.325
2576.14751	17259.225
2578.83819	17243.525
2581.52719	17269.225
2584.21451	17245.825
2586.90015	17287.825
2589.58411	17273.425
2592.2664	17312.525
2594.94701	17269.525
2597.62594	17280.125
2600.30321	17260.225
2602.9788	17293.725
2605.65273	17297.525
2608.32498	17353.425
2610.99557	17345.825
2613.66449	17360.425
2616.33175	17320.625
2618.99734	17361.525
2621.66128	17408.525
2624.32355	17347.925
2626.98416	17390.225
2629.64311	17407.025
2632.30041	17412.725
2634.95605	17416.025
2637.61004	17401.425
2640.26238	17384.425
2642.91306	17328.525
2645.56209	17320.725
2648.20948	17333.325
2650.85521	17285.525
2653.4993	17339.125
2656.14175	17297.625
2658.78255	17300.525
2661.42171	17340.225
2664.05923	17412.225
2666.6951	17388.725
2669.32934	17403.925
2671.96194	17421.325
2674.59291	17432.925
2677.22224	17408.525
2679.84993	17423.925
2682.476	17386.925
2685.10043	17373.425
2687.72324	17317.825
2690.34441	17309.525
2692.96396	17282.725
2695.58188	17283.225
2698.19818	17269.025
2700.81285	17219.725
2703.4259	17267.925
2706.03733	17306.425
2708.64714	17279.125
2711.25533	17299.225
2713.86191	17273.625
2716.46687	17319.825
2719.07021	17316.725
2721.67194	17376.125
2724.27206	17378.825
2726.87057	17387.025
2729.46747	17404.325
2732.06276	17412.625
2734.65644	17402.125
2737.24852	17406.625
2739.83899	17398.925
2742.42786	17412.725
2745.01513	17365.925
2747.60079	17361.325
2750.18486	17350.525
2752.76733	17344.525
2755.3482	17304.625
2757.92747	17309.725
2760.50515	17314.425
2763.08123	17343.425
2765.65573	17333.325
2768.22863	17340.425
2770.79994	17324.125
2773.36967	17344.525
2775.9378	17381.225
2778.50435	17400.625
2781.06932	17369.525
2783.6327	17431.025
2786.1945	17405.925
2788.75471	17429.025
2791.31335	17398.025
2793.87041	17382.125
2796.42589	17352.525
2798.97979	17312.225
2801.53212	17260.325
2804.08288	17283.125
2806.63206	17218.725
2809.17967	17206.825
2811.72571	17190.225
2814.27018	17151.725
2816.81308	17118.625
2819.35442	17081.925
2821.89419	17102.925
2824.43239	17123.425
2826.96904	17093.225
2829.50412	17117.325
2832.03763	17072.025
2834.56959	17064.425
2837.1	17043.125
2839.62884	17018.925
2842.15613	17030.625
2844.68186	17110.425
2847.20604	17084.325
2849.72867	17094.725
2852.24974	17112.325
2854.76927	17111.425
2857.28724	17103.425
2859.80367	17073.825
2862.31855	17085.725
2864.83189	17068.125
2867.34368	17009.425
2869.85393	17046.525
2872.36264	16985.025
2874.8698	17020.125
2877.37543	17016.725
2879.87952	17028.225
2882.38207	17040.325
2884.88308	17028.125
2887.38256	17017.425
2889.88051	17005.925
2892.37692	17050.625
2894.8718	17054.225
2897.36515	17083.525
2899.85698	17108.825
2902.34727	17173.525
2904.83604	17172.425
2907.32328	17206.525
2909.809	17227.625
2912.29319	17250.525
2914.77587	17256.125
2917.25702	17235.525
2919.73665	17227.825
2922.21476	17241.325
2924.69136	17182.925
2927.16644	17176.225
2929.64	17106.525
2932.11205	17079.425
2934.58258	17036.825
2937.05161	17060.825
2939.51912	17035.225
2941.98513	16987.425
2944.44962	16966.125
2946.91261	16927.525
2949.37409	16903.025
2951.83407	16878.925
2954.29254	16839.025
2956.74951	16838.725
2959.20498	16824.425
2961.65895	16782.625
2964.11142	16805.425
2966.56239	16748.025
2969.01186	16732.325
2971.45984	16672.225
2973.90632	16677.125
2976.35131	16641.125
2978.7948	16606.725
2981.23681	16549.825
2983.67732	16545.525
2986.11635	16517.925
2988.55388	16465.725
2990.98993	16395.325
2993.4245	16329.425
2995.85758	16309.425
2998.28917	16253.125
3000.71928	16202.025
3003.14791	16190.625
3005.57506	16159.225
3008.00073	16118.625
3010.42493	16087.325
3012.84764	16061.825
3015.26888	16062.425
3017.68865	16004.125
3020.10694	15966.425
3022.52376	15926.725
3024.9391	15933.925
3027.35298	15916.725
3029.76539	15910.425
3032.17632	15907.725
3034.5858	15866.925
3036.9938	15864.625
3039.40034	15863.725
3041.80542	15834.225
3044.20903	15841.925
3046.61118	15794.125
3049.01187	15805.525
3051.4111	15771.625
3053.80888	15745.725
3056.20519	15712.425
3058.60005	15693.425
3060.99345	15646.325
3063.3854	15560.525
3065.7759	15517.225
3068.16494	15510.325
3070.55254	15465.025
3072.93868	15423.725
3075.32338	15349.125
3077.70662	15320.525
3080.08842	15276.025
3082.46878	15265.825
3084.84769	15233.525
3087.22515	15223.625
3089.60118	15239.525
3091.97576	15240.525
3094.3489	15223.825
3096.72061	15225.025
3099.09087	15235.525
3101.4597	15191.625
3103.82709	15217.625
3106.19305	15161.025
3108.55757	15137.325
3110.92066	15108.425
3113.28232	15097.625
3115.64255	15055.325
3118.00134	15047.225
3120.35871	15006.825
3122.71466	14966.125
3125.06917	14930.025
3127.42226	14869.525
