Data from AgNPs_FTO_APTES_UA_5uM_CRN_1uM_R6G_10uM_NaF_0.1M_Addition_RamanShift__17__10-37-06-587.txt Node

Date: Mon Feb 07 10:37:06 GMT 2022
User: TCL
Spectrometer: QEP01345
Trigger mode: 4
Integration Time (sec): 7.000000E0
Scans to average: 10
Electric dark correction enabled: true
Nonlinearity correction enabled: false
Boxcar width: 0
XAxis mode: Raman Shifts
Number of Pixels in Spectrum: 1044
>>>>>Begin Spectral Data<<<<<
46.04893	-1.2875
50.45542	-1.9875
54.85868	-1.4875
59.25871	0.4125
63.6555	92.4125
68.04907	96.5125
72.43941	101.1125
76.82654	104.6125
81.21044	109.8125
85.59113	112.7125
89.96862	119.0125
94.34289	116.6125
98.71396	120.7125
103.08183	128.5125
107.4465	133.5125
111.80798	136.3125
116.16626	138.3125
120.52136	148.5125
124.87327	154.1125
129.222	164.1125
133.56755	172.8125
137.90993	190.8125
142.24913	208.5125
146.58517	238.3125
150.91804	275.9125
155.24774	329.7125
159.57429	428.6125
163.89768	548.3125
168.21792	739.5125
172.53501	1006.2125
176.84895	1408.3125
181.15975	1994.7125
185.46741	2785.2125
189.77193	3840.6125
194.07331	5137.0125
198.37157	6574.5125
202.6667	8132.0125
206.9587	9655.7125
211.24758	11161.8125
215.53334	12707.8125
219.81599	14383.6125
224.09553	16249.7125
228.37195	18282.8125
232.64527	20566.3125
236.91549	22895.3125
241.18261	25174.8125
245.44663	27210.6125
249.70755	29029.0125
253.96539	30573.5125
258.22014	31922.0125
262.4718	33087.6125
266.72039	33920.2125
270.96589	34437.2125
275.20832	34550.5125
279.44768	34458.9125
283.68397	34224.7125
287.91719	34138.1125
292.14735	34113.2125
296.37445	34123.6125
300.59849	34312.9125
304.81948	34589.7125
309.03742	34560.1125
313.25231	34163.7125
317.46415	33127.1125
321.67296	31736.8125
325.87872	30549.7125
330.08145	29895.9125
334.28114	29720.0125
338.47781	29932.4125
342.67145	30243.6125
346.86207	30810.7125
351.04966	31526.1125
355.23424	32377.5125
359.4158	33096.7125
363.59435	33573.9125
367.76989	33865.3125
371.94243	33979.3125
376.11196	34049.0125
380.27849	34126.3125
384.44203	34198.1125
388.60257	34427.8125
392.76012	34773.9125
396.91468	35290.0125
401.06626	35957.5125
405.21485	36433.0125
409.36047	36255.1125
413.50311	35541.4125
417.64277	35064.6125
421.77947	35016.2125
425.9132	35131.6125
430.04396	35336.8125
434.17176	35429.1125
438.2966	35494.8125
442.41849	35909.9125
446.53742	36696.2125
450.6534	37754.1125
454.76644	38698.3125
458.87653	39034.6125
462.98368	38872.3125
467.08789	38473.7125
471.18916	37800.5125
475.2875	37317.2125
479.38291	37247.6125
483.4754	37353.8125
487.56496	37118.3125
491.6516	36593.2125
495.73531	36076.9125
499.81612	35719.7125
503.89401	35822.0125
507.96899	35895.3125
512.04106	35705.7125
516.11023	35122.9125
520.1765	34492.2125
524.23987	33884.6125
528.30034	33319.2125
532.35792	32803.5125
536.41261	32241.1125
540.46441	31756.3125
544.51333	31774.7125
548.55936	32388.2125
552.60252	33439.9125
556.64279	34577.2125
560.6802	35273.1125
564.71473	35824.9125
568.7464	36745.8125
572.7752	38164.8125
576.80114	39336.1125
580.82422	40381.7125
584.84444	41426.2125
588.86181	41985.3125
592.87633	42121.1125
596.888	41800.3125
600.89682	41230.2125
604.9028	42466.2125
608.90594	47148.1125
612.90624	52009.8125
616.90371	48530.4125
620.89834	38777.2125
624.89015	34318.1125
628.87913	33830.5125
632.86528	33986.1125
636.84862	33752.3125
640.82913	33031.2125
644.80683	31783.2125
648.78172	30833.4125
652.75379	30654.1125
656.72306	31117.4125
660.68952	31852.8125
664.65319	31723.1125
668.61405	31040.0125
672.57211	30746.9125
676.52738	30810.3125
680.47986	30730.7125
684.42955	30450.5125
688.37646	30273.2125
692.32058	30508.3125
696.26192	30997.7125
700.20048	31585.4125
704.13626	31986.2125
708.06928	31926.2125
711.99952	31680.9125
715.927	31568.1125
719.85171	31734.4125
723.77365	31610.3125
727.69284	31019.4125
731.60928	30414.4125
735.52295	30236.7125
739.43388	30272.9125
743.34206	30422.0125
747.24749	30640.7125
751.15017	31033.3125
755.05012	31812.5125
758.94733	33054.6125
762.8418	35401.1125
766.73354	38998.9125
770.62254	42443.7125
774.50882	43030.1125
778.39237	40426.8125
782.27321	36735.8125
786.15132	33639.7125
790.02671	31760.5125
793.89938	30883.8125
797.76935	30556.1125
801.6366	30530.2125
805.50115	30449.9125
809.36299	30202.4125
813.22213	29860.1125
817.07857	29632.9125
820.93231	29482.5125
824.78336	29268.1125
828.63172	29069.9125
832.47738	28979.8125
836.32036	29025.8125
840.16066	29179.8125
843.99827	29346.3125
847.8332	29300.2125
851.66546	29088.8125
855.49504	29051.1125
859.32195	28982.0125
863.1462	28880.7125
866.96777	28731.0125
870.78668	28566.6125
874.60293	28519.5125
878.41652	28538.6125
882.22745	28666.6125
886.03573	28762.4125
889.84136	28789.7125
893.64433	28663.8125
897.44466	28536.4125
901.24235	28353.8125
905.0374	28272.0125
908.8298	28172.8125
912.61957	28221.4125
916.40671	28522.9125
920.19121	29139.2125
923.97308	29811.4125
927.75233	30068.1125
931.52895	29902.3125
935.30295	29323.8125
939.07433	28450.8125
942.84309	27705.0125
946.60924	27442.6125
950.37278	27429.3125
954.13371	27292.6125
957.89203	27213.0125
961.64774	27121.7125
965.40086	27112.8125
969.15137	27037.8125
972.89929	26936.3125
976.64461	26804.0125
980.38733	26798.0125
984.12747	26857.1125
987.86502	27160.9125
991.59999	27602.7125
995.33237	28289.2125
999.06217	29417.2125
1002.78939	30682.4125
1006.51404	31589.0125
1010.23611	32030.0125
1013.95561	32379.6125
1017.67255	32318.2125
1021.38692	31816.6125
1025.09872	31349.8125
1028.80796	31718.7125
1032.51465	32959.1125
1036.21877	34238.0125
1039.92035	34418.5125
1043.61937	33782.4125
1047.31584	32574.5125
1051.00976	31381.7125
1054.70114	30784.8125
1058.38998	30795.4125
1062.07627	31103.1125
1065.76003	31350.6125
1069.44126	31737.8125
1073.11995	32360.1125
1076.79611	33011.5125
1080.46974	33379.9125
1084.14085	33758.4125
1087.80943	34358.4125
1091.47549	34822.6125
1095.13903	34891.3125
1098.80005	34258.0125
1102.45857	33197.4125
1106.11456	32108.0125
1109.76805	31569.4125
1113.41903	31521.3125
1117.06751	31664.1125
1120.71348	32092.3125
1124.35696	32530.2125
1127.99793	33110.2125
1131.63641	33522.9125
1135.2724	33381.8125
1138.90589	33112.3125
1142.5369	32998.7125
1146.16542	33058.9125
1149.79145	33253.7125
1153.415	33661.6125
1157.03607	34396.4125
1160.65467	35687.1125
1164.27079	37755.7125
1167.88443	40553.8125
1171.49561	43819.9125
1175.10432	47974.6125
1178.71056	53273.8125
1182.31434	58235.0125
1185.91565	60961.1125
1189.51451	60961.1125
1193.11091	58753.0125
1196.70485	55464.1125
1200.29634	52280.3125
1203.88538	50019.5125
1207.47197	48574.8125
1211.05612	47508.1125
1214.63782	46418.2125
1218.21708	45286.1125
1221.79391	44343.1125
1225.36829	43762.3125
1228.94024	43073.2125
1232.50976	41943.0125
1236.07685	41005.5125
1239.6415	40546.5125
1243.20374	40402.3125
1246.76355	40680.8125
1250.32093	41442.0125
1253.8759	42697.7125
1257.42845	44409.9125
1260.97859	46212.9125
1264.52631	47943.3125
1268.07163	49835.6125
1271.61453	51837.3125
1275.15503	54036.7125
1278.69312	56243.0125
1282.22882	58167.4125
1285.76211	60013.3125
1289.29301	62180.5125
1292.82151	64904.0125
1296.34761	68641.2125
1299.87133	73413.7125
1303.39266	79084.9125
1306.9116	84979.1125
1310.42815	90157.8125
1313.94233	92955.4125
1317.45412	92548.7125
1320.96354	90439.5125
1324.47058	88488.1125
1327.97525	87148.4125
1331.47754	86265.0125
1334.97747	85595.9125
1338.47502	84730.8125
1341.97022	83403.4125
1345.46305	81385.9125
1348.95352	79190.4125
1352.44163	77613.7125
1355.92738	78295.9125
1359.41078	81583.2125
1362.89183	85226.7125
1366.37053	84286.0125
1369.84688	77517.8125
1373.32088	68639.6125
1376.79254	62072.8125
1380.26186	59323.6125
1383.72883	58922.5125
1387.19347	58816.5125
1390.65578	58283.8125
1394.11575	58146.3125
1397.57339	58866.4125
1401.0287	60466.2125
1404.48168	61968.2125
1407.93234	62272.6125
1411.38068	61110.9125
1414.82669	58513.4125
1418.27039	55353.0125
1421.71177	52193.6125
1425.15083	49658.8125
1428.58758	48408.7125
1432.02203	48643.3125
1435.45416	50119.9125
1438.88399	51987.6125
1442.31151	53574.2125
1445.73673	54831.3125
1449.15965	55884.0125
1452.58027	56522.2125
1455.9986	56715.2125
1459.41463	57093.9125
1462.82837	58046.9125
1466.23982	59425.3125
1469.64898	60698.7125
1473.05586	61281.6125
1476.46045	61183.4125
1479.86276	60541.1125
1483.26279	59807.3125
1486.66054	59295.0125
1490.05602	59279.4125
1493.44922	59714.7125
1496.84016	60345.1125
1500.22882	61618.5125
1503.61521	63746.9125
1506.99934	66605.2125
1510.38121	69272.2125
1513.76081	70216.8125
1517.13816	68771.6125
1520.51324	65828.0125
1523.88607	63078.4125
1527.25665	61421.4125
1530.62498	60591.7125
1533.99105	60092.8125
1537.35488	59530.6125
1540.71647	58515.5125
1544.07581	57049.7125
1547.4329	55415.5125
1550.78776	53884.9125
1554.14038	52812.7125
1557.49077	52297.4125
1560.83892	51953.9125
1564.18484	51911.1125
1567.52853	52115.8125
1570.86999	52474.7125
1574.20922	53375.3125
1577.54624	54209.6125
1580.88103	54396.2125
1584.2136	54927.2125
1587.54395	57038.1125
1590.87208	60809.8125
1594.19801	65641.6125
1597.52172	70363.8125
1600.84321	71471.1125
1604.16251	67474.9125
1607.47959	60640.0125
1610.79447	53780.6125
1614.10715	47769.0125
1617.41763	43061.2125
1620.7259	39920.4125
1624.03199	38327.9125
1627.33587	38322.0125
1630.63757	39918.9125
1633.93707	43146.0125
1637.23439	48666.4125
1640.52951	56290.3125
1643.82246	65142.5125
1647.11321	72108.3125
1650.40179	73546.9125
1653.68819	67856.6125
1656.97241	57693.0125
1660.25446	47443.4125
1663.53433	39733.6125
1666.81203	34737.8125
1670.08756	31654.3125
1673.36092	29716.8125
1676.63211	28526.9125
1679.90115	27658.0125
1683.16801	27059.8125
1686.43272	26569.3125
1689.69527	26210.9125
1692.95567	25968.8125
1696.2139	25822.4125
1699.46999	25730.4125
1702.72392	25555.2125
1705.97571	25420.8125
1709.22535	25334.6125
1712.47284	25286.8125
1715.71819	25190.1125
1718.96139	25108.7125
1722.20246	25001.6125
1725.44139	24851.6125
1728.67818	24691.1125
1731.91284	24465.8125
1735.14537	24283.4125
1738.37576	24172.7125
1741.60403	24034.9125
1744.83017	23939.2125
1748.05418	23839.5125
1751.27607	23756.6125
1754.49584	23703.1125
1757.71349	23644.6125
1760.92903	23624.4125
1764.14244	23616.8125
1767.35375	23604.9125
1770.56294	23555.9125
1773.77002	23489.5125
1776.97499	23424.7125
1780.17785	23394.8125
1783.37861	23328.7125
1786.57727	23279.7125
1789.77382	23278.1125
1792.96828	23213.5125
1796.16064	23152.6125
1799.3509	23120.9125
1802.53907	23070.8125
1805.72514	22968.3125
1808.90913	22938.8125
1812.09102	22836.2125
1815.27083	22811.9125
1818.44856	22788.8125
1821.6242	22726.3125
1824.79776	22695.4125
1827.96924	22737.3125
1831.13864	22714.6125
1834.30597	22725.6125
1837.47122	22723.9125
1840.6344	22724.6125
1843.7955	22752.0125
1846.95454	22799.1125
1850.11151	22762.0125
1853.26642	22770.4125
1856.41926	22802.2125
1859.57004	22819.3125
1862.71876	22818.6125
1865.86542	22767.4125
1869.01003	22745.7125
1872.15258	22697.6125
1875.29308	22733.1125
1878.43152	22720.6125
1881.56792	22703.3125
1884.70227	22708.5125
1887.83457	22707.3125
1890.96482	22697.1125
1894.09304	22650.7125
1897.21921	22629.6125
1900.34335	22556.8125
1903.46544	22575.4125
1906.58551	22540.1125
1909.70353	22480.5125
1912.81953	22469.5125
1915.93349	22406.0125
1919.04543	22341.1125
1922.15534	22274.8125
1925.26322	22208.5125
1928.36908	22126.3125
1931.47292	22032.7125
1934.57473	21955.6125
1937.67453	21899.6125
1940.77232	21798.9125
1943.86808	21700.4125
1946.96184	21616.4125
1950.05358	21530.9125
1953.14331	21474.8125
1956.23103	21419.1125
1959.31675	21345.8125
1962.40046	21270.8125
1965.48217	21222.9125
1968.56188	21175.3125
1971.63959	21101.0125
1974.7153	21030.5125
1977.78901	20963.9125
1980.86073	20869.7125
1983.93046	20813.8125
1986.99819	20753.6125
1990.06394	20669.3125
1993.1277	20630.8125
1996.18947	20528.2125
1999.24925	20489.1125
2002.30706	20393.5125
2005.36288	20319.8125
2008.41672	20277.6125
2011.46859	20251.2125
2014.51848	20209.0125
2017.56639	20153.9125
2020.61233	20089.9125
2023.6563	20086.1125
2026.6983	20041.1125
2029.73833	20017.1125
2032.7764	19972.3125
2035.8125	19933.5125
2038.84664	19876.1125
2041.87881	19876.4125
2044.90903	19857.8125
2047.93729	19821.1125
2050.96359	19796.7125
2053.98794	19787.6125
2057.01034	19759.6125
2060.03078	19762.3125
2063.04927	19767.0125
2066.06582	19770.7125
2069.08042	19698.9125
2072.09307	19686.8125
2075.10378	19638.5125
2078.11255	19636.1125
2081.11938	19624.7125
2084.12426	19616.5125
2087.12722	19579.0125
2090.12824	19564.4125
2093.12732	19574.7125
2096.12447	19560.4125
2099.11969	19563.8125
2102.11299	19574.8125
2105.10435	19568.5125
2108.09379	19575.8125
2111.08131	19567.9125
2114.0669	19575.3125
2117.05057	19597.5125
2120.03233	19586.7125
2123.01216	19603.3125
2125.99008	19648.9125
2128.96609	19679.4125
2131.94018	19657.4125
2134.91236	19697.9125
2137.88263	19696.9125
2140.851	19715.7125
2143.81746	19748.7125
2146.78201	19713.1125
2149.74466	19720.7125
2152.7054	19715.3125
2155.66425	19695.4125
2158.6212	19662.5125
2161.57625	19662.6125
2164.52941	19667.0125
2167.48067	19636.3125
2170.43004	19679.6125
2173.37752	19609.2125
2176.32311	19623.8125
2179.26681	19619.4125
2182.20863	19623.6125
2185.14856	19648.7125
2188.08661	19663.3125
2191.02278	19682.1125
2193.95707	19672.4125
2196.88948	19636.7125
2199.82001	19603.8125
2202.74867	19605.4125
2205.67545	19598.5125
2208.60037	19576.4125
2211.52341	19613.5125
2214.44458	19589.8125
2217.36388	19542.3125
2220.28132	19509.6125
2223.1969	19473.3125
2226.11061	19440.7125
2229.02246	19421.2125
2231.93245	19410.7125
2234.84058	19316.9125
2237.74686	19281.0125
2240.65128	19296.4125
2243.55385	19245.3125
2246.45456	19220.1125
2249.35343	19194.2125
2252.25044	19124.2125
2255.14561	19088.2125
2258.03893	19071.2125
2260.93041	19009.3125
2263.82004	18996.2125
2266.70783	18945.1125
2269.59378	18914.5125
2272.4779	18823.7125
2275.36017	18794.5125
2278.24061	18744.1125
2281.11922	18713.9125
2283.996	18720.6125
2286.87094	18700.6125
2289.74405	18678.9125
2292.61534	18689.6125
2295.4848	18664.9125
2298.35243	18652.8125
2301.21824	18659.2125
2304.08223	18682.1125
2306.94439	18730.2125
2309.80474	18765.9125
2312.66327	18782.7125
2315.51999	18758.8125
2318.37489	18770.1125
2321.22797	18716.0125
2324.07925	18751.3125
2326.92871	18716.5125
2329.77637	18691.5125
2332.62222	18687.8125
2335.46626	18696.6125
2338.3085	18720.4125
2341.14893	18740.7125
2343.98756	18773.4125
2346.8244	18773.9125
2349.65943	18763.9125
2352.49267	18784.0125
2355.32411	18837.3125
2358.15376	18775.4125
2360.98161	18760.0125
2363.80768	18706.3125
2366.63195	18738.7125
2369.45444	18711.9125
2372.27514	18658.6125
2375.09405	18621.3125
2377.91118	18575.1125
2380.72652	18486.2125
2383.54009	18447.1125
2386.35187	18406.4125
2389.16188	18363.1125
2391.97011	18318.8125
2394.77657	18358.1125
2397.58125	18308.4125
2400.38416	18278.5125
2403.18529	18241.2125
2405.98466	18256.2125
2408.78226	18185.9125
2411.57809	18152.8125
2414.37216	18103.6125
2417.16446	18129.5125
2419.955	18047.4125
2422.74378	18054.7125
2425.5308	18029.2125
2428.31606	18062.9125
2431.09956	18048.3125
2433.88131	18046.4125
2436.6613	18072.1125
2439.43954	18073.2125
2442.21603	18068.0125
2444.99077	18080.8125
2447.76377	18063.9125
2450.53501	18062.4125
2453.30451	18054.2125
2456.07226	18007.6125
2458.83827	18018.4125
2461.60254	18054.3125
2464.36507	18058.9125
2467.12586	18046.5125
2469.88492	18023.8125
2472.64224	18059.7125
2475.39782	18099.3125
2478.15167	18154.3125
2480.90379	18163.4125
2483.65417	18182.2125
2486.40283	18174.1125
2489.14976	18208.7125
2491.89497	18213.8125
2494.63845	18248.3125
2497.3802	18238.1125
2500.12024	18228.6125
2502.85855	18190.2125
2505.59514	18213.2125
2508.33002	18153.2125
2511.06318	18129.2125
2513.79462	18127.0125
2516.52435	18105.6125
2519.25237	18092.3125
2521.97867	18113.8125
2524.70327	18091.4125
2527.42616	18069.2125
2530.14734	18069.5125
2532.86681	18076.7125
2535.58458	18066.8125
2538.30065	18040.0125
2541.01501	18078.6125
2543.72768	18081.9125
2546.43864	18059.9125
2549.14791	18036.1125
2551.85548	18049.2125
2554.56136	18021.8125
2557.26554	17980.0125
2559.96803	17971.8125
2562.66883	17987.4125
2565.36794	17946.3125
2568.06536	17936.5125
2570.7611	17955.7125
2573.45514	17954.4125
2576.14751	17942.3125
2578.83819	17933.8125
2581.52719	17963.4125
2584.21451	17927.5125
2586.90015	17957.5125
2589.58411	17930.3125
2592.2664	17957.3125
2594.94701	17954.5125
2597.62594	17915.4125
2600.30321	17929.2125
2602.9788	17921.0125
2605.65273	17942.9125
2608.32498	17974.8125
2610.99557	17970.4125
2613.66449	18002.1125
2616.33175	17968.1125
2618.99734	18014.9125
2621.66128	18027.7125
2624.32355	17975.4125
2626.98416	18007.4125
2629.64311	17994.1125
2632.30041	18034.1125
2634.95605	17999.6125
2637.61004	17982.5125
2640.26238	17954.3125
2642.91306	17970.7125
2645.56209	17921.9125
2648.20948	17955.8125
2650.85521	17899.6125
2653.4993	17961.0125
2656.14175	17899.2125
2658.78255	17930.3125
2661.42171	17978.5125
2664.05923	17979.9125
2666.6951	17984.5125
2669.32934	18013.8125
2671.96194	18066.6125
2674.59291	18046.3125
2677.22224	18048.9125
2679.84993	18040.8125
2682.476	18001.7125
2685.10043	17995.8125
2687.72324	17915.0125
2690.34441	17925.0125
2692.96396	17900.4125
2695.58188	17905.8125
2698.19818	17860.2125
2700.81285	17885.3125
2703.4259	17895.2125
2706.03733	17938.9125
2708.64714	17925.1125
2711.25533	17895.4125
2713.86191	17907.0125
2716.46687	17963.0125
2719.07021	17950.4125
2721.67194	18011.8125
2724.27206	17989.0125
2726.87057	18011.0125
2729.46747	18014.9125
2732.06276	18053.5125
2734.65644	18047.6125
2737.24852	18050.1125
2739.83899	18014.1125
2742.42786	18018.9125
2745.01513	17963.3125
2747.60079	17990.4125
2750.18486	17969.2125
2752.76733	17956.4125
2755.3482	17912.1125
2757.92747	17959.0125
2760.50515	17954.2125
2763.08123	17964.2125
2765.65573	17954.2125
2768.22863	17919.9125
2770.79994	17930.9125
2773.36967	17978.2125
2775.9378	17982.7125
2778.50435	17993.4125
2781.06932	17992.7125
2783.6327	18001.7125
2786.1945	18002.2125
2788.75471	18034.4125
2791.31335	17990.2125
2793.87041	17945.5125
2796.42589	17909.2125
2798.97979	17870.0125
2801.53212	17872.0125
2804.08288	17829.0125
2806.63206	17800.5125
2809.17967	17774.9125
2811.72571	17740.8125
2814.27018	17729.8125
2816.81308	17677.4125
2819.35442	17679.4125
2821.89419	17636.6125
2824.43239	17701.6125
2826.96904	17649.1125
2829.50412	17688.5125
2832.03763	17634.3125
2834.56959	17620.5125
2837.1	17580.9125
2839.62884	17589.7125
2842.15613	17576.1125
2844.68186	17654.8125
2847.20604	17646.1125
2849.72867	17668.7125
2852.24974	17649.0125
2854.76927	17647.5125
2857.28724	17651.6125
2859.80367	17602.2125
2862.31855	17622.4125
2864.83189	17608.0125
2867.34368	17560.8125
2869.85393	17560.7125
2872.36264	17551.0125
2874.8698	17545.2125
2877.37543	17562.8125
2879.87952	17560.3125
2882.38207	17548.2125
2884.88308	17553.6125
2887.38256	17572.2125
2889.88051	17579.5125
2892.37692	17603.7125
2894.8718	17584.1125
2897.36515	17593.8125
2899.85698	17625.6125
2902.34727	17682.6125
2904.83604	17710.2125
2907.32328	17730.9125
2909.809	17748.0125
2912.29319	17805.9125
2914.77587	17781.0125
2917.25702	17759.8125
2919.73665	17733.0125
2922.21476	17754.5125
2924.69136	17691.3125
2927.16644	17692.7125
2929.64	17639.2125
2932.11205	17624.8125
2934.58258	17567.1125
2937.05161	17586.2125
2939.51912	17558.0125
2941.98513	17548.0125
2944.44962	17522.1125
2946.91261	17425.8125
2949.37409	17466.5125
2951.83407	17387.6125
2954.29254	17395.5125
2956.74951	17372.9125
2959.20498	17322.3125
2961.65895	17324.9125
2964.11142	17314.2125
2966.56239	17273.2125
2969.01186	17273.4125
2971.45984	17229.0125
2973.90632	17249.0125
2976.35131	17183.6125
2978.7948	17150.7125
2981.23681	17099.7125
2983.67732	17100.9125
2986.11635	17029.3125
2988.55388	16974.8125
2990.98993	16956.8125
2993.4245	16886.2125
2995.85758	16828.1125
2998.28917	16766.1125
3000.71928	16727.1125
3003.14791	16705.0125
3005.57506	16692.9125
3008.00073	16628.8125
3010.42493	16617.3125
3012.84764	16589.2125
3015.26888	16596.3125
3017.68865	16526.6125
3020.10694	16519.4125
3022.52376	16445.0125
