Data from AgNPs_FTO_APTES_UA_5uM_CRN_10uM_R6G_10uM_NaF_0.1M_Addition_RamanShift__0__12-23-16-710.txt Node

Date: Mon Feb 07 12:23:16 GMT 2022
User: TCL
Spectrometer: QEP01345
Trigger mode: 4
Integration Time (sec): 7.000000E0
Scans to average: 10
Electric dark correction enabled: true
Nonlinearity correction enabled: false
Boxcar width: 0
XAxis mode: Raman Shifts
Number of Pixels in Spectrum: 1044
>>>>>Begin Spectral Data<<<<<
46.04893	-0.1125
50.45542	-0.9125
54.85868	-1.0125
59.25871	0.4875
63.6555	21.8875
68.04907	21.2875
72.43941	23.4875
76.82654	23.6875
81.21044	27.0875
85.59113	27.7875
89.96862	31.0875
94.34289	26.4875
98.71396	26.4875
103.08183	33.2875
107.4465	33.3875
111.80798	30.3875
116.16626	36.6875
120.52136	39.6875
124.87327	38.7875
129.222	41.4875
133.56755	43.0875
137.90993	49.4875
142.24913	50.6875
146.58517	58.5875
150.91804	67.3875
155.24774	82.2875
159.57429	107.3875
163.89768	139.0875
168.21792	187.5875
172.53501	250.1875
176.84895	354.6875
181.15975	502.0875
185.46741	708.6875
189.77193	991.8875
194.07331	1309.3875
198.37157	1683.9875
202.6667	2090.8875
206.9587	2468.6875
211.24758	2883.8875
215.53334	3274.1875
219.81599	3714.2875
224.09553	4175.5875
228.37195	4721.4875
232.64527	5296.3875
236.91549	5881.0875
241.18261	6459.5875
245.44663	6942.0875
249.70755	7376.8875
253.96539	7770.5875
258.22014	8113.8875
262.4718	8389.0875
266.72039	8603.6875
270.96589	8745.3875
275.20832	8736.8875
279.44768	8669.6875
283.68397	8562.7875
287.91719	8498.7875
292.14735	8496.4875
296.37445	8531.2875
300.59849	8656.7875
304.81948	8803.0875
309.03742	8923.4875
313.25231	8892.6875
317.46415	8643.8875
321.67296	8284.8875
325.87872	7963.9875
330.08145	7792.9875
334.28114	7784.1875
338.47781	7838.2875
342.67145	7960.5875
346.86207	8157.0875
351.04966	8403.1875
355.23424	8700.7875
359.4158	8904.7875
363.59435	9065.6875
367.76989	9115.0875
371.94243	9131.7875
376.11196	9139.2875
380.27849	9189.8875
384.44203	9172.4875
388.60257	9141.8875
392.76012	9220.4875
396.91468	9348.6875
401.06626	9526.7875
405.21485	9701.1875
409.36047	9663.7875
413.50311	9506.3875
417.64277	9412.1875
421.77947	9515.2875
425.9132	9724.8875
430.04396	9910.9875
434.17176	9948.1875
438.2966	9884.0875
442.41849	9872.8875
446.53742	10036.5875
450.6534	10330.1875
454.76644	10516.7875
458.87653	10515.6875
462.98368	10335.4875
467.08789	10133.8875
471.18916	9909.7875
475.2875	9746.4875
479.38291	9692.5875
483.4754	9689.6875
487.56496	9657.8875
491.6516	9545.3875
495.73531	9394.0875
499.81612	9265.3875
503.89401	9230.9875
507.96899	9179.6875
512.04106	9165.4875
516.11023	9118.8875
520.1765	9082.9875
524.23987	9006.0875
528.30034	8915.5875
532.35792	8834.6875
536.41261	8710.2875
540.46441	8553.5875
544.51333	8473.7875
548.55936	8557.5875
552.60252	8730.0875
556.64279	8999.3875
560.6802	9160.6875
564.71473	9331.1875
568.7464	9571.3875
572.7752	9865.9875
576.80114	9950.3875
580.82422	9933.9875
584.84444	10118.6875
588.86181	10378.8875
592.87633	10719.7875
596.888	10870.8875
600.89682	10809.0875
604.9028	11083.0875
608.90594	12400.3875
612.90624	14067.6875
616.90371	13370.4875
620.89834	10466.0875
624.89015	9086.8875
628.87913	8851.7875
632.86528	8888.6875
636.84862	8893.1875
640.82913	8716.5875
644.80683	8408.1875
648.78172	8212.3875
652.75379	8214.8875
656.72306	8397.0875
660.68952	8614.7875
664.65319	8588.5875
668.61405	8326.0875
672.57211	8202.9875
676.52738	8240.4875
680.47986	8230.1875
684.42955	8188.2875
688.37646	8213.8875
692.32058	8351.5875
696.26192	8597.9875
700.20048	8900.9875
704.13626	9143.9875
708.06928	9215.7875
711.99952	9067.8875
715.927	8938.0875
719.85171	8816.5875
723.77365	8714.4875
727.69284	8542.6875
731.60928	8394.3875
735.52295	8348.0875
739.43388	8355.5875
743.34206	8345.1875
747.24749	8434.4875
751.15017	8451.2875
755.05012	8551.6875
758.94733	8811.7875
762.8418	9411.0875
766.73354	10346.2875
770.62254	11314.1875
774.50882	11657.9875
778.39237	11162.9875
782.27321	10154.2875
786.15132	9220.2875
790.02671	8661.9875
793.89938	8388.1875
797.76935	8289.5875
801.6366	8250.9875
805.50115	8233.5875
809.36299	8197.4875
813.22213	8148.3875
817.07857	8143.8875
820.93231	8113.5875
824.78336	8104.7875
828.63172	8097.8875
832.47738	8109.4875
836.32036	8120.0875
840.16066	8118.9875
843.99827	8113.3875
847.8332	8107.3875
851.66546	8067.1875
855.49504	8028.3875
859.32195	8019.0875
863.1462	7993.2875
866.96777	7935.3875
870.78668	7949.4875
874.60293	7938.9875
878.41652	7942.6875
882.22745	7982.2875
886.03573	8013.3875
889.84136	7995.8875
893.64433	7952.6875
897.44466	7922.3875
901.24235	7886.5875
905.0374	7900.9875
908.8298	7877.7875
912.61957	7888.1875
916.40671	7965.7875
920.19121	8042.2875
923.97308	8131.9875
927.75233	8188.5875
931.52895	8156.1875
935.30295	8059.5875
939.07433	7870.4875
942.84309	7727.1875
946.60924	7677.8875
950.37278	7630.8875
954.13371	7620.2875
957.89203	7579.0875
961.64774	7550.8875
965.40086	7543.6875
969.15137	7545.6875
972.89929	7497.2875
976.64461	7495.2875
980.38733	7503.2875
984.12747	7537.6875
987.86502	7595.6875
991.59999	7694.6875
995.33237	7811.7875
999.06217	7987.0875
1002.78939	8224.8875
1006.51404	8381.0875
1010.23611	8481.6875
1013.95561	8575.6875
1017.67255	8539.9875
1021.38692	8403.7875
1025.09872	8293.1875
1028.80796	8253.8875
1032.51465	8401.5875
1036.21877	8587.4875
1039.92035	8641.3875
1043.61937	8592.0875
1047.31584	8477.7875
1051.00976	8300.4875
1054.70114	8224.1875
1058.38998	8242.0875
1062.07627	8255.9875
1065.76003	8311.2875
1069.44126	8397.1875
1073.11995	8496.0875
1076.79611	8614.2875
1080.46974	8712.9875
1084.14085	8852.4875
1087.80943	9020.7875
1091.47549	9168.5875
1095.13903	9162.0875
1098.80005	8991.6875
1102.45857	8784.0875
1106.11456	8632.7875
1109.76805	8608.9875
1113.41903	8686.9875
1117.06751	8779.0875
1120.71348	8942.3875
1124.35696	9085.1875
1127.99793	9260.2875
1131.63641	9288.4875
1135.2724	9122.5875
1138.90589	8941.8875
1142.5369	8846.3875
1146.16542	8846.0875
1149.79145	8879.4875
1153.415	8948.1875
1157.03607	9098.7875
1160.65467	9339.8875
1164.27079	9756.8875
1167.88443	10280.4875
1171.49561	10980.5875
1175.10432	11946.3875
1178.71056	13219.9875
1182.31434	14291.0875
1185.91565	14641.9875
1189.51451	14373.3875
1193.11091	13705.6875
1196.70485	12983.9875
1200.29634	12427.7875
1203.88538	12025.2875
1207.47197	11675.7875
1211.05612	11389.2875
1214.63782	11125.3875
1218.21708	10973.9875
1221.79391	10866.6875
1225.36829	10862.1875
1228.94024	10765.6875
1232.50976	10585.8875
1236.07685	10425.5875
1239.6415	10415.0875
1243.20374	10446.6875
1246.76355	10629.7875
1250.32093	10903.3875
1253.8759	11224.2875
1257.42845	11614.7875
1260.97859	11944.5875
1264.52631	12279.6875
1268.07163	12623.9875
1271.61453	12876.9875
1275.15503	13136.1875
1278.69312	13307.7875
1282.22882	13562.2875
1285.76211	13907.8875
1289.29301	14398.2875
1292.82151	14996.8875
1296.34761	15768.8875
1299.87133	16720.0875
1303.39266	17848.0875
1306.9116	19182.0875
1310.42815	20411.7875
1313.94233	21155.2875
1317.45412	21007.4875
1320.96354	20322.3875
1324.47058	19635.2875
1327.97525	19046.9875
1331.47754	18261.3875
1334.97747	17888.5875
1338.47502	17631.3875
1341.97022	17302.3875
1345.46305	17052.3875
1348.95352	17038.6875
1352.44163	17409.5875
1355.92738	18278.5875
1359.41078	19703.2875
1362.89183	21204.2875
1366.37053	21081.2875
1369.84688	18966.0875
1373.32088	16414.9875
1376.79254	14733.6875
1380.26186	14287.4875
1383.72883	14448.4875
1387.19347	14676.2875
1390.65578	14447.0875
1394.11575	14100.6875
1397.57339	13985.5875
1401.0287	14113.2875
1404.48168	14299.2875
1407.93234	14297.0875
1411.38068	14035.5875
1414.82669	13543.8875
1418.27039	12947.5875
1421.71177	12336.8875
1425.15083	11830.7875
1428.58758	11559.4875
1432.02203	11631.3875
1435.45416	11915.7875
1438.88399	12286.0875
1442.31151	12581.3875
1445.73673	12895.9875
1449.15965	13162.1875
1452.58027	13048.7875
1455.9986	12939.5875
1459.41463	12898.7875
1462.82837	13042.1875
1466.23982	13251.1875
1469.64898	13562.7875
1473.05586	13742.2875
1476.46045	13820.7875
1479.86276	13804.6875
1483.26279	13772.8875
1486.66054	13767.8875
1490.05602	13875.0875
1493.44922	14028.6875
1496.84016	14266.6875
1500.22882	14714.8875
1503.61521	15470.2875
1506.99934	16358.8875
1510.38121	17231.2875
1513.76081	17696.5875
1517.13816	17283.6875
1520.51324	16181.6875
1523.88607	15084.8875
1527.25665	14359.9875
1530.62498	14007.8875
1533.99105	13813.2875
1537.35488	13591.7875
1540.71647	13343.4875
1544.07581	13010.2875
1547.4329	12678.5875
1550.78776	12406.2875
1554.14038	12184.2875
1557.49077	12139.0875
1560.83892	12164.9875
1564.18484	12282.4875
1567.52853	12450.8875
1570.86999	12643.6875
1574.20922	12905.2875
1577.54624	13079.0875
1580.88103	13044.6875
1584.2136	12978.2875
1587.54395	13285.2875
1590.87208	14021.6875
1594.19801	15042.7875
1597.52172	15992.6875
1600.84321	16255.6875
1604.16251	15436.4875
1607.47959	14028.4875
1610.79447	12607.8875
1614.10715	11401.3875
1617.41763	10578.8875
1620.7259	10079.4875
1624.03199	9937.5875
1627.33587	10102.2875
1630.63757	10536.5875
1633.93707	11349.0875
1637.23439	12591.8875
1640.52951	14353.5875
1643.82246	16566.7875
1647.11321	18574.9875
1650.40179	19422.4875
1653.68819	18600.7875
1656.97241	16347.5875
1660.25446	13939.3875
1663.53433	12171.1875
1666.81203	10954.9875
1670.08756	10043.8875
1673.36092	9337.0875
1676.63211	8809.7875
1679.90115	8466.8875
1683.16801	8282.8875
1686.43272	8222.6875
1689.69527	8389.2875
1692.95567	8884.3875
1696.2139	9830.4875
1699.46999	10716.6875
1702.72392	10816.1875
1705.97571	9966.7875
1709.22535	8909.7875
1712.47284	8209.2875
1715.71819	7811.1875
1718.96139	7564.4875
1722.20246	7424.3875
1725.44139	7342.2875
1728.67818	7271.4875
1731.91284	7207.9875
1735.14537	7201.9875
1738.37576	7217.0875
1741.60403	7251.0875
1744.83017	7342.5875
1748.05418	7482.6875
1751.27607	7758.5875
1754.49584	8223.9875
1757.71349	8807.7875
1760.92903	9124.4875
1764.14244	9074.1875
1767.35375	8995.2875
1770.56294	9017.7875
1773.77002	8732.4875
1776.97499	8121.3875
1780.17785	7557.5875
1783.37861	7208.4875
1786.57727	7010.6875
1789.77382	6885.9875
1792.96828	6786.4875
1796.16064	6733.1875
1799.3509	6696.8875
1802.53907	6647.3875
1805.72514	6597.0875
1808.90913	6564.2875
1812.09102	6561.8875
1815.27083	6529.6875
1818.44856	6485.3875
1821.6242	6449.4875
1824.79776	6472.5875
1827.96924	6436.9875
1831.13864	6417.6875
1834.30597	6426.5875
1837.47122	6427.3875
1840.6344	6412.5875
1843.7955	6391.6875
1846.95454	6405.2875
1850.11151	6397.9875
1853.26642	6400.5875
1856.41926	6379.8875
1859.57004	6381.2875
1862.71876	6377.8875
1865.86542	6366.1875
1869.01003	6355.1875
1872.15258	6353.0875
1875.29308	6352.0875
1878.43152	6346.0875
1881.56792	6348.7875
1884.70227	6352.1875
1887.83457	6352.3875
1890.96482	6338.6875
1894.09304	6334.5875
1897.21921	6336.9875
1900.34335	6343.2875
1903.46544	6327.1875
1906.58551	6336.7875
1909.70353	6331.0875
1912.81953	6315.7875
1915.93349	6295.3875
1919.04543	6291.7875
1922.15534	6282.1875
1925.26322	6269.1875
1928.36908	6248.3875
1931.47292	6238.6875
1934.57473	6205.9875
1937.67453	6199.7875
1940.77232	6185.1875
1943.86808	6161.4875
1946.96184	6134.3875
1950.05358	6116.0875
1953.14331	6096.2875
1956.23103	6071.5875
1959.31675	6058.4875
1962.40046	6055.1875
1965.48217	6016.3875
1968.56188	6017.6875
1971.63959	6008.1875
1974.7153	5973.3875
1977.78901	5950.1875
1980.86073	5936.2875
1983.93046	5899.9875
1986.99819	5893.1875
1990.06394	5875.3875
1993.1277	5863.7875
1996.18947	5848.9875
1999.24925	5835.6875
2002.30706	5845.5875
2005.36288	5790.9875
2008.41672	5789.3875
2011.46859	5762.3875
2014.51848	5749.7875
2017.56639	5739.1875
2020.61233	5706.5875
2023.6563	5697.7875
2026.6983	5676.2875
2029.73833	5674.9875
2032.7764	5675.5875
2035.8125	5670.0875
2038.84664	5653.6875
2041.87881	5647.3875
2044.90903	5640.5875
2047.93729	5619.2875
2050.96359	5650.7875
2053.98794	5661.1875
2057.01034	5647.9875
2060.03078	5603.8875
2063.04927	5589.1875
2066.06582	5607.2875
2069.08042	5599.8875
2072.09307	5592.8875
2075.10378	5574.1875
2078.11255	5583.3875
2081.11938	5573.2875
2084.12426	5568.6875
2087.12722	5574.5875
2090.12824	5567.5875
2093.12732	5561.0875
2096.12447	5564.4875
2099.11969	5587.8875
2102.11299	5574.8875
2105.10435	5570.3875
2108.09379	5565.6875
2111.08131	5565.1875
2114.0669	5566.4875
2117.05057	5592.4875
2120.03233	5546.8875
2123.01216	5587.9875
2125.99008	5580.1875
2128.96609	5590.5875
2131.94018	5602.3875
2134.91236	5594.6875
2137.88263	5603.5875
2140.851	5609.0875
2143.81746	5607.3875
2146.78201	5591.8875
2149.74466	5603.7875
2152.7054	5609.1875
2155.66425	5598.9875
2158.6212	5582.7875
2161.57625	5595.6875
2164.52941	5592.9875
2167.48067	5572.9875
2170.43004	5593.2875
2173.37752	5572.2875
2176.32311	5581.8875
2179.26681	5593.6875
2182.20863	5577.4875
2185.14856	5586.1875
2188.08661	5589.1875
2191.02278	5588.9875
2193.95707	5562.3875
2196.88948	5568.1875
2199.82001	5556.6875
2202.74867	5571.2875
2205.67545	5560.8875
2208.60037	5549.7875
2211.52341	5551.6875
2214.44458	5543.1875
2217.36388	5535.2875
2220.28132	5533.9875
2223.1969	5524.4875
2226.11061	5501.5875
2229.02246	5484.9875
2231.93245	5483.3875
2234.84058	5480.6875
2237.74686	5475.7875
2240.65128	5446.2875
2243.55385	5449.6875
2246.45456	5446.0875
2249.35343	5436.0875
2252.25044	5432.5875
2255.14561	5427.4875
2258.03893	5532.0875
2260.93041	5749.0875
2263.82004	5568.1875
2266.70783	5459.0875
2269.59378	5407.1875
2272.4779	5362.2875
2275.36017	5348.5875
2278.24061	5321.9875
2281.11922	5318.0875
2283.996	5315.3875
2286.87094	5317.3875
2289.74405	5281.5875
2292.61534	5280.2875
2295.4848	5292.9875
2298.35243	5296.0875
2301.21824	5290.8875
2304.08223	5306.0875
2306.94439	5289.9875
2309.80474	5316.9875
2312.66327	5311.4875
2315.51999	5302.1875
2318.37489	5317.0875
2321.22797	5314.5875
2324.07925	5313.2875
2326.92871	5312.5875
2329.77637	5306.8875
2332.62222	5304.4875
2335.46626	5306.4875
2338.3085	5318.3875
2341.14893	5306.1875
2343.98756	5316.9875
2346.8244	5297.6875
2349.65943	5298.7875
2352.49267	5298.2875
2355.32411	5279.5875
2358.15376	5276.7875
2360.98161	5259.3875
2363.80768	5256.0875
2366.63195	5236.1875
2369.45444	5249.0875
2372.27514	5231.9875
2375.09405	5226.6875
2377.91118	5219.2875
2380.72652	5194.1875
2383.54009	5185.2875
2386.35187	5166.9875
2389.16188	5134.6875
2391.97011	5141.3875
2394.77657	5144.5875
2397.58125	5144.8875
2400.38416	5122.4875
2403.18529	5128.6875
2405.98466	5143.0875
2408.78226	5123.2875
2411.57809	5118.1875
2414.37216	5126.6875
2417.16446	5122.5875
2419.955	5104.9875
2422.74378	5081.2875
2425.5308	5075.9875
2428.31606	5063.3875
2431.09956	5053.8875
2433.88131	5040.1875
2436.6613	5049.8875
2439.43954	5037.3875
2442.21603	5058.0875
2444.99077	5043.9875
2447.76377	5040.7875
2450.53501	5061.5875
2453.30451	5033.3875
2456.07226	5022.9875
2458.83827	5043.4875
2461.60254	5045.8875
2464.36507	5033.1875
2467.12586	5017.8875
2469.88492	5031.3875
2472.64224	5077.9875
2475.39782	5219.9875
2478.15167	5299.8875
2480.90379	5144.8875
2483.65417	5124.2875
2486.40283	5109.6875
2489.14976	5079.9875
2491.89497	5108.2875
2494.63845	5272.4875
2497.3802	5329.0875
2500.12024	5164.4875
2502.85855	5111.4875
2505.59514	5081.0875
2508.33002	5058.7875
2511.06318	5027.4875
2513.79462	5032.4875
2516.52435	5005.2875
2519.25237	5028.4875
2521.97867	5022.6875
2524.70327	5002.6875
2527.42616	4990.2875
2530.14734	4983.0875
2532.86681	5002.2875
2535.58458	4998.4875
2538.30065	5015.2875
2541.01501	4999.5875
2543.72768	4977.5875
2546.43864	4981.0875
2549.14791	4956.0875
2551.85548	4965.6875
2554.56136	4952.9875
2557.26554	4947.0875
2559.96803	4947.9875
2562.66883	4936.0875
2565.36794	4934.5875
2568.06536	4922.9875
2570.7611	4950.0875
2573.45514	4925.8875
2576.14751	4911.6875
2578.83819	4918.3875
2581.52719	4916.4875
2584.21451	4922.0875
2586.90015	4906.1875
2589.58411	4898.6875
2592.2664	4901.5875
2594.94701	4904.9875
2597.62594	4898.8875
2600.30321	4901.3875
2602.9788	4881.8875
2605.65273	4882.5875
2608.32498	4901.6875
2610.99557	4876.0875
2613.66449	4878.1875
2616.33175	4875.0875
2618.99734	4882.6875
2621.66128	4872.9875
2624.32355	4883.6875
2626.98416	4866.8875
2629.64311	4873.6875
2632.30041	4881.1875
2634.95605	4860.5875
2637.61004	4828.5875
2640.26238	4827.1875
2642.91306	4829.9875
2645.56209	4831.7875
2648.20948	4884.6875
2650.85521	4859.3875
2653.4993	4833.9875
2656.14175	4825.0875
2658.78255	4834.1875
2661.42171	4829.6875
2664.05923	4834.3875
2666.6951	4838.7875
2669.32934	4846.6875
2671.96194	4857.3875
2674.59291	4850.0875
2677.22224	4855.2875
2679.84993	4860.5875
2682.476	4841.9875
2685.10043	4847.4875
2687.72324	4828.5875
2690.34441	4819.7875
2692.96396	4833.0875
2695.58188	4832.2875
2698.19818	4831.5875
2700.81285	4888.5875
2703.4259	5270.2875
2706.03733	6117.5875
2708.64714	5570.7875
2711.25533	5228.4875
2713.86191	5098.9875
2716.46687	5045.4875
2719.07021	4946.4875
2721.67194	4905.3875
2724.27206	4884.5875
2726.87057	4889.5875
2729.46747	4870.3875
2732.06276	4877.8875
2734.65644	4859.1875
2737.24852	4873.0875
2739.83899	4866.4875
2742.42786	4846.7875
2745.01513	4841.9875
2747.60079	4849.5875
2750.18486	4847.8875
2752.76733	4836.5875
2755.3482	4827.6875
2757.92747	4838.1875
2760.50515	4834.4875
2763.08123	4839.3875
2765.65573	4844.8875
2768.22863	4840.4875
2770.79994	4814.7875
2773.36967	4814.9875
2775.9378	4826.4875
2778.50435	4828.2875
2781.06932	4824.8875
2783.6327	4815.6875
2786.1945	4819.1875
2788.75471	4836.8875
2791.31335	4818.3875
2793.87041	4828.3875
2796.42589	4798.4875
2798.97979	4800.6875
2801.53212	4784.5875
2804.08288	4790.1875
2806.63206	4784.1875
2809.17967	4767.4875
2811.72571	4745.5875
2814.27018	4746.0875
2816.81308	4742.6875
2819.35442	4733.0875
2821.89419	4727.5875
2824.43239	4730.5875
2826.96904	4749.9875
2829.50412	4742.8875
2832.03763	4729.3875
2834.56959	4701.1875
2837.1	4725.4875
2839.62884	4713.6875
2842.15613	4713.7875
2844.68186	4744.1875
2847.20604	4739.2875
2849.72867	4759.3875
2852.24974	4771.4875
2854.76927	4929.9875
2857.28724	5161.9875
2859.80367	4962.6875
2862.31855	4842.3875
2864.83189	4834.6875
2867.34368	4783.3875
2869.85393	4767.1875
2872.36264	4734.5875
2874.8698	4709.0875
2877.37543	4722.3875
2879.87952	4719.5875
2882.38207	4692.1875
2884.88308	4714.4875
2887.38256	4705.5875
2889.88051	4699.0875
2892.37692	4715.2875
2894.8718	4709.6875
2897.36515	4696.4875
2899.85698	4703.2875
2902.34727	4732.3875
2904.83604	4720.0875
2907.32328	4732.6875
2909.809	4727.4875
2912.29319	4738.6875
2914.77587	4738.4875
2917.25702	4728.5875
2919.73665	4720.4875
2922.21476	4721.5875
2924.69136	4700.7875
2927.16644	4714.4875
2929.64	4708.4875
2932.11205	4693.5875
2934.58258	4683.0875
2937.05161	4670.5875
2939.51912	4680.2875
2941.98513	4673.2875
2944.44962	4649.0875
2946.91261	4659.7875
2949.37409	4640.8875
2951.83407	4629.0875
2954.29254	4629.0875
2956.74951	4621.9875
2959.20498	4627.1875
2961.65895	4626.8875
2964.11142	4622.4875
2966.56239	4599.1875
2969.01186	4622.8875
2971.45984	4599.5875
2973.90632	4591.1875
2976.35131	4589.3875
2978.7948	4567.4875
2981.23681	4563.0875
2983.67732	4543.2875
2986.11635	4545.8875
2988.55388	4525.4875
2990.98993	4533.2875
2993.4245	4502.9875
2995.85758	4495.2875
2998.28917	4497.7875
3000.71928	4479.3875
3003.14791	4480.1875
3005.57506	4467.9875
3008.00073	4441.0875
3010.42493	4353.9875
3012.84764	4441.4875
3015.26888	4439.3875
3017.68865	4431.3875
3020.10694	4410.3875
3022.52376	4423.3875
3024.9391	4394.4875
3027.35298	4389.2875
3029.76539	4404.9875
3032.17632	4374.4875
3034.5858	4368.9875
3036.9938	4395.4875
3039.40034	4385.3875
3041.80542	4375.5875
3044.20903	4375.7875
3046.61118	4370.7875
3049.01187	4361.1875
3051.4111	4364.9875
3053.80888	4370.7875
3056.20519	4347.1875
3058.60005	4341.4875
3060.99345	4324.3875
3063.3854	4313.2875
3065.7759	4311.4875
3068.16494	4275.5875
3070.55254	4278.9875
3072.93868	4269.4875
3075.32338	4253.7875
3077.70662	4235.5875
3080.08842	4225.8875
3082.46878	4229.2875
3084.84769	4233.2875
3087.22515	4213.1875
3089.60118	4217.5875
3091.97576	4217.9875
3094.3489	4207.8875
3096.72061	4205.4875
3099.09087	4187.7875
3101.4597	4203.6875
3103.82709	4203.7875
3106.19305	4193.1875
