Data from AgNPs_FTO_APTES_UA_5uM_CRN_20uM_R6G_10uM_NaF_0.1M_Addition_RamanShift__24__13-30-56-788.txt Node

Date: Mon Feb 07 13:30:56 GMT 2022
User: TCL
Spectrometer: QEP01345
Trigger mode: 4
Integration Time (sec): 7.000000E0
Scans to average: 10
Electric dark correction enabled: true
Nonlinearity correction enabled: false
Boxcar width: 0
XAxis mode: Raman Shifts
Number of Pixels in Spectrum: 1044
>>>>>Begin Spectral Data<<<<<
46.04893	0.7875
50.45542	-1.9125
54.85868	-0.8125
59.25871	-1.5125
63.6555	86.7875
68.04907	87.2875
72.43941	93.1875
76.82654	95.5875
81.21044	98.6875
85.59113	106.0875
89.96862	106.9875
94.34289	106.7875
98.71396	113.2875
103.08183	115.7875
107.4465	120.8875
111.80798	122.8875
116.16626	129.3875
120.52136	133.7875
124.87327	147.1875
129.222	152.5875
133.56755	166.5875
137.90993	182.2875
142.24913	197.5875
146.58517	229.3875
150.91804	269.0875
155.24774	325.8875
159.57429	408.0875
163.89768	535.1875
168.21792	720.0875
172.53501	984.7875
176.84895	1369.0875
181.15975	1944.8875
185.46741	2728.4875
189.77193	3752.9875
194.07331	5009.7875
198.37157	6441.3875
202.6667	7939.8875
206.9587	9454.8875
211.24758	10923.7875
215.53334	12448.9875
219.81599	14071.4875
224.09553	15875.3875
228.37195	17895.2875
232.64527	20113.5875
236.91549	22317.2875
241.18261	24583.7875
245.44663	26564.4875
249.70755	28349.5875
253.96539	29874.0875
258.22014	31213.5875
262.4718	32420.6875
266.72039	33306.3875
270.96589	33908.8875
275.20832	34173.2875
279.44768	34207.3875
283.68397	34182.1875
287.91719	34194.6875
292.14735	34387.5875
296.37445	34766.3875
300.59849	35080.6875
304.81948	35242.3875
309.03742	35102.2875
313.25231	34455.8875
317.46415	33191.4875
321.67296	31663.8875
325.87872	30408.2875
330.08145	29746.1875
334.28114	29627.0875
338.47781	29904.0875
342.67145	30379.4875
346.86207	31010.2875
351.04966	31936.8875
355.23424	32849.8875
359.4158	33606.4875
363.59435	34024.2875
367.76989	34174.2875
371.94243	34254.0875
376.11196	34334.6875
380.27849	34389.5875
384.44203	34411.5875
388.60257	34523.8875
392.76012	34754.5875
396.91468	35220.9875
401.06626	35877.2875
405.21485	36335.8875
409.36047	36017.4875
413.50311	35110.4875
417.64277	34347.7875
421.77947	34159.4875
425.9132	34173.3875
430.04396	34447.9875
434.17176	34739.8875
438.2966	35119.2875
442.41849	35862.9875
446.53742	36945.0875
450.6534	38205.8875
454.76644	39149.1875
458.87653	39433.7875
462.98368	39309.1875
467.08789	38865.8875
471.18916	38409.2875
475.2875	38048.2875
479.38291	37914.7875
483.4754	37615.7875
487.56496	37010.1875
491.6516	36163.9875
495.73531	35351.3875
499.81612	34945.9875
503.89401	34991.6875
507.96899	35087.8875
512.04106	35009.3875
516.11023	34777.7875
520.1765	34460.6875
524.23987	34117.0875
528.30034	33683.6875
532.35792	33275.8875
536.41261	32817.2875
540.46441	32470.4875
544.51333	32484.1875
548.55936	33054.0875
552.60252	34090.2875
556.64279	35163.6875
560.6802	35875.2875
564.71473	36385.0875
568.7464	37309.6875
572.7752	38347.3875
576.80114	38745.7875
580.82422	38808.2875
584.84444	38993.7875
588.86181	39265.6875
592.87633	39833.2875
596.888	40242.1875
600.89682	40500.8875
604.9028	42055.6875
608.90594	46774.8875
612.90624	52425.8875
616.90371	49223.1875
620.89834	39111.6875
624.89015	34667.7875
628.87913	34157.1875
632.86528	34309.3875
636.84862	34187.7875
640.82913	33446.1875
644.80683	32214.8875
648.78172	31316.4875
652.75379	31089.7875
656.72306	31548.2875
660.68952	32354.3875
664.65319	32311.5875
668.61405	31532.3875
672.57211	31210.4875
676.52738	31148.9875
680.47986	31153.3875
684.42955	31015.0875
688.37646	30948.7875
692.32058	31077.9875
696.26192	31357.1875
700.20048	31828.7875
704.13626	32132.2875
708.06928	32067.0875
711.99952	31855.8875
715.927	31660.5875
719.85171	31683.0875
723.77365	31559.1875
727.69284	31201.7875
731.60928	30897.5875
735.52295	30799.1875
739.43388	30844.7875
743.34206	30975.3875
747.24749	31179.2875
751.15017	31541.5875
755.05012	32262.4875
758.94733	33596.8875
762.8418	36062.8875
766.73354	40005.5875
770.62254	43667.1875
774.50882	44511.8875
778.39237	41882.0875
782.27321	37596.1875
786.15132	34115.5875
790.02671	32146.5875
793.89938	31134.9875
797.76935	30734.2875
801.6366	30606.0875
805.50115	30518.8875
809.36299	30358.9875
813.22213	30170.2875
817.07857	30150.9875
820.93231	30130.4875
824.78336	30012.1875
828.63172	29918.5875
832.47738	29858.3875
836.32036	29853.8875
840.16066	29911.9875
843.99827	30003.9875
847.8332	29885.7875
851.66546	29679.2875
855.49504	29585.0875
859.32195	29549.4875
863.1462	29403.6875
866.96777	29258.3875
870.78668	29164.7875
874.60293	29142.7875
878.41652	29120.7875
882.22745	29232.7875
886.03573	29348.7875
889.84136	29331.3875
893.64433	29221.1875
897.44466	29078.9875
901.24235	28996.9875
905.0374	28923.5875
908.8298	28849.4875
912.61957	28956.3875
916.40671	29298.5875
920.19121	29865.5875
923.97308	30220.4875
927.75233	30265.2875
931.52895	30087.8875
935.30295	29614.5875
939.07433	28917.0875
942.84309	28350.7875
946.60924	28104.8875
950.37278	27893.1875
954.13371	27767.8875
957.89203	27695.1875
961.64774	27617.6875
965.40086	27617.7875
969.15137	27485.0875
972.89929	27339.4875
976.64461	27160.1875
980.38733	27138.8875
984.12747	27268.6875
987.86502	27523.1875
991.59999	27865.6875
995.33237	28446.3875
999.06217	29403.9875
1002.78939	30576.2875
1006.51404	31365.1875
1010.23611	31781.7875
1013.95561	32114.4875
1017.67255	32150.8875
1021.38692	31781.7875
1025.09872	31310.0875
1028.80796	31433.1875
1032.51465	32201.6875
1036.21877	33031.6875
1039.92035	33185.7875
1043.61937	32792.4875
1047.31584	31998.4875
1051.00976	31161.2875
1054.70114	30857.7875
1058.38998	30873.7875
1062.07627	31196.3875
1065.76003	31557.4875
1069.44126	31825.4875
1073.11995	32071.7875
1076.79611	32333.7875
1080.46974	32530.4875
1084.14085	32830.6875
1087.80943	33337.4875
1091.47549	33708.7875
1095.13903	33655.8875
1098.80005	33098.0875
1102.45857	32236.6875
1106.11456	31599.9875
1109.76805	31481.7875
1113.41903	31715.6875
1117.06751	32129.7875
1120.71348	32779.1875
1124.35696	33377.9875
1127.99793	33948.5875
1131.63641	34148.6875
1135.2724	33679.9875
1138.90589	33232.1875
1142.5369	32888.2875
1146.16542	32884.4875
1149.79145	33015.7875
1153.415	33509.1875
1157.03607	34174.2875
1160.65467	35269.2875
1164.27079	36849.7875
1167.88443	39145.1875
1171.49561	42133.6875
1175.10432	46350.1875
1178.71056	51552.9875
1182.31434	56107.2875
1185.91565	58373.6875
1189.51451	58418.7875
1193.11091	56675.3875
1196.70485	53758.1875
1200.29634	50912.8875
1203.88538	48553.3875
1207.47197	46671.8875
1211.05612	45222.4875
1214.63782	44074.9875
1218.21708	43345.8875
1221.79391	42867.8875
1225.36829	42517.3875
1228.94024	42083.3875
1232.50976	41326.3875
1236.07685	40843.4875
1239.6415	40593.0875
1243.20374	40491.8875
1246.76355	40652.7875
1250.32093	41273.4875
1253.8759	42354.4875
1257.42845	43765.6875
1260.97859	45170.1875
1264.52631	46372.0875
1268.07163	47687.5875
1271.61453	49128.1875
1275.15503	50824.3875
1278.69312	52456.8875
1282.22882	53948.9875
1285.76211	55502.3875
1289.29301	57367.2875
1292.82151	59830.8875
1296.34761	62938.0875
1299.87133	66849.1875
1303.39266	71375.6875
1306.9116	76662.7875
1310.42815	82056.7875
1313.94233	85828.5875
1317.45412	86530.7875
1320.96354	85127.6875
1324.47058	83021.7875
1327.97525	81113.4875
1331.47754	79526.5875
1334.97747	78831.4875
1338.47502	78834.4875
1341.97022	78895.4875
1345.46305	78291.7875
1348.95352	76795.6875
1352.44163	75420.2875
1355.92738	75812.1875
1359.41078	79069.8875
1362.89183	82677.3875
1366.37053	80854.2875
1369.84688	73236.9875
1373.32088	64827.1875
1376.79254	59225.3875
1380.26186	57055.7875
1383.72883	56844.3875
1387.19347	56999.4875
1390.65578	56918.5875
1394.11575	57350.1875
1397.57339	58518.0875
1401.0287	60183.3875
1404.48168	61555.7875
1407.93234	62164.5875
1411.38068	61455.1875
1414.82669	59353.9875
1418.27039	56290.8875
1421.71177	53014.8875
1425.15083	50333.4875
1428.58758	48793.8875
1432.02203	48628.9875
1435.45416	49461.7875
1438.88399	50699.4875
1442.31151	51904.1875
1445.73673	53122.8875
1449.15965	54371.5875
1452.58027	55387.7875
1455.9986	55955.3875
1459.41463	56570.1875
1462.82837	57471.1875
1466.23982	58441.3875
1469.64898	59296.2875
1473.05586	59541.1875
1476.46045	59209.5875
1479.86276	58672.1875
1483.26279	58059.1875
1486.66054	57756.4875
1490.05602	57888.8875
1493.44922	58260.8875
1496.84016	58893.8875
1500.22882	60143.8875
1503.61521	62393.9875
1506.99934	65384.6875
1510.38121	68434.2875
1513.76081	70199.9875
1517.13816	69187.6875
1520.51324	65839.3875
1523.88607	62390.7875
1527.25665	60117.0875
1530.62498	58839.1875
1533.99105	58276.3875
1537.35488	57875.2875
1540.71647	57212.3875
1544.07581	56244.6875
1547.4329	54955.9875
1550.78776	53854.0875
1554.14038	53057.4875
1557.49077	52925.3875
1560.83892	53009.6875
1564.18484	53242.7875
1567.52853	53222.1875
1570.86999	53392.4875
1574.20922	53938.9875
1577.54624	54613.4875
1580.88103	54624.7875
1584.2136	54758.4875
1587.54395	56099.0875
1590.87208	58954.2875
1594.19801	62795.3875
1597.52172	66475.3875
1600.84321	67637.5875
1604.16251	64662.9875
1607.47959	59227.7875
1610.79447	53536.1875
1614.10715	48321.7875
1617.41763	44071.8875
1620.7259	41064.6875
1624.03199	39515.9875
1627.33587	39346.9875
1630.63757	40668.3875
1633.93707	43561.1875
1637.23439	48068.4875
1640.52951	54076.3875
1643.82246	60813.9875
1647.11321	66193.5875
1650.40179	67714.8875
1653.68819	63681.5875
1656.97241	55264.0875
1660.25446	46451.9875
1663.53433	39695.9875
1666.81203	35204.1875
1670.08756	32432.4875
1673.36092	30707.3875
1676.63211	29540.3875
1679.90115	28765.2875
1683.16801	28194.1875
1686.43272	27750.5875
1689.69527	27397.0875
1692.95567	27190.3875
1696.2139	27008.9875
1699.46999	26823.9875
1702.72392	26750.3875
1705.97571	26640.9875
1709.22535	26561.6875
1712.47284	26500.3875
1715.71819	26461.9875
1718.96139	26374.0875
1722.20246	26265.1875
1725.44139	26097.0875
1728.67818	25970.4875
1731.91284	25772.9875
1735.14537	25662.8875
1738.37576	25468.8875
1741.60403	25396.3875
1744.83017	25312.6875
1748.05418	25230.3875
1751.27607	25199.0875
1754.49584	25139.5875
1757.71349	25092.4875
1760.92903	25051.2875
1764.14244	25040.6875
1767.35375	25038.2875
1770.56294	24978.4875
1773.77002	24908.4875
1776.97499	24867.4875
1780.17785	24796.0875
1783.37861	24768.1875
1786.57727	24726.8875
1789.77382	24673.0875
1792.96828	24631.5875
1796.16064	24589.3875
1799.3509	24598.7875
1802.53907	24529.5875
1805.72514	24447.9875
1808.90913	24380.2875
1812.09102	24307.6875
1815.27083	24295.4875
1818.44856	24217.4875
1821.6242	24222.1875
1824.79776	24163.6875
1827.96924	24130.5875
1831.13864	24095.7875
1834.30597	24142.8875
1837.47122	24140.5875
1840.6344	24114.2875
1843.7955	24123.3875
1846.95454	24113.7875
1850.11151	24100.7875
1853.26642	24123.7875
1856.41926	24158.4875
1859.57004	24182.9875
1862.71876	24196.8875
1865.86542	24159.3875
1869.01003	24120.8875
1872.15258	24135.2875
1875.29308	24146.1875
1878.43152	24149.5875
1881.56792	24156.1875
1884.70227	24192.7875
1887.83457	24172.3875
1890.96482	24150.3875
1894.09304	24176.6875
1897.21921	24170.6875
1900.34335	24193.5875
1903.46544	24201.5875
1906.58551	24219.5875
1909.70353	24218.6875
1912.81953	24170.6875
1915.93349	24143.3875
1919.04543	24098.5875
1922.15534	24022.6875
1925.26322	23955.6875
1928.36908	23873.9875
1931.47292	23780.2875
1934.57473	23707.7875
1937.67453	23569.6875
1940.77232	23454.6875
1943.86808	23394.2875
1946.96184	23276.8875
1950.05358	23182.3875
1953.14331	23093.0875
1956.23103	22978.4875
1959.31675	22889.9875
1962.40046	22829.7875
1965.48217	22740.8875
1968.56188	22702.6875
1971.63959	22613.2875
1974.7153	22562.4875
1977.78901	22498.8875
1980.86073	22407.9875
1983.93046	22307.6875
1986.99819	22239.6875
1990.06394	22162.3875
1993.1277	22132.3875
1996.18947	22075.2875
1999.24925	21984.1875
2002.30706	21934.8875
2005.36288	21880.5875
2008.41672	21788.9875
2011.46859	21768.2875
2014.51848	21715.6875
2017.56639	21634.9875
2020.61233	21582.7875
2023.6563	21545.4875
2026.6983	21460.2875
2029.73833	21402.8875
2032.7764	21379.7875
2035.8125	21329.6875
2038.84664	21312.0875
2041.87881	21286.1875
2044.90903	21251.6875
2047.93729	21232.7875
2050.96359	21207.7875
2053.98794	21171.7875
2057.01034	21150.6875
2060.03078	21111.9875
2063.04927	21138.4875
2066.06582	21096.9875
2069.08042	21106.9875
2072.09307	21029.9875
2075.10378	21055.2875
2078.11255	20993.2875
2081.11938	20989.7875
2084.12426	20952.8875
2087.12722	20955.2875
2090.12824	20936.0875
2093.12732	20906.0875
2096.12447	20922.6875
2099.11969	20922.6875
2102.11299	20924.3875
2105.10435	20906.2875
2108.09379	20888.0875
2111.08131	20913.9875
2114.0669	20944.6875
2117.05057	20977.3875
2120.03233	20955.6875
2123.01216	20961.4875
2125.99008	21033.3875
2128.96609	20991.8875
2131.94018	21034.9875
2134.91236	21012.7875
2137.88263	21035.1875
2140.851	21071.0875
2143.81746	21070.0875
2146.78201	21066.4875
2149.74466	21067.9875
2152.7054	21035.9875
2155.66425	21007.7875
2158.6212	21030.3875
2161.57625	21005.5875
2164.52941	21006.0875
2167.48067	20991.1875
2170.43004	21010.1875
2173.37752	20973.0875
2176.32311	20983.8875
2179.26681	20987.8875
2182.20863	20995.5875
2185.14856	20959.5875
2188.08661	21000.9875
2191.02278	21016.9875
2193.95707	20979.6875
2196.88948	20979.3875
2199.82001	20934.4875
2202.74867	20909.1875
2205.67545	20932.6875
2208.60037	20892.7875
2211.52341	20896.4875
2214.44458	20877.4875
2217.36388	20850.2875
2220.28132	20804.3875
2223.1969	20773.7875
2226.11061	20757.6875
2229.02246	20672.6875
2231.93245	20611.4875
2234.84058	20601.5875
2237.74686	20545.0875
2240.65128	20529.1875
2243.55385	20478.2875
2246.45456	20461.3875
2249.35343	20442.1875
2252.25044	20422.1875
2255.14561	20381.8875
2258.03893	20334.5875
2260.93041	20332.7875
2263.82004	20310.0875
2266.70783	20241.8875
2269.59378	20144.6875
2272.4779	20122.1875
2275.36017	20068.3875
2278.24061	20046.9875
2281.11922	20007.9875
2283.996	19980.2875
2286.87094	19938.4875
2289.74405	19911.6875
2292.61534	19871.0875
2295.4848	19885.1875
2298.35243	19891.1875
2301.21824	19878.7875
2304.08223	19918.2875
2306.94439	19908.0875
2309.80474	19947.2875
2312.66327	19993.5875
2315.51999	19940.1875
2318.37489	19925.6875
2321.22797	19914.8875
2324.07925	19876.3875
2326.92871	19859.3875
2329.77637	19822.9875
2332.62222	19816.8875
2335.46626	19832.1875
2338.3085	19861.4875
2341.14893	19854.2875
2343.98756	19861.8875
2346.8244	19908.4875
2349.65943	19906.3875
2352.49267	19888.5875
2355.32411	19916.0875
2358.15376	19876.7875
2360.98161	19916.5875
2363.80768	19856.3875
2366.63195	19851.0875
2369.45444	19785.3875
2372.27514	19804.7875
2375.09405	19759.0875
2377.91118	19677.5875
2380.72652	19647.9875
2383.54009	19570.5875
2386.35187	19548.0875
2389.16188	19478.1875
2391.97011	19469.5875
2394.77657	19448.9875
2397.58125	19430.6875
2400.38416	19372.6875
2403.18529	19356.9875
2405.98466	19333.1875
2408.78226	19288.0875
2411.57809	19232.5875
2414.37216	19226.1875
2417.16446	19194.3875
2419.955	19194.0875
2422.74378	19174.0875
2425.5308	19113.5875
2428.31606	19105.0875
2431.09956	19138.1875
2433.88131	19061.8875
2436.6613	19101.8875
2439.43954	19115.7875
2442.21603	19120.5875
2444.99077	19070.3875
2447.76377	19082.4875
2450.53501	19085.0875
2453.30451	19054.3875
2456.07226	19012.3875
2458.83827	19032.5875
2461.60254	19057.6875
2464.36507	19030.3875
2467.12586	19049.5875
2469.88492	19067.8875
2472.64224	19098.2875
2475.39782	19121.1875
2478.15167	19151.0875
2480.90379	19107.2875
2483.65417	19128.0875
2486.40283	19175.6875
2489.14976	19220.6875
2491.89497	19247.3875
2494.63845	19270.5875
2497.3802	19239.1875
2500.12024	19278.2875
2502.85855	19260.7875
2505.59514	19233.5875
2508.33002	19216.7875
2511.06318	19215.4875
2513.79462	19148.1875
2516.52435	19121.0875
2519.25237	19147.7875
2521.97867	19113.5875
2524.70327	19081.9875
2527.42616	19047.5875
2530.14734	19064.3875
2532.86681	19090.2875
2535.58458	19094.8875
2538.30065	19076.6875
2541.01501	19042.4875
2543.72768	19053.7875
2546.43864	19017.7875
2549.14791	19030.8875
2551.85548	19044.2875
2554.56136	18971.6875
2557.26554	18960.0875
2559.96803	18920.8875
2562.66883	18918.8875
2565.36794	18905.1875
2568.06536	18881.8875
2570.7611	18861.9875
2573.45514	18849.2875
2576.14751	18851.5875
2578.83819	18854.1875
2581.52719	18849.9875
2584.21451	18857.4875
2586.90015	18908.9875
2589.58411	18888.4875
2592.2664	18886.7875
2594.94701	18856.7875
2597.62594	18893.0875
2600.30321	18871.4875
2602.9788	18898.4875
2605.65273	18851.2875
2608.32498	18882.3875
2610.99557	18872.8875
2613.66449	18905.0875
2616.33175	18891.7875
2618.99734	18910.2875
2621.66128	18925.3875
2624.32355	18954.1875
2626.98416	18915.3875
2629.64311	18940.2875
2632.30041	18953.3875
2634.95605	18940.9875
2637.61004	18914.2875
2640.26238	18888.9875
2642.91306	18879.4875
2645.56209	18832.7875
2648.20948	18846.4875
2650.85521	18806.9875
2653.4993	18862.0875
2656.14175	18837.2875
2658.78255	18850.1875
2661.42171	18855.4875
2664.05923	18871.0875
2666.6951	18902.0875
2669.32934	18949.0875
2671.96194	18934.5875
2674.59291	18954.1875
2677.22224	18947.1875
2679.84993	18944.4875
2682.476	18923.1875
2685.10043	18887.8875
2687.72324	18878.1875
2690.34441	18864.9875
2692.96396	18838.4875
2695.58188	18862.6875
2698.19818	18819.6875
2700.81285	18879.8875
2703.4259	18877.2875
2706.03733	18943.0875
2708.64714	18854.1875
2711.25533	18906.1875
2713.86191	18884.2875
2716.46687	18941.1875
2719.07021	18938.0875
2721.67194	18976.4875
2724.27206	18937.3875
2726.87057	19002.1875
2729.46747	19018.1875
2732.06276	19014.2875
2734.65644	19021.5875
2737.24852	19001.4875
2739.83899	18951.6875
2742.42786	18994.8875
2745.01513	18915.7875
2747.60079	18955.0875
2750.18486	18955.0875
2752.76733	18934.2875
2755.3482	18918.9875
2757.92747	18940.6875
2760.50515	18922.4875
2763.08123	18937.4875
2765.65573	18967.8875
2768.22863	18926.4875
2770.79994	18913.4875
2773.36967	18953.4875
2775.9378	18956.1875
2778.50435	18959.7875
2781.06932	18939.6875
2783.6327	18947.6875
2786.1945	18980.2875
2788.75471	18968.6875
2791.31335	18913.5875
2793.87041	18917.1875
2796.42589	18857.0875
2798.97979	18829.6875
2801.53212	18804.5875
2804.08288	18762.0875
2806.63206	18718.3875
2809.17967	18695.4875
2811.72571	18650.8875
2814.27018	18699.1875
2816.81308	18607.9875
2819.35442	18598.1875
2821.89419	18565.0875
2824.43239	18596.4875
2826.96904	18600.1875
2829.50412	18576.1875
2832.03763	18560.0875
2834.56959	18545.0875
2837.1	18506.0875
2839.62884	18482.1875
2842.15613	18494.8875
2844.68186	18575.2875
2847.20604	18593.0875
2849.72867	18577.8875
2852.24974	18585.4875
2854.76927	18568.7875
2857.28724	18588.3875
2859.80367	18551.7875
2862.31855	18517.2875
2864.83189	18486.1875
2867.34368	18461.8875
2869.85393	18450.6875
2872.36264	18399.4875
2874.8698	18417.7875
2877.37543	18415.3875
2879.87952	18421.0875
2882.38207	18421.3875
2884.88308	18438.4875
2887.38256	18430.8875
2889.88051	18398.8875
2892.37692	18417.6875
2894.8718	18463.1875
2897.36515	18478.3875
2899.85698	18514.3875
2902.34727	18536.6875
2904.83604	18546.2875
2907.32328	18606.1875
2909.809	18590.5875
2912.29319	18608.0875
2914.77587	18608.8875
2917.25702	18601.7875
2919.73665	18585.2875
2922.21476	18582.3875
2924.69136	18559.6875
2927.16644	18559.8875
2929.64	18488.6875
2932.11205	18448.6875
2934.58258	18377.2875
2937.05161	18411.9875
2939.51912	18367.8875
2941.98513	18397.2875
2944.44962	18342.3875
2946.91261	18256.0875
2949.37409	18264.4875
2951.83407	18247.7875
2954.29254	18204.8875
2956.74951	18215.1875
2959.20498	18168.7875
2961.65895	18138.4875
2964.11142	18149.5875
2966.56239	18143.9875
2969.01186	18133.3875
2971.45984	18071.6875
2973.90632	18061.6875
2976.35131	18027.1875
2978.7948	17973.8875
2981.23681	17940.3875
2983.67732	17917.1875
2986.11635	17822.7875
2988.55388	17803.1875
2990.98993	17784.6875
2993.4245	17714.1875
2995.85758	17684.6875
2998.28917	17611.3875
3000.71928	17595.1875
3003.14791	17549.5875
3005.57506	17546.2875
3008.00073	17456.6875
3010.42493	17374.7875
3012.84764	17435.1875
3015.26888	17412.5875
3017.68865	17369.8875
3020.10694	17320.0875
3022.52376	17289.8875
