Data from AgNPs_FTO_APTES_UA_5uM_CRN_100uM_R6G_10uM_NaF_0.1M_Addition_RamanShift__16__14-54-56-885.txt Node

Date: Mon Feb 07 14:54:56 GMT 2022
User: TCL
Spectrometer: QEP01345
Trigger mode: 4
Integration Time (sec): 7.000000E0
Scans to average: 10
Electric dark correction enabled: true
Nonlinearity correction enabled: false
Boxcar width: 0
XAxis mode: Raman Shifts
Number of Pixels in Spectrum: 1044
>>>>>Begin Spectral Data<<<<<
46.04893	0.1875
50.45542	-1.0125
54.85868	-0.8125
59.25871	-0.2125
63.6555	58.9875
68.04907	64.0875
72.43941	65.1875
76.82654	68.6875
81.21044	71.9875
85.59113	73.1875
89.96862	77.0875
94.34289	76.2875
98.71396	84.2875
103.08183	82.7875
107.4465	84.2875
111.80798	88.1875
116.16626	89.3875
120.52136	98.5875
124.87327	100.7875
129.222	105.0875
133.56755	114.0875
137.90993	127.9875
142.24913	136.4875
146.58517	158.4875
150.91804	185.8875
155.24774	222.6875
159.57429	284.7875
163.89768	363.8875
168.21792	491.0875
172.53501	676.7875
176.84895	945.9875
181.15975	1331.3875
185.46741	1877.6875
189.77193	2593.8875
194.07331	3479.6875
198.37157	4472.5875
202.6667	5536.4875
206.9587	6577.9875
211.24758	7590.1875
215.53334	8617.5875
219.81599	9689.9875
224.09553	10878.1875
228.37195	12177.4875
232.64527	13615.0875
236.91549	15068.8875
241.18261	16567.3875
245.44663	18036.6875
249.70755	19305.5875
253.96539	20479.1875
258.22014	21476.4875
262.4718	22268.8875
266.72039	22857.4875
270.96589	23222.9875
275.20832	23365.0875
279.44768	23333.6875
283.68397	23292.9875
287.91719	23274.3875
292.14735	23248.7875
296.37445	23361.7875
300.59849	23428.6875
304.81948	23399.0875
309.03742	23194.1875
313.25231	22767.2875
317.46415	22094.9875
321.67296	21355.8875
325.87872	20805.1875
330.08145	20461.8875
334.28114	20399.7875
338.47781	20548.3875
342.67145	20736.8875
346.86207	20968.5875
351.04966	21332.7875
355.23424	21668.8875
359.4158	21949.0875
363.59435	22138.9875
367.76989	22302.9875
371.94243	22398.7875
376.11196	22478.5875
380.27849	22605.5875
384.44203	22746.7875
388.60257	22879.8875
392.76012	23073.7875
396.91468	23434.1875
401.06626	23763.6875
405.21485	24015.3875
409.36047	23929.9875
413.50311	23637.6875
417.64277	23360.3875
421.77947	23314.6875
425.9132	23394.0875
430.04396	23557.7875
434.17176	23672.7875
438.2966	23861.5875
442.41849	24252.7875
446.53742	24799.6875
450.6534	25424.7875
454.76644	25984.7875
458.87653	26238.4875
462.98368	26298.8875
467.08789	26180.5875
471.18916	26039.4875
475.2875	26028.3875
479.38291	26083.6875
483.4754	26043.8875
487.56496	25707.1875
491.6516	25127.1875
495.73531	24553.3875
499.81612	24226.5875
503.89401	24182.5875
507.96899	24270.6875
512.04106	24143.9875
516.11023	23991.2875
520.1765	23687.7875
524.23987	23367.5875
528.30034	23096.5875
532.35792	22846.8875
536.41261	22702.2875
540.46441	22597.0875
544.51333	22662.7875
548.55936	23083.1875
552.60252	23628.5875
556.64279	24275.9875
560.6802	24708.2875
564.71473	25043.5875
568.7464	25550.3875
572.7752	26293.0875
576.80114	26850.3875
580.82422	27227.2875
584.84444	27495.8875
588.86181	27598.6875
592.87633	27650.1875
596.888	27574.2875
600.89682	27504.9875
604.9028	28010.1875
608.90594	29508.3875
612.90624	30931.2875
616.90371	28991.5875
620.89834	24981.0875
624.89015	23238.7875
628.87913	23216.5875
632.86528	23388.7875
636.84862	23463.9875
640.82913	23148.9875
644.80683	22618.4875
648.78172	22130.4875
652.75379	21896.6875
656.72306	22033.4875
660.68952	22258.9875
664.65319	22180.1875
668.61405	21907.4875
672.57211	21845.5875
676.52738	21873.7875
680.47986	21913.0875
684.42955	21814.7875
688.37646	21741.5875
692.32058	21774.8875
696.26192	21939.2875
700.20048	22168.7875
704.13626	22360.6875
708.06928	22424.5875
711.99952	22343.2875
715.927	22257.4875
719.85171	22233.8875
723.77365	22140.1875
727.69284	21927.6875
731.60928	21720.8875
735.52295	21597.0875
739.43388	21574.2875
743.34206	21616.5875
747.24749	21683.1875
751.15017	21897.4875
755.05012	22327.2875
758.94733	23016.1875
762.8418	24110.3875
766.73354	25847.2875
770.62254	27369.9875
774.50882	27491.7875
778.39237	26162.6875
782.27321	24353.3875
786.15132	22874.5875
790.02671	22013.0875
793.89938	21569.3875
797.76935	21416.3875
801.6366	21374.7875
805.50115	21314.3875
809.36299	21208.3875
813.22213	21052.5875
817.07857	21029.7875
820.93231	21003.2875
824.78336	20903.3875
828.63172	20785.6875
832.47738	20671.1875
836.32036	20668.6875
840.16066	20721.9875
843.99827	20735.9875
847.8332	20699.5875
851.66546	20633.3875
855.49504	20572.4875
859.32195	20614.9875
863.1462	20528.4875
866.96777	20511.4875
870.78668	20462.8875
874.60293	20393.2875
878.41652	20410.2875
882.22745	20418.3875
886.03573	20467.3875
889.84136	20515.7875
893.64433	20434.6875
897.44466	20347.9875
901.24235	20289.5875
905.0374	20201.6875
908.8298	20154.7875
912.61957	20251.4875
916.40671	20468.8875
920.19121	20784.3875
923.97308	21002.0875
927.75233	20890.1875
931.52895	20711.8875
935.30295	20376.5875
939.07433	20007.5875
942.84309	19715.2875
946.60924	19612.3875
950.37278	19474.4875
954.13371	19421.1875
957.89203	19402.1875
961.64774	19392.5875
965.40086	19383.1875
969.15137	19350.7875
972.89929	19200.2875
976.64461	19098.1875
980.38733	19000.7875
984.12747	19066.1875
987.86502	19164.8875
991.59999	19349.7875
995.33237	19592.7875
999.06217	19983.0875
1002.78939	20399.8875
1006.51404	20674.6875
1010.23611	20814.5875
1013.95561	20976.5875
1017.67255	21007.2875
1021.38692	20879.2875
1025.09872	20671.3875
1028.80796	20682.8875
1032.51465	20966.3875
1036.21877	21271.0875
1039.92035	21324.3875
1043.61937	21205.2875
1047.31584	20986.8875
1051.00976	20797.2875
1054.70114	20791.3875
1058.38998	20930.4875
1062.07627	21187.6875
1065.76003	21412.2875
1069.44126	21615.0875
1073.11995	21769.1875
1076.79611	21963.2875
1080.46974	22053.2875
1084.14085	22115.6875
1087.80943	22298.4875
1091.47549	22546.4875
1095.13903	22692.3875
1098.80005	22525.8875
1102.45857	22094.6875
1106.11456	21667.3875
1109.76805	21405.8875
1113.41903	21422.1875
1117.06751	21568.1875
1120.71348	21783.1875
1124.35696	21985.2875
1127.99793	22238.6875
1131.63641	22405.5875
1135.2724	22386.9875
1138.90589	22223.5875
1142.5369	22267.8875
1146.16542	22359.4875
1149.79145	22610.0875
1153.415	22939.2875
1157.03607	23435.6875
1160.65467	24154.3875
1164.27079	25198.4875
1167.88443	26512.5875
1171.49561	28066.3875
1175.10432	30085.4875
1178.71056	32405.7875
1182.31434	34603.4875
1185.91565	35963.0875
1189.51451	36194.0875
1193.11091	35673.1875
1196.70485	34583.3875
1200.29634	33117.0875
1203.88538	31988.2875
1207.47197	31196.9875
1211.05612	30662.2875
1214.63782	30063.2875
1218.21708	29313.8875
1221.79391	28588.6875
1225.36829	28023.1875
1228.94024	27521.3875
1232.50976	27001.3875
1236.07685	26572.2875
1239.6415	26396.6875
1243.20374	26415.6875
1246.76355	26575.0875
1250.32093	26925.6875
1253.8759	27513.6875
1257.42845	28223.8875
1260.97859	29026.8875
1264.52631	29682.0875
1268.07163	30398.2875
1271.61453	31202.5875
1275.15503	32147.1875
1278.69312	33126.7875
1282.22882	34203.7875
1285.76211	35260.5875
1289.29301	36554.7875
1292.82151	38232.5875
1296.34761	40364.5875
1299.87133	42813.1875
1303.39266	45261.7875
1306.9116	47574.3875
1310.42815	49477.0875
1313.94233	50593.0875
1317.45412	50678.8875
1320.96354	50323.6875
1324.47058	50131.7875
1327.97525	49944.9875
1331.47754	49856.9875
1334.97747	49786.1875
1338.47502	49694.1875
1341.97022	49547.1875
1345.46305	48974.2875
1348.95352	47959.6875
1352.44163	46785.8875
1355.92738	46037.5875
1359.41078	46213.4875
1362.89183	46715.5875
1366.37053	45727.5875
1369.84688	42617.9875
1373.32088	39085.2875
1376.79254	36676.6875
1380.26186	35842.2875
1383.72883	36100.4875
1387.19347	36528.2875
1390.65578	36734.2875
1394.11575	36920.4875
1397.57339	37400.0875
1401.0287	38067.4875
1404.48168	38482.8875
1407.93234	38294.9875
1411.38068	37328.5875
1414.82669	35670.3875
1418.27039	33758.6875
1421.71177	31975.6875
1425.15083	30572.6875
1428.58758	29768.1875
1432.02203	29709.5875
1435.45416	30371.5875
1438.88399	31357.2875
1442.31151	32361.3875
1445.73673	33116.2875
1449.15965	33852.6875
1452.58027	34556.2875
1455.9986	35065.8875
1459.41463	35533.6875
1462.82837	36037.9875
1466.23982	36426.4875
1469.64898	36673.1875
1473.05586	36706.5875
1476.46045	36417.0875
1479.86276	35967.2875
1483.26279	35337.3875
1486.66054	34943.6875
1490.05602	34803.9875
1493.44922	34916.4875
1496.84016	35214.7875
1500.22882	35819.6875
1503.61521	36826.8875
1506.99934	38106.4875
1510.38121	39211.2875
1513.76081	39673.6875
1517.13816	39240.4875
1520.51324	38282.9875
1523.88607	37452.9875
1527.25665	37096.0875
1530.62498	36980.5875
1533.99105	36911.0875
1537.35488	36668.8875
1540.71647	36102.5875
1544.07581	35291.0875
1547.4329	34277.1875
1550.78776	33439.1875
1554.14038	32866.0875
1557.49077	32624.7875
1560.83892	32530.0875
1564.18484	32512.1875
1567.52853	32645.8875
1570.86999	32874.6875
1574.20922	33503.6875
1577.54624	34116.8875
1580.88103	34496.3875
1584.2136	34885.3875
1587.54395	35753.0875
1590.87208	37144.0875
1594.19801	38868.0875
1597.52172	40366.7875
1600.84321	40623.4875
1604.16251	38936.1875
1607.47959	36111.9875
1610.79447	33219.0875
1614.10715	30421.0875
1617.41763	28102.9875
1620.7259	26402.2875
1624.03199	25403.0875
1627.33587	25186.7875
1630.63757	25816.7875
1633.93707	27390.6875
1637.23439	30011.9875
1640.52951	33622.9875
1643.82246	37735.6875
1647.11321	41051.8875
1650.40179	41815.7875
1653.68819	39427.7875
1656.97241	34870.4875
1660.25446	29918.5875
1663.53433	26000.2875
1666.81203	23260.7875
1670.08756	21450.3875
1673.36092	20303.3875
1676.63211	19583.6875
1679.90115	19043.5875
1683.16801	18676.9875
1686.43272	18351.4875
1689.69527	18169.4875
1692.95567	17974.4875
1696.2139	17877.0875
1699.46999	17769.3875
1702.72392	17672.7875
1705.97571	17568.9875
1709.22535	17502.4875
1712.47284	17473.3875
1715.71819	17429.8875
1718.96139	17360.9875
1722.20246	17276.5875
1725.44139	17175.9875
1728.67818	17068.6875
1731.91284	16945.4875
1735.14537	16866.7875
1738.37576	16784.8875
1741.60403	16752.6875
1744.83017	16665.0875
1748.05418	16644.6875
1751.27607	16611.0875
1754.49584	16583.1875
1757.71349	16579.7875
1760.92903	16582.6875
1764.14244	16548.3875
1767.35375	16487.0875
1770.56294	16446.5875
1773.77002	16378.1875
1776.97499	16305.0875
1780.17785	16263.8875
1783.37861	16216.4875
1786.57727	16245.4875
1789.77382	16172.7875
1792.96828	16147.4875
1796.16064	16119.9875
1799.3509	16069.2875
1802.53907	16019.4875
1805.72514	15976.8875
1808.90913	15937.3875
1812.09102	15885.9875
1815.27083	15855.0875
1818.44856	15840.9875
1821.6242	15775.0875
1824.79776	15753.7875
1827.96924	15724.4875
1831.13864	15748.8875
1834.30597	15730.7875
1837.47122	15698.9875
1840.6344	15688.2875
1843.7955	15669.5875
1846.95454	15683.6875
1850.11151	15680.6875
1853.26642	15654.3875
1856.41926	15646.5875
1859.57004	15671.7875
1862.71876	15646.1875
1865.86542	15607.7875
1869.01003	15574.4875
1872.15258	15574.5875
1875.29308	15522.4875
1878.43152	15504.0875
1881.56792	15505.4875
1884.70227	15468.4875
1887.83457	15463.2875
1890.96482	15430.2875
1894.09304	15409.3875
1897.21921	15380.4875
1900.34335	15379.4875
1903.46544	15393.2875
1906.58551	15361.6875
1909.70353	15332.3875
1912.81953	15320.6875
1915.93349	15280.8875
1919.04543	15255.1875
1922.15534	15194.6875
1925.26322	15147.0875
1928.36908	15103.7875
1931.47292	15096.8875
1934.57473	15071.7875
1937.67453	15015.6875
1940.77232	15007.2875
1943.86808	14957.9875
1946.96184	14885.3875
1950.05358	14838.3875
1953.14331	14810.7875
1956.23103	14787.5875
1959.31675	14713.7875
1962.40046	14678.5875
1965.48217	14658.0875
1968.56188	14571.8875
1971.63959	14522.8875
1974.7153	14449.9875
1977.78901	14426.8875
1980.86073	14364.6875
1983.93046	14347.6875
1986.99819	14296.1875
1990.06394	14257.5875
1993.1277	14226.6875
1996.18947	14135.4875
1999.24925	14110.0875
2002.30706	14083.5875
2005.36288	14031.5875
2008.41672	13996.2875
2011.46859	13951.3875
2014.51848	13912.0875
2017.56639	13867.8875
2020.61233	13825.8875
2023.6563	13781.5875
2026.6983	13758.0875
2029.73833	13730.6875
2032.7764	13695.3875
2035.8125	13696.6875
2038.84664	13633.3875
2041.87881	13639.5875
2044.90903	13610.3875
2047.93729	13578.2875
2050.96359	13581.7875
2053.98794	13534.1875
2057.01034	13540.0875
2060.03078	13521.2875
2063.04927	13516.8875
2066.06582	13507.9875
2069.08042	13510.3875
2072.09307	13476.6875
2075.10378	13483.7875
2078.11255	13441.9875
2081.11938	13444.9875
2084.12426	13425.6875
2087.12722	13444.6875
2090.12824	13386.7875
2093.12732	13425.7875
2096.12447	13392.8875
2099.11969	13410.0875
2102.11299	13417.4875
2105.10435	13405.9875
2108.09379	13407.1875
2111.08131	13400.3875
2114.0669	13422.1875
2117.05057	13448.5875
2120.03233	13453.1875
2123.01216	13436.3875
2125.99008	13453.5875
2128.96609	13431.7875
2131.94018	13456.1875
2134.91236	13447.0875
2137.88263	13479.3875
2140.851	13497.9875
2143.81746	13533.7875
2146.78201	13493.2875
2149.74466	13497.4875
2152.7054	13471.0875
2155.66425	13451.4875
2158.6212	13450.7875
2161.57625	13415.4875
2164.52941	13435.4875
2167.48067	13423.5875
2170.43004	13436.6875
2173.37752	13390.4875
2176.32311	13400.1875
2179.26681	13413.9875
2182.20863	13413.0875
2185.14856	13398.2875
2188.08661	13380.5875
2191.02278	13415.1875
2193.95707	13424.4875
2196.88948	13392.0875
2199.82001	13354.2875
2202.74867	13366.3875
2205.67545	13366.7875
2208.60037	13316.2875
2211.52341	13334.0875
2214.44458	13322.3875
2217.36388	13298.8875
2220.28132	13203.2875
2223.1969	13247.0875
2226.11061	13194.4875
2229.02246	13178.2875
2231.93245	13146.3875
2234.84058	13111.2875
2237.74686	13026.6875
2240.65128	13069.7875
2243.55385	13028.6875
2246.45456	13041.5875
2249.35343	13001.2875
2252.25044	12965.5875
2255.14561	12946.1875
2258.03893	12941.5875
2260.93041	12916.2875
2263.82004	12851.4875
2266.70783	12854.9875
2269.59378	12770.0875
2272.4779	12761.1875
2275.36017	12707.7875
2278.24061	12687.2875
2281.11922	12658.2875
2283.996	12686.3875
2286.87094	12648.6875
2289.74405	12645.0875
2292.61534	12602.5875
2295.4848	12598.9875
2298.35243	12588.1875
2301.21824	12583.4875
2304.08223	12573.5875
2306.94439	12589.3875
2309.80474	12583.2875
2312.66327	12606.4875
2315.51999	12598.3875
2318.37489	12568.9875
2321.22797	12527.8875
2324.07925	12519.7875
2326.92871	12475.8875
2329.77637	12521.1875
2332.62222	12462.5875
2335.46626	12454.9875
2338.3085	12464.1875
2341.14893	12457.2875
2343.98756	12459.3875
2346.8244	12498.9875
2349.65943	12469.9875
2352.49267	12437.1875
2355.32411	12474.0875
2358.15376	12441.4875
2360.98161	12415.7875
2363.80768	12413.6875
2366.63195	12418.8875
2369.45444	12392.8875
2372.27514	12394.8875
2375.09405	12365.6875
2377.91118	12335.5875
2380.72652	12278.9875
2383.54009	12278.9875
2386.35187	12267.7875
2389.16188	12218.4875
2391.97011	12209.1875
2394.77657	12155.3875
2397.58125	12153.0875
2400.38416	12129.1875
2403.18529	12126.8875
2405.98466	12097.6875
2408.78226	12067.9875
2411.57809	12060.9875
2414.37216	12047.9875
2417.16446	12034.3875
2419.955	12009.9875
2422.74378	12025.7875
2425.5308	11966.2875
2428.31606	11972.0875
2431.09956	11990.0875
2433.88131	11974.9875
2436.6613	11987.9875
2439.43954	11995.3875
2442.21603	11951.3875
2444.99077	11926.5875
2447.76377	11950.3875
2450.53501	11911.2875
2453.30451	11943.7875
2456.07226	11926.3875
2458.83827	11903.6875
2461.60254	11907.5875
2464.36507	11880.2875
2467.12586	11881.5875
2469.88492	11888.9875
2472.64224	11918.6875
2475.39782	11919.5875
2478.15167	11916.8875
2480.90379	11874.0875
2483.65417	11897.9875
2486.40283	11914.4875
2489.14976	11944.3875
2491.89497	11932.2875
2494.63845	11974.3875
2497.3802	11931.2875
2500.12024	11947.7875
2502.85855	11946.0875
2505.59514	11923.2875
2508.33002	11905.8875
2511.06318	11869.1875
2513.79462	11869.0875
2516.52435	11848.2875
2519.25237	11859.3875
2521.97867	11832.6875
2524.70327	11837.9875
2527.42616	11829.0875
2530.14734	11821.7875
2532.86681	11792.6875
2535.58458	11808.5875
2538.30065	11797.3875
2541.01501	11786.6875
2543.72768	11775.0875
2546.43864	11765.7875
2549.14791	11736.1875
2551.85548	11727.2875
2554.56136	11738.1875
2557.26554	11706.8875
2559.96803	11702.0875
2562.66883	11664.2875
2565.36794	11661.5875
2568.06536	11625.1875
2570.7611	11621.1875
2573.45514	11626.2875
2576.14751	11595.9875
2578.83819	11581.3875
2581.52719	11602.1875
2584.21451	11588.0875
2586.90015	11587.5875
2589.58411	11593.3875
2592.2664	11586.0875
2594.94701	11561.6875
2597.62594	11566.6875
2600.30321	11547.5875
2602.9788	11545.9875
2605.65273	11525.1875
2608.32498	11527.6875
2610.99557	11522.5875
2613.66449	11522.1875
2616.33175	11548.0875
2618.99734	11537.4875
2621.66128	11538.6875
2624.32355	11505.0875
2626.98416	11504.5875
2629.64311	11487.9875
2632.30041	11500.6875
2634.95605	11493.2875
2637.61004	11505.2875
2640.26238	11482.4875
2642.91306	11483.0875
2645.56209	11444.1875
2648.20948	11460.8875
2650.85521	11482.8875
2653.4993	11457.1875
2656.14175	11464.0875
2658.78255	11466.0875
2661.42171	11479.9875
2664.05923	11492.0875
2666.6951	11487.4875
2669.32934	11498.3875
2671.96194	11508.9875
2674.59291	11509.5875
2677.22224	11512.6875
2679.84993	11494.0875
2682.476	11496.8875
2685.10043	11484.4875
2687.72324	11449.6875
2690.34441	11435.4875
2692.96396	11430.4875
2695.58188	11439.8875
2698.19818	11439.5875
2700.81285	11470.7875
2703.4259	11479.8875
2706.03733	11550.0875
2708.64714	11506.8875
2711.25533	11510.7875
2713.86191	11503.4875
2716.46687	11519.3875
2719.07021	11494.4875
2721.67194	11517.7875
2724.27206	11521.4875
2726.87057	11534.8875
2729.46747	11514.7875
2732.06276	11521.0875
2734.65644	11517.8875
2737.24852	11507.7875
2739.83899	11487.2875
2742.42786	11514.7875
2745.01513	11489.5875
2747.60079	11482.5875
2750.18486	11473.8875
2752.76733	11453.2875
2755.3482	11452.0875
2757.92747	11439.4875
2760.50515	11453.4875
2763.08123	11467.5875
2765.65573	11454.7875
2768.22863	11456.0875
2770.79994	11436.5875
2773.36967	11456.7875
2775.9378	11449.0875
2778.50435	11441.5875
2781.06932	11438.7875
2783.6327	11457.7875
2786.1945	11459.4875
2788.75471	11473.1875
2791.31335	11453.6875
2793.87041	11423.7875
2796.42589	11384.5875
2798.97979	11385.5875
2801.53212	11360.1875
2804.08288	11333.4875
2806.63206	11294.4875
2809.17967	11262.9875
2811.72571	11264.0875
2814.27018	11249.4875
2816.81308	11231.4875
2819.35442	11208.9875
2821.89419	11181.2875
2824.43239	11204.2875
2826.96904	11183.9875
2829.50412	11192.8875
2832.03763	11101.8875
2834.56959	11138.7875
2837.1	11141.9875
2839.62884	11138.6875
2842.15613	11150.5875
2844.68186	11200.4875
2847.20604	11197.4875
2849.72867	11202.7875
2852.24974	11195.2875
2854.76927	11204.2875
2857.28724	11197.3875
2859.80367	11176.1875
2862.31855	11157.4875
2864.83189	11134.1875
2867.34368	11120.2875
2869.85393	11125.3875
2872.36264	11123.7875
2874.8698	11099.8875
2877.37543	11098.0875
2879.87952	11093.5875
2882.38207	11099.3875
2884.88308	11096.9875
2887.38256	11095.7875
2889.88051	11082.7875
2892.37692	11114.2875
2894.8718	11098.5875
2897.36515	11097.7875
2899.85698	11118.9875
2902.34727	11152.7875
2904.83604	11179.3875
2907.32328	11193.1875
2909.809	11181.0875
2912.29319	11194.5875
2914.77587	11207.9875
2917.25702	11208.4875
2919.73665	11204.8875
2922.21476	11169.7875
2924.69136	11192.5875
2927.16644	11171.1875
2929.64	11171.5875
2932.11205	11125.6875
2934.58258	11116.9875
2937.05161	11136.9875
2939.51912	11126.2875
2941.98513	11113.1875
2944.44962	11108.4875
2946.91261	11040.8875
2949.37409	11054.5875
2951.83407	11032.4875
2954.29254	10995.3875
2956.74951	11007.7875
2959.20498	10987.0875
2961.65895	10997.5875
2964.11142	10961.7875
2966.56239	10944.1875
2969.01186	10941.3875
2971.45984	10902.7875
2973.90632	10915.6875
2976.35131	10894.7875
2978.7948	10840.5875
2981.23681	10824.4875
2983.67732	10823.3875
2986.11635	10791.1875
2988.55388	10748.4875
2990.98993	10726.7875
2993.4245	10700.5875
2995.85758	10669.7875
2998.28917	10632.4875
3000.71928	10626.6875
3003.14791	10587.0875
3005.57506	10579.4875
3008.00073	10529.0875
3010.42493	10447.8875
3012.84764	10532.2875
3015.26888	10518.7875
3017.68865	10462.6875
3020.10694	10453.7875
3022.52376	10433.6875
3024.9391	10447.0875
