Data from AgNPs_FTO_APTES_UA_5uM_CRN_5uM_R6G_10uM_NaF_0.1M_Addition_RamanShift__8__11-54-06-678.txt Node

Date: Mon Feb 07 11:54:06 GMT 2022
User: TCL
Spectrometer: QEP01345
Trigger mode: 4
Integration Time (sec): 7.000000E0
Scans to average: 10
Electric dark correction enabled: true
Nonlinearity correction enabled: false
Boxcar width: 0
XAxis mode: Raman Shifts
Number of Pixels in Spectrum: 1044
>>>>>Begin Spectral Data<<<<<
46.04893	-1.1875
50.45542	-1.3875
54.85868	-0.8875
59.25871	-0.0875
63.6555	105.8125
68.04907	106.7125
72.43941	116.9125
76.82654	117.7125
81.21044	119.6125
85.59113	128.9125
89.96862	133.7125
94.34289	137.9125
98.71396	138.0125
103.08183	145.0125
107.4465	150.2125
111.80798	155.6125
116.16626	156.4125
120.52136	166.2125
124.87327	177.8125
129.222	189.6125
133.56755	199.0125
137.90993	219.8125
142.24913	241.1125
146.58517	278.4125
150.91804	326.6125
155.24774	389.6125
159.57429	500.4125
163.89768	638.8125
168.21792	862.1125
172.53501	1172.1125
176.84895	1631.6125
181.15975	2298.9125
185.46741	3235.7125
189.77193	4467.2125
194.07331	5950.3125
198.37157	7668.2125
202.6667	9452.3125
206.9587	11228.1125
211.24758	12964.1125
215.53334	14689.7125
219.81599	16552.6125
224.09553	18594.6125
228.37195	20834.3125
232.64527	23267.3125
236.91549	25847.5125
241.18261	28366.9125
245.44663	30748.3125
249.70755	32942.1125
253.96539	34841.3125
258.22014	36354.3125
262.4718	37597.0125
266.72039	38480.2125
270.96589	38924.4125
275.20832	39036.4125
279.44768	38926.6125
283.68397	38658.8125
287.91719	38456.0125
292.14735	38367.1125
296.37445	38384.9125
300.59849	38526.1125
304.81948	38681.6125
309.03742	38700.4125
313.25231	38438.8125
317.46415	37773.4125
321.67296	36851.9125
325.87872	36047.7125
330.08145	35546.3125
334.28114	35454.4125
338.47781	35586.6125
342.67145	35953.2125
346.86207	36435.5125
351.04966	37053.8125
355.23424	37599.5125
359.4158	38144.9125
363.59435	38592.3125
367.76989	38825.0125
371.94243	38971.0125
376.11196	38968.6125
380.27849	38966.4125
384.44203	38996.0125
388.60257	39352.6125
392.76012	39887.1125
396.91468	40521.8125
401.06626	41252.2125
405.21485	41754.4125
409.36047	41552.9125
413.50311	41135.7125
417.64277	41128.9125
421.77947	41468.4125
425.9132	41865.6125
430.04396	42072.6125
434.17176	42151.2125
438.2966	42190.1125
442.41849	42603.5125
446.53742	43623.9125
450.6534	44833.0125
454.76644	45707.2125
458.87653	46083.6125
462.98368	45950.2125
467.08789	45396.8125
471.18916	44653.6125
475.2875	44035.4125
479.38291	43715.0125
483.4754	43640.0125
487.56496	43245.9125
491.6516	42482.2125
495.73531	41599.1125
499.81612	41090.0125
503.89401	41167.5125
507.96899	41426.1125
512.04106	41442.7125
516.11023	41143.4125
520.1765	40406.2125
524.23987	39630.1125
528.30034	38919.5125
532.35792	38409.3125
536.41261	37919.3125
540.46441	37532.1125
544.51333	37539.6125
548.55936	38069.4125
552.60252	39003.7125
556.64279	40154.6125
560.6802	41121.6125
564.71473	41990.2125
568.7464	43209.6125
572.7752	45279.1125
576.80114	47888.2125
580.82422	50424.7125
584.84444	53038.2125
588.86181	56136.0125
592.87633	58663.5125
596.888	57542.6125
600.89682	53371.2125
604.9028	50764.4125
608.90594	51643.5125
612.90624	52987.0125
616.90371	49064.4125
620.89834	41969.8125
624.89015	39102.4125
628.87913	38986.5125
632.86528	39534.3125
636.84862	39350.2125
640.82913	38386.1125
644.80683	37235.9125
648.78172	36558.5125
652.75379	36499.9125
656.72306	36927.8125
660.68952	37332.8125
664.65319	37077.1125
668.61405	36435.3125
672.57211	36330.9125
676.52738	36531.0125
680.47986	36421.4125
684.42955	36088.7125
688.37646	35932.6125
692.32058	36186.2125
696.26192	36891.8125
700.20048	37534.0125
704.13626	37972.9125
708.06928	38238.3125
711.99952	38167.4125
715.927	38161.2125
719.85171	38171.1125
723.77365	37830.8125
727.69284	37009.4125
731.60928	36292.3125
735.52295	35904.6125
739.43388	35853.7125
743.34206	35967.6125
747.24749	36309.2125
751.15017	36916.1125
755.05012	37769.5125
758.94733	39110.0125
762.8418	41160.6125
766.73354	43993.2125
770.62254	46233.1125
774.50882	45929.2125
778.39237	43433.7125
782.27321	40394.3125
786.15132	38249.8125
790.02671	36787.8125
793.89938	36006.5125
797.76935	35649.8125
801.6366	35543.3125
805.50115	35506.4125
809.36299	35358.9125
813.22213	35096.7125
817.07857	34915.1125
820.93231	34766.2125
824.78336	34391.2125
828.63172	34128.1125
832.47738	33924.7125
836.32036	33834.6125
840.16066	33880.2125
843.99827	33967.6125
847.8332	33857.9125
851.66546	33924.3125
855.49504	34018.8125
859.32195	33982.7125
863.1462	33884.1125
866.96777	33730.5125
870.78668	33708.2125
874.60293	33677.3125
878.41652	33620.0125
882.22745	33741.8125
886.03573	33859.9125
889.84136	33810.4125
893.64433	33657.1125
897.44466	33557.7125
901.24235	33580.9125
905.0374	33427.0125
908.8298	33381.2125
912.61957	33550.5125
916.40671	34040.2125
920.19121	34857.0125
923.97308	35510.7125
927.75233	35383.2125
931.52895	34684.1125
935.30295	33757.6125
939.07433	32866.8125
942.84309	32328.4125
946.60924	32086.2125
950.37278	31960.9125
954.13371	31962.2125
957.89203	32027.6125
961.64774	32070.0125
965.40086	32126.0125
969.15137	32048.2125
972.89929	31778.5125
976.64461	31607.5125
980.38733	31509.2125
984.12747	31477.8125
987.86502	31605.2125
991.59999	31800.6125
995.33237	32102.5125
999.06217	32645.2125
1002.78939	33405.0125
1006.51404	34243.4125
1010.23611	35079.3125
1013.95561	35610.5125
1017.67255	35647.4125
1021.38692	35142.5125
1025.09872	34313.8125
1028.80796	33769.5125
1032.51465	33637.1125
1036.21877	33820.5125
1039.92035	34051.8125
1043.61937	34164.1125
1047.31584	34239.9125
1051.00976	34208.1125
1054.70114	34333.3125
1058.38998	34653.0125
1062.07627	35223.9125
1065.76003	35852.0125
1069.44126	36576.5125
1073.11995	37447.1125
1076.79611	38040.2125
1080.46974	38264.8125
1084.14085	38509.6125
1087.80943	39025.5125
1091.47549	39636.6125
1095.13903	39946.1125
1098.80005	39387.0125
1102.45857	38026.9125
1106.11456	36815.6125
1109.76805	36207.1125
1113.41903	35993.2125
1117.06751	36142.6125
1120.71348	36490.8125
1124.35696	36862.4125
1127.99793	37343.7125
1131.63641	37703.1125
1135.2724	37851.5125
1138.90589	38032.5125
1142.5369	38410.9125
1146.16542	39004.1125
1149.79145	39691.5125
1153.415	40469.5125
1157.03607	41451.1125
1160.65467	43213.6125
1164.27079	45986.6125
1167.88443	49024.9125
1171.49561	51877.4125
1175.10432	54937.2125
1178.71056	58765.1125
1182.31434	62424.0125
1185.91565	64211.2125
1189.51451	64012.3125
1193.11091	62517.0125
1196.70485	60596.5125
1200.29634	58469.8125
1203.88538	57339.1125
1207.47197	57444.4125
1211.05612	57761.8125
1214.63782	57015.4125
1218.21708	54826.2125
1221.79391	52168.1125
1225.36829	50056.6125
1228.94024	48771.5125
1232.50976	47742.9125
1236.07685	47003.7125
1239.6415	46488.9125
1243.20374	46353.5125
1246.76355	46789.5125
1250.32093	47646.1125
1253.8759	48901.0125
1257.42845	50486.2125
1260.97859	52359.2125
1264.52631	54247.2125
1268.07163	56144.9125
1271.61453	58095.7125
1275.15503	60150.6125
1278.69312	62612.5125
1282.22882	65366.3125
1285.76211	68634.9125
1289.29301	72441.0125
1292.82151	76812.4125
1296.34761	81988.8125
1299.87133	87903.4125
1303.39266	93435.0125
1306.9116	97571.5125
1310.42815	99645.0125
1313.94233	99957.8125
1317.45412	98815.3125
1320.96354	97535.7125
1324.47058	97167.0125
1327.97525	97509.1125
1331.47754	97758.3125
1334.97747	97218.4125
1338.47502	95987.7125
1341.97022	94256.2125
1345.46305	92108.7125
1348.95352	89793.0125
1352.44163	88096.1125
1355.92738	87956.2125
1359.41078	89908.7125
1362.89183	91823.6125
1366.37053	90870.4125
1369.84688	85123.8125
1373.32088	76397.3125
1376.79254	69901.6125
1380.26186	67971.7125
1383.72883	68925.3125
1387.19347	69869.5125
1390.65578	69641.4125
1394.11575	69427.9125
1397.57339	70481.4125
1401.0287	72250.8125
1404.48168	73642.0125
1407.93234	73451.1125
1411.38068	71126.7125
1414.82669	67419.6125
1418.27039	63265.4125
1421.71177	59529.8125
1425.15083	56781.9125
1428.58758	55782.9125
1432.02203	56670.9125
1435.45416	59034.6125
1438.88399	61598.5125
1442.31151	63576.5125
1445.73673	64706.5125
1449.15965	65317.9125
1452.58027	65572.0125
1455.9986	65444.9125
1459.41463	65877.7125
1462.82837	66878.0125
1466.23982	68214.2125
1469.64898	69195.1125
1473.05586	69620.7125
1476.46045	69247.1125
1479.86276	68396.3125
1483.26279	67361.2125
1486.66054	66784.7125
1490.05602	66842.4125
1493.44922	67468.7125
1496.84016	68115.4125
1500.22882	68896.6125
1503.61521	69783.2125
1506.99934	70929.3125
1510.38121	71812.0125
1513.76081	72061.2125
1517.13816	71712.7125
1520.51324	71672.4125
1523.88607	72205.7125
1527.25665	73284.3125
1530.62498	74029.7125
1533.99105	73781.1125
1537.35488	72326.5125
1540.71647	69833.0125
1544.07581	66802.4125
1547.4329	63805.7125
1550.78776	61519.1125
1554.14038	59854.9125
1557.49077	58903.2125
1560.83892	58238.0125
1564.18484	57790.0125
1567.52853	57702.1125
1570.86999	58319.6125
1574.20922	59902.2125
1577.54624	61756.4125
1580.88103	63088.6125
1584.2136	65068.3125
1587.54395	68473.0125
1590.87208	73166.5125
1594.19801	78205.1125
1597.52172	81954.0125
1600.84321	81543.4125
1604.16251	75988.4125
1607.47959	68075.1125
1610.79447	60697.4125
1614.10715	54333.2125
1617.41763	49381.4125
1620.7259	46059.6125
1624.03199	44560.7125
1627.33587	44786.2125
1630.63757	46739.4125
1633.93707	51163.6125
1637.23439	58581.9125
1640.52951	69284.8125
1643.82246	81666.4125
1647.11321	91065.8125
1650.40179	91752.1125
1653.68819	82743.4125
1656.97241	68995.6125
1660.25446	56262.9125
1663.53433	46895.6125
1666.81203	40936.2125
1670.08756	37129.2125
1673.36092	34820.3125
1676.63211	33382.9125
1679.90115	32332.0125
1683.16801	31524.7125
1686.43272	30972.0125
1689.69527	30525.5125
1692.95567	30168.3125
1696.2139	29926.8125
1699.46999	29734.7125
1702.72392	29554.2125
1705.97571	29405.3125
1709.22535	29320.5125
1712.47284	29205.6125
1715.71819	29157.8125
1718.96139	28988.4125
1722.20246	28821.2125
1725.44139	28680.8125
1728.67818	28440.1125
1731.91284	28223.6125
1735.14537	28010.3125
1738.37576	27830.7125
1741.60403	27686.9125
1744.83017	27525.5125
1748.05418	27424.4125
1751.27607	27319.2125
1754.49584	27265.1125
1757.71349	27198.5125
1760.92903	27167.8125
1764.14244	27125.2125
1767.35375	27084.0125
1770.56294	27018.9125
1773.77002	26852.7125
1776.97499	26836.7125
1780.17785	26756.2125
1783.37861	26715.6125
1786.57727	26652.0125
1789.77382	26578.8125
1792.96828	26535.6125
1796.16064	26401.1125
1799.3509	26382.3125
1802.53907	26288.3125
1805.72514	26195.2125
1808.90913	26121.8125
1812.09102	26031.7125
1815.27083	26002.6125
1818.44856	25924.7125
1821.6242	25896.8125
1824.79776	25874.7125
1827.96924	25821.7125
1831.13864	25822.4125
1834.30597	25847.2125
1837.47122	25851.0125
1840.6344	25797.2125
1843.7955	25833.0125
1846.95454	25846.7125
1850.11151	25857.1125
1853.26642	25807.4125
1856.41926	25762.9125
1859.57004	25783.5125
1862.71876	25677.3125
1865.86542	25633.0125
1869.01003	25562.7125
1872.15258	25458.1125
1875.29308	25439.4125
1878.43152	25400.2125
1881.56792	25375.5125
1884.70227	25343.8125
1887.83457	25301.1125
1890.96482	25240.0125
1894.09304	25216.6125
1897.21921	25181.4125
1900.34335	25127.6125
1903.46544	25104.0125
1906.58551	25061.2125
1909.70353	24987.0125
1912.81953	24893.7125
1915.93349	24809.5125
1919.04543	24753.4125
1922.15534	24701.4125
1925.26322	24660.1125
1928.36908	24542.3125
1931.47292	24488.3125
1934.57473	24379.8125
1937.67453	24263.4125
1940.77232	24214.0125
1943.86808	24143.3125
1946.96184	24051.2125
1950.05358	24046.1125
1953.14331	23976.1125
1956.23103	23905.0125
1959.31675	23788.2125
1962.40046	23723.5125
1965.48217	23612.3125
1968.56188	23524.0125
1971.63959	23486.2125
1974.7153	23361.2125
1977.78901	23275.6125
1980.86073	23213.4125
1983.93046	23096.3125
1986.99819	23053.6125
1990.06394	22950.4125
1993.1277	22933.5125
1996.18947	22871.3125
1999.24925	22770.0125
2002.30706	22676.6125
2005.36288	22585.8125
2008.41672	22524.5125
2011.46859	22454.4125
2014.51848	22416.8125
2017.56639	22337.8125
2020.61233	22282.7125
2023.6563	22213.6125
2026.6983	22120.6125
2029.73833	22087.2125
2032.7764	22028.5125
2035.8125	22009.9125
2038.84664	21935.2125
2041.87881	21939.0125
2044.90903	21866.3125
2047.93729	21788.1125
2050.96359	21756.0125
2053.98794	21731.1125
2057.01034	21698.3125
2060.03078	21752.3125
2063.04927	21690.0125
2066.06582	21684.9125
2069.08042	21686.6125
2072.09307	21628.6125
2075.10378	21605.9125
2078.11255	21579.2125
2081.11938	21555.6125
2084.12426	21550.8125
2087.12722	21530.9125
2090.12824	21515.5125
2093.12732	21500.0125
2096.12447	21484.0125
2099.11969	21488.4125
2102.11299	21489.6125
2105.10435	21503.4125
2108.09379	21477.7125
2111.08131	21459.2125
2114.0669	21502.1125
2117.05057	21478.7125
2120.03233	21510.3125
2123.01216	21477.0125
2125.99008	21509.9125
2128.96609	21459.1125
2131.94018	21467.1125
2134.91236	21466.1125
2137.88263	21461.7125
2140.851	21482.7125
2143.81746	21494.9125
2146.78201	21400.1125
2149.74466	21417.0125
2152.7054	21385.3125
2155.66425	21346.5125
2158.6212	21346.7125
2161.57625	21316.6125
2164.52941	21348.1125
2167.48067	21287.9125
2170.43004	21345.8125
2173.37752	21314.9125
2176.32311	21269.6125
2179.26681	21261.0125
2182.20863	21271.2125
2185.14856	21283.6125
2188.08661	21270.9125
2191.02278	21301.0125
2193.95707	21305.4125
2196.88948	21205.0125
2199.82001	21168.7125
2202.74867	21117.4125
2205.67545	21091.8125
2208.60037	21028.2125
2211.52341	21002.5125
2214.44458	20986.8125
2217.36388	20945.7125
2220.28132	20891.2125
2223.1969	20858.7125
2226.11061	20812.3125
2229.02246	20819.7125
2231.93245	20790.4125
2234.84058	20780.4125
2237.74686	20747.6125
2240.65128	20705.8125
2243.55385	20646.1125
2246.45456	20579.3125
2249.35343	20555.3125
2252.25044	20493.9125
2255.14561	20428.2125
2258.03893	20364.2125
2260.93041	20268.6125
2263.82004	20246.8125
2266.70783	20158.7125
2269.59378	20101.7125
2272.4779	19977.5125
2275.36017	19982.2125
2278.24061	19929.6125
2281.11922	19906.2125
2283.996	19863.8125
2286.87094	19836.8125
2289.74405	19810.5125
2292.61534	19798.2125
2295.4848	19734.1125
2298.35243	19727.5125
2301.21824	19757.6125
2304.08223	19737.0125
2306.94439	19702.3125
2309.80474	19730.3125
2312.66327	19693.8125
2315.51999	19664.9125
2318.37489	19635.5125
2321.22797	19617.7125
2324.07925	19581.9125
2326.92871	19573.7125
2329.77637	19529.4125
2332.62222	19493.2125
2335.46626	19450.4125
2338.3085	19497.0125
2341.14893	19485.6125
2343.98756	19490.0125
2346.8244	19471.6125
2349.65943	19450.6125
2352.49267	19457.1125
2355.32411	19470.4125
2358.15376	19481.4125
2360.98161	19455.9125
2363.80768	19397.3125
2366.63195	19426.0125
2369.45444	19413.2125
2372.27514	19379.6125
2375.09405	19353.5125
2377.91118	19264.6125
2380.72652	19241.5125
2383.54009	19175.1125
2386.35187	19170.7125
2389.16188	19090.1125
2391.97011	19072.2125
2394.77657	19032.0125
2397.58125	19019.1125
2400.38416	18990.8125
2403.18529	18946.9125
2405.98466	18946.1125
2408.78226	18886.9125
2411.57809	18842.9125
2414.37216	18864.8125
2417.16446	18886.6125
2419.955	18837.4125
2422.74378	18784.5125
2425.5308	18801.2125
2428.31606	18774.7125
2431.09956	18748.0125
2433.88131	18743.8125
2436.6613	18736.1125
2439.43954	18718.7125
2442.21603	18731.1125
2444.99077	18703.8125
2447.76377	18725.8125
2450.53501	18700.5125
2453.30451	18664.3125
2456.07226	18618.4125
2458.83827	18648.9125
2461.60254	18677.5125
2464.36507	18654.8125
2467.12586	18640.4125
2469.88492	18607.1125
2472.64224	18640.9125
2475.39782	18669.8125
2478.15167	18699.4125
2480.90379	18640.2125
2483.65417	18652.2125
2486.40283	18645.3125
2489.14976	18655.6125
2491.89497	18650.1125
2494.63845	18674.4125
2497.3802	18624.7125
2500.12024	18702.6125
2502.85855	18644.7125
2505.59514	18629.1125
2508.33002	18625.3125
2511.06318	18609.1125
2513.79462	18605.0125
2516.52435	18593.7125
2519.25237	18602.2125
2521.97867	18610.8125
2524.70327	18547.4125
2527.42616	18559.0125
2530.14734	18552.3125
2532.86681	18535.4125
2535.58458	18555.9125
2538.30065	18540.3125
2541.01501	18554.3125
2543.72768	18497.7125
2546.43864	18485.8125
2549.14791	18463.2125
2551.85548	18471.1125
2554.56136	18419.2125
2557.26554	18417.3125
2559.96803	18413.2125
2562.66883	18401.8125
2565.36794	18366.9125
2568.06536	18318.2125
2570.7611	18312.1125
2573.45514	18336.0125
2576.14751	18317.0125
2578.83819	18281.7125
2581.52719	18305.9125
2584.21451	18276.1125
2586.90015	18294.3125
2589.58411	18284.2125
2592.2664	18287.8125
2594.94701	18255.3125
2597.62594	18234.6125
2600.30321	18228.9125
2602.9788	18239.0125
2605.65273	18227.5125
2608.32498	18261.8125
2610.99557	18263.0125
2613.66449	18245.5125
2616.33175	18263.5125
2618.99734	18276.6125
2621.66128	18236.2125
2624.32355	18211.5125
2626.98416	18208.5125
2629.64311	18191.9125
2632.30041	18204.6125
2634.95605	18153.3125
2637.61004	18136.6125
2640.26238	18143.5125
2642.91306	18141.0125
2645.56209	18125.6125
2648.20948	18172.1125
2650.85521	18235.7125
2653.4993	18233.8125
2656.14175	18198.4125
2658.78255	18243.0125
2661.42171	18251.7125
2664.05923	18257.3125
2666.6951	18275.0125
2669.32934	18322.5125
2671.96194	18314.9125
2674.59291	18263.8125
2677.22224	18329.5125
2679.84993	18332.1125
2682.476	18305.4125
2685.10043	18276.9125
2687.72324	18255.6125
2690.34441	18224.2125
2692.96396	18248.2125
2695.58188	18235.4125
2698.19818	18244.3125
2700.81285	18251.9125
2703.4259	18265.0125
2706.03733	18286.4125
2708.64714	18232.0125
2711.25533	18247.7125
2713.86191	18233.2125
2716.46687	18264.9125
2719.07021	18294.1125
2721.67194	18330.4125
2724.27206	18344.8125
2726.87057	18402.9125
2729.46747	18394.6125
2732.06276	18439.2125
2734.65644	18450.5125
2737.24852	18406.1125
2739.83899	18417.0125
2742.42786	18404.5125
2745.01513	18390.3125
2747.60079	18387.2125
2750.18486	18369.9125
2752.76733	18345.2125
2755.3482	18337.6125
2757.92747	18338.3125
2760.50515	18322.5125
2763.08123	18330.4125
2765.65573	18340.3125
2768.22863	18327.0125
2770.79994	18306.9125
2773.36967	18308.7125
2775.9378	18297.2125
2778.50435	18288.4125
2781.06932	18292.1125
2783.6327	18277.4125
2786.1945	18322.2125
2788.75471	18306.5125
2791.31335	18285.3125
2793.87041	18253.5125
2796.42589	18223.0125
2798.97979	18250.5125
2801.53212	18189.5125
2804.08288	18143.6125
2806.63206	18093.9125
2809.17967	18069.9125
2811.72571	18004.5125
2814.27018	18002.9125
2816.81308	17991.5125
2819.35442	17929.3125
2821.89419	17914.1125
2824.43239	17903.9125
2826.96904	17883.3125
2829.50412	17881.7125
2832.03763	17816.2125
2834.56959	17786.4125
2837.1	17760.5125
2839.62884	17745.7125
2842.15613	17722.9125
2844.68186	17811.2125
2847.20604	17768.4125
2849.72867	17796.7125
2852.24974	17776.6125
2854.76927	17770.4125
2857.28724	17798.8125
2859.80367	17752.7125
2862.31855	17689.3125
2864.83189	17689.0125
2867.34368	17656.7125
2869.85393	17640.1125
2872.36264	17578.9125
2874.8698	17551.0125
2877.37543	17544.1125
2879.87952	17559.3125
2882.38207	17572.4125
2884.88308	17532.5125
2887.38256	17528.8125
2889.88051	17526.1125
2892.37692	17521.2125
2894.8718	17539.0125
2897.36515	17518.8125
2899.85698	17558.2125
2902.34727	17618.1125
2904.83604	17635.9125
2907.32328	17661.5125
2909.809	17643.4125
2912.29319	17652.8125
2914.77587	17621.6125
2917.25702	17656.6125
2919.73665	17602.1125
2922.21476	17618.2125
2924.69136	17646.5125
2927.16644	17637.1125
2929.64	17566.6125
2932.11205	17533.7125
2934.58258	17482.6125
2937.05161	17507.0125
2939.51912	17486.4125
2941.98513	17480.5125
2944.44962	17452.6125
2946.91261	17358.8125
2949.37409	17417.0125
2951.83407	17349.8125
2954.29254	17316.1125
2956.74951	17286.4125
2959.20498	17267.6125
2961.65895	17254.1125
2964.11142	17223.4125
2966.56239	17169.8125
2969.01186	17162.1125
2971.45984	17151.0125
2973.90632	17146.0125
2976.35131	17039.8125
2978.7948	17046.4125
2981.23681	16965.9125
2983.67732	16957.0125
2986.11635	16897.5125
2988.55388	16828.6125
2990.98993	16758.3125
2993.4245	16682.3125
2995.85758	16637.3125
2998.28917	16599.0125
3000.71928	16582.6125
3003.14791	16543.7125
3005.57506	16497.6125
3008.00073	16439.9125
3010.42493	16404.6125
3012.84764	16364.6125
3015.26888	16320.0125
3017.68865	16284.1125
3020.10694	16252.5125
3022.52376	16221.2125
