Data from AgNPs_FTO_APTES_UA_5uM_CRN_100uM_R6G_10uM_NaF_0.1M_Addition_RamanShift__19__14-58-26-889.txt Node

Date: Mon Feb 07 14:58:26 GMT 2022
User: TCL
Spectrometer: QEP01345
Trigger mode: 4
Integration Time (sec): 7.000000E0
Scans to average: 10
Electric dark correction enabled: true
Nonlinearity correction enabled: false
Boxcar width: 0
XAxis mode: Raman Shifts
Number of Pixels in Spectrum: 1044
>>>>>Begin Spectral Data<<<<<
46.04893	0.275
50.45542	-1.325
54.85868	-1.225
59.25871	0.775
63.6555	59.275
68.04907	57.075
72.43941	63.975
76.82654	69.075
81.21044	69.675
85.59113	70.975
89.96862	75.275
94.34289	78.875
98.71396	78.475
103.08183	83.975
107.4465	83.675
111.80798	85.675
116.16626	87.275
120.52136	94.775
124.87327	101.375
129.222	101.475
133.56755	114.775
137.90993	125.275
142.24913	133.675
146.58517	155.375
150.91804	180.475
155.24774	223.775
159.57429	278.675
163.89768	363.475
168.21792	487.175
172.53501	658.275
176.84895	921.575
181.15975	1300.475
185.46741	1826.975
189.77193	2528.175
194.07331	3371.175
198.37157	4350.175
202.6667	5373.975
206.9587	6373.175
211.24758	7364.075
215.53334	8341.575
219.81599	9415.275
224.09553	10571.975
228.37195	11847.675
232.64527	13198.075
236.91549	14659.175
241.18261	16103.275
245.44663	17490.775
249.70755	18741.775
253.96539	19852.575
258.22014	20777.975
262.4718	21642.475
266.72039	22175.575
270.96589	22532.875
275.20832	22732.875
279.44768	22690.475
283.68397	22674.375
287.91719	22645.175
292.14735	22687.175
296.37445	22769.375
300.59849	22855.975
304.81948	22836.275
309.03742	22601.975
313.25231	22156.475
317.46415	21484.875
321.67296	20838.475
325.87872	20224.075
330.08145	19960.775
334.28114	19831.275
338.47781	19946.075
342.67145	20077.975
346.86207	20345.975
351.04966	20632.275
355.23424	20979.875
359.4158	21213.175
363.59435	21378.075
367.76989	21567.475
371.94243	21650.075
376.11196	21728.575
380.27849	21886.975
384.44203	21979.075
388.60257	22142.175
392.76012	22458.975
396.91468	22723.575
401.06626	23078.675
405.21485	23335.775
409.36047	23273.675
413.50311	22991.575
417.64277	22816.275
421.77947	22785.975
425.9132	22934.975
430.04396	23091.275
434.17176	23227.875
438.2966	23465.175
442.41849	23865.875
446.53742	24518.675
450.6534	25253.075
454.76644	25879.475
458.87653	26134.175
462.98368	26176.975
467.08789	26029.175
471.18916	25890.675
475.2875	25925.375
479.38291	26048.075
483.4754	26010.875
487.56496	25622.475
491.6516	24938.275
495.73531	24283.075
499.81612	23797.275
503.89401	23788.475
507.96899	23746.475
512.04106	23700.675
516.11023	23435.575
520.1765	23074.575
524.23987	22727.575
528.30034	22412.875
532.35792	22233.675
536.41261	22057.075
540.46441	21913.875
544.51333	22054.875
548.55936	22426.675
552.60252	23029.875
556.64279	23714.775
560.6802	24194.475
564.71473	24606.575
568.7464	25230.375
572.7752	26040.175
576.80114	26683.375
580.82422	27099.875
584.84444	27402.775
588.86181	27689.875
592.87633	27888.375
596.888	27825.275
600.89682	27671.975
604.9028	27965.275
608.90594	29133.575
612.90624	30070.375
616.90371	27916.275
620.89834	24100.775
624.89015	22578.475
628.87913	22576.575
632.86528	22816.975
636.84862	22836.875
640.82913	22489.775
644.80683	21926.575
648.78172	21385.875
652.75379	21198.875
656.72306	21284.375
660.68952	21457.275
664.65319	21346.975
668.61405	21085.775
672.57211	21046.875
676.52738	21068.675
680.47986	21100.675
684.42955	21040.375
688.37646	21003.975
692.32058	21014.575
696.26192	21175.575
700.20048	21402.575
704.13626	21592.775
708.06928	21644.775
711.99952	21600.975
715.927	21465.075
719.85171	21477.675
723.77365	21425.375
727.69284	21187.475
731.60928	21011.175
735.52295	20894.875
739.43388	20831.675
743.34206	20897.475
747.24749	20965.375
751.15017	21224.975
755.05012	21652.075
758.94733	22370.175
762.8418	23536.275
766.73354	25175.175
770.62254	26537.875
774.50882	26479.275
778.39237	25109.275
782.27321	23313.375
786.15132	21946.875
790.02671	21163.175
793.89938	20767.075
797.76935	20616.475
801.6366	20586.475
805.50115	20562.375
809.36299	20456.475
813.22213	20362.075
817.07857	20322.175
820.93231	20283.175
824.78336	20148.975
828.63172	20027.375
832.47738	19929.775
836.32036	19877.775
840.16066	19923.975
843.99827	19996.775
847.8332	19925.675
851.66546	19807.175
855.49504	19745.975
859.32195	19751.975
863.1462	19777.075
866.96777	19683.375
870.78668	19610.675
874.60293	19605.075
878.41652	19562.075
882.22745	19551.475
886.03573	19655.375
889.84136	19658.775
893.64433	19590.575
897.44466	19502.675
901.24235	19426.675
905.0374	19371.575
908.8298	19341.175
912.61957	19452.275
916.40671	19715.175
920.19121	20083.775
923.97308	20262.475
927.75233	20171.675
931.52895	19908.975
935.30295	19631.875
939.07433	19228.375
942.84309	18951.075
946.60924	18782.075
950.37278	18687.775
954.13371	18658.675
957.89203	18666.675
961.64774	18651.575
965.40086	18624.275
969.15137	18546.175
972.89929	18390.875
976.64461	18244.575
980.38733	18205.975
984.12747	18214.475
987.86502	18341.975
991.59999	18519.375
995.33237	18805.275
999.06217	19273.275
1002.78939	19801.675
1006.51404	20111.375
1010.23611	20271.875
1013.95561	20409.675
1017.67255	20454.375
1021.38692	20272.375
1025.09872	20041.875
1028.80796	20067.375
1032.51465	20422.775
1036.21877	20856.775
1039.92035	20949.875
1043.61937	20754.475
1047.31584	20472.775
1051.00976	20179.475
1054.70114	20132.975
1058.38998	20257.775
1062.07627	20489.875
1065.76003	20747.575
1069.44126	20914.275
1073.11995	21103.075
1076.79611	21285.475
1080.46974	21367.875
1084.14085	21443.275
1087.80943	21629.775
1091.47549	21884.475
1095.13903	22039.275
1098.80005	21856.475
1102.45857	21395.875
1106.11456	20934.675
1109.76805	20719.175
1113.41903	20762.175
1117.06751	20889.875
1120.71348	21077.975
1124.35696	21285.075
1127.99793	21559.475
1131.63641	21747.575
1135.2724	21713.575
1138.90589	21669.975
1142.5369	21738.775
1146.16542	21923.875
1149.79145	22236.775
1153.415	22699.075
1157.03607	23240.775
1160.65467	24105.475
1164.27079	25262.575
1167.88443	26770.775
1171.49561	28505.275
1175.10432	30606.975
1178.71056	33091.675
1182.31434	35370.375
1185.91565	36686.475
1189.51451	36915.675
1193.11091	36255.075
1196.70485	35127.375
1200.29634	33719.175
1203.88538	32642.275
1207.47197	32021.075
1211.05612	31554.575
1214.63782	30956.175
1218.21708	30082.175
1221.79391	29277.775
1225.36829	28602.075
1228.94024	28000.175
1232.50976	27317.075
1236.07685	26809.475
1239.6415	26608.875
1243.20374	26571.375
1246.76355	26773.675
1250.32093	27210.075
1253.8759	27830.375
1257.42845	28612.375
1260.97859	29478.375
1264.52631	30196.275
1268.07163	31031.575
1271.61453	31955.975
1275.15503	32985.775
1278.69312	34205.175
1282.22882	35510.175
1285.76211	36798.475
1289.29301	38272.775
1292.82151	40315.775
1296.34761	42926.575
1299.87133	45770.675
1303.39266	48577.075
1306.9116	51088.175
1310.42815	53163.775
1313.94233	54278.675
1317.45412	54380.375
1320.96354	54197.275
1324.47058	53965.975
1327.97525	53891.175
1331.47754	53711.275
1334.97747	53606.075
1338.47502	53271.175
1341.97022	52819.175
1345.46305	51826.175
1348.95352	50408.075
1352.44163	48761.675
1355.92738	47858.975
1359.41078	47970.475
1362.89183	48334.575
1366.37053	47298.475
1369.84688	44172.475
1373.32088	40578.675
1376.79254	38081.075
1380.26186	37359.275
1383.72883	37890.975
1387.19347	38546.975
1390.65578	38962.475
1394.11575	39297.375
1397.57339	40152.875
1401.0287	41171.075
1404.48168	41847.975
1407.93234	41678.675
1411.38068	40492.875
1414.82669	38483.275
1418.27039	36100.775
1421.71177	33872.475
1425.15083	32102.775
1428.58758	31110.975
1432.02203	31069.675
1435.45416	31889.175
1438.88399	33110.875
1442.31151	34303.375
1445.73673	35279.975
1449.15965	36164.075
1452.58027	37017.375
1455.9986	37546.075
1459.41463	38084.975
1462.82837	38568.075
1466.23982	39009.375
1469.64898	39317.675
1473.05586	39316.675
1476.46045	39014.675
1479.86276	38361.275
1483.26279	37505.475
1486.66054	36849.775
1490.05602	36515.575
1493.44922	36376.175
1496.84016	36377.375
1500.22882	36670.375
1503.61521	37306.875
1506.99934	38223.975
1510.38121	39079.375
1513.76081	39581.975
1517.13816	39278.375
1520.51324	38685.875
1523.88607	38212.075
1527.25665	38164.875
1530.62498	38367.575
1533.99105	38491.275
1537.35488	38339.575
1540.71647	37790.975
1544.07581	36814.575
1547.4329	35681.075
1550.78776	34753.775
1554.14038	34034.475
1557.49077	33656.075
1560.83892	33476.275
1564.18484	33427.375
1567.52853	33431.975
1570.86999	33720.475
1574.20922	34421.075
1577.54624	35238.075
1580.88103	35964.975
1584.2136	36787.475
1587.54395	38122.375
1590.87208	39931.575
1594.19801	41998.775
1597.52172	43815.075
1600.84321	44016.675
1604.16251	41799.375
1607.47959	38307.375
1610.79447	34708.475
1614.10715	31482.175
1617.41763	28860.675
1620.7259	26930.675
1624.03199	25904.475
1627.33587	25763.575
1630.63757	26625.175
1633.93707	28538.375
1637.23439	31743.075
1640.52951	36016.675
1643.82246	40855.875
1647.11321	44461.875
1650.40179	45003.175
1653.68819	41885.575
1656.97241	36435.975
1660.25446	30851.075
1663.53433	26408.275
1666.81203	23379.075
1670.08756	21417.575
1673.36092	20175.475
1676.63211	19306.775
1679.90115	18780.275
1683.16801	18342.175
1686.43272	18064.375
1689.69527	17809.975
1692.95567	17634.075
1696.2139	17478.375
1699.46999	17380.675
1702.72392	17272.475
1705.97571	17210.775
1709.22535	17116.675
1712.47284	17057.575
1715.71819	16992.375
1718.96139	16912.175
1722.20246	16832.175
1725.44139	16763.775
1728.67818	16640.275
1731.91284	16560.575
1735.14537	16432.775
1738.37576	16351.675
1741.60403	16266.775
1744.83017	16234.275
1748.05418	16169.675
1751.27607	16167.375
1754.49584	16151.975
1757.71349	16150.375
1760.92903	16113.575
1764.14244	16062.175
1767.35375	16037.475
1770.56294	15973.375
1773.77002	15947.575
1776.97499	15872.975
1780.17785	15849.775
1783.37861	15817.675
1786.57727	15791.875
1789.77382	15745.375
1792.96828	15736.975
1796.16064	15655.375
1799.3509	15637.975
1802.53907	15589.975
1805.72514	15530.675
1808.90913	15481.475
1812.09102	15429.775
1815.27083	15422.475
1818.44856	15382.475
1821.6242	15326.575
1824.79776	15314.775
1827.96924	15263.675
1831.13864	15275.875
1834.30597	15298.875
1837.47122	15281.975
1840.6344	15233.875
1843.7955	15252.875
1846.95454	15274.375
1850.11151	15229.575
1853.26642	15241.275
1856.41926	15204.475
1859.57004	15227.275
1862.71876	15213.675
1865.86542	15203.875
1869.01003	15171.775
1872.15258	15138.675
1875.29308	15138.875
1878.43152	15094.375
1881.56792	15110.175
1884.70227	15091.575
1887.83457	15059.475
1890.96482	15043.275
1894.09304	15035.775
1897.21921	15010.575
1900.34335	15025.075
1903.46544	14976.075
1906.58551	14968.775
1909.70353	14972.675
1912.81953	14910.375
1915.93349	14883.875
1919.04543	14861.175
1922.15534	14831.475
1925.26322	14792.975
1928.36908	14752.075
1931.47292	14702.675
1934.57473	14699.175
1937.67453	14672.275
1940.77232	14610.375
1943.86808	14557.275
1946.96184	14479.175
1950.05358	14463.875
1953.14331	14435.775
1956.23103	14371.875
1959.31675	14349.275
1962.40046	14304.875
1965.48217	14241.275
1968.56188	14218.375
1971.63959	14140.175
1974.7153	14074.975
1977.78901	14077.975
1980.86073	14022.475
1983.93046	13968.975
1986.99819	13897.675
1990.06394	13872.275
1993.1277	13846.575
1996.18947	13794.375
1999.24925	13727.675
2002.30706	13675.875
2005.36288	13678.475
2008.41672	13657.975
2011.46859	13605.875
2014.51848	13558.175
2017.56639	13534.775
2020.61233	13491.775
2023.6563	13467.775
2026.6983	13415.775
2029.73833	13409.675
2032.7764	13366.775
2035.8125	13351.775
2038.84664	13314.775
2041.87881	13304.975
2044.90903	13291.375
2047.93729	13236.475
2050.96359	13254.475
2053.98794	13237.975
2057.01034	13207.775
2060.03078	13216.475
2063.04927	13189.675
2066.06582	13190.075
2069.08042	13189.675
2072.09307	13181.875
2075.10378	13132.075
2078.11255	13135.375
2081.11938	13124.975
2084.12426	13101.875
2087.12722	13131.675
2090.12824	13094.575
2093.12732	13083.675
2096.12447	13087.275
2099.11969	13093.975
2102.11299	13069.075
2105.10435	13102.475
2108.09379	13073.875
2111.08131	13091.275
2114.0669	13105.475
2117.05057	13114.775
2120.03233	13122.975
2123.01216	13140.875
2125.99008	13130.775
2128.96609	13109.375
2131.94018	13159.575
2134.91236	13151.475
2137.88263	13113.275
2140.851	13158.275
2143.81746	13179.175
2146.78201	13169.775
2149.74466	13161.475
2152.7054	13147.575
2155.66425	13126.375
2158.6212	13138.975
2161.57625	13118.575
2164.52941	13117.575
2167.48067	13095.875
2170.43004	13110.275
2173.37752	13091.375
2176.32311	13104.075
2179.26681	13088.875
2182.20863	13062.975
2185.14856	13106.475
2188.08661	13054.975
2191.02278	13101.475
2193.95707	13068.575
2196.88948	13101.075
2199.82001	13090.575
2202.74867	13044.975
2205.67545	13036.075
2208.60037	13011.775
2211.52341	13021.975
2214.44458	12991.975
2217.36388	12976.375
2220.28132	12967.675
2223.1969	12905.275
2226.11061	12924.675
2229.02246	12889.975
2231.93245	12845.775
2234.84058	12797.175
2237.74686	12800.375
2240.65128	12762.775
2243.55385	12720.975
2246.45456	12744.375
2249.35343	12709.575
2252.25044	12690.375
2255.14561	12666.775
2258.03893	12643.175
2260.93041	12614.175
2263.82004	12558.275
2266.70783	12536.875
2269.59378	12467.675
2272.4779	12470.375
2275.36017	12428.675
2278.24061	12394.575
2281.11922	12387.275
2283.996	12387.075
2286.87094	12389.075
2289.74405	12335.775
2292.61534	12351.075
2295.4848	12344.775
2298.35243	12321.875
2301.21824	12316.775
2304.08223	12326.375
2306.94439	12311.775
2309.80474	12330.575
2312.66327	12343.275
2315.51999	12352.875
2318.37489	12313.175
2321.22797	12307.075
2324.07925	12279.775
2326.92871	12276.775
2329.77637	12235.275
2332.62222	12248.275
2335.46626	12228.675
2338.3085	12219.675
2341.14893	12234.175
2343.98756	12251.275
2346.8244	12262.075
2349.65943	12247.575
2352.49267	12238.075
2355.32411	12249.175
2358.15376	12257.875
2360.98161	12189.175
2363.80768	12205.575
2366.63195	12222.875
2369.45444	12181.975
2372.27514	12146.175
2375.09405	12170.775
2377.91118	12116.575
2380.72652	12098.875
2383.54009	12046.975
2386.35187	12034.475
2389.16188	11986.875
2391.97011	11981.875
2394.77657	11957.175
2397.58125	11934.075
2400.38416	11936.075
2403.18529	11897.775
2405.98466	11910.875
2408.78226	11868.775
2411.57809	11864.075
2414.37216	11864.475
2417.16446	11861.975
2419.955	11832.375
2422.74378	11831.275
2425.5308	11762.775
2428.31606	11797.175
2431.09956	11800.575
2433.88131	11785.675
2436.6613	11784.775
2439.43954	11786.675
2442.21603	11769.175
2444.99077	11783.475
2447.76377	11768.975
2450.53501	11724.375
2453.30451	11743.175
2456.07226	11722.375
2458.83827	11742.075
2461.60254	11722.775
2464.36507	11737.375
2467.12586	11728.175
2469.88492	11726.975
2472.64224	11737.575
2475.39782	11763.775
2478.15167	11780.375
2480.90379	11727.575
2483.65417	11763.775
2486.40283	11769.875
2489.14976	11796.875
2491.89497	11787.175
2494.63845	11803.475
2497.3802	11799.175
2500.12024	11798.975
2502.85855	11791.775
2505.59514	11771.475
2508.33002	11768.875
2511.06318	11728.575
2513.79462	11755.475
2516.52435	11745.375
2519.25237	11746.775
2521.97867	11741.775
2524.70327	11708.475
2527.42616	11688.975
2530.14734	11721.175
2532.86681	11716.575
2535.58458	11709.875
2538.30065	11719.475
2541.01501	11703.875
2543.72768	11679.375
2546.43864	11678.675
2549.14791	11644.075
2551.85548	11646.975
2554.56136	11640.175
2557.26554	11634.175
2559.96803	11612.875
2562.66883	11615.675
2565.36794	11577.075
2568.06536	11590.975
2570.7611	11567.975
2573.45514	11580.775
2576.14751	11568.875
2578.83819	11550.275
2581.52719	11572.775
2584.21451	11535.375
2586.90015	11580.575
2589.58411	11538.575
2592.2664	11546.775
2594.94701	11534.575
2597.62594	11536.675
2600.30321	11520.375
2602.9788	11548.575
2605.65273	11529.175
2608.32498	11517.775
2610.99557	11540.075
2613.66449	11543.275
2616.33175	11559.375
2618.99734	11542.875
2621.66128	11556.475
2624.32355	11538.875
2626.98416	11540.975
2629.64311	11544.575
2632.30041	11576.375
2634.95605	11556.875
2637.61004	11543.175
2640.26238	11529.775
2642.91306	11517.175
2645.56209	11485.175
2648.20948	11525.475
2650.85521	11515.375
2653.4993	11503.675
2656.14175	11514.575
2658.78255	11532.875
2661.42171	11526.775
2664.05923	11556.575
2666.6951	11553.175
2669.32934	11569.575
2671.96194	11574.275
2674.59291	11563.775
2677.22224	11552.075
2679.84993	11587.275
2682.476	11534.575
2685.10043	11521.775
2687.72324	11513.175
2690.34441	11523.375
2692.96396	11517.575
2695.58188	11494.875
2698.19818	11494.275
2700.81285	11523.675
2703.4259	11525.275
2706.03733	11585.975
2708.64714	11548.175
2711.25533	11560.275
2713.86191	11576.475
2716.46687	11582.875
2719.07021	11583.575
2721.67194	11576.375
2724.27206	11576.675
2726.87057	11618.675
2729.46747	11624.875
2732.06276	11613.275
2734.65644	11617.975
2737.24852	11618.475
2739.83899	11609.175
2742.42786	11628.675
2745.01513	11574.575
2747.60079	11605.875
2750.18486	11567.075
2752.76733	11575.575
2755.3482	11558.375
2757.92747	11557.775
2760.50515	11568.775
2763.08123	11568.375
2765.65573	11571.375
2768.22863	11597.075
2770.79994	11571.475
2773.36967	11589.375
2775.9378	11608.875
2778.50435	11614.875
2781.06932	11593.375
2783.6327	11633.475
2786.1945	11625.775
2788.75471	11606.975
2791.31335	11615.175
2793.87041	11572.075
2796.42589	11568.375
2798.97979	11557.375
2801.53212	11534.975
2804.08288	11503.375
2806.63206	11466.575
2809.17967	11462.975
2811.72571	11443.775
2814.27018	11428.375
2816.81308	11413.975
2819.35442	11383.775
2821.89419	11377.175
2824.43239	11367.675
2826.96904	11381.775
2829.50412	11347.275
2832.03763	11291.675
2834.56959	11324.875
2837.1	11303.375
2839.62884	11340.475
2842.15613	11334.375
2844.68186	11381.875
2847.20604	11377.775
2849.72867	11399.175
2852.24974	11385.775
2854.76927	11387.375
2857.28724	11384.975
2859.80367	11395.175
2862.31855	11341.275
2864.83189	11303.175
2867.34368	11297.775
2869.85393	11328.275
2872.36264	11309.675
2874.8698	11305.175
2877.37543	11281.475
2879.87952	11261.075
2882.38207	11277.975
2884.88308	11305.775
2887.38256	11298.275
2889.88051	11298.375
2892.37692	11316.075
2894.8718	11309.475
2897.36515	11312.175
2899.85698	11332.675
2902.34727	11370.375
2904.83604	11386.875
2907.32328	11411.375
2909.809	11409.775
2912.29319	11419.975
2914.77587	11404.875
2917.25702	11418.475
2919.73665	11401.775
2922.21476	11436.175
2924.69136	11399.175
2927.16644	11414.675
2929.64	11400.575
2932.11205	11378.975
2934.58258	11339.975
2937.05161	11371.375
2939.51912	11370.975
2941.98513	11341.075
2944.44962	11321.675
2946.91261	11279.075
2949.37409	11295.475
2951.83407	11264.775
2954.29254	11238.575
2956.74951	11217.175
2959.20498	11237.975
2961.65895	11205.475
2964.11142	11209.075
2966.56239	11168.075
2969.01186	11139.475
2971.45984	11122.475
2973.90632	11142.075
2976.35131	11088.875
2978.7948	11063.275
2981.23681	11051.175
2983.67732	11034.375
2986.11635	10986.575
2988.55388	10941.275
2990.98993	10925.275
2993.4245	10916.475
2995.85758	10885.875
2998.28917	10834.775
3000.71928	10838.175
3003.14791	10795.775
3005.57506	10794.775
3008.00073	10734.275
3010.42493	10631.475
3012.84764	10729.375
3015.26888	10714.275
3017.68865	10668.075
3020.10694	10675.275
3022.52376	10668.875
3024.9391	10641.675
3027.35298	10636.275
3029.76539	10618.675
3032.17632	10591.675
3034.5858	10586.775
3036.9938	10577.275
3039.40034	10593.575
3041.80542	10594.375
3044.20903	10570.575
3046.61118	10581.475
3049.01187	10531.075
3051.4111	10560.375
3053.80888	10533.875
3056.20519	10501.075
3058.60005	10448.775
3060.99345	10470.675
3063.3854	10414.475
3065.7759	10393.675
3068.16494	10346.875
3070.55254	10301.275
3072.93868	10276.275
3075.32338	10255.775
3077.70662	10248.175
3080.08842	10218.175
3082.46878	10224.675
3084.84769	10199.375
3087.22515	10155.175
3089.60118	10185.575
3091.97576	10167.075
3094.3489	10176.875
3096.72061	10176.575
3099.09087	10178.175
3101.4597	10169.675
3103.82709	10168.475
3106.19305	10144.875
3108.55757	10134.975
3110.92066	10126.175
3113.28232	10107.475
3115.64255	10088.175
3118.00134	10058.775
3120.35871	10049.175
3122.71466	10020.775
3125.06917	9999.275
3127.42226	9972.375
3129.77393	9964.275
