Data from AgNPs_FTO_APTES_UA_5uM_CRN_10uM_R6G_10uM_NaF_0.1M_Addition_RamanShift__31__12-59-26-752.txt Node

Date: Mon Feb 07 12:59:26 GMT 2022
User: TCL
Spectrometer: QEP01345
Trigger mode: 4
Integration Time (sec): 7.000000E0
Scans to average: 10
Electric dark correction enabled: true
Nonlinearity correction enabled: false
Boxcar width: 0
XAxis mode: Raman Shifts
Number of Pixels in Spectrum: 1044
>>>>>Begin Spectral Data<<<<<
46.04893	0.2875
50.45542	-0.4125
54.85868	-0.6125
59.25871	0.3875
63.6555	47.9875
68.04907	50.6875
72.43941	53.6875
76.82654	58.1875
81.21044	59.0875
85.59113	62.8875
89.96862	66.8875
94.34289	63.5875
98.71396	67.4875
103.08183	73.4875
107.4465	73.4875
111.80798	72.6875
116.16626	75.1875
120.52136	78.4875
124.87327	81.5875
129.222	89.1875
133.56755	93.0875
137.90993	100.9875
142.24913	105.7875
146.58517	122.9875
150.91804	140.0875
155.24774	168.1875
159.57429	210.7875
163.89768	265.9875
168.21792	364.8875
172.53501	490.8875
176.84895	673.7875
181.15975	945.9875
185.46741	1324.8875
189.77193	1829.3875
194.07331	2439.4875
198.37157	3138.4875
202.6667	3844.4875
206.9587	4590.2875
211.24758	5330.6875
215.53334	6109.2875
219.81599	6987.7875
224.09553	7997.9875
228.37195	9150.0875
232.64527	10385.0875
236.91549	11583.7875
241.18261	12677.1875
245.44663	13464.1875
249.70755	14042.6875
253.96539	14550.6875
258.22014	14984.4875
262.4718	15394.2875
266.72039	15774.8875
270.96589	16017.3875
275.20832	16110.2875
279.44768	16036.4875
283.68397	15921.2875
287.91719	15855.4875
292.14735	16043.9875
296.37445	16481.5875
300.59849	17196.4875
304.81948	18040.2875
309.03742	18710.2875
313.25231	18665.3875
317.46415	17629.8875
321.67296	15933.8875
325.87872	14458.6875
330.08145	13748.8875
334.28114	13605.8875
338.47781	13840.5875
342.67145	14321.2875
346.86207	15057.2875
351.04966	16178.0875
355.23424	17449.3875
359.4158	18371.5875
363.59435	18734.6875
367.76989	18763.9875
371.94243	18529.4875
376.11196	18284.1875
380.27849	18045.0875
384.44203	17677.5875
388.60257	17301.6875
392.76012	17170.6875
396.91468	17373.8875
401.06626	17923.7875
405.21485	18417.5875
409.36047	17960.9875
413.50311	16764.4875
417.64277	15628.8875
421.77947	14933.3875
425.9132	14658.7875
430.04396	14578.0875
434.17176	14611.6875
438.2966	14772.4875
442.41849	15113.2875
446.53742	15545.7875
450.6534	16046.6875
454.76644	16330.6875
458.87653	16336.3875
462.98368	16178.0875
467.08789	15911.9875
471.18916	15511.2875
475.2875	15075.3875
479.38291	14703.3875
483.4754	14411.5875
487.56496	14157.5875
491.6516	14021.8875
495.73531	14000.4875
499.81612	14069.1875
503.89401	14342.1875
507.96899	14581.0875
512.04106	14802.2875
516.11023	15044.5875
520.1765	15175.8875
524.23987	15083.0875
528.30034	14659.1875
532.35792	14210.2875
536.41261	13760.7875
540.46441	13358.3875
544.51333	13208.1875
548.55936	13378.1875
552.60252	13861.5875
556.64279	14434.5875
560.6802	14700.0875
564.71473	15001.5875
568.7464	15875.7875
572.7752	16478.4875
576.80114	15966.5875
580.82422	15249.9875
584.84444	14899.7875
588.86181	14694.3875
592.87633	14527.4875
596.888	14624.7875
600.89682	15277.8875
604.9028	17615.3875
608.90594	23960.2875
612.90624	32745.1875
616.90371	31672.0875
620.89834	20374.4875
624.89015	14870.4875
628.87913	13816.0875
632.86528	13985.5875
636.84862	14363.6875
640.82913	14132.9875
644.80683	13244.0875
648.78172	12626.1875
652.75379	12703.0875
656.72306	13467.0875
660.68952	14465.0875
664.65319	14336.3875
668.61405	13327.5875
672.57211	12777.8875
676.52738	12698.9875
680.47986	12732.9875
684.42955	12536.0875
688.37646	12444.4875
692.32058	12480.9875
696.26192	12657.2875
700.20048	12911.8875
704.13626	13097.1875
708.06928	13159.7875
711.99952	13016.1875
715.927	12922.3875
719.85171	12914.1875
723.77365	12907.8875
727.69284	12685.1875
731.60928	12487.9875
735.52295	12420.7875
739.43388	12459.1875
743.34206	12521.7875
747.24749	12608.3875
751.15017	12799.6875
755.05012	13198.1875
758.94733	14128.7875
762.8418	16320.6875
766.73354	20115.2875
770.62254	24128.7875
774.50882	25957.1875
778.39237	24424.7875
782.27321	20380.4875
786.15132	16434.0875
790.02671	14179.7875
793.89938	13137.3875
797.76935	12695.0875
801.6366	12465.2875
805.50115	12315.5875
809.36299	12225.2875
813.22213	12154.6875
817.07857	12097.9875
820.93231	12080.0875
824.78336	12124.2875
828.63172	12253.7875
832.47738	12258.4875
836.32036	12184.4875
840.16066	12065.9875
843.99827	11992.1875
847.8332	11918.7875
851.66546	11884.1875
855.49504	11863.3875
859.32195	11825.1875
863.1462	11701.7875
866.96777	11647.2875
870.78668	11647.1875
874.60293	11672.5875
878.41652	11690.6875
882.22745	11786.5875
886.03573	11887.0875
889.84136	11834.0875
893.64433	11744.2875
897.44466	11707.2875
901.24235	11727.5875
905.0374	11697.9875
908.8298	11623.9875
912.61957	11636.9875
916.40671	11727.2875
920.19121	11948.3875
923.97308	12118.9875
927.75233	12231.0875
931.52895	12330.1875
935.30295	12122.7875
939.07433	11613.3875
942.84309	11161.9875
946.60924	10911.0875
950.37278	10758.6875
954.13371	10679.6875
957.89203	10636.2875
961.64774	10602.7875
965.40086	10582.9875
969.15137	10514.4875
972.89929	10485.1875
976.64461	10446.8875
980.38733	10460.9875
984.12747	10477.1875
987.86502	10526.5875
991.59999	10602.1875
995.33237	10726.2875
999.06217	11024.7875
1002.78939	11394.0875
1006.51404	11763.5875
1010.23611	12111.8875
1013.95561	12365.8875
1017.67255	12267.5875
1021.38692	12016.5875
1025.09872	11723.3875
1028.80796	11578.9875
1032.51465	11638.6875
1036.21877	11817.6875
1039.92035	11990.4875
1043.61937	12097.5875
1047.31584	12088.9875
1051.00976	12054.9875
1054.70114	11992.5875
1058.38998	12053.4875
1062.07627	12167.3875
1065.76003	12327.1875
1069.44126	12461.6875
1073.11995	12639.2875
1076.79611	12825.9875
1080.46974	13037.0875
1084.14085	13531.4875
1087.80943	14078.4875
1091.47549	14341.9875
1095.13903	14076.2875
1098.80005	13470.2875
1102.45857	12800.4875
1106.11456	12441.9875
1109.76805	12432.9875
1113.41903	12778.9875
1117.06751	13318.9875
1120.71348	14099.0875
1124.35696	14965.1875
1127.99793	15742.3875
1131.63641	15681.0875
1135.2724	14721.3875
1138.90589	13777.4875
1142.5369	13228.4875
1146.16542	12875.6875
1149.79145	12706.8875
1153.415	12710.9875
1157.03607	12918.1875
1160.65467	13332.9875
1164.27079	14007.6875
1167.88443	15045.6875
1171.49561	16728.6875
1175.10432	19576.5875
1178.71056	23268.9875
1182.31434	25723.7875
1185.91565	26004.4875
1189.51451	25024.2875
1193.11091	23108.0875
1196.70485	20874.5875
1200.29634	19259.4875
1203.88538	18081.0875
1207.47197	16659.6875
1211.05612	15427.7875
1214.63782	14691.8875
1218.21708	14436.2875
1221.79391	14424.2875
1225.36829	14579.1875
1228.94024	14754.3875
1232.50976	14903.8875
1236.07685	14962.2875
1239.6415	14972.5875
1243.20374	14937.4875
1246.76355	14971.2875
1250.32093	15159.4875
1253.8759	15587.6875
1257.42845	16183.6875
1260.97859	16908.0875
1264.52631	17575.3875
1268.07163	18292.8875
1271.61453	18922.1875
1275.15503	19406.1875
1278.69312	19565.0875
1282.22882	19691.7875
1285.76211	20205.3875
1289.29301	20983.8875
1292.82151	21811.9875
1296.34761	22700.0875
1299.87133	24009.5875
1303.39266	26250.4875
1306.9116	29835.7875
1310.42815	34177.1875
1313.94233	36987.9875
1317.45412	36535.2875
1320.96354	33928.9875
1324.47058	30756.6875
1327.97525	28014.1875
1331.47754	26287.2875
1334.97747	25506.8875
1338.47502	25423.9875
1341.97022	25914.1875
1345.46305	26845.3875
1348.95352	28430.1875
1352.44163	30745.5875
1355.92738	34136.2875
1359.41078	39893.0875
1362.89183	45895.3875
1366.37053	45056.4875
1369.84688	37367.7875
1373.32088	29720.4875
1376.79254	24869.9875
1380.26186	22549.0875
1383.72883	21381.6875
1387.19347	20532.4875
1390.65578	19550.8875
1394.11575	18791.7875
1397.57339	18425.8875
1401.0287	18409.6875
1404.48168	18631.9875
1407.93234	18885.7875
1411.38068	18978.6875
1414.82669	18785.2875
1418.27039	18315.8875
1421.71177	17808.6875
1425.15083	17267.5875
1428.58758	16871.9875
1432.02203	16816.0875
1435.45416	16967.6875
1438.88399	17116.9875
1442.31151	17136.2875
1445.73673	17318.5875
1449.15965	17480.8875
1452.58027	17548.4875
1455.9986	17436.6875
1459.41463	17422.7875
1462.82837	17617.2875
1466.23982	18056.2875
1469.64898	18529.5875
1473.05586	18923.9875
1476.46045	19137.5875
1479.86276	19531.2875
1483.26279	20082.3875
1486.66054	20763.0875
1490.05602	21639.1875
1493.44922	22880.9875
1496.84016	24827.9875
1500.22882	27911.3875
1503.61521	31993.8875
1506.99934	36753.2875
1510.38121	41403.0875
1513.76081	44031.7875
1517.13816	42339.9875
1520.51324	36947.4875
1523.88607	31003.7875
1527.25665	26811.3875
1530.62498	24292.6875
1533.99105	22710.6875
1537.35488	21701.1875
1540.71647	20997.2875
1544.07581	20542.5875
1547.4329	20237.8875
1550.78776	19996.3875
1554.14038	19974.2875
1557.49077	20226.0875
1560.83892	20858.0875
1564.18484	21734.9875
1567.52853	22665.4875
1570.86999	23300.7875
1574.20922	23660.6875
1577.54624	23468.4875
1580.88103	22063.9875
1584.2136	20131.6875
1587.54395	19160.4875
1590.87208	19368.3875
1594.19801	20543.6875
1597.52172	22116.7875
1600.84321	22671.7875
1604.16251	21576.8875
1607.47959	19822.0875
1610.79447	18137.6875
1614.10715	16475.8875
1617.41763	15134.3875
1620.7259	14282.5875
1624.03199	13900.5875
1627.33587	13910.1875
1630.63757	14334.8875
1633.93707	15247.4875
1637.23439	16704.5875
1640.52951	18808.1875
1643.82246	21706.7875
1647.11321	25218.7875
1650.40179	28154.6875
1653.68819	27893.5875
1656.97241	23890.9875
1660.25446	19021.3875
1663.53433	15434.1875
1666.81203	13241.7875
1670.08756	12033.6875
1673.36092	11298.6875
1676.63211	10850.6875
1679.90115	10544.8875
1683.16801	10279.7875
1686.43272	10136.3875
1689.69527	9993.4875
1692.95567	9911.6875
1696.2139	9828.6875
1699.46999	9783.5875
1702.72392	9758.3875
1705.97571	9703.0875
1709.22535	9720.6875
1712.47284	9715.2875
1715.71819	9715.4875
1718.96139	9740.3875
1722.20246	9698.4875
1725.44139	9642.1875
1728.67818	9545.7875
1731.91284	9444.8875
1735.14537	9350.6875
1738.37576	9262.8875
1741.60403	9207.0875
1744.83017	9167.1875
1748.05418	9127.9875
1751.27607	9085.4875
1754.49584	9028.5875
1757.71349	9059.2875
1760.92903	9036.5875
1764.14244	9020.3875
1767.35375	8969.1875
1770.56294	8938.3875
1773.77002	8913.7875
1776.97499	8849.2875
1780.17785	8811.5875
1783.37861	8772.1875
1786.57727	8746.3875
1789.77382	8720.6875
1792.96828	8750.1875
1796.16064	8717.3875
1799.3509	8697.6875
1802.53907	8696.9875
1805.72514	8633.9875
1808.90913	8587.4875
1812.09102	8570.9875
1815.27083	8541.3875
1818.44856	8512.2875
1821.6242	8490.3875
1824.79776	8477.6875
1827.96924	8482.4875
1831.13864	8439.8875
1834.30597	8445.2875
1837.47122	8445.5875
1840.6344	8439.7875
1843.7955	8419.9875
1846.95454	8415.7875
1850.11151	8417.7875
1853.26642	8414.0875
1856.41926	8391.5875
1859.57004	8418.7875
1862.71876	8445.0875
1865.86542	8424.0875
1869.01003	8423.1875
1872.15258	8424.8875
1875.29308	8450.1875
1878.43152	8457.0875
1881.56792	8489.3875
1884.70227	8487.6875
1887.83457	8510.5875
1890.96482	8526.9875
1894.09304	8515.4875
1897.21921	8531.7875
1900.34335	8503.5875
1903.46544	8539.9875
1906.58551	8560.7875
1909.70353	8581.6875
1912.81953	8568.4875
1915.93349	8568.6875
1919.04543	8564.2875
1922.15534	8534.3875
1925.26322	8504.6875
1928.36908	8453.2875
1931.47292	8420.4875
1934.57473	8340.9875
1937.67453	8280.0875
1940.77232	8200.2875
1943.86808	8159.8875
1946.96184	8091.1875
1950.05358	8060.4875
1953.14331	8010.1875
1956.23103	7956.7875
1959.31675	7931.1875
1962.40046	7874.2875
1965.48217	7881.2875
1968.56188	7863.5875
1971.63959	7829.1875
1974.7153	7821.6875
1977.78901	7786.6875
1980.86073	7745.7875
1983.93046	7700.3875
1986.99819	7669.1875
1990.06394	7636.7875
1993.1277	7606.2875
1996.18947	7578.5875
1999.24925	7591.8875
2002.30706	7563.2875
2005.36288	7518.0875
2008.41672	7476.5875
2011.46859	7461.5875
2014.51848	7419.6875
2017.56639	7417.4875
2020.61233	7387.5875
2023.6563	7361.1875
2026.6983	7312.4875
2029.73833	7312.1875
2032.7764	7308.8875
2035.8125	7278.1875
2038.84664	7240.5875
2041.87881	7212.4875
2044.90903	7245.8875
2047.93729	7190.9875
2050.96359	7202.6875
2053.98794	7178.3875
2057.01034	7181.4875
2060.03078	7161.6875
2063.04927	7144.1875
2066.06582	7149.8875
2069.08042	7137.5875
2072.09307	7119.0875
2075.10378	7106.7875
2078.11255	7115.4875
2081.11938	7108.1875
2084.12426	7085.4875
2087.12722	7093.3875
2090.12824	7080.0875
2093.12732	7058.5875
2096.12447	7055.0875
2099.11969	7061.1875
2102.11299	7077.4875
2105.10435	7055.1875
2108.09379	7067.5875
2111.08131	7077.1875
2114.0669	7080.3875
2117.05057	7087.9875
2120.03233	7091.1875
2123.01216	7093.1875
2125.99008	7098.0875
2128.96609	7083.1875
2131.94018	7112.0875
2134.91236	7120.5875
2137.88263	7089.2875
2140.851	7095.4875
2143.81746	7104.9875
2146.78201	7083.4875
2149.74466	7071.5875
2152.7054	7033.2875
2155.66425	7030.8875
2158.6212	7026.6875
2161.57625	7032.0875
2164.52941	7016.1875
2167.48067	7030.6875
2170.43004	7015.7875
2173.37752	7013.9875
2176.32311	7011.8875
2179.26681	7026.1875
2182.20863	7009.0875
2185.14856	7022.3875
2188.08661	7010.1875
2191.02278	7004.1875
2193.95707	7001.8875
2196.88948	6973.8875
2199.82001	6978.6875
2202.74867	6953.7875
2205.67545	6947.1875
2208.60037	6922.1875
2211.52341	6923.4875
2214.44458	6933.7875
2217.36388	6921.2875
2220.28132	6890.3875
2223.1969	6872.8875
2226.11061	6840.7875
2229.02246	6835.6875
2231.93245	6811.2875
2234.84058	6778.6875
2237.74686	6769.1875
2240.65128	6777.6875
2243.55385	6756.5875
2246.45456	6757.0875
2249.35343	6744.9875
2252.25044	6754.2875
2255.14561	6751.3875
2258.03893	6766.7875
2260.93041	6755.8875
2263.82004	6727.7875
2266.70783	6723.8875
2269.59378	6708.5875
2272.4779	6690.8875
2275.36017	6662.8875
2278.24061	6653.5875
2281.11922	6625.7875
2283.996	6624.6875
2286.87094	6607.5875
2289.74405	6578.3875
2292.61534	6556.6875
2295.4848	6553.9875
2298.35243	6528.1875
2301.21824	6548.4875
2304.08223	6536.8875
2306.94439	6527.7875
2309.80474	6522.7875
2312.66327	6516.8875
2315.51999	6514.3875
2318.37489	6518.5875
2321.22797	6506.2875
2324.07925	6493.0875
2326.92871	6476.1875
2329.77637	6476.9875
2332.62222	6459.0875
2335.46626	6451.2875
2338.3085	6459.8875
2341.14893	6454.2875
2343.98756	6468.5875
2346.8244	6483.0875
2349.65943	6470.9875
2352.49267	6491.2875
2355.32411	6517.5875
2358.15376	6512.5875
2360.98161	6533.3875
2363.80768	6557.6875
2366.63195	6582.0875
2369.45444	6578.3875
2372.27514	6564.9875
2375.09405	6562.6875
2377.91118	6528.4875
2380.72652	6502.4875
2383.54009	6462.5875
2386.35187	6430.1875
2389.16188	6375.8875
2391.97011	6352.5875
2394.77657	6326.6875
2397.58125	6315.6875
2400.38416	6292.7875
2403.18529	6283.5875
2405.98466	6268.7875
2408.78226	6243.9875
2411.57809	6222.8875
2414.37216	6222.9875
2417.16446	6211.2875
2419.955	6227.7875
2422.74378	6202.8875
2425.5308	6204.7875
2428.31606	6193.7875
2431.09956	6201.5875
2433.88131	6199.7875
2436.6613	6218.0875
2439.43954	6196.5875
2442.21603	6206.4875
2444.99077	6203.7875
2447.76377	6216.0875
2450.53501	6214.0875
2453.30451	6218.7875
2456.07226	6191.8875
2458.83827	6206.1875
2461.60254	6200.3875
2464.36507	6202.5875
2467.12586	6203.1875
2469.88492	6191.4875
2472.64224	6190.5875
2475.39782	6197.8875
2478.15167	6230.3875
2480.90379	6230.0875
2483.65417	6257.3875
2486.40283	6269.8875
2489.14976	6278.0875
2491.89497	6303.2875
2494.63845	6327.5875
2497.3802	6316.7875
2500.12024	6314.0875
2502.85855	6276.2875
2505.59514	6261.4875
2508.33002	6223.4875
2511.06318	6200.4875
2513.79462	6151.8875
2516.52435	6133.7875
2519.25237	6138.4875
2521.97867	6087.0875
2524.70327	6054.8875
2527.42616	6047.6875
2530.14734	6073.5875
2532.86681	6043.5875
2535.58458	6046.0875
2538.30065	6037.4875
2541.01501	6021.4875
2543.72768	6035.7875
2546.43864	6022.9875
2549.14791	6034.8875
2551.85548	6038.5875
2554.56136	6018.8875
2557.26554	6005.5875
2559.96803	6018.5875
2562.66883	6002.4875
2565.36794	5973.9875
2568.06536	6000.1875
2570.7611	5969.9875
2573.45514	5954.4875
2576.14751	5934.9875
2578.83819	5920.7875
2581.52719	5907.2875
2584.21451	5918.5875
2586.90015	5920.4875
2589.58411	5920.7875
2592.2664	5924.4875
2594.94701	5914.3875
2597.62594	5901.1875
2600.30321	5890.4875
2602.9788	5892.1875
2605.65273	5891.7875
2608.32498	5906.4875
2610.99557	5894.3875
2613.66449	5887.1875
2616.33175	5896.4875
2618.99734	5880.9875
2621.66128	5883.9875
2624.32355	5884.5875
2626.98416	5870.0875
2629.64311	5860.2875
2632.30041	5870.5875
2634.95605	5860.6875
2637.61004	5825.7875
2640.26238	5834.0875
2642.91306	5815.8875
2645.56209	5809.7875
2648.20948	5797.5875
2650.85521	5808.3875
2653.4993	5797.7875
2656.14175	5787.2875
2658.78255	5797.0875
2661.42171	5815.0875
2664.05923	5821.1875
2666.6951	5828.6875
2669.32934	5860.1875
2671.96194	5851.2875
2674.59291	5856.9875
2677.22224	5856.8875
2679.84993	5865.8875
2682.476	5839.0875
2685.10043	5869.0875
2687.72324	5869.9875
2690.34441	5858.7875
2692.96396	5841.3875
2695.58188	5844.1875
2698.19818	5844.8875
2700.81285	5829.8875
2703.4259	5851.6875
2706.03733	5873.6875
2708.64714	5860.4875
2711.25533	5860.3875
2713.86191	5859.3875
2716.46687	5864.6875
2719.07021	5857.6875
2721.67194	5887.3875
2724.27206	5868.3875
2726.87057	5868.0875
2729.46747	5864.8875
2732.06276	5867.0875
2734.65644	5851.3875
2737.24852	5836.1875
2739.83899	5831.6875
2742.42786	5822.7875
2745.01513	5808.0875
2747.60079	5802.4875
2750.18486	5802.2875
2752.76733	5786.3875
2755.3482	5765.5875
2757.92747	5755.4875
2760.50515	5763.3875
2763.08123	5739.2875
2765.65573	5748.5875
2768.22863	5738.9875
2770.79994	5727.0875
2773.36967	5723.1875
2775.9378	5711.9875
2778.50435	5721.8875
2781.06932	5716.8875
2783.6327	5724.6875
2786.1945	5723.5875
2788.75471	5721.8875
2791.31335	5717.6875
2793.87041	5705.0875
2796.42589	5703.3875
2798.97979	5696.6875
2801.53212	5686.6875
2804.08288	5681.4875
2806.63206	5678.4875
2809.17967	5673.6875
2811.72571	5693.8875
2814.27018	5693.3875
2816.81308	5693.0875
2819.35442	5686.9875
2821.89419	5704.1875
2824.43239	5735.9875
2826.96904	5737.1875
2829.50412	5744.1875
2832.03763	5734.0875
2834.56959	5729.5875
2837.1	5745.4875
2839.62884	5750.3875
2842.15613	5787.0875
2844.68186	5852.3875
2847.20604	5898.1875
2849.72867	5946.7875
2852.24974	5967.8875
2854.76927	5963.4875
2857.28724	5967.7875
2859.80367	5940.4875
2862.31855	5936.8875
2864.83189	5922.1875
2867.34368	5894.8875
2869.85393	5913.4875
2872.36264	5882.4875
2874.8698	5895.5875
2877.37543	5862.1875
2879.87952	5870.6875
2882.38207	5879.0875
2884.88308	5852.0875
2887.38256	5855.9875
2889.88051	5851.1875
2892.37692	5844.0875
2894.8718	5846.1875
2897.36515	5829.8875
2899.85698	5841.6875
2902.34727	5864.3875
2904.83604	5867.3875
2907.32328	5877.7875
2909.809	5881.6875
2912.29319	5884.9875
2914.77587	5882.0875
2917.25702	5873.6875
2919.73665	5868.8875
2922.21476	5873.3875
2924.69136	5857.2875
2927.16644	5829.7875
2929.64	5828.7875
2932.11205	5817.8875
2934.58258	5769.3875
2937.05161	5755.6875
2939.51912	5732.1875
2941.98513	5714.2875
2944.44962	5660.4875
2946.91261	5607.0875
2949.37409	5596.7875
2951.83407	5571.8875
2954.29254	5550.5875
2956.74951	5531.0875
2959.20498	5524.8875
2961.65895	5501.2875
2964.11142	5496.3875
2966.56239	5467.0875
2969.01186	5483.3875
2971.45984	5436.2875
2973.90632	5446.5875
2976.35131	5422.6875
2978.7948	5392.1875
2981.23681	5371.1875
2983.67732	5365.1875
2986.11635	5341.5875
2988.55388	5326.4875
2990.98993	5317.3875
2993.4245	5307.8875
2995.85758	5276.4875
2998.28917	5279.8875
3000.71928	5263.7875
3003.14791	5273.7875
3005.57506	5269.3875
3008.00073	5236.5875
3010.42493	5154.5875
3012.84764	5221.6875
3015.26888	5223.8875
3017.68865	5198.1875
3020.10694	5196.2875
3022.52376	5190.8875
3024.9391	5173.1875
3027.35298	5173.3875
3029.76539	5172.8875
3032.17632	5148.2875
3034.5858	5138.7875
3036.9938	5138.7875
3039.40034	5114.7875
3041.80542	5113.5875
3044.20903	5089.1875
3046.61118	5092.1875
3049.01187	5070.1875
3051.4111	5060.2875
3053.80888	5060.7875
3056.20519	5062.8875
3058.60005	5048.8875
3060.99345	5035.5875
3063.3854	5037.9875
3065.7759	5014.1875
3068.16494	4989.9875
3070.55254	4976.1875
3072.93868	4962.6875
3075.32338	4935.1875
3077.70662	4931.7875
3080.08842	4899.1875
