Data from AgNPs_FTO_APTES_UA_5uM_CRN_20uM_R6G_10uM_NaF_0.1M_Addition_RamanShift__28__13-35-36-794.txt Node

Date: Mon Feb 07 13:35:36 GMT 2022
User: TCL
Spectrometer: QEP01345
Trigger mode: 4
Integration Time (sec): 7.000000E0
Scans to average: 10
Electric dark correction enabled: true
Nonlinearity correction enabled: false
Boxcar width: 0
XAxis mode: Raman Shifts
Number of Pixels in Spectrum: 1044
>>>>>Begin Spectral Data<<<<<
46.04893	-0.425
50.45542	-1.825
54.85868	-0.025
59.25871	0.075
63.6555	78.175
68.04907	78.975
72.43941	83.075
76.82654	84.875
81.21044	85.275
85.59113	91.575
89.96862	96.575
94.34289	95.575
98.71396	101.375
103.08183	104.175
107.4465	105.975
111.80798	111.375
116.16626	116.375
120.52136	120.675
124.87327	127.275
129.222	133.175
133.56755	148.975
137.90993	162.675
142.24913	174.775
146.58517	202.675
150.91804	238.975
155.24774	286.675
159.57429	358.375
163.89768	475.375
168.21792	638.275
172.53501	870.875
176.84895	1212.575
181.15975	1705.475
185.46741	2389.075
189.77193	3307.775
194.07331	4415.775
198.37157	5664.275
202.6667	6999.575
206.9587	8325.675
211.24758	9651.375
215.53334	11002.175
219.81599	12533.275
224.09553	14194.175
228.37195	16108.075
232.64527	18118.675
236.91549	20164.975
241.18261	22115.875
245.44663	23783.475
249.70755	25173.975
253.96539	26354.575
258.22014	27462.975
262.4718	28447.375
266.72039	29233.375
270.96589	29783.775
275.20832	29947.975
279.44768	29971.575
283.68397	29862.475
287.91719	29890.275
292.14735	30110.675
296.37445	30602.675
300.59849	31249.275
304.81948	31848.275
309.03742	32124.875
313.25231	31734.475
317.46415	30300.775
321.67296	28328.375
325.87872	26656.675
330.08145	25817.875
334.28114	25657.775
338.47781	25933.375
342.67145	26517.575
346.86207	27396.175
351.04966	28616.375
355.23424	29984.375
359.4158	31001.875
363.59435	31446.175
367.76989	31539.075
371.94243	31502.575
376.11196	31335.575
380.27849	31226.875
384.44203	31034.775
388.60257	30845.075
392.76012	30851.675
396.91468	31211.475
401.06626	31945.075
405.21485	32523.675
409.36047	32065.575
413.50311	30751.075
417.64277	29546.475
421.77947	29001.875
425.9132	28859.875
430.04396	28965.975
434.17176	29187.675
438.2966	29520.175
442.41849	30196.975
446.53742	31166.775
450.6534	32213.875
454.76644	32945.575
458.87653	33087.575
462.98368	32935.875
467.08789	32510.375
471.18916	32017.875
475.2875	31587.675
479.38291	31267.775
483.4754	30892.975
487.56496	30352.875
491.6516	29705.375
495.73531	29210.475
499.81612	28988.075
503.89401	29162.375
507.96899	29318.975
512.04106	29402.975
516.11023	29446.175
520.1765	29412.675
524.23987	29138.775
528.30034	28632.275
532.35792	28113.075
536.41261	27629.875
540.46441	27193.975
544.51333	27102.075
548.55936	27583.175
552.60252	28529.675
556.64279	29539.975
560.6802	30173.275
564.71473	30671.675
568.7464	31808.175
572.7752	32805.375
576.80114	32576.775
580.82422	31980.575
584.84444	31735.375
588.86181	31767.675
592.87633	31997.175
596.888	32308.975
600.89682	32867.875
604.9028	35338.675
608.90594	42248.975
612.90624	51185.175
616.90371	48723.275
620.89834	35584.775
624.89015	29482.975
628.87913	28551.475
632.86528	28740.575
636.84862	28829.675
640.82913	28135.275
644.80683	26831.775
648.78172	25985.475
652.75379	25877.675
656.72306	26660.475
660.68952	27747.775
664.65319	27666.375
668.61405	26590.475
672.57211	26081.275
676.52738	26015.075
680.47986	25987.875
684.42955	25844.475
688.37646	25706.575
692.32058	25849.675
696.26192	26078.975
700.20048	26507.275
704.13626	26808.475
708.06928	26827.475
711.99952	26582.475
715.927	26447.275
719.85171	26493.175
723.77365	26347.375
727.69284	26019.575
731.60928	25697.875
735.52295	25585.275
739.43388	25623.475
743.34206	25772.175
747.24749	25979.675
751.15017	26306.675
755.05012	26929.175
758.94733	28291.875
762.8418	31100.575
766.73354	35824.275
770.62254	40553.975
774.50882	42185.475
778.39237	39517.575
782.27321	34513.675
786.15132	30013.275
790.02671	27452.075
793.89938	26288.475
797.76935	25663.175
801.6366	25458.875
805.50115	25292.875
809.36299	25171.475
813.22213	25069.475
817.07857	25029.275
820.93231	25003.775
824.78336	25026.275
828.63172	25041.275
832.47738	25009.975
836.32036	24986.275
840.16066	24919.375
843.99827	24897.175
847.8332	24797.675
851.66546	24676.875
855.49504	24571.375
859.32195	24536.975
863.1462	24313.075
866.96777	24238.975
870.78668	24151.375
874.60293	24150.475
878.41652	24181.075
882.22745	24326.775
886.03573	24407.075
889.84136	24417.275
893.64433	24228.075
897.44466	24160.875
901.24235	24113.475
905.0374	24072.175
908.8298	24035.075
912.61957	24100.675
916.40671	24366.275
920.19121	24780.375
923.97308	25094.375
927.75233	25146.575
931.52895	25151.175
935.30295	24752.675
939.07433	24085.875
942.84309	23438.675
946.60924	23125.775
950.37278	22940.875
954.13371	22809.375
957.89203	22690.875
961.64774	22659.875
965.40086	22638.475
969.15137	22535.275
972.89929	22417.575
976.64461	22317.675
980.38733	22291.675
984.12747	22371.975
987.86502	22548.775
991.59999	22833.175
995.33237	23263.075
999.06217	24006.475
1002.78939	24968.475
1006.51404	25655.275
1010.23611	26141.175
1013.95561	26482.375
1017.67255	26397.075
1021.38692	26013.775
1025.09872	25580.975
1028.80796	25563.375
1032.51465	26021.275
1036.21877	26533.975
1039.92035	26696.675
1043.61937	26514.175
1047.31584	26024.075
1051.00976	25512.975
1054.70114	25388.775
1058.38998	25438.775
1062.07627	25713.775
1065.76003	25985.975
1069.44126	26219.075
1073.11995	26441.275
1076.79611	26683.875
1080.46974	26955.475
1084.14085	27420.975
1087.80943	28060.375
1091.47549	28409.875
1095.13903	28194.975
1098.80005	27491.375
1102.45857	26633.775
1106.11456	26079.675
1109.76805	25971.775
1113.41903	26348.175
1117.06751	26976.875
1120.71348	27830.675
1124.35696	28680.675
1127.99793	29508.675
1131.63641	29587.275
1135.2724	28721.075
1138.90589	27839.475
1142.5369	27218.275
1146.16542	26996.075
1149.79145	27000.675
1153.415	27256.175
1157.03607	27719.375
1160.65467	28541.075
1164.27079	29868.675
1167.88443	31775.875
1171.49561	34578.475
1175.10432	38798.375
1178.71056	44144.575
1182.31434	48428.175
1185.91565	50026.575
1189.51451	49511.975
1193.11091	47313.575
1196.70485	44246.275
1200.29634	41474.575
1203.88538	39257.175
1207.47197	37151.275
1211.05612	35429.475
1214.63782	34276.075
1218.21708	33822.275
1221.79391	33637.975
1225.36829	33630.175
1228.94024	33457.175
1232.50976	33139.075
1236.07685	32874.075
1239.6415	32683.675
1243.20374	32664.675
1246.76355	32778.975
1250.32093	33293.275
1253.8759	34179.075
1257.42845	35399.975
1260.97859	36586.375
1264.52631	37727.375
1268.07163	38805.275
1271.61453	40059.875
1275.15503	41183.975
1278.69312	42183.775
1282.22882	43067.475
1285.76211	44099.375
1289.29301	45603.175
1292.82151	47449.375
1296.34761	49687.775
1299.87133	52598.875
1303.39266	56556.575
1306.9116	61929.175
1310.42815	67937.875
1313.94233	72337.075
1317.45412	72690.775
1320.96354	70524.375
1324.47058	67381.375
1327.97525	64499.775
1331.47754	62292.375
1334.97747	61269.675
1338.47502	61182.875
1341.97022	61551.675
1345.46305	61769.675
1348.95352	61839.075
1352.44163	62418.975
1355.92738	64819.075
1359.41078	70343.475
1362.89183	76393.475
1366.37053	74846.875
1369.84688	65588.575
1373.32088	55779.275
1376.79254	49574.475
1380.26186	46942.475
1383.72883	46111.375
1387.19347	45739.375
1390.65578	45158.875
1394.11575	45017.875
1397.57339	45537.175
1401.0287	46557.375
1404.48168	47624.775
1407.93234	48260.775
1411.38068	47992.275
1414.82669	46695.275
1418.27039	44556.975
1421.71177	42147.775
1425.15083	40160.175
1428.58758	38930.975
1432.02203	38802.475
1435.45416	39260.075
1438.88399	39971.875
1442.31151	40664.175
1445.73673	41430.175
1449.15965	42251.875
1452.58027	42878.775
1455.9986	43200.575
1459.41463	43610.675
1462.82837	44321.375
1466.23982	45160.275
1469.64898	45972.275
1473.05586	46247.075
1476.46045	46212.575
1479.86276	46109.975
1483.26279	46159.575
1486.66054	46417.375
1490.05602	47044.775
1493.44922	47927.175
1496.84016	49326.575
1500.22882	51764.075
1503.61521	55440.875
1506.99934	60042.275
1510.38121	64883.175
1513.76081	67953.075
1517.13816	66640.175
1520.51324	61386.875
1523.88607	55631.675
1527.25665	51509.275
1530.62498	49019.875
1533.99105	47653.975
1537.35488	46779.775
1540.71647	46008.175
1544.07581	45213.975
1547.4329	44332.275
1550.78776	43548.575
1554.14038	43163.975
1557.49077	43275.975
1560.83892	43715.875
1564.18484	44417.875
1567.52853	44977.775
1570.86999	45410.875
1574.20922	45818.275
1577.54624	46000.475
1580.88103	45026.675
1584.2136	43940.175
1587.54395	44085.475
1590.87208	45875.475
1594.19801	48949.475
1597.52172	52196.375
1600.84321	53406.075
1604.16251	51050.875
1607.47959	46790.675
1610.79447	42376.775
1614.10715	38255.175
1617.41763	34985.675
1620.7259	32725.275
1624.03199	31550.075
1627.33587	31421.675
1630.63757	32419.175
1633.93707	34616.975
1637.23439	37997.275
1640.52951	42684.475
1643.82246	48245.275
1647.11321	53630.375
1650.40179	56478.975
1653.68819	54257.475
1656.97241	47059.275
1660.25446	38918.375
1663.53433	32746.775
1666.81203	28793.375
1670.08756	26452.075
1673.36092	24983.875
1676.63211	24027.575
1679.90115	23402.075
1683.16801	22940.375
1686.43272	22573.275
1689.69527	22330.875
1692.95567	22117.575
1696.2139	21984.575
1699.46999	21927.975
1702.72392	21788.375
1705.97571	21715.875
1709.22535	21688.275
1712.47284	21623.975
1715.71819	21615.875
1718.96139	21581.475
1722.20246	21554.075
1725.44139	21408.275
1728.67818	21273.775
1731.91284	21080.575
1735.14537	20965.675
1738.37576	20796.475
1741.60403	20705.475
1744.83017	20678.075
1748.05418	20594.975
1751.27607	20553.675
1754.49584	20515.175
1757.71349	20474.275
1760.92903	20458.375
1764.14244	20411.275
1767.35375	20391.875
1770.56294	20367.575
1773.77002	20255.875
1776.97499	20221.875
1780.17785	20172.575
1783.37861	20138.475
1786.57727	20106.375
1789.77382	20071.275
1792.96828	20054.175
1796.16064	20048.275
1799.3509	20003.675
1802.53907	19967.175
1805.72514	19920.775
1808.90913	19800.175
1812.09102	19742.075
1815.27083	19708.775
1818.44856	19667.275
1821.6242	19627.575
1824.79776	19625.775
1827.96924	19571.075
1831.13864	19544.375
1834.30597	19567.475
1837.47122	19521.275
1840.6344	19519.675
1843.7955	19561.875
1846.95454	19551.275
1850.11151	19539.975
1853.26642	19530.075
1856.41926	19568.675
1859.57004	19573.375
1862.71876	19573.975
1865.86542	19590.175
1869.01003	19579.575
1872.15258	19593.175
1875.29308	19607.075
1878.43152	19578.675
1881.56792	19604.775
1884.70227	19656.775
1887.83457	19631.975
1890.96482	19629.675
1894.09304	19631.475
1897.21921	19674.475
1900.34335	19656.275
1903.46544	19727.575
1906.58551	19759.075
1909.70353	19768.475
1912.81953	19719.175
1915.93349	19716.975
1919.04543	19699.475
1922.15534	19636.175
1925.26322	19588.075
1928.36908	19488.075
1931.47292	19437.375
1934.57473	19314.375
1937.67453	19215.875
1940.77232	19110.675
1943.86808	18991.875
1946.96184	18930.275
1950.05358	18833.775
1953.14331	18728.175
1956.23103	18670.075
1959.31675	18584.675
1962.40046	18525.175
1965.48217	18481.975
1968.56188	18419.875
1971.63959	18363.575
1974.7153	18294.175
1977.78901	18263.675
1980.86073	18164.075
1983.93046	18113.175
1986.99819	18039.075
1990.06394	17987.475
1993.1277	17944.675
1996.18947	17883.975
1999.24925	17851.775
2002.30706	17786.375
2005.36288	17739.075
2008.41672	17680.475
2011.46859	17621.875
2014.51848	17577.075
2017.56639	17527.475
2020.61233	17479.575
2023.6563	17428.175
2026.6983	17436.975
2029.73833	17358.275
2032.7764	17313.475
2035.8125	17242.075
2038.84664	17236.875
2041.87881	17236.875
2044.90903	17199.575
2047.93729	17160.075
2050.96359	17143.575
2053.98794	17098.975
2057.01034	17091.075
2060.03078	17072.775
2063.04927	17048.975
2066.06582	17079.275
2069.08042	17010.175
2072.09307	16995.175
2075.10378	16993.175
2078.11255	17000.575
2081.11938	16961.575
2084.12426	16942.775
2087.12722	16946.575
2090.12824	16926.475
2093.12732	16907.975
2096.12447	16874.775
2099.11969	16923.175
2102.11299	16933.275
2105.10435	16895.875
2108.09379	16876.675
2111.08131	16895.175
2114.0669	16913.575
2117.05057	16925.875
2120.03233	16935.375
2123.01216	16955.875
2125.99008	16953.875
2128.96609	16977.475
2131.94018	17001.375
2134.91236	17000.075
2137.88263	16994.675
2140.851	17032.775
2143.81746	17054.975
2146.78201	17032.775
2149.74466	17026.875
2152.7054	16987.575
2155.66425	16956.475
2158.6212	16978.475
2161.57625	16948.175
2164.52941	16963.475
2167.48067	16922.275
2170.43004	16964.175
2173.37752	16939.475
2176.32311	16949.875
2179.26681	16894.375
2182.20863	16907.775
2185.14856	16956.775
2188.08661	16967.375
2191.02278	16952.175
2193.95707	16938.875
2196.88948	16898.075
2199.82001	16920.575
2202.74867	16901.075
2205.67545	16882.175
2208.60037	16860.475
2211.52341	16843.075
2214.44458	16845.475
2217.36388	16818.975
2220.28132	16775.975
2223.1969	16720.975
2226.11061	16702.275
2229.02246	16655.375
2231.93245	16604.875
2234.84058	16586.775
2237.74686	16546.875
2240.65128	16534.975
2243.55385	16496.575
2246.45456	16471.075
2249.35343	16461.575
2252.25044	16440.275
2255.14561	16438.875
2258.03893	16433.775
2260.93041	16396.875
2263.82004	16392.175
2266.70783	16351.175
2269.59378	16265.575
2272.4779	16245.575
2275.36017	16199.975
2278.24061	16176.975
2281.11922	16129.375
2283.996	16075.875
2286.87094	16092.575
2289.74405	16066.875
2292.61534	16047.475
2295.4848	16038.175
2298.35243	16015.575
2301.21824	16039.875
2304.08223	16057.075
2306.94439	16040.175
2309.80474	16054.475
2312.66327	16097.275
2315.51999	16064.775
2318.37489	16004.075
2321.22797	16024.075
2324.07925	16004.475
2326.92871	16001.375
2329.77637	15968.275
2332.62222	15948.275
2335.46626	15941.675
2338.3085	15941.975
2341.14893	15967.275
2343.98756	16014.075
2346.8244	15997.275
2349.65943	15992.175
2352.49267	16005.975
2355.32411	16042.075
2358.15376	16030.175
2360.98161	16048.175
2363.80768	16009.975
2366.63195	16028.675
2369.45444	16023.275
2372.27514	15980.875
2375.09405	15977.475
2377.91118	15907.275
2380.72652	15847.075
2383.54009	15790.075
2386.35187	15746.575
2389.16188	15681.975
2391.97011	15680.475
2394.77657	15629.075
2397.58125	15615.475
2400.38416	15589.175
2403.18529	15536.275
2405.98466	15528.175
2408.78226	15481.575
2411.57809	15464.375
2414.37216	15443.175
2417.16446	15435.775
2419.955	15434.375
2422.74378	15393.075
2425.5308	15342.775
2428.31606	15348.375
2431.09956	15337.875
2433.88131	15359.375
2436.6613	15370.275
2439.43954	15360.875
2442.21603	15362.275
2444.99077	15324.075
2447.76377	15351.275
2450.53501	15330.775
2453.30451	15341.075
2456.07226	15340.575
2458.83827	15344.875
2461.60254	15337.375
2464.36507	15319.675
2467.12586	15292.075
2469.88492	15322.075
2472.64224	15332.375
2475.39782	15343.175
2478.15167	15400.875
2480.90379	15382.675
2483.65417	15389.375
2486.40283	15426.375
2489.14976	15489.475
2491.89497	15487.575
2494.63845	15518.975
2497.3802	15502.675
2500.12024	15494.175
2502.85855	15475.275
2505.59514	15425.575
2508.33002	15424.475
2511.06318	15397.575
2513.79462	15347.175
2516.52435	15328.975
2519.25237	15312.075
2521.97867	15265.075
2524.70327	15260.075
2527.42616	15209.975
2530.14734	15240.475
2532.86681	15270.375
2535.58458	15235.175
2538.30065	15203.075
2541.01501	15209.475
2543.72768	15208.275
2546.43864	15218.975
2549.14791	15172.775
2551.85548	15173.875
2554.56136	15167.275
2557.26554	15121.375
2559.96803	15115.975
2562.66883	15086.275
2565.36794	15076.275
2568.06536	15041.775
2570.7611	15053.975
2573.45514	15050.375
2576.14751	15043.775
2578.83819	15020.775
2581.52719	15043.375
2584.21451	15007.175
2586.90015	15044.575
2589.58411	15042.275
2592.2664	15044.875
2594.94701	15038.275
2597.62594	15050.975
2600.30321	14986.575
2602.9788	15014.775
2605.65273	15032.275
2608.32498	15044.775
2610.99557	14989.875
2613.66449	15008.375
2616.33175	15042.675
2618.99734	15065.675
2621.66128	15044.775
2624.32355	15042.775
2626.98416	15013.475
2629.64311	15026.175
2632.30041	15051.375
2634.95605	15005.075
2637.61004	15003.975
2640.26238	14940.275
2642.91306	14956.775
2645.56209	14939.275
2648.20948	14953.575
2650.85521	14946.675
2653.4993	14939.075
2656.14175	14926.475
2658.78255	14957.375
2661.42171	14957.575
2664.05923	14990.175
2666.6951	14984.875
2669.32934	15032.775
2671.96194	15018.675
2674.59291	15028.675
2677.22224	15037.475
2679.84993	15064.675
2682.476	15005.675
2685.10043	15006.475
2687.72324	14979.475
2690.34441	14982.575
2692.96396	14931.675
2695.58188	14981.675
2698.19818	14954.975
2700.81285	14967.575
2703.4259	14983.175
2706.03733	15002.975
2708.64714	14978.375
2711.25533	14987.175
2713.86191	14964.675
2716.46687	15000.075
2719.07021	15035.975
2721.67194	15051.875
2724.27206	15020.975
2726.87057	15054.175
2729.46747	15056.175
2732.06276	15064.975
2734.65644	15028.275
2737.24852	15029.875
2739.83899	15001.475
2742.42786	15027.375
2745.01513	14979.075
2747.60079	14986.175
2750.18486	14987.875
2752.76733	14966.975
2755.3482	14957.875
2757.92747	14949.675
2760.50515	14953.075
2763.08123	14991.575
2765.65573	14925.375
2768.22863	14967.875
2770.79994	14938.775
2773.36967	14930.875
2775.9378	14931.375
2778.50435	14921.775
2781.06932	14915.875
2783.6327	14945.175
2786.1945	14936.075
2788.75471	14922.175
2791.31335	14915.775
2793.87041	14910.075
2796.42589	14833.075
2798.97979	14851.275
2801.53212	14839.275
2804.08288	14763.475
2806.63206	14731.275
2809.17967	14737.775
2811.72571	14718.075
2814.27018	14725.675
2816.81308	14708.775
2819.35442	14695.975
2821.89419	14666.575
2824.43239	14713.475
2826.96904	14719.775
2829.50412	14688.075
2832.03763	14647.775
2834.56959	14655.975
2837.1	14623.775
2839.62884	14662.375
2842.15613	14660.575
2844.68186	14747.875
2847.20604	14748.475
2849.72867	14763.775
2852.24974	14786.075
2854.76927	14794.175
2857.28724	14758.975
2859.80367	14789.875
2862.31855	14720.475
2864.83189	14701.475
2867.34368	14677.775
2869.85393	14670.775
2872.36264	14666.575
2874.8698	14654.475
2877.37543	14628.275
2879.87952	14642.475
2882.38207	14637.075
2884.88308	14634.975
2887.38256	14625.475
2889.88051	14622.575
2892.37692	14611.075
2894.8718	14574.475
2897.36515	14644.675
2899.85698	14648.175
2902.34727	14681.675
2904.83604	14692.075
2907.32328	14707.275
2909.809	14697.975
2912.29319	14726.075
2914.77587	14735.875
2917.25702	14762.275
2919.73665	14741.975
2922.21476	14716.675
2924.69136	14682.875
2927.16644	14688.175
2929.64	14633.075
2932.11205	14612.475
2934.58258	14548.075
2937.05161	14545.175
2939.51912	14543.075
2941.98513	14502.675
2944.44962	14462.075
2946.91261	14382.175
2949.37409	14387.675
2951.83407	14367.075
2954.29254	14347.575
2956.74951	14332.575
2959.20498	14303.375
2961.65895	14266.975
2964.11142	14294.375
2966.56239	14229.775
2969.01186	14240.175
2971.45984	14180.475
2973.90632	14192.375
2976.35131	14147.075
2978.7948	14150.575
2981.23681	14099.675
2983.67732	14074.075
2986.11635	14032.075
2988.55388	13995.875
2990.98993	13985.975
2993.4245	13921.375
2995.85758	13878.675
2998.28917	13886.875
3000.71928	13832.875
3003.14791	13792.875
3005.57506	13771.375
3008.00073	13741.275
3010.42493	13616.275
3012.84764	13675.375
3015.26888	13691.475
3017.68865	13634.975
3020.10694	13609.175
3022.52376	13592.475
3024.9391	13585.475
3027.35298	13567.475
3029.76539	13513.675
3032.17632	13505.075
3034.5858	13470.675
3036.9938	13493.675
3039.40034	13451.675
3041.80542	13474.575
3044.20903	13449.175
3046.61118	13420.475
3049.01187	13361.575
3051.4111	13392.775
3053.80888	13380.775
3056.20519	13305.675
3058.60005	13282.875
3060.99345	13240.275
3063.3854	13177.475
3065.7759	13137.575
3068.16494	13084.375
3070.55254	13039.875
3072.93868	13009.975
3075.32338	12967.475
3077.70662	12934.375
3080.08842	12883.275
3082.46878	12872.775
3084.84769	12818.375
3087.22515	12832.375
3089.60118	12839.875
3091.97576	12812.575
3094.3489	12799.975
3096.72061	12794.375
3099.09087	12796.775
3101.4597	12774.875
3103.82709	12748.975
3106.19305	12750.475
3108.55757	12741.775
3110.92066	12697.175
3113.28232	12690.575
3115.64255	12635.875
3118.00134	12624.075
3120.35871	12604.475
3122.71466	12580.775
3125.06917	12526.075
3127.42226	12498.375
