Data from AgNPs_FTO_APTES_UA_5uM_CRN_10uM_R6G_10uM_NaF_0.1M_Addition_RamanShift__1__12-24-26-712.txt Node

Date: Mon Feb 07 12:24:26 GMT 2022
User: TCL
Spectrometer: QEP01345
Trigger mode: 4
Integration Time (sec): 7.000000E0
Scans to average: 10
Electric dark correction enabled: true
Nonlinearity correction enabled: false
Boxcar width: 0
XAxis mode: Raman Shifts
Number of Pixels in Spectrum: 1044
>>>>>Begin Spectral Data<<<<<
46.04893	-0.45
50.45542	-3.15
54.85868	-1.85
59.25871	0.25
63.6555	92.25
68.04907	96.05
72.43941	99.55
76.82654	104.45
81.21044	105.75
85.59113	113.45
89.96862	116.55
94.34289	117.55
98.71396	120.95
103.08183	126.55
107.4465	128.25
111.80798	131.35
116.16626	136.25
120.52136	141.75
124.87327	151.25
129.222	160.05
133.56755	174.45
137.90993	187.75
142.24913	204.95
146.58517	236.15
150.91804	272.45
155.24774	334.65
159.57429	409.55
163.89768	537.55
168.21792	710.85
172.53501	977.85
176.84895	1375.15
181.15975	1925.95
185.46741	2711.15
189.77193	3731.45
194.07331	4980.25
198.37157	6397.35
202.6667	7913.35
206.9587	9400.45
211.24758	10858.25
215.53334	12402.45
219.81599	13979.15
224.09553	15774.65
228.37195	17742.25
232.64527	19870.35
236.91549	22025.35
241.18261	24177.75
245.44663	26165.85
249.70755	27875.95
253.96539	29392.65
258.22014	30693.65
262.4718	31747.85
266.72039	32521.25
270.96589	32966.85
275.20832	32998.65
279.44768	32797.25
283.68397	32486.45
287.91719	32223.35
292.14735	32090.85
296.37445	32141.25
300.59849	32380.55
304.81948	32754.75
309.03742	32948.05
313.25231	32807.35
317.46415	32109.15
321.67296	31253.25
325.87872	30470.55
330.08145	30074.45
334.28114	30001.45
338.47781	30112.25
342.67145	30521.65
346.86207	31069.35
351.04966	31761.15
355.23424	32553.05
359.4158	33147.65
363.59435	33603.95
367.76989	33859.75
371.94243	33962.85
376.11196	34026.05
380.27849	34188.55
384.44203	34283.55
388.60257	34503.85
392.76012	34770.65
396.91468	35207.45
401.06626	35824.05
405.21485	36247.55
409.36047	36046.95
413.50311	35461.05
417.64277	35095.45
421.77947	35055.35
425.9132	35106.35
430.04396	35253.55
434.17176	35433.75
438.2966	35772.75
442.41849	36582.55
446.53742	37890.45
450.6534	39321.75
454.76644	40233.05
458.87653	40431.85
462.98368	39938.65
467.08789	39147.05
471.18916	38378.45
475.2875	37675.45
479.38291	37283.35
483.4754	36952.85
487.56496	36609.15
491.6516	36023.05
495.73531	35413.15
499.81612	35028.05
503.89401	35114.35
507.96899	35213.85
512.04106	35110.85
516.11023	34797.25
520.1765	34474.65
524.23987	34201.55
528.30034	34017.55
532.35792	33728.75
536.41261	33242.45
540.46441	32755.45
544.51333	32581.55
548.55936	32903.65
552.60252	33680.85
556.64279	34710.15
560.6802	35609.05
564.71473	36115.35
568.7464	36964.55
572.7752	38129.65
576.80114	39047.25
580.82422	39826.55
584.84444	41281.35
588.86181	43286.45
592.87633	45111.55
596.888	45290.25
600.89682	43460.65
604.9028	42765.45
608.90594	45873.65
612.90624	49948.15
616.90371	47116.85
620.89834	38758.25
624.89015	34892.45
628.87913	34362.55
632.86528	34364.65
636.84862	34152.35
640.82913	33396.55
644.80683	32424.65
648.78172	31784.45
652.75379	31866.05
656.72306	32358.55
660.68952	33009.85
664.65319	32796.65
668.61405	32095.75
672.57211	31883.45
676.52738	31994.35
680.47986	31904.05
684.42955	31625.65
688.37646	31461.95
692.32058	31737.05
696.26192	32286.15
700.20048	32888.35
704.13626	33197.65
708.06928	33145.75
711.99952	32925.15
715.927	32962.25
719.85171	33188.15
723.77365	33079.95
727.69284	32533.45
731.60928	32065.65
735.52295	31911.65
739.43388	31932.25
743.34206	32015.25
747.24749	32267.95
751.15017	32651.65
755.05012	33272.95
758.94733	34332.25
762.8418	36176.85
766.73354	39072.85
770.62254	41795.15
774.50882	42386.15
778.39237	40480.15
782.27321	37399.45
786.15132	34758.05
790.02671	33170.05
793.89938	32385.25
797.76935	32054.05
801.6366	31954.35
805.50115	31821.45
809.36299	31690.15
813.22213	31472.85
817.07857	31371.05
820.93231	31246.15
824.78336	31115.75
828.63172	31065.95
832.47738	31125.85
836.32036	31175.45
840.16066	31333.95
843.99827	31458.95
847.8332	31371.15
851.66546	31209.65
855.49504	31124.45
859.32195	31143.05
863.1462	31015.65
866.96777	30844.65
870.78668	30732.35
874.60293	30721.05
878.41652	30737.15
882.22745	30872.25
886.03573	31044.05
889.84136	30965.55
893.64433	30804.35
897.44466	30631.35
901.24235	30591.65
905.0374	30484.35
908.8298	30447.55
912.61957	30530.65
916.40671	30847.65
920.19121	31370.25
923.97308	31851.45
927.75233	32095.55
931.52895	31862.25
935.30295	31348.55
939.07433	30691.95
942.84309	30270.35
946.60924	30063.25
950.37278	29963.85
954.13371	29945.65
957.89203	29711.05
961.64774	29693.75
965.40086	29681.55
969.15137	29638.45
972.89929	29587.75
976.64461	29589.05
980.38733	29678.35
984.12747	29886.65
987.86502	30113.85
991.59999	30480.15
995.33237	31084.85
999.06217	31956.05
1002.78939	32996.25
1006.51404	33732.55
1010.23611	34217.35
1013.95561	34536.65
1017.67255	34474.75
1021.38692	33961.65
1025.09872	33365.55
1028.80796	33413.95
1032.51465	34371.05
1036.21877	35397.25
1039.92035	35631.55
1043.61937	35308.95
1047.31584	34514.45
1051.00976	33673.95
1054.70114	33153.45
1058.38998	33047.15
1062.07627	33099.35
1065.76003	33278.35
1069.44126	33560.05
1073.11995	34086.45
1076.79611	34546.45
1080.46974	34892.15
1084.14085	35288.85
1087.80943	35715.45
1091.47549	36126.55
1095.13903	36120.25
1098.80005	35547.75
1102.45857	34640.75
1106.11456	34118.55
1109.76805	33882.95
1113.41903	33957.25
1117.06751	34233.35
1120.71348	34556.45
1124.35696	35039.55
1127.99793	35502.85
1131.63641	35686.05
1135.2724	35451.55
1138.90589	35210.85
1142.5369	35169.25
1146.16542	35383.35
1149.79145	35735.15
1153.415	36218.15
1157.03607	36852.95
1160.65467	38079.35
1164.27079	40118.45
1167.88443	42478.65
1171.49561	45084.75
1175.10432	48536.35
1178.71056	52978.65
1182.31434	56913.75
1185.91565	58461.15
1189.51451	57522.45
1193.11091	55274.05
1196.70485	52817.55
1200.29634	50780.45
1203.88538	49604.15
1207.47197	48813.65
1211.05612	48079.55
1214.63782	47090.15
1218.21708	45985.75
1221.79391	45083.25
1225.36829	44521.55
1228.94024	43797.35
1232.50976	42798.95
1236.07685	41837.45
1239.6415	41352.65
1243.20374	41313.85
1246.76355	41807.85
1250.32093	42591.55
1253.8759	43593.95
1257.42845	44913.65
1260.97859	46276.45
1264.52631	47736.05
1268.07163	49234.35
1271.61453	50913.75
1275.15503	52616.25
1278.69312	54361.75
1282.22882	56148.95
1285.76211	58206.15
1289.29301	60753.05
1292.82151	63853.75
1296.34761	67714.35
1299.87133	72428.65
1303.39266	77448.65
1306.9116	82477.45
1310.42815	86445.25
1313.94233	88240.25
1317.45412	87269.45
1320.96354	84728.95
1324.47058	82095.25
1327.97525	79932.85
1331.47754	78298.75
1334.97747	77184.65
1338.47502	75840.05
1341.97022	74113.95
1345.46305	72234.05
1348.95352	71240.85
1352.44163	71932.85
1355.92738	74711.55
1359.41078	79453.35
1362.89183	83588.75
1366.37053	82734.05
1369.84688	75507.45
1373.32088	66148.85
1376.79254	59841.75
1380.26186	57727.25
1383.72883	57992.05
1387.19347	58150.35
1390.65578	57517.75
1394.11575	57240.15
1397.57339	57975.45
1401.0287	59346.15
1404.48168	60437.75
1407.93234	60569.05
1411.38068	59377.45
1414.82669	57217.65
1418.27039	54583.45
1421.71177	51989.75
1425.15083	49680.05
1428.58758	48696.45
1432.02203	49128.45
1435.45416	50774.35
1438.88399	52606.65
1442.31151	53980.75
1445.73673	54794.25
1449.15965	55403.55
1452.58027	55442.35
1455.9986	54993.15
1459.41463	54860.15
1462.82837	55386.05
1466.23982	56577.65
1469.64898	57807.65
1473.05586	58735.25
1476.46045	59083.15
1479.86276	58851.85
1483.26279	58281.75
1486.66054	58063.45
1490.05602	58268.15
1493.44922	58737.85
1496.84016	59224.55
1500.22882	60076.55
1503.61521	61551.15
1506.99934	63466.15
1510.38121	65388.65
1513.76081	66121.15
1517.13816	64990.35
1520.51324	62490.15
1523.88607	60300.25
1527.25665	59282.35
1530.62498	59033.95
1533.99105	58691.05
1537.35488	57957.95
1540.71647	56737.75
1544.07581	55003.15
1547.4329	53300.25
1550.78776	51901.45
1554.14038	50942.85
1557.49077	50392.35
1560.83892	50063.95
1564.18484	50140.05
1567.52853	50426.95
1570.86999	51044.95
1574.20922	52070.05
1577.54624	53033.75
1580.88103	53551.05
1584.2136	54262.75
1587.54395	56462.35
1590.87208	60189.25
1594.19801	64629.35
1597.52172	68383.85
1600.84321	69129.75
1604.16251	65234.65
1607.47959	58832.35
1610.79447	52324.65
1614.10715	46848.15
1617.41763	43000.15
1620.7259	40722.55
1624.03199	39763.85
1627.33587	40182.85
1630.63757	41845.55
1633.93707	45078.25
1637.23439	50190.35
1640.52951	57525.65
1643.82246	66383.75
1647.11321	73509.35
1650.40179	74668.45
1653.68819	68312.55
1656.97241	57824.85
1660.25446	47929.95
1663.53433	41034.65
1666.81203	36738.35
1670.08756	34127.35
1673.36092	32584.35
1676.63211	31582.45
1679.90115	30882.05
1683.16801	30324.85
1686.43272	29951.65
1689.69527	29703.65
1692.95567	29502.45
1696.2139	29262.25
1699.46999	29141.55
1702.72392	29015.35
1705.97571	28981.95
1709.22535	28927.05
1712.47284	28868.15
1715.71819	28836.05
1718.96139	28811.25
1722.20246	28672.75
1725.44139	28560.95
1728.67818	28390.05
1731.91284	28237.75
1735.14537	28042.65
1738.37576	27921.85
1741.60403	27840.75
1744.83017	27709.75
1748.05418	27604.55
1751.27607	27592.35
1754.49584	27535.85
1757.71349	27478.95
1760.92903	27466.85
1764.14244	27456.65
1767.35375	27430.25
1770.56294	27425.75
1773.77002	27329.95
1776.97499	27264.35
1780.17785	27237.35
1783.37861	27183.65
1786.57727	27127.05
1789.77382	27083.65
1792.96828	27067.35
1796.16064	27049.15
1799.3509	26992.45
1802.53907	26944.65
1805.72514	26829.35
1808.90913	26787.15
1812.09102	26722.65
1815.27083	26689.15
1818.44856	26616.65
1821.6242	26539.05
1824.79776	26556.65
1827.96924	26543.05
1831.13864	26488.25
1834.30597	26542.55
1837.47122	26483.05
1840.6344	26480.75
1843.7955	26506.55
1846.95454	26469.95
1850.11151	26488.35
1853.26642	26443.05
1856.41926	26425.75
1859.57004	26454.55
1862.71876	26461.65
1865.86542	26372.85
1869.01003	26357.15
1872.15258	26299.15
1875.29308	26308.35
1878.43152	26342.65
1881.56792	26341.25
1884.70227	26287.45
1887.83457	26294.15
1890.96482	26289.85
1894.09304	26232.35
1897.21921	26214.35
1900.34335	26209.65
1903.46544	26163.85
1906.58551	26190.25
1909.70353	26133.95
1912.81953	26095.85
1915.93349	26041.65
1919.04543	26057.35
1922.15534	25978.05
1925.26322	25915.55
1928.36908	25791.65
1931.47292	25805.85
1934.57473	25703.15
1937.67453	25619.55
1940.77232	25563.75
1943.86808	25501.65
1946.96184	25479.85
1950.05358	25422.65
1953.14331	25341.35
1956.23103	25254.55
1959.31675	25180.65
1962.40046	25121.15
1965.48217	25082.85
1968.56188	25013.55
1971.63959	24919.75
1974.7153	24878.95
1977.78901	24800.05
1980.86073	24657.25
1983.93046	24600.35
1986.99819	24519.05
1990.06394	24460.25
1993.1277	24468.65
1996.18947	24365.65
1999.24925	24361.25
2002.30706	24200.15
2005.36288	24217.15
2008.41672	24087.65
2011.46859	24062.75
2014.51848	24012.45
2017.56639	23950.55
2020.61233	23913.05
2023.6563	23825.85
2026.6983	23781.95
2029.73833	23729.15
2032.7764	23711.25
2035.8125	23684.85
2038.84664	23612.15
2041.87881	23611.65
2044.90903	23593.55
2047.93729	23552.55
2050.96359	23530.05
2053.98794	23461.65
2057.01034	23477.35
2060.03078	23471.45
2063.04927	23490.65
2066.06582	23493.95
2069.08042	23471.05
2072.09307	23444.55
2075.10378	23406.85
2078.11255	23380.85
2081.11938	23387.95
2084.12426	23371.45
2087.12722	23362.15
2090.12824	23336.65
2093.12732	23355.75
2096.12447	23360.15
2099.11969	23395.15
2102.11299	23410.45
2105.10435	23360.75
2108.09379	23381.65
2111.08131	23421.65
2114.0669	23420.85
2117.05057	23431.95
2120.03233	23428.25
2123.01216	23420.65
2125.99008	23475.35
2128.96609	23479.85
2131.94018	23505.45
2134.91236	23494.95
2137.88263	23563.65
2140.851	23621.45
2143.81746	23597.95
2146.78201	23542.55
2149.74466	23564.95
2152.7054	23550.95
2155.66425	23593.05
2158.6212	23516.55
2161.57625	23516.15
2164.52941	23520.95
2167.48067	23551.25
2170.43004	23542.65
2173.37752	23510.75
2176.32311	23561.95
2179.26681	23552.95
2182.20863	23565.85
2185.14856	23588.15
2188.08661	23570.65
2191.02278	23607.95
2193.95707	23600.95
2196.88948	23554.75
2199.82001	23550.65
2202.74867	23539.95
2205.67545	23513.65
2208.60037	23476.45
2211.52341	23482.75
2214.44458	23481.75
2217.36388	23463.05
2220.28132	23405.05
2223.1969	23377.35
2226.11061	23317.95
2229.02246	23268.25
2231.93245	23272.15
2234.84058	23242.85
2237.74686	23230.25
2240.65128	23141.35
2243.55385	23138.55
2246.45456	23127.55
2249.35343	23083.65
2252.25044	23031.05
2255.14561	23026.15
2258.03893	22930.65
2260.93041	22942.05
2263.82004	22863.35
2266.70783	22812.85
2269.59378	22767.35
2272.4779	22719.55
2275.36017	22667.05
2278.24061	22673.45
2281.11922	22606.35
2283.996	22541.15
2286.87094	22583.55
2289.74405	22530.15
2292.61534	22488.65
2295.4848	22504.35
2298.35243	22546.15
2301.21824	22542.35
2304.08223	22545.45
2306.94439	22563.25
2309.80474	22575.55
2312.66327	22621.95
2315.51999	22577.45
2318.37489	22548.25
2321.22797	22533.95
2324.07925	22507.05
2326.92871	22499.15
2329.77637	22471.25
2332.62222	22428.45
2335.46626	22437.65
2338.3085	22440.85
2341.14893	22449.55
2343.98756	22479.95
2346.8244	22474.35
2349.65943	22428.95
2352.49267	22424.95
2355.32411	22482.25
2358.15376	22434.15
2360.98161	22447.75
2363.80768	22423.55
2366.63195	22405.95
2369.45444	22402.25
2372.27514	22344.85
2375.09405	22344.55
2377.91118	22270.65
2380.72652	22241.65
2383.54009	22197.25
2386.35187	22132.05
2389.16188	22132.75
2391.97011	22087.55
2394.77657	22074.05
2397.58125	22024.45
2400.38416	22014.25
2403.18529	21964.15
2405.98466	21957.45
2408.78226	21937.45
2411.57809	21909.05
2414.37216	21898.75
2417.16446	21886.45
2419.955	21820.65
2422.74378	21791.25
2425.5308	21791.35
2428.31606	21782.35
2431.09956	21769.75
2433.88131	21751.35
2436.6613	21753.65
2439.43954	21778.05
2442.21603	21751.95
2444.99077	21747.75
2447.76377	21755.25
2450.53501	21754.05
2453.30451	21784.95
2456.07226	21729.35
2458.83827	21701.75
2461.60254	21732.65
2464.36507	21735.25
2467.12586	21726.35
2469.88492	21767.65
2472.64224	21756.95
2475.39782	21809.25
2478.15167	21804.15
2480.90379	21799.25
2483.65417	21872.55
2486.40283	21869.75
2489.14976	21894.75
2491.89497	21845.35
2494.63845	21924.35
2497.3802	21890.25
2500.12024	21922.35
2502.85855	21852.65
2505.59514	21856.95
2508.33002	21773.15
2511.06318	21825.45
2513.79462	21805.35
2516.52435	21773.15
2519.25237	21815.55
2521.97867	21751.55
2524.70327	21760.45
2527.42616	21717.95
2530.14734	21739.25
2532.86681	21730.05
2535.58458	21768.05
2538.30065	21750.75
2541.01501	21714.95
2543.72768	21724.65
2546.43864	21695.85
2549.14791	21679.75
2551.85548	21617.45
2554.56136	21643.65
2557.26554	21619.85
2559.96803	21597.65
2562.66883	21608.55
2565.36794	21586.75
2568.06536	21603.85
2570.7611	21580.15
2573.45514	21595.75
2576.14751	21585.85
2578.83819	21519.15
2581.52719	21545.35
2584.21451	21575.45
2586.90015	21574.25
2589.58411	21524.15
2592.2664	21575.35
2594.94701	21541.65
2597.62594	21493.85
2600.30321	21475.65
2602.9788	21488.35
2605.65273	21452.35
2608.32498	21506.05
2610.99557	21501.25
2613.66449	21531.55
2616.33175	21477.25
2618.99734	21485.75
2621.66128	21474.55
2624.32355	21452.75
2626.98416	21467.35
2629.64311	21489.65
2632.30041	21479.15
2634.95605	21453.45
2637.61004	21400.25
2640.26238	21406.65
2642.91306	21387.95
2645.56209	21315.65
2648.20948	21359.75
2650.85521	21393.15
2653.4993	21436.75
2656.14175	21401.45
2658.78255	21441.05
2661.42171	21417.05
2664.05923	21489.05
2666.6951	21466.85
2669.32934	21531.25
2671.96194	21515.75
2674.59291	21520.45
2677.22224	21526.25
2679.84993	21569.75
2682.476	21496.95
2685.10043	21539.95
2687.72324	21527.65
2690.34441	21517.65
2692.96396	21481.25
2695.58188	21482.05
2698.19818	21503.35
2700.81285	21479.85
2703.4259	21464.25
2706.03733	21524.05
2708.64714	21497.55
2711.25533	21527.85
2713.86191	21512.15
2716.46687	21555.95
2719.07021	21544.55
2721.67194	21615.85
2724.27206	21624.85
2726.87057	21651.75
2729.46747	21694.85
2732.06276	21724.65
2734.65644	21689.05
2737.24852	21647.45
2739.83899	21653.05
2742.42786	21673.05
2745.01513	21599.95
2747.60079	21632.65
2750.18486	21581.75
2752.76733	21602.15
2755.3482	21577.65
2757.92747	21591.55
2760.50515	21582.35
2763.08123	21613.75
2765.65573	21603.15
2768.22863	21619.05
2770.79994	21573.65
2773.36967	21567.75
2775.9378	21585.25
2778.50435	21593.15
2781.06932	21595.15
2783.6327	21550.75
2786.1945	21617.35
2788.75471	21608.55
2791.31335	21572.55
2793.87041	21557.45
2796.42589	21474.25
2798.97979	21482.35
2801.53212	21439.55
2804.08288	21431.05
2806.63206	21336.05
2809.17967	21269.05
2811.72571	21252.35
2814.27018	21245.45
2816.81308	21227.45
2819.35442	21207.35
2821.89419	21133.35
2824.43239	21191.15
2826.96904	21184.65
2829.50412	21204.75
2832.03763	21163.05
2834.56959	21131.55
2837.1	21130.95
2839.62884	21113.05
2842.15613	21123.95
2844.68186	21174.55
2847.20604	21204.75
2849.72867	21186.55
2852.24974	21176.95
2854.76927	21194.25
2857.28724	21189.35
2859.80367	21143.75
2862.31855	21108.45
2864.83189	21053.55
2867.34368	21057.15
2869.85393	21066.45
2872.36264	21055.55
2874.8698	21010.85
2877.37543	21026.35
2879.87952	21043.75
2882.38207	21068.25
2884.88308	21042.65
2887.38256	21043.45
2889.88051	21090.85
2892.37692	21116.85
2894.8718	21162.05
2897.36515	21103.35
2899.85698	21123.85
2902.34727	21140.85
2904.83604	21190.05
2907.32328	21234.85
2909.809	21221.55
2912.29319	21227.75
2914.77587	21246.95
2917.25702	21261.75
2919.73665	21181.45
2922.21476	21199.35
2924.69136	21185.95
2927.16644	21185.95
2929.64	21117.45
2932.11205	21121.45
2934.58258	21032.35
2937.05161	21052.15
2939.51912	21105.45
2941.98513	21085.55
2944.44962	21036.65
2946.91261	20956.55
2949.37409	20975.95
2951.83407	20917.85
2954.29254	20951.25
2956.74951	20955.65
2959.20498	20914.35
2961.65895	20926.05
2964.11142	20902.95
2966.56239	20889.15
2969.01186	20878.05
2971.45984	20843.85
2973.90632	20878.65
2976.35131	20789.15
2978.7948	20747.75
2981.23681	20697.75
2983.67732	20642.55
2986.11635	20571.35
2988.55388	20568.25
2990.98993	20543.55
2993.4245	20472.05
2995.85758	20442.35
2998.28917	20389.55
3000.71928	20378.95
3003.14791	20337.25
3005.57506	20297.25
3008.00073	20265.95
3010.42493	20180.45
3012.84764	20212.45
3015.26888	20239.95
3017.68865	20194.65
3020.10694	20110.75
3022.52376	20086.95
3024.9391	20061.85
3027.35298	20072.25
3029.76539	20029.05
3032.17632	19969.75
3034.5858	20021.45
3036.9938	19983.55
3039.40034	19985.55
3041.80542	19970.35
3044.20903	19941.45
3046.61118	19917.95
3049.01187	19883.15
3051.4111	19935.15
3053.80888	19868.05
3056.20519	19888.85
3058.60005	19817.95
3060.99345	19739.15
3063.3854	19723.45
3065.7759	19622.95
3068.16494	19585.55
3070.55254	19573.55
3072.93868	19546.75
3075.32338	19452.55
3077.70662	19416.25
3080.08842	19345.75
3082.46878	19331.55
3084.84769	19318.45
3087.22515	19309.95
3089.60118	19330.55
3091.97576	19298.75
3094.3489	19299.55
3096.72061	19275.95
3099.09087	19285.55
3101.4597	19265.75
3103.82709	19310.95
3106.19305	19261.85
3108.55757	19242.65
3110.92066	19113.75
3113.28232	19181.05
3115.64255	19123.05
3118.00134	19083.95
3120.35871	19055.35
3122.71466	19039.85
3125.06917	18977.65
3127.42226	18884.95
3129.77393	18909.55
3132.12417	18882.65
3134.47299	18869.75
3136.82039	18864.65
3139.16636	18878.45
3141.51092	18875.05
3143.85406	18835.85
3146.19579	18829.45
3148.53609	18851.25
3150.87499	18855.45
3153.21246	18860.75
3155.54853	18846.15
3157.88318	18849.75
3160.21642	18858.75
3162.54826	18840.95
3164.87868	18870.45
3167.2077	18856.25
3169.5353	18839.65
3171.86151	18805.75
3174.18631	18827.55
3176.5097	18811.55
3178.83169	18781.05
3181.15228	18786.55
3183.47147	18738.35
3185.78926	18751.15
3188.10565	18701.55
3190.42065	18672.45
3192.73424	18655.85
3195.04645	18644.15
3197.35725	18616.55
3199.66667	18613.45
3201.97469	18637.25
3204.28132	18613.65
3206.58656	18623.55
3208.8904	18620.15
3211.19287	18632.65
3213.49394	18627.75
3215.79363	18638.95
3218.09193	18622.65
3220.38884	18600.05
3222.68438	18630.95
3224.97853	18602.45
3227.2713	18607.35
3229.56269	18571.85
3231.8527	18598.05
3234.14133	18548.25
3236.42858	18512.45
3238.71446	18498.95
