Data from AgNPs_FTO_APTES_UA_5uM_CRN_20uM_R6G_10uM_NaF_0.1M_Addition_RamanShift__23__13-29-46-787.txt Node

Date: Mon Feb 07 13:29:46 GMT 2022
User: TCL
Spectrometer: QEP01345
Trigger mode: 4
Integration Time (sec): 7.000000E0
Scans to average: 10
Electric dark correction enabled: true
Nonlinearity correction enabled: false
Boxcar width: 0
XAxis mode: Raman Shifts
Number of Pixels in Spectrum: 1044
>>>>>Begin Spectral Data<<<<<
46.04893	-0.0875
50.45542	-0.6875
54.85868	-1.3875
59.25871	-0.8875
63.6555	84.7125
68.04907	86.2125
72.43941	90.9125
76.82654	93.1125
81.21044	99.0125
85.59113	102.1125
89.96862	105.4125
94.34289	105.4125
98.71396	110.0125
103.08183	116.9125
107.4465	119.4125
111.80798	122.2125
116.16626	124.1125
120.52136	136.4125
124.87327	137.6125
129.222	148.5125
133.56755	162.6125
137.90993	176.9125
142.24913	194.6125
146.58517	223.2125
150.91804	265.0125
155.24774	316.0125
159.57429	397.6125
163.89768	520.3125
168.21792	699.9125
172.53501	961.3125
176.84895	1342.2125
181.15975	1884.4125
185.46741	2649.8125
189.77193	3647.6125
194.07331	4855.1125
198.37157	6248.3125
202.6667	7697.7125
206.9587	9146.8125
211.24758	10583.0125
215.53334	12013.2125
219.81599	13613.8125
224.09553	15323.5125
228.37195	17278.9125
232.64527	19336.3125
236.91549	21536.9125
241.18261	23663.4125
245.44663	25629.7125
249.70755	27375.6125
253.96539	28861.1125
258.22014	30183.7125
262.4718	31316.7125
266.72039	32213.8125
270.96589	32763.3125
275.20832	33038.8125
279.44768	33055.1125
283.68397	33066.0125
287.91719	33034.2125
292.14735	33172.4125
296.37445	33478.3125
300.59849	33691.0125
304.81948	33804.5125
309.03742	33536.7125
313.25231	32870.9125
317.46415	31830.2125
321.67296	30444.2125
325.87872	29360.8125
330.08145	28778.6125
334.28114	28691.2125
338.47781	28888.5125
342.67145	29293.5125
346.86207	29853.1125
351.04966	30551.3125
355.23424	31297.0125
359.4158	31882.5125
363.59435	32236.3125
367.76989	32435.0125
371.94243	32505.1125
376.11196	32598.8125
380.27849	32777.3125
384.44203	32874.9125
388.60257	33078.9125
392.76012	33399.0125
396.91468	33830.9125
401.06626	34415.8125
405.21485	34834.6125
409.36047	34570.9125
413.50311	33825.6125
417.64277	33261.4125
421.77947	33153.0125
425.9132	33283.8125
430.04396	33552.3125
434.17176	33871.1125
438.2966	34260.0125
442.41849	34990.2125
446.53742	36077.1125
450.6534	37349.8125
454.76644	38314.5125
458.87653	38635.9125
462.98368	38511.6125
467.08789	38064.0125
471.18916	37606.8125
475.2875	37339.7125
479.38291	37304.9125
483.4754	37115.6125
487.56496	36468.3125
491.6516	35534.8125
495.73531	34680.3125
499.81612	34210.2125
503.89401	34177.2125
507.96899	34248.6125
512.04106	34108.3125
516.11023	33720.8125
520.1765	33357.2125
524.23987	32903.6125
528.30034	32514.6125
532.35792	32164.2125
536.41261	31738.5125
540.46441	31394.7125
544.51333	31479.8125
548.55936	32053.3125
552.60252	33040.8125
556.64279	34121.2125
560.6802	34879.1125
564.71473	35424.6125
568.7464	36309.3125
572.7752	37386.5125
576.80114	37977.8125
580.82422	38271.9125
584.84444	38610.8125
588.86181	39033.4125
592.87633	39646.2125
596.888	40130.3125
600.89682	40124.8125
604.9028	41281.6125
608.90594	44869.5125
612.90624	48859.0125
616.90371	45571.3125
620.89834	37001.5125
624.89015	33276.4125
628.87913	32947.9125
632.86528	33154.1125
636.84862	33064.3125
640.82913	32305.7125
644.80683	31177.1125
648.78172	30288.0125
652.75379	29970.5125
656.72306	30333.1125
660.68952	30942.0125
664.65319	30861.1125
668.61405	30236.9125
672.57211	29955.8125
676.52738	29969.4125
680.47986	29984.1125
684.42955	29865.1125
688.37646	29722.8125
692.32058	29842.8125
696.26192	30226.9125
700.20048	30609.1125
704.13626	30889.2125
708.06928	30873.4125
711.99952	30639.4125
715.927	30429.0125
719.85171	30480.4125
723.77365	30395.0125
727.69284	30022.2125
731.60928	29774.5125
735.52295	29611.8125
739.43388	29694.7125
743.34206	29792.7125
747.24749	29964.2125
751.15017	30381.1125
755.05012	31102.5125
758.94733	32320.5125
762.8418	34573.8125
766.73354	37913.9125
770.62254	41097.6125
774.50882	41577.0125
778.39237	39094.0125
782.27321	35341.4125
786.15132	32439.7125
790.02671	30672.7125
793.89938	29846.9125
797.76935	29542.3125
801.6366	29419.6125
805.50115	29340.9125
809.36299	29199.7125
813.22213	29004.4125
817.07857	28990.8125
820.93231	28962.3125
824.78336	28822.2125
828.63172	28663.2125
832.47738	28552.6125
836.32036	28601.8125
840.16066	28638.5125
843.99827	28707.3125
847.8332	28622.9125
851.66546	28430.7125
855.49504	28346.6125
859.32195	28303.6125
863.1462	28196.9125
866.96777	28071.2125
870.78668	27944.1125
874.60293	27888.5125
878.41652	27888.3125
882.22745	28001.8125
886.03573	28087.0125
889.84136	28099.3125
893.64433	27960.1125
897.44466	27820.7125
901.24235	27709.1125
905.0374	27638.5125
908.8298	27605.9125
912.61957	27708.7125
916.40671	28045.4125
920.19121	28615.4125
923.97308	28964.7125
927.75233	28953.0125
931.52895	28736.1125
935.30295	28281.2125
939.07433	27643.9125
942.84309	27117.8125
946.60924	26834.2125
950.37278	26719.5125
954.13371	26646.9125
957.89203	26525.1125
961.64774	26457.0125
965.40086	26493.4125
969.15137	26298.4125
972.89929	26174.6125
976.64461	26008.6125
980.38733	25980.9125
984.12747	26085.0125
987.86502	26340.9125
991.59999	26726.8125
995.33237	27281.2125
999.06217	28243.9125
1002.78939	29418.4125
1006.51404	30167.2125
1010.23611	30604.4125
1013.95561	30902.3125
1017.67255	30895.2125
1021.38692	30470.0125
1025.09872	30104.4125
1028.80796	30161.1125
1032.51465	30976.6125
1036.21877	31760.0125
1039.92035	31873.0125
1043.61937	31526.7125
1047.31584	30686.5125
1051.00976	29876.5125
1054.70114	29541.4125
1058.38998	29593.4125
1062.07627	29904.9125
1065.76003	30216.1125
1069.44126	30515.4125
1073.11995	30869.9125
1076.79611	31120.2125
1080.46974	31265.8125
1084.14085	31504.7125
1087.80943	31961.2125
1091.47549	32315.8125
1095.13903	32346.0125
1098.80005	31847.9125
1102.45857	31127.7125
1106.11456	30471.4125
1109.76805	30245.3125
1113.41903	30395.0125
1117.06751	30778.5125
1120.71348	31252.2125
1124.35696	31725.3125
1127.99793	32203.8125
1131.63641	32471.7125
1135.2724	32191.8125
1138.90589	31877.6125
1142.5369	31715.8125
1146.16542	31829.2125
1149.79145	32108.1125
1153.415	32605.9125
1157.03607	33341.0125
1160.65467	34469.5125
1164.27079	36184.3125
1167.88443	38498.5125
1171.49561	41544.0125
1175.10432	45557.0125
1178.71056	50469.9125
1182.31434	54864.4125
1185.91565	57132.4125
1189.51451	57275.9125
1193.11091	55661.5125
1196.70485	53073.3125
1200.29634	50316.4125
1203.88538	48179.5125
1207.47197	46515.8125
1211.05612	45307.4125
1214.63782	44273.8125
1218.21708	43369.2125
1221.79391	42790.2125
1225.36829	42324.6125
1228.94024	41635.1125
1232.50976	40791.0125
1236.07685	40135.7125
1239.6415	39799.1125
1243.20374	39670.1125
1246.76355	39907.2125
1250.32093	40525.6125
1253.8759	41647.4125
1257.42845	42976.1125
1260.97859	44391.7125
1264.52631	45626.9125
1268.07163	46969.5125
1271.61453	48568.4125
1275.15503	50289.1125
1278.69312	52094.7125
1282.22882	53788.1125
1285.76211	55504.9125
1289.29301	57485.1125
1292.82151	60301.0125
1296.34761	63770.3125
1299.87133	67898.9125
1303.39266	72525.7125
1306.9116	77470.3125
1310.42815	82266.2125
1313.94233	85523.8125
1317.45412	86299.8125
1320.96354	85221.4125
1324.47058	83740.5125
1327.97525	82281.0125
1331.47754	81002.2125
1334.97747	80447.8125
1338.47502	80353.1125
1341.97022	80255.2125
1345.46305	79094.7125
1348.95352	77170.0125
1352.44163	75082.0125
1355.92738	74757.0125
1359.41078	76871.6125
1362.89183	79386.3125
1366.37053	77729.0125
1369.84688	71069.4125
1373.32088	63531.7125
1376.79254	58395.3125
1380.26186	56586.8125
1383.72883	56741.8125
1387.19347	57186.7125
1390.65578	57397.8125
1394.11575	57966.9125
1397.57339	59418.9125
1401.0287	61063.7125
1404.48168	62672.5125
1407.93234	63149.8125
1411.38068	62138.2125
1414.82669	59774.4125
1418.27039	56337.6125
1421.71177	52826.4125
1425.15083	49960.0125
1428.58758	48376.3125
1432.02203	48302.6125
1435.45416	49282.6125
1438.88399	50781.6125
1442.31151	52343.1125
1445.73673	53648.1125
1449.15965	55054.2125
1452.58027	56211.5125
1455.9986	56848.4125
1459.41463	57597.8125
1462.82837	58483.5125
1466.23982	59522.0125
1469.64898	60308.9125
1473.05586	60454.5125
1476.46045	60047.0125
1479.86276	59283.1125
1483.26279	58335.7125
1486.66054	57829.3125
1490.05602	57599.8125
1493.44922	57717.3125
1496.84016	57877.8125
1500.22882	58593.8125
1503.61521	60012.7125
1506.99934	62227.6125
1510.38121	64416.6125
1513.76081	65657.0125
1517.13816	64786.7125
1520.51324	62360.9125
1523.88607	59961.3125
1527.25665	58541.8125
1530.62498	57950.9125
1533.99105	57739.1125
1537.35488	57518.7125
1540.71647	56962.3125
1544.07581	55797.8125
1547.4329	54444.2125
1550.78776	53184.4125
1554.14038	52299.8125
1557.49077	51994.7125
1560.83892	51885.3125
1564.18484	51862.4125
1567.52853	51841.3125
1570.86999	51950.1125
1574.20922	52643.1125
1577.54624	53460.0125
1580.88103	53953.1125
1584.2136	54642.4125
1587.54395	56443.4125
1590.87208	59507.9125
1594.19801	63436.2125
1597.52172	67175.8125
1600.84321	68203.7125
1604.16251	65020.1125
1607.47959	59347.6125
1610.79447	53324.9125
1614.10715	47871.6125
1617.41763	43429.1125
1620.7259	40342.6125
1624.03199	38707.7125
1627.33587	38553.2125
1630.63757	39917.4125
1633.93707	43048.6125
1637.23439	47939.2125
1640.52951	54423.4125
1643.82246	61649.1125
1647.11321	67067.8125
1650.40179	68043.7125
1653.68819	63422.6125
1656.97241	54575.7125
1660.25446	45636.2125
1663.53433	38793.1125
1666.81203	34187.2125
1670.08756	31311.3125
1673.36092	29488.8125
1676.63211	28376.3125
1679.90115	27546.4125
1683.16801	26928.4125
1686.43272	26472.7125
1689.69527	26129.6125
1692.95567	25852.2125
1696.2139	25687.0125
1699.46999	25549.4125
1702.72392	25423.7125
1705.97571	25326.6125
1709.22535	25257.7125
1712.47284	25124.3125
1715.71819	25077.9125
1718.96139	25006.6125
1722.20246	24884.8125
1725.44139	24772.7125
1728.67818	24590.1125
1731.91284	24417.2125
1735.14537	24219.1125
1738.37576	24127.9125
1741.60403	24016.1125
1744.83017	23902.5125
1748.05418	23838.6125
1751.27607	23813.8125
1754.49584	23744.2125
1757.71349	23718.7125
1760.92903	23715.1125
1764.14244	23675.4125
1767.35375	23641.9125
1770.56294	23586.0125
1773.77002	23527.0125
1776.97499	23476.3125
1780.17785	23404.7125
1783.37861	23366.4125
1786.57727	23334.4125
1789.77382	23303.3125
1792.96828	23303.4125
1796.16064	23256.7125
1799.3509	23174.4125
1802.53907	23151.1125
1805.72514	23030.4125
1808.90913	22990.2125
1812.09102	22930.5125
1815.27083	22873.5125
1818.44856	22824.5125
1821.6242	22792.5125
1824.79776	22775.1125
1827.96924	22765.3125
1831.13864	22707.5125
1834.30597	22764.7125
1837.47122	22722.9125
1840.6344	22699.4125
1843.7955	22731.4125
1846.95454	22740.9125
1850.11151	22718.5125
1853.26642	22734.1125
1856.41926	22750.0125
1859.57004	22786.3125
1862.71876	22808.3125
1865.86542	22760.1125
1869.01003	22733.0125
1872.15258	22709.1125
1875.29308	22746.3125
1878.43152	22687.1125
1881.56792	22748.9125
1884.70227	22753.0125
1887.83457	22763.6125
1890.96482	22736.1125
1894.09304	22721.9125
1897.21921	22717.3125
1900.34335	22765.9125
1903.46544	22737.1125
1906.58551	22760.0125
1909.70353	22755.2125
1912.81953	22737.0125
1915.93349	22651.4125
1919.04543	22575.0125
1922.15534	22538.2125
1925.26322	22439.0125
1928.36908	22337.8125
1931.47292	22305.6125
1934.57473	22216.3125
1937.67453	22104.9125
1940.77232	22026.9125
1943.86808	21926.9125
1946.96184	21891.4125
1950.05358	21766.4125
1953.14331	21709.9125
1956.23103	21587.7125
1959.31675	21514.0125
1962.40046	21409.4125
1965.48217	21360.8125
1968.56188	21326.3125
1971.63959	21225.8125
1974.7153	21145.3125
1977.78901	21090.4125
1980.86073	21017.5125
1983.93046	20942.4125
1986.99819	20882.9125
1990.06394	20812.0125
1993.1277	20756.3125
1996.18947	20662.2125
1999.24925	20633.8125
2002.30706	20565.3125
2005.36288	20519.5125
2008.41672	20460.0125
2011.46859	20412.9125
2014.51848	20347.4125
2017.56639	20263.0125
2020.61233	20256.0125
2023.6563	20225.5125
2026.6983	20127.1125
2029.73833	20100.0125
2032.7764	20057.1125
2035.8125	20019.3125
2038.84664	19971.0125
2041.87881	19965.2125
2044.90903	19929.5125
2047.93729	19912.4125
2050.96359	19894.4125
2053.98794	19856.9125
2057.01034	19868.6125
2060.03078	19838.3125
2063.04927	19808.8125
2066.06582	19776.5125
2069.08042	19791.8125
2072.09307	19726.8125
2075.10378	19726.5125
2078.11255	19668.5125
2081.11938	19692.9125
2084.12426	19643.9125
2087.12722	19627.3125
2090.12824	19616.5125
2093.12732	19580.3125
2096.12447	19612.8125
2099.11969	19595.9125
2102.11299	19606.7125
2105.10435	19617.5125
2108.09379	19583.1125
2111.08131	19599.1125
2114.0669	19654.7125
2117.05057	19612.5125
2120.03233	19655.1125
2123.01216	19673.1125
2125.99008	19651.6125
2128.96609	19709.0125
2131.94018	19645.8125
2134.91236	19706.5125
2137.88263	19699.5125
2140.851	19728.0125
2143.81746	19751.2125
2146.78201	19707.7125
2149.74466	19716.6125
2152.7054	19724.6125
2155.66425	19655.7125
2158.6212	19680.6125
2161.57625	19666.3125
2164.52941	19645.5125
2167.48067	19647.7125
2170.43004	19654.4125
2173.37752	19632.1125
2176.32311	19624.4125
2179.26681	19651.6125
2182.20863	19626.7125
2185.14856	19631.4125
2188.08661	19628.3125
2191.02278	19657.8125
2193.95707	19635.6125
2196.88948	19631.7125
2199.82001	19575.4125
2202.74867	19575.5125
2205.67545	19589.1125
2208.60037	19582.5125
2211.52341	19565.4125
2214.44458	19542.7125
2217.36388	19527.8125
2220.28132	19492.0125
2223.1969	19458.1125
2226.11061	19404.2125
2229.02246	19375.3125
2231.93245	19294.7125
2234.84058	19290.6125
2237.74686	19266.8125
2240.65128	19218.3125
2243.55385	19192.0125
2246.45456	19158.2125
2249.35343	19115.0125
2252.25044	19081.7125
2255.14561	19071.8125
2258.03893	19033.3125
2260.93041	18982.5125
2263.82004	18942.3125
2266.70783	18914.4125
2269.59378	18797.1125
2272.4779	18798.4125
2275.36017	18736.0125
2278.24061	18717.8125
2281.11922	18650.6125
2283.996	18631.6125
2286.87094	18650.6125
2289.74405	18612.7125
2292.61534	18607.6125
2295.4848	18591.3125
2298.35243	18572.7125
2301.21824	18610.4125
2304.08223	18603.9125
2306.94439	18622.5125
2309.80474	18651.9125
2312.66327	18672.4125
2315.51999	18665.9125
2318.37489	18630.2125
2321.22797	18608.1125
2324.07925	18579.8125
2326.92871	18593.1125
2329.77637	18564.6125
2332.62222	18541.6125
2335.46626	18525.6125
2338.3085	18566.7125
2341.14893	18564.2125
2343.98756	18603.1125
2346.8244	18636.4125
2349.65943	18600.0125
2352.49267	18619.5125
2355.32411	18633.5125
2358.15376	18608.2125
2360.98161	18590.7125
2363.80768	18551.5125
2366.63195	18560.7125
2369.45444	18520.6125
2372.27514	18472.0125
2375.09405	18450.4125
2377.91118	18426.0125
2380.72652	18330.5125
2383.54009	18299.3125
2386.35187	18307.9125
2389.16188	18206.0125
2391.97011	18177.4125
2394.77657	18186.9125
2397.58125	18145.1125
2400.38416	18133.0125
2403.18529	18081.5125
2405.98466	18040.9125
2408.78226	18036.0125
2411.57809	18006.4125
2414.37216	17970.0125
2417.16446	17967.9125
2419.955	17950.1125
2422.74378	17929.5125
2425.5308	17842.9125
2428.31606	17844.2125
2431.09956	17849.8125
2433.88131	17858.8125
2436.6613	17850.5125
2439.43954	17888.3125
2442.21603	17834.1125
2444.99077	17843.3125
2447.76377	17862.0125
2450.53501	17837.4125
2453.30451	17833.6125
2456.07226	17817.3125
2458.83827	17815.7125
2461.60254	17839.2125
2464.36507	17837.5125
2467.12586	17831.9125
2469.88492	17831.3125
2472.64224	17852.9125
2475.39782	17878.3125
2478.15167	17915.6125
2480.90379	17892.7125
2483.65417	17919.4125
2486.40283	17939.9125
2489.14976	17975.2125
2491.89497	18004.3125
2494.63845	18043.0125
2497.3802	18008.6125
2500.12024	18012.1125
2502.85855	18004.3125
2505.59514	17992.7125
2508.33002	17976.7125
2511.06318	17939.0125
2513.79462	17929.6125
2516.52435	17914.4125
2519.25237	17938.2125
2521.97867	17931.9125
2524.70327	17896.2125
2527.42616	17872.8125
2530.14734	17888.5125
2532.86681	17905.3125
2535.58458	17904.6125
2538.30065	17852.3125
2541.01501	17867.8125
2543.72768	17847.2125
2546.43864	17872.9125
2549.14791	17830.2125
2551.85548	17842.5125
2554.56136	17789.0125
2557.26554	17763.9125
2559.96803	17749.9125
2562.66883	17742.1125
2565.36794	17708.3125
2568.06536	17697.1125
2570.7611	17716.2125
2573.45514	17720.7125
2576.14751	17726.4125
2578.83819	17707.3125
2581.52719	17761.5125
2584.21451	17746.3125
2586.90015	17735.5125
2589.58411	17762.9125
2592.2664	17760.4125
2594.94701	17749.6125
2597.62594	17737.2125
2600.30321	17748.1125
2602.9788	17736.2125
2605.65273	17723.3125
2608.32498	17763.4125
2610.99557	17747.3125
2613.66449	17754.4125
2616.33175	17793.8125
2618.99734	17776.6125
2621.66128	17788.7125
2624.32355	17815.6125
2626.98416	17840.9125
2629.64311	17835.5125
2632.30041	17844.0125
2634.95605	17843.4125
2637.61004	17825.1125
2640.26238	17798.2125
2642.91306	17782.8125
2645.56209	17722.2125
2648.20948	17769.1125
2650.85521	17753.6125
2653.4993	17790.1125
2656.14175	17785.7125
2658.78255	17806.0125
2661.42171	17800.2125
2664.05923	17832.9125
2666.6951	17825.6125
2669.32934	17862.3125
2671.96194	17852.6125
2674.59291	17852.1125
2677.22224	17869.1125
2679.84993	17853.6125
2682.476	17830.7125
2685.10043	17825.5125
2687.72324	17815.3125
2690.34441	17766.8125
2692.96396	17752.7125
2695.58188	17789.8125
2698.19818	17762.4125
2700.81285	17780.2125
2703.4259	17791.1125
2706.03733	17806.8125
2708.64714	17762.8125
2711.25533	17825.3125
2713.86191	17784.8125
2716.46687	17822.2125
2719.07021	17824.8125
2721.67194	17867.9125
2724.27206	17852.8125
2726.87057	17902.5125
2729.46747	17933.9125
2732.06276	17929.6125
2734.65644	17919.8125
2737.24852	17938.4125
2739.83899	17882.2125
2742.42786	17906.2125
2745.01513	17859.2125
2747.60079	17917.9125
2750.18486	17889.5125
2752.76733	17886.1125
2755.3482	17907.1125
2757.92747	17898.3125
2760.50515	17882.9125
2763.08123	17917.4125
2765.65573	17917.5125
2768.22863	17902.2125
2770.79994	17906.4125
2773.36967	17902.6125
2775.9378	17915.4125
2778.50435	17895.7125
2781.06932	17918.8125
2783.6327	17889.3125
2786.1945	17943.5125
2788.75471	17944.7125
2791.31335	17916.0125
2793.87041	17876.5125
2796.42589	17831.8125
2798.97979	17820.3125
2801.53212	17809.4125
2804.08288	17762.1125
2806.63206	17702.0125
2809.17967	17688.5125
2811.72571	17657.3125
2814.27018	17667.6125
2816.81308	17614.4125
2819.35442	17596.4125
2821.89419	17570.1125
2824.43239	17620.6125
2826.96904	17572.0125
2829.50412	17571.0125
2832.03763	17525.3125
2834.56959	17503.9125
2837.1	17490.2125
2839.62884	17485.1125
2842.15613	17471.2125
2844.68186	17557.6125
2847.20604	17560.0125
2849.72867	17562.9125
2852.24974	17546.9125
2854.76927	17550.3125
2857.28724	17552.0125
2859.80367	17547.0125
2862.31855	17503.3125
2864.83189	17472.4125
2867.34368	17449.0125
2869.85393	17447.3125
2872.36264	17432.2125
2874.8698	17405.0125
2877.37543	17383.9125
2879.87952	17401.3125
2882.38207	17414.3125
2884.88308	17406.0125
2887.38256	17429.0125
2889.88051	17410.8125
2892.37692	17439.7125
2894.8718	17437.9125
2897.36515	17462.5125
2899.85698	17496.2125
2902.34727	17552.2125
2904.83604	17557.8125
2907.32328	17589.8125
2909.809	17605.6125
2912.29319	17615.8125
2914.77587	17610.3125
2917.25702	17624.1125
2919.73665	17590.0125
2922.21476	17594.6125
2924.69136	17557.2125
2927.16644	17547.2125
2929.64	17495.9125
2932.11205	17472.2125
2934.58258	17417.2125
2937.05161	17428.0125
2939.51912	17444.0125
2941.98513	17382.6125
2944.44962	17359.3125
2946.91261	17287.8125
2949.37409	17281.7125
2951.83407	17287.9125
2954.29254	17247.6125
2956.74951	17230.7125
2959.20498	17203.5125
2961.65895	17190.1125
2964.11142	17169.8125
2966.56239	17129.5125
2969.01186	17125.4125
2971.45984	17102.8125
2973.90632	17092.4125
2976.35131	17044.3125
2978.7948	17014.1125
2981.23681	16963.4125
2983.67732	16949.5125
2986.11635	16894.0125
2988.55388	16852.6125
2990.98993	16820.1125
2993.4245	16758.8125
2995.85758	16694.7125
2998.28917	16623.2125
3000.71928	16625.1125
3003.14791	16570.0125
3005.57506	16534.2125
3008.00073	16497.7125
3010.42493	16405.3125
3012.84764	16418.3125
3015.26888	16449.4125
3017.68865	16382.2125
3020.10694	16370.9125
3022.52376	16340.2125
