Data from AgNPs_FTO_APTES_UA_5uM_CRN_10uM_R6G_10uM_NaF_0.1M_Addition_RamanShift__6__12-30-16-719.txt Node

Date: Mon Feb 07 12:30:16 GMT 2022
User: TCL
Spectrometer: QEP01345
Trigger mode: 4
Integration Time (sec): 7.000000E0
Scans to average: 10
Electric dark correction enabled: true
Nonlinearity correction enabled: false
Boxcar width: 0
XAxis mode: Raman Shifts
Number of Pixels in Spectrum: 1044
>>>>>Begin Spectral Data<<<<<
46.04893	-0.4875
50.45542	-0.9875
54.85868	-1.5875
59.25871	-0.1875
63.6555	99.6125
68.04907	101.2125
72.43941	105.7125
76.82654	110.1125
81.21044	114.1125
85.59113	114.0125
89.96862	121.5125
94.34289	119.7125
98.71396	128.5125
103.08183	130.5125
107.4465	136.8125
111.80798	138.6125
116.16626	147.5125
120.52136	151.7125
124.87327	161.2125
129.222	171.0125
133.56755	180.7125
137.90993	198.5125
142.24913	221.5125
146.58517	254.1125
150.91804	298.7125
155.24774	359.6125
159.57429	446.7125
163.89768	583.6125
168.21792	785.7125
172.53501	1076.2125
176.84895	1505.9125
181.15975	2108.8125
185.46741	2959.8125
189.77193	4078.7125
194.07331	5422.0125
198.37157	6987.7125
202.6667	8614.3125
206.9587	10218.8125
211.24758	11809.3125
215.53334	13374.7125
219.81599	15102.0125
224.09553	16979.6125
228.37195	19057.5125
232.64527	21320.4125
236.91549	23567.2125
241.18261	25879.7125
245.44663	28024.1125
249.70755	29981.6125
253.96539	31638.2125
258.22014	33071.5125
262.4718	34213.5125
266.72039	34983.2125
270.96589	35439.2125
275.20832	35523.1125
279.44768	35413.5125
283.68397	35116.2125
287.91719	34947.1125
292.14735	34810.6125
296.37445	34823.5125
300.59849	34957.0125
304.81948	35132.9125
309.03742	35165.7125
313.25231	34919.2125
317.46415	34265.4125
321.67296	33613.1125
325.87872	32947.7125
330.08145	32538.9125
334.28114	32429.9125
338.47781	32553.7125
342.67145	32885.5125
346.86207	33333.1125
351.04966	33896.2125
355.23424	34539.8125
359.4158	35058.8125
363.59435	35490.2125
367.76989	35752.0125
371.94243	35898.1125
376.11196	35940.7125
380.27849	36025.6125
384.44203	36162.0125
388.60257	36496.1125
392.76012	36929.2125
396.91468	37469.6125
401.06626	38098.8125
405.21485	38546.4125
409.36047	38367.3125
413.50311	38087.9125
417.64277	38093.5125
421.77947	38399.3125
425.9132	38675.6125
430.04396	38923.9125
434.17176	39089.0125
438.2966	39328.5125
442.41849	39950.0125
446.53742	41177.2125
450.6534	42641.0125
454.76644	43572.5125
458.87653	43854.1125
462.98368	43433.7125
467.08789	42747.2125
471.18916	41937.8125
475.2875	41198.9125
479.38291	40929.1125
483.4754	40725.9125
487.56496	40287.5125
491.6516	39559.8125
495.73531	38568.6125
499.81612	38012.7125
503.89401	38081.8125
507.96899	38277.1125
512.04106	38231.6125
516.11023	37763.6125
520.1765	37157.3125
524.23987	36563.5125
528.30034	36076.5125
532.35792	35720.8125
536.41261	35280.5125
540.46441	34822.3125
544.51333	34810.2125
548.55936	35218.5125
552.60252	36164.5125
556.64279	37262.2125
560.6802	38325.5125
564.71473	39031.5125
568.7464	40027.8125
572.7752	41744.0125
576.80114	43745.0125
580.82422	45668.3125
584.84444	48143.6125
588.86181	51291.2125
592.87633	53802.5125
596.888	53078.3125
600.89682	49376.6125
604.9028	47022.6125
608.90594	48114.1125
612.90624	49755.1125
616.90371	46215.3125
620.89834	39343.5125
624.89015	36413.3125
628.87913	36136.0125
632.86528	36302.0125
636.84862	35984.1125
640.82913	35001.6125
644.80683	34100.3125
648.78172	33537.1125
652.75379	33589.5125
656.72306	33990.9125
660.68952	34375.3125
664.65319	34060.6125
668.61405	33431.0125
672.57211	33259.6125
676.52738	33508.6125
680.47986	33450.9125
684.42955	33104.2125
688.37646	33001.9125
692.32058	33251.8125
696.26192	33904.7125
700.20048	34606.5125
704.13626	35019.8125
708.06928	35097.9125
711.99952	35020.1125
715.927	35077.9125
719.85171	35197.8125
723.77365	34972.3125
727.69284	34262.3125
731.60928	33621.5125
735.52295	33355.5125
739.43388	33351.3125
743.34206	33475.3125
747.24749	33822.3125
751.15017	34271.8125
755.05012	35130.3125
758.94733	36359.5125
762.8418	38234.0125
766.73354	40726.1125
770.62254	42669.8125
774.50882	42500.5125
778.39237	40208.3125
782.27321	37359.2125
786.15132	35266.5125
790.02671	34006.7125
793.89938	33312.2125
797.76935	33096.1125
801.6366	33035.6125
805.50115	32956.3125
809.36299	32827.3125
813.22213	32596.4125
817.07857	32400.1125
820.93231	32167.6125
824.78336	31883.8125
828.63172	31683.5125
832.47738	31522.8125
836.32036	31548.1125
840.16066	31686.4125
843.99827	31790.9125
847.8332	31724.1125
851.66546	31656.3125
855.49504	31659.4125
859.32195	31612.0125
863.1462	31458.3125
866.96777	31314.4125
870.78668	31198.3125
874.60293	31202.2125
878.41652	31169.8125
882.22745	31307.7125
886.03573	31401.8125
889.84136	31350.7125
893.64433	31174.5125
897.44466	31082.9125
901.24235	31019.0125
905.0374	30930.1125
908.8298	30867.0125
912.61957	31045.8125
916.40671	31533.5125
920.19121	32253.4125
923.97308	32861.5125
927.75233	32816.5125
931.52895	32230.0125
935.30295	31486.8125
939.07433	30724.6125
942.84309	30256.6125
946.60924	30022.3125
950.37278	29966.8125
954.13371	29983.3125
957.89203	29947.0125
961.64774	29988.3125
965.40086	30025.9125
969.15137	29949.8125
972.89929	29778.8125
976.64461	29624.6125
980.38733	29598.1125
984.12747	29664.1125
987.86502	29834.0125
991.59999	30091.1125
995.33237	30527.9125
999.06217	31302.6125
1002.78939	32269.4125
1006.51404	33140.8125
1010.23611	33849.2125
1013.95561	34306.6125
1017.67255	34322.2125
1021.38692	33756.2125
1025.09872	32974.7125
1028.80796	32724.5125
1032.51465	33170.4125
1036.21877	33803.7125
1039.92035	34089.8125
1043.61937	33967.6125
1047.31584	33503.2125
1051.00976	32990.0125
1054.70114	32826.7125
1058.38998	32920.4125
1062.07627	33180.3125
1065.76003	33571.6125
1069.44126	34123.8125
1073.11995	34717.2125
1076.79611	35265.2125
1080.46974	35467.4125
1084.14085	35748.4125
1087.80943	36240.7125
1091.47549	36682.8125
1095.13903	36927.8125
1098.80005	36275.1125
1102.45857	35216.9125
1106.11456	34286.6125
1109.76805	33871.5125
1113.41903	33880.3125
1117.06751	34058.1125
1120.71348	34399.6125
1124.35696	34727.0125
1127.99793	35130.1125
1131.63641	35430.0125
1135.2724	35572.3125
1138.90589	35700.7125
1142.5369	36030.0125
1146.16542	36575.8125
1149.79145	37209.1125
1153.415	37942.3125
1157.03607	38986.9125
1160.65467	40795.8125
1164.27079	43530.6125
1167.88443	46582.8125
1171.49561	49320.8125
1175.10432	52500.4125
1178.71056	56625.7125
1182.31434	60530.3125
1185.91565	62052.8125
1189.51451	61269.5125
1193.11091	59422.3125
1196.70485	57334.2125
1200.29634	55370.8125
1203.88538	54444.0125
1207.47197	54441.4125
1211.05612	54493.2125
1214.63782	53517.3125
1218.21708	51558.8125
1221.79391	49487.7125
1225.36829	47904.3125
1228.94024	46773.5125
1232.50976	45602.0125
1236.07685	44601.0125
1239.6415	44027.3125
1243.20374	44008.4125
1246.76355	44503.5125
1250.32093	45408.0125
1253.8759	46663.4125
1257.42845	48126.6125
1260.97859	49753.4125
1264.52631	51457.4125
1268.07163	53305.1125
1271.61453	55199.9125
1275.15503	57285.2125
1278.69312	59741.1125
1282.22882	62403.7125
1285.76211	65631.3125
1289.29301	69250.8125
1292.82151	73580.8125
1296.34761	78872.4125
1299.87133	84931.8125
1303.39266	90613.2125
1306.9116	95233.9125
1310.42815	97941.1125
1313.94233	98627.9125
1317.45412	97484.3125
1320.96354	95792.3125
1324.47058	94554.8125
1327.97525	93987.9125
1331.47754	93473.6125
1334.97747	92701.4125
1338.47502	90968.3125
1341.97022	88545.2125
1345.46305	85492.9125
1348.95352	83168.8125
1352.44163	82271.6125
1355.92738	83855.4125
1359.41078	87305.4125
1362.89183	89979.6125
1366.37053	89086.2125
1369.84688	82646.0125
1373.32088	73355.4125
1376.79254	66619.5125
1380.26186	64954.3125
1383.72883	66033.9125
1387.19347	66989.6125
1390.65578	66635.4125
1394.11575	66612.1125
1397.57339	67911.2125
1401.0287	69912.2125
1404.48168	71546.6125
1407.93234	71582.2125
1411.38068	69605.8125
1414.82669	66235.1125
1418.27039	62291.4125
1421.71177	58538.4125
1425.15083	55487.3125
1428.58758	54190.7125
1432.02203	54807.8125
1435.45416	57013.6125
1438.88399	59762.9125
1442.31151	61849.1125
1445.73673	63059.0125
1449.15965	63713.0125
1452.58027	63844.0125
1455.9986	63456.7125
1459.41463	63359.8125
1462.82837	64184.1125
1466.23982	65553.9125
1469.64898	67010.0125
1473.05586	67805.4125
1476.46045	67977.6125
1479.86276	67308.1125
1483.26279	66120.8125
1486.66054	65502.7125
1490.05602	65475.9125
1493.44922	65660.3125
1496.84016	65724.9125
1500.22882	65782.0125
1503.61521	66113.5125
1506.99934	66695.8125
1510.38121	67366.6125
1513.76081	67473.2125
1517.13816	67045.3125
1520.51324	66595.0125
1523.88607	66717.8125
1527.25665	67645.0125
1530.62498	68527.9125
1533.99105	68663.4125
1537.35488	67623.0125
1540.71647	65708.8125
1544.07581	62995.6125
1547.4329	60409.3125
1550.78776	58166.9125
1554.14038	56568.5125
1557.49077	55546.7125
1560.83892	54910.9125
1564.18484	54507.9125
1567.52853	54507.0125
1570.86999	55104.8125
1574.20922	56640.7125
1577.54624	58408.4125
1580.88103	59846.1125
1584.2136	61906.5125
1587.54395	65513.6125
1590.87208	70651.8125
1594.19801	76085.6125
1597.52172	80314.6125
1600.84321	80409.8125
1604.16251	74995.7125
1607.47959	66658.1125
1610.79447	58538.6125
1614.10715	51859.1125
1617.41763	46997.3125
1620.7259	43987.3125
1624.03199	42761.8125
1627.33587	43226.8125
1630.63757	45390.9125
1633.93707	49779.8125
1637.23439	56905.9125
1640.52951	67028.5125
1643.82246	78896.5125
1647.11321	87810.3125
1650.40179	88110.8125
1653.68819	79097.1125
1656.97241	65531.4125
1660.25446	53237.3125
1663.53433	44447.0125
1666.81203	38907.8125
1670.08756	35432.8125
1673.36092	33387.0125
1676.63211	32010.4125
1679.90115	31099.5125
1683.16801	30363.4125
1686.43272	29869.0125
1689.69527	29501.2125
1692.95567	29225.8125
1696.2139	28976.0125
1699.46999	28746.9125
1702.72392	28605.5125
1705.97571	28508.8125
1709.22535	28427.3125
1712.47284	28331.5125
1715.71819	28229.5125
1718.96139	28135.8125
1722.20246	27997.3125
1725.44139	27905.2125
1728.67818	27696.0125
1731.91284	27413.9125
1735.14537	27221.1125
1738.37576	27098.4125
1741.60403	26940.4125
1744.83017	26865.4125
1748.05418	26731.5125
1751.27607	26646.3125
1754.49584	26550.1125
1757.71349	26560.2125
1760.92903	26507.4125
1764.14244	26533.0125
1767.35375	26472.2125
1770.56294	26420.9125
1773.77002	26318.5125
1776.97499	26238.2125
1780.17785	26171.9125
1783.37861	26166.0125
1786.57727	26105.4125
1789.77382	26035.4125
1792.96828	25966.6125
1796.16064	25946.1125
1799.3509	25874.8125
1802.53907	25823.5125
1805.72514	25688.0125
1808.90913	25662.4125
1812.09102	25594.7125
1815.27083	25518.5125
1818.44856	25485.5125
1821.6242	25391.0125
1824.79776	25435.6125
1827.96924	25420.6125
1831.13864	25443.9125
1834.30597	25398.3125
1837.47122	25461.3125
1840.6344	25432.5125
1843.7955	25382.2125
1846.95454	25392.4125
1850.11151	25385.7125
1853.26642	25365.0125
1856.41926	25350.3125
1859.57004	25361.1125
1862.71876	25266.2125
1865.86542	25278.2125
1869.01003	25199.4125
1872.15258	25153.9125
1875.29308	25160.6125
1878.43152	25141.1125
1881.56792	25139.3125
1884.70227	25105.4125
1887.83457	25047.0125
1890.96482	25047.5125
1894.09304	24991.5125
1897.21921	24953.6125
1900.34335	24952.0125
1903.46544	24900.4125
1906.58551	24882.6125
1909.70353	24832.9125
1912.81953	24764.4125
1915.93349	24702.3125
1919.04543	24678.8125
1922.15534	24611.4125
1925.26322	24542.6125
1928.36908	24465.4125
1931.47292	24452.6125
1934.57473	24302.5125
1937.67453	24206.1125
1940.77232	24144.4125
1943.86808	24113.0125
1946.96184	24064.8125
1950.05358	23983.6125
1953.14331	23952.6125
1956.23103	23820.0125
1959.31675	23771.2125
1962.40046	23696.0125
1965.48217	23617.4125
1968.56188	23555.5125
1971.63959	23472.3125
1974.7153	23407.3125
1977.78901	23302.1125
1980.86073	23241.1125
1983.93046	23126.8125
1986.99819	23076.4125
1990.06394	23028.1125
1993.1277	22991.0125
1996.18947	22913.3125
1999.24925	22878.3125
2002.30706	22797.7125
2005.36288	22711.8125
2008.41672	22629.9125
2011.46859	22577.3125
2014.51848	22509.2125
2017.56639	22465.4125
2020.61233	22375.8125
2023.6563	22384.0125
2026.6983	22286.6125
2029.73833	22266.6125
2032.7764	22212.1125
2035.8125	22155.2125
2038.84664	22107.1125
2041.87881	22114.3125
2044.90903	22037.5125
2047.93729	21984.7125
2050.96359	21983.2125
2053.98794	21969.4125
2057.01034	21978.6125
2060.03078	21952.8125
2063.04927	21973.2125
2066.06582	21978.4125
2069.08042	21952.3125
2072.09307	21895.7125
2075.10378	21868.3125
2078.11255	21852.2125
2081.11938	21848.1125
2084.12426	21797.4125
2087.12722	21759.2125
2090.12824	21786.5125
2093.12732	21723.0125
2096.12447	21790.5125
2099.11969	21836.3125
2102.11299	21799.2125
2105.10435	21823.7125
2108.09379	21780.6125
2111.08131	21809.7125
2114.0669	21789.6125
2117.05057	21833.4125
2120.03233	21798.5125
2123.01216	21820.8125
2125.99008	21845.8125
2128.96609	21872.6125
2131.94018	21802.2125
2134.91236	21847.6125
2137.88263	21888.6125
2140.851	21836.3125
2143.81746	21883.0125
2146.78201	21818.6125
2149.74466	21835.3125
2152.7054	21790.3125
2155.66425	21805.6125
2158.6212	21785.7125
2161.57625	21778.2125
2164.52941	21750.0125
2167.48067	21753.9125
2170.43004	21763.9125
2173.37752	21759.4125
2176.32311	21770.9125
2179.26681	21771.1125
2182.20863	21791.0125
2185.14856	21813.4125
2188.08661	21773.2125
2191.02278	21836.7125
2193.95707	21778.4125
2196.88948	21737.6125
2199.82001	21687.2125
2202.74867	21669.5125
2205.67545	21652.7125
2208.60037	21638.1125
2211.52341	21617.7125
2214.44458	21613.1125
2217.36388	21554.5125
2220.28132	21526.0125
2223.1969	21483.8125
2226.11061	21454.7125
2229.02246	21425.0125
2231.93245	21396.4125
2234.84058	21416.6125
2237.74686	21352.7125
2240.65128	21336.7125
2243.55385	21288.4125
2246.45456	21262.6125
2249.35343	21176.7125
2252.25044	21141.9125
2255.14561	21098.5125
2258.03893	21026.6125
2260.93041	20984.6125
2263.82004	20954.5125
2266.70783	20875.8125
2269.59378	20810.0125
2272.4779	20752.4125
2275.36017	20734.3125
2278.24061	20665.9125
2281.11922	20618.6125
2283.996	20588.8125
2286.87094	20601.6125
2289.74405	20572.6125
2292.61534	20562.9125
2295.4848	20545.8125
2298.35243	20541.7125
2301.21824	20577.9125
2304.08223	20567.3125
2306.94439	20567.5125
2309.80474	20578.9125
2312.66327	20590.6125
2315.51999	20529.1125
2318.37489	20532.7125
2321.22797	20464.6125
2324.07925	20461.6125
2326.92871	20487.2125
2329.77637	20421.5125
2332.62222	20423.2125
2335.46626	20396.0125
2338.3085	20401.9125
2341.14893	20426.2125
2343.98756	20438.4125
2346.8244	20449.6125
2349.65943	20415.8125
2352.49267	20416.9125
2355.32411	20455.3125
2358.15376	20441.8125
2360.98161	20402.6125
2363.80768	20364.1125
2366.63195	20377.5125
2369.45444	20343.7125
2372.27514	20314.7125
2375.09405	20282.5125
2377.91118	20267.6125
2380.72652	20200.2125
2383.54009	20110.7125
2386.35187	20112.2125
2389.16188	20074.3125
2391.97011	20055.5125
2394.77657	20048.1125
2397.58125	20020.2125
2400.38416	19985.0125
2403.18529	19937.4125
2405.98466	19988.7125
2408.78226	19911.2125
2411.57809	19885.7125
2414.37216	19863.9125
2417.16446	19861.7125
2419.955	19840.1125
2422.74378	19844.7125
2425.5308	19800.2125
2428.31606	19793.5125
2431.09956	19796.7125
2433.88131	19758.0125
2436.6613	19791.8125
2439.43954	19773.7125
2442.21603	19752.8125
2444.99077	19746.2125
2447.76377	19756.2125
2450.53501	19760.5125
2453.30451	19775.1125
2456.07226	19764.8125
2458.83827	19750.2125
2461.60254	19743.3125
2464.36507	19733.1125
2467.12586	19732.9125
2469.88492	19767.0125
2472.64224	19776.0125
2475.39782	19821.9125
2478.15167	19820.3125
2480.90379	19815.6125
2483.65417	19839.0125
2486.40283	19831.9125
2489.14976	19845.2125
2491.89497	19826.1125
2494.63845	19879.3125
2497.3802	19873.4125
2500.12024	19870.1125
2502.85855	19851.5125
2505.59514	19828.8125
2508.33002	19827.4125
2511.06318	19824.2125
2513.79462	19814.0125
2516.52435	19808.7125
2519.25237	19856.8125
2521.97867	19809.9125
2524.70327	19793.9125
2527.42616	19786.4125
2530.14734	19804.2125
2532.86681	19781.3125
2535.58458	19819.4125
2538.30065	19811.1125
2541.01501	19797.2125
2543.72768	19783.5125
2546.43864	19777.2125
2549.14791	19753.8125
2551.85548	19746.0125
2554.56136	19734.8125
2557.26554	19702.0125
2559.96803	19706.8125
2562.66883	19689.1125
2565.36794	19692.2125
2568.06536	19685.9125
2570.7611	19714.2125
2573.45514	19669.1125
2576.14751	19650.5125
2578.83819	19652.2125
2581.52719	19684.7125
2584.21451	19696.9125
2586.90015	19703.5125
2589.58411	19671.4125
2592.2664	19658.1125
2594.94701	19694.6125
2597.62594	19679.8125
2600.30321	19659.6125
2602.9788	19664.0125
2605.65273	19656.0125
2608.32498	19692.2125
2610.99557	19707.4125
2613.66449	19713.5125
2616.33175	19714.4125
2618.99734	19733.9125
2621.66128	19686.7125
2624.32355	19672.1125
2626.98416	19677.1125
2629.64311	19697.2125
2632.30041	19719.3125
2634.95605	19672.8125
2637.61004	19644.4125
2640.26238	19646.5125
2642.91306	19638.9125
2645.56209	19598.7125
2648.20948	19648.2125
2650.85521	19675.2125
2653.4993	19688.2125
2656.14175	19700.5125
2658.78255	19735.8125
2661.42171	19769.5125
2664.05923	19799.6125
2666.6951	19770.7125
2669.32934	19795.0125
2671.96194	19823.7125
2674.59291	19832.0125
2677.22224	19822.9125
2679.84993	19845.4125
2682.476	19813.8125
2685.10043	19854.8125
2687.72324	19791.2125
2690.34441	19809.1125
2692.96396	19808.2125
2695.58188	19826.8125
2698.19818	19782.7125
2700.81285	19803.8125
2703.4259	19825.0125
2706.03733	19836.0125
2708.64714	19808.5125
2711.25533	19839.7125
2713.86191	19816.4125
2716.46687	19871.7125
2719.07021	19894.9125
2721.67194	19941.8125
2724.27206	19985.9125
2726.87057	19996.9125
2729.46747	20023.4125
2732.06276	20042.2125
2734.65644	20022.2125
2737.24852	20016.8125
2739.83899	20029.5125
2742.42786	20040.2125
2745.01513	19992.6125
2747.60079	20017.4125
2750.18486	19961.6125
2752.76733	19979.9125
2755.3482	19993.2125
2757.92747	19989.7125
2760.50515	19971.7125
2763.08123	19997.2125
2765.65573	20016.6125
2768.22863	20027.6125
2770.79994	20000.2125
2773.36967	20015.1125
2775.9378	20025.9125
2778.50435	20033.4125
2781.06932	20010.7125
2783.6327	20067.7125
2786.1945	20046.4125
2788.75471	20066.9125
2791.31335	20033.8125
2793.87041	20010.5125
2796.42589	19962.7125
2798.97979	19949.4125
2801.53212	19942.2125
2804.08288	19886.7125
2806.63206	19851.4125
2809.17967	19808.7125
2811.72571	19779.2125
2814.27018	19777.0125
2816.81308	19752.6125
2819.35442	19663.2125
2821.89419	19615.8125
2824.43239	19657.9125
2826.96904	19686.8125
2829.50412	19678.7125
2832.03763	19600.7125
2834.56959	19608.9125
2837.1	19591.4125
2839.62884	19584.7125
2842.15613	19561.7125
2844.68186	19622.6125
2847.20604	19651.5125
2849.72867	19644.2125
2852.24974	19573.5125
2854.76927	19592.7125
2857.28724	19619.0125
2859.80367	19572.6125
2862.31855	19509.6125
2864.83189	19460.7125
2867.34368	19528.9125
2869.85393	19466.9125
2872.36264	19441.5125
2874.8698	19425.9125
2877.37543	19390.8125
2879.87952	19437.2125
2882.38207	19445.6125
2884.88308	19446.2125
2887.38256	19431.5125
2889.88051	19452.1125
2892.37692	19469.1125
2894.8718	19485.7125
2897.36515	19477.3125
2899.85698	19548.9125
2902.34727	19564.0125
2904.83604	19577.4125
2907.32328	19613.7125
2909.809	19616.1125
2912.29319	19638.1125
2914.77587	19628.7125
2917.25702	19642.5125
2919.73665	19622.7125
2922.21476	19606.0125
2924.69136	19621.9125
2927.16644	19616.2125
2929.64	19561.7125
2932.11205	19524.0125
2934.58258	19490.8125
2937.05161	19507.6125
2939.51912	19467.9125
2941.98513	19481.9125
2944.44962	19469.0125
2946.91261	19393.9125
2949.37409	19403.4125
2951.83407	19395.4125
2954.29254	19385.0125
2956.74951	19369.1125
2959.20498	19359.4125
2961.65895	19312.3125
2964.11142	19322.2125
2966.56239	19260.2125
2969.01186	19253.4125
2971.45984	19258.8125
2973.90632	19233.6125
2976.35131	19184.0125
2978.7948	19117.8125
2981.23681	19078.2125
2983.67732	19066.8125
2986.11635	18965.0125
2988.55388	18935.0125
2990.98993	18880.0125
2993.4245	18847.1125
2995.85758	18784.6125
2998.28917	18697.8125
3000.71928	18706.5125
3003.14791	18679.1125
3005.57506	18669.1125
3008.00073	18594.4125
3010.42493	18442.7125
3012.84764	18500.7125
3015.26888	18512.5125
3017.68865	18437.3125
3020.10694	18428.7125
3022.52376	18389.3125
