Data from AgNPs_FTO_APTES_UA_5uM_CRN_0uM_R6G_10uM_NaF_0.1M_Addition_RamanShift__20__10-02-06-546.txt Node

Date: Mon Feb 07 10:02:06 GMT 2022
User: TCL
Spectrometer: QEP01345
Trigger mode: 4
Integration Time (sec): 7.000000E0
Scans to average: 10
Electric dark correction enabled: true
Nonlinearity correction enabled: false
Boxcar width: 0
XAxis mode: Raman Shifts
Number of Pixels in Spectrum: 1044
>>>>>Begin Spectral Data<<<<<
46.04893	0.25
50.45542	-2.55
54.85868	-0.95
59.25871	-0.45
63.6555	87.05
68.04907	91.05
72.43941	95.75
76.82654	102.05
81.21044	103.25
85.59113	106.65
89.96862	115.75
94.34289	112.65
98.71396	114.85
103.08183	121.85
107.4465	124.65
111.80798	129.25
116.16626	132.25
120.52136	141.85
124.87327	145.45
129.222	163.55
133.56755	171.95
137.90993	192.75
142.24913	206.75
146.58517	239.95
150.91804	282.25
155.24774	345.05
159.57429	433.15
163.89768	570.85
168.21792	770.95
172.53501	1062.45
176.84895	1482.75
181.15975	2092.85
185.46741	2927.75
189.77193	4037.05
194.07331	5367.05
198.37157	6892.85
202.6667	8494.85
206.9587	10066.25
211.24758	11636.35
215.53334	13247.25
219.81599	15019.15
224.09553	16965.75
228.37195	19224.25
232.64527	21647.65
236.91549	24118.15
241.18261	26555.55
245.44663	28695.85
249.70755	30616.85
253.96539	32324.65
258.22014	33868.95
262.4718	35176.35
266.72039	36163.05
270.96589	36751.55
275.20832	37015.35
279.44768	37124.55
283.68397	37173.45
287.91719	37322.85
292.14735	37475.45
296.37445	37515.05
300.59849	37533.25
304.81948	37749.75
309.03742	37757.95
313.25231	37136.65
317.46415	35503.75
321.67296	33309.35
325.87872	31421.25
330.08145	30433.35
334.28114	30185.15
338.47781	30457.35
342.67145	30915.45
346.86207	31655.25
351.04966	32608.65
355.23424	33654.55
359.4158	34563.15
363.59435	34955.35
367.76989	35066.15
371.94243	35032.65
376.11196	34952.45
380.27849	34839.15
384.44203	34712.05
388.60257	34691.05
392.76012	34902.15
396.91468	35449.15
401.06626	36396.25
405.21485	37102.95
409.36047	37003.65
413.50311	36086.05
417.64277	35331.75
421.77947	35134.65
425.9132	35235.65
430.04396	35373.15
434.17176	35278.45
438.2966	35054.85
442.41849	35198.65
446.53742	35743.25
450.6534	36657.15
454.76644	37468.45
458.87653	37880.95
462.98368	37890.85
467.08789	37672.45
471.18916	37291.05
475.2875	36886.95
479.38291	36795.95
483.4754	36893.25
487.56496	36831.85
491.6516	36677.25
495.73531	36435.95
499.81612	36502.55
503.89401	36873.75
507.96899	36937.15
512.04106	36453.25
516.11023	35653.25
520.1765	34606.65
524.23987	33721.35
528.30034	32897.45
532.35792	32241.45
536.41261	31580.95
540.46441	31055.35
544.51333	31116.75
548.55936	31878.85
552.60252	33174.45
556.64279	34444.05
560.6802	35114.55
564.71473	35485.05
568.7464	36753.35
572.7752	38443.95
576.80114	39542.65
580.82422	40343.65
584.84444	40844.55
588.86181	40202.85
592.87633	38988.75
596.888	38376.75
600.89682	38910.05
604.9028	41708.25
608.90594	48597.15
612.90624	56011.15
616.90371	52277.65
620.89834	39712.55
624.89015	33784.25
628.87913	32868.45
632.86528	33016.85
636.84862	33097.55
640.82913	32458.25
644.80683	31071.95
648.78172	29891.95
652.75379	29600.65
656.72306	30202.75
660.68952	31295.05
664.65319	31478.15
668.61405	30770.85
672.57211	30472.25
676.52738	30336.25
680.47986	30194.75
684.42955	29815.15
688.37646	29519.25
692.32058	29581.75
696.26192	29935.55
700.20048	30456.95
704.13626	31049.75
708.06928	31351.15
711.99952	31162.75
715.927	30724.05
719.85171	30600.15
723.77365	30337.35
727.69284	29845.15
731.60928	29299.95
735.52295	29023.05
739.43388	29035.75
743.34206	29208.75
747.24749	29540.05
751.15017	30103.85
755.05012	31034.55
758.94733	32635.05
762.8418	35793.45
766.73354	41060.75
770.62254	46110.25
774.50882	46801.85
778.39237	43033.15
782.27321	37776.45
786.15132	33672.75
790.02671	31222.85
793.89938	29891.05
797.76935	29281.05
801.6366	29051.05
805.50115	28923.95
809.36299	28648.45
813.22213	28367.45
817.07857	28205.85
820.93231	28105.45
824.78336	28054.05
828.63172	27963.15
832.47738	27934.25
836.32036	27965.85
840.16066	28021.85
843.99827	28151.25
847.8332	28154.25
851.66546	28006.15
855.49504	27924.25
859.32195	27843.15
863.1462	27664.45
866.96777	27360.25
870.78668	27136.15
874.60293	27064.35
878.41652	26964.05
882.22745	26994.35
886.03573	27096.75
889.84136	27117.55
893.64433	26954.75
897.44466	26871.15
901.24235	26863.35
905.0374	26668.05
908.8298	26531.45
912.61957	26590.55
916.40671	27038.95
920.19121	27918.15
923.97308	28734.35
927.75233	29073.45
931.52895	28702.45
935.30295	27940.35
939.07433	26887.75
942.84309	26047.35
946.60924	25712.25
950.37278	25545.55
954.13371	25406.85
957.89203	25211.45
961.64774	25062.05
965.40086	24956.05
969.15137	24860.45
972.89929	24755.75
976.64461	24640.65
980.38733	24628.85
984.12747	24702.75
987.86502	24909.95
991.59999	25269.75
995.33237	25902.45
999.06217	27069.35
1002.78939	28579.85
1006.51404	29624.05
1010.23611	30189.05
1013.95561	30441.75
1017.67255	30543.15
1021.38692	30203.55
1025.09872	30042.85
1028.80796	30780.95
1032.51465	32477.05
1036.21877	34001.35
1039.92035	33973.25
1043.61937	32979.65
1047.31584	31476.65
1051.00976	29891.35
1054.70114	29086.15
1058.38998	29019.35
1062.07627	29290.75
1065.76003	29706.95
1069.44126	30392.75
1073.11995	31382.95
1076.79611	32206.65
1080.46974	32336.75
1084.14085	32383.75
1087.80943	32928.65
1091.47549	33450.75
1095.13903	33502.65
1098.80005	32768.45
1102.45857	31230.95
1106.11456	29680.25
1109.76805	28765.15
1113.41903	28563.15
1117.06751	28691.75
1120.71348	29194.65
1124.35696	29809.95
1127.99793	30580.95
1131.63641	31170.15
1135.2724	31048.15
1138.90589	30592.75
1142.5369	30199.15
1146.16542	29948.85
1149.79145	29947.95
1153.415	30204.85
1157.03607	30829.45
1160.65467	31934.85
1164.27079	33743.75
1167.88443	36310.05
1171.49561	39927.65
1175.10432	44870.25
1178.71056	50903.25
1182.31434	56095.45
1185.91565	58989.75
1189.51451	59538.35
1193.11091	57516.75
1196.70485	53765.85
1200.29634	49797.15
1203.88538	46679.15
1207.47197	44147.55
1211.05612	41933.15
1214.63782	40465.65
1218.21708	39589.85
1221.79391	39329.45
1225.36829	39156.15
1228.94024	38615.55
1232.50976	37533.75
1236.07685	36675.05
1239.6415	36369.55
1243.20374	36266.55
1246.76355	36537.45
1250.32093	37304.95
1253.8759	38653.75
1257.42845	40528.25
1260.97859	42506.95
1264.52631	44251.55
1268.07163	45888.85
1271.61453	47791.55
1275.15503	49938.25
1278.69312	51982.05
1282.22882	53488.45
1285.76211	54857.65
1289.29301	56414.45
1292.82151	58706.15
1296.34761	61912.15
1299.87133	66365.75
1303.39266	71952.85
1306.9116	78452.85
1310.42815	84629.95
1313.94233	88414.05
1317.45412	88552.75
1320.96354	86967.55
1324.47058	85302.05
1327.97525	84065.55
1331.47754	82998.85
1334.97747	82112.95
1338.47502	81276.35
1341.97022	80601.95
1345.46305	79117.55
1348.95352	76626.15
1352.44163	73957.95
1355.92738	73440.55
1359.41078	76595.45
1362.89183	81180.95
1366.37053	81271.75
1369.84688	75214.75
1373.32088	67060.05
1376.79254	60276.95
1380.26186	56059.75
1383.72883	54129.55
1387.19347	53310.15
1390.65578	52914.75
1394.11575	52908.85
1397.57339	53682.55
1401.0287	54951.15
1404.48168	56127.85
1407.93234	56578.75
1411.38068	55756.45
1414.82669	53585.55
1418.27039	50335.85
1421.71177	46950.75
1425.15083	44198.05
1428.58758	42399.95
1432.02203	41975.85
1435.45416	42562.75
1438.88399	43609.25
1442.31151	44817.05
1445.73673	45939.55
1449.15965	47224.75
1452.58027	48226.45
1455.9986	48808.45
1459.41463	49491.85
1462.82837	50567.15
1466.23982	52006.55
1469.64898	53451.05
1473.05586	54401.75
1476.46045	54699.75
1479.86276	54687.25
1483.26279	54627.95
1486.66054	54812.05
1490.05602	55413.65
1493.44922	56518.15
1496.84016	57911.55
1500.22882	60220.75
1503.61521	63481.75
1506.99934	67625.05
1510.38121	71939.65
1513.76081	74691.55
1517.13816	73801.55
1520.51324	70289.25
1523.88607	65945.15
1527.25665	62401.65
1530.62498	59814.85
1533.99105	58015.75
1537.35488	56695.55
1540.71647	55485.35
1544.07581	54203.05
1547.4329	52643.65
1550.78776	51161.85
1554.14038	50223.45
1557.49077	50016.05
1560.83892	50440.15
1564.18484	51067.65
1567.52853	51486.75
1570.86999	51404.95
1574.20922	51391.35
1577.54624	51569.75
1580.88103	50682.45
1584.2136	49755.45
1587.54395	50477.85
1590.87208	53251.25
1594.19801	57699.65
1597.52172	62457.55
1600.84321	64209.95
1604.16251	60883.65
1607.47959	54874.85
1610.79447	48717.55
1614.10715	43277.35
1617.41763	38820.85
1620.7259	35816.45
1624.03199	34193.15
1627.33587	34000.35
1630.63757	35072.65
1633.93707	37563.65
1637.23439	41543.15
1640.52951	47097.85
1643.82246	53723.55
1647.11321	60132.95
1650.40179	63728.25
1653.68819	61811.75
1656.97241	54366.45
1660.25446	44973.55
1663.53433	37063.45
1666.81203	31786.15
1670.08756	28480.85
1673.36092	26570.35
1676.63211	25267.75
1679.90115	24385.95
1683.16801	23791.95
1686.43272	23305.85
1689.69527	22976.25
1692.95567	22720.95
1696.2139	22527.85
1699.46999	22358.05
1702.72392	22241.05
1705.97571	22154.65
1709.22535	22057.45
1712.47284	21954.85
1715.71819	21904.15
1718.96139	21775.05
1722.20246	21616.25
1725.44139	21511.05
1728.67818	21329.05
1731.91284	21162.25
1735.14537	20980.95
1738.37576	20851.35
1741.60403	20696.05
1744.83017	20639.85
1748.05418	20574.85
1751.27607	20512.95
1754.49584	20433.75
1757.71349	20408.05
1760.92903	20368.85
1764.14244	20352.15
1767.35375	20366.15
1770.56294	20286.75
1773.77002	20221.65
1776.97499	20170.05
1780.17785	20099.15
1783.37861	20044.65
1786.57727	19998.85
1789.77382	19958.15
1792.96828	19944.35
1796.16064	19923.25
1799.3509	19874.75
1802.53907	19837.95
1805.72514	19723.35
1808.90913	19657.85
1812.09102	19576.15
1815.27083	19530.55
1818.44856	19532.45
1821.6242	19488.85
1824.79776	19463.45
1827.96924	19426.85
1831.13864	19432.35
1834.30597	19482.75
1837.47122	19420.55
1840.6344	19406.45
1843.7955	19446.35
1846.95454	19445.45
1850.11151	19472.35
1853.26642	19408.85
1856.41926	19408.25
1859.57004	19410.55
1862.71876	19429.45
1865.86542	19398.55
1869.01003	19366.65
1872.15258	19341.45
1875.29308	19288.15
1878.43152	19223.45
1881.56792	19225.35
1884.70227	19201.95
1887.83457	19252.65
1890.96482	19290.15
1894.09304	19248.15
1897.21921	19208.85
1900.34335	19243.25
1903.46544	19187.65
1906.58551	19171.55
1909.70353	19144.05
1912.81953	19111.45
1915.93349	19131.95
1919.04543	19089.05
1922.15534	19023.85
1925.26322	18939.75
1928.36908	18891.95
1931.47292	18789.05
1934.57473	18708.55
1937.67453	18689.25
1940.77232	18576.55
1943.86808	18487.95
1946.96184	18427.85
1950.05358	18369.35
1953.14331	18304.15
1956.23103	18289.95
1959.31675	18234.25
1962.40046	18158.45
1965.48217	18105.45
1968.56188	18117.55
1971.63959	18027.85
1974.7153	17983.95
1977.78901	17926.05
1980.86073	17831.45
1983.93046	17766.35
1986.99819	17720.55
1990.06394	17661.45
1993.1277	17618.05
1996.18947	17521.55
1999.24925	17449.75
2002.30706	17392.75
2005.36288	17365.25
2008.41672	17299.95
2011.46859	17261.55
2014.51848	17191.35
2017.56639	17176.65
2020.61233	17137.15
2023.6563	17081.25
2026.6983	17060.05
2029.73833	17060.15
2032.7764	17023.35
2035.8125	16987.55
2038.84664	16955.75
2041.87881	16921.15
2044.90903	16909.15
2047.93729	16887.55
2050.96359	16913.55
2053.98794	16841.25
2057.01034	16848.75
2060.03078	16856.35
2063.04927	16788.05
2066.06582	16779.85
2069.08042	16790.45
2072.09307	16745.75
2075.10378	16744.65
2078.11255	16677.05
2081.11938	16682.85
2084.12426	16626.65
2087.12722	16596.55
2090.12824	16591.75
2093.12732	16581.95
2096.12447	16582.25
2099.11969	16561.55
2102.11299	16596.45
2105.10435	16587.75
2108.09379	16570.65
2111.08131	16561.85
2114.0669	16582.75
2117.05057	16619.55
2120.03233	16614.15
2123.01216	16625.05
2125.99008	16644.85
2128.96609	16657.35
2131.94018	16664.55
2134.91236	16656.75
2137.88263	16683.15
2140.851	16692.75
2143.81746	16705.85
2146.78201	16703.45
2149.74466	16722.45
2152.7054	16721.45
2155.66425	16716.55
2158.6212	16683.65
2161.57625	16684.45
2164.52941	16661.45
2167.48067	16626.15
2170.43004	16616.95
2173.37752	16619.95
2176.32311	16597.15
2179.26681	16583.85
2182.20863	16613.65
2185.14856	16618.25
2188.08661	16601.75
2191.02278	16610.05
2193.95707	16654.75
2196.88948	16632.35
2199.82001	16603.25
2202.74867	16542.95
2205.67545	16573.35
2208.60037	16600.75
2211.52341	16615.05
2214.44458	16650.95
2217.36388	16570.95
2220.28132	16573.25
2223.1969	16550.55
2226.11061	16549.35
2229.02246	16482.85
2231.93245	16450.05
2234.84058	16410.35
2237.74686	16334.25
2240.65128	16315.85
2243.55385	16267.15
2246.45456	16208.95
2249.35343	16209.75
2252.25044	16191.55
2255.14561	16160.85
2258.03893	16160.05
2260.93041	16141.25
2263.82004	16095.65
2266.70783	16090.45
2269.59378	15986.95
2272.4779	15952.75
2275.36017	15902.15
2278.24061	15907.05
2281.11922	15876.15
2283.996	15837.45
2286.87094	15864.05
2289.74405	15863.95
2292.61534	15860.05
2295.4848	15827.15
2298.35243	15815.25
2301.21824	15813.25
2304.08223	15866.45
2306.94439	15882.15
2309.80474	15900.55
2312.66327	15959.45
2315.51999	15938.05
2318.37489	15978.95
2321.22797	15998.65
2324.07925	16006.45
2326.92871	15944.65
2329.77637	15996.85
2332.62222	15943.55
2335.46626	15983.35
2338.3085	16034.55
2341.14893	16058.85
2343.98756	16103.55
2346.8244	16122.65
2349.65943	16153.05
2352.49267	16158.15
2355.32411	16188.75
2358.15376	16137.25
2360.98161	16109.75
2363.80768	16112.55
2366.63195	16085.15
2369.45444	16015.45
2372.27514	15989.35
2375.09405	15915.85
2377.91118	15867.95
2380.72652	15810.75
2383.54009	15759.65
2386.35187	15728.55
2389.16188	15702.75
2391.97011	15683.75
2394.77657	15669.15
2397.58125	15643.35
2400.38416	15599.65
2403.18529	15562.45
2405.98466	15489.45
2408.78226	15435.15
2411.57809	15429.85
2414.37216	15372.75
2417.16446	15368.45
2419.955	15327.45
2422.74378	15291.85
2425.5308	15271.95
2428.31606	15264.85
2431.09956	15256.75
2433.88131	15277.05
2436.6613	15287.45
2439.43954	15275.15
2442.21603	15272.85
2444.99077	15272.35
2447.76377	15272.05
2450.53501	15264.05
2453.30451	15258.55
2456.07226	15226.55
2458.83827	15262.45
2461.60254	15271.35
2464.36507	15306.35
2467.12586	15315.35
2469.88492	15267.55
2472.64224	15281.45
2475.39782	15323.35
2478.15167	15329.85
2480.90379	15337.55
2483.65417	15357.55
2486.40283	15414.65
2489.14976	15466.05
2491.89497	15481.85
2494.63845	15502.45
2497.3802	15528.85
2500.12024	15528.95
2502.85855	15535.05
2505.59514	15488.75
2508.33002	15456.25
2511.06318	15399.35
2513.79462	15416.55
2516.52435	15411.95
2519.25237	15395.05
2521.97867	15367.15
2524.70327	15371.85
2527.42616	15327.95
2530.14734	15344.15
2532.86681	15350.65
2535.58458	15360.55
2538.30065	15321.95
2541.01501	15304.85
2543.72768	15283.95
2546.43864	15263.35
2549.14791	15218.65
2551.85548	15268.45
2554.56136	15262.65
2557.26554	15231.85
2559.96803	15217.75
2562.66883	15222.05
2565.36794	15219.35
2568.06536	15197.75
2570.7611	15204.25
2573.45514	15203.25
2576.14751	15156.35
2578.83819	15184.05
2581.52719	15191.75
2584.21451	15207.85
2586.90015	15235.55
2589.58411	15217.75
2592.2664	15212.75
2594.94701	15237.95
2597.62594	15271.85
2600.30321	15222.95
2602.9788	15235.25
2605.65273	15252.05
2608.32498	15260.75
2610.99557	15289.15
2613.66449	15276.85
2616.33175	15268.25
2618.99734	15336.95
2621.66128	15352.85
2624.32355	15351.55
2626.98416	15333.05
2629.64311	15363.45
2632.30041	15359.35
2634.95605	15357.45
2637.61004	15332.75
2640.26238	15284.85
2642.91306	15274.45
2645.56209	15238.35
2648.20948	15237.25
2650.85521	15233.35
2653.4993	15200.85
2656.14175	15191.25
2658.78255	15201.25
2661.42171	15204.85
2664.05923	15248.85
2666.6951	15260.65
2669.32934	15270.55
2671.96194	15274.55
2674.59291	15290.85
2677.22224	15288.25
2679.84993	15283.55
2682.476	15236.95
2685.10043	15244.45
2687.72324	15179.95
2690.34441	15174.55
2692.96396	15118.85
2695.58188	15135.25
2698.19818	15082.65
2700.81285	15107.65
2703.4259	15101.05
2706.03733	15129.05
2708.64714	15118.15
2711.25533	15134.75
2713.86191	15094.95
2716.46687	15136.35
2719.07021	15091.75
2721.67194	15133.25
2724.27206	15113.75
2726.87057	15167.05
2729.46747	15153.65
2732.06276	15185.35
2734.65644	15162.95
2737.24852	15163.25
2739.83899	15126.65
2742.42786	15151.25
2745.01513	15097.55
2747.60079	15129.45
2750.18486	15103.05
2752.76733	15057.75
2755.3482	15083.75
2757.92747	15079.95
2760.50515	15052.55
2763.08123	15053.15
2765.65573	15042.95
2768.22863	15052.25
2770.79994	15023.35
2773.36967	15064.95
2775.9378	15088.05
2778.50435	15092.95
2781.06932	15088.05
2783.6327	15114.75
2786.1945	15112.75
2788.75471	15111.25
2791.31335	15068.05
2793.87041	15072.65
2796.42589	15026.65
2798.97979	15067.55
2801.53212	15022.05
2804.08288	14984.85
2806.63206	14979.25
2809.17967	14959.65
2811.72571	14934.45
2814.27018	14942.15
2816.81308	14947.05
2819.35442	14936.05
2821.89419	14945.65
2824.43239	14948.55
2826.96904	14920.85
2829.50412	14954.15
2832.03763	14903.15
2834.56959	14893.75
2837.1	14909.55
2839.62884	14924.65
2842.15613	14923.75
2844.68186	14958.15
2847.20604	14990.05
2849.72867	15007.55
2852.24974	15011.95
2854.76927	14975.05
2857.28724	14994.85
2859.80367	14997.65
2862.31855	14969.55
2864.83189	14941.05
2867.34368	14937.05
2869.85393	14963.05
2872.36264	14901.85
2874.8698	14911.25
2877.37543	14899.45
2879.87952	14919.15
2882.38207	14915.25
2884.88308	14913.15
2887.38256	14915.05
2889.88051	14944.85
2892.37692	14950.05
2894.8718	14955.75
2897.36515	14971.05
2899.85698	15030.05
2902.34727	15071.95
2904.83604	15102.35
2907.32328	15136.05
2909.809	15133.05
2912.29319	15132.75
2914.77587	15149.85
2917.25702	15126.35
2919.73665	15100.75
2922.21476	15083.05
2924.69136	15050.95
2927.16644	15064.75
2929.64	14965.15
2932.11205	14959.05
2934.58258	14895.25
2937.05161	14926.25
2939.51912	14897.15
2941.98513	14863.25
2944.44962	14821.75
2946.91261	14753.75
2949.37409	14749.05
2951.83407	14709.85
2954.29254	14703.15
2956.74951	14664.55
2959.20498	14652.15
2961.65895	14600.95
2964.11142	14603.95
2966.56239	14564.35
2969.01186	14547.25
2971.45984	14475.15
2973.90632	14482.35
2976.35131	14467.45
2978.7948	14444.55
2981.23681	14421.65
2983.67732	14400.95
2986.11635	14343.05
2988.55388	14300.35
2990.98993	14287.65
2993.4245	14226.15
2995.85758	14190.75
2998.28917	14144.15
3000.71928	14088.65
3003.14791	14026.35
3005.57506	14010.45
3008.00073	13976.95
3010.42493	13989.75
3012.84764	13974.15
3015.26888	13947.75
3017.68865	13910.05
3020.10694	13867.65
3022.52376	13825.55
3024.9391	13812.95
3027.35298	13787.75
3029.76539	13748.65
3032.17632	13785.95
3034.5858	13759.05
3036.9938	13761.35
3039.40034	13765.35
3041.80542	13784.85
3044.20903	13727.05
3046.61118	13720.65
3049.01187	13735.25
3051.4111	13710.05
3053.80888	13675.45
3056.20519	13656.85
3058.60005	13586.75
3060.99345	13559.95
3063.3854	13512.55
3065.7759	13457.85
3068.16494	13430.55
3070.55254	13363.05
3072.93868	13340.95
3075.32338	13298.15
3077.70662	13214.55
3080.08842	13165.45
3082.46878	13182.75
3084.84769	13205.85
3087.22515	13196.05
3089.60118	13179.25
3091.97576	13157.65
3094.3489	13143.55
3096.72061	13150.45
3099.09087	13144.05
3101.4597	13116.75
3103.82709	13112.55
3106.19305	13118.95
3108.55757	13131.15
3110.92066	13062.85
3113.28232	13039.75
3115.64255	13012.05
3118.00134	12976.45
3120.35871	12967.05
3122.71466	12977.75
3125.06917	12972.75
3127.42226	12931.75
3129.77393	12955.05
3132.12417	12889.75
3134.47299	12904.35
3136.82039	12896.15
3139.16636	12866.95
3141.51092	12893.65
3143.85406	12873.45
3146.19579	12837.25
3148.53609	12842.85
3150.87499	12855.65
3153.21246	12865.75
3155.54853	12885.25
3157.88318	12863.95
3160.21642	12900.25
3162.54826	12922.75
3164.87868	12927.65
3167.2077	12901.85
3169.5353	12900.75
3171.86151	12891.85
3174.18631	12899.45
3176.5097	12894.25
3178.83169	12847.45
3181.15228	12878.55
3183.47147	12819.85
3185.78926	12866.55
3188.10565	12847.65
3190.42065	12833.45
3192.73424	12827.25
3195.04645	12830.35
3197.35725	12817.65
3199.66667	12802.05
3201.97469	12783.85
3204.28132	12770.25
3206.58656	12816.95
3208.8904	12831.25
3211.19287	12810.05
3213.49394	12834.85
3215.79363	12841.85
3218.09193	12849.65
3220.38884	12861.75
3222.68438	12844.05
3224.97853	12823.55
3227.2713	12832.55
3229.56269	12819.45
3231.8527	12797.05
3234.14133	12784.65
3236.42858	12761.15
3238.71446	12766.65
