Data from AgNPs_FTO_APTES_UA_5uM_CRN_0uM_R6G_10uM_NaF_0.1M_Addition_RamanShift__21__10-03-16-547.txt Node

Date: Mon Feb 07 10:03:16 GMT 2022
User: TCL
Spectrometer: QEP01345
Trigger mode: 4
Integration Time (sec): 7.000000E0
Scans to average: 10
Electric dark correction enabled: true
Nonlinearity correction enabled: false
Boxcar width: 0
XAxis mode: Raman Shifts
Number of Pixels in Spectrum: 1044
>>>>>Begin Spectral Data<<<<<
46.04893	-0.475
50.45542	-1.375
54.85868	-0.275
59.25871	1.625
63.6555	85.225
68.04907	90.625
72.43941	94.225
76.82654	98.125
81.21044	101.225
85.59113	109.125
89.96862	109.125
94.34289	110.925
98.71396	117.225
103.08183	118.725
107.4465	125.725
111.80798	129.125
116.16626	133.225
120.52136	138.525
124.87327	146.325
129.222	157.525
133.56755	167.625
137.90993	186.625
142.24913	205.925
146.58517	242.425
150.91804	282.225
155.24774	339.025
159.57429	432.525
163.89768	567.425
168.21792	765.725
172.53501	1038.125
176.84895	1459.625
181.15975	2051.125
185.46741	2875.325
189.77193	3961.925
194.07331	5274.625
198.37157	6778.325
202.6667	8362.225
206.9587	9916.625
211.24758	11452.625
215.53334	13074.325
219.81599	14796.725
224.09553	16789.125
228.37195	19004.525
232.64527	21432.325
236.91549	23884.025
241.18261	26268.425
245.44663	28363.825
249.70755	30142.925
253.96539	31813.625
258.22014	33286.925
262.4718	34544.525
266.72039	35463.125
270.96589	36074.325
275.20832	36300.825
279.44768	36322.325
283.68397	36359.725
287.91719	36500.925
292.14735	36643.425
296.37445	36750.425
300.59849	36907.225
304.81948	37209.825
309.03742	37431.425
313.25231	36884.025
317.46415	35180.125
321.67296	32838.325
325.87872	30828.225
330.08145	29758.525
334.28114	29543.325
338.47781	29788.625
342.67145	30333.525
346.86207	31052.925
351.04966	32142.125
355.23424	33384.025
359.4158	34315.825
363.59435	34733.825
367.76989	34824.025
371.94243	34836.425
376.11196	34718.125
380.27849	34589.325
384.44203	34430.625
388.60257	34256.625
392.76012	34420.925
396.91468	34987.225
401.06626	35916.425
405.21485	36658.925
409.36047	36401.225
413.50311	35430.325
417.64277	34535.225
421.77947	34248.925
425.9132	34319.325
430.04396	34429.025
434.17176	34274.225
438.2966	34173.725
442.41849	34280.025
446.53742	34905.925
450.6534	35808.425
454.76644	36578.225
458.87653	36919.725
462.98368	36921.125
467.08789	36667.425
471.18916	36259.825
475.2875	35860.925
479.38291	35747.825
483.4754	35778.125
487.56496	35683.325
491.6516	35463.825
495.73531	35294.225
499.81612	35346.125
503.89401	35651.825
507.96899	35762.125
512.04106	35385.025
516.11023	34694.225
520.1765	33813.425
524.23987	32920.425
528.30034	32148.025
532.35792	31434.925
536.41261	30733.725
540.46441	30251.525
544.51333	30191.425
548.55936	30840.025
552.60252	32172.325
556.64279	33396.625
560.6802	34020.325
564.71473	34444.925
568.7464	35829.525
572.7752	37591.825
576.80114	38431.825
580.82422	38922.525
584.84444	39283.425
588.86181	38667.925
592.87633	37516.725
596.888	37041.925
600.89682	37574.625
604.9028	40626.925
608.90594	48164.025
612.90624	56580.625
616.90371	53038.025
620.89834	39474.025
624.89015	32951.325
628.87913	31874.925
632.86528	32089.525
636.84862	32231.225
640.82913	31620.125
644.80683	30135.925
648.78172	28920.725
652.75379	28639.725
656.72306	29353.825
660.68952	30502.525
664.65319	30745.525
668.61405	29996.425
672.57211	29606.325
676.52738	29436.025
680.47986	29298.825
684.42955	28916.725
688.37646	28565.725
692.32058	28637.725
696.26192	28967.925
700.20048	29421.025
704.13626	30055.725
708.06928	30332.825
711.99952	30116.225
715.927	29751.225
719.85171	29549.025
723.77365	29318.825
727.69284	28807.125
731.60928	28272.425
735.52295	28103.825
739.43388	28045.125
743.34206	28249.325
747.24749	28604.825
751.15017	29147.925
755.05012	30041.625
758.94733	31696.125
762.8418	34961.625
766.73354	40456.625
770.62254	45858.225
774.50882	46858.225
778.39237	43102.125
782.27321	37613.625
786.15132	33130.025
790.02671	30471.525
793.89938	29023.925
797.76935	28381.725
801.6366	28139.825
805.50115	27967.825
809.36299	27712.525
813.22213	27404.825
817.07857	27282.025
820.93231	27145.125
824.78336	27162.425
828.63172	27169.625
832.47738	27127.325
836.32036	27173.425
840.16066	27188.025
843.99827	27329.125
847.8332	27249.625
851.66546	27117.825
855.49504	27056.425
859.32195	26984.525
863.1462	26746.325
866.96777	26490.225
870.78668	26289.225
874.60293	26202.825
878.41652	26051.825
882.22745	26092.025
886.03573	26252.625
889.84136	26233.325
893.64433	26137.225
897.44466	26016.725
901.24235	25968.425
905.0374	25810.625
908.8298	25668.225
912.61957	25730.825
916.40671	26155.825
920.19121	27006.425
923.97308	27816.725
927.75233	28169.625
931.52895	27912.225
935.30295	27158.725
939.07433	26082.225
942.84309	25232.925
946.60924	24847.025
950.37278	24704.525
954.13371	24556.425
957.89203	24300.825
961.64774	24185.125
965.40086	24076.425
969.15137	24016.425
972.89929	23844.725
976.64461	23767.125
980.38733	23749.725
984.12747	23846.525
987.86502	24087.225
991.59999	24442.225
995.33237	25087.425
999.06217	26219.525
1002.78939	27785.025
1006.51404	28904.925
1010.23611	29447.425
1013.95561	29724.925
1017.67255	29696.925
1021.38692	29316.425
1025.09872	29205.925
1028.80796	29915.125
1032.51465	31645.825
1036.21877	33126.925
1039.92035	33188.925
1043.61937	32213.025
1047.31584	30642.125
1051.00976	29075.125
1054.70114	28254.525
1058.38998	28098.725
1062.07627	28336.325
1065.76003	28733.125
1069.44126	29397.025
1073.11995	30318.625
1076.79611	31176.025
1080.46974	31320.625
1084.14085	31449.925
1087.80943	32008.625
1091.47549	32619.525
1095.13903	32567.025
1098.80005	31751.425
1102.45857	30181.525
1106.11456	28643.425
1109.76805	27850.025
1113.41903	27658.725
1117.06751	27929.125
1120.71348	28497.225
1124.35696	29244.825
1127.99793	30078.025
1131.63641	30650.125
1135.2724	30411.725
1138.90589	29773.225
1142.5369	29324.325
1146.16542	28964.025
1149.79145	28901.425
1153.415	29127.625
1157.03607	29714.325
1160.65467	30701.025
1164.27079	32362.825
1167.88443	34884.125
1171.49561	38529.925
1175.10432	43685.325
1178.71056	49904.125
1182.31434	55120.425
1185.91565	57992.525
1189.51451	58343.325
1193.11091	56019.725
1196.70485	52050.225
1200.29634	48080.125
1203.88538	44923.025
1207.47197	42265.225
1211.05612	39956.125
1214.63782	38481.025
1218.21708	37839.625
1221.79391	37755.025
1225.36829	37742.425
1228.94024	37240.125
1232.50976	36164.525
1236.07685	35389.225
1239.6415	35085.425
1243.20374	34997.425
1246.76355	35263.525
1250.32093	35970.825
1253.8759	37316.525
1257.42845	39138.625
1260.97859	41037.425
1264.52631	42668.525
1268.07163	44312.025
1271.61453	46153.825
1275.15503	48249.025
1278.69312	50182.725
1282.22882	51571.525
1285.76211	52881.225
1289.29301	54421.225
1292.82151	56614.525
1296.34761	59617.325
1299.87133	63889.525
1303.39266	69465.425
1306.9116	76241.225
1310.42815	82802.125
1313.94233	86977.925
1317.45412	87077.525
1320.96354	85030.625
1324.47058	82929.825
1327.97525	81209.525
1331.47754	79934.225
1334.97747	78851.325
1338.47502	77960.725
1341.97022	77243.525
1345.46305	76035.725
1348.95352	73818.325
1352.44163	71655.925
1355.92738	71838.025
1359.41078	75745.925
1362.89183	81171.425
1366.37053	81416.825
1369.84688	74634.325
1373.32088	65798.225
1376.79254	58625.425
1380.26186	54246.625
1383.72883	52162.125
1387.19347	51269.125
1390.65578	50742.325
1394.11575	50776.925
1397.57339	51480.825
1401.0287	52741.525
1404.48168	53836.325
1407.93234	54313.025
1411.38068	53621.625
1414.82669	51685.625
1418.27039	48634.825
1421.71177	45408.025
1425.15083	42737.525
1428.58758	41023.025
1432.02203	40547.225
1435.45416	41098.325
1438.88399	42078.225
1442.31151	43128.625
1445.73673	44210.725
1449.15965	45374.425
1452.58027	46386.825
1455.9986	46987.925
1459.41463	47587.425
1462.82837	48662.125
1466.23982	50090.325
1469.64898	51476.225
1473.05586	52276.125
1476.46045	52545.625
1479.86276	52657.125
1483.26279	52679.725
1486.66054	53053.625
1490.05602	53792.025
1493.44922	55016.525
1496.84016	56730.825
1500.22882	59328.825
1503.61521	63055.625
1506.99934	67626.925
1510.38121	72562.125
1513.76081	75528.925
1517.13816	74535.725
1520.51324	70206.725
1523.88607	65125.525
1527.25665	60966.625
1530.62498	58031.825
1533.99105	55925.925
1537.35488	54514.225
1540.71647	53276.725
1544.07581	52064.525
1547.4329	50692.725
1550.78776	49403.525
1554.14038	48560.825
1557.49077	48556.425
1560.83892	49054.125
1564.18484	49756.525
1567.52853	50254.225
1570.86999	50256.925
1574.20922	50332.625
1577.54624	50403.325
1580.88103	49337.025
1584.2136	48059.525
1587.54395	48480.525
1590.87208	51033.525
1594.19801	55377.425
1597.52172	60180.325
1600.84321	62123.325
1604.16251	58962.325
1607.47959	53146.825
1610.79447	47056.025
1614.10715	41731.925
1617.41763	37403.725
1620.7259	34494.325
1624.03199	32976.425
1627.33587	32824.925
1630.63757	33888.125
1633.93707	36314.825
1637.23439	40080.225
1640.52951	45378.825
1643.82246	51811.925
1647.11321	58299.925
1650.40179	62337.725
1653.68819	60871.025
1656.97241	53498.025
1660.25446	43951.125
1663.53433	36069.125
1666.81203	30754.925
1670.08756	27539.625
1673.36092	25657.125
1676.63211	24447.425
1679.90115	23561.425
1683.16801	22957.625
1686.43272	22482.925
1689.69527	22192.125
1692.95567	21977.225
1696.2139	21761.625
1699.46999	21591.925
1702.72392	21475.125
1705.97571	21397.925
1709.22535	21283.225
1712.47284	21172.925
1715.71819	21167.225
1718.96139	21083.925
1722.20246	20910.825
1725.44139	20800.325
1728.67818	20609.925
1731.91284	20468.325
1735.14537	20234.825
1738.37576	20168.525
1741.60403	20065.925
1744.83017	19944.325
1748.05418	19875.625
1751.27607	19820.025
1754.49584	19765.425
1757.71349	19745.425
1760.92903	19676.125
1764.14244	19698.725
1767.35375	19679.525
1770.56294	19605.925
1773.77002	19545.025
1776.97499	19491.725
1780.17785	19406.725
1783.37861	19359.225
1786.57727	19349.025
1789.77382	19267.125
1792.96828	19253.425
1796.16064	19256.625
1799.3509	19202.925
1802.53907	19141.325
1805.72514	19077.325
1808.90913	18995.225
1812.09102	18944.025
1815.27083	18868.725
1818.44856	18855.525
1821.6242	18790.525
1824.79776	18800.525
1827.96924	18742.125
1831.13864	18748.625
1834.30597	18764.025
1837.47122	18756.025
1840.6344	18762.925
1843.7955	18769.925
1846.95454	18785.525
1850.11151	18769.025
1853.26642	18727.725
1856.41926	18742.625
1859.57004	18703.825
1862.71876	18718.325
1865.86542	18706.825
1869.01003	18685.025
1872.15258	18627.625
1875.29308	18626.625
1878.43152	18567.725
1881.56792	18587.325
1884.70227	18573.325
1887.83457	18567.525
1890.96482	18608.025
1894.09304	18597.225
1897.21921	18576.325
1900.34335	18554.425
1903.46544	18531.025
1906.58551	18530.825
1909.70353	18488.225
1912.81953	18476.225
1915.93349	18475.625
1919.04543	18412.525
1922.15534	18363.425
1925.26322	18342.025
1928.36908	18299.425
1931.47292	18192.425
1934.57473	18124.525
1937.67453	18066.625
1940.77232	17963.325
1943.86808	17900.625
1946.96184	17813.725
1950.05358	17749.525
1953.14331	17708.025
1956.23103	17676.825
1959.31675	17609.325
1962.40046	17552.925
1965.48217	17520.925
1968.56188	17474.125
1971.63959	17441.325
1974.7153	17378.225
1977.78901	17331.425
1980.86073	17247.425
1983.93046	17192.525
1986.99819	17151.425
1990.06394	17057.325
1993.1277	17025.425
1996.18947	16926.525
1999.24925	16880.125
2002.30706	16815.625
2005.36288	16771.525
2008.41672	16719.725
2011.46859	16668.625
2014.51848	16664.225
2017.56639	16577.825
2020.61233	16557.725
2023.6563	16526.625
2026.6983	16478.625
2029.73833	16445.625
2032.7764	16458.225
2035.8125	16457.325
2038.84664	16417.025
2041.87881	16401.225
2044.90903	16356.725
2047.93729	16316.525
2050.96359	16329.625
2053.98794	16250.025
2057.01034	16319.025
2060.03078	16265.325
2063.04927	16223.425
2066.06582	16191.725
2069.08042	16207.325
2072.09307	16167.325
2075.10378	16129.625
2078.11255	16117.725
2081.11938	16118.925
2084.12426	16050.025
2087.12722	16063.825
2090.12824	16038.225
2093.12732	16048.025
2096.12447	16026.725
2099.11969	15999.625
2102.11299	16011.525
2105.10435	16059.725
2108.09379	15985.925
2111.08131	16020.225
2114.0669	16034.125
2117.05057	16054.225
2120.03233	16029.325
2123.01216	16055.325
2125.99008	16097.825
2128.96609	16126.525
2131.94018	16111.025
2134.91236	16086.225
2137.88263	16131.625
2140.851	16133.525
2143.81746	16116.525
2146.78201	16120.125
2149.74466	16125.525
2152.7054	16102.125
2155.66425	16124.825
2158.6212	16106.425
2161.57625	16088.225
2164.52941	16100.325
2167.48067	16055.825
2170.43004	16039.325
2173.37752	16038.025
2176.32311	16043.225
2179.26681	16035.925
2182.20863	16045.625
2185.14856	16027.125
2188.08661	16016.525
2191.02278	16060.825
2193.95707	16040.825
2196.88948	16014.125
2199.82001	16010.725
2202.74867	16019.125
2205.67545	16029.925
2208.60037	16029.425
2211.52341	16039.725
2214.44458	16065.125
2217.36388	16034.825
2220.28132	16007.125
2223.1969	15995.825
2226.11061	15959.025
2229.02246	15941.725
2231.93245	15900.425
2234.84058	15845.125
2237.74686	15796.325
2240.65128	15773.125
2243.55385	15716.325
2246.45456	15694.625
2249.35343	15658.925
2252.25044	15648.625
2255.14561	15614.325
2258.03893	15645.625
2260.93041	15625.525
2263.82004	15594.625
2266.70783	15546.425
2269.59378	15462.925
2272.4779	15428.425
2275.36017	15384.425
2278.24061	15371.025
2281.11922	15331.025
2283.996	15357.225
2286.87094	15343.525
2289.74405	15322.825
2292.61534	15296.425
2295.4848	15296.325
2298.35243	15278.125
2301.21824	15308.225
2304.08223	15316.725
2306.94439	15357.525
2309.80474	15400.025
2312.66327	15431.025
2315.51999	15433.725
2318.37489	15433.625
2321.22797	15455.225
2324.07925	15437.925
2326.92871	15452.825
2329.77637	15445.025
2332.62222	15452.225
2335.46626	15450.825
2338.3085	15486.225
2341.14893	15526.325
2343.98756	15604.125
2346.8244	15588.625
2349.65943	15631.925
2352.49267	15625.425
2355.32411	15651.625
2358.15376	15668.925
2360.98161	15624.725
2363.80768	15590.425
2366.63195	15578.725
2369.45444	15541.625
2372.27514	15475.225
2375.09405	15460.625
2377.91118	15403.325
2380.72652	15293.825
2383.54009	15245.825
2386.35187	15234.625
2389.16188	15186.025
2391.97011	15202.025
2394.77657	15138.825
2397.58125	15115.225
2400.38416	15076.525
2403.18529	15031.825
2405.98466	15003.525
2408.78226	14936.725
2411.57809	14907.725
2414.37216	14850.525
2417.16446	14815.325
2419.955	14791.125
2422.74378	14773.525
2425.5308	14758.625
2428.31606	14753.825
2431.09956	14750.725
2433.88131	14727.525
2436.6613	14768.025
2439.43954	14755.325
2442.21603	14768.025
2444.99077	14754.125
2447.76377	14766.625
2450.53501	14750.225
2453.30451	14744.525
2456.07226	14735.625
2458.83827	14753.825
2461.60254	14766.225
2464.36507	14779.225
2467.12586	14774.625
2469.88492	14758.225
2472.64224	14785.825
2475.39782	14799.325
2478.15167	14840.825
2480.90379	14811.825
2483.65417	14844.825
2486.40283	14909.625
2489.14976	14955.825
2491.89497	14996.825
2494.63845	15033.425
2497.3802	15045.225
2500.12024	15004.025
2502.85855	14989.825
2505.59514	14983.625
2508.33002	14949.425
2511.06318	14906.125
2513.79462	14899.225
2516.52435	14858.425
2519.25237	14888.825
2521.97867	14851.425
2524.70327	14837.325
2527.42616	14780.825
2530.14734	14796.025
2532.86681	14769.925
2535.58458	14846.625
2538.30065	14827.625
2541.01501	14802.625
2543.72768	14770.925
2546.43864	14742.025
2549.14791	14731.925
2551.85548	14732.025
2554.56136	14744.325
2557.26554	14734.725
2559.96803	14721.725
2562.66883	14744.625
2565.36794	14732.025
2568.06536	14672.425
2570.7611	14640.925
2573.45514	14654.125
2576.14751	14690.925
2578.83819	14668.425
2581.52719	14685.425
2584.21451	14660.025
2586.90015	14706.925
2589.58411	14717.625
2592.2664	14724.825
2594.94701	14715.425
2597.62594	14746.125
2600.30321	14729.025
2602.9788	14717.925
2605.65273	14705.225
2608.32498	14739.625
2610.99557	14757.725
2613.66449	14763.225
2616.33175	14783.925
2618.99734	14825.025
2621.66128	14816.625
2624.32355	14836.125
2626.98416	14854.725
2629.64311	14843.925
2632.30041	14863.325
2634.95605	14868.325
2637.61004	14822.325
2640.26238	14798.725
2642.91306	14753.625
2645.56209	14741.125
2648.20948	14739.425
2650.85521	14703.925
2653.4993	14677.625
2656.14175	14696.625
2658.78255	14689.425
2661.42171	14682.425
2664.05923	14735.125
2666.6951	14766.725
2669.32934	14766.725
2671.96194	14782.725
2674.59291	14763.525
2677.22224	14744.025
2679.84993	14778.925
2682.476	14736.825
2685.10043	14690.225
2687.72324	14680.025
2690.34441	14624.325
2692.96396	14613.425
2695.58188	14619.025
2698.19818	14571.325
2700.81285	14562.425
2703.4259	14592.225
2706.03733	14632.625
2708.64714	14576.225
2711.25533	14565.725
2713.86191	14564.225
2716.46687	14581.625
2719.07021	14549.725
2721.67194	14582.525
2724.27206	14602.925
2726.87057	14609.925
2729.46747	14638.625
2732.06276	14655.225
2734.65644	14658.625
2737.24852	14591.625
2739.83899	14599.125
2742.42786	14623.325
2745.01513	14573.625
2747.60079	14590.825
2750.18486	14585.125
2752.76733	14551.225
2755.3482	14548.525
2757.92747	14532.025
2760.50515	14495.625
2763.08123	14504.625
2765.65573	14496.425
2768.22863	14519.425
2770.79994	14487.325
2773.36967	14545.525
2775.9378	14543.825
2778.50435	14556.025
2781.06932	14549.925
2783.6327	14557.125
2786.1945	14565.925
2788.75471	14568.725
2791.31335	14547.525
2793.87041	14545.625
2796.42589	14496.925
2798.97979	14536.725
2801.53212	14489.525
2804.08288	14453.425
2806.63206	14448.925
2809.17967	14440.625
2811.72571	14389.825
2814.27018	14406.325
2816.81308	14442.725
2819.35442	14422.325
2821.89419	14420.925
2824.43239	14422.025
2826.96904	14407.325
2829.50412	14435.125
2832.03763	14414.125
2834.56959	14394.925
2837.1	14374.125
2839.62884	14427.425
2842.15613	14389.325
2844.68186	14451.925
2847.20604	14484.025
2849.72867	14488.625
2852.24974	14488.725
2854.76927	14489.625
2857.28724	14487.425
2859.80367	14481.025
2862.31855	14440.025
2864.83189	14481.925
2867.34368	14431.925
2869.85393	14427.825
2872.36264	14394.025
2874.8698	14405.225
2877.37543	14411.325
2879.87952	14402.925
2882.38207	14411.325
2884.88308	14383.525
2887.38256	14408.725
2889.88051	14442.625
2892.37692	14455.325
2894.8718	14423.925
2897.36515	14470.125
2899.85698	14497.825
2902.34727	14533.925
2904.83604	14568.225
2907.32328	14594.725
2909.809	14623.325
2912.29319	14646.825
2914.77587	14648.025
2917.25702	14596.425
2919.73665	14609.125
2922.21476	14567.625
2924.69136	14520.625
2927.16644	14533.325
2929.64	14480.025
2932.11205	14448.825
2934.58258	14383.925
2937.05161	14355.325
2939.51912	14355.025
2941.98513	14320.625
2944.44962	14283.925
2946.91261	14174.925
2949.37409	14215.225
2951.83407	14181.425
2954.29254	14121.825
2956.74951	14113.225
2959.20498	14138.025
2961.65895	14067.725
2964.11142	14066.825
2966.56239	14031.425
2969.01186	14032.525
2971.45984	13975.725
2973.90632	13951.225
2976.35131	13915.425
2978.7948	13929.725
2981.23681	13880.825
2983.67732	13842.625
2986.11635	13806.525
2988.55388	13766.625
2990.98993	13754.725
2993.4245	13669.925
2995.85758	13660.025
2998.28917	13597.225
3000.71928	13547.825
3003.14791	13506.125
3005.57506	13490.025
3008.00073	13481.725
3010.42493	13490.825
3012.84764	13410.325
3015.26888	13432.325
3017.68865	13367.425
3020.10694	13311.825
3022.52376	13303.125
3024.9391	13317.825
3027.35298	13233.225
3029.76539	13235.725
3032.17632	13230.325
3034.5858	13213.325
3036.9938	13204.525
3039.40034	13224.725
3041.80542	13237.025
3044.20903	13202.925
3046.61118	13209.125
3049.01187	13161.225
3051.4111	13190.425
3053.80888	13147.725
3056.20519	13116.025
3058.60005	13046.525
3060.99345	13030.325
3063.3854	12969.925
3065.7759	12927.125
3068.16494	12847.625
3070.55254	12838.725
3072.93868	12809.025
3075.32338	12748.525
3077.70662	12716.025
3080.08842	12673.825
3082.46878	12662.225
3084.84769	12654.625
3087.22515	12649.825
3089.60118	12623.725
3091.97576	12628.225
3094.3489	12632.625
3096.72061	12620.725
3099.09087	12629.925
3101.4597	12575.825
3103.82709	12619.225
3106.19305	12571.525
3108.55757	12578.325
3110.92066	12543.725
3113.28232	12507.225
3115.64255	12503.525
3118.00134	12450.325
3120.35871	12449.125
3122.71466	12444.125
3125.06917	12436.525
3127.42226	12400.025
