Data from AgNPs_FTO_APTES_UA_5uM_CRN_1000uM_R6G_10uM_NaF_0.1M_Addition_RamanShift__7__17-32-01-869.txt Node

Date: Mon Feb 07 17:32:01 GMT 2022
User: TCL
Spectrometer: QEP01345
Trigger mode: 4
Integration Time (sec): 7.000000E0
Scans to average: 10
Electric dark correction enabled: true
Nonlinearity correction enabled: false
Boxcar width: 0
XAxis mode: Raman Shifts
Number of Pixels in Spectrum: 1044
>>>>>Begin Spectral Data<<<<<
46.04893	-1.725
50.45542	-1.225
54.85868	0.475
59.25871	-0.825
63.6555	59.175
68.04907	63.775
72.43941	64.575
76.82654	68.175
81.21044	68.975
85.59113	69.875
89.96862	74.675
94.34289	76.775
98.71396	81.075
103.08183	81.575
107.4465	82.875
111.80798	91.675
116.16626	90.275
120.52136	96.775
124.87327	98.275
129.222	105.175
133.56755	107.475
137.90993	118.575
142.24913	135.475
146.58517	150.775
150.91804	177.275
155.24774	218.775
159.57429	274.175
163.89768	347.075
168.21792	474.775
172.53501	648.875
176.84895	902.575
181.15975	1274.075
185.46741	1782.875
189.77193	2467.175
194.07331	3309.575
198.37157	4287.175
202.6667	5282.475
206.9587	6264.575
211.24758	7248.575
215.53334	8237.475
219.81599	9277.775
224.09553	10407.575
228.37195	11633.575
232.64527	12952.475
236.91549	14395.375
241.18261	15787.975
245.44663	17122.975
249.70755	18380.675
253.96539	19516.375
258.22014	20418.175
262.4718	21135.175
266.72039	21679.575
270.96589	21976.975
275.20832	22078.775
279.44768	22001.075
283.68397	21840.875
287.91719	21720.175
292.14735	21634.275
296.37445	21687.775
300.59849	21718.675
304.81948	21762.375
309.03742	21695.575
313.25231	21441.675
317.46415	21074.675
321.67296	20577.875
325.87872	20187.975
330.08145	19972.275
334.28114	19870.975
338.47781	19934.575
342.67145	20111.775
346.86207	20383.275
351.04966	20685.575
355.23424	20979.375
359.4158	21174.775
363.59435	21387.275
367.76989	21556.375
371.94243	21667.975
376.11196	21723.175
380.27849	21737.375
384.44203	21870.375
388.60257	22084.275
392.76012	22338.275
396.91468	22583.775
401.06626	22945.075
405.21485	23120.275
409.36047	22979.675
413.50311	22758.275
417.64277	22702.475
421.77947	22718.075
425.9132	22880.175
430.04396	23103.275
434.17176	23290.375
438.2966	23434.675
442.41849	23857.375
446.53742	24489.875
450.6534	25179.375
454.76644	25668.375
458.87653	25833.575
462.98368	25793.575
467.08789	25557.175
471.18916	25307.475
475.2875	25161.775
479.38291	25201.775
483.4754	25130.775
487.56496	24858.375
491.6516	24290.275
495.73531	23723.975
499.81612	23304.075
503.89401	23223.675
507.96899	23269.575
512.04106	23178.175
516.11023	22957.175
520.1765	22689.675
524.23987	22486.175
528.30034	22247.875
532.35792	22093.075
536.41261	21885.375
540.46441	21700.775
544.51333	21709.775
548.55936	22000.675
552.60252	22500.375
556.64279	23179.975
560.6802	23750.575
564.71473	24130.575
568.7464	24711.575
572.7752	25625.375
576.80114	26526.875
580.82422	27277.175
584.84444	27950.675
588.86181	29017.275
592.87633	29998.975
596.888	29751.475
600.89682	28304.975
604.9028	27418.175
608.90594	27866.175
612.90624	28759.475
616.90371	26955.875
620.89834	23486.975
624.89015	21950.575
628.87913	21870.275
632.86528	22071.675
636.84862	22113.675
640.82913	21750.775
644.80683	21355.975
648.78172	21015.375
652.75379	20975.675
656.72306	21119.175
660.68952	21339.775
664.65319	21184.175
668.61405	20884.175
672.57211	20862.275
676.52738	20912.075
680.47986	20972.775
684.42955	20901.975
688.37646	20833.475
692.32058	20872.175
696.26192	21036.875
700.20048	21279.475
704.13626	21450.775
708.06928	21570.275
711.99952	21583.175
715.927	21539.675
719.85171	21543.575
723.77365	21442.375
727.69284	21180.875
731.60928	20936.875
735.52295	20820.175
739.43388	20826.975
743.34206	20822.875
747.24749	20954.375
751.15017	21169.575
755.05012	21555.675
758.94733	22147.275
762.8418	23116.675
766.73354	24499.675
770.62254	25698.275
774.50882	25780.375
778.39237	24651.075
782.27321	23094.475
786.15132	21873.575
790.02671	21094.975
793.89938	20748.775
797.76935	20585.275
801.6366	20529.775
805.50115	20437.875
809.36299	20387.575
813.22213	20241.175
817.07857	20204.475
820.93231	20159.575
824.78336	20026.675
828.63172	19853.075
832.47738	19759.975
836.32036	19733.575
840.16066	19711.875
843.99827	19693.275
847.8332	19648.975
851.66546	19667.575
855.49504	19709.875
859.32195	19665.875
863.1462	19600.975
866.96777	19592.575
870.78668	19545.275
874.60293	19558.775
878.41652	19560.275
882.22745	19631.875
886.03573	19642.375
889.84136	19645.175
893.64433	19576.775
897.44466	19543.175
901.24235	19476.475
905.0374	19425.775
908.8298	19357.875
912.61957	19409.175
916.40671	19628.875
920.19121	19977.375
923.97308	20167.475
927.75233	20081.775
931.52895	19776.275
935.30295	19420.875
939.07433	19041.975
942.84309	18780.575
946.60924	18602.075
950.37278	18543.775
954.13371	18552.475
957.89203	18568.275
961.64774	18573.875
965.40086	18536.375
969.15137	18470.075
972.89929	18349.275
976.64461	18178.575
980.38733	18097.875
984.12747	18065.875
987.86502	18129.075
991.59999	18195.975
995.33237	18289.375
999.06217	18514.275
1002.78939	18781.075
1006.51404	19090.875
1010.23611	19379.575
1013.95561	19646.375
1017.67255	19759.075
1021.38692	19609.675
1025.09872	19258.575
1028.80796	18943.775
1032.51465	18823.075
1036.21877	18839.075
1039.92035	18934.975
1043.61937	19024.875
1047.31584	19084.775
1051.00976	19181.075
1054.70114	19273.575
1058.38998	19399.675
1062.07627	19665.175
1065.76003	19913.375
1069.44126	20130.875
1073.11995	20378.175
1076.79611	20581.375
1080.46974	20653.575
1084.14085	20767.175
1087.80943	20876.275
1091.47549	21124.175
1095.13903	21228.775
1098.80005	21007.375
1102.45857	20552.375
1106.11456	20125.875
1109.76805	19895.475
1113.41903	19883.175
1117.06751	20035.175
1120.71348	20284.075
1124.35696	20541.375
1127.99793	20900.275
1131.63641	21117.775
1135.2724	21035.375
1138.90589	20946.875
1142.5369	21040.775
1146.16542	21333.675
1149.79145	21687.175
1153.415	22043.675
1157.03607	22480.075
1160.65467	23241.575
1164.27079	24414.975
1167.88443	25758.575
1171.49561	27220.575
1175.10432	28871.575
1178.71056	30856.375
1182.31434	32624.175
1185.91565	33398.175
1189.51451	33103.975
1193.11091	32359.075
1196.70485	31416.275
1200.29634	30487.075
1203.88538	29883.075
1207.47197	29707.575
1211.05612	29525.775
1214.63782	28971.675
1218.21708	27998.175
1221.79391	27012.775
1225.36829	26346.775
1228.94024	25858.375
1232.50976	25378.475
1236.07685	24972.075
1239.6415	24667.875
1243.20374	24611.575
1246.76355	24805.675
1250.32093	25123.075
1253.8759	25540.275
1257.42845	26160.875
1260.97859	26866.575
1264.52631	27595.675
1268.07163	28255.075
1271.61453	29012.075
1275.15503	29881.875
1278.69312	30893.475
1282.22882	32070.275
1285.76211	33604.475
1289.29301	35444.975
1292.82151	37559.075
1296.34761	40142.475
1299.87133	42779.275
1303.39266	45197.875
1306.9116	47044.875
1310.42815	48194.175
1313.94233	48764.275
1317.45412	48509.375
1320.96354	47858.175
1324.47058	47353.175
1327.97525	46902.975
1331.47754	46614.975
1334.97747	46253.575
1338.47502	45667.475
1341.97022	44889.275
1345.46305	43968.575
1348.95352	43251.675
1352.44163	42810.775
1355.92738	43175.575
1359.41078	44327.375
1362.89183	45222.275
1366.37053	44543.975
1369.84688	41564.775
1373.32088	37467.175
1376.79254	34664.375
1380.26186	33947.975
1383.72883	34446.675
1387.19347	34884.775
1390.65578	34952.375
1394.11575	35136.875
1397.57339	35695.675
1401.0287	36437.375
1404.48168	36782.475
1407.93234	36443.875
1411.38068	35285.775
1414.82669	33591.275
1418.27039	31635.575
1421.71177	29910.975
1425.15083	28528.175
1428.58758	27885.575
1432.02203	28023.775
1435.45416	28862.675
1438.88399	29924.375
1442.31151	30782.875
1445.73673	31306.375
1449.15965	31827.275
1452.58027	32129.075
1455.9986	32223.975
1459.41463	32417.975
1462.82837	32764.775
1466.23982	33194.175
1469.64898	33616.175
1473.05586	33791.675
1476.46045	33725.375
1479.86276	33278.175
1483.26279	32787.875
1486.66054	32453.375
1490.05602	32421.275
1493.44922	32572.975
1496.84016	32841.375
1500.22882	33188.175
1503.61521	33773.175
1506.99934	34604.675
1510.38121	35246.775
1513.76081	35463.275
1517.13816	35199.875
1520.51324	34689.475
1523.88607	34618.975
1527.25665	34832.375
1530.62498	35127.875
1533.99105	35165.175
1537.35488	34696.275
1540.71647	33781.575
1544.07581	32617.075
1547.4329	31394.475
1550.78776	30348.975
1554.14038	29573.775
1557.49077	29075.275
1560.83892	28852.575
1564.18484	28712.475
1567.52853	28879.575
1570.86999	29329.175
1574.20922	30150.875
1577.54624	31050.975
1580.88103	31597.975
1584.2136	32260.175
1587.54395	33293.575
1590.87208	34950.475
1594.19801	36774.975
1597.52172	38286.275
1600.84321	38493.175
1604.16251	36492.475
1607.47959	33262.975
1610.79447	30036.475
1614.10715	27162.775
1617.41763	24961.675
1620.7259	23522.575
1624.03199	22836.975
1627.33587	22947.375
1630.63757	23847.675
1633.93707	25632.175
1637.23439	28596.375
1640.52951	33022.275
1643.82246	38144.975
1647.11321	42136.175
1650.40179	42541.775
1653.68819	38985.275
1656.97241	33211.675
1660.25446	27661.975
1663.53433	23631.575
1666.81203	20965.875
1670.08756	19357.075
1673.36092	18327.275
1676.63211	17681.675
1679.90115	17211.875
1683.16801	16856.275
1686.43272	16613.875
1689.69527	16361.375
1692.95567	16247.775
1696.2139	16129.875
1699.46999	16022.075
1702.72392	15937.275
1705.97571	15837.775
1709.22535	15795.375
1712.47284	15739.575
1715.71819	15678.275
1718.96139	15641.475
1722.20246	15546.675
1725.44139	15465.275
1728.67818	15362.575
1731.91284	15256.775
1735.14537	15183.075
1738.37576	15072.575
1741.60403	15018.175
1744.83017	14936.575
1748.05418	14915.675
1751.27607	14883.475
1754.49584	14846.775
1757.71349	14861.275
1760.92903	14811.675
1764.14244	14784.175
1767.35375	14776.075
1770.56294	14712.275
1773.77002	14684.775
1776.97499	14627.275
1780.17785	14606.175
1783.37861	14549.075
1786.57727	14509.575
1789.77382	14500.575
1792.96828	14429.875
1796.16064	14393.575
1799.3509	14341.075
1802.53907	14333.875
1805.72514	14259.575
1808.90913	14197.975
1812.09102	14172.675
1815.27083	14147.375
1818.44856	14094.175
1821.6242	14051.675
1824.79776	14031.375
1827.96924	14035.875
1831.13864	14003.575
1834.30597	13973.575
1837.47122	13960.775
1840.6344	13945.375
1843.7955	13923.875
1846.95454	13905.275
1850.11151	13898.975
1853.26642	13842.875
1856.41926	13838.575
1859.57004	13812.675
1862.71876	13809.575
1865.86542	13805.775
1869.01003	13792.275
1872.15258	13748.675
1875.29308	13726.775
1878.43152	13687.175
1881.56792	13709.875
1884.70227	13677.275
1887.83457	13648.075
1890.96482	13598.075
1894.09304	13587.275
1897.21921	13592.375
1900.34335	13573.775
1903.46544	13527.575
1906.58551	13493.975
1909.70353	13487.475
1912.81953	13450.175
1915.93349	13394.075
1919.04543	13352.275
1922.15534	13334.975
1925.26322	13297.475
1928.36908	13279.675
1931.47292	13234.875
1934.57473	13170.775
1937.67453	13176.175
1940.77232	13145.875
1943.86808	13052.875
1946.96184	13048.775
1950.05358	13017.475
1953.14331	12959.575
1956.23103	12874.775
1959.31675	12850.975
1962.40046	12810.175
1965.48217	12779.975
1968.56188	12751.075
1971.63959	12688.075
1974.7153	12655.575
1977.78901	12600.975
1980.86073	12553.275
1983.93046	12503.875
1986.99819	12482.275
1990.06394	12450.775
1993.1277	12407.875
1996.18947	12345.175
1999.24925	12278.675
2002.30706	12248.875
2005.36288	12208.475
2008.41672	12168.275
2011.46859	12141.475
2014.51848	12110.975
2017.56639	12085.175
2020.61233	12038.075
2023.6563	11982.075
2026.6983	11955.575
2029.73833	11911.375
2032.7764	11882.775
2035.8125	11868.975
2038.84664	11816.375
2041.87881	11819.475
2044.90903	11766.175
2047.93729	11747.275
2050.96359	11734.975
2053.98794	11720.375
2057.01034	11690.775
2060.03078	11695.575
2063.04927	11681.875
2066.06582	11663.875
2069.08042	11673.575
2072.09307	11676.575
2075.10378	11625.375
2078.11255	11584.575
2081.11938	11604.875
2084.12426	11587.275
2087.12722	11563.275
2090.12824	11552.775
2093.12732	11558.375
2096.12447	11546.375
2099.11969	11527.175
2102.11299	11491.175
2105.10435	11522.675
2108.09379	11499.775
2111.08131	11519.875
2114.0669	11542.475
2117.05057	11533.875
2120.03233	11541.275
2123.01216	11531.875
2125.99008	11530.775
2128.96609	11536.175
2131.94018	11529.975
2134.91236	11546.475
2137.88263	11542.475
2140.851	11505.675
2143.81746	11532.475
2146.78201	11500.475
2149.74466	11507.975
2152.7054	11465.775
2155.66425	11449.075
2158.6212	11449.375
2161.57625	11409.875
2164.52941	11419.375
2167.48067	11400.775
2170.43004	11411.575
2173.37752	11429.475
2176.32311	11375.075
2179.26681	11420.375
2182.20863	11372.075
2185.14856	11377.475
2188.08661	11386.075
2191.02278	11382.275
2193.95707	11356.875
2196.88948	11328.475
2199.82001	11319.775
2202.74867	11267.075
2205.67545	11258.575
2208.60037	11235.175
2211.52341	11218.775
2214.44458	11190.475
2217.36388	11175.575
2220.28132	11121.375
2223.1969	11094.775
2226.11061	11079.675
2229.02246	11065.675
2231.93245	11041.675
2234.84058	11014.475
2237.74686	10984.975
2240.65128	10998.575
2243.55385	10948.275
2246.45456	10931.475
2249.35343	10920.675
2252.25044	10890.075
2255.14561	10857.175
2258.03893	10825.775
2260.93041	10788.175
2263.82004	10744.175
2266.70783	10724.675
2269.59378	10704.575
2272.4779	10672.975
2275.36017	10621.575
2278.24061	10570.175
2281.11922	10570.975
2283.996	10565.675
2286.87094	10541.075
2289.74405	10499.075
2292.61534	10475.075
2295.4848	10446.775
2298.35243	10474.075
2301.21824	10447.975
2304.08223	10464.175
2306.94439	10470.875
2309.80474	10442.975
2312.66327	10430.675
2315.51999	10415.875
2318.37489	10390.275
2321.22797	10382.475
2324.07925	10334.075
2326.92871	10362.775
2329.77637	10315.175
2332.62222	10305.475
2335.46626	10292.675
2338.3085	10261.975
2341.14893	10257.975
2343.98756	10243.875
2346.8244	10246.275
2349.65943	10224.275
2352.49267	10223.375
2355.32411	10224.675
2358.15376	10238.575
2360.98161	10228.075
2363.80768	10211.675
2366.63195	10174.875
2369.45444	10206.575
2372.27514	10172.375
2375.09405	10136.975
2377.91118	10107.275
2380.72652	10092.975
2383.54009	10067.675
2386.35187	10081.575
2389.16188	10011.075
2391.97011	9994.975
2394.77657	9985.075
2397.58125	9951.375
2400.38416	9937.175
2403.18529	9909.075
2405.98466	9896.175
2408.78226	9869.175
2411.57809	9894.975
2414.37216	9852.575
2417.16446	9820.275
2419.955	9839.875
2422.74378	9813.475
2425.5308	9808.875
2428.31606	9777.275
2431.09956	9760.575
2433.88131	9750.575
2436.6613	9736.675
2439.43954	9760.175
2442.21603	9741.475
2444.99077	9733.575
2447.76377	9714.675
2450.53501	9698.875
2453.30451	9714.875
2456.07226	9707.275
2458.83827	9699.375
2461.60254	9684.675
2464.36507	9676.875
2467.12586	9666.275
2469.88492	9669.775
2472.64224	9667.975
2475.39782	9633.175
2478.15167	9640.275
2480.90379	9651.975
2483.65417	9622.875
2486.40283	9616.875
2489.14976	9645.275
2491.89497	9611.475
2494.63845	9618.775
2497.3802	9618.875
2500.12024	9610.875
2502.85855	9610.475
2505.59514	9591.475
2508.33002	9573.475
2511.06318	9578.975
2513.79462	9547.275
2516.52435	9567.175
2519.25237	9528.975
2521.97867	9520.075
2524.70327	9499.075
2527.42616	9480.675
2530.14734	9488.075
2532.86681	9491.175
2535.58458	9496.475
2538.30065	9481.275
2541.01501	9473.275
2543.72768	9431.375
2546.43864	9417.075
2549.14791	9417.375
2551.85548	9384.875
2554.56136	9406.775
2557.26554	9362.175
2559.96803	9349.775
2562.66883	9330.875
2565.36794	9337.575
2568.06536	9337.675
2570.7611	9315.875
2573.45514	9291.175
2576.14751	9285.475
2578.83819	9277.875
2581.52719	9281.675
2584.21451	9263.475
2586.90015	9259.375
2589.58411	9221.575
2592.2664	9238.275
2594.94701	9218.475
2597.62594	9225.375
2600.30321	9201.175
2602.9788	9215.775
2605.65273	9183.175
2608.32498	9204.575
2610.99557	9194.875
2613.66449	9201.775
2616.33175	9186.775
2618.99734	9170.275
2621.66128	9157.475
2624.32355	9125.975
2626.98416	9119.575
2629.64311	9110.175
2632.30041	9111.375
2634.95605	9111.875
2637.61004	9087.275
2640.26238	9080.875
2642.91306	9058.075
2645.56209	9059.075
2648.20948	9079.075
2650.85521	9080.675
2653.4993	9067.375
2656.14175	9081.875
2658.78255	9103.575
2661.42171	9085.275
2664.05923	9101.275
2666.6951	9087.875
2669.32934	9114.675
2671.96194	9089.775
2674.59291	9088.875
2677.22224	9070.475
2679.84993	9066.575
2682.476	9040.775
2685.10043	9052.975
2687.72324	9043.775
2690.34441	9040.575
2692.96396	9039.975
2695.58188	9045.875
2698.19818	9040.375
2700.81285	9065.375
2703.4259	9065.175
2706.03733	9058.175
2708.64714	9048.375
2711.25533	9049.275
2713.86191	9057.675
2716.46687	9070.375
2719.07021	9053.575
2721.67194	9075.775
2724.27206	9075.075
2726.87057	9084.975
2729.46747	9076.275
2732.06276	9079.175
2734.65644	9070.475
2737.24852	9081.275
2739.83899	9043.975
2742.42786	9037.875
2745.01513	9043.675
2747.60079	9040.075
2750.18486	9013.375
2752.76733	9032.775
2755.3482	8993.875
2757.92747	8999.475
2760.50515	8987.975
2763.08123	8985.975
2765.65573	8977.775
2768.22863	8967.675
2770.79994	8951.275
2773.36967	8958.175
2775.9378	8957.075
2778.50435	8954.375
2781.06932	8933.975
2783.6327	8930.175
2786.1945	8936.475
2788.75471	8929.075
2791.31335	8938.475
2793.87041	8925.375
2796.42589	8904.375
2798.97979	8898.175
2801.53212	8869.475
2804.08288	8868.475
2806.63206	8833.675
2809.17967	8821.075
2811.72571	8793.475
2814.27018	8804.375
2816.81308	8769.975
2819.35442	8723.575
2821.89419	8725.775
2824.43239	8718.775
2826.96904	8715.875
2829.50412	8724.675
2832.03763	8673.275
2834.56959	8690.575
2837.1	8672.175
2839.62884	8701.075
2842.15613	8716.275
2844.68186	8751.275
2847.20604	8780.675
2849.72867	8796.275
2852.24974	8807.775
2854.76927	8793.475
2857.28724	8790.975
2859.80367	8765.575
2862.31855	8719.975
2864.83189	8711.675
2867.34368	8711.575
2869.85393	8677.675
2872.36264	8697.775
2874.8698	8701.475
2877.37543	8677.875
2879.87952	8676.975
2882.38207	8647.575
2884.88308	8641.075
2887.38256	8659.875
2889.88051	8633.875
2892.37692	8638.775
2894.8718	8647.875
2897.36515	8662.275
2899.85698	8662.275
2902.34727	8663.875
2904.83604	8669.975
2907.32328	8690.875
2909.809	8675.775
2912.29319	8670.575
2914.77587	8691.075
2917.25702	8674.675
2919.73665	8661.675
2922.21476	8666.675
2924.69136	8638.775
2927.16644	8656.075
2929.64	8617.675
2932.11205	8627.275
2934.58258	8603.875
2937.05161	8612.575
2939.51912	8595.775
2941.98513	8551.675
2944.44962	8543.975
2946.91261	8493.975
2949.37409	8512.175
2951.83407	8461.075
2954.29254	8464.275
2956.74951	8461.375
2959.20498	8432.175
2961.65895	8426.775
2964.11142	8402.275
2966.56239	8381.475
2969.01186	8371.675
2971.45984	8333.275
2973.90632	8329.375
2976.35131	8289.275
2978.7948	8256.575
2981.23681	8237.075
2983.67732	8214.175
2986.11635	8183.275
2988.55388	8168.075
2990.98993	8135.275
2993.4245	8117.275
2995.85758	8092.475
2998.28917	8078.875
3000.71928	8043.475
3003.14791	8033.675
3005.57506	8030.075
3008.00073	8014.175
3010.42493	7982.975
3012.84764	7954.475
3015.26888	7949.775
3017.68865	7906.375
3020.10694	7871.475
3022.52376	7880.575
3024.9391	7862.675
3027.35298	7846.575
3029.76539	7833.675
3032.17632	7828.575
3034.5858	7807.175
3036.9938	7817.375
3039.40034	7836.375
3041.80542	7811.075
3044.20903	7784.175
3046.61118	7783.275
3049.01187	7757.975
3051.4111	7743.475
3053.80888	7730.175
3056.20519	7715.575
3058.60005	7679.575
3060.99345	7676.675
3063.3854	7655.375
3065.7759	7613.675
3068.16494	7594.775
3070.55254	7548.075
3072.93868	7539.875
3075.32338	7515.675
3077.70662	7476.675
3080.08842	7455.875
3082.46878	7438.475
3084.84769	7420.375
3087.22515	7413.375
3089.60118	7415.175
3091.97576	7414.775
3094.3489	7417.675
3096.72061	7408.775
3099.09087	7380.575
3101.4597	7380.275
3103.82709	7369.875
3106.19305	7353.475
3108.55757	7363.475
3110.92066	7318.375
3113.28232	7321.475
3115.64255	7288.675
3118.00134	7264.375
3120.35871	7272.975
3122.71466	7256.675
3125.06917	7220.975
3127.42226	7210.675
3129.77393	7215.375
3132.12417	7198.975
3134.47299	7179.975
3136.82039	7196.275
3139.16636	7194.375
3141.51092	7172.975
3143.85406	7166.475
3146.19579	7165.275
3148.53609	7155.975
3150.87499	7153.275
3153.21246	7177.175
3155.54853	7161.175
3157.88318	7172.275
3160.21642	7179.875
3162.54826	7162.475
