Data from AgNPs_FTO_APTES_UA_5uM_CRN_1000uM_R6G_10uM_NaF_0.1M_Addition_RamanShift__20__17-47-11-887.txt Node

Date: Mon Feb 07 17:47:11 GMT 2022
User: TCL
Spectrometer: QEP01345
Trigger mode: 4
Integration Time (sec): 7.000000E0
Scans to average: 10
Electric dark correction enabled: true
Nonlinearity correction enabled: false
Boxcar width: 0
XAxis mode: Raman Shifts
Number of Pixels in Spectrum: 1044
>>>>>Begin Spectral Data<<<<<
46.04893	-1.275
50.45542	-0.675
54.85868	-0.675
59.25871	0.425
63.6555	47.925
68.04907	50.725
72.43941	56.325
76.82654	53.325
81.21044	54.525
85.59113	58.025
89.96862	63.625
94.34289	66.325
98.71396	68.425
103.08183	67.325
107.4465	71.725
111.80798	73.125
116.16626	74.125
120.52136	80.825
124.87327	86.025
129.222	88.825
133.56755	92.225
137.90993	97.225
142.24913	113.225
146.58517	126.125
150.91804	140.825
155.24774	178.025
159.57429	223.825
163.89768	283.425
168.21792	379.925
172.53501	514.725
176.84895	723.225
181.15975	1013.925
185.46741	1427.025
189.77193	1968.825
194.07331	2634.225
198.37157	3404.825
202.6667	4206.025
206.9587	4983.825
211.24758	5784.725
215.53334	6562.725
219.81599	7408.625
224.09553	8337.825
228.37195	9311.525
232.64527	10414.625
236.91549	11560.725
241.18261	12721.025
245.44663	13809.425
249.70755	14756.725
253.96539	15635.325
258.22014	16359.725
262.4718	16947.225
266.72039	17348.125
270.96589	17603.125
275.20832	17656.325
279.44768	17579.225
283.68397	17495.525
287.91719	17422.125
292.14735	17405.925
296.37445	17459.525
300.59849	17534.225
304.81948	17553.425
309.03742	17471.325
313.25231	17213.025
317.46415	16774.625
321.67296	16322.225
325.87872	15888.125
330.08145	15660.225
334.28114	15616.025
338.47781	15726.325
342.67145	15873.625
346.86207	16100.925
351.04966	16364.325
355.23424	16688.425
359.4158	16931.825
363.59435	17084.125
367.76989	17229.525
371.94243	17293.825
376.11196	17439.325
380.27849	17525.225
384.44203	17640.125
388.60257	17789.025
392.76012	17950.225
396.91468	18168.825
401.06626	18386.725
405.21485	18525.925
409.36047	18518.025
413.50311	18271.425
417.64277	18086.325
421.77947	18062.125
425.9132	18204.225
430.04396	18363.425
434.17176	18521.325
438.2966	18784.425
442.41849	19163.625
446.53742	19774.625
450.6534	20487.825
454.76644	20955.225
458.87653	21108.425
462.98368	20918.225
467.08789	20624.425
471.18916	20393.225
475.2875	20235.025
479.38291	20230.925
483.4754	20208.825
487.56496	19970.625
491.6516	19493.325
495.73531	19039.525
499.81612	18692.525
503.89401	18641.125
507.96899	18624.125
512.04106	18547.725
516.11023	18346.825
520.1765	18157.725
524.23987	17991.525
528.30034	17874.125
532.35792	17792.125
536.41261	17651.825
540.46441	17461.725
544.51333	17422.125
548.55936	17658.325
552.60252	18094.925
556.64279	18653.925
560.6802	19150.325
564.71473	19474.025
568.7464	19939.325
572.7752	20541.025
576.80114	20946.325
580.82422	21121.825
584.84444	21314.825
588.86181	21801.425
592.87633	22361.725
596.888	22461.325
600.89682	21885.825
604.9028	21835.225
608.90594	22959.225
612.90624	24286.325
616.90371	22728.825
620.89834	19232.725
624.89015	17678.625
628.87913	17513.625
632.86528	17667.225
636.84862	17737.725
640.82913	17548.425
644.80683	17136.725
648.78172	16776.725
652.75379	16640.425
656.72306	16733.325
660.68952	16938.125
664.65319	16854.225
668.61405	16629.025
672.57211	16610.525
676.52738	16689.325
680.47986	16742.225
684.42955	16674.625
688.37646	16553.925
692.32058	16564.625
696.26192	16638.225
700.20048	16814.125
704.13626	16938.225
708.06928	16954.225
711.99952	16898.925
715.927	16833.825
719.85171	16852.625
723.77365	16823.625
727.69284	16753.825
731.60928	16605.525
735.52295	16576.725
739.43388	16590.925
743.34206	16582.725
747.24749	16670.025
751.15017	16751.125
755.05012	17017.625
758.94733	17490.625
762.8418	18357.125
766.73354	19746.825
770.62254	21051.625
774.50882	21372.125
778.39237	20354.425
782.27321	18877.325
786.15132	17560.725
790.02671	16781.625
793.89938	16397.625
797.76935	16259.325
801.6366	16236.425
805.50115	16196.625
809.36299	16102.225
813.22213	15980.725
817.07857	15933.225
820.93231	15925.125
824.78336	15793.825
828.63172	15718.225
832.47738	15653.625
836.32036	15614.125
840.16066	15607.825
843.99827	15609.725
847.8332	15545.325
851.66546	15523.925
855.49504	15544.325
859.32195	15568.425
863.1462	15557.025
866.96777	15530.125
870.78668	15492.525
874.60293	15483.125
878.41652	15512.925
882.22745	15524.425
886.03573	15562.325
889.84136	15562.325
893.64433	15505.125
897.44466	15466.925
901.24235	15383.925
905.0374	15251.525
908.8298	15178.325
912.61957	15221.625
916.40671	15351.525
920.19121	15536.625
923.97308	15700.725
927.75233	15648.025
931.52895	15540.625
935.30295	15326.025
939.07433	15057.525
942.84309	14809.625
946.60924	14674.525
950.37278	14601.825
954.13371	14598.525
957.89203	14575.025
961.64774	14570.025
965.40086	14540.225
969.15137	14464.725
972.89929	14347.425
976.64461	14265.025
980.38733	14222.725
984.12747	14242.025
987.86502	14305.725
991.59999	14445.725
995.33237	14607.625
999.06217	14929.825
1002.78939	15257.825
1006.51404	15567.825
1010.23611	15757.525
1013.95561	15923.725
1017.67255	15961.625
1021.38692	15771.425
1025.09872	15493.025
1028.80796	15285.825
1032.51465	15292.325
1036.21877	15440.125
1039.92035	15487.725
1043.61937	15473.425
1047.31584	15391.425
1051.00976	15331.025
1054.70114	15336.225
1058.38998	15406.825
1062.07627	15537.125
1065.76003	15679.225
1069.44126	15835.325
1073.11995	15998.625
1076.79611	16108.225
1080.46974	16195.525
1084.14085	16259.625
1087.80943	16401.325
1091.47549	16611.925
1095.13903	16674.625
1098.80005	16521.425
1102.45857	16201.825
1106.11456	15926.025
1109.76805	15769.725
1113.41903	15854.625
1117.06751	16023.025
1120.71348	16272.125
1124.35696	16471.225
1127.99793	16784.625
1131.63641	16977.625
1135.2724	16853.925
1138.90589	16685.925
1142.5369	16655.525
1146.16542	16740.125
1149.79145	16915.825
1153.415	17127.325
1157.03607	17441.025
1160.65467	17983.825
1164.27079	18824.125
1167.88443	19875.725
1171.49561	21175.525
1175.10432	22798.225
1178.71056	24836.425
1182.31434	26643.425
1185.91565	27582.725
1189.51451	27449.425
1193.11091	26773.625
1196.70485	25847.525
1200.29634	24844.825
1203.88538	24026.825
1207.47197	23428.625
1211.05612	22947.525
1214.63782	22537.025
1218.21708	22050.525
1221.79391	21709.625
1225.36829	21393.525
1228.94024	20928.625
1232.50976	20362.725
1236.07685	19875.225
1239.6415	19625.625
1243.20374	19569.725
1246.76355	19715.225
1250.32093	19967.325
1253.8759	20385.025
1257.42845	20910.925
1260.97859	21481.925
1264.52631	22043.925
1268.07163	22664.825
1271.61453	23281.025
1275.15503	23950.225
1278.69312	24658.625
1282.22882	25444.225
1285.76211	26383.325
1289.29301	27586.625
1292.82151	29090.825
1296.34761	30972.525
1299.87133	33003.925
1303.39266	35089.725
1306.9116	37065.025
1310.42815	38846.525
1313.94233	39984.625
1317.45412	40167.925
1320.96354	39689.825
1324.47058	38990.225
1327.97525	38280.325
1331.47754	37867.925
1334.97747	37642.325
1338.47502	37493.325
1341.97022	37277.925
1345.46305	36624.925
1348.95352	35867.825
1352.44163	35377.025
1355.92738	35553.325
1359.41078	36375.525
1362.89183	37185.025
1366.37053	36646.025
1369.84688	33893.925
1373.32088	30341.925
1376.79254	27984.325
1380.26186	27125.625
1383.72883	27239.325
1387.19347	27471.825
1390.65578	27646.525
1394.11575	27965.825
1397.57339	28631.525
1401.0287	29558.425
1404.48168	30335.225
1407.93234	30415.225
1411.38068	29849.625
1414.82669	28629.225
1418.27039	27046.225
1421.71177	25384.125
1425.15083	24025.525
1428.58758	23245.825
1432.02203	23188.925
1435.45416	23839.525
1438.88399	24652.225
1442.31151	25440.425
1445.73673	26060.325
1449.15965	26681.525
1452.58027	27207.325
1455.9986	27419.625
1459.41463	27594.125
1462.82837	27930.725
1466.23982	28332.625
1469.64898	28720.725
1473.05586	28834.625
1476.46045	28752.725
1479.86276	28316.125
1483.26279	27866.125
1486.66054	27464.225
1490.05602	27274.325
1493.44922	27217.525
1496.84016	27094.125
1500.22882	27122.925
1503.61521	27550.425
1506.99934	28261.725
1510.38121	29063.925
1513.76081	29335.125
1517.13816	28911.025
1520.51324	28008.225
1523.88607	27253.325
1527.25665	26944.225
1530.62498	26980.525
1533.99105	27083.825
1537.35488	27090.125
1540.71647	26755.325
1544.07581	26193.325
1547.4329	25497.825
1550.78776	24798.125
1554.14038	24296.825
1557.49077	24005.125
1560.83892	23816.125
1564.18484	23807.125
1567.52853	23867.325
1570.86999	24064.725
1574.20922	24515.525
1577.54624	25006.025
1580.88103	25323.525
1584.2136	25673.525
1587.54395	26494.025
1590.87208	27880.425
1594.19801	29654.725
1597.52172	31391.925
1600.84321	32048.125
1604.16251	30833.425
1607.47959	28316.825
1610.79447	25399.425
1614.10715	22705.325
1617.41763	20603.125
1620.7259	19135.525
1624.03199	18422.925
1627.33587	18295.525
1630.63757	18826.425
1633.93707	20149.425
1637.23439	22378.325
1640.52951	25624.925
1643.82246	29443.125
1647.11321	32547.525
1650.40179	33295.425
1653.68819	30950.625
1656.97241	26601.525
1660.25446	22342.325
1663.53433	19021.025
1666.81203	16932.025
1670.08756	15566.225
1673.36092	14752.625
1676.63211	14201.525
1679.90115	13879.625
1683.16801	13579.325
1686.43272	13364.225
1689.69527	13184.325
1692.95567	13052.425
1696.2139	12932.025
1699.46999	12870.725
1702.72392	12786.925
1705.97571	12735.925
1709.22535	12707.425
1712.47284	12638.525
1715.71819	12637.825
1718.96139	12578.525
1722.20246	12533.825
1725.44139	12448.025
1728.67818	12359.125
1731.91284	12304.125
1735.14537	12242.625
1738.37576	12197.725
1741.60403	12123.325
1744.83017	12105.525
1748.05418	12045.225
1751.27607	12060.525
1754.49584	12030.025
1757.71349	11991.825
1760.92903	11998.525
1764.14244	11947.525
1767.35375	11938.325
1770.56294	11870.925
1773.77002	11860.725
1776.97499	11815.725
1780.17785	11806.225
1783.37861	11763.025
1786.57727	11749.625
1789.77382	11704.125
1792.96828	11713.925
1796.16064	11668.025
1799.3509	11614.825
1802.53907	11572.225
1805.72514	11557.725
1808.90913	11525.725
1812.09102	11495.625
1815.27083	11454.125
1818.44856	11433.125
1821.6242	11424.725
1824.79776	11383.425
1827.96924	11361.725
1831.13864	11378.325
1834.30597	11347.425
1837.47122	11306.425
1840.6344	11330.725
1843.7955	11323.625
1846.95454	11286.325
1850.11151	11285.025
1853.26642	11287.025
1856.41926	11283.525
1859.57004	11245.025
1862.71876	11255.125
1865.86542	11236.025
1869.01003	11218.925
1872.15258	11220.525
1875.29308	11228.625
1878.43152	11190.425
1881.56792	11179.825
1884.70227	11206.825
1887.83457	11176.225
1890.96482	11148.825
1894.09304	11149.025
1897.21921	11149.825
1900.34335	11104.825
1903.46544	11117.225
1906.58551	11078.225
1909.70353	11066.225
1912.81953	11040.425
1915.93349	11011.425
1919.04543	10996.125
1922.15534	10975.125
1925.26322	10945.225
1928.36908	10914.225
1931.47292	10935.325
1934.57473	10889.125
1937.67453	10864.625
1940.77232	10812.425
1943.86808	10778.625
1946.96184	10726.925
1950.05358	10699.925
1953.14331	10657.225
1956.23103	10604.725
1959.31675	10588.025
1962.40046	10543.325
1965.48217	10526.925
1968.56188	10459.625
1971.63959	10452.525
1974.7153	10422.625
1977.78901	10353.025
1980.86073	10346.125
1983.93046	10302.925
1986.99819	10262.225
1990.06394	10262.525
1993.1277	10214.525
1996.18947	10168.625
1999.24925	10138.625
2002.30706	10123.025
2005.36288	10071.525
2008.41672	10052.725
2011.46859	10010.125
2014.51848	9969.325
2017.56639	9968.725
2020.61233	9941.425
2023.6563	9907.825
2026.6983	9885.625
2029.73833	9831.325
2032.7764	9825.425
2035.8125	9829.525
2038.84664	9803.825
2041.87881	9796.125
2044.90903	9758.225
2047.93729	9727.525
2050.96359	9752.925
2053.98794	9731.125
2057.01034	9712.025
2060.03078	9721.925
2063.04927	9698.025
2066.06582	9716.625
2069.08042	9677.825
2072.09307	9683.025
2075.10378	9656.425
2078.11255	9658.825
2081.11938	9650.125
2084.12426	9642.725
2087.12722	9612.125
2090.12824	9608.825
2093.12732	9610.725
2096.12447	9609.425
2099.11969	9576.625
2102.11299	9576.725
2105.10435	9584.925
2108.09379	9582.125
2111.08131	9569.325
2114.0669	9564.225
2117.05057	9613.425
2120.03233	9591.525
2123.01216	9594.825
2125.99008	9596.425
2128.96609	9590.225
2131.94018	9607.325
2134.91236	9602.525
2137.88263	9624.325
2140.851	9621.125
2143.81746	9624.925
2146.78201	9610.825
2149.74466	9604.725
2152.7054	9586.825
2155.66425	9592.425
2158.6212	9572.125
2161.57625	9570.125
2164.52941	9544.925
2167.48067	9559.425
2170.43004	9560.925
2173.37752	9536.725
2176.32311	9547.225
2179.26681	9554.225
2182.20863	9524.725
2185.14856	9550.725
2188.08661	9548.625
2191.02278	9535.525
2193.95707	9520.125
2196.88948	9522.125
2199.82001	9504.225
2202.74867	9486.225
2205.67545	9452.325
2208.60037	9443.825
2211.52341	9424.225
2214.44458	9438.725
2217.36388	9388.325
2220.28132	9363.225
2223.1969	9343.225
2226.11061	9326.425
2229.02246	9342.225
2231.93245	9295.625
2234.84058	9274.225
2237.74686	9270.025
2240.65128	9260.825
2243.55385	9253.725
2246.45456	9229.125
2249.35343	9227.825
2252.25044	9196.625
2255.14561	9187.825
2258.03893	9139.525
2260.93041	9120.125
2263.82004	9081.825
2266.70783	9071.725
2269.59378	9052.225
2272.4779	9002.325
2275.36017	8988.425
2278.24061	8945.325
2281.11922	8935.825
2283.996	8937.025
2286.87094	8944.025
2289.74405	8901.925
2292.61534	8899.025
2295.4848	8883.325
2298.35243	8881.625
2301.21824	8881.325
2304.08223	8860.725
2306.94439	8877.825
2309.80474	8861.725
2312.66327	8880.225
2315.51999	8854.825
2318.37489	8871.325
2321.22797	8836.725
2324.07925	8820.825
2326.92871	8803.525
2329.77637	8813.025
2332.62222	8790.125
2335.46626	8776.725
2338.3085	8780.925
2341.14893	8774.125
2343.98756	8775.525
2346.8244	8751.925
2349.65943	8751.725
2352.49267	8740.025
2355.32411	8743.025
2358.15376	8742.925
2360.98161	8754.425
2363.80768	8714.925
2366.63195	8740.825
2369.45444	8711.925
2372.27514	8720.425
2375.09405	8679.025
2377.91118	8670.225
2380.72652	8662.225
2383.54009	8628.425
2386.35187	8624.525
2389.16188	8575.625
2391.97011	8573.825
2394.77657	8554.725
2397.58125	8516.825
2400.38416	8531.525
2403.18529	8478.525
2405.98466	8478.225
2408.78226	8477.125
2411.57809	8451.325
2414.37216	8464.325
2417.16446	8448.325
2419.955	8433.225
2422.74378	8418.925
2425.5308	8425.125
2428.31606	8402.025
2431.09956	8386.725
2433.88131	8357.725
2436.6613	8378.525
2439.43954	8387.025
2442.21603	8357.225
2444.99077	8344.225
2447.76377	8388.025
2450.53501	8375.725
2453.30451	8372.425
2456.07226	8351.925
2458.83827	8326.125
2461.60254	8322.625
2464.36507	8335.025
2467.12586	8331.225
2469.88492	8327.225
2472.64224	8321.025
2475.39782	8321.625
2478.15167	8340.125
2480.90379	8314.325
2483.65417	8320.525
2486.40283	8338.825
2489.14976	8343.425
2491.89497	8329.325
2494.63845	8326.225
2497.3802	8328.025
2500.12024	8322.625
2502.85855	8309.825
2505.59514	8314.725
2508.33002	8313.625
2511.06318	8280.525
2513.79462	8281.625
2516.52435	8261.825
2519.25237	8289.425
2521.97867	8248.625
2524.70327	8222.025
2527.42616	8239.825
2530.14734	8229.925
2532.86681	8229.325
2535.58458	8219.525
2538.30065	8222.125
2541.01501	8223.425
2543.72768	8182.125
2546.43864	8200.425
2549.14791	8175.125
2551.85548	8176.425
2554.56136	8168.025
2557.26554	8149.625
2559.96803	8129.825
2562.66883	8116.125
2565.36794	8126.025
2568.06536	8126.225
2570.7611	8114.125
2573.45514	8107.225
2576.14751	8075.925
2578.83819	8062.125
2581.52719	8086.825
2584.21451	8060.425
2586.90015	8071.225
2589.58411	8061.325
2592.2664	8058.625
2594.94701	8044.125
2597.62594	8030.825
2600.30321	8044.025
2602.9788	8024.425
2605.65273	8040.925
2608.32498	8043.225
2610.99557	8052.125
2613.66449	8037.225
2616.33175	8030.025
2618.99734	8002.925
2621.66128	8021.925
2624.32355	8015.225
2626.98416	8010.925
2629.64311	8004.925
2632.30041	8007.925
2634.95605	7974.425
2637.61004	7992.925
2640.26238	7974.325
2642.91306	7951.625
2645.56209	7944.725
2648.20948	7967.125
2650.85521	7946.625
2653.4993	7966.425
2656.14175	7981.525
2658.78255	7991.725
2661.42171	8003.425
2664.05923	7982.425
2666.6951	7993.425
2669.32934	7988.225
2671.96194	7984.325
2674.59291	7982.125
2677.22224	7979.325
2679.84993	7974.325
2682.476	7966.525
2685.10043	7957.525
2687.72324	7964.825
2690.34441	7964.625
2692.96396	7955.825
2695.58188	7983.825
2698.19818	7952.825
2700.81285	7973.725
2703.4259	7957.425
2706.03733	7953.725
2708.64714	7970.225
2711.25533	7959.525
2713.86191	7981.725
2716.46687	7996.125
2719.07021	7967.025
2721.67194	7990.025
2724.27206	7990.925
2726.87057	7992.125
2729.46747	7982.125
2732.06276	7995.425
2734.65644	7985.625
2737.24852	7990.125
2739.83899	7978.125
2742.42786	7982.225
2745.01513	7967.025
2747.60079	7961.225
2750.18486	7941.325
2752.76733	7957.225
2755.3482	7960.025
2757.92747	7956.025
2760.50515	7954.725
2763.08123	7931.025
2765.65573	7935.925
2768.22863	7945.825
2770.79994	7915.325
2773.36967	7947.325
2775.9378	7933.725
2778.50435	7956.825
2781.06932	7909.425
2783.6327	7904.225
2786.1945	7920.025
2788.75471	7929.625
2791.31335	7922.425
2793.87041	7934.825
2796.42589	7895.025
2798.97979	7880.625
2801.53212	7890.125
2804.08288	7862.325
2806.63206	7859.025
2809.17967	7834.425
2811.72571	7817.925
2814.27018	7837.125
2816.81308	7792.825
2819.35442	7782.925
2821.89419	7763.925
2824.43239	7785.225
2826.96904	7785.025
2829.50412	7768.625
2832.03763	7725.025
2834.56959	7756.025
2837.1	7729.625
2839.62884	7752.425
2842.15613	7752.625
2844.68186	7805.125
2847.20604	7801.325
2849.72867	7801.525
2852.24974	7809.425
2854.76927	7792.025
2857.28724	7796.025
2859.80367	7787.825
2862.31855	7765.925
2864.83189	7738.925
2867.34368	7739.625
2869.85393	7736.725
2872.36264	7715.525
2874.8698	7737.925
2877.37543	7733.925
2879.87952	7730.225
2882.38207	7713.825
2884.88308	7715.625
2887.38256	7732.625
2889.88051	7742.025
2892.37692	7745.225
2894.8718	7738.825
2897.36515	7733.825
2899.85698	7747.325
2902.34727	7780.025
2904.83604	7762.025
2907.32328	7791.425
2909.809	7805.425
2912.29319	7791.625
2914.77587	7781.225
2917.25702	7796.925
2919.73665	7783.225
2922.21476	7776.625
2924.69136	7780.925
2927.16644	7778.625
2929.64	7781.825
2932.11205	7752.725
2934.58258	7734.425
2937.05161	7740.925
2939.51912	7739.025
2941.98513	7737.425
2944.44962	7697.525
2946.91261	7654.825
2949.37409	7687.025
2951.83407	7668.725
2954.29254	7651.525
2956.74951	7627.125
2959.20498	7613.025
2961.65895	7598.525
2964.11142	7590.625
2966.56239	7557.425
2969.01186	7571.525
2971.45984	7531.225
2973.90632	7532.425
2976.35131	7478.025
2978.7948	7476.025
2981.23681	7463.025
2983.67732	7428.225
2986.11635	7421.825
2988.55388	7379.725
2990.98993	7380.125
2993.4245	7351.325
2995.85758	7325.625
2998.28917	7320.925
3000.71928	7307.825
3003.14791	7296.425
3005.57506	7279.225
3008.00073	7256.025
3010.42493	7260.725
3012.84764	7251.525
3015.26888	7232.225
3017.68865	7198.025
3020.10694	7172.125
3022.52376	7186.625
3024.9391	7148.325
3027.35298	7148.625
3029.76539	7144.525
3032.17632	7144.825
3034.5858	7111.825
3036.9938	7111.825
3039.40034	7124.925
3041.80542	7134.125
3044.20903	7078.725
3046.61118	7111.525
3049.01187	7075.325
3051.4111	7093.525
3053.80888	7060.425
3056.20519	7057.425
3058.60005	7028.325
3060.99345	7010.625
3063.3854	7010.925
3065.7759	6970.725
3068.16494	6944.525
3070.55254	6916.825
3072.93868	6878.725
3075.32338	6892.825
3077.70662	6871.825
3080.08842	6854.625
3082.46878	6863.825
3084.84769	6830.425
3087.22515	6822.625
3089.60118	6805.725
3091.97576	6824.425
3094.3489	6802.425
3096.72061	6803.025
3099.09087	6809.225
3101.4597	6810.025
3103.82709	6793.925
3106.19305	6798.025
3108.55757	6790.225
3110.92066	6753.625
3113.28232	6772.825
3115.64255	6742.525
3118.00134	6716.725
3120.35871	6706.525
3122.71466	6692.625
3125.06917	6693.425
3127.42226	6652.925
3129.77393	6661.125
3132.12417	6630.025
3134.47299	6636.225
3136.82039	6642.725
3139.16636	6655.725
3141.51092	6635.125
3143.85406	6616.725
3146.19579	6628.625
3148.53609	6629.125
3150.87499	6625.025
3153.21246	6644.725
3155.54853	6640.025
3157.88318	6647.925
3160.21642	6646.725
3162.54826	6638.925
3164.87868	6649.925
3167.2077	6650.925
3169.5353	6653.525
3171.86151	6655.625
3174.18631	6636.325
3176.5097	6639.425
3178.83169	6616.625
