Data from AgNPs_FTO_APTES_UA_5uM_CRN_100uM_R6G_10uM_NaF_0.1M_Addition_RamanShift__32__15-13-36-907.txt Node

Date: Mon Feb 07 15:13:36 GMT 2022
User: TCL
Spectrometer: QEP01345
Trigger mode: 4
Integration Time (sec): 7.000000E0
Scans to average: 10
Electric dark correction enabled: true
Nonlinearity correction enabled: false
Boxcar width: 0
XAxis mode: Raman Shifts
Number of Pixels in Spectrum: 1044
>>>>>Begin Spectral Data<<<<<
46.04893	0.5625
50.45542	-1.1375
54.85868	-1.4375
59.25871	0.6625
63.6555	36.1625
68.04907	39.5625
72.43941	43.9625
76.82654	45.3625
81.21044	47.8625
85.59113	47.5625
89.96862	52.2625
94.34289	52.2625
98.71396	54.0625
103.08183	56.8625
107.4465	57.6625
111.80798	57.9625
116.16626	61.0625
120.52136	64.1625
124.87327	64.4625
129.222	71.5625
133.56755	74.0625
137.90993	83.2625
142.24913	87.1625
146.58517	94.5625
150.91804	111.3625
155.24774	131.5625
159.57429	164.8625
163.89768	215.4625
168.21792	286.3625
172.53501	385.3625
176.84895	531.5625
181.15975	740.4625
185.46741	1057.5625
189.77193	1452.2625
194.07331	1924.8625
198.37157	2491.1625
202.6667	3077.7625
206.9587	3656.6625
211.24758	4256.6625
215.53334	4881.7625
219.81599	5595.0625
224.09553	6395.9625
228.37195	7313.6625
232.64527	8311.7625
236.91549	9249.4625
241.18261	10078.7625
245.44663	10738.6625
249.70755	11219.5625
253.96539	11616.6625
258.22014	11947.8625
262.4718	12332.1625
266.72039	12620.9625
270.96589	12808.3625
275.20832	12826.2625
279.44768	12710.0625
283.68397	12588.4625
287.91719	12567.5625
292.14735	12691.0625
296.37445	13046.7625
300.59849	13676.2625
304.81948	14412.0625
309.03742	14956.1625
313.25231	14947.5625
317.46415	14070.0625
321.67296	12692.9625
325.87872	11526.9625
330.08145	10966.1625
334.28114	10864.1625
338.47781	11095.8625
342.67145	11477.2625
346.86207	12106.6625
351.04966	13051.0625
355.23424	14100.8625
359.4158	14856.4625
363.59435	15125.6625
367.76989	15156.9625
371.94243	15003.7625
376.11196	14848.4625
380.27849	14676.7625
384.44203	14395.4625
388.60257	14047.0625
392.76012	13892.6625
396.91468	14014.0625
401.06626	14478.7625
405.21485	14884.0625
409.36047	14557.9625
413.50311	13514.6625
417.64277	12537.5625
421.77947	11969.6625
425.9132	11740.8625
430.04396	11680.2625
434.17176	11710.8625
438.2966	11858.9625
442.41849	12134.7625
446.53742	12476.5625
450.6534	12869.7625
454.76644	13086.7625
458.87653	13094.0625
462.98368	12972.7625
467.08789	12763.2625
471.18916	12475.1625
475.2875	12179.3625
479.38291	11874.5625
483.4754	11631.1625
487.56496	11436.7625
491.6516	11309.9625
495.73531	11257.9625
499.81612	11309.9625
503.89401	11476.7625
507.96899	11718.8625
512.04106	11993.4625
516.11023	12217.1625
520.1765	12398.4625
524.23987	12318.8625
528.30034	11972.8625
532.35792	11641.2625
536.41261	11319.2625
540.46441	10995.7625
544.51333	10823.0625
548.55936	10945.3625
552.60252	11291.7625
556.64279	11751.9625
560.6802	11960.0625
564.71473	12254.3625
568.7464	12998.1625
572.7752	13451.2625
576.80114	12926.4625
580.82422	12163.2625
584.84444	11812.8625
588.86181	11646.1625
592.87633	11613.3625
596.888	11740.9625
600.89682	12253.3625
604.9028	14106.0625
608.90594	19272.2625
612.90624	26626.9625
616.90371	25886.4625
620.89834	16574.1625
624.89015	12086.6625
628.87913	11258.2625
632.86528	11367.0625
636.84862	11671.4625
640.82913	11527.0625
644.80683	10872.0625
648.78172	10407.6625
652.75379	10443.6625
656.72306	11046.5625
660.68952	11841.7625
664.65319	11733.3625
668.61405	10921.3625
672.57211	10474.1625
676.52738	10479.2625
680.47986	10499.3625
684.42955	10348.1625
688.37646	10266.3625
692.32058	10314.2625
696.26192	10418.8625
700.20048	10601.4625
704.13626	10745.6625
708.06928	10730.6625
711.99952	10620.8625
715.927	10566.9625
719.85171	10588.2625
723.77365	10608.7625
727.69284	10431.7625
731.60928	10322.7625
735.52295	10244.2625
739.43388	10269.9625
743.34206	10297.0625
747.24749	10352.8625
751.15017	10472.8625
755.05012	10765.3625
758.94733	11499.3625
762.8418	13232.4625
766.73354	16254.7625
770.62254	19505.1625
774.50882	21191.8625
778.39237	20169.5625
782.27321	16867.6625
786.15132	13556.1625
790.02671	11653.3625
793.89938	10862.8625
797.76935	10445.8625
801.6366	10287.6625
805.50115	10169.0625
809.36299	10142.8625
813.22213	10072.1625
817.07857	10036.5625
820.93231	10029.6625
824.78336	10069.6625
828.63172	10158.2625
832.47738	10186.3625
836.32036	10111.2625
840.16066	10016.0625
843.99827	9906.5625
847.8332	9869.1625
851.66546	9863.9625
855.49504	9850.5625
859.32195	9821.8625
863.1462	9739.5625
866.96777	9717.6625
870.78668	9683.6625
874.60293	9709.6625
878.41652	9747.0625
882.22745	9828.3625
886.03573	9896.6625
889.84136	9856.6625
893.64433	9784.6625
897.44466	9747.7625
901.24235	9782.0625
905.0374	9742.8625
908.8298	9658.3625
912.61957	9675.0625
916.40671	9754.7625
920.19121	9862.2625
923.97308	9965.2625
927.75233	10071.2625
931.52895	10235.6625
935.30295	10093.2625
939.07433	9686.6625
942.84309	9348.6625
946.60924	9106.0625
950.37278	8998.5625
954.13371	8920.4625
957.89203	8900.2625
961.64774	8877.8625
965.40086	8845.0625
969.15137	8789.8625
972.89929	8771.6625
976.64461	8758.1625
980.38733	8759.4625
984.12747	8765.5625
987.86502	8799.8625
991.59999	8841.9625
995.33237	8919.7625
999.06217	9106.7625
1002.78939	9316.8625
1006.51404	9569.8625
1010.23611	9878.7625
1013.95561	10048.4625
1017.67255	9971.3625
1021.38692	9790.0625
1025.09872	9612.8625
1028.80796	9446.1625
1032.51465	9452.9625
1036.21877	9560.2625
1039.92035	9697.4625
1043.61937	9780.7625
1047.31584	9839.1625
1051.00976	9864.1625
1054.70114	9872.4625
1058.38998	9876.6625
1062.07627	9972.0625
1065.76003	10075.4625
1069.44126	10126.2625
1073.11995	10244.8625
1076.79611	10389.1625
1080.46974	10652.3625
1084.14085	11013.4625
1087.80943	11476.0625
1091.47549	11700.4625
1095.13903	11427.7625
1098.80005	10905.7625
1102.45857	10477.6625
1106.11456	10245.5625
1109.76805	10299.2625
1113.41903	10592.7625
1117.06751	11071.4625
1120.71348	11772.3625
1124.35696	12492.8625
1127.99793	13160.1625
1131.63641	13077.6625
1135.2724	12196.8625
1138.90589	11353.7625
1142.5369	10850.9625
1146.16542	10595.4625
1149.79145	10422.7625
1153.415	10441.6625
1157.03607	10576.2625
1160.65467	10872.4625
1164.27079	11388.5625
1167.88443	12164.8625
1171.49561	13499.5625
1175.10432	15691.5625
1178.71056	18612.6625
1182.31434	20449.7625
1185.91565	20585.0625
1189.51451	19724.2625
1193.11091	18206.2625
1196.70485	16507.3625
1200.29634	15318.7625
1203.88538	14458.5625
1207.47197	13338.4625
1211.05612	12369.0625
1214.63782	11844.4625
1218.21708	11618.4625
1221.79391	11602.1625
1225.36829	11660.0625
1228.94024	11726.7625
1232.50976	11769.1625
1236.07685	11776.5625
1239.6415	11807.4625
1243.20374	11893.7625
1246.76355	11955.2625
1250.32093	12161.2625
1253.8759	12454.6625
1257.42845	12852.9625
1260.97859	13374.0625
1264.52631	13846.8625
1268.07163	14395.7625
1271.61453	14821.5625
1275.15503	15124.7625
1278.69312	15154.3625
1282.22882	15177.9625
1285.76211	15532.6625
1289.29301	16122.2625
1292.82151	16786.4625
1296.34761	17470.0625
1299.87133	18505.5625
1303.39266	20322.8625
1306.9116	23206.4625
1310.42815	26665.2625
1313.94233	28695.6625
1317.45412	28099.5625
1320.96354	25743.4625
1324.47058	23096.7625
1327.97525	20909.5625
1331.47754	19550.6625
1334.97747	19026.4625
1338.47502	19060.5625
1341.97022	19560.9625
1345.46305	20509.8625
1348.95352	21986.2625
1352.44163	24066.3625
1355.92738	27072.0625
1359.41078	31854.9625
1362.89183	36668.7625
1366.37053	35636.6625
1369.84688	29242.2625
1373.32088	23071.9625
1376.79254	19319.3625
1380.26186	17482.0625
1383.72883	16532.5625
1387.19347	15935.2625
1390.65578	15255.2625
1394.11575	14610.9625
1397.57339	14293.5625
1401.0287	14266.2625
1404.48168	14368.8625
1407.93234	14497.0625
1411.38068	14568.8625
1414.82669	14429.6625
1418.27039	14129.1625
1421.71177	13770.1625
1425.15083	13398.2625
1428.58758	13108.8625
1432.02203	13138.9625
1435.45416	13285.0625
1438.88399	13352.0625
1442.31151	13395.8625
1445.73673	13511.2625
1449.15965	13626.2625
1452.58027	13698.6625
1455.9986	13593.9625
1459.41463	13647.8625
1462.82837	13797.9625
1466.23982	14113.5625
1469.64898	14445.3625
1473.05586	14704.8625
1476.46045	14859.7625
1479.86276	15186.1625
1483.26279	15598.8625
1486.66054	16112.7625
1490.05602	16784.6625
1493.44922	17719.7625
1496.84016	19316.1625
1500.22882	21854.6625
1503.61521	25276.3625
1506.99934	29213.6625
1510.38121	33047.4625
1513.76081	35138.6625
1517.13816	33523.7625
1520.51324	28768.8625
1523.88607	23855.7625
1527.25665	20511.5625
1530.62498	18573.6625
1533.99105	17398.8625
1537.35488	16680.9625
1540.71647	16239.7625
1544.07581	15921.2625
1547.4329	15822.2625
1550.78776	15752.3625
1554.14038	15777.0625
1557.49077	15972.8625
1560.83892	16426.0625
1564.18484	17130.3625
1567.52853	17927.9625
1570.86999	18473.1625
1574.20922	18802.0625
1577.54624	18639.2625
1580.88103	17492.4625
1584.2136	15879.6625
1587.54395	14968.4625
1590.87208	14971.8625
1594.19801	15748.8625
1597.52172	16941.3625
1600.84321	17397.8625
1604.16251	16669.7625
1607.47959	15468.6625
1610.79447	14242.0625
1614.10715	13009.2625
1617.41763	12048.8625
1620.7259	11400.9625
1624.03199	11104.5625
1627.33587	11062.7625
1630.63757	11312.6625
1633.93707	11859.9625
1637.23439	12864.7625
1640.52951	14392.7625
1643.82246	16664.5625
1647.11321	19599.7625
1650.40179	22004.4625
1653.68819	21875.0625
1656.97241	18762.7625
1660.25446	15003.7625
1663.53433	12302.2625
1666.81203	10702.4625
1670.08756	9773.3625
1673.36092	9245.5625
1676.63211	8897.9625
1679.90115	8669.8625
1683.16801	8493.6625
1686.43272	8355.8625
1689.69527	8267.8625
1692.95567	8189.3625
1696.2139	8156.5625
1699.46999	8147.0625
1702.72392	8100.6625
1705.97571	8048.9625
1709.22535	8047.2625
1712.47284	8055.1625
1715.71819	8063.4625
1718.96139	8065.4625
1722.20246	8025.5625
1725.44139	8009.9625
1728.67818	7935.7625
1731.91284	7839.9625
1735.14537	7781.4625
1738.37576	7724.5625
1741.60403	7660.5625
1744.83017	7629.0625
1748.05418	7596.3625
1751.27607	7586.6625
1754.49584	7561.9625
1757.71349	7546.4625
1760.92903	7503.9625
1764.14244	7509.1625
1767.35375	7482.0625
1770.56294	7464.2625
1773.77002	7414.0625
1776.97499	7358.7625
1780.17785	7339.8625
1783.37861	7313.5625
1786.57727	7298.8625
1789.77382	7295.4625
1792.96828	7273.2625
1796.16064	7245.3625
1799.3509	7224.9625
1802.53907	7217.6625
1805.72514	7179.9625
1808.90913	7140.7625
1812.09102	7133.0625
1815.27083	7102.3625
1818.44856	7084.1625
1821.6242	7064.8625
1824.79776	7049.6625
1827.96924	7034.1625
1831.13864	7025.3625
1834.30597	7025.4625
1837.47122	6992.5625
1840.6344	6999.5625
1843.7955	6988.3625
1846.95454	6984.8625
1850.11151	6970.8625
1853.26642	6963.0625
1856.41926	6962.6625
1859.57004	6961.4625
1862.71876	6965.6625
1865.86542	6955.6625
1869.01003	6965.5625
1872.15258	6952.9625
1875.29308	6955.8625
1878.43152	6946.1625
1881.56792	6958.3625
1884.70227	6958.0625
1887.83457	6947.1625
1890.96482	6945.7625
1894.09304	6927.7625
1897.21921	6943.7625
1900.34335	6938.5625
1903.46544	6953.1625
1906.58551	6963.5625
1909.70353	6942.2625
1912.81953	6938.8625
1915.93349	6945.6625
1919.04543	6924.0625
1922.15534	6921.5625
1925.26322	6888.0625
1928.36908	6851.7625
1931.47292	6842.0625
1934.57473	6798.1625
1937.67453	6764.9625
1940.77232	6738.8625
1943.86808	6705.2625
1946.96184	6658.4625
1950.05358	6637.1625
1953.14331	6611.8625
1956.23103	6578.9625
1959.31675	6568.7625
1962.40046	6544.6625
1965.48217	6505.0625
1968.56188	6510.0625
1971.63959	6483.9625
1974.7153	6487.3625
1977.78901	6462.5625
1980.86073	6427.3625
1983.93046	6390.0625
1986.99819	6367.4625
1990.06394	6334.6625
1993.1277	6339.0625
1996.18947	6305.9625
1999.24925	6272.1625
2002.30706	6246.4625
2005.36288	6230.8625
2008.41672	6237.1625
2011.46859	6193.4625
2014.51848	6166.0625
2017.56639	6171.0625
2020.61233	6127.5625
2023.6563	6107.4625
2026.6983	6089.4625
2029.73833	6069.3625
2032.7764	6043.2625
2035.8125	6039.3625
2038.84664	6007.4625
2041.87881	6003.6625
2044.90903	5994.2625
2047.93729	5979.0625
2050.96359	5972.4625
2053.98794	5962.1625
2057.01034	5975.6625
2060.03078	5943.6625
2063.04927	5936.2625
2066.06582	5923.0625
2069.08042	5937.4625
2072.09307	5915.0625
2075.10378	5889.8625
2078.11255	5887.3625
2081.11938	5902.1625
2084.12426	5884.5625
2087.12722	5889.5625
2090.12824	5877.3625
2093.12732	5892.9625
2096.12447	5879.8625
2099.11969	5867.6625
2102.11299	5881.5625
2105.10435	5871.7625
2108.09379	5859.4625
2111.08131	5864.5625
2114.0669	5882.8625
2117.05057	5894.6625
2120.03233	5888.1625
2123.01216	5906.4625
2125.99008	5903.1625
2128.96609	5916.4625
2131.94018	5918.7625
2134.91236	5909.8625
2137.88263	5906.5625
2140.851	5911.7625
2143.81746	5903.0625
2146.78201	5893.4625
2149.74466	5874.9625
2152.7054	5867.2625
2155.66425	5870.2625
2158.6212	5843.9625
2161.57625	5849.0625
2164.52941	5843.6625
2167.48067	5845.3625
2170.43004	5830.4625
2173.37752	5842.6625
2176.32311	5835.0625
2179.26681	5830.3625
2182.20863	5837.7625
2185.14856	5831.9625
2188.08661	5821.1625
2191.02278	5816.8625
2193.95707	5806.8625
2196.88948	5806.0625
2199.82001	5783.2625
2202.74867	5778.5625
2205.67545	5770.7625
2208.60037	5766.8625
2211.52341	5759.3625
2214.44458	5757.7625
2217.36388	5736.2625
2220.28132	5715.7625
2223.1969	5706.0625
2226.11061	5708.1625
2229.02246	5688.1625
2231.93245	5665.6625
2234.84058	5643.4625
2237.74686	5617.6625
2240.65128	5622.9625
2243.55385	5601.6625
2246.45456	5619.2625
2249.35343	5610.2625
2252.25044	5609.8625
2255.14561	5599.3625
2258.03893	5612.3625
2260.93041	5615.2625
2263.82004	5604.3625
2266.70783	5586.8625
2269.59378	5565.0625
2272.4779	5532.2625
2275.36017	5511.4625
2278.24061	5517.4625
2281.11922	5499.1625
2283.996	5488.7625
2286.87094	5461.7625
2289.74405	5459.7625
2292.61534	5439.7625
2295.4848	5429.3625
2298.35243	5423.7625
2301.21824	5411.6625
2304.08223	5394.1625
2306.94439	5401.4625
2309.80474	5405.5625
2312.66327	5413.3625
2315.51999	5392.1625
2318.37489	5380.9625
2321.22797	5372.0625
2324.07925	5374.1625
2326.92871	5366.3625
2329.77637	5356.2625
2332.62222	5344.4625
2335.46626	5336.9625
2338.3085	5327.2625
2341.14893	5335.3625
2343.98756	5366.2625
2346.8244	5347.2625
2349.65943	5360.9625
2352.49267	5344.7625
2355.32411	5380.7625
2358.15376	5369.9625
2360.98161	5380.3625
2363.80768	5409.3625
2366.63195	5433.5625
2369.45444	5433.2625
2372.27514	5417.9625
2375.09405	5414.1625
2377.91118	5378.9625
2380.72652	5336.7625
2383.54009	5317.8625
2386.35187	5290.2625
2389.16188	5276.8625
2391.97011	5232.7625
2394.77657	5211.7625
2397.58125	5207.2625
2400.38416	5179.9625
2403.18529	5160.6625
2405.98466	5141.6625
2408.78226	5141.9625
2411.57809	5125.4625
2414.37216	5133.5625
2417.16446	5119.0625
2419.955	5111.2625
2422.74378	5114.8625
2425.5308	5115.4625
2428.31606	5108.5625
2431.09956	5122.6625
2433.88131	5106.2625
2436.6613	5112.9625
2439.43954	5114.2625
2442.21603	5111.8625
2444.99077	5122.6625
2447.76377	5126.7625
2450.53501	5116.3625
2453.30451	5121.0625
2456.07226	5129.3625
2458.83827	5107.0625
2461.60254	5109.0625
2464.36507	5112.3625
2467.12586	5076.9625
2469.88492	5086.6625
2472.64224	5107.2625
2475.39782	5119.2625
2478.15167	5113.3625
2480.90379	5116.9625
2483.65417	5126.1625
2486.40283	5154.3625
2489.14976	5168.1625
2491.89497	5175.7625
2494.63845	5201.1625
2497.3802	5180.5625
2500.12024	5159.5625
2502.85855	5138.7625
2505.59514	5131.0625
2508.33002	5104.5625
2511.06318	5071.0625
2513.79462	5050.1625
2516.52435	5027.1625
2519.25237	5006.0625
2521.97867	4982.3625
2524.70327	4973.2625
2527.42616	4954.8625
2530.14734	4961.7625
2532.86681	4937.2625
2535.58458	4934.0625
2538.30065	4920.1625
2541.01501	4939.0625
2543.72768	4936.1625
2546.43864	4936.4625
2549.14791	4922.5625
2551.85548	4924.3625
2554.56136	4924.3625
2557.26554	4918.9625
2559.96803	4898.6625
2562.66883	4889.1625
2565.36794	4896.1625
2568.06536	4874.3625
2570.7611	4868.3625
2573.45514	4871.4625
2576.14751	4848.2625
2578.83819	4819.3625
2581.52719	4837.3625
2584.21451	4821.8625
2586.90015	4812.8625
2589.58411	4809.8625
2592.2664	4802.4625
2594.94701	4780.8625
2597.62594	4791.4625
2600.30321	4798.0625
2602.9788	4782.0625
2605.65273	4785.4625
2608.32498	4778.4625
2610.99557	4787.8625
2613.66449	4783.1625
2616.33175	4785.9625
2618.99734	4788.9625
2621.66128	4762.7625
2624.32355	4773.2625
2626.98416	4760.5625
2629.64311	4730.8625
2632.30041	4743.2625
2634.95605	4730.6625
2637.61004	4702.4625
2640.26238	4690.8625
2642.91306	4685.5625
2645.56209	4683.3625
2648.20948	4685.9625
2650.85521	4680.8625
2653.4993	4685.7625
2656.14175	4687.0625
2658.78255	4682.2625
2661.42171	4712.0625
2664.05923	4697.7625
2666.6951	4711.0625
2669.32934	4722.5625
2671.96194	4727.1625
2674.59291	4734.8625
2677.22224	4732.9625
2679.84993	4752.0625
2682.476	4738.2625
2685.10043	4716.7625
2687.72324	4710.9625
2690.34441	4715.3625
2692.96396	4707.9625
2695.58188	4715.7625
2698.19818	4712.3625
2700.81285	4712.5625
2703.4259	4741.7625
2706.03733	4790.3625
2708.64714	4758.3625
2711.25533	4754.9625
2713.86191	4741.7625
2716.46687	4760.8625
2719.07021	4757.5625
2721.67194	4757.5625
2724.27206	4748.9625
2726.87057	4744.4625
2729.46747	4728.1625
2732.06276	4736.0625
2734.65644	4730.4625
2737.24852	4727.2625
2739.83899	4706.6625
2742.42786	4703.6625
2745.01513	4689.3625
2747.60079	4667.4625
2750.18486	4670.2625
2752.76733	4647.4625
2755.3482	4646.6625
2757.92747	4646.9625
2760.50515	4642.2625
2763.08123	4641.9625
2765.65573	4621.7625
2768.22863	4606.0625
2770.79994	4611.2625
2773.36967	4600.9625
2775.9378	4628.1625
2778.50435	4609.2625
2781.06932	4614.0625
2783.6327	4589.0625
2786.1945	4610.4625
2788.75471	4630.9625
2791.31335	4597.9625
2793.87041	4590.1625
2796.42589	4595.3625
2798.97979	4586.2625
2801.53212	4587.5625
2804.08288	4585.7625
2806.63206	4577.7625
2809.17967	4557.1625
2811.72571	4563.9625
2814.27018	4580.4625
2816.81308	4567.3625
2819.35442	4593.2625
2821.89419	4586.0625
2824.43239	4617.4625
2826.96904	4611.2625
2829.50412	4623.1625
2832.03763	4598.4625
2834.56959	4607.3625
2837.1	4646.5625
2839.62884	4663.9625
2842.15613	4677.1625
2844.68186	4754.5625
2847.20604	4833.5625
2849.72867	4872.3625
2852.24974	4887.6625
2854.76927	4915.7625
2857.28724	4915.4625
2859.80367	4873.6625
2862.31855	4861.6625
2864.83189	4844.8625
2867.34368	4846.5625
2869.85393	4832.4625
2872.36264	4818.7625
2874.8698	4830.5625
2877.37543	4806.3625
2879.87952	4815.7625
2882.38207	4817.7625
2884.88308	4793.5625
2887.38256	4784.2625
2889.88051	4790.1625
2892.37692	4783.1625
2894.8718	4785.0625
2897.36515	4775.0625
2899.85698	4784.5625
2902.34727	4799.5625
2904.83604	4799.1625
2907.32328	4796.9625
2909.809	4812.1625
2912.29319	4792.4625
2914.77587	4778.8625
2917.25702	4793.5625
2919.73665	4790.6625
2922.21476	4774.6625
2924.69136	4773.2625
2927.16644	4769.2625
2929.64	4759.3625
2932.11205	4722.6625
2934.58258	4714.8625
2937.05161	4707.1625
2939.51912	4677.1625
2941.98513	4659.9625
2944.44962	4616.0625
2946.91261	4563.4625
2949.37409	4534.6625
2951.83407	4517.7625
2954.29254	4516.8625
2956.74951	4494.9625
2959.20498	4471.7625
2961.65895	4456.1625
2964.11142	4442.5625
2966.56239	4445.3625
2969.01186	4430.0625
2971.45984	4393.1625
2973.90632	4386.1625
2976.35131	4374.8625
2978.7948	4370.0625
2981.23681	4332.8625
2983.67732	4332.3625
2986.11635	4338.3625
2988.55388	4308.0625
2990.98993	4305.4625
2993.4245	4278.1625
2995.85758	4268.9625
2998.28917	4254.0625
3000.71928	4255.4625
3003.14791	4237.2625
3005.57506	4253.4625
3008.00073	4231.7625
3010.42493	4149.1625
3012.84764	4224.5625
3015.26888	4210.6625
3017.68865	4215.1625
3020.10694	4216.2625
3022.52376	4185.6625
3024.9391	4191.4625
3027.35298	4186.0625
3029.76539	4167.9625
3032.17632	4164.9625
3034.5858	4165.9625
3036.9938	4145.0625
3039.40034	4151.9625
3041.80542	4137.2625
3044.20903	4131.3625
3046.61118	4131.3625
3049.01187	4112.0625
3051.4111	4110.9625
3053.80888	4114.4625
3056.20519	4107.9625
3058.60005	4086.2625
3060.99345	4068.2625
3063.3854	4071.6625
3065.7759	4047.4625
3068.16494	4057.2625
3070.55254	4046.4625
3072.93868	4019.8625
3075.32338	4021.8625
3077.70662	4003.0625
3080.08842	3988.4625
3082.46878	3982.1625
3084.84769	3976.7625
3087.22515	3962.7625
