Data from AgNPs_FTO_APTES_UA_5uM_CRN_0uM_R6G_10uM_NaF_0.1M_Addition_RamanShift__10__09-50-26-532.txt Node

Date: Mon Feb 07 09:50:26 GMT 2022
User: TCL
Spectrometer: QEP01345
Trigger mode: 4
Integration Time (sec): 7.000000E0
Scans to average: 10
Electric dark correction enabled: true
Nonlinearity correction enabled: false
Boxcar width: 0
XAxis mode: Raman Shifts
Number of Pixels in Spectrum: 1044
>>>>>Begin Spectral Data<<<<<
46.04893	-1.25
50.45542	-1.05
54.85868	-0.65
59.25871	1.75
63.6555	71.95
68.04907	77.05
72.43941	80.15
76.82654	86.95
81.21044	88.25
85.59113	93.75
89.96862	95.65
94.34289	96.45
98.71396	100.45
103.08183	103.75
107.4465	111.45
111.80798	109.45
116.16626	112.95
120.52136	120.55
124.87327	128.35
129.222	133.85
133.56755	146.95
137.90993	159.75
142.24913	175.95
146.58517	204.75
150.91804	242.45
155.24774	294.75
159.57429	374.35
163.89768	490.35
168.21792	658.15
172.53501	911.75
176.84895	1274.65
181.15975	1788.25
185.46741	2518.05
189.77193	3461.15
194.07331	4615.45
198.37157	5951.05
202.6667	7340.45
206.9587	8759.55
211.24758	10083.45
215.53334	11479.65
219.81599	12960.35
224.09553	14595.05
228.37195	16430.95
232.64527	18379.65
236.91549	20518.15
241.18261	22563.55
245.44663	24506.45
249.70755	26167.15
253.96539	27760.65
258.22014	29041.75
262.4718	30046.85
266.72039	30683.95
270.96589	31073.75
275.20832	31098.95
279.44768	30928.55
283.68397	30693.75
287.91719	30525.35
292.14735	30412.65
296.37445	30385.35
300.59849	30339.85
304.81948	30420.55
309.03742	30492.35
313.25231	30311.15
317.46415	29676.45
321.67296	28610.95
325.87872	27592.25
330.08145	26905.55
334.28114	26678.35
338.47781	26795.25
342.67145	27016.55
346.86207	27322.35
351.04966	27703.85
355.23424	28168.05
359.4158	28649.35
363.59435	28991.85
367.76989	29118.85
371.94243	29142.75
376.11196	29042.85
380.27849	28806.15
384.44203	28610.05
388.60257	28700.35
392.76012	29061.55
396.91468	29708.85
401.06626	30486.25
405.21485	30871.95
409.36047	30647.35
413.50311	30123.25
417.64277	29788.85
421.77947	29847.05
425.9132	29885.35
430.04396	29919.75
434.17176	29841.85
438.2966	29641.35
442.41849	29665.35
446.53742	30098.45
450.6534	30789.55
454.76644	31361.75
458.87653	31719.85
462.98368	31833.25
467.08789	31768.65
471.18916	31614.25
475.2875	31445.35
479.38291	31527.85
483.4754	31928.45
487.56496	32067.25
491.6516	31835.55
495.73531	31325.65
499.81612	30887.25
503.89401	30745.15
507.96899	30744.95
512.04106	30504.45
516.11023	30050.55
520.1765	29318.15
524.23987	28573.75
528.30034	27980.05
532.35792	27505.75
536.41261	27103.95
540.46441	26786.65
544.51333	26859.65
548.55936	27344.95
552.60252	28295.95
556.64279	29213.65
560.6802	29812.35
564.71473	30258.15
568.7464	31279.95
572.7752	33077.25
576.80114	35216.15
580.82422	37163.15
584.84444	38868.75
588.86181	40575.55
592.87633	41748.05
596.888	40818.05
600.89682	38195.35
604.9028	36994.45
608.90594	38753.15
612.90624	40813.55
616.90371	37785.45
620.89834	31189.55
624.89015	28163.75
628.87913	28102.65
632.86528	28877.75
636.84862	29181.15
640.82913	28505.45
644.80683	27307.25
648.78172	26458.45
652.75379	26280.35
656.72306	26606.95
660.68952	26994.85
664.65319	26896.25
668.61405	26412.85
672.57211	26263.25
676.52738	26300.55
680.47986	26151.35
684.42955	25921.05
688.37646	25688.75
692.32058	25865.35
696.26192	26293.15
700.20048	26799.05
704.13626	27221.75
708.06928	27658.95
711.99952	27776.85
715.927	27658.45
719.85171	27462.15
723.77365	27127.75
727.69284	26478.05
731.60928	25811.25
735.52295	25442.55
739.43388	25338.85
743.34206	25465.25
747.24749	25674.15
751.15017	26216.35
755.05012	27011.55
758.94733	28226.85
762.8418	30110.55
766.73354	32903.95
770.62254	35315.35
774.50882	35063.35
778.39237	32580.85
782.27321	29874.85
786.15132	27780.95
790.02671	26451.95
793.89938	25693.85
797.76935	25231.45
801.6366	25069.35
805.50115	24935.45
809.36299	24817.35
813.22213	24703.55
817.07857	24674.05
820.93231	24619.85
824.78336	24497.15
828.63172	24241.05
832.47738	24047.85
836.32036	23959.95
840.16066	23911.35
843.99827	23916.05
847.8332	23980.25
851.66546	24017.55
855.49504	24116.35
859.32195	24076.35
863.1462	23987.45
866.96777	23892.95
870.78668	23861.35
874.60293	23809.75
878.41652	23727.45
882.22745	23740.05
886.03573	23823.55
889.84136	23879.85
893.64433	23855.05
897.44466	23885.25
901.24235	23957.45
905.0374	23937.75
908.8298	23876.55
912.61957	23893.65
916.40671	24297.75
920.19121	24958.95
923.97308	25606.15
927.75233	25793.85
931.52895	25314.35
935.30295	24457.35
939.07433	23552.75
942.84309	22905.55
946.60924	22492.15
950.37278	22375.15
954.13371	22376.95
957.89203	22420.65
961.64774	22466.25
965.40086	22506.35
969.15137	22495.55
972.89929	22343.45
976.64461	22077.55
980.38733	21828.25
984.12747	21726.95
987.86502	21794.65
991.59999	21839.55
995.33237	21873.55
999.06217	22101.55
1002.78939	22411.65
1006.51404	22747.75
1010.23611	23242.15
1013.95561	23613.55
1017.67255	23742.35
1021.38692	23567.65
1025.09872	23201.65
1028.80796	22839.05
1032.51465	22665.95
1036.21877	22672.35
1039.92035	22845.85
1043.61937	23073.35
1047.31584	23298.55
1051.00976	23505.65
1054.70114	23763.25
1058.38998	24035.25
1062.07627	24397.65
1065.76003	24973.05
1069.44126	25689.25
1073.11995	26594.25
1076.79611	27447.15
1080.46974	27776.25
1084.14085	27814.25
1087.80943	28147.95
1091.47549	28686.65
1095.13903	29081.55
1098.80005	28745.55
1102.45857	27418.15
1106.11456	25855.65
1109.76805	24873.75
1113.41903	24371.85
1117.06751	24330.15
1120.71348	24512.75
1124.35696	24853.65
1127.99793	25340.75
1131.63641	25773.35
1135.2724	25969.35
1138.90589	25965.85
1142.5369	26103.95
1146.16542	26361.95
1149.79145	26782.05
1153.415	27267.85
1157.03607	27992.85
1160.65467	29109.65
1164.27079	30683.05
1167.88443	32738.95
1171.49561	34984.95
1175.10432	37644.75
1178.71056	40851.05
1182.31434	43741.15
1185.91565	45411.25
1189.51451	45589.25
1193.11091	44727.75
1196.70485	42778.95
1200.29634	40518.95
1203.88538	39024.15
1207.47197	38567.05
1211.05612	38489.95
1214.63782	38033.35
1218.21708	36676.15
1221.79391	34840.55
1225.36829	33242.25
1228.94024	32199.25
1232.50976	31659.75
1236.07685	31221.15
1239.6415	30947.45
1243.20374	30870.65
1246.76355	31029.75
1250.32093	31493.75
1253.8759	32307.65
1257.42845	33590.85
1260.97859	35136.35
1264.52631	36675.25
1268.07163	38172.05
1271.61453	39645.55
1275.15503	41277.85
1278.69312	43212.85
1282.22882	45396.65
1285.76211	47912.65
1289.29301	50610.65
1292.82151	53341.15
1296.34761	56414.15
1299.87133	59929.85
1303.39266	63186.25
1306.9116	65625.05
1310.42815	66880.15
1313.94233	67263.85
1317.45412	66728.75
1320.96354	66703.05
1324.47058	67329.55
1327.97525	68154.25
1331.47754	68687.45
1334.97747	68050.05
1338.47502	66703.85
1341.97022	65158.45
1345.46305	63636.95
1348.95352	61878.65
1352.44163	60055.95
1355.92738	59032.05
1359.41078	59724.05
1362.89183	61665.35
1366.37053	62448.35
1369.84688	59820.55
1373.32088	54535.35
1376.79254	49426.35
1380.26186	46710.05
1383.72883	45966.15
1387.19347	45900.95
1390.65578	45738.45
1394.11575	45625.95
1397.57339	45996.65
1401.0287	46804.65
1404.48168	47155.55
1407.93234	46332.15
1411.38068	44181.35
1414.82669	41408.85
1418.27039	38606.25
1421.71177	36208.95
1425.15083	34476.15
1428.58758	33683.75
1432.02203	33992.05
1435.45416	35034.75
1438.88399	36377.75
1442.31151	37485.15
1445.73673	38406.15
1449.15965	39295.25
1452.58027	40005.75
1455.9986	40405.95
1459.41463	40801.05
1462.82837	41579.15
1466.23982	42498.25
1469.64898	43187.95
1473.05586	43470.45
1476.46045	43236.55
1479.86276	42978.55
1483.26279	42872.75
1486.66054	43186.75
1490.05602	43922.05
1493.44922	45114.75
1496.84016	46709.25
1500.22882	48601.15
1503.61521	50589.35
1506.99934	52712.05
1510.38121	54418.05
1513.76081	55186.75
1517.13816	54987.45
1520.51324	54320.45
1523.88607	53713.85
1527.25665	53238.25
1530.62498	52632.35
1533.99105	51569.95
1537.35488	49935.45
1540.71647	47662.65
1544.07581	45181.15
1547.4329	42880.45
1550.78776	41171.95
1554.14038	40153.05
1557.49077	39813.45
1560.83892	39745.25
1564.18484	39867.45
1567.52853	39757.75
1570.86999	39936.65
1574.20922	40608.75
1577.54624	41430.55
1580.88103	41836.15
1584.2136	42441.05
1587.54395	44000.25
1590.87208	46419.35
1594.19801	48826.85
1597.52172	50385.05
1600.84321	49508.95
1604.16251	45839.15
1607.47959	41405.75
1610.79447	37435.45
1614.10715	33796.25
1617.41763	30861.85
1620.7259	28758.65
1624.03199	27716.55
1627.33587	27685.15
1630.63757	28705.05
1633.93707	31165.25
1637.23439	35429.05
1640.52951	42072.45
1643.82246	50495.05
1647.11321	58166.75
1650.40179	61313.55
1653.68819	57951.65
1656.97241	49765.05
1660.25446	40525.05
1663.53433	32994.75
1666.81203	27895.05
1670.08756	24830.15
1673.36092	22936.85
1676.63211	21737.45
1679.90115	20964.75
1683.16801	20379.35
1686.43272	19962.55
1689.69527	19608.05
1692.95567	19353.05
1696.2139	19180.25
1699.46999	19042.95
1702.72392	18900.15
1705.97571	18770.75
1709.22535	18670.05
1712.47284	18588.65
1715.71819	18511.35
1718.96139	18389.45
1722.20246	18225.65
1725.44139	18102.55
1728.67818	17978.05
1731.91284	17799.25
1735.14537	17645.95
1738.37576	17532.15
1741.60403	17416.05
1744.83017	17351.95
1748.05418	17269.95
1751.27607	17209.95
1754.49584	17153.55
1757.71349	17092.15
1760.92903	17049.25
1764.14244	17029.65
1767.35375	16994.15
1770.56294	16965.45
1773.77002	16869.45
1776.97499	16866.85
1780.17785	16806.55
1783.37861	16725.25
1786.57727	16693.15
1789.77382	16624.45
1792.96828	16576.25
1796.16064	16539.95
1799.3509	16475.35
1802.53907	16430.35
1805.72514	16297.95
1808.90913	16261.45
1812.09102	16191.85
1815.27083	16173.15
1818.44856	16142.05
1821.6242	16084.75
1824.79776	16030.85
1827.96924	16004.15
1831.13864	15979.65
1834.30597	16010.95
1837.47122	15958.95
1840.6344	15954.45
1843.7955	15951.45
1846.95454	15971.15
1850.11151	15948.45
1853.26642	15909.75
1856.41926	15894.55
1859.57004	15873.95
1862.71876	15821.25
1865.86542	15798.95
1869.01003	15743.35
1872.15258	15700.75
1875.29308	15624.05
1878.43152	15584.05
1881.56792	15543.35
1884.70227	15518.55
1887.83457	15488.85
1890.96482	15497.35
1894.09304	15437.85
1897.21921	15395.65
1900.34335	15384.85
1903.46544	15335.15
1906.58551	15303.25
1909.70353	15260.75
1912.81953	15203.55
1915.93349	15189.15
1919.04543	15161.65
1922.15534	15092.45
1925.26322	15053.35
1928.36908	14998.15
1931.47292	14947.65
1934.57473	14894.35
1937.67453	14829.55
1940.77232	14772.95
1943.86808	14705.25
1946.96184	14664.55
1950.05358	14608.45
1953.14331	14558.65
1956.23103	14561.15
1959.31675	14474.95
1962.40046	14437.55
1965.48217	14345.55
1968.56188	14302.95
1971.63959	14259.95
1974.7153	14225.85
1977.78901	14144.45
1980.86073	14082.85
1983.93046	14053.45
1986.99819	13965.85
1990.06394	13917.15
1993.1277	13870.15
1996.18947	13779.75
1999.24925	13784.75
2002.30706	13701.35
2005.36288	13658.15
2008.41672	13580.05
2011.46859	13542.25
2014.51848	13477.95
2017.56639	13465.95
2020.61233	13393.25
2023.6563	13368.75
2026.6983	13348.35
2029.73833	13333.55
2032.7764	13281.05
2035.8125	13249.85
2038.84664	13194.25
2041.87881	13121.45
2044.90903	13118.25
2047.93729	13068.15
2050.96359	13052.05
2053.98794	13040.65
2057.01034	13049.85
2060.03078	13052.45
2063.04927	12999.15
2066.06582	13008.15
2069.08042	12966.95
2072.09307	12983.95
2075.10378	12954.75
2078.11255	12958.45
2081.11938	12972.15
2084.12426	12905.85
2087.12722	12910.85
2090.12824	12886.25
2093.12732	12922.45
2096.12447	12877.65
2099.11969	12860.35
2102.11299	12874.85
2105.10435	12880.15
2108.09379	12829.85
2111.08131	12846.15
2114.0669	12829.85
2117.05057	12871.75
2120.03233	12855.15
2123.01216	12860.05
2125.99008	12871.35
2128.96609	12852.65
2131.94018	12841.15
2134.91236	12841.45
2137.88263	12821.25
2140.851	12835.15
2143.81746	12817.85
2146.78201	12775.35
2149.74466	12764.25
2152.7054	12774.85
2155.66425	12738.55
2158.6212	12726.75
2161.57625	12702.25
2164.52941	12657.35
2167.48067	12665.75
2170.43004	12649.45
2173.37752	12611.45
2176.32311	12575.95
2179.26681	12605.15
2182.20863	12610.15
2185.14856	12596.45
2188.08661	12605.95
2191.02278	12571.95
2193.95707	12522.95
2196.88948	12525.05
2199.82001	12475.15
2202.74867	12423.05
2205.67545	12446.05
2208.60037	12403.75
2211.52341	12373.95
2214.44458	12365.55
2217.36388	12316.65
2220.28132	12266.75
2223.1969	12271.25
2226.11061	12252.85
2229.02246	12262.85
2231.93245	12253.05
2234.84058	12216.05
2237.74686	12173.25
2240.65128	12185.85
2243.55385	12136.55
2246.45456	12071.85
2249.35343	12052.95
2252.25044	12005.45
2255.14561	11973.25
2258.03893	11953.35
2260.93041	11939.05
2263.82004	11885.55
2266.70783	11847.45
2269.59378	11806.25
2272.4779	11760.75
2275.36017	11711.35
2278.24061	11697.95
2281.11922	11665.05
2283.996	11653.95
2286.87094	11634.15
2289.74405	11601.95
2292.61534	11584.75
2295.4848	11542.85
2298.35243	11532.05
2301.21824	11504.15
2304.08223	11513.45
2306.94439	11505.55
2309.80474	11479.55
2312.66327	11472.05
2315.51999	11424.55
2318.37489	11419.65
2321.22797	11411.05
2324.07925	11395.75
2326.92871	11349.05
2329.77637	11340.35
2332.62222	11339.15
2335.46626	11318.85
2338.3085	11311.25
2341.14893	11291.85
2343.98756	11283.95
2346.8244	11306.65
2349.65943	11295.65
2352.49267	11289.95
2355.32411	11319.05
2358.15376	11305.05
2360.98161	11319.35
2363.80768	11318.15
2366.63195	11311.85
2369.45444	11303.05
2372.27514	11251.15
2375.09405	11249.75
2377.91118	11228.75
2380.72652	11163.85
2383.54009	11117.75
2386.35187	11099.45
2389.16188	11056.75
2391.97011	11020.85
2394.77657	10988.25
2397.58125	10970.05
2400.38416	10955.15
2403.18529	10918.45
2405.98466	10912.05
2408.78226	10850.75
2411.57809	10862.55
2414.37216	10870.25
2417.16446	10831.05
2419.955	10823.15
2422.74378	10816.15
2425.5308	10804.45
2428.31606	10784.15
2431.09956	10788.85
2433.88131	10785.05
2436.6613	10792.65
2439.43954	10792.65
2442.21603	10786.35
2444.99077	10786.55
2447.76377	10767.55
2450.53501	10735.75
2453.30451	10766.55
2456.07226	10732.25
2458.83827	10740.05
2461.60254	10741.35
2464.36507	10743.35
2467.12586	10701.55
2469.88492	10686.45
2472.64224	10693.35
2475.39782	10702.95
2478.15167	10682.95
2480.90379	10622.95
2483.65417	10670.45
2486.40283	10667.75
2489.14976	10700.15
2491.89497	10669.45
2494.63845	10704.35
2497.3802	10680.15
2500.12024	10646.05
2502.85855	10646.65
2505.59514	10586.45
2508.33002	10587.75
2511.06318	10565.85
2513.79462	10550.85
2516.52435	10555.95
2519.25237	10536.35
2521.97867	10517.45
2524.70327	10520.75
2527.42616	10481.45
2530.14734	10465.15
2532.86681	10481.85
2535.58458	10458.65
2538.30065	10433.85
2541.01501	10419.85
2543.72768	10428.95
2546.43864	10402.45
2549.14791	10395.95
2551.85548	10357.55
2554.56136	10365.25
2557.26554	10346.65
2559.96803	10333.45
2562.66883	10320.25
2565.36794	10310.95
2568.06536	10300.35
2570.7611	10269.45
2573.45514	10278.15
2576.14751	10259.75
2578.83819	10243.85
2581.52719	10237.75
2584.21451	10214.75
2586.90015	10214.15
2589.58411	10202.05
2592.2664	10190.85
2594.94701	10194.25
2597.62594	10165.05
2600.30321	10153.15
2602.9788	10136.65
2605.65273	10134.65
2608.32498	10148.55
2610.99557	10158.55
2613.66449	10165.75
2616.33175	10127.05
2618.99734	10109.35
2621.66128	10100.45
2624.32355	10060.15
2626.98416	10076.25
2629.64311	10079.55
2632.30041	10062.85
2634.95605	10041.65
2637.61004	10041.85
2640.26238	10027.05
2642.91306	10047.65
2645.56209	10050.45
2648.20948	10067.55
2650.85521	10052.65
2653.4993	10029.55
2656.14175	10016.15
2658.78255	10033.35
2661.42171	9988.35
2664.05923	10033.65
2666.6951	10040.95
2669.32934	10056.05
2671.96194	10023.95
2674.59291	10054.05
2677.22224	10027.55
2679.84993	10023.75
2682.476	10034.15
2685.10043	10031.95
2687.72324	10001.35
2690.34441	10005.45
2692.96396	10004.05
2695.58188	9998.15
2698.19818	9965.45
2700.81285	9986.15
2703.4259	9992.45
2706.03733	9989.85
2708.64714	9962.25
2711.25533	9993.15
2713.86191	9992.85
2716.46687	9974.35
2719.07021	9979.35
2721.67194	10001.55
2724.27206	9969.05
2726.87057	9991.25
2729.46747	9994.85
2732.06276	10007.95
2734.65644	10013.35
2737.24852	10013.75
2739.83899	9971.05
2742.42786	9961.55
2745.01513	9980.75
2747.60079	9986.65
2750.18486	9944.85
2752.76733	9924.05
2755.3482	9909.75
2757.92747	9891.65
2760.50515	9894.05
2763.08123	9871.45
2765.65573	9872.95
2768.22863	9850.85
2770.79994	9858.25
2773.36967	9862.55
2775.9378	9864.05
2778.50435	9861.15
2781.06932	9861.75
2783.6327	9863.05
2786.1945	9828.45
2788.75471	9877.25
2791.31335	9849.65
2793.87041	9822.15
2796.42589	9802.85
2798.97979	9825.85
2801.53212	9801.95
2804.08288	9767.65
2806.63206	9770.05
2809.17967	9752.95
2811.72571	9731.45
2814.27018	9723.65
2816.81308	9692.25
2819.35442	9671.75
2821.89419	9653.55
2824.43239	9656.75
2826.96904	9646.85
2829.50412	9639.35
2832.03763	9624.25
2834.56959	9607.25
2837.1	9616.85
2839.62884	9622.25
2842.15613	9599.05
2844.68186	9636.95
2847.20604	9652.45
2849.72867	9643.25
2852.24974	9611.75
2854.76927	9617.45
2857.28724	9652.75
2859.80367	9641.05
2862.31855	9611.15
2864.83189	9594.15
2867.34368	9591.85
2869.85393	9586.15
2872.36264	9528.35
2874.8698	9528.45
2877.37543	9525.05
2879.87952	9524.05
2882.38207	9525.15
2884.88308	9533.05
2887.38256	9513.55
2889.88051	9545.35
2892.37692	9520.15
2894.8718	9537.45
2897.36515	9541.95
2899.85698	9537.65
2902.34727	9573.75
2904.83604	9561.25
2907.32328	9604.85
2909.809	9565.35
2912.29319	9566.45
2914.77587	9589.15
2917.25702	9577.85
2919.73665	9553.65
2922.21476	9560.85
2924.69136	9530.95
2927.16644	9533.25
2929.64	9552.15
2932.11205	9543.35
2934.58258	9485.65
2937.05161	9487.75
2939.51912	9462.95
2941.98513	9452.35
2944.44962	9409.95
2946.91261	9376.95
2949.37409	9364.55
2951.83407	9342.65
2954.29254	9320.65
2956.74951	9315.65
2959.20498	9277.45
2961.65895	9259.45
2964.11142	9240.35
2966.56239	9244.65
2969.01186	9210.95
2971.45984	9174.15
2973.90632	9190.05
2976.35131	9173.85
2978.7948	9132.85
2981.23681	9104.35
2983.67732	9071.05
2986.11635	9053.75
2988.55388	9046.05
2990.98993	9006.95
2993.4245	8976.25
2995.85758	8926.55
2998.28917	8892.75
3000.71928	8860.25
3003.14791	8834.25
3005.57506	8809.85
3008.00073	8770.85
3010.42493	8756.95
3012.84764	8742.75
3015.26888	8736.25
3017.68865	8699.75
3020.10694	8687.05
3022.52376	8658.55
3024.9391	8625.65
3027.35298	8619.15
3029.76539	8610.15
3032.17632	8620.65
3034.5858	8599.55
3036.9938	8585.05
3039.40034	8581.45
3041.80542	8554.45
3044.20903	8564.95
3046.61118	8552.05
3049.01187	8535.05
3051.4111	8532.95
3053.80888	8491.05
3056.20519	8454.05
3058.60005	8436.45
3060.99345	8408.15
3063.3854	8373.65
3065.7759	8330.95
3068.16494	8313.95
3070.55254	8277.25
3072.93868	8244.35
3075.32338	8176.45
3077.70662	8173.55
3080.08842	8135.15
3082.46878	8142.15
3084.84769	8138.85
3087.22515	8119.55
3089.60118	8100.65
3091.97576	8085.55
3094.3489	8092.65
3096.72061	8093.35
3099.09087	8060.05
3101.4597	8065.85
3103.82709	8056.45
3106.19305	8056.55
3108.55757	8037.15
3110.92066	7997.05
3113.28232	7980.75
3115.64255	7968.35
3118.00134	7947.55
3120.35871	7925.05
3122.71466	7921.95
3125.06917	7907.05
3127.42226	7895.45
3129.77393	7898.35
3132.12417	7857.85
3134.47299	7838.15
3136.82039	7842.15
3139.16636	7849.55
3141.51092	7820.95
3143.85406	7822.15
3146.19579	7807.85
3148.53609	7809.95
3150.87499	7805.65
3153.21246	7801.15
3155.54853	7832.65
3157.88318	7806.25
3160.21642	7811.95
3162.54826	7838.05
3164.87868	7831.25
3167.2077	7805.65
3169.5353	7820.85
3171.86151	7814.85
3174.18631	7821.05
3176.5097	7816.15
3178.83169	7794.85
3181.15228	7761.55
3183.47147	7775.45
3185.78926	7753.35
3188.10565	7750.55
3190.42065	7731.35
3192.73424	7692.35
3195.04645	7690.05
3197.35725	7674.45
3199.66667	7642.25
3201.97469	7648.75
3204.28132	7613.65
3206.58656	7654.85
3208.8904	7618.85
3211.19287	7632.75
3213.49394	7647.95
3215.79363	7632.15
3218.09193	7639.75
3220.38884	7630.35
3222.68438	7653.95
3224.97853	7645.55
3227.2713	7618.15
3229.56269	7602.55
3231.8527	7620.25
3234.14133	7611.55
3236.42858	7588.05
3238.71446	7581.85
3240.99896	7565.75
3243.28209	7542.95
3245.56384	7527.85
3247.84423	7514.25
3250.12324	7510.75
3252.40088	7467.65
3254.67715	7463.45
3256.95205	7444.85
3259.22558	7464.15
3261.49775	7421.95
3263.76855	7433.15
