Data from AgNPs_FTO_APTES_UA_5uM_CRN_500uM_R6G_10uM_NaF_0.1M_Addition_RamanShift__23__17-07-31-840.txt Node

Date: Mon Feb 07 17:07:31 GMT 2022
User: TCL
Spectrometer: QEP01345
Trigger mode: 4
Integration Time (sec): 7.000000E0
Scans to average: 10
Electric dark correction enabled: true
Nonlinearity correction enabled: false
Boxcar width: 0
XAxis mode: Raman Shifts
Number of Pixels in Spectrum: 1044
>>>>>Begin Spectral Data<<<<<
46.04893	-1.925
50.45542	-0.925
54.85868	-0.325
59.25871	0.575
63.6555	68.375
68.04907	71.575
72.43941	73.275
76.82654	74.775
81.21044	79.875
85.59113	77.975
89.96862	82.975
94.34289	86.575
98.71396	89.075
103.08183	90.875
107.4465	93.975
111.80798	99.175
116.16626	99.875
120.52136	109.575
124.87327	112.175
129.222	116.775
133.56755	122.275
137.90993	133.275
142.24913	150.675
146.58517	170.075
150.91804	200.575
155.24774	243.375
159.57429	306.475
163.89768	393.075
168.21792	527.575
172.53501	716.375
176.84895	998.975
181.15975	1413.075
185.46741	1973.175
189.77193	2716.575
194.07331	3647.575
198.37157	4708.475
202.6667	5798.075
206.9587	6898.475
211.24758	7973.575
215.53334	9098.175
219.81599	10285.475
224.09553	11541.175
228.37195	12949.475
232.64527	14486.575
236.91549	16080.875
241.18261	17669.375
245.44663	19144.675
249.70755	20513.175
253.96539	21708.275
258.22014	22686.275
262.4718	23524.575
266.72039	24137.675
270.96589	24511.675
275.20832	24585.475
279.44768	24570.875
283.68397	24435.275
287.91719	24321.975
292.14735	24364.075
296.37445	24461.475
300.59849	24601.075
304.81948	24712.575
309.03742	24505.575
313.25231	24114.275
317.46415	23408.475
321.67296	22665.475
325.87872	22021.475
330.08145	21727.375
334.28114	21708.075
338.47781	21857.175
342.67145	22070.875
346.86207	22408.475
351.04966	22859.875
355.23424	23328.675
359.4158	23761.375
363.59435	23983.775
367.76989	24163.475
371.94243	24350.075
376.11196	24442.275
380.27849	24588.375
384.44203	24764.575
388.60257	24928.375
392.76012	25159.875
396.91468	25386.575
401.06626	25810.375
405.21485	26047.775
409.36047	25923.075
413.50311	25555.975
417.64277	25263.775
421.77947	25251.775
425.9132	25338.275
430.04396	25577.575
434.17176	25902.075
438.2966	26266.575
442.41849	26904.975
446.53742	27826.275
450.6534	28894.275
454.76644	29653.975
458.87653	29851.775
462.98368	29607.575
467.08789	29192.075
471.18916	28880.175
475.2875	28716.375
479.38291	28769.675
483.4754	28780.875
487.56496	28340.975
491.6516	27574.975
495.73531	26860.675
499.81612	26344.975
503.89401	26257.875
507.96899	26202.075
512.04106	26098.175
516.11023	25801.575
520.1765	25518.475
524.23987	25296.875
528.30034	25173.775
532.35792	24973.975
536.41261	24713.775
540.46441	24487.075
544.51333	24505.275
548.55936	24896.975
552.60252	25533.475
556.64279	26343.375
560.6802	27002.675
564.71473	27596.875
568.7464	28273.575
572.7752	29079.275
576.80114	29476.775
580.82422	29557.575
584.84444	29710.175
588.86181	30316.575
592.87633	31161.275
596.888	31509.775
600.89682	31098.875
604.9028	31146.375
608.90594	32762.675
612.90624	34708.975
616.90371	32466.075
620.89834	27357.275
624.89015	25115.775
628.87913	24910.675
632.86528	25162.875
636.84862	25251.975
640.82913	24914.875
644.80683	24242.075
648.78172	23683.175
652.75379	23485.975
656.72306	23619.875
660.68952	23921.475
664.65319	23825.075
668.61405	23480.575
672.57211	23363.375
676.52738	23384.975
680.47986	23471.675
684.42955	23381.075
688.37646	23299.775
692.32058	23304.475
696.26192	23533.775
700.20048	23727.875
704.13626	23919.375
708.06928	23943.775
711.99952	23794.775
715.927	23721.475
719.85171	23766.575
723.77365	23736.075
727.69284	23589.375
731.60928	23418.875
735.52295	23401.675
739.43388	23406.675
743.34206	23456.275
747.24749	23539.475
751.15017	23752.575
755.05012	24162.975
758.94733	24896.475
762.8418	26225.575
766.73354	28185.275
770.62254	30007.075
774.50882	30338.875
778.39237	28924.375
782.27321	26669.475
786.15132	24731.175
790.02671	23704.675
793.89938	23157.675
797.76935	22973.275
801.6366	22890.475
805.50115	22928.175
809.36299	22828.675
813.22213	22706.375
817.07857	22677.175
820.93231	22660.275
824.78336	22556.275
828.63172	22411.475
832.47738	22359.675
836.32036	22329.675
840.16066	22298.875
843.99827	22282.175
847.8332	22225.575
851.66546	22177.275
855.49504	22177.775
859.32195	22202.675
863.1462	22137.975
866.96777	22063.875
870.78668	21996.475
874.60293	22015.575
878.41652	22023.575
882.22745	22079.375
886.03573	22119.475
889.84136	22128.575
893.64433	22059.575
897.44466	21981.675
901.24235	21859.975
905.0374	21748.675
908.8298	21662.375
912.61957	21733.175
916.40671	21932.075
920.19121	22264.075
923.97308	22462.175
927.75233	22459.875
931.52895	22261.175
935.30295	21965.175
939.07433	21594.575
942.84309	21250.775
946.60924	21067.775
950.37278	20986.975
954.13371	20986.175
957.89203	20970.275
961.64774	20948.975
965.40086	20896.375
969.15137	20847.875
972.89929	20645.275
976.64461	20514.975
980.38733	20441.675
984.12747	20490.675
987.86502	20624.275
991.59999	20813.975
995.33237	21119.875
999.06217	21623.575
1002.78939	22215.675
1006.51404	22658.575
1010.23611	22959.975
1013.95561	23157.575
1017.67255	23133.175
1021.38692	22841.175
1025.09872	22443.975
1028.80796	22259.075
1032.51465	22373.975
1036.21877	22576.975
1039.92035	22683.375
1043.61937	22607.875
1047.31584	22439.675
1051.00976	22269.675
1054.70114	22190.875
1058.38998	22279.575
1062.07627	22512.775
1065.76003	22763.975
1069.44126	22921.775
1073.11995	23122.475
1076.79611	23299.175
1080.46974	23383.575
1084.14085	23570.975
1087.80943	23805.875
1091.47549	24007.075
1095.13903	24126.075
1098.80005	23914.375
1102.45857	23453.275
1106.11456	23122.075
1109.76805	22981.075
1113.41903	23120.175
1117.06751	23419.375
1120.71348	23787.075
1124.35696	24143.175
1127.99793	24534.975
1131.63641	24725.275
1135.2724	24495.475
1138.90589	24277.775
1142.5369	24190.575
1146.16542	24358.975
1149.79145	24653.575
1153.415	24975.175
1157.03607	25449.575
1160.65467	26291.575
1164.27079	27537.275
1167.88443	29128.775
1171.49561	31033.375
1175.10432	33521.975
1178.71056	36494.975
1182.31434	39264.575
1185.91565	40484.775
1189.51451	40396.975
1193.11091	39397.675
1196.70485	38072.575
1200.29634	36758.175
1203.88538	35605.775
1207.47197	34822.575
1211.05612	34093.575
1214.63782	33405.275
1218.21708	32695.275
1221.79391	32084.375
1225.36829	31562.375
1228.94024	30826.075
1232.50976	30016.575
1236.07685	29451.075
1239.6415	29161.375
1243.20374	29143.275
1246.76355	29381.175
1250.32093	29764.475
1253.8759	30337.375
1257.42845	31141.575
1260.97859	31950.475
1264.52631	32794.275
1268.07163	33581.475
1271.61453	34525.875
1275.15503	35542.475
1278.69312	36660.975
1282.22882	37783.575
1285.76211	39045.875
1289.29301	40751.875
1292.82151	42944.775
1296.34761	45670.775
1299.87133	48748.975
1303.39266	51985.575
1306.9116	55110.175
1310.42815	58015.675
1313.94233	59933.675
1317.45412	60275.475
1320.96354	59693.675
1324.47058	58949.775
1327.97525	58118.075
1331.47754	57514.575
1334.97747	57366.375
1338.47502	57345.475
1341.97022	57057.875
1345.46305	56019.575
1348.95352	54381.775
1352.44163	53084.875
1355.92738	52862.575
1359.41078	53940.775
1362.89183	55227.875
1366.37053	54164.175
1369.84688	49984.275
1373.32088	44924.075
1376.79254	41515.975
1380.26186	40488.875
1383.72883	40815.675
1387.19347	41376.175
1390.65578	41824.975
1394.11575	42525.475
1397.57339	43808.175
1401.0287	45452.575
1404.48168	46874.775
1407.93234	47399.275
1411.38068	46607.775
1414.82669	44749.875
1418.27039	42011.675
1421.71177	39265.575
1425.15083	36819.075
1428.58758	35545.075
1432.02203	35388.775
1435.45416	36182.775
1438.88399	37449.875
1442.31151	38732.075
1445.73673	39740.975
1449.15965	40831.675
1452.58027	41770.175
1455.9986	42324.975
1459.41463	42762.975
1462.82837	43316.175
1466.23982	44073.575
1469.64898	44615.875
1473.05586	44828.375
1476.46045	44468.175
1479.86276	43849.075
1483.26279	42974.475
1486.66054	42175.775
1490.05602	41655.575
1493.44922	41301.975
1496.84016	40934.375
1500.22882	40850.075
1503.61521	41361.275
1506.99934	42366.475
1510.38121	43550.575
1513.76081	43911.775
1517.13816	43135.775
1520.51324	41745.375
1523.88607	40660.775
1527.25665	40177.875
1530.62498	40282.975
1533.99105	40556.175
1537.35488	40667.175
1540.71647	40377.075
1544.07581	39674.675
1547.4329	38730.175
1550.78776	37816.275
1554.14038	37032.675
1557.49077	36610.275
1560.83892	36396.275
1564.18484	36345.975
1567.52853	36396.475
1570.86999	36726.175
1574.20922	37398.775
1577.54624	38122.575
1580.88103	38600.275
1584.2136	39291.875
1587.54395	40760.575
1590.87208	43060.175
1594.19801	45884.275
1597.52172	48610.675
1600.84321	49591.475
1604.16251	47576.875
1607.47959	43510.775
1610.79447	39005.975
1614.10715	34871.475
1617.41763	31554.675
1620.7259	29353.175
1624.03199	28265.675
1627.33587	28106.675
1630.63757	29002.875
1633.93707	31080.175
1637.23439	34530.975
1640.52951	39420.875
1643.82246	45111.475
1647.11321	49541.075
1650.40179	50357.275
1653.68819	46887.475
1656.97241	40396.475
1660.25446	33879.575
1663.53433	28927.775
1666.81203	25604.875
1670.08756	23521.975
1673.36092	22229.475
1676.63211	21486.375
1679.90115	20850.375
1683.16801	20443.275
1686.43272	20106.275
1689.69527	19848.375
1692.95567	19663.975
1696.2139	19518.175
1699.46999	19402.675
1702.72392	19280.175
1705.97571	19212.075
1709.22535	19175.875
1712.47284	19066.575
1715.71819	19014.175
1718.96139	18979.475
1722.20246	18885.675
1725.44139	18803.875
1728.67818	18692.175
1731.91284	18602.975
1735.14537	18462.675
1738.37576	18417.075
1741.60403	18316.975
1744.83017	18229.875
1748.05418	18238.175
1751.27607	18207.475
1754.49584	18149.175
1757.71349	18115.075
1760.92903	18078.875
1764.14244	18059.975
1767.35375	18054.675
1770.56294	17984.075
1773.77002	17958.075
1776.97499	17902.175
1780.17785	17818.575
1783.37861	17833.575
1786.57727	17811.075
1789.77382	17757.275
1792.96828	17763.775
1796.16064	17701.675
1799.3509	17711.375
1802.53907	17608.375
1805.72514	17572.175
1808.90913	17545.575
1812.09102	17493.075
1815.27083	17438.575
1818.44856	17395.775
1821.6242	17342.475
1824.79776	17361.275
1827.96924	17315.275
1831.13864	17294.475
1834.30597	17284.175
1837.47122	17258.975
1840.6344	17248.175
1843.7955	17230.875
1846.95454	17240.075
1850.11151	17213.275
1853.26642	17222.675
1856.41926	17189.575
1859.57004	17205.875
1862.71876	17219.275
1865.86542	17171.075
1869.01003	17175.275
1872.15258	17160.475
1875.29308	17139.275
1878.43152	17133.575
1881.56792	17139.975
1884.70227	17120.675
1887.83457	17117.475
1890.96482	17083.975
1894.09304	17105.275
1897.21921	17065.375
1900.34335	17063.475
1903.46544	17025.475
1906.58551	17043.375
1909.70353	17024.275
1912.81953	16992.475
1915.93349	16983.775
1919.04543	16927.075
1922.15534	16907.875
1925.26322	16849.775
1928.36908	16812.975
1931.47292	16760.575
1934.57473	16720.175
1937.67453	16691.975
1940.77232	16599.175
1943.86808	16541.975
1946.96184	16476.275
1950.05358	16436.375
1953.14331	16362.375
1956.23103	16317.175
1959.31675	16250.075
1962.40046	16192.375
1965.48217	16161.175
1968.56188	16126.375
1971.63959	16027.875
1974.7153	15995.875
1977.78901	15960.275
1980.86073	15910.475
1983.93046	15851.475
1986.99819	15797.575
1990.06394	15770.375
1993.1277	15712.375
1996.18947	15664.075
1999.24925	15614.375
2002.30706	15565.075
2005.36288	15496.975
2008.41672	15480.675
2011.46859	15412.375
2014.51848	15383.975
2017.56639	15367.075
2020.61233	15325.475
2023.6563	15244.175
2026.6983	15194.875
2029.73833	15178.875
2032.7764	15146.975
2035.8125	15164.875
2038.84664	15105.975
2041.87881	15094.275
2044.90903	15063.075
2047.93729	15022.975
2050.96359	15003.975
2053.98794	14973.975
2057.01034	14983.575
2060.03078	14960.675
2063.04927	14956.475
2066.06582	14933.175
2069.08042	14954.475
2072.09307	14950.975
2075.10378	14908.075
2078.11255	14871.675
2081.11938	14870.175
2084.12426	14839.775
2087.12722	14833.175
2090.12824	14817.975
2093.12732	14825.975
2096.12447	14828.075
2099.11969	14830.675
2102.11299	14790.375
2105.10435	14812.575
2108.09379	14775.775
2111.08131	14820.175
2114.0669	14807.175
2117.05057	14831.675
2120.03233	14816.175
2123.01216	14837.475
2125.99008	14850.575
2128.96609	14836.175
2131.94018	14859.775
2134.91236	14871.075
2137.88263	14844.675
2140.851	14852.975
2143.81746	14884.275
2146.78201	14860.575
2149.74466	14852.175
2152.7054	14852.475
2155.66425	14827.275
2158.6212	14819.175
2161.57625	14786.375
2164.52941	14808.775
2167.48067	14814.175
2170.43004	14765.975
2173.37752	14768.675
2176.32311	14785.275
2179.26681	14816.275
2182.20863	14805.875
2185.14856	14808.775
2188.08661	14821.675
2191.02278	14835.875
2193.95707	14773.775
2196.88948	14749.975
2199.82001	14737.275
2202.74867	14690.975
2205.67545	14694.575
2208.60037	14665.375
2211.52341	14647.575
2214.44458	14621.075
2217.36388	14600.075
2220.28132	14544.475
2223.1969	14500.075
2226.11061	14537.075
2229.02246	14501.175
2231.93245	14491.275
2234.84058	14436.275
2237.74686	14411.375
2240.65128	14400.575
2243.55385	14361.575
2246.45456	14382.475
2249.35343	14330.775
2252.25044	14288.575
2255.14561	14277.975
2258.03893	14221.675
2260.93041	14183.475
2263.82004	14135.475
2266.70783	14120.175
2269.59378	14058.275
2272.4779	14054.575
2275.36017	13964.875
2278.24061	13959.175
2281.11922	13950.375
2283.996	13926.875
2286.87094	13904.075
2289.74405	13859.475
2292.61534	13857.975
2295.4848	13848.975
2298.35243	13827.675
2301.21824	13852.175
2304.08223	13888.175
2306.94439	13838.275
2309.80474	13859.075
2312.66327	13819.775
2315.51999	13805.375
2318.37489	13829.775
2321.22797	13801.175
2324.07925	13761.075
2326.92871	13752.975
2329.77637	13747.975
2332.62222	13737.675
2335.46626	13722.375
2338.3085	13693.075
2341.14893	13709.675
2343.98756	13687.775
2346.8244	13692.275
2349.65943	13669.975
2352.49267	13656.675
2355.32411	13681.175
2358.15376	13693.775
2360.98161	13653.875
2363.80768	13654.775
2366.63195	13676.175
2369.45444	13625.875
2372.27514	13637.175
2375.09405	13576.875
2377.91118	13536.675
2380.72652	13524.075
2383.54009	13504.475
2386.35187	13470.775
2389.16188	13449.075
2391.97011	13387.775
2394.77657	13403.075
2397.58125	13350.975
2400.38416	13334.275
2403.18529	13301.275
2405.98466	13291.975
2408.78226	13291.075
2411.57809	13279.675
2414.37216	13259.875
2417.16446	13246.675
2419.955	13225.075
2422.74378	13226.375
2425.5308	13200.575
2428.31606	13163.675
2431.09956	13156.875
2433.88131	13145.975
2436.6613	13144.075
2439.43954	13160.375
2442.21603	13147.975
2444.99077	13131.175
2447.76377	13141.975
2450.53501	13115.475
2453.30451	13097.875
2456.07226	13101.475
2458.83827	13085.075
2461.60254	13080.175
2464.36507	13091.075
2467.12586	13110.175
2469.88492	13073.375
2472.64224	13094.475
2475.39782	13082.875
2478.15167	13111.575
2480.90379	13124.775
2483.65417	13111.175
2486.40283	13107.175
2489.14976	13126.175
2491.89497	13134.175
2494.63845	13140.675
2497.3802	13127.375
2500.12024	13148.975
2502.85855	13106.175
2505.59514	13110.175
2508.33002	13075.975
2511.06318	13117.275
2513.79462	13087.275
2516.52435	13055.675
2519.25237	13052.275
2521.97867	13022.175
2524.70327	13030.075
2527.42616	12999.775
2530.14734	13035.075
2532.86681	13009.875
2535.58458	12978.275
2538.30065	12994.375
2541.01501	12984.475
2543.72768	12957.475
2546.43864	12951.875
2549.14791	12959.875
2551.85548	12941.075
2554.56136	12913.075
2557.26554	12883.675
2559.96803	12865.775
2562.66883	12849.775
2565.36794	12845.775
2568.06536	12859.875
2570.7611	12844.575
2573.45514	12819.675
2576.14751	12818.775
2578.83819	12786.975
2581.52719	12807.475
2584.21451	12792.275
2586.90015	12805.375
2589.58411	12800.075
2592.2664	12795.475
2594.94701	12778.075
2597.62594	12782.975
2600.30321	12754.075
2602.9788	12775.975
2605.65273	12771.475
2608.32498	12786.275
2610.99557	12774.675
2613.66449	12783.975
2616.33175	12772.475
2618.99734	12764.375
2621.66128	12764.075
2624.32355	12758.175
2626.98416	12770.075
2629.64311	12756.475
2632.30041	12745.475
2634.95605	12744.975
2637.61004	12746.475
2640.26238	12719.175
2642.91306	12714.475
2645.56209	12696.975
2648.20948	12722.075
2650.85521	12713.175
2653.4993	12733.075
2656.14175	12718.475
2658.78255	12752.875
2661.42171	12760.175
2664.05923	12756.775
2666.6951	12769.375
2669.32934	12752.075
2671.96194	12768.075
2674.59291	12736.675
2677.22224	12741.875
2679.84993	12747.475
2682.476	12714.275
2685.10043	12725.275
2687.72324	12688.475
2690.34441	12689.475
2692.96396	12701.175
2695.58188	12693.375
2698.19818	12703.475
2700.81285	12741.275
2703.4259	12708.075
2706.03733	12719.975
2708.64714	12721.175
2711.25533	12755.675
2713.86191	12759.975
2716.46687	12750.275
2719.07021	12758.175
2721.67194	12784.775
2724.27206	12802.675
2726.87057	12793.775
2729.46747	12804.875
2732.06276	12820.275
2734.65644	12800.875
2737.24852	12795.275
2739.83899	12791.075
2742.42786	12795.575
2745.01513	12796.475
2747.60079	12776.075
2750.18486	12745.575
2752.76733	12766.175
2755.3482	12759.275
2757.92747	12761.775
2760.50515	12769.475
2763.08123	12765.075
2765.65573	12761.175
2768.22863	12746.875
2770.79994	12740.675
2773.36967	12760.875
2775.9378	12751.375
2778.50435	12781.475
2781.06932	12778.175
2783.6327	12781.175
2786.1945	12732.575
2788.75471	12769.375
2791.31335	12764.675
2793.87041	12738.175
2796.42589	12718.475
2798.97979	12712.075
2801.53212	12669.675
2804.08288	12650.775
2806.63206	12640.175
2809.17967	12616.375
2811.72571	12595.775
2814.27018	12599.275
2816.81308	12533.175
2819.35442	12506.675
2821.89419	12507.675
2824.43239	12490.175
2826.96904	12480.775
2829.50412	12476.575
2832.03763	12446.075
2834.56959	12455.775
2837.1	12400.375
2839.62884	12447.475
2842.15613	12425.975
2844.68186	12511.475
2847.20604	12515.075
2849.72867	12500.375
2852.24974	12498.875
2854.76927	12481.375
2857.28724	12493.475
2859.80367	12490.175
2862.31855	12451.575
2864.83189	12404.875
2867.34368	12420.575
2869.85393	12389.875
2872.36264	12411.075
2874.8698	12406.275
2877.37543	12385.375
2879.87952	12377.775
2882.38207	12389.375
2884.88308	12399.075
2887.38256	12429.075
2889.88051	12414.875
2892.37692	12420.975
2894.8718	12418.975
2897.36515	12419.175
2899.85698	12436.775
2902.34727	12444.575
2904.83604	12475.375
2907.32328	12497.075
2909.809	12501.775
2912.29319	12491.775
2914.77587	12489.275
2917.25702	12481.075
2919.73665	12472.975
2922.21476	12427.375
2924.69136	12484.875
2927.16644	12482.175
2929.64	12479.975
2932.11205	12426.075
2934.58258	12393.975
2937.05161	12410.175
2939.51912	12405.575
2941.98513	12379.575
2944.44962	12345.175
2946.91261	12312.975
2949.37409	12298.675
2951.83407	12286.075
2954.29254	12277.975
2956.74951	12264.275
2959.20498	12245.975
2961.65895	12222.475
2964.11142	12216.875
2966.56239	12162.275
2969.01186	12195.475
2971.45984	12149.775
2973.90632	12109.575
2976.35131	12082.375
2978.7948	12035.475
2981.23681	12028.875
2983.67732	12000.375
2986.11635	11969.175
2988.55388	11911.575
2990.98993	11897.475
2993.4245	11848.475
2995.85758	11831.375
2998.28917	11781.375
3000.71928	11808.175
3003.14791	11749.875
3005.57506	11722.275
3008.00073	11705.175
3010.42493	11695.475
3012.84764	11653.375
3015.26888	11624.775
3017.68865	11583.475
3020.10694	11548.875
3022.52376	11541.175
3024.9391	11548.275
3027.35298	11522.575
3029.76539	11494.975
3032.17632	11506.775
3034.5858	11480.475
3036.9938	11468.475
3039.40034	11467.475
3041.80542	11477.575
3044.20903	11446.975
3046.61118	11478.875
3049.01187	11435.275
3051.4111	11415.075
3053.80888	11392.075
3056.20519	11364.175
3058.60005	11342.775
3060.99345	11300.675
3063.3854	11288.175
3065.7759	11221.375
3068.16494	11172.775
3070.55254	11121.875
3072.93868	11103.675
3075.32338	11059.575
3077.70662	11018.875
3080.08842	10992.375
3082.46878	10983.075
3084.84769	10952.475
3087.22515	10966.475
3089.60118	10954.375
3091.97576	10954.675
3094.3489	10972.075
3096.72061	10960.975
3099.09087	10955.675
3101.4597	10934.975
3103.82709	10921.175
3106.19305	10891.375
3108.55757	10891.975
3110.92066	10841.175
3113.28232	10836.175
3115.64255	10770.975
3118.00134	10775.675
3120.35871	10755.175
3122.71466	10711.175
3125.06917	10721.375
3127.42226	10649.075
