Data from AgNPs_FTO_APTES_UA_5uM_CRN_0uM_R6G_10uM_NaF_0.1M_Addition_RamanShift__2__09-41-06-521.txt Node

Date: Mon Feb 07 09:41:06 GMT 2022
User: TCL
Spectrometer: QEP01345
Trigger mode: 4
Integration Time (sec): 7.000000E0
Scans to average: 10
Electric dark correction enabled: true
Nonlinearity correction enabled: false
Boxcar width: 0
XAxis mode: Raman Shifts
Number of Pixels in Spectrum: 1044
>>>>>Begin Spectral Data<<<<<
46.04893	-1.35
50.45542	-1.45
54.85868	0.15
59.25871	1.35
63.6555	73.45
68.04907	77.85
72.43941	82.15
76.82654	85.85
81.21044	86.05
85.59113	85.95
89.96862	93.05
94.34289	93.75
98.71396	102.05
103.08183	103.75
107.4465	104.75
111.80798	109.05
116.16626	110.35
120.52136	118.45
124.87327	125.25
129.222	134.85
133.56755	142.65
137.90993	155.55
142.24913	172.75
146.58517	197.75
150.91804	229.45
155.24774	282.45
159.57429	349.85
163.89768	463.25
168.21792	621.25
172.53501	859.65
176.84895	1193.85
181.15975	1674.25
185.46741	2353.55
189.77193	3241.35
194.07331	4331.35
198.37157	5563.55
202.6667	6864.45
206.9587	8164.25
211.24758	9461.95
215.53334	10771.55
219.81599	12189.15
224.09553	13778.05
228.37195	15568.75
232.64527	17494.95
236.91549	19444.05
241.18261	21424.05
245.44663	23182.65
249.70755	24680.55
253.96539	26034.15
258.22014	27142.65
262.4718	28028.75
266.72039	28622.95
270.96589	28931.85
275.20832	28909.45
279.44768	28697.35
283.68397	28488.85
287.91719	28386.65
292.14735	28390.25
296.37445	28437.25
300.59849	28563.65
304.81948	28832.35
309.03742	29079.15
313.25231	29043.35
317.46415	28321.35
321.67296	27089.65
325.87872	25792.25
330.08145	24966.25
334.28114	24625.25
338.47781	24702.85
342.67145	24905.15
346.86207	25320.05
351.04966	25814.45
355.23424	26475.75
359.4158	27044.35
363.59435	27463.15
367.76989	27643.85
371.94243	27665.45
376.11196	27514.55
380.27849	27338.45
384.44203	27182.65
388.60257	27275.25
392.76012	27630.55
396.91468	28170.75
401.06626	28877.35
405.21485	29370.05
409.36047	29238.35
413.50311	28674.35
417.64277	28325.95
421.77947	28305.25
425.9132	28334.15
430.04396	28311.95
434.17176	28163.05
438.2966	27856.55
442.41849	27863.55
446.53742	28365.85
450.6534	29116.45
454.76644	29737.35
458.87653	29994.75
462.98368	29931.05
467.08789	29583.85
471.18916	29104.45
475.2875	28701.05
479.38291	28689.75
483.4754	28981.65
487.56496	29162.55
491.6516	29093.75
495.73531	28786.65
499.81612	28642.65
503.89401	28656.35
507.96899	28554.25
512.04106	28136.25
516.11023	27418.85
520.1765	26637.85
524.23987	25931.25
528.30034	25434.95
532.35792	24957.15
536.41261	24435.55
540.46441	24051.95
544.51333	24022.55
548.55936	24431.85
552.60252	25389.25
556.64279	26394.85
560.6802	26988.45
564.71473	27439.65
568.7464	28364.35
572.7752	29952.35
576.80114	31742.85
580.82422	33648.15
584.84444	35989.85
588.86181	38088.65
592.87633	38584.25
596.888	36902.95
600.89682	34282.55
604.9028	33872.85
608.90594	37014.45
612.90624	40776.65
616.90371	38096.55
620.89834	29786.45
624.89015	25511.05
628.87913	25048.05
632.86528	25604.95
636.84862	25941.15
640.82913	25394.25
644.80683	24298.55
648.78172	23565.25
652.75379	23514.55
656.72306	23921.35
660.68952	24341.15
664.65319	24121.05
668.61405	23442.45
672.57211	23174.25
676.52738	23157.55
680.47986	23101.75
684.42955	22803.65
688.37646	22491.65
692.32058	22648.45
696.26192	23150.75
700.20048	23711.35
704.13626	24228.25
708.06928	24548.55
711.99952	24635.65
715.927	24513.65
719.85171	24632.95
723.77365	24506.05
727.69284	23966.05
731.60928	23233.35
735.52295	22880.35
739.43388	22754.95
743.34206	22820.55
747.24749	23045.95
751.15017	23526.25
755.05012	24248.75
758.94733	25526.35
762.8418	27604.85
766.73354	30895.55
770.62254	33861.05
774.50882	33874.05
778.39237	31144.25
782.27321	27943.75
786.15132	25429.15
790.02671	23765.45
793.89938	22887.65
797.76935	22514.35
801.6366	22406.35
805.50115	22326.65
809.36299	22244.85
813.22213	22059.05
817.07857	21903.25
820.93231	21716.15
824.78336	21502.55
828.63172	21309.75
832.47738	21192.75
836.32036	21179.45
840.16066	21183.15
843.99827	21214.35
847.8332	21235.25
851.66546	21220.85
855.49504	21249.35
859.32195	21254.35
863.1462	21163.65
866.96777	21009.85
870.78668	20960.15
874.60293	20903.15
878.41652	20818.75
882.22745	20877.15
886.03573	20966.85
889.84136	20982.15
893.64433	20941.35
897.44466	20917.35
901.24235	20911.55
905.0374	20803.15
908.8298	20685.25
912.61957	20646.35
916.40671	20911.45
920.19121	21510.45
923.97308	22166.25
927.75233	22450.35
931.52895	22203.95
935.30295	21470.25
939.07433	20593.65
942.84309	19896.35
946.60924	19505.35
950.37278	19397.05
954.13371	19436.55
957.89203	19474.95
961.64774	19491.45
965.40086	19538.75
969.15137	19578.05
972.89929	19450.55
976.64461	19289.15
980.38733	19192.05
984.12747	19108.65
987.86502	19133.85
991.59999	19194.05
995.33237	19399.15
999.06217	19759.55
1002.78939	20219.65
1006.51404	20666.85
1010.23611	21129.75
1013.95561	21587.25
1017.67255	21728.05
1021.38692	21474.55
1025.09872	20950.35
1028.80796	20573.45
1032.51465	20629.15
1036.21877	20968.85
1039.92035	21187.65
1043.61937	21300.45
1047.31584	21202.95
1051.00976	21130.15
1054.70114	21177.45
1058.38998	21339.25
1062.07627	21614.85
1065.76003	22035.05
1069.44126	22724.75
1073.11995	23776.75
1076.79611	24717.75
1080.46974	25097.25
1084.14085	25103.55
1087.80943	25466.55
1091.47549	26000.85
1095.13903	26353.15
1098.80005	25969.65
1102.45857	24549.35
1106.11456	22992.35
1109.76805	21999.35
1113.41903	21602.35
1117.06751	21595.85
1120.71348	21915.35
1124.35696	22318.05
1127.99793	22899.95
1131.63641	23420.65
1135.2724	23551.75
1138.90589	23473.25
1142.5369	23526.45
1146.16542	23670.85
1149.79145	23895.65
1153.415	24224.75
1157.03607	24938.05
1160.65467	26199.25
1164.27079	28293.25
1167.88443	30804.35
1171.49561	33305.65
1175.10432	36235.65
1178.71056	39896.65
1182.31434	43192.45
1185.91565	44704.65
1189.51451	44489.05
1193.11091	42928.55
1196.70485	40530.35
1200.29634	38065.45
1203.88538	36519.25
1207.47197	35867.55
1211.05612	35432.85
1214.63782	34725.95
1218.21708	33445.65
1221.79391	31905.45
1225.36829	30690.25
1228.94024	29789.15
1232.50976	29060.15
1236.07685	28430.85
1239.6415	28058.75
1243.20374	27941.75
1246.76355	28174.95
1250.32093	28686.35
1253.8759	29544.05
1257.42845	30905.55
1260.97859	32465.15
1264.52631	34079.85
1268.07163	35620.75
1271.61453	37201.15
1275.15503	38906.15
1278.69312	40761.75
1282.22882	42748.05
1285.76211	45234.85
1289.29301	48130.25
1292.82151	51211.95
1296.34761	54647.35
1299.87133	58736.95
1303.39266	63019.55
1306.9116	66773.75
1310.42815	69146.55
1313.94233	69914.45
1317.45412	69206.95
1320.96354	68302.15
1324.47058	68235.85
1327.97525	68621.35
1331.47754	68526.95
1334.97747	67513.95
1338.47502	65353.85
1341.97022	62690.15
1345.46305	59959.85
1348.95352	57553.15
1352.44163	56168.55
1355.92738	56664.95
1359.41078	59547.95
1362.89183	63589.55
1366.37053	65468.45
1369.84688	62475.15
1373.32088	55572.85
1376.79254	48863.15
1380.26186	45048.75
1383.72883	43891.55
1387.19347	43643.65
1390.65578	43071.15
1394.11575	42653.25
1397.57339	43240.75
1401.0287	44555.95
1404.48168	45754.55
1407.93234	45618.55
1411.38068	43911.15
1414.82669	41238.35
1418.27039	38294.85
1421.71177	35676.45
1425.15083	33596.35
1428.58758	32469.95
1432.02203	32678.55
1435.45416	33838.95
1438.88399	35440.25
1442.31151	36782.85
1445.73673	37701.25
1449.15965	38468.55
1452.58027	38761.45
1455.9986	38703.35
1459.41463	38760.35
1462.82837	39424.85
1466.23982	40619.85
1469.64898	41804.65
1473.05586	42570.85
1476.46045	42794.55
1479.86276	42738.85
1483.26279	42615.15
1486.66054	42778.15
1490.05602	43551.05
1493.44922	44707.75
1496.84016	46179.75
1500.22882	48007.75
1503.61521	50186.35
1506.99934	52844.05
1510.38121	55158.65
1513.76081	56229.85
1517.13816	55499.75
1520.51324	53632.05
1523.88607	51757.45
1527.25665	50502.55
1530.62498	49498.25
1533.99105	48373.55
1537.35488	46809.05
1540.71647	44717.45
1544.07581	42310.65
1547.4329	39956.45
1550.78776	38150.25
1554.14038	36968.05
1557.49077	36626.75
1560.83892	36702.35
1564.18484	37051.15
1567.52853	37426.15
1570.86999	37841.15
1574.20922	38398.05
1577.54624	39024.75
1580.88103	39090.45
1584.2136	39338.15
1587.54395	41112.25
1590.87208	44589.35
1594.19801	48435.55
1597.52172	51421.55
1600.84321	51169.35
1604.16251	46959.55
1607.47959	41157.15
1610.79447	36000.45
1614.10715	31763.35
1617.41763	28557.25
1620.7259	26400.85
1624.03199	25292.35
1627.33587	25317.35
1630.63757	26366.35
1633.93707	28771.05
1637.23439	33036.25
1640.52951	39717.35
1643.82246	48557.05
1647.11321	57055.35
1650.40179	60856.95
1653.68819	57416.55
1656.97241	48772.35
1660.25446	38936.85
1663.53433	31035.75
1666.81203	25762.05
1670.08756	22579.15
1673.36092	20644.45
1676.63211	19458.35
1679.90115	18680.45
1683.16801	18095.15
1686.43272	17698.25
1689.69527	17389.55
1692.95567	17137.25
1696.2139	16973.25
1699.46999	16811.45
1702.72392	16731.85
1705.97571	16611.05
1709.22535	16535.05
1712.47284	16408.05
1715.71819	16330.15
1718.96139	16233.35
1722.20246	16112.65
1725.44139	15981.05
1728.67818	15834.15
1731.91284	15652.15
1735.14537	15544.35
1738.37576	15400.75
1741.60403	15323.95
1744.83017	15194.45
1748.05418	15136.05
1751.27607	15098.05
1754.49584	15040.65
1757.71349	14994.05
1760.92903	14936.05
1764.14244	14935.75
1767.35375	14896.45
1770.56294	14865.55
1773.77002	14829.45
1776.97499	14760.45
1780.17785	14735.95
1783.37861	14696.05
1786.57727	14634.95
1789.77382	14571.45
1792.96828	14534.15
1796.16064	14488.85
1799.3509	14458.35
1802.53907	14380.15
1805.72514	14311.55
1808.90913	14270.75
1812.09102	14207.15
1815.27083	14183.65
1818.44856	14168.85
1821.6242	14110.45
1824.79776	14053.45
1827.96924	14010.35
1831.13864	13980.85
1834.30597	13972.25
1837.47122	13993.25
1840.6344	13978.25
1843.7955	13975.75
1846.95454	13962.55
1850.11151	13944.45
1853.26642	13922.35
1856.41926	13918.05
1859.57004	13887.85
1862.71876	13861.05
1865.86542	13826.75
1869.01003	13795.65
1872.15258	13759.95
1875.29308	13720.35
1878.43152	13698.15
1881.56792	13702.45
1884.70227	13652.55
1887.83457	13677.15
1890.96482	13658.05
1894.09304	13625.05
1897.21921	13583.55
1900.34335	13560.35
1903.46544	13551.25
1906.58551	13534.35
1909.70353	13491.35
1912.81953	13437.55
1915.93349	13412.35
1919.04543	13389.25
1922.15534	13363.95
1925.26322	13308.25
1928.36908	13250.25
1931.47292	13204.75
1934.57473	13153.35
1937.67453	13121.15
1940.77232	13064.95
1943.86808	13004.75
1946.96184	12985.45
1950.05358	12951.75
1953.14331	12904.95
1956.23103	12899.15
1959.31675	12885.55
1962.40046	12766.35
1965.48217	12745.95
1968.56188	12714.45
1971.63959	12663.05
1974.7153	12611.05
1977.78901	12531.65
1980.86073	12505.45
1983.93046	12459.65
1986.99819	12425.15
1990.06394	12365.35
1993.1277	12340.25
1996.18947	12281.25
1999.24925	12250.55
2002.30706	12210.15
2005.36288	12153.75
2008.41672	12135.35
2011.46859	12062.55
2014.51848	12037.05
2017.56639	12010.85
2020.61233	11986.45
2023.6563	11928.85
2026.6983	11917.05
2029.73833	11890.35
2032.7764	11851.45
2035.8125	11819.85
2038.84664	11788.05
2041.87881	11751.65
2044.90903	11729.85
2047.93729	11708.95
2050.96359	11716.25
2053.98794	11680.85
2057.01034	11679.85
2060.03078	11646.05
2063.04927	11650.15
2066.06582	11616.45
2069.08042	11621.05
2072.09307	11621.75
2075.10378	11577.25
2078.11255	11580.95
2081.11938	11555.95
2084.12426	11534.05
2087.12722	11523.75
2090.12824	11569.65
2093.12732	11571.65
2096.12447	11521.55
2099.11969	11533.15
2102.11299	11531.05
2105.10435	11532.05
2108.09379	11512.15
2111.08131	11517.75
2114.0669	11537.05
2117.05057	11528.75
2120.03233	11537.45
2123.01216	11558.25
2125.99008	11556.55
2128.96609	11556.55
2131.94018	11550.65
2134.91236	11512.85
2137.88263	11522.75
2140.851	11503.75
2143.81746	11519.65
2146.78201	11527.05
2149.74466	11512.65
2152.7054	11484.95
2155.66425	11462.65
2158.6212	11445.65
2161.57625	11422.15
2164.52941	11437.25
2167.48067	11418.55
2170.43004	11407.85
2173.37752	11391.85
2176.32311	11386.75
2179.26681	11399.65
2182.20863	11392.85
2185.14856	11396.05
2188.08661	11382.25
2191.02278	11389.25
2193.95707	11351.75
2196.88948	11330.85
2199.82001	11334.75
2202.74867	11270.75
2205.67545	11250.55
2208.60037	11242.05
2211.52341	11242.85
2214.44458	11227.95
2217.36388	11193.75
2220.28132	11172.55
2223.1969	11143.75
2226.11061	11161.35
2229.02246	11158.45
2231.93245	11152.85
2234.84058	11102.35
2237.74686	11084.25
2240.65128	11059.15
2243.55385	11046.35
2246.45456	11001.35
2249.35343	10985.25
2252.25044	10973.55
2255.14561	10919.65
2258.03893	10901.85
2260.93041	10865.85
2263.82004	10858.45
2266.70783	10826.35
2269.59378	10785.35
2272.4779	10709.35
2275.36017	10723.65
2278.24061	10720.35
2281.11922	10703.15
2283.996	10663.65
2286.87094	10643.15
2289.74405	10634.55
2292.61534	10625.25
2295.4848	10561.65
2298.35243	10561.45
2301.21824	10592.55
2304.08223	10611.65
2306.94439	10592.25
2309.80474	10564.55
2312.66327	10573.55
2315.51999	10556.15
2318.37489	10553.55
2321.22797	10514.95
2324.07925	10480.25
2326.92871	10463.95
2329.77637	10473.55
2332.62222	10462.25
2335.46626	10490.75
2338.3085	10482.15
2341.14893	10467.05
2343.98756	10487.45
2346.8244	10482.85
2349.65943	10490.55
2352.49267	10516.05
2355.32411	10491.95
2358.15376	10526.25
2360.98161	10507.85
2363.80768	10500.55
2366.63195	10515.15
2369.45444	10491.95
2372.27514	10489.85
2375.09405	10444.85
2377.91118	10421.75
2380.72652	10408.25
2383.54009	10345.05
2386.35187	10335.45
2389.16188	10292.75
2391.97011	10233.15
2394.77657	10233.05
2397.58125	10199.55
2400.38416	10183.95
2403.18529	10177.95
2405.98466	10128.25
2408.78226	10124.45
2411.57809	10104.35
2414.37216	10107.55
2417.16446	10097.15
2419.955	10082.45
2422.74378	10092.05
2425.5308	10072.75
2428.31606	10070.25
2431.09956	10067.45
2433.88131	10055.55
2436.6613	10099.45
2439.43954	10055.25
2442.21603	10055.65
2444.99077	10059.75
2447.76377	10085.65
2450.53501	10072.65
2453.30451	10059.05
2456.07226	10061.25
2458.83827	10068.05
2461.60254	10059.95
2464.36507	10042.15
2467.12586	10040.65
2469.88492	10041.85
2472.64224	10077.65
2475.39782	10075.95
2478.15167	10092.05
2480.90379	10085.15
2483.65417	10115.75
2486.40283	10112.45
2489.14976	10095.85
2491.89497	10107.05
2494.63845	10082.05
2497.3802	10075.25
2500.12024	10079.85
2502.85855	10085.85
2505.59514	10075.65
2508.33002	10030.25
2511.06318	9998.55
2513.79462	9997.65
2516.52435	9965.15
2519.25237	9986.65
2521.97867	9958.25
2524.70327	9945.45
2527.42616	9916.85
2530.14734	9932.95
2532.86681	9905.45
2535.58458	9933.65
2538.30065	9915.45
2541.01501	9910.75
2543.72768	9910.55
2546.43864	9887.85
2549.14791	9868.95
2551.85548	9876.45
2554.56136	9864.55
2557.26554	9856.35
2559.96803	9861.05
2562.66883	9865.55
2565.36794	9846.35
2568.06536	9832.55
2570.7611	9831.85
2573.45514	9840.25
2576.14751	9836.75
2578.83819	9813.05
2581.52719	9809.25
2584.21451	9803.55
2586.90015	9800.75
2589.58411	9804.65
2592.2664	9790.55
2594.94701	9778.95
2597.62594	9775.85
2600.30321	9771.05
2602.9788	9785.55
2605.65273	9771.95
2608.32498	9778.55
2610.99557	9791.45
2613.66449	9799.95
2616.33175	9779.05
2618.99734	9788.35
2621.66128	9790.55
2624.32355	9761.85
2626.98416	9724.65
2629.64311	9715.85
2632.30041	9734.85
2634.95605	9737.65
2637.61004	9710.45
2640.26238	9709.35
2642.91306	9715.75
2645.56209	9725.35
2648.20948	9703.75
2650.85521	9717.65
2653.4993	9726.95
2656.14175	9724.95
2658.78255	9730.55
2661.42171	9742.75
2664.05923	9736.55
2666.6951	9757.25
2669.32934	9764.25
2671.96194	9759.55
2674.59291	9779.15
2677.22224	9752.15
2679.84993	9775.05
2682.476	9743.55
2685.10043	9742.05
2687.72324	9733.95
2690.34441	9718.55
2692.96396	9735.05
2695.58188	9728.65
2698.19818	9706.85
2700.81285	9722.75
2703.4259	9687.35
2706.03733	9720.45
2708.64714	9721.75
2711.25533	9728.45
2713.86191	9690.35
2716.46687	9713.95
2719.07021	9749.15
2721.67194	9766.55
2724.27206	9746.25
2726.87057	9774.65
2729.46747	9800.85
2732.06276	9778.15
2734.65644	9800.85
2737.24852	9804.25
2739.83899	9771.55
2742.42786	9781.45
2745.01513	9791.85
2747.60079	9761.65
2750.18486	9728.15
2752.76733	9739.45
2755.3482	9723.45
2757.92747	9716.55
2760.50515	9713.25
2763.08123	9722.45
2765.65573	9717.55
2768.22863	9701.35
2770.79994	9687.25
2773.36967	9730.65
2775.9378	9740.95
2778.50435	9731.55
2781.06932	9711.85
2783.6327	9730.15
2786.1945	9742.45
2788.75471	9759.75
2791.31335	9724.85
2793.87041	9734.15
2796.42589	9720.25
2798.97979	9735.05
2801.53212	9709.25
2804.08288	9697.15
2806.63206	9691.65
2809.17967	9636.45
2811.72571	9616.15
2814.27018	9641.75
2816.81308	9610.95
2819.35442	9587.35
2821.89419	9576.55
2824.43239	9582.55
2826.96904	9604.65
2829.50412	9600.85
2832.03763	9592.95
2834.56959	9552.55
2837.1	9560.95
2839.62884	9563.85
2842.15613	9540.95
2844.68186	9584.95
2847.20604	9608.25
2849.72867	9625.75
2852.24974	9614.95
2854.76927	9611.35
2857.28724	9624.95
2859.80367	9593.65
2862.31855	9575.05
2864.83189	9600.55
2867.34368	9592.85
2869.85393	9576.25
2872.36264	9540.75
2874.8698	9567.85
2877.37543	9569.75
2879.87952	9587.15
2882.38207	9577.15
2884.88308	9585.75
2887.38256	9602.45
2889.88051	9597.05
2892.37692	9622.25
2894.8718	9632.05
2897.36515	9612.95
2899.85698	9659.15
2902.34727	9686.45
2904.83604	9641.95
2907.32328	9702.95
2909.809	9662.95
2912.29319	9685.95
2914.77587	9675.75
2917.25702	9677.65
2919.73665	9676.45
2922.21476	9672.75
2924.69136	9661.35
2927.16644	9671.45
2929.64	9671.15
2932.11205	9640.65
2934.58258	9623.15
2937.05161	9609.85
2939.51912	9604.65
2941.98513	9564.45
2944.44962	9547.55
2946.91261	9499.45
2949.37409	9509.05
2951.83407	9490.25
2954.29254	9443.25
2956.74951	9408.75
2959.20498	9403.95
2961.65895	9412.75
2964.11142	9379.25
2966.56239	9391.55
2969.01186	9362.55
2971.45984	9286.35
2973.90632	9306.65
2976.35131	9299.65
2978.7948	9256.45
2981.23681	9229.25
2983.67732	9194.95
2986.11635	9158.25
2988.55388	9138.55
2990.98993	9131.05
2993.4245	9078.15
2995.85758	9063.55
2998.28917	9030.35
3000.71928	8992.45
3003.14791	8983.15
3005.57506	8989.65
3008.00073	8937.65
3010.42493	8940.45
3012.84764	8932.85
3015.26888	8923.95
3017.68865	8886.55
3020.10694	8860.45
3022.52376	8782.65
3024.9391	8788.65
3027.35298	8797.15
3029.76539	8789.25
3032.17632	8802.15
3034.5858	8784.35
3036.9938	8793.85
3039.40034	8784.65
3041.80542	8779.15
3044.20903	8764.55
3046.61118	8769.75
3049.01187	8725.35
3051.4111	8742.95
3053.80888	8748.25
3056.20519	8690.85
3058.60005	8633.05
3060.99345	8634.65
3063.3854	8601.45
3065.7759	8568.15
3068.16494	8532.05
3070.55254	8508.85
3072.93868	8472.25
3075.32338	8457.85
3077.70662	8408.05
3080.08842	8383.35
3082.46878	8358.45
3084.84769	8339.55
3087.22515	8338.45
3089.60118	8303.45
3091.97576	8336.35
3094.3489	8342.75
3096.72061	8322.75
3099.09087	8309.75
3101.4597	8284.05
3103.82709	8294.95
3106.19305	8301.05
3108.55757	8287.25
3110.92066	8257.25
3113.28232	8245.15
3115.64255	8213.25
3118.00134	8193.25
3120.35871	8211.85
3122.71466	8172.85
3125.06917	8180.15
3127.42226	8165.85
3129.77393	8175.25
3132.12417	8169.15
3134.47299	8156.85
3136.82039	8129.85
3139.16636	8126.35
3141.51092	8141.15
3143.85406	8133.65
3146.19579	8119.45
3148.53609	8104.75
3150.87499	8125.25
3153.21246	8091.75
3155.54853	8125.55
3157.88318	8123.15
3160.21642	8116.95
3162.54826	8130.15
3164.87868	8119.55
3167.2077	8134.65
3169.5353	8121.25
3171.86151	8132.75
3174.18631	8138.35
3176.5097	8131.75
3178.83169	8117.05
3181.15228	8109.25
3183.47147	8079.95
3185.78926	8092.25
3188.10565	8080.65
3190.42065	8061.15
3192.73424	8074.15
3195.04645	8059.75
3197.35725	8025.85
3199.66667	8028.45
3201.97469	8018.05
3204.28132	8002.05
3206.58656	8005.35
3208.8904	8016.15
3211.19287	8017.85
3213.49394	8020.45
3215.79363	8020.85
3218.09193	8023.55
3220.38884	8030.65
3222.68438	8032.05
3224.97853	8015.35
3227.2713	8015.35
3229.56269	8008.35
3231.8527	8003.05
3234.14133	7992.95
3236.42858	7994.35
3238.71446	7994.95
3240.99896	7979.95
3243.28209	7979.65
3245.56384	7946.35
3247.84423	7931.55
3250.12324	7926.95
3252.40088	7903.75
3254.67715	7905.15
3256.95205	7895.25
3259.22558	7877.85
3261.49775	7870.55
3263.76855	7869.05
3266.03799	7822.65
3268.30606	7836.75
3270.57277	7818.85
3272.83812	7794.35
