Data from AgNPs_FTO_APTES_UA_5uM_CRN_20uM_R6G_10uM_NaF_0.1M_Addition_RamanShift__31__13-39-06-798.txt Node

Date: Mon Feb 07 13:39:06 GMT 2022
User: TCL
Spectrometer: QEP01345
Trigger mode: 4
Integration Time (sec): 7.000000E0
Scans to average: 10
Electric dark correction enabled: true
Nonlinearity correction enabled: false
Boxcar width: 0
XAxis mode: Raman Shifts
Number of Pixels in Spectrum: 1044
>>>>>Begin Spectral Data<<<<<
46.04893	-0.125
50.45542	-1.925
54.85868	0.475
59.25871	0.675
63.6555	45.975
68.04907	48.775
72.43941	52.375
76.82654	56.275
81.21044	53.875
85.59113	57.275
89.96862	59.275
94.34289	60.675
98.71396	65.575
103.08183	66.575
107.4465	70.075
111.80798	70.275
116.16626	72.575
120.52136	76.775
124.87327	80.475
129.222	83.075
133.56755	88.275
137.90993	97.575
142.24913	101.075
146.58517	122.075
150.91804	131.375
155.24774	162.975
159.57429	202.075
163.89768	265.475
168.21792	358.375
172.53501	475.075
176.84895	662.675
181.15975	926.075
185.46741	1299.175
189.77193	1785.075
194.07331	2377.175
198.37157	3067.275
202.6667	3796.775
206.9587	4493.975
211.24758	5221.075
215.53334	6015.275
219.81599	6859.175
224.09553	7871.575
228.37195	8992.375
232.64527	10190.175
236.91549	11371.975
241.18261	12387.675
245.44663	13216.175
249.70755	13806.375
253.96539	14288.375
258.22014	14758.175
262.4718	15222.875
266.72039	15562.875
270.96589	15848.375
275.20832	15922.075
279.44768	15869.075
283.68397	15759.375
287.91719	15734.375
292.14735	15907.175
296.37445	16374.075
300.59849	17035.075
304.81948	17860.575
309.03742	18435.075
313.25231	18364.775
317.46415	17326.375
321.67296	15724.775
325.87872	14319.875
330.08145	13620.675
334.28114	13480.275
338.47781	13724.375
342.67145	14175.975
346.86207	14889.575
351.04966	15947.975
355.23424	17160.375
359.4158	18027.275
363.59435	18368.875
367.76989	18326.875
371.94243	18166.575
376.11196	17921.575
380.27849	17699.275
384.44203	17405.075
388.60257	17043.275
392.76012	16871.175
396.91468	17063.775
401.06626	17615.675
405.21485	18115.675
409.36047	17689.475
413.50311	16486.675
417.64277	15374.675
421.77947	14698.375
425.9132	14434.375
430.04396	14412.475
434.17176	14445.075
438.2966	14606.275
442.41849	14917.975
446.53742	15346.475
450.6534	15813.975
454.76644	16067.975
458.87653	16086.175
462.98368	15947.375
467.08789	15658.275
471.18916	15311.875
475.2875	14908.575
479.38291	14554.975
483.4754	14272.175
487.56496	14038.675
491.6516	13896.375
495.73531	13832.375
499.81612	13975.375
503.89401	14191.875
507.96899	14423.675
512.04106	14608.475
516.11023	14860.575
520.1765	15042.175
524.23987	14879.475
528.30034	14472.075
532.35792	14044.475
536.41261	13683.875
540.46441	13295.175
544.51333	13111.475
548.55936	13302.175
552.60252	13786.275
556.64279	14358.575
560.6802	14635.775
564.71473	14921.875
568.7464	15724.975
572.7752	16353.575
576.80114	15858.475
580.82422	15131.575
584.84444	14788.875
588.86181	14566.975
592.87633	14401.975
596.888	14516.975
600.89682	15162.475
604.9028	17456.875
608.90594	23556.475
612.90624	31980.975
616.90371	30925.075
620.89834	19991.275
624.89015	14726.275
628.87913	13719.375
632.86528	13859.675
636.84862	14214.375
640.82913	13962.275
644.80683	13115.675
648.78172	12568.175
652.75379	12597.575
656.72306	13328.275
660.68952	14321.875
664.65319	14185.675
668.61405	13199.375
672.57211	12716.175
676.52738	12654.175
680.47986	12631.775
684.42955	12495.675
688.37646	12365.475
692.32058	12445.075
696.26192	12585.175
700.20048	12826.475
704.13626	13057.375
708.06928	13087.075
711.99952	12946.875
715.927	12857.975
719.85171	12867.175
723.77365	12821.175
727.69284	12595.375
731.60928	12402.375
735.52295	12362.175
739.43388	12395.675
743.34206	12453.575
747.24749	12562.075
751.15017	12695.775
755.05012	13105.075
758.94733	14037.075
762.8418	16182.375
766.73354	19932.675
770.62254	23830.175
774.50882	25546.575
778.39237	24034.175
782.27321	20074.175
786.15132	16267.775
790.02671	14028.075
793.89938	13059.075
797.76935	12598.175
801.6366	12383.275
805.50115	12272.575
809.36299	12187.175
813.22213	12061.675
817.07857	12067.775
820.93231	12036.975
824.78336	12085.775
828.63172	12181.875
832.47738	12202.175
836.32036	12139.775
840.16066	12026.475
843.99827	11926.175
847.8332	11879.175
851.66546	11855.975
855.49504	11823.675
859.32195	11762.175
863.1462	11682.475
866.96777	11616.375
870.78668	11574.475
874.60293	11609.475
878.41652	11636.575
882.22745	11744.275
886.03573	11820.875
889.84136	11775.475
893.64433	11688.475
897.44466	11665.275
901.24235	11658.975
905.0374	11639.475
908.8298	11598.275
912.61957	11614.675
916.40671	11729.375
920.19121	11895.875
923.97308	12047.075
927.75233	12128.875
931.52895	12257.175
935.30295	12042.875
939.07433	11551.575
942.84309	11130.375
946.60924	10870.875
950.37278	10761.475
954.13371	10671.675
957.89203	10602.475
961.64774	10566.075
965.40086	10558.775
969.15137	10496.275
972.89929	10455.875
976.64461	10431.675
980.38733	10417.175
984.12747	10452.675
987.86502	10489.975
991.59999	10562.875
995.33237	10694.975
999.06217	10947.975
1002.78939	11297.575
1006.51404	11637.175
1010.23611	11976.275
1013.95561	12212.475
1017.67255	12139.375
1021.38692	11901.075
1025.09872	11622.675
1028.80796	11481.675
1032.51465	11507.875
1036.21877	11671.575
1039.92035	11841.075
1043.61937	11939.875
1047.31584	11975.375
1051.00976	11944.875
1054.70114	11959.675
1058.38998	12006.175
1062.07627	12111.375
1065.76003	12297.475
1069.44126	12442.775
1073.11995	12612.875
1076.79611	12774.375
1080.46974	12994.575
1084.14085	13411.475
1087.80943	13996.275
1091.47549	14232.375
1095.13903	13973.775
1098.80005	13336.775
1102.45857	12735.675
1106.11456	12373.675
1109.76805	12360.875
1113.41903	12655.675
1117.06751	13213.875
1120.71348	13970.375
1124.35696	14786.675
1127.99793	15566.675
1131.63641	15525.975
1135.2724	14562.075
1138.90589	13650.475
1142.5369	13098.175
1146.16542	12785.075
1149.79145	12601.575
1153.415	12617.575
1157.03607	12837.975
1160.65467	13211.175
1164.27079	13895.275
1167.88443	14908.975
1171.49561	16541.275
1175.10432	19327.775
1178.71056	22841.575
1182.31434	25183.375
1185.91565	25433.875
1189.51451	24495.375
1193.11091	22681.675
1196.70485	20525.775
1200.29634	18964.875
1203.88538	17839.975
1207.47197	16444.375
1211.05612	15254.675
1214.63782	14558.275
1218.21708	14312.175
1221.79391	14319.075
1225.36829	14453.975
1228.94024	14580.875
1232.50976	14719.175
1236.07685	14781.575
1239.6415	14757.075
1243.20374	14727.075
1246.76355	14786.275
1250.32093	15015.375
1253.8759	15402.875
1257.42845	15969.675
1260.97859	16642.075
1264.52631	17286.775
1268.07163	17960.275
1271.61453	18566.075
1275.15503	19041.375
1278.69312	19210.175
1282.22882	19303.275
1285.76211	19798.575
1289.29301	20556.375
1292.82151	21304.475
1296.34761	22184.775
1299.87133	23417.075
1303.39266	25577.075
1306.9116	29060.075
1310.42815	33224.275
1313.94233	35923.675
1317.45412	35567.975
1320.96354	33037.175
1324.47058	30018.875
1327.97525	27426.675
1331.47754	25757.975
1334.97747	24977.775
1338.47502	24910.775
1341.97022	25370.675
1345.46305	26332.575
1348.95352	27894.175
1352.44163	30078.675
1355.92738	33392.175
1359.41078	38884.975
1362.89183	44644.175
1366.37053	43902.975
1369.84688	36476.275
1373.32088	29043.975
1376.79254	24391.075
1380.26186	22133.475
1383.72883	21007.575
1387.19347	20182.075
1390.65578	19291.575
1394.11575	18496.275
1397.57339	18143.075
1401.0287	18121.275
1404.48168	18312.775
1407.93234	18501.375
1411.38068	18608.675
1414.82669	18431.675
1418.27039	17960.775
1421.71177	17399.975
1425.15083	16876.075
1428.58758	16529.775
1432.02203	16471.075
1435.45416	16621.575
1438.88399	16759.875
1442.31151	16783.775
1445.73673	16911.975
1449.15965	17141.075
1452.58027	17209.075
1455.9986	17083.175
1459.41463	17103.275
1462.82837	17312.775
1466.23982	17745.375
1469.64898	18250.375
1473.05586	18572.775
1476.46045	18818.675
1479.86276	19183.275
1483.26279	19763.175
1486.66054	20422.575
1490.05602	21242.675
1493.44922	22436.975
1496.84016	24286.275
1500.22882	27266.575
1503.61521	31242.875
1506.99934	35860.475
1510.38121	40298.475
1513.76081	42940.775
1517.13816	41432.875
1520.51324	36101.675
1523.88607	30410.075
1527.25665	26326.775
1530.62498	23894.075
1533.99105	22357.975
1537.35488	21402.675
1540.71647	20730.175
1544.07581	20309.975
1547.4329	19956.875
1550.78776	19756.175
1554.14038	19668.475
1557.49077	19940.275
1560.83892	20566.975
1564.18484	21439.175
1567.52853	22284.175
1570.86999	22879.875
1574.20922	23208.175
1577.54624	22998.775
1580.88103	21632.775
1584.2136	19804.775
1587.54395	18820.075
1590.87208	19003.075
1594.19801	20088.075
1597.52172	21636.075
1600.84321	22211.375
1604.16251	21182.275
1607.47959	19499.375
1610.79447	17866.575
1614.10715	16242.275
1617.41763	14967.175
1620.7259	14140.775
1624.03199	13730.075
1627.33587	13709.175
1630.63757	14081.175
1633.93707	14942.775
1637.23439	16323.675
1640.52951	18334.075
1643.82246	21130.775
1647.11321	24627.475
1650.40179	27504.275
1653.68819	27279.775
1656.97241	23426.375
1660.25446	18761.875
1663.53433	15222.875
1666.81203	13101.675
1670.08756	11917.675
1673.36092	11191.175
1676.63211	10733.275
1679.90115	10415.575
1683.16801	10205.075
1686.43272	10012.975
1689.69527	9927.275
1692.95567	9807.475
1696.2139	9760.975
1699.46999	9697.675
1702.72392	9646.375
1705.97571	9627.475
1709.22535	9614.075
1712.47284	9600.675
1715.71819	9623.975
1718.96139	9610.975
1722.20246	9604.075
1725.44139	9559.175
1728.67818	9459.975
1731.91284	9341.575
1735.14537	9250.075
1738.37576	9182.075
1741.60403	9096.675
1744.83017	9054.575
1748.05418	9051.575
1751.27607	9004.175
1754.49584	8978.775
1757.71349	8964.575
1760.92903	8936.575
1764.14244	8947.975
1767.35375	8884.075
1770.56294	8871.175
1773.77002	8826.575
1776.97499	8783.775
1780.17785	8743.375
1783.37861	8716.575
1786.57727	8702.275
1789.77382	8633.475
1792.96828	8651.275
1796.16064	8633.175
1799.3509	8621.875
1802.53907	8600.675
1805.72514	8551.975
1808.90913	8522.075
1812.09102	8481.875
1815.27083	8457.675
1818.44856	8430.975
1821.6242	8391.575
1824.79776	8404.475
1827.96924	8379.775
1831.13864	8386.175
1834.30597	8354.275
1837.47122	8351.175
1840.6344	8344.375
1843.7955	8347.775
1846.95454	8341.675
1850.11151	8333.775
1853.26642	8320.875
1856.41926	8338.975
1859.57004	8337.475
1862.71876	8357.475
1865.86542	8354.175
1869.01003	8341.475
1872.15258	8338.775
1875.29308	8333.375
1878.43152	8332.675
1881.56792	8363.775
1884.70227	8372.575
1887.83457	8384.275
1890.96482	8375.475
1894.09304	8365.575
1897.21921	8383.375
1900.34335	8412.975
1903.46544	8411.275
1906.58551	8431.075
1909.70353	8413.975
1912.81953	8424.675
1915.93349	8434.175
1919.04543	8424.475
1922.15534	8407.975
1925.26322	8390.275
1928.36908	8376.775
1931.47292	8303.275
1934.57473	8223.975
1937.67453	8161.275
1940.77232	8093.775
1943.86808	8041.775
1946.96184	8008.875
1950.05358	7946.275
1953.14331	7913.975
1956.23103	7873.375
1959.31675	7828.475
1962.40046	7783.675
1965.48217	7796.175
1968.56188	7775.675
1971.63959	7746.975
1974.7153	7722.375
1977.78901	7687.575
1980.86073	7653.275
1983.93046	7624.875
1986.99819	7593.575
1990.06394	7547.975
1993.1277	7523.875
1996.18947	7510.675
1999.24925	7474.675
2002.30706	7449.075
2005.36288	7421.475
2008.41672	7406.175
2011.46859	7375.775
2014.51848	7369.575
2017.56639	7315.475
2020.61233	7297.775
2023.6563	7265.175
2026.6983	7268.775
2029.73833	7220.075
2032.7764	7206.475
2035.8125	7186.675
2038.84664	7161.275
2041.87881	7149.675
2044.90903	7123.675
2047.93729	7128.375
2050.96359	7128.375
2053.98794	7125.075
2057.01034	7097.275
2060.03078	7064.975
2063.04927	7056.675
2066.06582	7045.975
2069.08042	7037.475
2072.09307	7039.775
2075.10378	7024.175
2078.11255	7023.575
2081.11938	7022.075
2084.12426	6998.175
2087.12722	6996.475
2090.12824	6993.875
2093.12732	6989.475
2096.12447	6984.375
2099.11969	6994.175
2102.11299	6987.375
2105.10435	6968.175
2108.09379	6974.075
2111.08131	6973.175
2114.0669	6977.375
2117.05057	7005.675
2120.03233	7017.575
2123.01216	6980.675
2125.99008	7005.775
2128.96609	7010.575
2131.94018	7022.475
2134.91236	7018.875
2137.88263	7007.975
2140.851	7009.575
2143.81746	7018.275
2146.78201	6995.975
2149.74466	6975.975
2152.7054	6967.975
2155.66425	6949.075
2158.6212	6962.375
2161.57625	6950.175
2164.52941	6945.175
2167.48067	6935.675
2170.43004	6942.775
2173.37752	6936.775
2176.32311	6914.475
2179.26681	6921.575
2182.20863	6915.375
2185.14856	6947.675
2188.08661	6915.275
2191.02278	6930.275
2193.95707	6907.775
2196.88948	6892.875
2199.82001	6877.775
2202.74867	6869.075
2205.67545	6853.975
2208.60037	6844.375
2211.52341	6840.375
2214.44458	6820.475
2217.36388	6823.275
2220.28132	6800.075
2223.1969	6772.075
2226.11061	6770.575
2229.02246	6739.475
2231.93245	6731.175
2234.84058	6711.075
2237.74686	6706.075
2240.65128	6696.775
2243.55385	6660.975
2246.45456	6654.175
2249.35343	6656.675
2252.25044	6660.375
2255.14561	6650.975
2258.03893	6644.775
2260.93041	6671.275
2263.82004	6645.975
2266.70783	6652.375
2269.59378	6601.475
2272.4779	6608.675
2275.36017	6568.875
2278.24061	6558.875
2281.11922	6551.175
2283.996	6529.675
2286.87094	6513.275
2289.74405	6474.975
2292.61534	6473.075
2295.4848	6460.475
2298.35243	6455.675
2301.21824	6445.375
2304.08223	6446.375
2306.94439	6432.875
2309.80474	6423.075
2312.66327	6423.375
2315.51999	6410.975
2318.37489	6423.975
2321.22797	6389.175
2324.07925	6413.775
2326.92871	6394.875
2329.77637	6392.275
2332.62222	6381.875
2335.46626	6368.175
2338.3085	6365.775
2341.14893	6355.575
2343.98756	6364.375
2346.8244	6374.975
2349.65943	6388.875
2352.49267	6387.175
2355.32411	6426.575
2358.15376	6417.475
2360.98161	6443.875
2363.80768	6462.575
2366.63195	6482.875
2369.45444	6482.175
2372.27514	6469.175
2375.09405	6467.175
2377.91118	6438.175
2380.72652	6403.075
2383.54009	6357.675
2386.35187	6336.575
2389.16188	6284.075
2391.97011	6256.175
2394.77657	6253.275
2397.58125	6206.775
2400.38416	6207.475
2403.18529	6168.875
2405.98466	6164.275
2408.78226	6158.975
2411.57809	6150.675
2414.37216	6128.775
2417.16446	6136.975
2419.955	6125.375
2422.74378	6120.975
2425.5308	6101.375
2428.31606	6093.575
2431.09956	6120.375
2433.88131	6088.875
2436.6613	6120.175
2439.43954	6107.675
2442.21603	6131.275
2444.99077	6102.675
2447.76377	6120.575
2450.53501	6110.975
2453.30451	6126.175
2456.07226	6121.675
2458.83827	6125.575
2461.60254	6106.775
2464.36507	6109.975
2467.12586	6098.275
2469.88492	6104.675
2472.64224	6111.975
2475.39782	6124.075
2478.15167	6139.175
2480.90379	6151.675
2483.65417	6149.975
2486.40283	6166.575
2489.14976	6198.075
2491.89497	6231.975
2494.63845	6236.175
2497.3802	6213.775
2500.12024	6207.075
2502.85855	6198.475
2505.59514	6167.975
2508.33002	6129.775
2511.06318	6099.275
2513.79462	6066.275
2516.52435	6050.175
2519.25237	6037.275
2521.97867	5984.875
2524.70327	5968.175
2527.42616	5961.875
2530.14734	5957.675
2532.86681	5955.475
2535.58458	5944.775
2538.30065	5953.775
2541.01501	5934.575
2543.72768	5932.075
2546.43864	5949.775
2549.14791	5946.375
2551.85548	5960.975
2554.56136	5938.475
2557.26554	5925.775
2559.96803	5912.775
2562.66883	5918.075
2565.36794	5875.475
2568.06536	5874.675
2570.7611	5872.675
2573.45514	5865.575
2576.14751	5856.975
2578.83819	5831.575
2581.52719	5834.375
2584.21451	5829.075
2586.90015	5809.575
2589.58411	5825.875
2592.2664	5804.275
2594.94701	5802.375
2597.62594	5797.475
2600.30321	5790.075
2602.9788	5810.375
2605.65273	5784.075
2608.32498	5800.675
2610.99557	5792.175
2613.66449	5807.275
2616.33175	5807.375
2618.99734	5789.975
2621.66128	5793.975
2624.32355	5784.175
2626.98416	5769.175
2629.64311	5750.175
2632.30041	5763.975
2634.95605	5748.075
2637.61004	5715.775
2640.26238	5727.175
2642.91306	5730.675
2645.56209	5708.875
2648.20948	5700.075
2650.85521	5706.875
2653.4993	5705.675
2656.14175	5702.475
2658.78255	5699.775
2661.42171	5713.375
2664.05923	5711.175
2666.6951	5745.075
2669.32934	5744.475
2671.96194	5750.275
2674.59291	5735.075
2677.22224	5763.275
2679.84993	5760.475
2682.476	5748.175
2685.10043	5745.375
2687.72324	5739.475
2690.34441	5728.175
2692.96396	5740.375
2695.58188	5726.075
2698.19818	5730.375
2700.81285	5728.775
2703.4259	5756.075
2706.03733	5785.875
2708.64714	5745.575
2711.25533	5744.475
2713.86191	5746.575
2716.46687	5772.675
2719.07021	5755.675
2721.67194	5784.675
2724.27206	5757.675
2726.87057	5773.875
2729.46747	5761.475
2732.06276	5760.175
2734.65644	5741.375
2737.24852	5754.275
2739.83899	5722.575
2742.42786	5714.275
2745.01513	5690.975
2747.60079	5688.075
2750.18486	5687.675
2752.76733	5667.275
2755.3482	5654.775
2757.92747	5667.975
2760.50515	5659.775
2763.08123	5657.275
2765.65573	5641.075
2768.22863	5645.075
2770.79994	5618.575
2773.36967	5634.175
2775.9378	5632.175
2778.50435	5623.575
2781.06932	5608.275
2783.6327	5630.175
2786.1945	5602.375
2788.75471	5624.975
2791.31335	5619.475
2793.87041	5610.375
2796.42589	5585.675
2798.97979	5611.075
2801.53212	5595.675
2804.08288	5591.075
2806.63206	5576.175
2809.17967	5565.075
2811.72571	5570.175
2814.27018	5584.775
2816.81308	5590.975
2819.35442	5590.675
2821.89419	5598.575
2824.43239	5623.775
2826.96904	5636.675
2829.50412	5635.275
2832.03763	5614.475
2834.56959	5621.175
2837.1	5636.075
2839.62884	5650.275
2842.15613	5687.275
2844.68186	5743.675
2847.20604	5820.575
2849.72867	5879.675
2852.24974	5899.775
2854.76927	5904.075
2857.28724	5896.275
2859.80367	5877.975
2862.31855	5829.375
2864.83189	5833.975
2867.34368	5814.475
2869.85393	5818.975
2872.36264	5814.675
2874.8698	5802.475
2877.37543	5788.175
2879.87952	5800.475
2882.38207	5773.375
2884.88308	5770.775
2887.38256	5766.375
2889.88051	5772.175
2892.37692	5754.675
2894.8718	5779.775
2897.36515	5763.575
2899.85698	5774.975
2902.34727	5768.375
2904.83604	5786.375
2907.32328	5800.675
2909.809	5781.075
2912.29319	5796.275
2914.77587	5797.575
2917.25702	5773.275
2919.73665	5787.375
2922.21476	5799.175
2924.69136	5779.575
2927.16644	5742.275
2929.64	5746.275
2932.11205	5708.575
2934.58258	5693.475
2937.05161	5667.675
2939.51912	5661.275
2941.98513	5621.475
2944.44962	5573.875
2946.91261	5536.175
2949.37409	5493.675
2951.83407	5484.175
2954.29254	5456.875
2956.74951	5469.575
2959.20498	5441.175
2961.65895	5410.375
2964.11142	5416.075
2966.56239	5387.175
2969.01186	5363.275
2971.45984	5365.975
2973.90632	5362.775
2976.35131	5328.675
2978.7948	5328.475
2981.23681	5321.475
2983.67732	5306.275
2986.11635	5271.975
2988.55388	5274.275
2990.98993	5249.575
2993.4245	5226.275
2995.85758	5208.575
2998.28917	5183.275
3000.71928	5193.975
3003.14791	5187.775
3005.57506	5161.475
3008.00073	5167.075
3010.42493	5068.375
3012.84764	5153.275
3015.26888	5151.375
3017.68865	5114.375
3020.10694	5123.375
3022.52376	5114.075
3024.9391	5093.775
3027.35298	5093.675
3029.76539	5099.775
3032.17632	5074.375
3034.5858	5061.275
3036.9938	5037.075
3039.40034	5058.875
3041.80542	5061.475
3044.20903	5037.975
3046.61118	5028.375
3049.01187	5011.675
3051.4111	5006.075
3053.80888	5003.575
3056.20519	5000.775
3058.60005	4974.375
3060.99345	4970.475
3063.3854	4956.575
3065.7759	4949.075
3068.16494	4937.775
3070.55254	4927.375
3072.93868	4889.775
3075.32338	4890.875
3077.70662	4860.575
3080.08842	4844.075
3082.46878	4841.975
3084.84769	4819.375
3087.22515	4806.475
3089.60118	4809.875
3091.97576	4811.575
3094.3489	4790.975
3096.72061	4775.275
3099.09087	4792.275
3101.4597	4775.275
3103.82709	4764.675
3106.19305	4766.675
3108.55757	4765.875
3110.92066	4738.875
3113.28232	4744.575
3115.64255	4736.275
3118.00134	4717.675
3120.35871	4718.275
3122.71466	4720.675
3125.06917	4699.275
3127.42226	4692.775
3129.77393	4700.875
3132.12417	4673.475
3134.47299	4693.075
3136.82039	4693.375
3139.16636	4678.775
3141.51092	4689.575
3143.85406	4682.675
3146.19579	4686.675
3148.53609	4684.275
3150.87499	4704.075
3153.21246	4699.875
3155.54853	4706.775
3157.88318	4725.875
3160.21642	4725.475
3162.54826	4715.575
3164.87868	4735.075
3167.2077	4725.875
3169.5353	4724.175
3171.86151	4724.475
3174.18631	4714.075
3176.5097	4722.375
3178.83169	4723.075
3181.15228	4716.475
3183.47147	4708.775
3185.78926	4691.575
3188.10565	4690.275
3190.42065	4707.775
