Data from AuAgCoreShell_UA_100uM_CRN_0uM_R6G_10uM_Scan_RamanShift__27__14-40-49-799.txt Node

Date: Thu Jun 23 14:40:49 BST 2022
User: TCL
Spectrometer: QEP01345
Trigger mode: 4
Integration Time (sec): 7.000000E0
Scans to average: 10
Electric dark correction enabled: true
Nonlinearity correction enabled: false
Boxcar width: 0
XAxis mode: Raman Shifts
Number of Pixels in Spectrum: 1044
>>>>>Begin Spectral Data<<<<<
46.04893	-1.25
50.45542	-0.85
54.85868	-0.55
59.25871	0.05
63.6555	37.55
68.04907	37.05
72.43941	41.95
76.82654	46.55
81.21044	50.35
85.59113	51.15
89.96862	57.65
94.34289	57.95
98.71396	59.75
103.08183	60.05
107.4465	59.85
111.80798	62.75
116.16626	63.25
120.52136	57.45
124.87327	61.95
129.222	61.45
133.56755	55.65
137.90993	59.55
142.24913	54.15
146.58517	53.65
150.91804	53.65
155.24774	54.35
159.57429	60.35
163.89768	57.35
168.21792	65.65
172.53501	69.95
176.84895	84.85
181.15975	97.85
185.46741	122.45
189.77193	159.05
194.07331	203.45
198.37157	249.55
202.6667	296.55
206.9587	342.35
211.24758	394.35
215.53334	441.15
219.81599	485.85
224.09553	534.45
228.37195	590.55
232.64527	659.45
236.91549	722.65
241.18261	781.75
245.44663	846.05
249.70755	918.05
253.96539	962.45
258.22014	1017.65
262.4718	1040.45
266.72039	1069.85
270.96589	1077.65
275.20832	1081.25
279.44768	1064.95
283.68397	1052.25
287.91719	1038.95
292.14735	1017.75
296.37445	1001.75
300.59849	1003.15
304.81948	1000.05
309.03742	995.85
313.25231	980.55
317.46415	986.05
321.67296	975.45
325.87872	968.35
330.08145	977.65
334.28114	979.75
338.47781	988.25
342.67145	998.45
346.86207	1012.35
351.04966	1033.15
355.23424	1039.55
359.4158	1059.55
363.59435	1085.65
367.76989	1090.45
371.94243	1105.15
376.11196	1114.25
380.27849	1120.75
384.44203	1122.55
388.60257	1141.85
392.76012	1152.55
396.91468	1160.35
401.06626	1175.25
405.21485	1178.85
409.36047	1181.85
413.50311	1192.65
417.64277	1193.85
421.77947	1190.55
425.9132	1191.45
430.04396	1201.55
434.17176	1217.55
438.2966	1213.25
442.41849	1218.85
446.53742	1229.25
450.6534	1229.45
454.76644	1245.25
458.87653	1245.35
462.98368	1240.55
467.08789	1251.95
471.18916	1254.15
475.2875	1259.25
479.38291	1262.25
483.4754	1268.75
487.56496	1279.75
491.6516	1292.25
495.73531	1306.85
499.81612	1290.65
503.89401	1290.95
507.96899	1285.95
512.04106	1267.15
516.11023	1277.45
520.1765	1271.45
524.23987	1283.45
528.30034	1276.05
532.35792	1274.35
536.41261	1281.55
540.46441	1274.65
544.51333	1254.25
548.55936	1247.45
552.60252	1249.75
556.64279	1248.65
560.6802	1248.05
564.71473	1253.65
568.7464	1256.25
572.7752	1264.65
576.80114	1263.05
580.82422	1264.85
584.84444	1264.95
588.86181	1272.45
592.87633	1281.85
596.888	1281.45
600.89682	1293.15
604.9028	1305.05
608.90594	1357.55
612.90624	1413.85
616.90371	1415.35
620.89834	1376.35
624.89015	1383.85
628.87913	1407.85
632.86528	1442.75
636.84862	1459.05
640.82913	1440.15
644.80683	1402.95
648.78172	1377.55
652.75379	1332.15
656.72306	1330.25
660.68952	1319.05
664.65319	1312.25
668.61405	1297.05
672.57211	1295.65
676.52738	1312.05
680.47986	1311.85
684.42955	1329.95
688.37646	1326.15
692.32058	1329.45
696.26192	1315.95
700.20048	1318.45
704.13626	1305.35
708.06928	1314.15
711.99952	1299.35
715.927	1298.95
719.85171	1301.75
723.77365	1300.05
727.69284	1307.25
731.60928	1303.05
735.52295	1285.35
739.43388	1292.75
743.34206	1277.75
747.24749	1291.55
751.15017	1283.55
755.05012	1274.65
758.94733	1290.85
762.8418	1295.45
766.73354	1319.05
770.62254	1352.35
774.50882	1362.25
778.39237	1351.55
782.27321	1322.25
786.15132	1297.65
790.02671	1288.75
793.89938	1286.85
797.76935	1293.75
801.6366	1298.45
805.50115	1323.65
809.36299	1335.95
813.22213	1349.25
817.07857	1337.75
820.93231	1324.75
824.78336	1303.35
828.63172	1280.35
832.47738	1267.75
836.32036	1264.95
840.16066	1266.65
843.99827	1270.25
847.8332	1278.75
851.66546	1264.75
855.49504	1252.55
859.32195	1257.25
863.1462	1257.25
866.96777	1251.25
870.78668	1263.05
874.60293	1283.65
878.41652	1285.85
882.22745	1306.35
886.03573	1310.75
889.84136	1319.75
893.64433	1297.75
897.44466	1280.55
901.24235	1268.05
905.0374	1249.25
908.8298	1244.95
912.61957	1232.75
916.40671	1227.45
920.19121	1235.15
923.97308	1241.85
927.75233	1235.05
931.52895	1237.75
935.30295	1221.75
939.07433	1224.15
942.84309	1209.95
946.60924	1206.45
950.37278	1195.75
954.13371	1199.95
957.89203	1175.55
961.64774	1185.95
965.40086	1173.95
969.15137	1168.05
972.89929	1164.45
976.64461	1159.95
980.38733	1146.65
984.12747	1151.75
987.86502	1153.15
991.59999	1144.15
995.33237	1152.65
999.06217	1166.15
1002.78939	1175.05
1006.51404	1176.05
1010.23611	1196.85
1013.95561	1200.15
1017.67255	1201.65
1021.38692	1198.75
1025.09872	1195.55
1028.80796	1178.85
1032.51465	1176.45
1036.21877	1168.95
1039.92035	1163.65
1043.61937	1153.15
1047.31584	1150.95
1051.00976	1152.15
1054.70114	1140.85
1058.38998	1153.25
1062.07627	1153.05
1065.76003	1159.45
1069.44126	1170.95
1073.11995	1175.35
1076.79611	1179.35
1080.46974	1178.45
1084.14085	1162.35
1087.80943	1150.25
1091.47549	1143.15
1095.13903	1136.55
1098.80005	1125.15
1102.45857	1108.35
1106.11456	1114.45
1109.76805	1109.55
1113.41903	1115.95
1117.06751	1129.25
1120.71348	1150.95
1124.35696	1181.45
1127.99793	1212.25
1131.63641	1263.05
1135.2724	1284.85
1138.90589	1276.35
1142.5369	1257.25
1146.16542	1214.95
1149.79145	1170.85
1153.415	1139.55
1157.03607	1110.95
1160.65467	1099.25
1164.27079	1097.65
1167.88443	1085.95
1171.49561	1094.65
1175.10432	1117.15
1178.71056	1135.25
1182.31434	1166.15
1185.91565	1160.25
1189.51451	1162.45
1193.11091	1167.65
1196.70485	1178.25
1200.29634	1179.65
1203.88538	1196.55
1207.47197	1189.45
1211.05612	1153.35
1214.63782	1135.85
1218.21708	1117.55
1221.79391	1099.35
1225.36829	1086.35
1228.94024	1072.95
1232.50976	1066.65
1236.07685	1068.95
1239.6415	1068.05
1243.20374	1065.85
1246.76355	1077.75
1250.32093	1078.65
1253.8759	1079.15
1257.42845	1086.55
1260.97859	1084.15
1264.52631	1091.25
1268.07163	1087.85
1271.61453	1091.85
1275.15503	1088.65
1278.69312	1094.75
1282.22882	1083.45
1285.76211	1072.35
1289.29301	1085.85
1292.82151	1090.65
1296.34761	1094.45
1299.87133	1107.15
1303.39266	1127.15
1306.9116	1153.65
1310.42815	1181.25
1313.94233	1198.85
1317.45412	1180.55
1320.96354	1171.85
1324.47058	1156.95
1327.97525	1137.35
1331.47754	1128.45
1334.97747	1134.35
1338.47502	1135.35
1341.97022	1149.85
1345.46305	1173.85
1348.95352	1217.35
1352.44163	1234.35
1355.92738	1278.75
1359.41078	1331.95
1362.89183	1380.65
1366.37053	1369.05
1369.84688	1316.25
1373.32088	1242.55
1376.79254	1207.05
1380.26186	1179.65
1383.72883	1159.95
1387.19347	1136.15
1390.65578	1112.95
1394.11575	1108.55
1397.57339	1087.35
1401.0287	1061.05
1404.48168	1057.35
1407.93234	1040.15
1411.38068	1025.85
1414.82669	1017.55
1418.27039	1000.65
1421.71177	983.65
1425.15083	969.75
1428.58758	964.65
1432.02203	958.75
1435.45416	948.05
1438.88399	951.65
1442.31151	946.95
1445.73673	943.05
1449.15965	938.65
1452.58027	936.75
1455.9986	940.45
1459.41463	936.95
1462.82837	931.55
1466.23982	936.05
1469.64898	940.15
1473.05586	927.65
1476.46045	929.85
1479.86276	934.95
1483.26279	946.05
1486.66054	945.85
1490.05602	945.65
1493.44922	949.45
1496.84016	975.65
1500.22882	1002.25
1503.61521	1024.25
1506.99934	1063.05
1510.38121	1093.35
1513.76081	1104.05
1517.13816	1078.85
1520.51324	1031.75
1523.88607	1003.15
1527.25665	967.75
1530.62498	959.45
1533.99105	951.65
1537.35488	949.45
1540.71647	951.45
1544.07581	951.65
1547.4329	966.75
1550.78776	967.75
1554.14038	970.45
1557.49077	983.35
1560.83892	997.25
1564.18484	993.05
1567.52853	998.05
1570.86999	1012.95
1574.20922	1023.45
1577.54624	1027.95
1580.88103	1027.75
1584.2136	1019.15
1587.54395	988.15
1590.87208	972.75
1594.19801	959.35
1597.52172	950.85
1600.84321	957.75
1604.16251	949.95
1607.47959	944.75
1610.79447	946.15
1614.10715	940.35
1617.41763	931.25
1620.7259	924.75
1624.03199	932.15
1627.33587	937.25
1630.63757	928.95
1633.93707	928.45
1637.23439	937.35
1640.52951	942.65
1643.82246	951.55
1647.11321	983.85
1650.40179	991.15
1653.68819	993.45
1656.97241	967.65
1660.25446	927.35
1663.53433	899.75
1666.81203	880.35
1670.08756	868.15
1673.36092	847.25
1676.63211	829.85
1679.90115	833.65
1683.16801	819.55
1686.43272	819.25
1689.69527	814.35
1692.95567	814.95
1696.2139	820.45
1699.46999	821.65
1702.72392	805.45
1705.97571	782.15
1709.22535	759.85
1712.47284	746.15
1715.71819	721.85
1718.96139	717.85
1722.20246	701.65
1725.44139	697.95
1728.67818	685.35
1731.91284	676.95
1735.14537	678.75
1738.37576	672.55
1741.60403	668.25
1744.83017	659.05
1748.05418	656.95
1751.27607	646.45
1754.49584	655.85
1757.71349	653.85
1760.92903	656.95
1764.14244	650.35
1767.35375	652.15
1770.56294	652.95
1773.77002	641.85
1776.97499	634.95
1780.17785	624.15
1783.37861	625.35
1786.57727	618.55
1789.77382	611.95
1792.96828	608.35
1796.16064	610.65
1799.3509	601.35
1802.53907	602.95
1805.72514	604.35
1808.90913	598.15
1812.09102	594.55
1815.27083	585.65
1818.44856	582.75
1821.6242	580.75
1824.79776	580.95
1827.96924	575.85
1831.13864	572.45
1834.30597	583.25
1837.47122	573.95
1840.6344	575.25
1843.7955	571.95
1846.95454	574.55
1850.11151	563.55
1853.26642	564.45
1856.41926	564.05
1859.57004	563.05
1862.71876	562.75
1865.86542	555.75
1869.01003	557.55
1872.15258	555.05
1875.29308	556.45
1878.43152	547.45
1881.56792	545.85
1884.70227	547.85
1887.83457	541.35
1890.96482	543.95
1894.09304	550.15
1897.21921	537.85
1900.34335	536.25
1903.46544	534.95
1906.58551	530.95
1909.70353	537.45
1912.81953	527.55
1915.93349	530.65
1919.04543	530.85
1922.15534	520.75
1925.26322	522.95
1928.36908	525.05
1931.47292	517.55
1934.57473	524.95
1937.67453	523.15
1940.77232	515.05
1943.86808	517.25
1946.96184	505.05
1950.05358	509.55
1953.14331	504.75
1956.23103	503.05
1959.31675	500.45
1962.40046	500.45
1965.48217	498.45
1968.56188	497.45
1971.63959	494.75
1974.7153	491.75
1977.78901	488.85
1980.86073	485.35
1983.93046	480.85
1986.99819	480.05
1990.06394	473.55
1993.1277	482.75
1996.18947	482.75
1999.24925	472.95
2002.30706	474.05
2005.36288	466.45
2008.41672	471.25
2011.46859	465.75
2014.51848	461.45
2017.56639	461.15
2020.61233	460.15
2023.6563	460.35
2026.6983	455.85
2029.73833	455.15
2032.7764	451.95
2035.8125	446.75
2038.84664	448.35
2041.87881	448.05
2044.90903	443.55
2047.93729	444.35
2050.96359	443.15
2053.98794	441.75
2057.01034	435.05
2060.03078	438.55
2063.04927	431.55
2066.06582	442.15
2069.08042	436.25
2072.09307	438.35
2075.10378	435.65
2078.11255	427.95
2081.11938	436.55
2084.12426	432.55
2087.12722	428.15
2090.12824	427.15
2093.12732	430.05
2096.12447	433.55
2099.11969	433.25
2102.11299	431.65
2105.10435	425.65
2108.09379	428.55
2111.08131	419.75
2114.0669	426.75
2117.05057	424.85
2120.03233	422.65
2123.01216	427.55
2125.99008	426.15
2128.96609	426.75
2131.94018	419.85
2134.91236	423.85
2137.88263	423.95
2140.851	424.25
2143.81746	424.95
2146.78201	418.55
2149.74466	415.75
2152.7054	418.95
2155.66425	416.65
2158.6212	418.85
2161.57625	415.75
2164.52941	414.55
2167.48067	417.75
2170.43004	414.75
2173.37752	417.05
2176.32311	415.25
2179.26681	415.05
2182.20863	408.95
2185.14856	410.05
2188.08661	408.85
2191.02278	409.15
2193.95707	403.85
2196.88948	410.45
2199.82001	404.65
2202.74867	399.25
2205.67545	399.35
2208.60037	394.15
2211.52341	396.15
2214.44458	397.45
2217.36388	395.55
2220.28132	394.35
2223.1969	388.65
2226.11061	386.95
2229.02246	387.75
2231.93245	380.95
2234.84058	389.65
2237.74686	386.25
2240.65128	379.95
2243.55385	381.55
2246.45456	377.75
2249.35343	383.65
2252.25044	379.45
2255.14561	377.45
2258.03893	378.65
2260.93041	379.95
2263.82004	378.15
2266.70783	370.95
2269.59378	376.85
2272.4779	365.15
2275.36017	365.05
2278.24061	362.95
2281.11922	360.75
2283.996	365.85
2286.87094	358.35
2289.74405	362.15
2292.61534	360.35
2295.4848	360.55
2298.35243	354.85
2301.21824	350.75
2304.08223	354.25
2306.94439	351.25
2309.80474	355.65
2312.66327	348.25
2315.51999	350.85
2318.37489	351.25
2321.22797	345.25
2324.07925	348.95
2326.92871	348.65
2329.77637	352.15
2332.62222	342.85
2335.46626	344.55
2338.3085	341.45
2341.14893	339.25
2343.98756	336.55
2346.8244	338.65
2349.65943	334.05
2352.49267	340.15
2355.32411	338.65
2358.15376	335.35
2360.98161	333.65
2363.80768	332.05
2366.63195	333.35
2369.45444	327.05
2372.27514	331.75
2375.09405	331.55
2377.91118	329.35
2380.72652	324.95
2383.54009	321.85
2386.35187	326.25
2389.16188	321.75
2391.97011	325.95
2394.77657	326.25
2397.58125	326.55
2400.38416	320.25
2403.18529	317.85
2405.98466	311.55
2408.78226	313.75
2411.57809	322.05
2414.37216	316.85
2417.16446	314.25
2419.955	312.15
2422.74378	311.85
2425.5308	308.85
2428.31606	308.75
2431.09956	308.85
2433.88131	306.15
2436.6613	298.65
2439.43954	303.75
2442.21603	301.15
2444.99077	305.05
2447.76377	309.25
2450.53501	300.55
2453.30451	299.95
2456.07226	299.35
2458.83827	307.75
2461.60254	297.55
2464.36507	294.45
2467.12586	294.25
2469.88492	294.55
2472.64224	297.65
2475.39782	292.25
2478.15167	298.35
2480.90379	292.95
2483.65417	294.45
2486.40283	286.85
2489.14976	291.65
2491.89497	289.15
2494.63845	293.95
2497.3802	295.85
2500.12024	293.65
2502.85855	286.05
2505.59514	288.45
2508.33002	288.75
2511.06318	285.35
2513.79462	284.05
2516.52435	283.85
2519.25237	283.75
2521.97867	279.35
2524.70327	282.65
2527.42616	279.65
2530.14734	279.75
2532.86681	279.05
2535.58458	278.35
2538.30065	282.25
2541.01501	277.15
2543.72768	275.95
2546.43864	273.45
2549.14791	272.75
2551.85548	276.25
2554.56136	273.25
2557.26554	272.35
2559.96803	268.35
2562.66883	269.85
2565.36794	272.05
2568.06536	271.55
2570.7611	271.15
2573.45514	263.25
2576.14751	263.95
2578.83819	262.85
2581.52719	265.75
2584.21451	261.85
2586.90015	267.05
2589.58411	258.65
2592.2664	257.05
2594.94701	259.65
2597.62594	259.45
2600.30321	258.75
2602.9788	261.25
2605.65273	259.65
2608.32498	253.15
2610.99557	248.95
2613.66449	253.05
2616.33175	257.05
2618.99734	249.65
2621.66128	251.15
2624.32355	250.25
2626.98416	252.75
2629.64311	247.25
2632.30041	250.85
2634.95605	246.15
2637.61004	248.05
2640.26238	247.25
2642.91306	244.65
2645.56209	246.95
2648.20948	240.25
2650.85521	243.25
2653.4993	241.05
2656.14175	241.15
2658.78255	243.25
2661.42171	240.75
2664.05923	243.05
2666.6951	241.65
2669.32934	244.55
2671.96194	243.75
2674.59291	239.05
2677.22224	244.05
2679.84993	242.05
2682.476	242.75
2685.10043	235.25
2687.72324	235.75
2690.34441	245.35
2692.96396	238.35
2695.58188	237.05
2698.19818	240.05
2700.81285	246.55
2703.4259	245.75
2706.03733	251.95
2708.64714	248.45
2711.25533	236.65
2713.86191	241.85
2716.46687	234.85
2719.07021	239.55
2721.67194	238.45
2724.27206	237.65
2726.87057	240.45
2729.46747	238.65
2732.06276	239.25
2734.65644	240.05
2737.24852	236.95
2739.83899	239.85
2742.42786	234.25
2745.01513	235.95
2747.60079	239.95
2750.18486	237.75
2752.76733	240.15
2755.3482	233.55
2757.92747	231.35
2760.50515	235.55
2763.08123	236.05
2765.65573	229.75
2768.22863	235.85
2770.79994	234.25
2773.36967	230.55
2775.9378	233.85
2778.50435	230.95
2781.06932	233.15
2783.6327	228.55
2786.1945	228.75
2788.75471	234.15
2791.31335	234.95
2793.87041	226.85
2796.42589	227.25
2798.97979	225.25
2801.53212	228.35
2804.08288	226.25
2806.63206	228.85
2809.17967	225.95
2811.72571	228.85
2814.27018	225.05
2816.81308	228.45
2819.35442	222.05
2821.89419	227.15
2824.43239	225.55
2826.96904	224.55
2829.50412	222.95
2832.03763	216.35
2834.56959	224.85
2837.1	223.25
2839.62884	218.65
2842.15613	221.35
2844.68186	222.75
2847.20604	220.65
2849.72867	221.55
2852.24974	223.95
2854.76927	223.75
2857.28724	227.15
2859.80367	226.15
2862.31855	227.05
2864.83189	226.95
2867.34368	225.45
2869.85393	220.65
2872.36264	225.65
2874.8698	224.55
2877.37543	222.65
2879.87952	226.75
2882.38207	221.35
2884.88308	220.85
2887.38256	223.65
2889.88051	226.35
2892.37692	220.85
2894.8718	229.35
2897.36515	223.95
2899.85698	228.55
2902.34727	227.65
2904.83604	231.95
2907.32328	237.95
2909.809	235.95
2912.29319	235.35
2914.77587	234.55
2917.25702	232.15
2919.73665	237.65
2922.21476	239.35
2924.69136	242.55
2927.16644	239.35
2929.64	236.45
2932.11205	243.85
2934.58258	245.45
2937.05161	241.15
2939.51912	246.55
2941.98513	245.75
2944.44962	242.35
2946.91261	244.95
2949.37409	242.85
2951.83407	240.15
2954.29254	236.05
2956.74951	240.55
2959.20498	239.35
2961.65895	248.55
2964.11142	239.05
2966.56239	241.45
2969.01186	245.45
2971.45984	244.95
2973.90632	244.25
2976.35131	251.05
2978.7948	243.75
2981.23681	246.25
2983.67732	247.75
2986.11635	249.65
2988.55388	247.45
2990.98993	249.85
2993.4245	246.75
2995.85758	250.75
2998.28917	251.15
3000.71928	256.25
3003.14791	255.15
3005.57506	249.95
3008.00073	258.95
3010.42493	262.35
3012.84764	262.35
3015.26888	265.35
3017.68865	261.75
3020.10694	268.25
3022.52376	271.45
3024.9391	262.65
3027.35298	274.75
3029.76539	272.65
3032.17632	275.65
3034.5858	276.55
3036.9938	281.35
3039.40034	281.35
3041.80542	281.15
3044.20903	283.35
3046.61118	292.85
3049.01187	289.45
3051.4111	291.65
3053.80888	297.35
3056.20519	298.55
3058.60005	300.85
3060.99345	305.45
3063.3854	297.55
3065.7759	307.45
3068.16494	317.55
3070.55254	317.65
3072.93868	320.15
3075.32338	318.55
3077.70662	329.25
3080.08842	327.45
3082.46878	332.25
3084.84769	333.85
3087.22515	340.65
3089.60118	348.55
3091.97576	345.05
3094.3489	356.45
3096.72061	358.35
3099.09087	362.55
3101.4597	367.25
3103.82709	370.15
3106.19305	377.05
3108.55757	381.85
3110.92066	388.35
3113.28232	387.05
3115.64255	395.55
3118.00134	403.05
3120.35871	406.45
3122.71466	409.85
3125.06917	414.35
3127.42226	420.35
3129.77393	426.55
3132.12417	429.75
3134.47299	435.85
3136.82039	444.45
3139.16636	454.15
3141.51092	457.15
3143.85406	464.95
3146.19579	463.75
3148.53609	472.95
3150.87499	483.55
3153.21246	488.65
3155.54853	499.85
3157.88318	501.85
3160.21642	508.15
3162.54826	518.65
3164.87868	522.15
3167.2077	528.65
3169.5353	536.35
3171.86151	548.15
3174.18631	549.35
3176.5097	555.95
3178.83169	562.65
3181.15228	568.05
3183.47147	566.35
3185.78926	565.15
3188.10565	583.45
3190.42065	589.75
3192.73424	587.85
3195.04645	589.75
3197.35725	602.85
3199.66667	603.55
3201.97469	610.35
3204.28132	614.95
3206.58656	621.65
3208.8904	623.65
3211.19287	630.05
3213.49394	633.45
3215.79363	629.35
3218.09193	637.55
3220.38884	647.15
3222.68438	657.45
3224.97853	652.15
3227.2713	655.85
3229.56269	656.05
3231.8527	662.45
3234.14133	654.95
3236.42858	660.25
3238.71446	658.35
3240.99896	657.15
3243.28209	660.25
3245.56384	663.45
3247.84423	663.95
3250.12324	667.25
3252.40088	662.75
3254.67715	666.25
3256.95205	667.85
3259.22558	674.95
3261.49775	674.45
3263.76855	673.45
3266.03799	665.25
3268.30606	672.75
3270.57277	671.45
3272.83812	672.65
3275.10211	663.25
3277.36474	674.25
3279.62601	675.25
3281.88593	673.35
3284.14448	678.05
3286.40168	663.75
3288.65753	665.75
3290.91202	679.15
3293.16516	669.35
3295.41695	667.85
3297.66738	668.25
3299.91647	666.85
3302.16421	661.75
3304.4106	663.05
3306.65564	661.15
3308.89933	651.95
3311.14169	657.75
3313.38269	651.05
3315.62236	642.75
3317.86068	641.05
3320.09766	638.45
3322.3333	643.55
3324.5676	634.15
3326.80056	629.95
3329.03219	623.95
3331.26248	0.05
3333.49143	0.95
3335.71905	0.85
