Data from AuAgCoreShell_UA_100uM_CRN_0uM_R6G_10uM_Scan_RamanShift__13__14-24-29-780.txt Node

Date: Thu Jun 23 14:24:29 BST 2022
User: TCL
Spectrometer: QEP01345
Trigger mode: 4
Integration Time (sec): 7.000000E0
Scans to average: 10
Electric dark correction enabled: true
Nonlinearity correction enabled: false
Boxcar width: 0
XAxis mode: Raman Shifts
Number of Pixels in Spectrum: 1044
>>>>>Begin Spectral Data<<<<<
46.04893	-1.9875
50.45542	-1.3875
54.85868	0.9125
59.25871	0.3125
63.6555	32.3125
68.04907	35.1125
72.43941	36.8125
76.82654	42.2125
81.21044	46.1125
85.59113	53.3125
89.96862	51.3125
94.34289	52.4125
98.71396	56.0125
103.08183	54.9125
107.4465	58.8125
111.80798	55.2125
116.16626	59.3125
120.52136	52.7125
124.87327	57.8125
129.222	56.8125
133.56755	54.0125
137.90993	51.6125
142.24913	52.0125
146.58517	50.3125
150.91804	54.1125
155.24774	54.4125
159.57429	55.8125
163.89768	56.8125
168.21792	60.6125
172.53501	71.6125
176.84895	77.4125
181.15975	95.4125
185.46741	125.9125
189.77193	157.8125
194.07331	201.0125
198.37157	249.3125
202.6667	301.6125
206.9587	349.6125
211.24758	397.5125
215.53334	455.0125
219.81599	500.9125
224.09553	554.3125
228.37195	612.7125
232.64527	689.6125
236.91549	750.8125
241.18261	825.6125
245.44663	889.6125
249.70755	960.6125
253.96539	1013.2125
258.22014	1055.1125
262.4718	1091.8125
266.72039	1107.7125
270.96589	1120.4125
275.20832	1121.4125
279.44768	1094.1125
283.68397	1077.9125
287.91719	1051.7125
292.14735	1030.5125
296.37445	1010.2125
300.59849	1008.6125
304.81948	1001.3125
309.03742	996.1125
313.25231	991.4125
317.46415	975.0125
321.67296	976.3125
325.87872	962.5125
330.08145	964.5125
334.28114	971.6125
338.47781	978.5125
342.67145	980.5125
346.86207	999.2125
351.04966	1020.9125
355.23424	1036.1125
359.4158	1053.1125
363.59435	1068.3125
367.76989	1075.6125
371.94243	1085.5125
376.11196	1096.6125
380.27849	1097.6125
384.44203	1109.9125
388.60257	1116.6125
392.76012	1123.6125
396.91468	1135.3125
401.06626	1148.6125
405.21485	1153.5125
409.36047	1155.4125
413.50311	1150.2125
417.64277	1152.1125
421.77947	1140.8125
425.9132	1151.6125
430.04396	1155.2125
434.17176	1166.1125
438.2966	1173.0125
442.41849	1177.7125
446.53742	1185.6125
450.6534	1194.3125
454.76644	1206.1125
458.87653	1208.2125
462.98368	1214.8125
467.08789	1206.4125
471.18916	1211.7125
475.2875	1217.4125
479.38291	1216.4125
483.4754	1222.3125
487.56496	1223.1125
491.6516	1227.5125
495.73531	1233.6125
499.81612	1227.1125
503.89401	1230.7125
507.96899	1223.6125
512.04106	1219.0125
516.11023	1226.5125
520.1765	1215.3125
524.23987	1208.6125
528.30034	1214.6125
532.35792	1208.9125
536.41261	1206.7125
540.46441	1190.5125
544.51333	1191.6125
548.55936	1195.8125
552.60252	1194.2125
556.64279	1199.1125
560.6802	1186.1125
564.71473	1184.8125
568.7464	1202.3125
572.7752	1210.8125
576.80114	1199.2125
580.82422	1201.8125
584.84444	1198.9125
588.86181	1214.6125
592.87633	1222.4125
596.888	1235.1125
600.89682	1242.3125
604.9028	1273.3125
608.90594	1332.6125
612.90624	1417.0125
616.90371	1416.8125
620.89834	1329.3125
624.89015	1296.8125
628.87913	1294.5125
632.86528	1315.6125
636.84862	1322.9125
640.82913	1315.3125
644.80683	1287.9125
648.78172	1265.9125
652.75379	1256.4125
656.72306	1249.5125
660.68952	1260.7125
664.65319	1258.9125
668.61405	1249.1125
672.57211	1250.9125
676.52738	1254.4125
680.47986	1272.3125
684.42955	1299.2125
688.37646	1312.4125
692.32058	1304.0125
696.26192	1281.2125
700.20048	1267.7125
704.13626	1258.3125
708.06928	1252.1125
711.99952	1255.7125
715.927	1255.5125
719.85171	1248.1125
723.77365	1242.3125
727.69284	1247.3125
731.60928	1239.1125
735.52295	1233.1125
739.43388	1229.9125
743.34206	1228.8125
747.24749	1240.1125
751.15017	1228.0125
755.05012	1232.9125
758.94733	1235.8125
762.8418	1246.8125
766.73354	1293.9125
770.62254	1318.8125
774.50882	1346.6125
778.39237	1323.4125
782.27321	1291.4125
786.15132	1260.8125
790.02671	1251.2125
793.89938	1243.6125
797.76935	1246.8125
801.6366	1245.4125
805.50115	1256.4125
809.36299	1262.2125
813.22213	1263.6125
817.07857	1253.2125
820.93231	1249.9125
824.78336	1227.3125
828.63172	1229.9125
832.47738	1219.7125
836.32036	1224.3125
840.16066	1230.7125
843.99827	1218.9125
847.8332	1213.2125
851.66546	1214.9125
855.49504	1211.8125
859.32195	1198.0125
863.1462	1202.8125
866.96777	1205.3125
870.78668	1202.3125
874.60293	1217.9125
878.41652	1210.5125
882.22745	1228.1125
886.03573	1241.0125
889.84136	1248.0125
893.64433	1243.9125
897.44466	1239.4125
901.24235	1242.8125
905.0374	1233.4125
908.8298	1233.3125
912.61957	1230.2125
916.40671	1246.7125
920.19121	1251.3125
923.97308	1260.4125
927.75233	1255.8125
931.52895	1254.1125
935.30295	1247.1125
939.07433	1244.2125
942.84309	1212.2125
946.60924	1206.1125
950.37278	1194.7125
954.13371	1193.9125
957.89203	1167.6125
961.64774	1162.7125
965.40086	1152.8125
969.15137	1146.4125
972.89929	1147.0125
976.64461	1135.5125
980.38733	1129.5125
984.12747	1123.1125
987.86502	1119.5125
991.59999	1121.1125
995.33237	1114.0125
999.06217	1132.9125
1002.78939	1134.8125
1006.51404	1141.7125
1010.23611	1150.3125
1013.95561	1159.8125
1017.67255	1162.2125
1021.38692	1161.1125
1025.09872	1157.7125
1028.80796	1151.3125
1032.51465	1146.8125
1036.21877	1144.0125
1039.92035	1134.1125
1043.61937	1123.0125
1047.31584	1125.4125
1051.00976	1116.1125
1054.70114	1121.5125
1058.38998	1127.3125
1062.07627	1125.8125
1065.76003	1126.7125
1069.44126	1126.5125
1073.11995	1143.7125
1076.79611	1142.9125
1080.46974	1144.2125
1084.14085	1132.1125
1087.80943	1127.1125
1091.47549	1126.2125
1095.13903	1101.7125
1098.80005	1099.1125
1102.45857	1093.9125
1106.11456	1082.4125
1109.76805	1086.1125
1113.41903	1092.0125
1117.06751	1099.3125
1120.71348	1117.4125
1124.35696	1139.8125
1127.99793	1167.3125
1131.63641	1193.0125
1135.2724	1200.0125
1138.90589	1190.6125
1142.5369	1172.1125
1146.16542	1140.1125
1149.79145	1118.3125
1153.415	1095.2125
1157.03607	1082.4125
1160.65467	1073.2125
1164.27079	1076.4125
1167.88443	1086.0125
1171.49561	1096.1125
1175.10432	1121.6125
1178.71056	1148.6125
1182.31434	1188.9125
1185.91565	1186.2125
1189.51451	1166.1125
1193.11091	1156.8125
1196.70485	1146.6125
1200.29634	1143.4125
1203.88538	1123.7125
1207.47197	1113.2125
1211.05612	1100.2125
1214.63782	1077.4125
1218.21708	1074.2125
1221.79391	1064.4125
1225.36829	1065.2125
1228.94024	1066.4125
1232.50976	1058.2125
1236.07685	1061.5125
1239.6415	1064.1125
1243.20374	1065.5125
1246.76355	1070.3125
1250.32093	1075.9125
1253.8759	1082.8125
1257.42845	1087.7125
1260.97859	1095.0125
1264.52631	1094.2125
1268.07163	1099.7125
1271.61453	1107.9125
1275.15503	1103.9125
1278.69312	1113.1125
1282.22882	1099.5125
1285.76211	1115.5125
1289.29301	1123.4125
1292.82151	1133.9125
1296.34761	1143.3125
1299.87133	1165.3125
1303.39266	1196.2125
1306.9116	1219.5125
1310.42815	1266.0125
1313.94233	1278.9125
1317.45412	1262.2125
1320.96354	1234.5125
1324.47058	1199.2125
1327.97525	1175.0125
1331.47754	1156.6125
1334.97747	1150.7125
1338.47502	1159.7125
1341.97022	1167.1125
1345.46305	1202.2125
1348.95352	1230.5125
1352.44163	1282.0125
1355.92738	1328.8125
1359.41078	1400.6125
1362.89183	1465.1125
1366.37053	1475.3125
1369.84688	1404.0125
1373.32088	1315.6125
1376.79254	1252.0125
1380.26186	1220.2125
1383.72883	1213.0125
1387.19347	1180.8125
1390.65578	1170.3125
1394.11575	1161.5125
1397.57339	1147.4125
1401.0287	1126.6125
1404.48168	1127.8125
1407.93234	1107.2125
1411.38068	1091.3125
1414.82669	1089.4125
1418.27039	1080.4125
1421.71177	1070.5125
1425.15083	1056.4125
1428.58758	1043.2125
1432.02203	1028.2125
1435.45416	1018.0125
1438.88399	1016.2125
1442.31151	1002.0125
1445.73673	990.6125
1449.15965	988.8125
1452.58027	984.1125
1455.9986	986.1125
1459.41463	979.4125
1462.82837	981.5125
1466.23982	984.3125
1469.64898	994.0125
1473.05586	992.8125
1476.46045	987.8125
1479.86276	995.0125
1483.26279	1000.8125
1486.66054	1005.2125
1490.05602	1011.4125
1493.44922	1017.3125
1496.84016	1035.6125
1500.22882	1064.3125
1503.61521	1104.7125
1506.99934	1161.5125
1510.38121	1206.7125
1513.76081	1217.0125
1517.13816	1185.5125
1520.51324	1130.8125
1523.88607	1063.6125
1527.25665	1028.8125
1530.62498	1008.1125
1533.99105	998.3125
1537.35488	997.3125
1540.71647	992.3125
1544.07581	986.2125
1547.4329	987.3125
1550.78776	991.6125
1554.14038	990.3125
1557.49077	1004.6125
1560.83892	1004.3125
1564.18484	1016.4125
1567.52853	1024.9125
1570.86999	1035.3125
1574.20922	1051.5125
1577.54624	1048.7125
1580.88103	1044.4125
1584.2136	1010.5125
1587.54395	989.5125
1590.87208	967.9125
1594.19801	959.5125
1597.52172	961.3125
1600.84321	949.6125
1604.16251	942.5125
1607.47959	931.7125
1610.79447	925.4125
1614.10715	915.3125
1617.41763	896.9125
1620.7259	896.2125
1624.03199	900.0125
1627.33587	891.6125
1630.63757	889.3125
1633.93707	889.8125
1637.23439	905.1125
1640.52951	916.5125
1643.82246	929.4125
1647.11321	966.5125
1650.40179	984.3125
1653.68819	976.6125
1656.97241	950.7125
1660.25446	903.0125
1663.53433	880.5125
1666.81203	844.7125
1670.08756	832.8125
1673.36092	819.3125
1676.63211	815.2125
1679.90115	807.0125
1683.16801	799.0125
1686.43272	803.6125
1689.69527	787.8125
1692.95567	783.7125
1696.2139	779.7125
1699.46999	779.1125
1702.72392	765.3125
1705.97571	752.5125
1709.22535	731.5125
1712.47284	731.7125
1715.71819	713.4125
1718.96139	706.2125
1722.20246	692.1125
1725.44139	681.8125
1728.67818	678.4125
1731.91284	670.8125
1735.14537	665.0125
1738.37576	662.0125
1741.60403	656.8125
1744.83017	651.4125
1748.05418	644.1125
1751.27607	638.9125
1754.49584	640.1125
1757.71349	641.5125
1760.92903	629.6125
1764.14244	628.6125
1767.35375	633.6125
1770.56294	624.2125
1773.77002	620.5125
1776.97499	618.1125
1780.17785	618.1125
1783.37861	610.2125
1786.57727	611.9125
1789.77382	608.0125
1792.96828	601.0125
1796.16064	602.9125
1799.3509	602.1125
1802.53907	596.5125
1805.72514	601.5125
1808.90913	593.2125
1812.09102	583.5125
1815.27083	580.1125
1818.44856	589.3125
1821.6242	582.6125
1824.79776	577.9125
1827.96924	576.3125
1831.13864	576.8125
1834.30597	581.9125
1837.47122	574.5125
1840.6344	569.6125
1843.7955	570.6125
1846.95454	575.2125
1850.11151	566.6125
1853.26642	557.3125
1856.41926	561.0125
1859.57004	563.1125
1862.71876	559.0125
1865.86542	556.3125
1869.01003	558.2125
1872.15258	551.6125
1875.29308	557.4125
1878.43152	548.7125
1881.56792	546.1125
1884.70227	540.6125
1887.83457	547.8125
1890.96482	545.9125
1894.09304	535.9125
1897.21921	541.0125
1900.34335	534.2125
1903.46544	539.0125
1906.58551	534.4125
1909.70353	535.8125
1912.81953	537.3125
1915.93349	529.4125
1919.04543	526.9125
1922.15534	526.6125
1925.26322	526.4125
1928.36908	522.9125
1931.47292	520.1125
1934.57473	526.9125
1937.67453	525.8125
1940.77232	518.7125
1943.86808	516.0125
1946.96184	511.8125
1950.05358	509.6125
1953.14331	507.0125
1956.23103	502.4125
1959.31675	505.8125
1962.40046	498.0125
1965.48217	502.0125
1968.56188	498.4125
1971.63959	496.8125
1974.7153	495.7125
1977.78901	495.4125
1980.86073	487.7125
1983.93046	484.4125
1986.99819	487.4125
1990.06394	478.4125
1993.1277	481.2125
1996.18947	484.3125
1999.24925	477.1125
2002.30706	474.5125
2005.36288	473.5125
2008.41672	475.4125
2011.46859	468.5125
2014.51848	465.7125
2017.56639	462.7125
2020.61233	468.1125
2023.6563	459.7125
2026.6983	457.7125
2029.73833	450.1125
2032.7764	450.2125
2035.8125	452.9125
2038.84664	457.4125
2041.87881	452.4125
2044.90903	446.1125
2047.93729	452.0125
2050.96359	448.7125
2053.98794	447.2125
2057.01034	443.0125
2060.03078	448.2125
2063.04927	440.1125
2066.06582	445.8125
2069.08042	447.7125
2072.09307	445.7125
2075.10378	442.0125
2078.11255	434.9125
2081.11938	441.1125
2084.12426	442.7125
2087.12722	433.4125
2090.12824	438.5125
2093.12732	441.2125
2096.12447	438.7125
2099.11969	435.1125
2102.11299	433.1125
2105.10435	430.7125
2108.09379	439.9125
2111.08131	435.3125
2114.0669	434.1125
2117.05057	435.3125
2120.03233	436.6125
2123.01216	438.3125
2125.99008	443.0125
2128.96609	436.7125
2131.94018	439.5125
2134.91236	440.7125
2137.88263	448.3125
2140.851	438.3125
2143.81746	443.8125
2146.78201	443.4125
2149.74466	442.1125
2152.7054	445.6125
2155.66425	449.6125
2158.6212	455.5125
2161.57625	453.7125
2164.52941	455.6125
2167.48067	461.9125
2170.43004	459.3125
2173.37752	459.7125
2176.32311	461.9125
2179.26681	459.1125
2182.20863	458.5125
2185.14856	455.6125
2188.08661	453.5125
2191.02278	441.6125
2193.95707	433.5125
2196.88948	438.1125
2199.82001	424.3125
2202.74867	413.0125
2205.67545	414.0125
2208.60037	411.6125
2211.52341	409.3125
2214.44458	405.8125
2217.36388	400.9125
2220.28132	405.6125
2223.1969	395.0125
2226.11061	394.6125
2229.02246	396.9125
2231.93245	392.4125
2234.84058	393.1125
2237.74686	387.7125
2240.65128	391.6125
2243.55385	386.0125
2246.45456	385.2125
2249.35343	387.2125
2252.25044	388.0125
2255.14561	393.9125
2258.03893	381.6125
2260.93041	380.2125
2263.82004	378.3125
2266.70783	380.2125
2269.59378	375.3125
2272.4779	375.7125
2275.36017	372.1125
2278.24061	371.4125
2281.11922	373.8125
2283.996	373.3125
2286.87094	368.3125
2289.74405	360.8125
2292.61534	366.1125
2295.4848	367.2125
2298.35243	364.4125
2301.21824	365.1125
2304.08223	367.4125
2306.94439	363.4125
2309.80474	363.4125
2312.66327	361.6125
2315.51999	361.6125
2318.37489	356.6125
2321.22797	359.5125
2324.07925	356.2125
2326.92871	350.9125
2329.77637	360.7125
2332.62222	354.5125
2335.46626	348.1125
2338.3085	347.8125
2341.14893	352.5125
2343.98756	346.9125
2346.8244	347.9125
2349.65943	343.3125
2352.49267	349.9125
2355.32411	340.4125
2358.15376	344.5125
2360.98161	342.2125
2363.80768	340.1125
2366.63195	342.3125
2369.45444	341.1125
2372.27514	340.3125
2375.09405	338.2125
2377.91118	339.3125
2380.72652	330.6125
2383.54009	331.8125
2386.35187	336.7125
2389.16188	333.0125
2391.97011	334.3125
2394.77657	334.2125
2397.58125	329.0125
2400.38416	331.1125
2403.18529	332.0125
2405.98466	324.3125
2408.78226	322.7125
2411.57809	320.0125
2414.37216	322.0125
2417.16446	318.2125
2419.955	321.5125
2422.74378	319.2125
2425.5308	315.2125
2428.31606	320.7125
2431.09956	322.6125
2433.88131	315.3125
2436.6613	310.8125
2439.43954	314.9125
2442.21603	320.0125
2444.99077	318.3125
2447.76377	313.1125
2450.53501	316.8125
2453.30451	311.5125
2456.07226	312.1125
2458.83827	311.3125
2461.60254	308.4125
2464.36507	306.3125
2467.12586	303.7125
2469.88492	310.4125
2472.64224	308.3125
2475.39782	300.7125
2478.15167	301.8125
2480.90379	308.4125
2483.65417	309.3125
2486.40283	302.3125
2489.14976	300.9125
2491.89497	299.9125
2494.63845	300.7125
2497.3802	302.3125
2500.12024	302.6125
2502.85855	297.4125
2505.59514	299.7125
2508.33002	298.5125
2511.06318	298.1125
2513.79462	298.4125
2516.52435	294.0125
2519.25237	291.9125
2521.97867	292.4125
2524.70327	291.7125
2527.42616	292.9125
2530.14734	292.4125
2532.86681	291.9125
2535.58458	287.1125
2538.30065	289.0125
2541.01501	283.1125
2543.72768	289.2125
2546.43864	287.4125
2549.14791	283.4125
2551.85548	285.9125
2554.56136	281.4125
2557.26554	287.9125
2559.96803	282.0125
2562.66883	282.3125
2565.36794	278.7125
2568.06536	281.2125
2570.7611	278.3125
2573.45514	271.8125
2576.14751	271.5125
2578.83819	273.0125
2581.52719	277.2125
2584.21451	269.8125
2586.90015	274.1125
2589.58411	268.7125
2592.2664	270.2125
2594.94701	272.6125
2597.62594	268.4125
2600.30321	268.4125
2602.9788	269.2125
2605.65273	268.0125
2608.32498	268.1125
2610.99557	264.8125
2613.66449	265.6125
2616.33175	262.9125
2618.99734	260.8125
2621.66128	259.6125
2624.32355	263.6125
2626.98416	266.5125
2629.64311	261.6125
2632.30041	261.4125
2634.95605	261.9125
2637.61004	256.3125
2640.26238	258.5125
2642.91306	260.6125
2645.56209	255.9125
2648.20948	259.6125
2650.85521	261.7125
2653.4993	255.5125
2656.14175	256.7125
2658.78255	260.3125
2661.42171	252.7125
2664.05923	257.9125
2666.6951	254.5125
2669.32934	254.3125
2671.96194	257.3125
2674.59291	257.2125
2677.22224	260.7125
2679.84993	257.5125
2682.476	254.7125
2685.10043	250.4125
2687.72324	255.0125
2690.34441	255.7125
2692.96396	258.3125
2695.58188	252.2125
2698.19818	254.9125
2700.81285	254.2125
2703.4259	259.6125
2706.03733	250.8125
2708.64714	260.2125
2711.25533	252.2125
2713.86191	248.1125
2716.46687	253.1125
2719.07021	252.4125
2721.67194	253.4125
2724.27206	252.3125
2726.87057	250.6125
2729.46747	250.9125
2732.06276	249.5125
2734.65644	251.8125
2737.24852	254.5125
2739.83899	252.7125
2742.42786	250.6125
2745.01513	252.4125
2747.60079	251.1125
2750.18486	248.4125
2752.76733	247.6125
2755.3482	249.6125
2757.92747	244.6125
2760.50515	251.1125
2763.08123	249.1125
2765.65573	247.8125
2768.22863	246.0125
2770.79994	246.6125
2773.36967	244.4125
2775.9378	247.2125
2778.50435	244.9125
2781.06932	243.6125
2783.6327	245.2125
2786.1945	242.0125
2788.75471	242.3125
2791.31335	243.3125
2793.87041	242.7125
2796.42589	240.2125
2798.97979	241.2125
2801.53212	235.7125
2804.08288	241.0125
2806.63206	239.2125
2809.17967	241.2125
2811.72571	238.5125
2814.27018	238.5125
2816.81308	241.3125
2819.35442	236.5125
2821.89419	237.5125
2824.43239	234.3125
2826.96904	234.7125
2829.50412	235.7125
2832.03763	228.9125
2834.56959	236.7125
2837.1	233.8125
2839.62884	229.7125
2842.15613	235.8125
2844.68186	234.0125
2847.20604	235.3125
2849.72867	230.5125
2852.24974	236.7125
2854.76927	232.3125
2857.28724	232.5125
2859.80367	235.7125
2862.31855	235.9125
2864.83189	232.9125
2867.34368	233.5125
2869.85393	233.2125
2872.36264	237.1125
2874.8698	235.2125
2877.37543	233.9125
2879.87952	234.6125
2882.38207	229.2125
2884.88308	236.6125
2887.38256	235.8125
2889.88051	239.7125
2892.37692	238.3125
2894.8718	236.0125
2897.36515	238.3125
2899.85698	241.3125
2902.34727	239.1125
2904.83604	243.7125
2907.32328	246.3125
2909.809	250.1125
2912.29319	250.0125
2914.77587	249.0125
2917.25702	251.2125
2919.73665	252.9125
2922.21476	255.4125
2924.69136	251.7125
2927.16644	255.2125
2929.64	249.5125
2932.11205	253.8125
2934.58258	253.9125
2937.05161	258.9125
2939.51912	259.8125
2941.98513	258.8125
2944.44962	256.8125
2946.91261	259.2125
2949.37409	256.2125
2951.83407	252.3125
2954.29254	255.1125
2956.74951	254.0125
2959.20498	252.7125
2961.65895	254.5125
2964.11142	258.3125
2966.56239	249.1125
2969.01186	254.0125
2971.45984	253.8125
2973.90632	259.1125
2976.35131	259.9125
2978.7948	256.7125
2981.23681	256.0125
2983.67732	256.3125
2986.11635	258.1125
2988.55388	255.7125
2990.98993	265.4125
2993.4245	260.3125
2995.85758	259.4125
2998.28917	258.6125
3000.71928	266.1125
3003.14791	268.6125
3005.57506	264.4125
3008.00073	267.2125
3010.42493	268.0125
3012.84764	268.5125
3015.26888	273.8125
3017.68865	271.5125
3020.10694	275.2125
3022.52376	273.8125
3024.9391	276.1125
3027.35298	281.6125
3029.76539	273.2125
3032.17632	283.5125
3034.5858	286.0125
3036.9938	288.6125
3039.40034	287.2125
3041.80542	293.9125
3044.20903	294.1125
3046.61118	294.8125
3049.01187	299.0125
3051.4111	301.8125
3053.80888	302.7125
3056.20519	305.2125
3058.60005	308.4125
3060.99345	314.5125
3063.3854	309.3125
3065.7759	311.7125
3068.16494	317.1125
3070.55254	322.4125
3072.93868	323.5125
3075.32338	330.2125
3077.70662	326.9125
3080.08842	332.4125
3082.46878	338.4125
3084.84769	339.3125
3087.22515	341.2125
3089.60118	348.7125
3091.97576	352.8125
3094.3489	360.3125
3096.72061	358.4125
3099.09087	368.1125
3101.4597	369.7125
3103.82709	375.8125
3106.19305	383.0125
3108.55757	389.2125
3110.92066	387.5125
3113.28232	395.8125
3115.64255	398.0125
3118.00134	404.9125
3120.35871	407.5125
3122.71466	411.2125
3125.06917	414.9125
3127.42226	425.4125
3129.77393	431.7125
3132.12417	433.4125
3134.47299	442.1125
3136.82039	445.1125
3139.16636	453.0125
3141.51092	451.5125
3143.85406	462.0125
3146.19579	469.8125
3148.53609	471.8125
3150.87499	483.7125
3153.21246	487.5125
3155.54853	494.6125
3157.88318	501.9125
3160.21642	504.7125
3162.54826	514.3125
3164.87868	514.8125
3167.2077	525.9125
3169.5353	524.2125
3171.86151	539.4125
3174.18631	549.2125
3176.5097	549.8125
3178.83169	553.4125
3181.15228	554.5125
3183.47147	562.3125
3185.78926	568.4125
3188.10565	577.6125
3190.42065	582.1125
3192.73424	589.9125
3195.04645	584.4125
3197.35725	594.0125
