Data from AuAgCoreShell_UA_100uM_CRN_0uM_R6G_10uM_Scan_RamanShift__21__14-33-49-791.txt Node

Date: Thu Jun 23 14:33:49 BST 2022
User: TCL
Spectrometer: QEP01345
Trigger mode: 4
Integration Time (sec): 7.000000E0
Scans to average: 10
Electric dark correction enabled: true
Nonlinearity correction enabled: false
Boxcar width: 0
XAxis mode: Raman Shifts
Number of Pixels in Spectrum: 1044
>>>>>Begin Spectral Data<<<<<
46.04893	-0.95
50.45542	-0.95
54.85868	0.55
59.25871	0.65
63.6555	34.05
68.04907	35.75
72.43941	40.65
76.82654	44.25
81.21044	46.55
85.59113	48.85
89.96862	52.75
94.34289	53.75
98.71396	55.95
103.08183	54.15
107.4465	57.55
111.80798	56.65
116.16626	59.95
120.52136	54.55
124.87327	55.35
129.222	52.05
133.56755	54.35
137.90993	52.55
142.24913	51.85
146.58517	51.45
150.91804	54.55
155.24774	53.15
159.57429	55.35
163.89768	56.15
168.21792	60.95
172.53501	69.35
176.84895	81.85
181.15975	99.25
185.46741	121.75
189.77193	154.65
194.07331	200.15
198.37157	246.75
202.6667	294.85
206.9587	340.85
211.24758	391.35
215.53334	441.95
219.81599	483.45
224.09553	542.75
228.37195	594.45
232.64527	658.55
236.91549	728.35
241.18261	792.35
245.44663	865.85
249.70755	924.35
253.96539	981.05
258.22014	1020.05
262.4718	1056.55
266.72039	1073.85
270.96589	1090.95
275.20832	1094.05
279.44768	1077.05
283.68397	1052.65
287.91719	1035.05
292.14735	1026.05
296.37445	1007.85
300.59849	1005.65
304.81948	988.25
309.03742	993.15
313.25231	987.05
317.46415	978.65
321.67296	972.95
325.87872	967.75
330.08145	979.05
334.28114	976.05
338.47781	982.15
342.67145	996.05
346.86207	1009.65
351.04966	1019.55
355.23424	1037.35
359.4158	1053.45
363.59435	1072.95
367.76989	1083.35
371.94243	1095.65
376.11196	1099.45
380.27849	1115.85
384.44203	1122.65
388.60257	1130.45
392.76012	1131.25
396.91468	1145.95
401.06626	1162.65
405.21485	1167.55
409.36047	1167.55
413.50311	1175.75
417.64277	1165.65
421.77947	1181.05
425.9132	1182.45
430.04396	1182.55
434.17176	1188.65
438.2966	1196.95
442.41849	1202.25
446.53742	1218.85
450.6534	1220.95
454.76644	1231.15
458.87653	1231.15
462.98368	1236.05
467.08789	1243.65
471.18916	1244.45
475.2875	1241.85
479.38291	1242.75
483.4754	1249.95
487.56496	1265.75
491.6516	1264.45
495.73531	1284.15
499.81612	1276.65
503.89401	1267.65
507.96899	1266.75
512.04106	1253.25
516.11023	1253.55
520.1765	1250.95
524.23987	1249.85
528.30034	1252.45
532.35792	1248.05
536.41261	1244.85
540.46441	1237.75
544.51333	1231.05
548.55936	1224.75
552.60252	1220.65
556.64279	1228.35
560.6802	1227.35
564.71473	1232.45
568.7464	1229.75
572.7752	1237.15
576.80114	1227.65
580.82422	1233.25
584.84444	1239.65
588.86181	1252.05
592.87633	1260.15
596.888	1263.05
600.89682	1276.65
604.9028	1288.65
608.90594	1334.25
612.90624	1399.75
616.90371	1392.25
620.89834	1334.75
624.89015	1337.05
628.87913	1342.35
632.86528	1372.25
636.84862	1385.65
640.82913	1380.35
644.80683	1353.95
648.78172	1329.85
652.75379	1303.95
656.72306	1292.65
660.68952	1298.05
664.65319	1295.95
668.61405	1280.65
672.57211	1286.05
676.52738	1288.65
680.47986	1316.65
684.42955	1327.35
688.37646	1331.25
692.32058	1320.15
696.26192	1310.55
700.20048	1290.45
704.13626	1289.65
708.06928	1294.85
711.99952	1275.35
715.927	1291.65
719.85171	1285.75
723.77365	1284.35
727.69284	1284.75
731.60928	1286.15
735.52295	1267.45
739.43388	1274.85
743.34206	1274.85
747.24749	1265.65
751.15017	1267.65
755.05012	1269.25
758.94733	1265.25
762.8418	1273.65
766.73354	1300.55
770.62254	1332.45
774.50882	1344.75
778.39237	1329.65
782.27321	1310.25
786.15132	1290.95
790.02671	1273.55
793.89938	1268.95
797.76935	1274.85
801.6366	1282.35
805.50115	1296.55
809.36299	1303.65
813.22213	1312.15
817.07857	1308.45
820.93231	1283.35
824.78336	1268.35
828.63172	1259.55
832.47738	1255.75
836.32036	1257.25
840.16066	1263.55
843.99827	1255.35
847.8332	1261.65
851.66546	1255.35
855.49504	1244.75
859.32195	1244.55
863.1462	1241.15
866.96777	1232.85
870.78668	1244.45
874.60293	1260.05
878.41652	1256.05
882.22745	1271.95
886.03573	1285.75
889.84136	1282.45
893.64433	1276.75
897.44466	1274.05
901.24235	1250.35
905.0374	1244.75
908.8298	1244.85
912.61957	1247.65
916.40671	1247.45
920.19121	1254.85
923.97308	1253.15
927.75233	1244.75
931.52895	1248.95
935.30295	1245.45
939.07433	1237.05
942.84309	1221.65
946.60924	1227.25
950.37278	1204.95
954.13371	1202.15
957.89203	1188.25
961.64774	1190.45
965.40086	1183.35
969.15137	1169.55
972.89929	1167.15
976.64461	1155.55
980.38733	1147.95
984.12747	1146.85
987.86502	1148.65
991.59999	1139.35
995.33237	1146.15
999.06217	1150.05
1002.78939	1157.85
1006.51404	1162.85
1010.23611	1166.95
1013.95561	1186.75
1017.67255	1191.15
1021.38692	1188.45
1025.09872	1181.25
1028.80796	1174.55
1032.51465	1168.85
1036.21877	1161.35
1039.92035	1156.75
1043.61937	1155.35
1047.31584	1142.45
1051.00976	1144.15
1054.70114	1144.95
1058.38998	1143.15
1062.07627	1145.25
1065.76003	1155.85
1069.44126	1163.45
1073.11995	1175.95
1076.79611	1172.45
1080.46974	1168.85
1084.14085	1154.55
1087.80943	1147.15
1091.47549	1147.35
1095.13903	1133.95
1098.80005	1116.95
1102.45857	1123.35
1106.11456	1102.95
1109.76805	1106.25
1113.41903	1120.35
1117.06751	1124.45
1120.71348	1133.15
1124.35696	1169.35
1127.99793	1196.05
1131.63641	1220.15
1135.2724	1242.55
1138.90589	1229.95
1142.5369	1204.05
1146.16542	1178.45
1149.79145	1152.05
1153.415	1126.55
1157.03607	1112.75
1160.65467	1094.75
1164.27079	1094.75
1167.88443	1091.65
1171.49561	1105.85
1175.10432	1123.85
1178.71056	1141.35
1182.31434	1167.65
1185.91565	1163.65
1189.51451	1167.25
1193.11091	1160.45
1196.70485	1163.25
1200.29634	1157.85
1203.88538	1149.85
1207.47197	1148.15
1211.05612	1124.75
1214.63782	1109.35
1218.21708	1107.25
1221.79391	1088.85
1225.36829	1074.15
1228.94024	1083.85
1232.50976	1077.75
1236.07685	1067.85
1239.6415	1070.65
1243.20374	1076.75
1246.76355	1082.45
1250.32093	1081.35
1253.8759	1080.65
1257.42845	1087.35
1260.97859	1090.35
1264.52631	1099.55
1268.07163	1103.25
1271.61453	1106.25
1275.15503	1095.35
1278.69312	1107.65
1282.22882	1100.15
1285.76211	1101.85
1289.29301	1100.65
1292.82151	1114.25
1296.34761	1120.15
1299.87133	1139.65
1303.39266	1151.95
1306.9116	1183.55
1310.42815	1208.25
1313.94233	1219.15
1317.45412	1206.05
1320.96354	1192.95
1324.47058	1173.65
1327.97525	1162.85
1331.47754	1138.15
1334.97747	1143.85
1338.47502	1154.05
1341.97022	1164.75
1345.46305	1179.85
1348.95352	1207.05
1352.44163	1245.75
1355.92738	1287.75
1359.41078	1333.65
1362.89183	1389.05
1366.37053	1382.15
1369.84688	1336.35
1373.32088	1267.25
1376.79254	1222.45
1380.26186	1196.55
1383.72883	1178.55
1387.19347	1163.15
1390.65578	1131.65
1394.11575	1129.15
1397.57339	1110.25
1401.0287	1103.85
1404.48168	1081.05
1407.93234	1076.45
1411.38068	1059.35
1414.82669	1053.85
1418.27039	1036.55
1421.71177	1029.85
1425.15083	1017.45
1428.58758	999.45
1432.02203	999.55
1435.45416	986.65
1438.88399	986.65
1442.31151	976.15
1445.73673	971.75
1449.15965	971.45
1452.58027	954.95
1455.9986	964.05
1459.41463	962.45
1462.82837	959.35
1466.23982	970.95
1469.64898	977.85
1473.05586	965.05
1476.46045	965.35
1479.86276	964.55
1483.26279	978.55
1486.66054	980.25
1490.05602	984.65
1493.44922	992.65
1496.84016	999.25
1500.22882	1020.55
1503.61521	1054.75
1506.99934	1083.35
1510.38121	1120.75
1513.76081	1125.55
1517.13816	1102.45
1520.51324	1067.75
1523.88607	1023.05
1527.25665	989.55
1530.62498	975.95
1533.99105	978.25
1537.35488	971.65
1540.71647	978.65
1544.07581	973.35
1547.4329	988.25
1550.78776	980.05
1554.14038	988.15
1557.49077	994.65
1560.83892	1004.65
1564.18484	997.35
1567.52853	1009.55
1570.86999	1031.55
1574.20922	1027.85
1577.54624	1027.35
1580.88103	1031.15
1584.2136	1017.05
1587.54395	988.55
1590.87208	978.95
1594.19801	957.65
1597.52172	954.25
1600.84321	956.05
1604.16251	942.05
1607.47959	938.15
1610.79447	938.05
1614.10715	932.25
1617.41763	923.75
1620.7259	914.55
1624.03199	916.05
1627.33587	922.55
1630.63757	909.15
1633.93707	912.05
1637.23439	916.85
1640.52951	919.75
1643.82246	936.85
1647.11321	963.05
1650.40179	978.65
1653.68819	970.95
1656.97241	945.05
1660.25446	912.45
1663.53433	875.95
1666.81203	857.75
1670.08756	848.95
1673.36092	841.25
1676.63211	830.65
1679.90115	831.95
1683.16801	817.85
1686.43272	813.65
1689.69527	805.25
1692.95567	810.55
1696.2139	810.45
1699.46999	807.75
1702.72392	795.95
1705.97571	784.95
1709.22535	757.35
1712.47284	741.65
1715.71819	731.75
1718.96139	727.85
1722.20246	718.15
1725.44139	706.15
1728.67818	701.45
1731.91284	682.65
1735.14537	681.85
1738.37576	684.55
1741.60403	673.05
1744.83017	669.35
1748.05418	659.65
1751.27607	656.25
1754.49584	660.55
1757.71349	656.75
1760.92903	657.85
1764.14244	652.85
1767.35375	650.45
1770.56294	644.05
1773.77002	649.45
1776.97499	635.75
1780.17785	629.65
1783.37861	633.15
1786.57727	625.65
1789.77382	622.35
1792.96828	621.85
1796.16064	617.75
1799.3509	616.85
1802.53907	614.85
1805.72514	614.85
1808.90913	613.65
1812.09102	606.45
1815.27083	602.65
1818.44856	598.95
1821.6242	596.45
1824.79776	592.35
1827.96924	592.95
1831.13864	590.75
1834.30597	592.95
1837.47122	587.25
1840.6344	585.65
1843.7955	583.95
1846.95454	582.75
1850.11151	578.15
1853.26642	579.05
1856.41926	577.95
1859.57004	574.65
1862.71876	567.65
1865.86542	569.95
1869.01003	568.15
1872.15258	564.25
1875.29308	561.25
1878.43152	563.45
1881.56792	564.45
1884.70227	556.15
1887.83457	547.75
1890.96482	553.95
1894.09304	549.85
1897.21921	547.65
1900.34335	547.45
1903.46544	546.55
1906.58551	543.85
1909.70353	542.35
1912.81953	540.95
1915.93349	538.65
1919.04543	542.55
1922.15534	534.65
1925.26322	531.05
1928.36908	533.85
1931.47292	531.75
1934.57473	535.85
1937.67453	540.55
1940.77232	528.25
1943.86808	526.95
1946.96184	523.35
1950.05358	521.95
1953.14331	519.25
1956.23103	516.65
1959.31675	515.55
1962.40046	513.45
1965.48217	512.65
1968.56188	508.25
1971.63959	504.05
1974.7153	501.35
1977.78901	496.55
1980.86073	494.35
1983.93046	496.15
1986.99819	492.15
1990.06394	488.25
1993.1277	491.25
1996.18947	492.95
1999.24925	483.95
2002.30706	475.65
2005.36288	480.65
2008.41672	485.55
2011.46859	480.05
2014.51848	477.95
2017.56639	473.25
2020.61233	470.85
2023.6563	470.45
2026.6983	469.45
2029.73833	459.65
2032.7764	465.05
2035.8125	460.35
2038.84664	456.15
2041.87881	459.55
2044.90903	459.85
2047.93729	461.35
2050.96359	455.45
2053.98794	453.25
2057.01034	449.05
2060.03078	448.65
2063.04927	450.35
2066.06582	450.45
2069.08042	452.95
2072.09307	449.05
2075.10378	454.55
2078.11255	444.15
2081.11938	448.65
2084.12426	447.25
2087.12722	438.95
2090.12824	440.65
2093.12732	444.05
2096.12447	442.25
2099.11969	439.45
2102.11299	447.45
2105.10435	440.05
2108.09379	445.55
2111.08131	436.05
2114.0669	439.65
2117.05057	440.95
2120.03233	440.15
2123.01216	439.55
2125.99008	446.25
2128.96609	443.05
2131.94018	438.75
2134.91236	439.55
2137.88263	436.45
2140.851	441.85
2143.81746	440.75
2146.78201	450.95
2149.74466	439.85
2152.7054	445.05
2155.66425	442.85
2158.6212	446.95
2161.57625	448.55
2164.52941	440.55
2167.48067	451.95
2170.43004	447.15
2173.37752	450.75
2176.32311	452.25
2179.26681	447.85
2182.20863	443.95
2185.14856	442.45
2188.08661	436.45
2191.02278	438.55
2193.95707	431.15
2196.88948	426.15
2199.82001	426.15
2202.74867	418.35
2205.67545	419.95
2208.60037	416.25
2211.52341	420.05
2214.44458	412.65
2217.36388	407.15
2220.28132	408.45
2223.1969	408.15
2226.11061	407.25
2229.02246	404.65
2231.93245	399.15
2234.84058	406.05
2237.74686	404.95
2240.65128	400.95
2243.55385	397.05
2246.45456	391.95
2249.35343	397.25
2252.25044	393.45
2255.14561	386.85
2258.03893	387.45
2260.93041	391.15
2263.82004	388.55
2266.70783	384.35
2269.59378	385.55
2272.4779	380.25
2275.36017	384.15
2278.24061	381.65
2281.11922	381.35
2283.996	375.55
2286.87094	378.05
2289.74405	379.35
2292.61534	375.45
2295.4848	377.25
2298.35243	372.55
2301.21824	368.85
2304.08223	367.85
2306.94439	373.15
2309.80474	369.45
2312.66327	365.25
2315.51999	365.45
2318.37489	365.75
2321.22797	361.95
2324.07925	363.45
2326.92871	362.05
2329.77637	368.35
2332.62222	367.15
2335.46626	359.65
2338.3085	358.95
2341.14893	350.95
2343.98756	351.95
2346.8244	351.35
2349.65943	348.15
2352.49267	354.85
2355.32411	353.95
2358.15376	348.05
2360.98161	350.25
2363.80768	349.55
2366.63195	344.65
2369.45444	345.05
2372.27514	347.05
2375.09405	346.75
2377.91118	343.65
2380.72652	343.15
2383.54009	345.45
2386.35187	344.95
2389.16188	360.65
2391.97011	384.65
2394.77657	352.25
2397.58125	340.45
2400.38416	338.55
2403.18529	337.75
2405.98466	332.05
2408.78226	329.15
2411.57809	324.85
2414.37216	331.25
2417.16446	326.75
2419.955	329.75
2422.74378	329.45
2425.5308	325.85
2428.31606	328.05
2431.09956	328.25
2433.88131	325.35
2436.6613	315.15
2439.43954	321.25
2442.21603	322.55
2444.99077	321.35
2447.76377	321.65
2450.53501	316.85
2453.30451	321.95
2456.07226	317.15
2458.83827	317.65
2461.60254	316.65
2464.36507	313.45
2467.12586	316.35
2469.88492	315.65
2472.64224	316.15
2475.39782	309.35
2478.15167	314.05
2480.90379	312.85
2483.65417	311.15
2486.40283	305.15
2489.14976	310.25
2491.89497	306.85
2494.63845	312.15
2497.3802	312.85
2500.12024	308.45
2502.85855	303.15
2505.59514	310.05
2508.33002	304.75
2511.06318	304.55
2513.79462	301.85
2516.52435	304.25
2519.25237	299.15
2521.97867	300.05
2524.70327	300.65
2527.42616	294.65
2530.14734	299.95
2532.86681	295.25
2535.58458	295.65
2538.30065	298.15
2541.01501	296.95
2543.72768	293.95
2546.43864	292.85
2549.14791	289.25
2551.85548	290.75
2554.56136	287.35
2557.26554	297.55
2559.96803	286.85
2562.66883	288.55
2565.36794	291.15
2568.06536	288.85
2570.7611	286.65
2573.45514	278.25
2576.14751	278.55
2578.83819	286.25
2581.52719	280.75
2584.21451	282.45
2586.90015	283.25
2589.58411	278.95
2592.2664	277.05
2594.94701	278.85
2597.62594	275.25
2600.30321	275.35
2602.9788	268.35
2605.65273	278.95
2608.32498	273.75
2610.99557	275.85
2613.66449	267.95
2616.33175	267.25
2618.99734	266.65
2621.66128	270.35
2624.32355	267.65
2626.98416	272.05
2629.64311	267.45
2632.30041	264.45
2634.95605	260.05
2637.61004	260.15
2640.26238	256.35
2642.91306	254.65
2645.56209	253.15
2648.20948	251.45
2650.85521	252.65
2653.4993	249.15
2656.14175	249.75
2658.78255	251.15
2661.42171	251.45
2664.05923	249.65
2666.6951	256.85
2669.32934	249.05
2671.96194	250.75
2674.59291	256.95
2677.22224	257.55
2679.84993	256.05
2682.476	257.95
2685.10043	255.45
2687.72324	255.15
2690.34441	253.95
2692.96396	254.15
2695.58188	250.05
2698.19818	246.35
2700.81285	253.05
2703.4259	257.45
2706.03733	256.45
2708.64714	256.75
2711.25533	253.65
2713.86191	254.05
2716.46687	244.75
2719.07021	253.15
2721.67194	250.65
2724.27206	252.05
2726.87057	249.45
2729.46747	255.85
2732.06276	250.65
2734.65644	261.55
2737.24852	269.55
2739.83899	255.45
2742.42786	251.85
2745.01513	250.75
2747.60079	253.25
2750.18486	248.95
2752.76733	251.55
2755.3482	250.75
2757.92747	252.85
2760.50515	252.45
2763.08123	253.45
2765.65573	247.75
2768.22863	255.25
2770.79994	253.45
2773.36967	248.05
2775.9378	252.05
2778.50435	253.15
2781.06932	247.85
2783.6327	251.55
2786.1945	249.15
2788.75471	249.75
2791.31335	249.65
2793.87041	244.05
2796.42589	244.55
2798.97979	248.35
2801.53212	247.15
2804.08288	242.45
2806.63206	245.05
2809.17967	246.75
2811.72571	242.75
2814.27018	241.85
2816.81308	239.45
2819.35442	235.15
2821.89419	241.15
2824.43239	242.75
2826.96904	241.55
2829.50412	244.25
2832.03763	234.75
2834.56959	241.85
2837.1	237.15
2839.62884	237.85
2842.15613	237.95
2844.68186	239.85
2847.20604	234.05
2849.72867	240.65
2852.24974	240.35
2854.76927	238.25
2857.28724	238.45
2859.80367	243.25
2862.31855	238.65
2864.83189	239.35
2867.34368	235.85
2869.85393	238.85
2872.36264	241.95
2874.8698	245.25
2877.37543	239.55
2879.87952	239.55
2882.38207	238.45
2884.88308	241.35
2887.38256	239.65
2889.88051	244.45
2892.37692	242.75
2894.8718	244.05
2897.36515	244.15
2899.85698	248.45
2902.34727	249.45
2904.83604	248.15
2907.32328	250.35
2909.809	251.95
2912.29319	249.45
2914.77587	249.05
2917.25702	252.15
2919.73665	255.45
2922.21476	258.25
2924.69136	258.05
2927.16644	254.05
2929.64	256.65
2932.11205	260.25
2934.58258	259.55
2937.05161	260.65
2939.51912	264.45
2941.98513	262.35
2944.44962	261.75
2946.91261	263.25
2949.37409	262.95
2951.83407	257.05
2954.29254	258.75
2956.74951	259.65
2959.20498	256.15
2961.65895	264.95
2964.11142	257.25
2966.56239	259.35
2969.01186	260.75
2971.45984	264.15
2973.90632	264.75
2976.35131	265.95
2978.7948	261.45
2981.23681	260.85
2983.67732	267.75
2986.11635	265.75
2988.55388	262.95
2990.98993	265.95
2993.4245	265.25
2995.85758	266.15
2998.28917	266.25
3000.71928	268.65
3003.14791	273.75
3005.57506	270.25
3008.00073	271.75
3010.42493	276.45
3012.84764	278.65
3015.26888	281.05
3017.68865	277.05
3020.10694	279.75
3022.52376	282.45
3024.9391	280.75
3027.35298	286.85
3029.76539	286.05
3032.17632	292.85
3034.5858	287.25
3036.9938	293.35
3039.40034	294.35
3041.80542	294.55
3044.20903	299.05
3046.61118	310.35
3049.01187	308.85
3051.4111	303.85
3053.80888	310.35
3056.20519	314.15
3058.60005	316.15
3060.99345	318.25
3063.3854	315.85
3065.7759	326.45
3068.16494	323.15
3070.55254	326.45
3072.93868	327.65
3075.32338	333.75
3077.70662	334.15
3080.08842	338.05
3082.46878	345.15
3084.84769	345.65
3087.22515	352.35
3089.60118	357.45
3091.97576	356.85
3094.3489	362.55
3096.72061	366.55
3099.09087	370.05
3101.4597	381.65
3103.82709	381.15
3106.19305	392.05
3108.55757	393.45
3110.92066	397.45
3113.28232	407.75
3115.64255	403.45
3118.00134	410.65
3120.35871	416.65
3122.71466	421.65
3125.06917	427.05
3127.42226	429.85
3129.77393	436.25
3132.12417	440.85
3134.47299	450.55
3136.82039	449.15
3139.16636	461.85
3141.51092	461.35
3143.85406	472.65
3146.19579	472.95
3148.53609	478.05
3150.87499	494.15
3153.21246	497.55
3155.54853	506.35
3157.88318	509.95
3160.21642	517.75
3162.54826	524.15
3164.87868	530.75
3167.2077	537.85
3169.5353	538.25
3171.86151	551.25
3174.18631	561.15
3176.5097	560.25
3178.83169	569.05
3181.15228	570.25
3183.47147	570.95
3185.78926	578.05
3188.10565	596.85
3190.42065	582.85
3192.73424	593.75
3195.04645	598.15
3197.35725	602.15
3199.66667	610.55
3201.97469	616.85
3204.28132	620.35
3206.58656	619.85
3208.8904	626.95
3211.19287	632.55
3213.49394	637.45
3215.79363	643.55
3218.09193	637.95
3220.38884	641.85
3222.68438	651.95
3224.97853	658.35
3227.2713	655.55
3229.56269	659.35
3231.8527	659.75
3234.14133	664.35
3236.42858	658.25
3238.71446	659.35
3240.99896	660.85
3243.28209	672.85
3245.56384	663.15
3247.84423	662.45
3250.12324	664.55
3252.40088	665.05
3254.67715	678.95
3256.95205	669.15
3259.22558	674.15
3261.49775	673.05
3263.76855	673.65
3266.03799	674.15
3268.30606	677.65
3270.57277	671.75
3272.83812	672.35
3275.10211	669.45
3277.36474	669.85
3279.62601	674.15
3281.88593	671.55
3284.14448	673.65
3286.40168	669.35
3288.65753	678.85
3290.91202	673.45
3293.16516	675.85
3295.41695	669.95
3297.66738	668.65
3299.91647	662.55
3302.16421	665.75
3304.4106	662.75
3306.65564	658.65
3308.89933	657.15
3311.14169	656.75
3313.38269	647.75
3315.62236	650.35
3317.86068	645.65
3320.09766	646.95
3322.3333	638.15
3324.5676	630.55
3326.80056	630.85
3329.03219	629.25
3331.26248	-1.25
3333.49143	1.75
3335.71905	-0.15
