Data from AuAgCoreShell_UA_100uM_CRN_0uM_R6G_10uM_Scan_RamanShift__14__14-25-39-781.txt Node

Date: Thu Jun 23 14:25:39 BST 2022
User: TCL
Spectrometer: QEP01345
Trigger mode: 4
Integration Time (sec): 7.000000E0
Scans to average: 10
Electric dark correction enabled: true
Nonlinearity correction enabled: false
Boxcar width: 0
XAxis mode: Raman Shifts
Number of Pixels in Spectrum: 1044
>>>>>Begin Spectral Data<<<<<
46.04893	-1.575
50.45542	-0.975
54.85868	0.725
59.25871	1.725
63.6555	34.625
68.04907	35.325
72.43941	40.625
76.82654	41.825
81.21044	44.925
85.59113	48.025
89.96862	54.625
94.34289	54.625
98.71396	53.825
103.08183	54.925
107.4465	60.425
111.80798	59.925
116.16626	60.625
120.52136	55.425
124.87327	56.025
129.222	58.825
133.56755	54.525
137.90993	55.525
142.24913	51.525
146.58517	51.925
150.91804	55.525
155.24774	51.925
159.57429	54.025
163.89768	55.925
168.21792	63.725
172.53501	69.125
176.84895	82.625
181.15975	96.425
185.46741	120.525
189.77193	155.725
194.07331	202.625
198.37157	254.025
202.6667	303.125
206.9587	355.425
211.24758	401.025
215.53334	459.725
219.81599	505.125
224.09553	555.825
228.37195	615.825
232.64527	687.725
236.91549	752.625
241.18261	823.625
245.44663	889.325
249.70755	962.125
253.96539	1013.625
258.22014	1058.325
262.4718	1093.025
266.72039	1113.225
270.96589	1117.525
275.20832	1127.825
279.44768	1103.825
283.68397	1077.725
287.91719	1054.625
292.14735	1042.225
296.37445	1019.025
300.59849	1019.325
304.81948	1005.825
309.03742	1002.725
313.25231	998.225
317.46415	989.825
321.67296	977.825
325.87872	973.225
330.08145	976.425
334.28114	978.125
338.47781	982.525
342.67145	998.725
346.86207	1020.825
351.04966	1026.925
355.23424	1040.225
359.4158	1062.825
363.59435	1077.825
367.76989	1091.525
371.94243	1100.125
376.11196	1104.125
380.27849	1121.625
384.44203	1122.425
388.60257	1133.025
392.76012	1146.425
396.91468	1146.625
401.06626	1163.525
405.21485	1162.625
409.36047	1165.425
413.50311	1170.825
417.64277	1155.325
421.77947	1165.625
425.9132	1165.125
430.04396	1174.425
434.17176	1187.025
438.2966	1180.325
442.41849	1194.525
446.53742	1203.625
450.6534	1208.525
454.76644	1214.725
458.87653	1221.125
462.98368	1230.425
467.08789	1222.625
471.18916	1232.725
475.2875	1226.225
479.38291	1230.125
483.4754	1226.925
487.56496	1243.625
491.6516	1251.425
495.73531	1256.725
499.81612	1256.525
503.89401	1249.925
507.96899	1239.525
512.04106	1232.625
516.11023	1241.525
520.1765	1234.525
524.23987	1233.725
528.30034	1233.425
532.35792	1222.725
536.41261	1229.725
540.46441	1223.625
544.51333	1207.625
548.55936	1204.925
552.60252	1207.625
556.64279	1214.425
560.6802	1207.425
564.71473	1217.725
568.7464	1227.925
572.7752	1224.625
576.80114	1226.025
580.82422	1222.125
584.84444	1222.525
588.86181	1234.125
592.87633	1247.725
596.888	1246.525
600.89682	1257.025
604.9028	1279.825
608.90594	1343.025
612.90624	1424.725
616.90371	1419.325
620.89834	1342.725
624.89015	1318.925
628.87913	1317.025
632.86528	1332.125
636.84862	1344.525
640.82913	1340.625
644.80683	1316.025
648.78172	1298.525
652.75379	1284.625
656.72306	1277.525
660.68952	1281.425
664.65319	1267.925
668.61405	1257.425
672.57211	1259.125
676.52738	1282.025
680.47986	1297.925
684.42955	1314.725
688.37646	1333.425
692.32058	1318.125
696.26192	1290.425
700.20048	1280.825
704.13626	1275.125
708.06928	1274.925
711.99952	1269.325
715.927	1271.825
719.85171	1272.825
723.77365	1262.225
727.69284	1261.825
731.60928	1261.425
735.52295	1246.825
739.43388	1252.725
743.34206	1248.425
747.24749	1248.525
751.15017	1251.225
755.05012	1238.425
758.94733	1252.525
762.8418	1273.925
766.73354	1309.125
770.62254	1327.225
774.50882	1358.725
778.39237	1340.325
782.27321	1309.725
786.15132	1286.425
790.02671	1264.025
793.89938	1259.725
797.76935	1259.625
801.6366	1264.925
805.50115	1274.025
809.36299	1280.625
813.22213	1284.725
817.07857	1280.625
820.93231	1267.725
824.78336	1257.425
828.63172	1246.525
832.47738	1234.425
836.32036	1240.025
840.16066	1237.525
843.99827	1238.125
847.8332	1241.325
851.66546	1231.625
855.49504	1228.125
859.32195	1226.225
863.1462	1222.425
866.96777	1213.725
870.78668	1225.425
874.60293	1241.125
878.41652	1240.325
882.22745	1260.125
886.03573	1258.425
889.84136	1258.925
893.64433	1263.325
897.44466	1264.125
901.24235	1254.825
905.0374	1240.425
908.8298	1245.325
912.61957	1247.625
916.40671	1249.125
920.19121	1257.725
923.97308	1258.225
927.75233	1267.225
931.52895	1270.825
935.30295	1262.425
939.07433	1244.525
942.84309	1220.525
946.60924	1218.825
950.37278	1206.625
954.13371	1204.925
957.89203	1189.625
961.64774	1174.225
965.40086	1172.325
969.15137	1164.725
972.89929	1153.725
976.64461	1151.825
980.38733	1147.725
984.12747	1135.625
987.86502	1141.925
991.59999	1133.525
995.33237	1135.225
999.06217	1140.725
1002.78939	1152.225
1006.51404	1161.725
1010.23611	1155.425
1013.95561	1169.525
1017.67255	1179.225
1021.38692	1183.125
1025.09872	1171.425
1028.80796	1172.125
1032.51465	1168.425
1036.21877	1156.525
1039.92035	1152.925
1043.61937	1138.125
1047.31584	1144.025
1051.00976	1127.925
1054.70114	1133.725
1058.38998	1141.625
1062.07627	1136.825
1065.76003	1141.925
1069.44126	1143.725
1073.11995	1163.225
1076.79611	1158.525
1080.46974	1158.525
1084.14085	1145.225
1087.80943	1138.725
1091.47549	1140.325
1095.13903	1126.025
1098.80005	1111.125
1102.45857	1105.925
1106.11456	1096.525
1109.76805	1106.425
1113.41903	1110.025
1117.06751	1113.025
1120.71348	1139.025
1124.35696	1157.025
1127.99793	1180.125
1131.63641	1205.625
1135.2724	1212.025
1138.90589	1206.725
1142.5369	1190.725
1146.16542	1163.025
1149.79145	1134.625
1153.415	1109.825
1157.03607	1095.725
1160.65467	1088.625
1164.27079	1089.425
1167.88443	1092.625
1171.49561	1112.625
1175.10432	1132.825
1178.71056	1159.325
1182.31434	1188.925
1185.91565	1203.125
1189.51451	1182.325
1193.11091	1173.425
1196.70485	1155.025
1200.29634	1147.125
1203.88538	1138.225
1207.47197	1136.125
1211.05612	1110.125
1214.63782	1095.525
1218.21708	1083.225
1221.79391	1079.425
1225.36829	1075.125
1228.94024	1082.725
1232.50976	1069.125
1236.07685	1068.725
1239.6415	1076.025
1243.20374	1081.425
1246.76355	1087.825
1250.32093	1089.425
1253.8759	1089.225
1257.42845	1103.925
1260.97859	1099.925
1264.52631	1111.925
1268.07163	1111.425
1271.61453	1116.625
1275.15503	1120.825
1278.69312	1114.725
1282.22882	1120.825
1285.76211	1121.225
1289.29301	1132.425
1292.82151	1142.225
1296.34761	1155.725
1299.87133	1170.225
1303.39266	1191.425
1306.9116	1234.325
1310.42815	1260.425
1313.94233	1279.225
1317.45412	1274.825
1320.96354	1239.225
1324.47058	1207.425
1327.97525	1179.825
1331.47754	1168.425
1334.97747	1158.725
1338.47502	1170.925
1341.97022	1182.425
1345.46305	1203.825
1348.95352	1239.725
1352.44163	1285.925
1355.92738	1343.225
1359.41078	1402.225
1362.89183	1467.425
1366.37053	1474.025
1369.84688	1403.125
1373.32088	1315.725
1376.79254	1261.225
1380.26186	1219.525
1383.72883	1210.725
1387.19347	1198.125
1390.65578	1174.625
1394.11575	1155.325
1397.57339	1149.525
1401.0287	1130.125
1404.48168	1118.225
1407.93234	1107.825
1411.38068	1099.825
1414.82669	1083.225
1418.27039	1072.725
1421.71177	1067.925
1425.15083	1062.625
1428.58758	1047.025
1432.02203	1038.425
1435.45416	1017.725
1438.88399	1011.925
1442.31151	997.425
1445.73673	1000.825
1449.15965	1002.025
1452.58027	985.225
1455.9986	992.425
1459.41463	998.525
1462.82837	987.225
1466.23982	1005.425
1469.64898	998.825
1473.05586	1002.025
1476.46045	1000.325
1479.86276	1002.125
1483.26279	993.525
1486.66054	1007.225
1490.05602	1012.925
1493.44922	1028.325
1496.84016	1042.125
1500.22882	1072.525
1503.61521	1107.025
1506.99934	1155.525
1510.38121	1206.725
1513.76081	1214.325
1517.13816	1185.125
1520.51324	1126.425
1523.88607	1068.525
1527.25665	1031.125
1530.62498	1013.925
1533.99105	998.125
1537.35488	989.325
1540.71647	993.525
1544.07581	996.425
1547.4329	1003.225
1550.78776	1008.225
1554.14038	1005.425
1557.49077	1005.225
1560.83892	1012.025
1564.18484	1014.025
1567.52853	1024.025
1570.86999	1047.725
1574.20922	1057.525
1577.54624	1070.325
1580.88103	1053.225
1584.2136	1028.725
1587.54395	996.125
1590.87208	976.225
1594.19801	965.925
1597.52172	968.825
1600.84321	957.725
1604.16251	958.225
1607.47959	943.125
1610.79447	933.825
1614.10715	927.825
1617.41763	916.425
1620.7259	915.025
1624.03199	909.725
1627.33587	905.125
1630.63757	905.925
1633.93707	899.625
1637.23439	908.725
1640.52951	924.025
1643.82246	943.325
1647.11321	972.225
1650.40179	996.025
1653.68819	988.625
1656.97241	950.225
1660.25446	913.525
1663.53433	871.125
1666.81203	860.925
1670.08756	835.325
1673.36092	830.025
1676.63211	813.625
1679.90115	815.325
1683.16801	808.725
1686.43272	803.825
1689.69527	794.725
1692.95567	798.225
1696.2139	790.725
1699.46999	781.025
1702.72392	774.025
1705.97571	761.525
1709.22535	748.225
1712.47284	729.425
1715.71819	719.925
1718.96139	713.425
1722.20246	700.625
1725.44139	692.425
1728.67818	683.925
1731.91284	673.025
1735.14537	677.425
1738.37576	670.725
1741.60403	665.925
1744.83017	646.125
1748.05418	651.625
1751.27607	641.925
1754.49584	644.325
1757.71349	636.625
1760.92903	642.525
1764.14244	632.525
1767.35375	634.125
1770.56294	626.625
1773.77002	631.125
1776.97499	623.225
1780.17785	620.725
1783.37861	623.925
1786.57727	616.525
1789.77382	616.025
1792.96828	610.625
1796.16064	613.325
1799.3509	603.125
1802.53907	607.125
1805.72514	604.625
1808.90913	599.525
1812.09102	600.125
1815.27083	591.225
1818.44856	598.025
1821.6242	586.925
1824.79776	589.425
1827.96924	582.325
1831.13864	586.625
1834.30597	577.425
1837.47122	584.425
1840.6344	572.425
1843.7955	580.125
1846.95454	572.725
1850.11151	572.125
1853.26642	565.625
1856.41926	567.025
1859.57004	574.425
1862.71876	571.325
1865.86542	562.125
1869.01003	566.925
1872.15258	553.625
1875.29308	557.525
1878.43152	555.225
1881.56792	560.825
1884.70227	546.825
1887.83457	550.125
1890.96482	550.625
1894.09304	550.125
1897.21921	541.925
1900.34335	542.425
1903.46544	540.925
1906.58551	538.725
1909.70353	540.625
1912.81953	539.525
1915.93349	536.525
1919.04543	540.825
1922.15534	535.825
1925.26322	530.725
1928.36908	525.125
1931.47292	527.525
1934.57473	529.425
1937.67453	526.625
1940.77232	529.325
1943.86808	524.825
1946.96184	518.425
1950.05358	518.525
1953.14331	514.725
1956.23103	512.425
1959.31675	509.725
1962.40046	505.925
1965.48217	508.225
1968.56188	502.625
1971.63959	498.425
1974.7153	496.725
1977.78901	499.825
1980.86073	493.725
1983.93046	485.325
1986.99819	490.025
1990.06394	485.025
1993.1277	482.125
1996.18947	489.225
1999.24925	483.825
2002.30706	478.225
2005.36288	481.025
2008.41672	482.825
2011.46859	471.225
2014.51848	470.325
2017.56639	467.425
2020.61233	463.525
2023.6563	464.725
2026.6983	457.825
2029.73833	461.925
2032.7764	459.325
2035.8125	452.725
2038.84664	457.625
2041.87881	456.725
2044.90903	453.125
2047.93729	456.425
2050.96359	455.025
2053.98794	454.525
2057.01034	446.325
2060.03078	447.125
2063.04927	443.325
2066.06582	446.025
2069.08042	446.325
2072.09307	448.125
2075.10378	449.925
2078.11255	443.325
2081.11938	446.825
2084.12426	444.225
2087.12722	441.325
2090.12824	445.025
2093.12732	437.625
2096.12447	440.625
2099.11969	442.125
2102.11299	443.925
2105.10435	437.825
2108.09379	439.125
2111.08131	436.925
2114.0669	440.025
2117.05057	440.925
2120.03233	438.725
2123.01216	438.025
2125.99008	444.525
2128.96609	440.725
2131.94018	440.425
2134.91236	443.925
2137.88263	445.925
2140.851	449.425
2143.81746	445.725
2146.78201	445.325
2149.74466	447.825
2152.7054	450.325
2155.66425	450.325
2158.6212	458.725
2161.57625	453.525
2164.52941	456.625
2167.48067	465.425
2170.43004	471.425
2173.37752	467.725
2176.32311	470.225
2179.26681	458.825
2182.20863	463.925
2185.14856	456.725
2188.08661	447.425
2191.02278	447.125
2193.95707	441.125
2196.88948	429.525
2199.82001	428.625
2202.74867	420.025
2205.67545	416.825
2208.60037	416.925
2211.52341	411.325
2214.44458	408.125
2217.36388	401.025
2220.28132	407.525
2223.1969	401.925
2226.11061	397.925
2229.02246	401.125
2231.93245	398.325
2234.84058	402.625
2237.74686	397.925
2240.65128	394.025
2243.55385	395.425
2246.45456	390.125
2249.35343	390.125
2252.25044	387.825
2255.14561	391.425
2258.03893	391.025
2260.93041	381.925
2263.82004	381.425
2266.70783	383.225
2269.59378	379.925
2272.4779	372.525
2275.36017	379.525
2278.24061	368.925
2281.11922	380.425
2283.996	378.425
2286.87094	373.025
2289.74405	369.225
2292.61534	373.025
2295.4848	372.525
2298.35243	370.925
2301.21824	363.025
2304.08223	360.025
2306.94439	365.025
2309.80474	362.625
2312.66327	362.825
2315.51999	358.825
2318.37489	363.325
2321.22797	362.125
2324.07925	363.125
2326.92871	357.025
2329.77637	359.525
2332.62222	357.925
2335.46626	356.625
2338.3085	354.325
2341.14893	348.825
2343.98756	349.225
2346.8244	346.125
2349.65943	341.525
2352.49267	351.325
2355.32411	347.225
2358.15376	342.325
2360.98161	345.925
2363.80768	341.525
2366.63195	343.025
2369.45444	342.525
2372.27514	345.225
2375.09405	343.725
2377.91118	343.425
2380.72652	332.825
2383.54009	333.125
2386.35187	335.725
2389.16188	338.325
2391.97011	332.425
2394.77657	338.325
2397.58125	332.725
2400.38416	328.125
2403.18529	332.625
2405.98466	329.725
2408.78226	323.125
2411.57809	326.825
2414.37216	332.525
2417.16446	317.725
2419.955	325.525
2422.74378	327.225
2425.5308	321.625
2428.31606	323.025
2431.09956	326.425
2433.88131	321.625
2436.6613	320.025
2439.43954	314.325
2442.21603	316.625
2444.99077	311.525
2447.76377	314.225
2450.53501	312.325
2453.30451	315.825
2456.07226	316.225
2458.83827	315.025
2461.60254	311.325
2464.36507	315.325
2467.12586	308.225
2469.88492	304.225
2472.64224	307.025
2475.39782	304.825
2478.15167	302.925
2480.90379	302.725
2483.65417	308.625
2486.40283	300.925
2489.14976	305.525
2491.89497	304.425
2494.63845	301.725
2497.3802	305.625
2500.12024	304.625
2502.85855	300.525
2505.59514	302.925
2508.33002	300.025
2511.06318	303.125
2513.79462	292.425
2516.52435	295.225
2519.25237	296.025
2521.97867	292.225
2524.70327	288.625
2527.42616	293.425
2530.14734	292.125
2532.86681	292.425
2535.58458	293.325
2538.30065	290.625
2541.01501	287.525
2543.72768	290.225
2546.43864	290.225
2549.14791	287.025
2551.85548	286.225
2554.56136	282.725
2557.26554	285.625
2559.96803	285.625
2562.66883	282.925
2565.36794	280.325
2568.06536	284.625
2570.7611	279.625
2573.45514	275.025
2576.14751	274.125
2578.83819	280.425
2581.52719	276.125
2584.21451	273.825
2586.90015	276.025
2589.58411	270.025
2592.2664	269.725
2594.94701	272.425
2597.62594	270.425
2600.30321	264.325
2602.9788	266.225
2605.65273	269.325
2608.32498	269.025
2610.99557	273.125
2613.66449	267.825
2616.33175	268.925
2618.99734	263.925
2621.66128	260.625
2624.32355	263.125
2626.98416	264.825
2629.64311	262.525
2632.30041	263.225
2634.95605	259.925
2637.61004	258.825
2640.26238	261.025
2642.91306	263.325
2645.56209	261.025
2648.20948	258.825
2650.85521	261.625
2653.4993	254.025
2656.14175	256.425
2658.78255	260.025
2661.42171	254.325
2664.05923	254.725
2666.6951	256.825
2669.32934	257.625
2671.96194	256.625
2674.59291	253.125
2677.22224	255.725
2679.84993	255.825
2682.476	261.025
2685.10043	250.825
2687.72324	253.525
2690.34441	254.225
2692.96396	253.025
2695.58188	253.825
2698.19818	252.325
2700.81285	258.425
2703.4259	258.525
2706.03733	248.425
2708.64714	257.525
2711.25533	253.525
2713.86191	252.325
2716.46687	253.725
2719.07021	249.025
2721.67194	252.925
2724.27206	250.825
2726.87057	249.625
2729.46747	253.025
2732.06276	256.825
2734.65644	256.125
2737.24852	253.325
2739.83899	249.025
2742.42786	255.725
2745.01513	251.125
2747.60079	258.325
2750.18486	251.225
2752.76733	254.625
2755.3482	249.125
2757.92747	248.925
2760.50515	247.325
2763.08123	240.325
2765.65573	252.525
2768.22863	252.225
2770.79994	249.825
2773.36967	247.125
2775.9378	248.825
2778.50435	246.225
2781.06932	244.725
2783.6327	243.225
2786.1945	240.725
2788.75471	243.225
2791.31335	244.725
2793.87041	244.625
2796.42589	241.725
2798.97979	238.825
2801.53212	237.625
2804.08288	242.425
2806.63206	238.825
2809.17967	239.125
2811.72571	241.225
2814.27018	234.725
2816.81308	240.025
2819.35442	234.525
2821.89419	238.525
2824.43239	238.125
2826.96904	235.025
2829.50412	237.525
2832.03763	234.325
2834.56959	238.825
2837.1	234.425
2839.62884	230.025
2842.15613	234.325
2844.68186	235.225
2847.20604	235.625
2849.72867	236.325
2852.24974	235.825
2854.76927	231.725
2857.28724	237.825
2859.80367	231.725
2862.31855	234.925
2864.83189	234.425
2867.34368	230.225
2869.85393	238.025
2872.36264	238.625
2874.8698	236.325
2877.37543	233.725
2879.87952	233.425
2882.38207	235.125
2884.88308	235.925
2887.38256	237.525
2889.88051	238.325
2892.37692	238.925
2894.8718	241.225
2897.36515	237.925
2899.85698	237.025
2902.34727	239.425
2904.83604	242.825
2907.32328	250.325
2909.809	247.725
2912.29319	244.325
2914.77587	244.925
2917.25702	248.125
2919.73665	252.425
2922.21476	252.525
2924.69136	256.125
2927.16644	251.925
2929.64	252.325
2932.11205	253.925
2934.58258	250.125
2937.05161	258.325
2939.51912	262.525
2941.98513	255.325
2944.44962	260.625
2946.91261	257.725
2949.37409	258.925
2951.83407	258.825
2954.29254	259.725
2956.74951	248.925
2959.20498	253.525
2961.65895	258.325
2964.11142	252.325
2966.56239	256.125
2969.01186	255.625
2971.45984	257.525
2973.90632	259.625
2976.35131	259.525
2978.7948	257.125
2981.23681	257.625
2983.67732	264.625
2986.11635	260.125
2988.55388	263.025
2990.98993	259.625
2993.4245	261.425
2995.85758	259.725
2998.28917	259.525
3000.71928	263.825
3003.14791	266.925
3005.57506	261.225
3008.00073	269.525
3010.42493	271.525
3012.84764	274.125
3015.26888	274.525
3017.68865	271.025
3020.10694	272.825
3022.52376	272.725
3024.9391	277.325
3027.35298	279.425
3029.76539	279.625
3032.17632	287.325
3034.5858	281.725
3036.9938	285.925
3039.40034	290.525
3041.80542	293.025
3044.20903	293.025
3046.61118	301.525
3049.01187	298.225
3051.4111	300.925
3053.80888	300.525
3056.20519	306.825
3058.60005	312.125
3060.99345	310.625
3063.3854	310.725
3065.7759	317.525
3068.16494	318.725
3070.55254	323.325
3072.93868	328.525
3075.32338	327.225
3077.70662	332.525
3080.08842	333.925
3082.46878	338.025
3084.84769	343.525
3087.22515	342.225
3089.60118	347.725
3091.97576	349.525
3094.3489	364.125
3096.72061	359.125
3099.09087	365.925
3101.4597	377.725
3103.82709	375.225
3106.19305	382.425
3108.55757	384.125
3110.92066	392.125
3113.28232	396.325
3115.64255	398.725
3118.00134	404.125
3120.35871	408.625
3122.71466	412.525
3125.06917	419.725
3127.42226	427.425
3129.77393	430.325
3132.12417	437.925
3134.47299	448.525
3136.82039	448.525
3139.16636	456.925
3141.51092	456.025
3143.85406	455.725
3146.19579	469.025
3148.53609	473.725
3150.87499	485.025
3153.21246	490.225
3155.54853	491.425
3157.88318	502.225
3160.21642	509.425
3162.54826	514.925
3164.87868	524.025
3167.2077	533.325
3169.5353	535.125
3171.86151	539.725
3174.18631	544.925
3176.5097	555.925
3178.83169	556.625
3181.15228	561.725
3183.47147	567.725
3185.78926	574.425
3188.10565	584.325
3190.42065	581.725
3192.73424	583.425
3195.04645	588.725
3197.35725	593.725
3199.66667	601.025
3201.97469	609.625
3204.28132	612.125
3206.58656	617.225
3208.8904	614.925
3211.19287	626.725
3213.49394	633.325
3215.79363	626.625
3218.09193	636.325
3220.38884	637.625
3222.68438	640.825
3224.97853	643.025
3227.2713	646.525
3229.56269	655.925
3231.8527	651.425
3234.14133	652.825
3236.42858	650.725
3238.71446	656.725
3240.99896	654.225
3243.28209	661.325
3245.56384	656.825
3247.84423	656.525
3250.12324	656.625
3252.40088	662.925
3254.67715	659.425
3256.95205	659.825
3259.22558	663.125
3261.49775	663.625
3263.76855	670.825
3266.03799	660.725
3268.30606	666.625
3270.57277	664.925
3272.83812	664.125
3275.10211	654.025
3277.36474	660.425
3279.62601	667.025
3281.88593	668.625
3284.14448	663.525
3286.40168	655.525
3288.65753	662.025
3290.91202	660.725
3293.16516	660.825
3295.41695	668.325
3297.66738	661.025
3299.91647	657.925
3302.16421	659.125
3304.4106	655.825
3306.65564	649.325
3308.89933	649.725
3311.14169	647.025
3313.38269	641.525
