Data from AuAgCoreShell_UA_100uM_CRN_0uM_R6G_10uM_Scan_RamanShift__7__14-17-29-771.txt Node

Date: Thu Jun 23 14:17:29 BST 2022
User: TCL
Spectrometer: QEP01345
Trigger mode: 4
Integration Time (sec): 7.000000E0
Scans to average: 10
Electric dark correction enabled: true
Nonlinearity correction enabled: false
Boxcar width: 0
XAxis mode: Raman Shifts
Number of Pixels in Spectrum: 1044
>>>>>Begin Spectral Data<<<<<
46.04893	-0.85
50.45542	-1.05
54.85868	0.85
59.25871	0.05
63.6555	35.05
68.04907	34.85
72.43941	38.95
76.82654	45.15
81.21044	45.35
85.59113	52.05
89.96862	53.15
94.34289	55.05
98.71396	55.55
103.08183	55.35
107.4465	57.65
111.80798	57.75
116.16626	57.65
120.52136	55.55
124.87327	60.65
129.222	55.85
133.56755	54.65
137.90993	52.95
142.24913	49.55
146.58517	51.55
150.91804	53.45
155.24774	52.95
159.57429	54.95
163.89768	58.95
168.21792	62.85
172.53501	71.15
176.84895	81.95
181.15975	96.45
185.46741	126.25
189.77193	160.05
194.07331	206.25
198.37157	255.95
202.6667	308.25
206.9587	357.65
211.24758	403.85
215.53334	462.75
219.81599	516.95
224.09553	575.25
228.37195	637.75
232.64527	699.85
236.91549	779.65
241.18261	849.75
245.44663	922.05
249.70755	996.45
253.96539	1036.15
258.22014	1085.25
262.4718	1111.55
266.72039	1142.15
270.96589	1138.75
275.20832	1134.65
279.44768	1104.75
283.68397	1091.65
287.91719	1060.65
292.14735	1030.25
296.37445	1012.15
300.59849	1007.15
304.81948	1006.05
309.03742	993.85
313.25231	982.85
317.46415	977.35
321.67296	950.55
325.87872	945.55
330.08145	943.65
334.28114	942.85
338.47781	952.35
342.67145	967.05
346.86207	981.55
351.04966	996.25
355.23424	1015.65
359.4158	1034.25
363.59435	1046.35
367.76989	1060.75
371.94243	1057.95
376.11196	1070.15
380.27849	1077.45
384.44203	1078.75
388.60257	1092.85
392.76012	1088.05
396.91468	1097.85
401.06626	1109.65
405.21485	1122.45
409.36047	1113.35
413.50311	1113.85
417.64277	1103.55
421.77947	1101.45
425.9132	1100.05
430.04396	1105.95
434.17176	1114.95
438.2966	1121.45
442.41849	1122.75
446.53742	1142.15
450.6534	1141.05
454.76644	1160.15
458.87653	1160.35
462.98368	1166.35
467.08789	1154.85
471.18916	1158.85
475.2875	1155.15
479.38291	1161.05
483.4754	1167.35
487.56496	1172.35
491.6516	1164.45
495.73531	1170.15
499.81612	1169.95
503.89401	1172.85
507.96899	1161.05
512.04106	1165.65
516.11023	1167.45
520.1765	1160.65
524.23987	1157.85
528.30034	1156.15
532.35792	1149.55
536.41261	1140.45
540.46441	1142.65
544.51333	1130.05
548.55936	1128.45
552.60252	1136.55
556.64279	1147.45
560.6802	1145.85
564.71473	1141.15
568.7464	1151.35
572.7752	1159.85
576.80114	1143.05
580.82422	1144.75
584.84444	1147.65
588.86181	1149.85
592.87633	1163.45
596.888	1167.85
600.89682	1185.35
604.9028	1225.15
608.90594	1310.65
612.90624	1413.75
616.90371	1400.25
620.89834	1291.55
624.89015	1253.15
628.87913	1246.95
632.86528	1247.45
636.84862	1259.45
640.82913	1243.95
644.80683	1221.75
648.78172	1207.65
652.75379	1188.65
656.72306	1198.05
660.68952	1214.35
664.65319	1199.05
668.61405	1190.55
672.57211	1197.45
676.52738	1197.95
680.47986	1216.05
684.42955	1243.35
688.37646	1254.65
692.32058	1250.55
696.26192	1217.85
700.20048	1206.35
704.13626	1197.75
708.06928	1192.95
711.99952	1195.05
715.927	1198.95
719.85171	1188.55
723.77365	1190.75
727.69284	1183.45
731.60928	1178.15
735.52295	1167.75
739.43388	1172.75
743.34206	1170.35
747.24749	1169.55
751.15017	1169.45
755.05012	1169.95
758.94733	1176.05
762.8418	1208.95
766.73354	1251.65
770.62254	1300.15
774.50882	1328.65
778.39237	1302.65
782.27321	1255.85
786.15132	1221.45
790.02671	1206.05
793.89938	1185.95
797.76935	1188.95
801.6366	1197.65
805.50115	1196.15
809.36299	1207.15
813.22213	1204.25
817.07857	1199.05
820.93231	1192.75
824.78336	1183.45
828.63172	1178.15
832.47738	1171.05
836.32036	1171.65
840.16066	1171.35
843.99827	1171.75
847.8332	1170.95
851.66546	1163.55
855.49504	1153.45
859.32195	1153.35
863.1462	1151.85
866.96777	1149.85
870.78668	1155.85
874.60293	1160.25
878.41652	1161.95
882.22745	1179.85
886.03573	1192.95
889.84136	1198.95
893.64433	1208.05
897.44466	1201.15
901.24235	1207.05
905.0374	1202.45
908.8298	1203.35
912.61957	1214.15
916.40671	1213.95
920.19121	1223.25
923.97308	1233.45
927.75233	1246.95
931.52895	1239.05
935.30295	1225.25
939.07433	1211.15
942.84309	1190.75
946.60924	1177.35
950.37278	1170.85
954.13371	1157.05
957.89203	1144.45
961.64774	1132.95
965.40086	1121.25
969.15137	1105.95
972.89929	1105.95
976.64461	1103.55
980.38733	1100.05
984.12747	1090.95
987.86502	1085.05
991.59999	1076.05
995.33237	1079.15
999.06217	1095.75
1002.78939	1095.15
1006.51404	1100.05
1010.23611	1117.65
1013.95561	1108.95
1017.67255	1127.45
1021.38692	1121.75
1025.09872	1121.15
1028.80796	1125.15
1032.51465	1119.55
1036.21877	1113.35
1039.92035	1099.25
1043.61937	1098.95
1047.31584	1090.35
1051.00976	1093.05
1054.70114	1080.15
1058.38998	1087.75
1062.07627	1088.15
1065.76003	1093.15
1069.44126	1091.25
1073.11995	1103.95
1076.79611	1104.15
1080.46974	1103.75
1084.14085	1101.55
1087.80943	1098.75
1091.47549	1091.55
1095.13903	1078.25
1098.80005	1062.05
1102.45857	1062.25
1106.11456	1050.95
1109.76805	1053.25
1113.41903	1059.95
1117.06751	1077.95
1120.71348	1095.55
1124.35696	1119.75
1127.99793	1152.95
1131.63641	1168.75
1135.2724	1169.65
1138.90589	1141.45
1142.5369	1120.95
1146.16542	1104.85
1149.79145	1086.85
1153.415	1059.95
1157.03607	1050.75
1160.65467	1043.65
1164.27079	1047.15
1167.88443	1055.25
1171.49561	1075.55
1175.10432	1102.15
1178.71056	1144.95
1182.31434	1171.85
1185.91565	1188.05
1189.51451	1170.65
1193.11091	1147.55
1196.70485	1124.15
1200.29634	1110.75
1203.88538	1102.55
1207.47197	1089.55
1211.05612	1062.55
1214.63782	1056.45
1218.21708	1042.95
1221.79391	1042.85
1225.36829	1036.25
1228.94024	1031.85
1232.50976	1040.15
1236.07685	1041.75
1239.6415	1036.25
1243.20374	1042.05
1246.76355	1048.65
1250.32093	1058.75
1253.8759	1053.05
1257.42845	1062.85
1260.97859	1064.35
1264.52631	1073.05
1268.07163	1087.85
1271.61453	1092.55
1275.15503	1097.55
1278.69312	1093.85
1282.22882	1090.85
1285.76211	1095.15
1289.29301	1107.15
1292.82151	1137.65
1296.34761	1140.65
1299.87133	1166.35
1303.39266	1197.95
1306.9116	1244.55
1310.42815	1284.85
1313.94233	1318.75
1317.45412	1301.55
1320.96354	1251.65
1324.47058	1219.05
1327.97525	1172.35
1331.47754	1155.05
1334.97747	1140.75
1338.47502	1145.35
1341.97022	1170.05
1345.46305	1193.15
1348.95352	1246.25
1352.44163	1299.35
1355.92738	1373.45
1359.41078	1459.55
1362.89183	1565.05
1366.37053	1563.15
1369.84688	1459.15
1373.32088	1346.45
1376.79254	1285.35
1380.26186	1245.15
1383.72883	1220.35
1387.19347	1202.25
1390.65578	1175.85
1394.11575	1175.35
1397.57339	1154.05
1401.0287	1143.65
1404.48168	1127.25
1407.93234	1112.45
1411.38068	1112.75
1414.82669	1109.85
1418.27039	1096.05
1421.71177	1095.95
1425.15083	1078.35
1428.58758	1057.65
1432.02203	1048.75
1435.45416	1034.25
1438.88399	1025.45
1442.31151	1016.25
1445.73673	1002.85
1449.15965	994.15
1452.58027	990.55
1455.9986	993.45
1459.41463	984.65
1462.82837	986.45
1466.23982	985.95
1469.64898	996.75
1473.05586	998.35
1476.46045	995.15
1479.86276	1003.55
1483.26279	1004.65
1486.66054	1023.45
1490.05602	1022.75
1493.44922	1038.95
1496.84016	1062.55
1500.22882	1101.85
1503.61521	1166.35
1506.99934	1241.95
1510.38121	1307.15
1513.76081	1328.85
1517.13816	1277.05
1520.51324	1178.65
1523.88607	1107.65
1527.25665	1053.05
1530.62498	1015.15
1533.99105	1002.95
1537.35488	998.85
1540.71647	983.65
1544.07581	989.65
1547.4329	990.05
1550.78776	990.05
1554.14038	1000.95
1557.49077	1001.85
1560.83892	1012.85
1564.18484	1017.85
1567.52853	1029.85
1570.86999	1051.65
1574.20922	1055.15
1577.54624	1058.75
1580.88103	1052.25
1584.2136	1013.25
1587.54395	988.75
1590.87208	960.35
1594.19801	950.05
1597.52172	955.75
1600.84321	947.55
1604.16251	940.55
1607.47959	931.95
1610.79447	922.65
1614.10715	906.15
1617.41763	896.75
1620.7259	893.35
1624.03199	890.95
1627.33587	886.75
1630.63757	885.05
1633.93707	882.05
1637.23439	889.05
1640.52951	904.05
1643.82246	937.75
1647.11321	979.35
1650.40179	1020.35
1653.68819	1016.55
1656.97241	969.75
1660.25446	913.65
1663.53433	870.05
1666.81203	840.15
1670.08756	824.75
1673.36092	810.85
1676.63211	795.05
1679.90115	790.25
1683.16801	787.55
1686.43272	780.75
1689.69527	774.25
1692.95567	770.95
1696.2139	767.45
1699.46999	758.35
1702.72392	751.25
1705.97571	738.45
1709.22535	723.25
1712.47284	715.55
1715.71819	702.95
1718.96139	702.15
1722.20246	689.65
1725.44139	682.05
1728.67818	665.75
1731.91284	659.25
1735.14537	651.55
1738.37576	653.35
1741.60403	652.55
1744.83017	640.35
1748.05418	638.25
1751.27607	629.95
1754.49584	632.45
1757.71349	624.65
1760.92903	620.95
1764.14244	618.35
1767.35375	619.85
1770.56294	620.85
1773.77002	607.55
1776.97499	608.85
1780.17785	605.15
1783.37861	606.35
1786.57727	603.25
1789.77382	600.85
1792.96828	594.95
1796.16064	595.25
1799.3509	591.85
1802.53907	592.75
1805.72514	586.75
1808.90913	587.05
1812.09102	580.15
1815.27083	582.95
1818.44856	578.15
1821.6242	578.85
1824.79776	571.55
1827.96924	569.05
1831.13864	571.55
1834.30597	564.75
1837.47122	570.95
1840.6344	558.05
1843.7955	560.15
1846.95454	563.95
1850.11151	561.35
1853.26642	556.25
1856.41926	555.45
1859.57004	556.75
1862.71876	553.55
1865.86542	550.35
1869.01003	551.25
1872.15258	547.35
1875.29308	548.55
1878.43152	546.85
1881.56792	542.75
1884.70227	539.65
1887.83457	538.55
1890.96482	541.55
1894.09304	530.65
1897.21921	532.45
1900.34335	532.35
1903.46544	529.35
1906.58551	536.15
1909.70353	529.45
1912.81953	533.45
1915.93349	525.45
1919.04543	518.65
1922.15534	522.75
1925.26322	519.05
1928.36908	524.15
1931.47292	516.35
1934.57473	516.35
1937.67453	515.75
1940.77232	511.35
1943.86808	509.15
1946.96184	507.55
1950.05358	506.35
1953.14331	506.75
1956.23103	499.95
1959.31675	504.55
1962.40046	498.75
1965.48217	491.55
1968.56188	498.75
1971.63959	493.05
1974.7153	491.25
1977.78901	491.75
1980.86073	489.25
1983.93046	482.95
1986.99819	481.75
1990.06394	480.95
1993.1277	479.65
1996.18947	476.85
1999.24925	474.75
2002.30706	470.55
2005.36288	470.05
2008.41672	469.25
2011.46859	466.55
2014.51848	465.65
2017.56639	459.35
2020.61233	465.75
2023.6563	459.95
2026.6983	455.15
2029.73833	456.75
2032.7764	455.25
2035.8125	448.65
2038.84664	449.75
2041.87881	446.55
2044.90903	446.35
2047.93729	449.75
2050.96359	442.55
2053.98794	447.85
2057.01034	444.25
2060.03078	440.85
2063.04927	443.75
2066.06582	444.45
2069.08042	445.85
2072.09307	443.35
2075.10378	445.25
2078.11255	434.65
2081.11938	441.35
2084.12426	438.05
2087.12722	439.35
2090.12824	443.45
2093.12732	438.45
2096.12447	435.95
2099.11969	440.45
2102.11299	438.05
2105.10435	440.25
2108.09379	439.45
2111.08131	439.15
2114.0669	434.25
2117.05057	440.85
2120.03233	438.35
2123.01216	437.55
2125.99008	440.15
2128.96609	439.95
2131.94018	439.25
2134.91236	445.55
2137.88263	447.85
2140.851	454.65
2143.81746	456.85
2146.78201	446.25
2149.74466	450.65
2152.7054	448.85
2155.66425	456.15
2158.6212	458.05
2161.57625	460.45
2164.52941	465.65
2167.48067	465.95
2170.43004	471.05
2173.37752	467.15
2176.32311	469.25
2179.26681	471.15
2182.20863	467.75
2185.14856	461.95
2188.08661	457.85
2191.02278	449.75
2193.95707	444.95
2196.88948	436.35
2199.82001	425.55
2202.74867	420.15
2205.67545	413.45
2208.60037	414.55
2211.52341	409.75
2214.44458	404.65
2217.36388	403.35
2220.28132	404.95
2223.1969	402.45
2226.11061	393.25
2229.02246	398.15
2231.93245	396.85
2234.84058	396.55
2237.74686	400.35
2240.65128	393.25
2243.55385	389.55
2246.45456	390.35
2249.35343	391.55
2252.25044	386.75
2255.14561	387.55
2258.03893	381.85
2260.93041	383.55
2263.82004	382.05
2266.70783	380.65
2269.59378	387.95
2272.4779	379.45
2275.36017	376.15
2278.24061	376.25
2281.11922	377.05
2283.996	379.95
2286.87094	372.25
2289.74405	370.35
2292.61534	370.15
2295.4848	367.15
2298.35243	375.55
2301.21824	367.35
2304.08223	369.65
2306.94439	364.95
2309.80474	366.45
2312.66327	360.75
2315.51999	364.75
2318.37489	362.25
2321.22797	368.45
2324.07925	364.45
2326.92871	353.85
2329.77637	364.45
2332.62222	354.75
2335.46626	355.25
2338.3085	354.45
2341.14893	352.15
2343.98756	345.15
2346.8244	348.85
2349.65943	344.75
2352.49267	356.65
2355.32411	351.35
2358.15376	349.85
2360.98161	348.25
2363.80768	344.75
2366.63195	343.75
2369.45444	343.85
2372.27514	343.75
2375.09405	348.95
2377.91118	348.05
2380.72652	336.35
2383.54009	341.85
2386.35187	339.45
2389.16188	339.15
2391.97011	339.75
2394.77657	336.55
2397.58125	332.95
2400.38416	332.15
2403.18529	336.25
2405.98466	328.25
2408.78226	327.85
2411.57809	330.95
2414.37216	324.25
2417.16446	324.75
2419.955	324.65
2422.74378	324.95
2425.5308	324.45
2428.31606	326.25
2431.09956	324.05
2433.88131	325.35
2436.6613	324.75
2439.43954	322.25
2442.21603	320.85
2444.99077	320.45
2447.76377	319.65
2450.53501	318.25
2453.30451	318.45
2456.07226	315.35
2458.83827	315.25
2461.60254	319.05
2464.36507	310.25
2467.12586	312.85
2469.88492	312.75
2472.64224	312.95
2475.39782	305.25
2478.15167	307.35
2480.90379	313.65
2483.65417	312.35
2486.40283	309.25
2489.14976	311.45
2491.89497	303.75
2494.63845	307.75
2497.3802	308.85
2500.12024	305.75
2502.85855	305.25
2505.59514	305.25
2508.33002	304.65
2511.06318	301.85
2513.79462	304.25
2516.52435	298.75
2519.25237	298.75
2521.97867	298.75
2524.70327	299.45
2527.42616	296.55
2530.14734	300.75
2532.86681	293.75
2535.58458	294.85
2538.30065	297.35
2541.01501	292.25
2543.72768	293.05
2546.43864	296.65
2549.14791	290.55
2551.85548	292.75
2554.56136	291.65
2557.26554	292.15
2559.96803	290.15
2562.66883	289.25
2565.36794	290.45
2568.06536	288.15
2570.7611	286.25
2573.45514	280.25
2576.14751	280.25
2578.83819	282.65
2581.52719	282.75
2584.21451	279.15
2586.90015	280.75
2589.58411	277.65
2592.2664	278.35
2594.94701	277.55
2597.62594	277.55
2600.30321	277.75
2602.9788	275.55
2605.65273	276.35
2608.32498	280.85
2610.99557	277.25
2613.66449	271.35
2616.33175	273.25
2618.99734	270.15
2621.66128	268.15
2624.32355	273.45
2626.98416	270.75
2629.64311	266.85
2632.30041	269.15
2634.95605	268.25
2637.61004	268.85
2640.26238	266.35
2642.91306	263.65
2645.56209	265.15
2648.20948	266.15
2650.85521	264.95
2653.4993	264.25
2656.14175	265.45
2658.78255	266.75
2661.42171	267.45
2664.05923	266.15
2666.6951	263.65
2669.32934	262.35
2671.96194	263.75
2674.59291	263.35
2677.22224	267.45
2679.84993	264.55
2682.476	260.95
2685.10043	262.35
2687.72324	257.05
2690.34441	264.75
2692.96396	261.25
2695.58188	263.45
2698.19818	256.95
2700.81285	266.15
2703.4259	260.75
2706.03733	259.65
2708.64714	263.35
2711.25533	257.75
2713.86191	259.35
2716.46687	256.75
2719.07021	260.15
2721.67194	260.35
2724.27206	259.75
2726.87057	258.55
2729.46747	258.45
2732.06276	257.75
2734.65644	264.95
2737.24852	262.15
2739.83899	264.15
2742.42786	259.25
2745.01513	257.85
2747.60079	262.45
2750.18486	257.05
2752.76733	258.15
2755.3482	257.15
2757.92747	258.85
2760.50515	257.75
2763.08123	255.75
2765.65573	257.35
2768.22863	257.85
2770.79994	252.55
2773.36967	252.45
2775.9378	257.95
2778.50435	251.45
2781.06932	248.65
2783.6327	252.45
2786.1945	252.35
2788.75471	255.55
2791.31335	247.05
2793.87041	249.35
2796.42589	246.75
2798.97979	252.85
2801.53212	245.75
2804.08288	242.65
2806.63206	247.75
2809.17967	248.55
2811.72571	251.55
2814.27018	247.85
2816.81308	248.95
2819.35442	241.75
2821.89419	244.65
2824.43239	246.55
2826.96904	247.45
2829.50412	247.15
2832.03763	241.65
2834.56959	246.25
2837.1	241.95
2839.62884	241.35
2842.15613	239.75
2844.68186	245.95
2847.20604	239.05
2849.72867	243.75
2852.24974	242.35
2854.76927	241.85
2857.28724	241.05
2859.80367	241.45
2862.31855	246.75
2864.83189	243.75
2867.34368	240.15
2869.85393	246.85
2872.36264	244.15
2874.8698	247.95
2877.37543	243.55
2879.87952	245.55
2882.38207	240.05
2884.88308	244.65
2887.38256	246.95
2889.88051	243.25
2892.37692	244.15
2894.8718	248.75
2897.36515	247.75
2899.85698	250.35
2902.34727	250.85
2904.83604	254.35
2907.32328	254.75
2909.809	256.55
2912.29319	260.15
2914.77587	259.15
2917.25702	262.25
2919.73665	260.85
2922.21476	262.95
2924.69136	267.95
2927.16644	267.85
2929.64	264.55
2932.11205	270.85
2934.58258	272.25
2937.05161	267.65
2939.51912	266.45
2941.98513	271.05
2944.44962	269.85
2946.91261	270.05
2949.37409	266.85
2951.83407	267.05
2954.29254	264.75
2956.74951	258.45
2959.20498	260.55
2961.65895	262.75
2964.11142	261.55
2966.56239	267.05
2969.01186	260.75
2971.45984	262.15
2973.90632	263.95
2976.35131	270.35
2978.7948	265.65
2981.23681	268.15
2983.67732	269.15
2986.11635	267.95
2988.55388	264.15
2990.98993	269.35
2993.4245	270.95
2995.85758	268.05
2998.28917	271.45
3000.71928	275.05
3003.14791	275.95
3005.57506	273.45
3008.00073	275.45
3010.42493	281.05
3012.84764	279.05
3015.26888	281.65
3017.68865	276.95
3020.10694	285.15
3022.52376	285.05
3024.9391	284.55
3027.35298	292.65
3029.76539	291.85
3032.17632	295.25
3034.5858	293.35
3036.9938	296.75
3039.40034	295.45
3041.80542	299.25
3044.20903	299.35
3046.61118	305.95
3049.01187	306.95
3051.4111	305.05
3053.80888	313.75
3056.20519	318.45
3058.60005	319.05
3060.99345	316.75
3063.3854	319.95
3065.7759	329.35
3068.16494	324.35
3070.55254	327.15
3072.93868	332.65
3075.32338	332.85
3077.70662	337.65
3080.08842	339.65
3082.46878	342.25
3084.84769	343.25
3087.22515	350.65
3089.60118	358.05
3091.97576	358.65
3094.3489	363.65
3096.72061	365.55
3099.09087	376.35
3101.4597	376.35
3103.82709	380.15
3106.19305	389.85
3108.55757	384.15
3110.92066	390.35
3113.28232	404.55
3115.64255	402.35
3118.00134	412.75
3120.35871	416.35
3122.71466	421.85
3125.06917	418.45
3127.42226	429.15
3129.77393	429.85
3132.12417	439.45
3134.47299	441.45
3136.82039	446.45
3139.16636	457.95
3141.51092	465.45
3143.85406	461.25
3146.19579	471.35
3148.53609	484.95
3150.87499	486.15
3153.21246	494.85
3155.54853	502.35
3157.88318	503.55
3160.21642	515.15
3162.54826	526.15
3164.87868	519.45
3167.2077	534.05
3169.5353	532.85
3171.86151	543.45
3174.18631	547.25
3176.5097	561.65
3178.83169	555.55
3181.15228	569.25
3183.47147	571.95
3185.78926	576.55
3188.10565	581.45
3190.42065	582.25
3192.73424	586.65
3195.04645	589.85
3197.35725	594.95
3199.66667	601.55
3201.97469	613.95
3204.28132	608.25
3206.58656	612.75
3208.8904	615.95
3211.19287	619.65
3213.49394	631.75
3215.79363	630.45
3218.09193	637.35
3220.38884	637.85
3222.68438	645.35
3224.97853	645.65
3227.2713	653.75
3229.56269	649.05
3231.8527	646.45
3234.14133	644.05
3236.42858	653.55
3238.71446	647.15
3240.99896	656.85
3243.28209	654.55
3245.56384	664.05
3247.84423	653.15
3250.12324	653.35
3252.40088	652.85
3254.67715	658.75
3256.95205	661.75
3259.22558	664.25
3261.49775	664.75
3263.76855	662.55
3266.03799	664.15
3268.30606	663.65
3270.57277	665.35
3272.83812	666.75
3275.10211	658.55
3277.36474	665.15
3279.62601	665.95
3281.88593	661.25
3284.14448	664.35
3286.40168	662.95
3288.65753	674.05
3290.91202	665.35
3293.16516	662.75
3295.41695	660.65
3297.66738	660.75
3299.91647	663.75
3302.16421	657.05
3304.4106	652.75
3306.65564	653.25
3308.89933	651.65
3311.14169	646.45
3313.38269	635.35
3315.62236	638.65
3317.86068	637.55
3320.09766	636.45
3322.3333	633.25
3324.5676	624.75
3326.80056	621.75
3329.03219	608.65
3331.26248	-0.45
3333.49143	0.75
3335.71905	-0.05
