Data from AgNP_FTO_APTES_UA_100uM_CRN_0uM_R6G_10uM_NaF_0.1M_Addition_RamanShift__34__11-24-50-125.txt Node

Date: Thu Mar 24 11:24:50 GMT 2022
User: TCL
Spectrometer: QEP01345
Trigger mode: 4
Integration Time (sec): 7.000000E0
Scans to average: 10
Electric dark correction enabled: true
Nonlinearity correction enabled: false
Boxcar width: 0
XAxis mode: Raman Shifts
Number of Pixels in Spectrum: 1044
>>>>>Begin Spectral Data<<<<<
46.04893	-0.875
50.45542	0.025
54.85868	-0.375
59.25871	0.125
63.6555	40.925
68.04907	46.125
72.43941	46.925
76.82654	47.725
81.21044	49.725
85.59113	48.725
89.96862	57.025
94.34289	56.025
98.71396	57.625
103.08183	56.425
107.4465	59.425
111.80798	64.125
116.16626	64.125
120.52136	64.125
124.87327	66.725
129.222	70.725
133.56755	76.125
137.90993	79.225
142.24913	91.125
146.58517	100.925
150.91804	119.225
155.24774	140.225
159.57429	179.225
163.89768	227.225
168.21792	309.025
172.53501	413.025
176.84895	577.725
181.15975	821.825
185.46741	1143.425
189.77193	1584.125
194.07331	2126.225
198.37157	2722.325
202.6667	3387.425
206.9587	4048.625
211.24758	4733.925
215.53334	5491.725
219.81599	6309.125
224.09553	7275.925
228.37195	8341.225
232.64527	9495.125
236.91549	10617.525
241.18261	11572.725
245.44663	12307.425
249.70755	12885.225
253.96539	13258.925
258.22014	13689.625
262.4718	14047.825
266.72039	14242.025
270.96589	14252.925
275.20832	14065.125
279.44768	13750.225
283.68397	13485.725
287.91719	13319.425
292.14735	13415.425
296.37445	13769.125
300.59849	14424.225
304.81948	15221.325
309.03742	15928.225
313.25231	16100.025
317.46415	15436.525
321.67296	14181.025
325.87872	13089.125
330.08145	12504.625
334.28114	12413.825
338.47781	12645.325
342.67145	12999.625
346.86207	13560.725
351.04966	14418.225
355.23424	15403.625
359.4158	16172.125
363.59435	16433.225
367.76989	16472.525
371.94243	16292.625
376.11196	16078.125
380.27849	15915.725
384.44203	15701.525
388.60257	15454.425
392.76012	15315.425
396.91468	15394.525
401.06626	15751.625
405.21485	16068.025
409.36047	15683.925
413.50311	14707.125
417.64277	13825.525
421.77947	13340.625
425.9132	13159.625
430.04396	13174.125
434.17176	13270.825
438.2966	13509.225
442.41849	14008.725
446.53742	14740.825
450.6534	15412.825
454.76644	15731.225
458.87653	15524.725
462.98368	15135.225
467.08789	14662.825
471.18916	14214.125
475.2875	13733.725
479.38291	13400.625
483.4754	13105.825
487.56496	12859.025
491.6516	12638.025
495.73531	12498.825
499.81612	12424.625
503.89401	12571.525
507.96899	12752.425
512.04106	12886.625
516.11023	13028.925
520.1765	13091.625
524.23987	13098.725
528.30034	12987.625
532.35792	12840.525
536.41261	12516.125
540.46441	12071.925
544.51333	11800.125
548.55936	11899.425
552.60252	12330.725
556.64279	13005.025
560.6802	13493.825
564.71473	13938.025
568.7464	14809.925
572.7752	15562.625
576.80114	15231.225
580.82422	14605.325
584.84444	14587.125
588.86181	15108.725
592.87633	15973.625
596.888	16311.925
600.89682	15922.425
604.9028	17032.125
608.90594	22238.625
612.90624	29301.825
616.90371	28105.525
620.89834	18300.525
624.89015	13261.125
628.87913	12355.925
632.86528	12586.325
636.84862	12887.725
640.82913	12585.625
644.80683	11660.625
648.78172	10985.425
652.75379	10955.525
656.72306	11591.825
660.68952	12462.925
664.65319	12282.825
668.61405	11389.725
672.57211	10998.425
676.52738	11035.025
680.47986	10989.725
684.42955	10770.225
688.37646	10569.525
692.32058	10616.225
696.26192	10801.225
700.20048	11092.825
704.13626	11279.825
708.06928	11281.525
711.99952	11157.125
715.927	11093.525
719.85171	11177.125
723.77365	11235.525
727.69284	11062.725
731.60928	10904.925
735.52295	10902.325
739.43388	11017.725
743.34206	11118.925
747.24749	11169.925
751.15017	11243.125
755.05012	11542.225
758.94733	12428.025
762.8418	14626.225
766.73354	18331.525
770.62254	21970.625
774.50882	23452.125
778.39237	22059.825
782.27321	18521.625
786.15132	14880.125
790.02671	12619.825
793.89938	11522.025
797.76935	11066.525
801.6366	10876.025
805.50115	10779.925
809.36299	10645.525
813.22213	10507.225
817.07857	10419.925
820.93231	10394.925
824.78336	10435.025
828.63172	10490.325
832.47738	10486.425
836.32036	10439.325
840.16066	10363.425
843.99827	10317.925
847.8332	10285.525
851.66546	10256.225
855.49504	10280.025
859.32195	10246.925
863.1462	10170.425
866.96777	10150.025
870.78668	10099.225
874.60293	10118.725
878.41652	10171.525
882.22745	10303.325
886.03573	10409.225
889.84136	10422.925
893.64433	10338.425
897.44466	10335.525
901.24235	10285.825
905.0374	10176.525
908.8298	10026.025
912.61957	9949.625
916.40671	9971.825
920.19121	10160.725
923.97308	10410.525
927.75233	10658.925
931.52895	10791.825
935.30295	10571.925
939.07433	10064.825
942.84309	9661.125
946.60924	9437.525
950.37278	9344.625
954.13371	9282.225
957.89203	9252.825
961.64774	9219.625
965.40086	9186.025
969.15137	9140.825
972.89929	9096.925
976.64461	9040.925
980.38733	9051.525
984.12747	9064.125
987.86502	9173.925
991.59999	9309.225
995.33237	9568.525
999.06217	10029.925
1002.78939	10603.425
1006.51404	11113.825
1010.23611	11494.225
1013.95561	11676.725
1017.67255	11634.125
1021.38692	11257.725
1025.09872	10824.125
1028.80796	10604.025
1032.51465	10664.625
1036.21877	10891.325
1039.92035	10974.025
1043.61937	10979.125
1047.31584	10895.325
1051.00976	10752.125
1054.70114	10614.725
1058.38998	10568.825
1062.07627	10560.825
1065.76003	10639.925
1069.44126	10801.925
1073.11995	11060.825
1076.79611	11396.125
1080.46974	11812.525
1084.14085	12363.125
1087.80943	12897.025
1091.47549	13106.625
1095.13903	12795.625
1098.80005	12195.825
1102.45857	11602.825
1106.11456	11386.425
1109.76805	11519.525
1113.41903	11901.725
1117.06751	12587.625
1120.71348	13450.725
1124.35696	14461.125
1127.99793	15222.325
1131.63641	14968.125
1135.2724	13983.425
1138.90589	13087.825
1142.5369	12583.125
1146.16542	12256.925
1149.79145	12125.925
1153.415	12139.425
1157.03607	12295.925
1160.65467	12733.425
1164.27079	13564.825
1167.88443	14951.625
1171.49561	16994.825
1175.10432	20138.225
1178.71056	24271.125
1182.31434	27647.625
1185.91565	28628.525
1189.51451	27486.225
1193.11091	25359.425
1196.70485	23002.925
1200.29634	20964.525
1203.88538	19231.225
1207.47197	17504.625
1211.05612	16155.125
1214.63782	15433.825
1218.21708	15414.825
1221.79391	15683.525
1225.36829	15814.525
1228.94024	15533.625
1232.50976	14879.025
1236.07685	14359.225
1239.6415	14129.825
1243.20374	14065.325
1246.76355	14126.825
1250.32093	14327.125
1253.8759	14779.425
1257.42845	15504.525
1260.97859	16362.925
1264.52631	17359.525
1268.07163	18332.725
1271.61453	19247.825
1275.15503	19979.425
1278.69312	20500.525
1282.22882	21097.325
1285.76211	22066.425
1289.29301	23323.325
1292.82151	24746.925
1296.34761	26466.525
1299.87133	28854.625
1303.39266	32264.125
1306.9116	37119.625
1310.42815	42188.825
1313.94233	44724.225
1317.45412	42968.725
1320.96354	38896.825
1324.47058	34815.825
1327.97525	31524.725
1331.47754	29519.125
1334.97747	28676.925
1338.47502	28605.125
1341.97022	29035.225
1345.46305	29943.725
1348.95352	31643.625
1352.44163	34217.925
1355.92738	38414.625
1359.41078	44959.925
1362.89183	50767.125
1366.37053	48640.725
1369.84688	39777.325
1373.32088	31383.125
1376.79254	26510.825
1380.26186	24077.925
1383.72883	22708.925
1387.19347	21743.525
1390.65578	21022.725
1394.11575	20747.525
1397.57339	20940.325
1401.0287	21359.925
1404.48168	21632.325
1407.93234	21631.625
1411.38068	21349.425
1414.82669	20859.725
1418.27039	20122.725
1421.71177	19221.425
1425.15083	18400.625
1428.58758	18078.225
1432.02203	18415.525
1435.45416	18890.625
1438.88399	19116.825
1442.31151	19268.225
1445.73673	19434.625
1449.15965	19728.125
1452.58027	19811.525
1455.9986	19814.725
1459.41463	19969.725
1462.82837	20465.925
1466.23982	21174.825
1469.64898	21754.925
1473.05586	22032.025
1476.46045	22035.725
1479.86276	22077.925
1483.26279	22229.825
1486.66054	22733.525
1490.05602	23642.825
1493.44922	24970.425
1496.84016	26882.925
1500.22882	30045.625
1503.61521	34671.725
1506.99934	39922.725
1510.38121	44094.825
1513.76081	44719.825
1517.13816	40740.325
1520.51324	34462.425
1523.88607	28995.925
1527.25665	25731.625
1530.62498	24099.125
1533.99105	23286.325
1537.35488	22548.225
1540.71647	21869.125
1544.07581	21311.725
1547.4329	20754.025
1550.78776	20346.025
1554.14038	20130.125
1557.49077	20205.925
1560.83892	20552.425
1564.18484	21297.225
1567.52853	22263.125
1570.86999	23133.625
1574.20922	23647.725
1577.54624	23454.725
1580.88103	22105.925
1584.2136	20284.025
1587.54395	19653.625
1590.87208	20421.725
1594.19801	22607.725
1597.52172	25221.425
1600.84321	26408.825
1604.16251	25116.325
1607.47959	22476.925
1610.79447	19545.025
1614.10715	17018.825
1617.41763	15106.425
1620.7259	13915.825
1624.03199	13387.425
1627.33587	13397.325
1630.63757	14067.125
1633.93707	15486.925
1637.23439	17987.325
1640.52951	21960.925
1643.82246	27378.525
1647.11321	32870.025
1650.40179	35507.625
1653.68819	32934.725
1656.97241	26434.025
1660.25446	19965.025
1663.53433	15458.725
1666.81203	12855.525
1670.08756	11403.325
1673.36092	10569.825
1676.63211	10017.225
1679.90115	9639.925
1683.16801	9375.525
1686.43272	9182.725
1689.69527	9047.825
1692.95567	8940.325
1696.2139	8884.525
1699.46999	8809.825
1702.72392	8781.025
1705.97571	8743.125
1709.22535	8740.425
1712.47284	8730.025
1715.71819	8710.825
1718.96139	8651.125
1722.20246	8618.125
1725.44139	8501.725
1728.67818	8412.325
1731.91284	8300.025
1735.14537	8215.425
1738.37576	8159.925
1741.60403	8083.025
1744.83017	8053.525
1748.05418	8027.625
1751.27607	7997.425
1754.49584	7947.325
1757.71349	7939.525
1760.92903	7907.625
1764.14244	7893.425
1767.35375	7869.925
1770.56294	7833.725
1773.77002	7799.125
1776.97499	7753.125
1780.17785	7740.225
1783.37861	7689.225
1786.57727	7679.625
1789.77382	7622.525
1792.96828	7620.025
1796.16064	7611.325
1799.3509	7587.125
1802.53907	7553.125
1805.72514	7549.825
1808.90913	7520.425
1812.09102	7474.025
1815.27083	7454.225
1818.44856	7414.325
1821.6242	7412.525
1824.79776	7402.425
1827.96924	7366.925
1831.13864	7373.025
1834.30597	7382.825
1837.47122	7346.125
1840.6344	7320.425
1843.7955	7332.725
1846.95454	7318.325
1850.11151	7325.825
1853.26642	7330.825
1856.41926	7334.525
1859.57004	7323.825
1862.71876	7338.025
1865.86542	7350.625
1869.01003	7369.925
1872.15258	7358.525
1875.29308	7361.425
1878.43152	7361.925
1881.56792	7394.325
1884.70227	7387.925
1887.83457	7411.025
1890.96482	7374.825
1894.09304	7405.325
1897.21921	7402.825
1900.34335	7405.225
1903.46544	7399.125
1906.58551	7377.525
1909.70353	7399.425
1912.81953	7383.925
1915.93349	7373.525
1919.04543	7334.125
1922.15534	7293.725
1925.26322	7244.225
1928.36908	7220.225
1931.47292	7191.825
1934.57473	7149.525
1937.67453	7115.125
1940.77232	7087.725
1943.86808	7051.425
1946.96184	7039.225
1950.05358	7023.425
1953.14331	6994.725
1956.23103	6978.125
1959.31675	6958.625
1962.40046	6925.925
1965.48217	6924.625
1968.56188	6934.325
1971.63959	6929.725
1974.7153	6917.425
1977.78901	6897.425
1980.86073	6872.425
1983.93046	6813.625
1986.99819	6784.325
1990.06394	6753.325
1993.1277	6716.125
1996.18947	6688.025
1999.24925	6652.725
2002.30706	6656.825
2005.36288	6615.925
2008.41672	6588.725
2011.46859	6579.425
2014.51848	6550.225
2017.56639	6520.425
2020.61233	6501.125
2023.6563	6483.225
2026.6983	6440.725
2029.73833	6439.625
2032.7764	6417.725
2035.8125	6419.425
2038.84664	6402.525
2041.87881	6379.425
2044.90903	6386.225
2047.93729	6367.225
2050.96359	6366.925
2053.98794	6344.325
2057.01034	6328.425
2060.03078	6325.725
2063.04927	6337.125
2066.06582	6326.725
2069.08042	6319.925
2072.09307	6320.225
2075.10378	6308.025
2078.11255	6308.125
2081.11938	6320.125
2084.12426	6306.325
2087.12722	6326.325
2090.12824	6312.825
2093.12732	6297.225
2096.12447	6312.325
2099.11969	6305.225
2102.11299	6294.925
2105.10435	6300.125
2108.09379	6300.125
2111.08131	6288.425
2114.0669	6288.025
2117.05057	6299.825
2120.03233	6283.025
2123.01216	6301.725
2125.99008	6281.025
2128.96609	6282.625
2131.94018	6292.425
2134.91236	6287.825
2137.88263	6286.625
2140.851	6268.125
2143.81746	6247.325
2146.78201	6230.725
2149.74466	6223.425
2152.7054	6210.725
2155.66425	6207.525
2158.6212	6193.925
2161.57625	6171.925
2164.52941	6180.825
2167.48067	6152.625
2170.43004	6133.725
2173.37752	6147.625
2176.32311	6160.525
2179.26681	6169.525
2182.20863	6153.525
2185.14856	6155.025
2188.08661	6141.825
2191.02278	6148.625
2193.95707	6122.025
2196.88948	6120.325
2199.82001	6127.325
2202.74867	6100.325
2205.67545	6109.225
2208.60037	6100.025
2211.52341	6094.425
2214.44458	6085.525
2217.36388	6058.425
2220.28132	6052.925
2223.1969	6027.325
2226.11061	6030.425
2229.02246	6000.525
2231.93245	6004.325
2234.84058	5978.925
2237.74686	5972.125
2240.65128	5972.625
2243.55385	5969.225
2246.45456	5954.225
2249.35343	5955.225
2252.25044	5953.625
2255.14561	5930.925
2258.03893	5925.725
2260.93041	5952.825
2263.82004	5949.525
2266.70783	5931.225
2269.59378	5932.325
2272.4779	5877.825
2275.36017	5879.825
2278.24061	5860.825
2281.11922	5854.125
2283.996	5855.325
2286.87094	5825.325
2289.74405	5821.725
2292.61534	5794.825
2295.4848	5793.725
2298.35243	5776.025
2301.21824	5781.725
2304.08223	5775.725
2306.94439	5775.725
2309.80474	5776.625
2312.66327	5794.625
2315.51999	5798.025
2318.37489	5782.525
2321.22797	5786.725
2324.07925	5777.625
2326.92871	5762.625
2329.77637	5792.525
2332.62222	5766.225
2335.46626	5759.925
2338.3085	5770.125
2341.14893	5762.825
2343.98756	5788.625
2346.8244	5807.425
2349.65943	5797.825
2352.49267	5814.125
2355.32411	5845.025
2358.15376	5857.325
2360.98161	5861.625
2363.80768	5875.025
2366.63195	5887.625
2369.45444	5877.925
2372.27514	5880.125
2375.09405	5864.125
2377.91118	5857.625
2380.72652	5816.025
2383.54009	5780.225
2386.35187	5751.725
2389.16188	5726.225
2391.97011	5708.125
2394.77657	5698.425
2397.58125	5695.825
2400.38416	5663.825
2403.18529	5652.425
2405.98466	5648.825
2408.78226	5612.025
2411.57809	5611.625
2414.37216	5588.825
2417.16446	5599.025
2419.955	5579.325
2422.74378	5573.825
2425.5308	5585.825
2428.31606	5582.425
2431.09956	5595.925
2433.88131	5573.225
2436.6613	5583.825
2439.43954	5609.625
2442.21603	5604.225
2444.99077	5611.125
2447.76377	5607.525
2450.53501	5630.125
2453.30451	5641.625
2456.07226	5632.425
2458.83827	5642.825
2461.60254	5633.525
2464.36507	5639.725
2467.12586	5626.525
2469.88492	5646.425
2472.64224	5669.925
2475.39782	5677.725
2478.15167	5683.325
2480.90379	5696.325
2483.65417	5709.825
2486.40283	5730.725
2489.14976	5753.025
2491.89497	5760.425
2494.63845	5775.625
2497.3802	5756.525
2500.12024	5755.525
2502.85855	5733.625
2505.59514	5727.325
2508.33002	5699.825
2511.06318	5653.325
2513.79462	5649.925
2516.52435	5602.925
2519.25237	5588.925
2521.97867	5570.925
2524.70327	5558.725
2527.42616	5542.225
2530.14734	5523.525
2532.86681	5540.125
2535.58458	5556.525
2538.30065	5535.525
2541.01501	5553.925
2543.72768	5555.525
2546.43864	5575.325
2549.14791	5563.025
2551.85548	5553.925
2554.56136	5561.925
2557.26554	5560.825
2559.96803	5557.825
2562.66883	5558.325
2565.36794	5547.025
2568.06536	5537.325
2570.7611	5535.325
2573.45514	5557.325
2576.14751	5525.725
2578.83819	5531.325
2581.52719	5509.925
2584.21451	5529.525
2586.90015	5515.425
2589.58411	5510.925
2592.2664	5511.425
2594.94701	5507.125
2597.62594	5513.725
2600.30321	5513.525
2602.9788	5508.925
2605.65273	5510.925
2608.32498	5506.325
2610.99557	5528.925
2613.66449	5544.625
2616.33175	5537.925
2618.99734	5540.325
2621.66128	5532.625
2624.32355	5546.525
2626.98416	5552.025
2629.64311	5536.925
2632.30041	5526.125
2634.95605	5520.525
2637.61004	5510.825
2640.26238	5488.825
2642.91306	5486.425
2645.56209	5483.225
2648.20948	5489.225
2650.85521	5499.925
2653.4993	5491.025
2656.14175	5502.325
2658.78255	5496.325
2661.42171	5502.125
2664.05923	5528.725
2666.6951	5538.125
2669.32934	5554.825
2671.96194	5546.925
2674.59291	5558.225
2677.22224	5551.825
2679.84993	5546.925
2682.476	5523.825
2685.10043	5552.425
2687.72324	5537.325
2690.34441	5523.925
2692.96396	5516.125
2695.58188	5517.225
2698.19818	5520.025
2700.81285	5511.525
2703.4259	5521.825
2706.03733	5537.825
2708.64714	5514.025
2711.25533	5535.625
2713.86191	5544.525
2716.46687	5548.025
2719.07021	5535.225
2721.67194	5549.725
2724.27206	5544.625
2726.87057	5570.025
2729.46747	5552.025
2732.06276	5557.225
2734.65644	5535.825
2737.24852	5535.025
2739.83899	5516.725
2742.42786	5519.325
2745.01513	5498.925
2747.60079	5502.225
2750.18486	5493.725
2752.76733	5502.525
2755.3482	5504.825
2757.92747	5488.225
2760.50515	5501.725
2763.08123	5490.425
2765.65573	5499.025
2768.22863	5488.025
2770.79994	5490.825
2773.36967	5505.725
2775.9378	5498.925
2778.50435	5509.425
2781.06932	5502.425
2783.6327	5503.425
2786.1945	5516.025
2788.75471	5495.025
2791.31335	5491.925
2793.87041	5479.925
2796.42589	5492.225
2798.97979	5481.225
2801.53212	5482.525
2804.08288	5505.725
2806.63206	5493.725
2809.17967	5490.025
2811.72571	5502.625
2814.27018	5519.925
2816.81308	5530.325
2819.35442	5523.625
2821.89419	5547.025
2824.43239	5548.725
2826.96904	5563.025
2829.50412	5555.025
2832.03763	5539.525
2834.56959	5566.525
2837.1	5537.625
2839.62884	5532.325
2842.15613	5540.625
2844.68186	5548.025
2847.20604	5575.825
2849.72867	5575.025
2852.24974	5600.225
2854.76927	5597.925
2857.28724	5601.625
2859.80367	5595.125
2862.31855	5618.825
2864.83189	5630.925
2867.34368	5658.925
2869.85393	5677.325
2872.36264	5649.225
2874.8698	5656.825
2877.37543	5672.025
2879.87952	5666.725
2882.38207	5674.625
2884.88308	5655.325
2887.38256	5656.025
2889.88051	5651.325
2892.37692	5667.125
2894.8718	5655.725
2897.36515	5659.525
2899.85698	5640.225
2902.34727	5655.525
2904.83604	5659.025
2907.32328	5665.025
2909.809	5661.425
2912.29319	5658.925
2914.77587	5639.825
2917.25702	5635.825
2919.73665	5626.625
2922.21476	5607.225
2924.69136	5598.925
2927.16644	5604.425
2929.64	5580.925
2932.11205	5546.525
2934.58258	5532.925
2937.05161	5530.925
2939.51912	5515.625
2941.98513	5507.425
2944.44962	5478.425
2946.91261	5458.725
2949.37409	5448.125
2951.83407	5464.025
2954.29254	5457.925
2956.74951	5422.625
2959.20498	5410.925
2961.65895	5401.625
2964.11142	5403.025
2966.56239	5380.025
2969.01186	5349.325
2971.45984	5325.625
2973.90632	5319.325
2976.35131	5277.525
2978.7948	5281.525
2981.23681	5269.625
2983.67732	5241.625
2986.11635	5235.925
2988.55388	5216.425
2990.98993	5218.725
2993.4245	5202.325
2995.85758	5201.825
2998.28917	5185.325
3000.71928	5189.625
3003.14791	5208.325
3005.57506	5190.225
3008.00073	5167.525
3010.42493	5169.325
3012.84764	5168.525
3015.26888	5153.225
3017.68865	5129.725
3020.10694	5134.925
3022.52376	5115.925
3024.9391	5086.925
3027.35298	5065.925
3029.76539	5071.125
3032.17632	5052.825
3034.5858	5037.825
3036.9938	5032.425
3039.40034	5012.125
3041.80542	4997.925
3044.20903	4986.425
3046.61118	4989.725
3049.01187	4968.325
3051.4111	4967.725
3053.80888	4947.525
3056.20519	4941.825
3058.60005	4936.725
3060.99345	4915.325
3063.3854	4891.125
3065.7759	4874.025
3068.16494	4886.325
3070.55254	4865.925
3072.93868	4850.225
3075.32338	4842.625
3077.70662	4833.425
3080.08842	4805.125
3082.46878	4810.925
3084.84769	4811.825
3087.22515	4790.225
3089.60118	4777.725
3091.97576	4779.025
3094.3489	4756.425
3096.72061	4760.625
3099.09087	4750.225
3101.4597	4753.925
3103.82709	4740.325
3106.19305	4727.925
3108.55757	4725.625
3110.92066	4689.425
3113.28232	4710.925
3115.64255	4691.325
3118.00134	4670.425
3120.35871	4678.025
3122.71466	4669.425
3125.06917	4664.025
3127.42226	4650.325
3129.77393	4656.925
3132.12417	4659.225
3134.47299	4676.625
3136.82039	4683.325
3139.16636	4676.325
3141.51092	4672.325
3143.85406	4653.625
3146.19579	4654.825
3148.53609	4656.925
3150.87499	4681.425
3153.21246	4685.125
3155.54853	4688.225
3157.88318	4661.825
3160.21642	4674.825
3162.54826	4667.725
3164.87868	4678.525
3167.2077	4663.825
3169.5353	4653.925
3171.86151	4663.425
3174.18631	4658.525
3176.5097	4654.025
3178.83169	4645.425
3181.15228	4654.525
3183.47147	4653.625
3185.78926	4663.625
3188.10565	4649.025
3190.42065	4673.825
3192.73424	4674.925
