Data from AgNP_FTO_APTES_UA_100uM_CRN_100uM_R6G_10uM_NaF_0.1M_Addition_RamanShift__5__17-53-20-569.txt Node

Date: Thu Mar 24 17:53:20 GMT 2022
User: TCL
Spectrometer: QEP01345
Trigger mode: 4
Integration Time (sec): 7.000000E0
Scans to average: 10
Electric dark correction enabled: true
Nonlinearity correction enabled: false
Boxcar width: 0
XAxis mode: Raman Shifts
Number of Pixels in Spectrum: 1044
>>>>>Begin Spectral Data<<<<<
46.04893	-1.175
50.45542	1.025
54.85868	-0.675
59.25871	0.125
63.6555	31.925
68.04907	36.025
72.43941	37.325
76.82654	35.725
81.21044	42.825
85.59113	40.825
89.96862	43.525
94.34289	43.025
98.71396	47.025
103.08183	45.725
107.4465	48.625
111.80798	48.425
116.16626	48.825
120.52136	49.825
124.87327	47.825
129.222	54.025
133.56755	59.825
137.90993	57.125
142.24913	66.925
146.58517	68.025
150.91804	80.625
155.24774	96.425
159.57429	117.625
163.89768	147.625
168.21792	198.225
172.53501	268.125
176.84895	368.725
181.15975	520.325
185.46741	730.525
189.77193	1000.825
194.07331	1346.225
198.37157	1743.725
202.6667	2157.225
206.9587	2579.725
211.24758	2996.325
215.53334	3430.825
219.81599	3885.325
224.09553	4416.925
228.37195	4986.625
232.64527	5623.025
236.91549	6285.825
241.18261	6896.125
245.44663	7406.925
249.70755	7821.725
253.96539	8181.225
258.22014	8485.825
262.4718	8761.725
266.72039	8937.425
270.96589	9031.525
275.20832	9005.325
279.44768	8894.225
283.68397	8774.025
287.91719	8679.825
292.14735	8651.225
296.37445	8743.525
300.59849	8926.825
304.81948	9161.325
309.03742	9334.225
313.25231	9348.625
317.46415	9124.025
321.67296	8721.325
325.87872	8363.225
330.08145	8208.125
334.28114	8158.525
338.47781	8250.925
342.67145	8403.225
346.86207	8615.225
351.04966	8899.125
355.23424	9196.825
359.4158	9414.625
363.59435	9529.525
367.76989	9553.625
371.94243	9538.425
376.11196	9520.625
380.27849	9496.225
384.44203	9478.025
388.60257	9471.125
392.76012	9507.625
396.91468	9595.125
401.06626	9778.925
405.21485	9886.725
409.36047	9746.225
413.50311	9461.225
417.64277	9130.725
421.77947	8985.525
425.9132	8924.525
430.04396	8933.725
434.17176	8964.225
438.2966	9067.025
442.41849	9252.025
446.53742	9502.525
450.6534	9733.125
454.76644	9873.425
458.87653	9871.725
462.98368	9791.025
467.08789	9677.825
471.18916	9552.925
475.2875	9400.125
479.38291	9264.025
483.4754	9163.525
487.56496	9083.925
491.6516	8997.325
495.73531	8952.925
499.81612	8917.025
503.89401	8977.525
507.96899	9027.925
512.04106	9048.225
516.11023	9063.825
520.1765	9090.925
524.23987	9063.925
528.30034	9023.625
532.35792	8962.425
536.41261	8880.425
540.46441	8732.425
544.51333	8660.325
548.55936	8713.225
552.60252	8900.625
556.64279	9111.325
560.6802	9232.425
564.71473	9301.825
568.7464	9548.925
572.7752	9782.325
576.80114	9868.925
580.82422	9937.625
584.84444	10127.225
588.86181	10374.725
592.87633	10600.725
596.888	10756.225
600.89682	10721.425
604.9028	11090.425
608.90594	12757.325
612.90624	14974.225
616.90371	14201.225
620.89834	10869.525
624.89015	9230.425
628.87913	8976.425
632.86528	9132.725
636.84862	9332.025
640.82913	9213.625
644.80683	8843.825
648.78172	8575.225
652.75379	8491.625
656.72306	8678.325
660.68952	8955.725
664.65319	8882.825
668.61405	8558.725
672.57211	8402.225
676.52738	8438.625
680.47986	8396.725
684.42955	8342.625
688.37646	8275.925
692.32058	8278.225
696.26192	8332.725
700.20048	8464.625
704.13626	8533.625
708.06928	8560.725
711.99952	8483.525
715.927	8494.725
719.85171	8513.625
723.77365	8546.725
727.69284	8491.825
731.60928	8429.625
735.52295	8425.025
739.43388	8429.225
743.34206	8475.325
747.24749	8494.725
751.15017	8508.525
755.05012	8629.325
758.94733	8945.825
762.8418	9685.725
766.73354	11043.125
770.62254	12281.225
774.50882	12696.125
778.39237	12094.825
782.27321	10821.125
786.15132	9592.625
790.02671	8801.725
793.89938	8441.125
797.76935	8286.725
801.6366	8209.125
805.50115	8162.225
809.36299	8126.225
813.22213	8113.525
817.07857	8105.125
820.93231	8073.925
824.78336	8068.625
828.63172	8048.425
832.47738	8040.825
836.32036	8016.925
840.16066	8005.025
843.99827	7963.525
847.8332	7955.025
851.66546	7943.925
855.49504	7963.625
859.32195	7943.025
863.1462	7951.625
866.96777	7912.625
870.78668	7917.725
874.60293	7969.625
878.41652	7941.425
882.22745	7998.025
886.03573	8053.425
889.84136	8040.425
893.64433	8007.325
897.44466	7968.925
901.24235	7928.425
905.0374	7906.725
908.8298	7860.625
912.61957	7817.925
916.40671	7829.225
920.19121	7902.625
923.97308	7978.625
927.75233	8040.325
931.52895	8048.925
935.30295	7928.225
939.07433	7724.525
942.84309	7562.225
946.60924	7467.925
950.37278	7435.625
954.13371	7414.725
957.89203	7400.025
961.64774	7402.425
965.40086	7401.125
969.15137	7367.425
972.89929	7359.625
976.64461	7331.225
980.38733	7315.925
984.12747	7313.825
987.86502	7349.525
991.59999	7388.725
995.33237	7452.025
999.06217	7563.625
1002.78939	7713.625
1006.51404	7909.625
1010.23611	8086.025
1013.95561	8157.025
1017.67255	8112.125
1021.38692	8014.425
1025.09872	7835.325
1028.80796	7704.425
1032.51465	7660.625
1036.21877	7674.225
1039.92035	7715.525
1043.61937	7764.025
1047.31584	7805.625
1051.00976	7853.725
1054.70114	7870.425
1058.38998	7883.225
1062.07627	7935.525
1065.76003	8004.725
1069.44126	8112.925
1073.11995	8250.325
1076.79611	8408.725
1080.46974	8544.825
1084.14085	8646.925
1087.80943	8792.625
1091.47549	8870.225
1095.13903	8778.925
1098.80005	8570.025
1102.45857	8359.325
1106.11456	8221.625
1109.76805	8210.025
1113.41903	8295.825
1117.06751	8504.725
1120.71348	8744.925
1124.35696	9055.125
1127.99793	9341.325
1131.63641	9312.325
1135.2724	9082.825
1138.90589	8822.525
1142.5369	8645.325
1146.16542	8536.125
1149.79145	8457.125
1153.415	8466.625
1157.03607	8511.625
1160.65467	8693.725
1164.27079	9004.525
1167.88443	9507.425
1171.49561	10241.225
1175.10432	11325.425
1178.71056	12733.325
1182.31434	13849.925
1185.91565	14147.625
1189.51451	13753.625
1193.11091	13063.925
1196.70485	12270.725
1200.29634	11601.025
1203.88538	11028.425
1207.47197	10468.225
1211.05612	10005.025
1214.63782	9674.225
1218.21708	9515.125
1221.79391	9449.825
1225.36829	9466.425
1228.94024	9388.425
1232.50976	9262.425
1236.07685	9143.825
1239.6415	9068.825
1243.20374	9085.225
1246.76355	9092.825
1250.32093	9173.025
1253.8759	9315.425
1257.42845	9588.025
1260.97859	9875.625
1264.52631	10215.525
1268.07163	10536.625
1271.61453	10847.225
1275.15503	11104.025
1278.69312	11288.525
1282.22882	11523.725
1285.76211	11932.225
1289.29301	12435.125
1292.82151	12953.125
1296.34761	13537.725
1299.87133	14358.625
1303.39266	15443.925
1306.9116	16882.125
1310.42815	18284.425
1313.94233	18940.725
1317.45412	18432.125
1320.96354	17449.025
1324.47058	16428.225
1327.97525	15461.725
1331.47754	14802.525
1334.97747	14388.525
1338.47502	14287.225
1341.97022	14385.125
1345.46305	14741.525
1348.95352	15324.525
1352.44163	16140.825
1355.92738	17393.025
1359.41078	19387.525
1362.89183	21205.825
1366.37053	20867.525
1369.84688	18130.125
1373.32088	15227.525
1376.79254	13418.925
1380.26186	12529.425
1383.72883	12014.625
1387.19347	11663.425
1390.65578	11264.425
1394.11575	11038.125
1397.57339	10982.625
1401.0287	11002.825
1404.48168	11077.025
1407.93234	11029.125
1411.38068	10856.025
1414.82669	10679.725
1418.27039	10402.225
1421.71177	10104.025
1425.15083	9811.225
1428.58758	9634.625
1432.02203	9709.225
1435.45416	9887.725
1438.88399	10020.725
1442.31151	10149.125
1445.73673	10247.725
1449.15965	10344.125
1452.58027	10361.825
1455.9986	10360.625
1459.41463	10399.325
1462.82837	10585.425
1466.23982	10897.825
1469.64898	11218.025
1473.05586	11484.825
1476.46045	11672.425
1479.86276	11821.025
1483.26279	11997.325
1486.66054	12232.125
1490.05602	12631.025
1493.44922	13172.125
1496.84016	14005.525
1500.22882	15213.925
1503.61521	16848.825
1506.99934	18542.125
1510.38121	19666.425
1513.76081	19553.825
1517.13816	18066.025
1520.51324	15984.925
1523.88607	14266.125
1527.25665	13180.225
1530.62498	12638.925
1533.99105	12262.625
1537.35488	11960.325
1540.71647	11646.825
1544.07581	11313.625
1547.4329	11054.225
1550.78776	10853.725
1554.14038	10704.325
1557.49077	10719.425
1560.83892	10843.425
1564.18484	11165.925
1567.52853	11587.125
1570.86999	11948.225
1574.20922	12206.225
1577.54624	12175.725
1580.88103	11694.925
1584.2136	11048.725
1587.54395	10786.225
1590.87208	10963.825
1594.19801	11551.325
1597.52172	12294.525
1600.84321	12563.625
1604.16251	12105.125
1607.47959	11306.525
1610.79447	10461.925
1614.10715	9651.425
1617.41763	9042.225
1620.7259	8580.325
1624.03199	8362.325
1627.33587	8326.125
1630.63757	8529.825
1633.93707	8986.525
1637.23439	9850.025
1640.52951	11331.325
1643.82246	13293.925
1647.11321	15324.125
1650.40179	16349.025
1653.68819	15600.125
1656.97241	13419.325
1660.25446	11083.425
1663.53433	9351.825
1666.81203	8303.825
1670.08756	7686.125
1673.36092	7315.325
1676.63211	7088.625
1679.90115	6914.325
1683.16801	6779.925
1686.43272	6680.225
1689.69527	6586.525
1692.95567	6507.025
1696.2139	6465.925
1699.46999	6449.825
1702.72392	6412.625
1705.97571	6389.125
1709.22535	6357.225
1712.47284	6330.325
1715.71819	6317.225
1718.96139	6273.325
1722.20246	6262.325
1725.44139	6210.025
1728.67818	6155.025
1731.91284	6094.225
1735.14537	6063.725
1738.37576	6025.925
1741.60403	6013.425
1744.83017	5970.325
1748.05418	5965.225
1751.27607	5917.125
1754.49584	5905.125
1757.71349	5894.425
1760.92903	5886.925
1764.14244	5871.125
1767.35375	5881.425
1770.56294	5837.825
1773.77002	5805.425
1776.97499	5786.325
1780.17785	5764.325
1783.37861	5770.425
1786.57727	5736.625
1789.77382	5732.325
1792.96828	5731.025
1796.16064	5706.725
1799.3509	5706.425
1802.53907	5686.825
1805.72514	5651.625
1808.90913	5632.525
1812.09102	5609.925
1815.27083	5604.425
1818.44856	5596.325
1821.6242	5573.925
1824.79776	5566.925
1827.96924	5542.925
1831.13864	5552.125
1834.30597	5530.525
1837.47122	5496.525
1840.6344	5494.325
1843.7955	5504.125
1846.95454	5486.225
1850.11151	5488.125
1853.26642	5475.125
1856.41926	5469.825
1859.57004	5461.425
1862.71876	5461.325
1865.86542	5450.925
1869.01003	5442.825
1872.15258	5414.725
1875.29308	5435.025
1878.43152	5413.125
1881.56792	5416.725
1884.70227	5421.925
1887.83457	5403.025
1890.96482	5394.225
1894.09304	5383.725
1897.21921	5387.225
1900.34335	5360.025
1903.46544	5353.225
1906.58551	5357.425
1909.70353	5349.725
1912.81953	5358.225
1915.93349	5318.025
1919.04543	5318.925
1922.15534	5282.125
1925.26322	5282.525
1928.36908	5280.725
1931.47292	5257.025
1934.57473	5241.325
1937.67453	5226.025
1940.77232	5208.125
1943.86808	5210.125
1946.96184	5173.525
1950.05358	5142.525
1953.14331	5129.125
1956.23103	5133.825
1959.31675	5087.425
1962.40046	5076.325
1965.48217	5088.525
1968.56188	5054.325
1971.63959	5060.725
1974.7153	5033.325
1977.78901	5025.625
1980.86073	4997.025
1983.93046	4982.025
1986.99819	4963.025
1990.06394	4941.025
1993.1277	4921.325
1996.18947	4907.325
1999.24925	4898.525
2002.30706	4867.025
2005.36288	4849.025
2008.41672	4834.825
2011.46859	4824.525
2014.51848	4800.425
2017.56639	4776.725
2020.61233	4781.225
2023.6563	4768.625
2026.6983	4735.025
2029.73833	4735.425
2032.7764	4712.525
2035.8125	4694.525
2038.84664	4673.225
2041.87881	4674.325
2044.90903	4668.425
2047.93729	4664.525
2050.96359	4653.925
2053.98794	4636.425
2057.01034	4630.825
2060.03078	4613.325
2063.04927	4610.725
2066.06582	4600.325
2069.08042	4591.025
2072.09307	4598.725
2075.10378	4586.525
2078.11255	4594.625
2081.11938	4588.225
2084.12426	4592.225
2087.12722	4586.825
2090.12824	4581.625
2093.12732	4582.625
2096.12447	4596.625
2099.11969	4569.325
2102.11299	4584.225
2105.10435	4573.725
2108.09379	4581.225
2111.08131	4580.325
2114.0669	4577.725
2117.05057	4578.525
2120.03233	4585.925
2123.01216	4583.225
2125.99008	4585.025
2128.96609	4596.525
2131.94018	4598.525
2134.91236	4578.225
2137.88263	4586.325
2140.851	4584.325
2143.81746	4589.525
2146.78201	4561.325
2149.74466	4564.025
2152.7054	4554.225
2155.66425	4563.825
2158.6212	4555.625
2161.57625	4554.325
2164.52941	4533.325
2167.48067	4525.325
2170.43004	4539.825
2173.37752	4542.525
2176.32311	4534.925
2179.26681	4529.925
2182.20863	4517.425
2185.14856	4532.825
2188.08661	4524.225
2191.02278	4517.125
2193.95707	4508.225
2196.88948	4494.125
2199.82001	4497.725
2202.74867	4505.325
2205.67545	4503.725
2208.60037	4485.025
2211.52341	4456.825
2214.44458	4442.825
2217.36388	4444.025
2220.28132	4449.725
2223.1969	4431.725
2226.11061	4429.625
2229.02246	4417.225
2231.93245	4400.725
2234.84058	4390.625
2237.74686	4399.925
2240.65128	4390.225
2243.55385	4377.525
2246.45456	4353.125
2249.35343	4348.925
2252.25044	4373.225
2255.14561	4341.825
2258.03893	4349.025
2260.93041	4330.325
2263.82004	4326.825
2266.70783	4326.325
2269.59378	4309.425
2272.4779	4303.725
2275.36017	4300.725
2278.24061	4286.325
2281.11922	4268.625
2283.996	4247.225
2286.87094	4260.025
2289.74405	4236.525
2292.61534	4224.925
2295.4848	4229.825
2298.35243	4205.025
2301.21824	4214.825
2304.08223	4210.925
2306.94439	4196.825
2309.80474	4199.425
2312.66327	4202.525
2315.51999	4178.725
2318.37489	4171.925
2321.22797	4180.125
2324.07925	4190.225
2326.92871	4163.825
2329.77637	4168.425
2332.62222	4147.525
2335.46626	4134.825
2338.3085	4142.125
2341.14893	4137.925
2343.98756	4148.125
2346.8244	4137.225
2349.65943	4129.225
2352.49267	4132.525
2355.32411	4147.325
2358.15376	4147.625
2360.98161	4141.625
2363.80768	4159.925
2366.63195	4140.725
2369.45444	4155.125
2372.27514	4147.725
2375.09405	4138.125
2377.91118	4135.425
2380.72652	4112.125
2383.54009	4097.325
2386.35187	4096.125
2389.16188	4077.125
2391.97011	4059.625
2394.77657	4049.525
2397.58125	4035.525
2400.38416	4024.825
2403.18529	4031.625
2405.98466	4009.725
2408.78226	3994.225
2411.57809	3995.425
2414.37216	3991.525
2417.16446	3980.125
2419.955	3969.525
2422.74378	3976.225
2425.5308	3968.925
2428.31606	3960.125
2431.09956	3966.225
2433.88131	3947.725
2436.6613	3958.425
2439.43954	3968.925
2442.21603	3956.025
2444.99077	3946.125
2447.76377	3957.425
2450.53501	3953.125
2453.30451	3963.725
2456.07226	3944.625
2458.83827	3939.425
2461.60254	3954.525
2464.36507	3954.925
2467.12586	3947.625
2469.88492	3948.625
2472.64224	3938.325
2475.39782	3940.025
2478.15167	3934.425
2480.90379	3953.925
2483.65417	3965.625
2486.40283	3963.625
2489.14976	3958.425
2491.89497	3961.325
2494.63845	3957.725
2497.3802	3952.625
2500.12024	3956.225
2502.85855	3948.825
2505.59514	3938.325
2508.33002	3917.025
2511.06318	3909.125
2513.79462	3891.925
2516.52435	3874.125
2519.25237	3871.325
2521.97867	3876.025
2524.70327	3846.625
2527.42616	3844.125
2530.14734	3843.425
2532.86681	3832.725
2535.58458	3837.025
2538.30065	3839.325
2541.01501	3834.925
2543.72768	3830.925
2546.43864	3836.225
2549.14791	3833.925
2551.85548	3826.725
2554.56136	3808.125
2557.26554	3797.425
2559.96803	3784.725
2562.66883	3793.425
2565.36794	3797.925
2568.06536	3782.625
2570.7611	3773.425
2573.45514	3759.925
2576.14751	3763.925
2578.83819	3755.425
2581.52719	3752.325
2584.21451	3745.425
2586.90015	3751.025
2589.58411	3736.025
2592.2664	3745.525
2594.94701	3731.625
2597.62594	3726.625
2600.30321	3708.125
2602.9788	3713.825
2605.65273	3710.925
2608.32498	3702.425
2610.99557	3711.525
2613.66449	3693.125
2616.33175	3685.325
2618.99734	3706.825
2621.66128	3689.825
2624.32355	3684.125
2626.98416	3680.125
2629.64311	3677.025
2632.30041	3668.925
2634.95605	3682.625
2637.61004	3657.025
2640.26238	3658.325
2642.91306	3649.625
2645.56209	3661.625
2648.20948	3647.125
2650.85521	3659.325
2653.4993	3650.425
2656.14175	3656.425
2658.78255	3653.025
2661.42171	3662.125
2664.05923	3661.625
2666.6951	3673.225
2669.32934	3677.125
2671.96194	3675.125
2674.59291	3673.025
2677.22224	3659.225
2679.84993	3667.125
2682.476	3652.525
2685.10043	3639.325
2687.72324	3640.225
2690.34441	3642.425
2692.96396	3657.325
2695.58188	3648.225
2698.19818	3629.725
2700.81285	3645.125
2703.4259	3647.425
2706.03733	3636.625
2708.64714	3632.925
2711.25533	3638.325
2713.86191	3650.125
2716.46687	3669.325
2719.07021	3657.925
2721.67194	3650.225
2724.27206	3650.625
2726.87057	3665.125
2729.46747	3649.725
2732.06276	3653.825
2734.65644	3649.225
2737.24852	3650.025
2739.83899	3643.325
2742.42786	3629.125
2745.01513	3625.325
2747.60079	3620.325
2750.18486	3611.825
2752.76733	3609.925
2755.3482	3604.625
2757.92747	3604.125
2760.50515	3592.125
2763.08123	3575.525
2765.65573	3583.425
2768.22863	3597.325
2770.79994	3580.825
2773.36967	3579.925
2775.9378	3568.425
2778.50435	3569.825
2781.06932	3572.225
2783.6327	3584.125
2786.1945	3584.025
2788.75471	3582.025
2791.31335	3568.425
2793.87041	3561.425
2796.42589	3558.325
2798.97979	3549.625
2801.53212	3542.325
2804.08288	3540.125
2806.63206	3541.125
2809.17967	3532.325
2811.72571	3538.725
2814.27018	3547.025
2816.81308	3517.225
2819.35442	3524.925
2821.89419	3522.425
2824.43239	3514.425
2826.96904	3524.625
2829.50412	3512.825
2832.03763	3510.425
2834.56959	3508.225
2837.1	3492.825
2839.62884	3513.725
2842.15613	3511.025
2844.68186	3519.525
2847.20604	3509.525
2849.72867	3520.325
2852.24974	3513.725
2854.76927	3515.225
2857.28724	3514.525
2859.80367	3516.425
2862.31855	3504.625
2864.83189	3514.025
2867.34368	3509.025
2869.85393	3511.225
2872.36264	3515.225
2874.8698	3499.025
2877.37543	3512.625
2879.87952	3506.125
2882.38207	3495.025
2884.88308	3504.025
2887.38256	3488.125
2889.88051	3483.325
2892.37692	3492.525
2894.8718	3494.325
2897.36515	3504.625
2899.85698	3486.625
2902.34727	3508.825
2904.83604	3493.525
2907.32328	3511.325
2909.809	3517.925
2912.29319	3509.925
2914.77587	3503.525
2917.25702	3498.325
2919.73665	3502.825
2922.21476	3499.225
2924.69136	3491.525
2927.16644	3498.425
2929.64	3490.325
2932.11205	3471.825
2934.58258	3464.825
2937.05161	3459.225
2939.51912	3462.725
2941.98513	3448.925
2944.44962	3446.125
2946.91261	3437.125
2949.37409	3438.125
2951.83407	3440.825
2954.29254	3433.025
2956.74951	3438.925
2959.20498	3416.925
2961.65895	3425.225
2964.11142	3418.325
2966.56239	3421.725
2969.01186	3402.325
2971.45984	3386.525
2973.90632	3392.125
2976.35131	3375.925
2978.7948	3371.925
2981.23681	3347.425
2983.67732	3351.125
2986.11635	3342.325
2988.55388	3348.025
2990.98993	3339.625
2993.4245	3336.325
2995.85758	3331.025
2998.28917	3310.625
3000.71928	3319.325
3003.14791	3313.625
3005.57506	3305.925
3008.00073	3298.225
3010.42493	3299.225
3012.84764	3292.325
3015.26888	3279.825
3017.68865	3290.825
3020.10694	3279.325
3022.52376	3269.825
3024.9391	3269.925
3027.35298	3263.725
3029.76539	3265.725
3032.17632	3241.625
3034.5858	3246.625
3036.9938	3232.325
3039.40034	3233.325
3041.80542	3236.225
3044.20903	3246.125
3046.61118	3238.225
3049.01187	3223.825
3051.4111	3227.925
3053.80888	3212.925
3056.20519	3217.825
3058.60005	3204.925
3060.99345	3195.425
3063.3854	3182.925
3065.7759	3173.425
3068.16494	3167.725
3070.55254	3173.825
3072.93868	3170.225
3075.32338	3158.625
3077.70662	3152.125
3080.08842	3164.125
3082.46878	3143.225
3084.84769	3138.025
3087.22515	3145.925
3089.60118	3158.325
3091.97576	3138.425
3094.3489	3152.125
3096.72061	3148.925
3099.09087	3148.025
3101.4597	3142.825
3103.82709	3153.425
3106.19305	3148.825
3108.55757	3144.325
3110.92066	3151.625
3113.28232	3149.225
3115.64255	3144.025
3118.00134	3130.425
3120.35871	3123.525
3122.71466	3132.425
3125.06917	3125.325
3127.42226	3112.825
3129.77393	3124.225
3132.12417	3118.725
3134.47299	3126.625
3136.82039	3126.825
3139.16636	3114.625
3141.51092	3120.425
3143.85406	3125.925
3146.19579	3117.225
3148.53609	3120.725
3150.87499	3145.725
3153.21246	3151.225
3155.54853	3157.725
3157.88318	3165.025
3160.21642	3164.325
3162.54826	3171.225
3164.87868	3166.325
3167.2077	3165.925
3169.5353	3164.825
3171.86151	3165.625
3174.18631	3171.525
3176.5097	3170.125
3178.83169	3170.825
3181.15228	3158.125
3183.47147	3155.425
3185.78926	3176.025
3188.10565	3170.525
3190.42065	3159.225
3192.73424	3175.225
3195.04645	3161.325
3197.35725	3158.625
3199.66667	3156.225
3201.97469	3157.725
3204.28132	3171.225
3206.58656	3174.225
3208.8904	3177.825
3211.19287	3179.425
3213.49394	3179.925
3215.79363	3189.025
3218.09193	3191.925
3220.38884	3201.425
