Data from AgNP_FTO_APTES_UA_100uM_CRN_5uM_R6G_10uM_NaF_0.1M_Addition_RamanShift__7__14-46-40-359.txt Node

Date: Thu Mar 24 14:46:40 GMT 2022
User: TCL
Spectrometer: QEP01345
Trigger mode: 4
Integration Time (sec): 7.000000E0
Scans to average: 10
Electric dark correction enabled: true
Nonlinearity correction enabled: false
Boxcar width: 0
XAxis mode: Raman Shifts
Number of Pixels in Spectrum: 1044
>>>>>Begin Spectral Data<<<<<
46.04893	-1.725
50.45542	1.375
54.85868	-0.425
59.25871	-0.025
63.6555	28.975
68.04907	30.375
72.43941	31.975
76.82654	29.275
81.21044	33.775
85.59113	34.675
89.96862	37.875
94.34289	34.575
98.71396	40.875
103.08183	37.775
107.4465	40.375
111.80798	41.175
116.16626	40.575
120.52136	42.975
124.87327	43.275
129.222	45.175
133.56755	50.375
137.90993	52.575
142.24913	59.375
146.58517	62.575
150.91804	70.675
155.24774	85.175
159.57429	110.175
163.89768	135.575
168.21792	181.075
172.53501	247.975
176.84895	349.475
181.15975	497.075
185.46741	696.175
189.77193	961.875
194.07331	1283.275
198.37157	1673.075
202.6667	2064.875
206.9587	2474.275
211.24758	2883.975
215.53334	3285.875
219.81599	3754.875
224.09553	4272.975
228.37195	4836.875
232.64527	5476.375
236.91549	6104.775
241.18261	6694.275
245.44663	7181.075
249.70755	7539.475
253.96539	7844.975
258.22014	8092.975
262.4718	8294.175
266.72039	8449.875
270.96589	8508.475
275.20832	8436.775
279.44768	8286.575
283.68397	8174.375
287.91719	8079.075
292.14735	8042.075
296.37445	8136.675
300.59849	8375.575
304.81948	8661.875
309.03742	8919.775
313.25231	9014.275
317.46415	8823.375
321.67296	8451.275
325.87872	8031.475
330.08145	7837.675
334.28114	7843.575
338.47781	7927.975
342.67145	8093.175
346.86207	8336.575
351.04966	8651.475
355.23424	9025.075
359.4158	9293.975
363.59435	9422.575
367.76989	9407.175
371.94243	9370.775
376.11196	9293.175
380.27849	9247.875
384.44203	9187.975
388.60257	9161.675
392.76012	9188.475
396.91468	9285.275
401.06626	9495.275
405.21485	9644.275
409.36047	9471.375
413.50311	9079.475
417.64277	8731.675
421.77947	8533.275
425.9132	8463.475
430.04396	8490.975
434.17176	8535.275
438.2966	8643.675
442.41849	8874.875
446.53742	9155.075
450.6534	9458.675
454.76644	9604.875
458.87653	9593.175
462.98368	9470.075
467.08789	9299.775
471.18916	9083.075
475.2875	8838.875
479.38291	8636.575
483.4754	8463.875
487.56496	8333.675
491.6516	8270.275
495.73531	8256.875
499.81612	8302.075
503.89401	8350.475
507.96899	8448.475
512.04106	8466.475
516.11023	8549.775
520.1765	8592.375
524.23987	8630.075
528.30034	8635.475
532.35792	8618.075
536.41261	8464.375
540.46441	8301.375
544.51333	8236.675
548.55936	8260.775
552.60252	8396.975
556.64279	8636.675
560.6802	8784.775
564.71473	8817.175
568.7464	8970.275
572.7752	9120.075
576.80114	9123.875
580.82422	9189.075
584.84444	9442.375
588.86181	9850.175
592.87633	10411.875
596.888	10827.675
600.89682	10779.075
604.9028	11024.375
608.90594	12865.075
612.90624	15611.575
616.90371	14957.775
620.89834	10954.475
624.89015	8911.075
628.87913	8545.875
632.86528	8703.475
636.84862	8879.475
640.82913	8743.575
644.80683	8346.075
648.78172	8077.675
652.75379	8054.975
656.72306	8306.875
660.68952	8667.775
664.65319	8575.875
668.61405	8169.975
672.57211	8017.275
676.52738	8012.675
680.47986	8003.375
684.42955	7904.075
688.37646	7800.975
692.32058	7826.775
696.26192	7937.375
700.20048	8076.275
704.13626	8164.775
708.06928	8139.875
711.99952	8112.875
715.927	8118.875
719.85171	8166.875
723.77365	8189.375
727.69284	8131.075
731.60928	8063.975
735.52295	8049.875
739.43388	8086.675
743.34206	8122.675
747.24749	8142.275
751.15017	8183.275
755.05012	8263.775
758.94733	8592.475
762.8418	9479.275
766.73354	10977.975
770.62254	12385.775
774.50882	12891.875
778.39237	12377.375
782.27321	10998.975
786.15132	9615.175
790.02671	8696.775
793.89938	8234.775
797.76935	7999.575
801.6366	7937.575
805.50115	7893.575
809.36299	7810.875
813.22213	7777.575
817.07857	7753.675
820.93231	7728.475
824.78336	7738.575
828.63172	7744.575
832.47738	7751.275
836.32036	7744.875
840.16066	7712.675
843.99827	7698.175
847.8332	7685.175
851.66546	7687.275
855.49504	7708.475
859.32195	7673.775
863.1462	7686.575
866.96777	7687.375
870.78668	7674.475
874.60293	7690.475
878.41652	7708.275
882.22745	7781.475
886.03573	7853.675
889.84136	7845.475
893.64433	7809.675
897.44466	7783.575
901.24235	7771.175
905.0374	7731.675
908.8298	7668.875
912.61957	7610.975
916.40671	7615.375
920.19121	7658.375
923.97308	7791.875
927.75233	7899.875
931.52895	7954.575
935.30295	7847.175
939.07433	7625.875
942.84309	7437.575
946.60924	7339.275
950.37278	7280.475
954.13371	7286.675
957.89203	7262.475
961.64774	7281.775
965.40086	7264.875
969.15137	7259.675
972.89929	7226.675
976.64461	7245.975
980.38733	7233.075
984.12747	7251.375
987.86502	7295.575
991.59999	7320.675
995.33237	7426.775
999.06217	7568.575
1002.78939	7779.875
1006.51404	8000.175
1010.23611	8188.975
1013.95561	8292.375
1017.67255	8278.575
1021.38692	8126.275
1025.09872	7912.175
1028.80796	7747.775
1032.51465	7698.575
1036.21877	7705.375
1039.92035	7758.875
1043.61937	7795.375
1047.31584	7841.175
1051.00976	7842.175
1054.70114	7851.775
1058.38998	7846.475
1062.07627	7876.175
1065.76003	7954.175
1069.44126	8051.075
1073.11995	8244.175
1076.79611	8462.475
1080.46974	8640.475
1084.14085	8866.375
1087.80943	9059.875
1091.47549	9117.375
1095.13903	9020.575
1098.80005	8728.975
1102.45857	8484.475
1106.11456	8372.975
1109.76805	8378.775
1113.41903	8484.275
1117.06751	8705.875
1120.71348	9039.375
1124.35696	9430.475
1127.99793	9738.675
1131.63641	9706.675
1135.2724	9369.475
1138.90589	9035.475
1142.5369	8811.675
1146.16542	8702.975
1149.79145	8654.875
1153.415	8627.975
1157.03607	8658.275
1160.65467	8841.575
1164.27079	9199.475
1167.88443	9727.475
1171.49561	10572.275
1175.10432	11838.575
1178.71056	13452.275
1182.31434	14885.575
1185.91565	15380.775
1189.51451	15066.375
1193.11091	14291.675
1196.70485	13352.675
1200.29634	12452.375
1203.88538	11662.975
1207.47197	10867.775
1211.05612	10260.575
1214.63782	9899.275
1218.21708	9758.175
1221.79391	9743.175
1225.36829	9795.775
1228.94024	9806.975
1232.50976	9688.675
1236.07685	9537.175
1239.6415	9449.475
1243.20374	9483.175
1246.76355	9516.575
1250.32093	9523.475
1253.8759	9728.875
1257.42845	10007.975
1260.97859	10431.875
1264.52631	10896.475
1268.07163	11344.375
1271.61453	11709.375
1275.15503	11953.175
1278.69312	12141.175
1282.22882	12308.675
1285.76211	12762.575
1289.29301	13302.975
1292.82151	13860.375
1296.34761	14450.175
1299.87133	15279.775
1303.39266	16488.375
1306.9116	18231.575
1310.42815	20122.275
1313.94233	21051.975
1317.45412	20483.775
1320.96354	19015.975
1324.47058	17522.375
1327.97525	16222.275
1331.47754	15332.075
1334.97747	14851.675
1338.47502	14804.475
1341.97022	15045.075
1345.46305	15599.975
1348.95352	16558.675
1352.44163	17754.475
1355.92738	19377.575
1359.41078	21765.675
1362.89183	24112.875
1366.37053	23677.275
1369.84688	20220.475
1373.32088	16506.275
1376.79254	14314.075
1380.26186	13267.975
1383.72883	12680.275
1387.19347	12101.175
1390.65578	11500.275
1394.11575	11156.975
1397.57339	10965.575
1401.0287	10975.375
1404.48168	11013.075
1407.93234	11019.675
1411.38068	11030.575
1414.82669	11026.275
1418.27039	10959.775
1421.71177	10807.175
1425.15083	10537.675
1428.58758	10444.275
1432.02203	10582.075
1435.45416	10821.875
1438.88399	10999.875
1442.31151	11025.875
1445.73673	11108.675
1449.15965	11169.875
1452.58027	11117.775
1455.9986	10997.075
1459.41463	10947.975
1462.82837	11082.775
1466.23982	11461.675
1469.64898	11890.175
1473.05586	12260.475
1476.46045	12591.475
1479.86276	12842.075
1483.26279	13159.875
1486.66054	13558.375
1490.05602	14159.575
1493.44922	14956.075
1496.84016	15966.575
1500.22882	17274.375
1503.61521	18986.675
1506.99934	20916.475
1510.38121	22297.375
1513.76081	22243.175
1517.13816	20435.575
1520.51324	17823.575
1523.88607	15537.675
1527.25665	14104.675
1530.62498	13332.775
1533.99105	12859.475
1537.35488	12474.175
1540.71647	12116.875
1544.07581	11815.575
1547.4329	11576.875
1550.78776	11392.375
1554.14038	11277.875
1557.49077	11275.975
1560.83892	11415.675
1564.18484	11746.175
1567.52853	12255.175
1570.86999	12736.075
1574.20922	13039.075
1577.54624	12991.975
1580.88103	12375.775
1584.2136	11529.275
1587.54395	11191.375
1590.87208	11412.275
1594.19801	12200.275
1597.52172	13283.675
1600.84321	13858.275
1604.16251	13490.375
1607.47959	12500.675
1610.79447	11427.975
1614.10715	10415.075
1617.41763	9595.575
1620.7259	9049.575
1624.03199	8794.275
1627.33587	8785.075
1630.63757	9039.475
1633.93707	9634.075
1637.23439	10715.375
1640.52951	12484.475
1643.82246	14940.575
1647.11321	17391.575
1650.40179	18602.775
1653.68819	17552.675
1656.97241	14857.975
1660.25446	11996.875
1663.53433	9987.375
1666.81203	8776.175
1670.08756	8144.875
1673.36092	7730.175
1676.63211	7506.475
1679.90115	7312.675
1683.16801	7193.275
1686.43272	7060.975
1689.69527	7001.075
1692.95567	6939.775
1696.2139	6889.175
1699.46999	6866.875
1702.72392	6840.975
1705.97571	6787.175
1709.22535	6754.775
1712.47284	6773.175
1715.71819	6763.875
1718.96139	6736.575
1722.20246	6713.075
1725.44139	6687.975
1728.67818	6622.075
1731.91284	6558.475
1735.14537	6513.875
1738.37576	6472.375
1741.60403	6444.975
1744.83017	6406.075
1748.05418	6401.275
1751.27607	6383.175
1754.49584	6384.875
1757.71349	6365.775
1760.92903	6352.775
1764.14244	6362.475
1767.35375	6338.575
1770.56294	6347.975
1773.77002	6293.175
1776.97499	6266.075
1780.17785	6256.675
1783.37861	6230.675
1786.57727	6206.475
1789.77382	6189.175
1792.96828	6185.375
1796.16064	6164.275
1799.3509	6158.475
1802.53907	6118.975
1805.72514	6114.075
1808.90913	6088.275
1812.09102	6066.275
1815.27083	6056.675
1818.44856	6034.975
1821.6242	6035.275
1824.79776	6018.275
1827.96924	6027.975
1831.13864	6013.575
1834.30597	5999.475
1837.47122	6013.875
1840.6344	5990.175
1843.7955	5984.775
1846.95454	5983.675
1850.11151	5965.475
1853.26642	5973.475
1856.41926	5957.975
1859.57004	5967.575
1862.71876	5945.675
1865.86542	5944.175
1869.01003	5933.975
1872.15258	5923.875
1875.29308	5918.575
1878.43152	5910.975
1881.56792	5909.375
1884.70227	5921.075
1887.83457	5908.975
1890.96482	5897.475
1894.09304	5895.075
1897.21921	5881.875
1900.34335	5858.975
1903.46544	5867.875
1906.58551	5873.775
1909.70353	5868.275
1912.81953	5852.075
1915.93349	5850.375
1919.04543	5825.275
1922.15534	5816.375
1925.26322	5797.975
1928.36908	5767.375
1931.47292	5751.075
1934.57473	5739.575
1937.67453	5733.275
1940.77232	5711.575
1943.86808	5672.175
1946.96184	5670.875
1950.05358	5660.775
1953.14331	5639.375
1956.23103	5620.475
1959.31675	5623.975
1962.40046	5608.775
1965.48217	5562.475
1968.56188	5568.875
1971.63959	5547.275
1974.7153	5543.275
1977.78901	5514.375
1980.86073	5494.375
1983.93046	5489.875
1986.99819	5442.175
1990.06394	5442.875
1993.1277	5408.575
1996.18947	5404.175
1999.24925	5368.075
2002.30706	5347.175
2005.36288	5320.675
2008.41672	5312.275
2011.46859	5295.775
2014.51848	5291.275
2017.56639	5267.175
2020.61233	5255.475
2023.6563	5229.875
2026.6983	5226.075
2029.73833	5227.975
2032.7764	5198.775
2035.8125	5190.175
2038.84664	5175.175
2041.87881	5174.675
2044.90903	5162.775
2047.93729	5164.375
2050.96359	5153.475
2053.98794	5137.275
2057.01034	5142.275
2060.03078	5126.375
2063.04927	5116.775
2066.06582	5102.275
2069.08042	5106.575
2072.09307	5107.575
2075.10378	5098.075
2078.11255	5102.775
2081.11938	5095.675
2084.12426	5102.075
2087.12722	5114.075
2090.12824	5103.875
2093.12732	5096.975
2096.12447	5116.775
2099.11969	5095.875
2102.11299	5101.775
2105.10435	5088.875
2108.09379	5101.475
2111.08131	5112.675
2114.0669	5098.375
2117.05057	5098.975
2120.03233	5090.975
2123.01216	5114.775
2125.99008	5108.475
2128.96609	5117.975
2131.94018	5110.375
2134.91236	5119.875
2137.88263	5121.075
2140.851	5120.575
2143.81746	5126.475
2146.78201	5122.375
2149.74466	5115.675
2152.7054	5109.775
2155.66425	5099.075
2158.6212	5118.775
2161.57625	5107.575
2164.52941	5088.775
2167.48067	5091.575
2170.43004	5090.775
2173.37752	5084.575
2176.32311	5087.275
2179.26681	5079.875
2182.20863	5063.975
2185.14856	5067.975
2188.08661	5047.075
2191.02278	5068.475
2193.95707	5063.475
2196.88948	5047.675
2199.82001	5039.875
2202.74867	5032.375
2205.67545	5047.475
2208.60037	5028.175
2211.52341	5013.875
2214.44458	5026.475
2217.36388	5014.675
2220.28132	4998.775
2223.1969	4998.775
2226.11061	4978.075
2229.02246	4969.875
2231.93245	4957.375
2234.84058	4963.275
2237.74686	4938.375
2240.65128	4951.375
2243.55385	4930.675
2246.45456	4917.875
2249.35343	4939.775
2252.25044	4931.575
2255.14561	4919.675
2258.03893	4915.975
2260.93041	4904.875
2263.82004	4900.775
2266.70783	4886.275
2269.59378	4872.675
2272.4779	4868.275
2275.36017	4848.075
2278.24061	4833.975
2281.11922	4838.875
2283.996	4819.975
2286.87094	4793.175
2289.74405	4803.475
2292.61534	4793.775
2295.4848	4786.575
2298.35243	4781.575
2301.21824	4778.075
2304.08223	4770.375
2306.94439	4770.775
2309.80474	4757.275
2312.66327	4763.575
2315.51999	4746.575
2318.37489	4746.275
2321.22797	4753.075
2324.07925	4742.275
2326.92871	4753.875
2329.77637	4735.375
2332.62222	4720.975
2335.46626	4709.075
2338.3085	4702.375
2341.14893	4724.075
2343.98756	4710.675
2346.8244	4722.475
2349.65943	4700.675
2352.49267	4710.075
2355.32411	4709.575
2358.15376	4721.375
2360.98161	4717.575
2363.80768	4740.975
2366.63195	4753.975
2369.45444	4735.875
2372.27514	4736.075
2375.09405	4729.675
2377.91118	4724.775
2380.72652	4712.375
2383.54009	4703.875
2386.35187	4685.075
2389.16188	4662.275
2391.97011	4656.975
2394.77657	4630.575
2397.58125	4627.475
2400.38416	4624.575
2403.18529	4596.175
2405.98466	4591.275
2408.78226	4580.175
2411.57809	4593.975
2414.37216	4557.075
2417.16446	4565.775
2419.955	4542.375
2422.74378	4564.375
2425.5308	4554.075
2428.31606	4551.575
2431.09956	4547.775
2433.88131	4558.475
2436.6613	4540.475
2439.43954	4556.475
2442.21603	4546.775
2444.99077	4550.275
2447.76377	4558.675
2450.53501	4549.875
2453.30451	4535.875
2456.07226	4539.175
2458.83827	4548.275
2461.60254	4554.975
2464.36507	4544.975
2467.12586	4546.275
2469.88492	4551.175
2472.64224	4549.975
2475.39782	4526.675
2478.15167	4553.975
2480.90379	4561.675
2483.65417	4556.875
2486.40283	4571.575
2489.14976	4570.675
2491.89497	4571.275
2494.63845	4571.075
2497.3802	4578.475
2500.12024	4566.975
2502.85855	4552.575
2505.59514	4528.375
2508.33002	4528.575
2511.06318	4517.675
2513.79462	4500.075
2516.52435	4492.975
2519.25237	4481.375
2521.97867	4478.575
2524.70327	4478.575
2527.42616	4461.675
2530.14734	4449.275
2532.86681	4446.275
2535.58458	4449.275
2538.30065	4441.675
2541.01501	4457.075
2543.72768	4429.275
2546.43864	4456.075
2549.14791	4419.775
2551.85548	4427.875
2554.56136	4429.575
2557.26554	4416.675
2559.96803	4420.075
2562.66883	4410.775
2565.36794	4409.975
2568.06536	4406.575
2570.7611	4404.575
2573.45514	4404.175
2576.14751	4390.075
2578.83819	4383.075
2581.52719	4376.175
2584.21451	4376.275
2586.90015	4350.775
2589.58411	4339.775
2592.2664	4346.475
2594.94701	4331.975
2597.62594	4330.275
2600.30321	4330.675
2602.9788	4321.075
2605.65273	4323.575
2608.32498	4320.075
2610.99557	4322.875
2613.66449	4310.575
2616.33175	4315.075
2618.99734	4320.875
2621.66128	4327.075
2624.32355	4298.175
2626.98416	4277.675
2629.64311	4279.575
2632.30041	4272.875
2634.95605	4282.075
2637.61004	4272.275
2640.26238	4256.875
2642.91306	4254.175
2645.56209	4259.975
2648.20948	4257.375
2650.85521	4258.675
2653.4993	4273.075
2656.14175	4281.475
2658.78255	4271.675
2661.42171	4265.975
2664.05923	4283.275
2666.6951	4276.275
2669.32934	4282.875
2671.96194	4276.075
2674.59291	4285.775
2677.22224	4272.475
2679.84993	4291.275
2682.476	4265.475
2685.10043	4270.975
2687.72324	4265.875
2690.34441	4265.375
2692.96396	4268.375
2695.58188	4269.375
2698.19818	4275.975
2700.81285	4274.975
2703.4259	4291.575
2706.03733	4288.275
2708.64714	4272.975
2711.25533	4282.575
2713.86191	4283.375
2716.46687	4280.675
2719.07021	4281.175
2721.67194	4289.975
2724.27206	4283.075
2726.87057	4294.475
2729.46747	4272.675
2732.06276	4287.275
2734.65644	4279.175
2737.24852	4278.675
2739.83899	4264.875
2742.42786	4271.275
2745.01513	4252.175
2747.60079	4258.275
2750.18486	4253.975
2752.76733	4249.375
2755.3482	4244.175
2757.92747	4236.775
2760.50515	4237.275
2763.08123	4226.875
2765.65573	4209.075
2768.22863	4217.275
2770.79994	4208.775
2773.36967	4225.075
2775.9378	4196.275
2778.50435	4206.875
2781.06932	4198.475
2783.6327	4202.975
2786.1945	4183.375
2788.75471	4175.475
2791.31335	4174.475
2793.87041	4173.875
2796.42589	4170.575
2798.97979	4169.775
2801.53212	4163.775
2804.08288	4172.075
2806.63206	4176.775
2809.17967	4173.275
2811.72571	4158.975
2814.27018	4158.975
2816.81308	4161.975
2819.35442	4144.275
2821.89419	4164.975
2824.43239	4154.975
2826.96904	4143.075
2829.50412	4152.175
2832.03763	4152.375
2834.56959	4152.275
2837.1	4150.375
2839.62884	4131.575
2842.15613	4130.475
2844.68186	4131.875
2847.20604	4136.375
2849.72867	4134.075
2852.24974	4136.675
2854.76927	4148.475
2857.28724	4138.475
2859.80367	4135.975
2862.31855	4124.275
2864.83189	4134.175
2867.34368	4136.475
2869.85393	4147.675
2872.36264	4140.075
2874.8698	4146.875
2877.37543	4146.875
2879.87952	4155.675
2882.38207	4131.575
2884.88308	4124.975
2887.38256	4132.575
2889.88051	4126.175
2892.37692	4112.075
2894.8718	4117.575
2897.36515	4112.075
2899.85698	4121.375
2902.34727	4129.675
2904.83604	4133.075
2907.32328	4136.175
2909.809	4140.675
2912.29319	4151.175
2914.77587	4131.875
2917.25702	4125.675
2919.73665	4122.675
2922.21476	4131.175
2924.69136	4114.475
2927.16644	4110.475
2929.64	4096.875
2932.11205	4082.275
2934.58258	4084.275
2937.05161	4084.675
2939.51912	4081.975
2941.98513	4088.975
2944.44962	4065.075
2946.91261	4061.075
2949.37409	4064.075
2951.83407	4051.975
2954.29254	4049.975
2956.74951	4059.275
2959.20498	4053.875
2961.65895	4035.275
2964.11142	4028.975
2966.56239	4035.475
2969.01186	4022.475
2971.45984	4000.675
2973.90632	4001.775
2976.35131	3986.575
2978.7948	3995.675
2981.23681	3981.375
2983.67732	3966.075
2986.11635	3957.275
2988.55388	3948.075
2990.98993	3940.875
2993.4245	3934.675
2995.85758	3944.075
2998.28917	3924.475
3000.71928	3918.475
3003.14791	3925.275
3005.57506	3902.375
3008.00073	3897.975
3010.42493	3911.475
3012.84764	3890.075
3015.26888	3897.775
3017.68865	3873.675
3020.10694	3881.475
3022.52376	3857.475
3024.9391	3853.275
3027.35298	3872.475
3029.76539	3847.775
3032.17632	3840.275
3034.5858	3827.775
3036.9938	3818.575
3039.40034	3793.775
3041.80542	3811.975
3044.20903	3790.475
3046.61118	3794.375
3049.01187	3802.975
3051.4111	3780.375
3053.80888	3783.475
3056.20519	3782.775
3058.60005	3767.175
3060.99345	3774.375
3063.3854	3751.175
3065.7759	3752.875
3068.16494	3754.075
3070.55254	3744.275
3072.93868	3747.075
3075.32338	3724.375
3077.70662	3730.375
3080.08842	3725.475
3082.46878	3727.075
3084.84769	3706.375
3087.22515	3707.775
3089.60118	3705.775
3091.97576	3716.075
3094.3489	3702.475
3096.72061	3703.075
3099.09087	3707.875
3101.4597	3696.375
3103.82709	3695.675
3106.19305	3701.275
3108.55757	3698.775
3110.92066	3688.175
3113.28232	3689.875
3115.64255	3672.375
3118.00134	3661.275
3120.35871	3654.075
3122.71466	3662.975
3125.06917	3667.075
3127.42226	3667.875
3129.77393	3665.975
3132.12417	3662.075
3134.47299	3668.375
3136.82039	3675.375
3139.16636	3681.175
3141.51092	3682.575
3143.85406	3668.375
3146.19579	3677.475
3148.53609	3684.275
3150.87499	3683.475
3153.21246	3690.975
3155.54853	3696.475
3157.88318	3683.675
3160.21642	3671.175
3162.54826	3678.275
3164.87868	3684.275
3167.2077	3688.175
3169.5353	3673.175
3171.86151	3693.775
3174.18631	3680.775
3176.5097	3687.575
3178.83169	3678.975
3181.15228	3692.575
3183.47147	3680.375
3185.78926	3676.475
3188.10565	3675.975
3190.42065	3673.975
3192.73424	3684.875
3195.04645	3661.875
3197.35725	3686.475
3199.66667	3677.075
3201.97469	3693.775
3204.28132	3699.275
3206.58656	3696.975
3208.8904	3709.775
3211.19287	3695.075
3213.49394	3714.575
3215.79363	3699.875
3218.09193	3711.175
3220.38884	3695.375
