Data from AgNP_FTO_APTES_UA_100uM_CRN_50uM_R6G_10uM_NaF_0.1M_Addition_RamanShift__11__17-20-40-533.txt Node

Date: Thu Mar 24 17:20:40 GMT 2022
User: TCL
Spectrometer: QEP01345
Trigger mode: 4
Integration Time (sec): 7.000000E0
Scans to average: 10
Electric dark correction enabled: true
Nonlinearity correction enabled: false
Boxcar width: 0
XAxis mode: Raman Shifts
Number of Pixels in Spectrum: 1044
>>>>>Begin Spectral Data<<<<<
46.04893	-1.525
50.45542	-0.025
54.85868	-0.225
59.25871	-1.025
63.6555	38.175
68.04907	41.675
72.43941	40.675
76.82654	43.475
81.21044	45.975
85.59113	45.375
89.96862	47.975
94.34289	44.375
98.71396	51.975
103.08183	52.675
107.4465	52.275
111.80798	56.475
116.16626	54.975
120.52136	57.275
124.87327	58.775
129.222	62.575
133.56755	65.375
137.90993	67.475
142.24913	82.675
146.58517	87.075
150.91804	105.875
155.24774	125.675
159.57429	154.175
163.89768	205.175
168.21792	268.975
172.53501	370.675
176.84895	522.875
181.15975	735.275
185.46741	1042.875
189.77193	1434.975
194.07331	1929.675
198.37157	2496.075
202.6667	3087.375
206.9587	3669.875
211.24758	4258.875
215.53334	4846.475
219.81599	5473.675
224.09553	6157.075
228.37195	6944.775
232.64527	7797.375
236.91549	8683.375
241.18261	9586.275
245.44663	10384.575
249.70755	11051.575
253.96539	11662.975
258.22014	12189.575
262.4718	12584.275
266.72039	12910.975
270.96589	13068.575
275.20832	13071.875
279.44768	13006.875
283.68397	12887.475
287.91719	12754.575
292.14735	12693.475
296.37445	12744.075
300.59849	12832.175
304.81948	12996.575
309.03742	13048.475
313.25231	12988.475
317.46415	12805.075
321.67296	12476.275
325.87872	12212.575
330.08145	12079.775
334.28114	12112.575
338.47781	12235.775
342.67145	12356.175
346.86207	12626.175
351.04966	12868.275
355.23424	13155.775
359.4158	13409.675
363.59435	13516.875
367.76989	13583.475
371.94243	13658.475
376.11196	13678.875
380.27849	13725.875
384.44203	13749.775
388.60257	13805.975
392.76012	13909.375
396.91468	14032.475
401.06626	14223.075
405.21485	14359.275
409.36047	14269.575
413.50311	13942.075
417.64277	13688.575
421.77947	13604.475
425.9132	13575.775
430.04396	13659.675
434.17176	13755.675
438.2966	13878.475
442.41849	14118.475
446.53742	14404.675
450.6534	14728.675
454.76644	14952.475
458.87653	15022.975
462.98368	14951.375
467.08789	14852.475
471.18916	14683.275
475.2875	14508.475
479.38291	14370.075
483.4754	14244.275
487.56496	14085.475
491.6516	13996.575
495.73531	13887.475
499.81612	13876.075
503.89401	13937.075
507.96899	14008.275
512.04106	14044.075
516.11023	14025.975
520.1765	14039.875
524.23987	13988.675
528.30034	13930.175
532.35792	13880.175
536.41261	13817.875
540.46441	13671.775
544.51333	13650.875
548.55936	13732.775
552.60252	13962.775
556.64279	14214.775
560.6802	14427.875
564.71473	14467.375
568.7464	14613.875
572.7752	14858.475
576.80114	15074.275
580.82422	15219.775
584.84444	15416.875
588.86181	15744.675
592.87633	16159.575
596.888	16473.075
600.89682	16423.575
604.9028	16701.475
608.90594	18138.475
612.90624	19977.575
616.90371	19048.775
620.89834	15874.775
624.89015	14340.075
628.87913	14132.475
632.86528	14308.775
636.84862	14506.875
640.82913	14360.075
644.80683	14010.775
648.78172	13721.275
652.75379	13639.675
656.72306	13787.675
660.68952	14062.775
664.65319	14013.975
668.61405	13698.175
672.57211	13575.075
676.52738	13602.575
680.47986	13626.375
684.42955	13543.275
688.37646	13474.075
692.32058	13508.475
696.26192	13601.975
700.20048	13742.275
704.13626	13855.075
708.06928	13867.475
711.99952	13813.575
715.927	13783.175
719.85171	13800.675
723.77365	13825.775
727.69284	13787.675
731.60928	13707.375
735.52295	13687.075
739.43388	13693.775
743.34206	13745.175
747.24749	13779.875
751.15017	13820.975
755.05012	13942.975
758.94733	14317.275
762.8418	15105.475
766.73354	16415.875
770.62254	17713.175
774.50882	18116.975
778.39237	17406.175
782.27321	16068.875
786.15132	14897.075
790.02671	14171.275
793.89938	13742.375
797.76935	13526.975
801.6366	13438.975
805.50115	13433.475
809.36299	13371.875
813.22213	13364.475
817.07857	13329.675
820.93231	13327.175
824.78336	13287.375
828.63172	13269.475
832.47738	13240.075
836.32036	13233.575
840.16066	13192.375
843.99827	13197.375
847.8332	13233.475
851.66546	13217.075
855.49504	13232.975
859.32195	13223.475
863.1462	13208.975
866.96777	13214.875
870.78668	13196.375
874.60293	13238.375
878.41652	13226.575
882.22745	13266.975
886.03573	13335.275
889.84136	13340.675
893.64433	13310.275
897.44466	13258.875
901.24235	13204.875
905.0374	13159.975
908.8298	13123.075
912.61957	13112.975
916.40671	13149.275
920.19121	13249.275
923.97308	13344.975
927.75233	13330.275
931.52895	13246.175
935.30295	13096.075
939.07433	12892.075
942.84309	12750.475
946.60924	12641.675
950.37278	12609.875
954.13371	12600.575
957.89203	12582.375
961.64774	12601.875
965.40086	12595.775
969.15137	12541.175
972.89929	12506.975
976.64461	12467.075
980.38733	12450.675
984.12747	12475.975
987.86502	12519.975
991.59999	12552.575
995.33237	12629.775
999.06217	12737.275
1002.78939	12972.475
1006.51404	13187.175
1010.23611	13358.775
1013.95561	13484.175
1017.67255	13457.775
1021.38692	13402.075
1025.09872	13196.075
1028.80796	13014.775
1032.51465	12895.975
1036.21877	12896.475
1039.92035	12934.375
1043.61937	13019.175
1047.31584	13089.875
1051.00976	13148.075
1054.70114	13192.175
1058.38998	13229.675
1062.07627	13303.875
1065.76003	13408.075
1069.44126	13518.075
1073.11995	13682.875
1076.79611	13866.175
1080.46974	14005.175
1084.14085	14127.475
1087.80943	14258.575
1091.47549	14372.475
1095.13903	14347.575
1098.80005	14145.175
1102.45857	13931.275
1106.11456	13800.175
1109.76805	13719.675
1113.41903	13805.475
1117.06751	13956.775
1120.71348	14214.375
1124.35696	14491.675
1127.99793	14716.175
1131.63641	14770.975
1135.2724	14583.075
1138.90589	14400.175
1142.5369	14249.175
1146.16542	14178.275
1149.79145	14142.575
1153.415	14163.175
1157.03607	14196.175
1160.65467	14402.175
1164.27079	14773.675
1167.88443	15333.075
1171.49561	16120.475
1175.10432	17275.975
1178.71056	18726.075
1182.31434	20008.675
1185.91565	20519.775
1189.51451	20309.475
1193.11091	19748.775
1196.70485	18985.175
1200.29634	18208.775
1203.88538	17576.775
1207.47197	16976.875
1211.05612	16381.475
1214.63782	15998.875
1218.21708	15756.875
1221.79391	15661.775
1225.36829	15607.775
1228.94024	15550.875
1232.50976	15378.175
1236.07685	15163.175
1239.6415	15035.975
1243.20374	15019.775
1246.76355	15030.775
1250.32093	15132.475
1253.8759	15291.475
1257.42845	15592.975
1260.97859	15972.875
1264.52631	16311.575
1268.07163	16718.375
1271.61453	17005.075
1275.15503	17340.175
1278.69312	17590.375
1282.22882	17843.675
1285.76211	18258.075
1289.29301	18823.475
1292.82151	19450.475
1296.34761	20228.375
1299.87133	21170.075
1303.39266	22371.975
1306.9116	23746.975
1310.42815	25037.875
1313.94233	25763.875
1317.45412	25512.475
1320.96354	24725.775
1324.47058	23819.775
1327.97525	22905.875
1331.47754	22172.475
1334.97747	21805.075
1338.47502	21763.475
1341.97022	21958.375
1345.46305	22398.775
1348.95352	23017.375
1352.44163	23726.275
1355.92738	24800.075
1359.41078	26361.475
1362.89183	27963.975
1366.37053	27714.175
1369.84688	25121.075
1373.32088	22056.675
1376.79254	20004.275
1380.26186	19019.275
1383.72883	18612.575
1387.19347	18265.175
1390.65578	17916.675
1394.11575	17612.775
1397.57339	17490.875
1401.0287	17483.275
1404.48168	17489.575
1407.93234	17363.475
1411.38068	17117.775
1414.82669	16883.875
1418.27039	16459.675
1421.71177	16026.775
1425.15083	15616.575
1428.58758	15398.175
1432.02203	15402.175
1435.45416	15564.875
1438.88399	15758.775
1442.31151	15909.075
1445.73673	16069.875
1449.15965	16169.075
1452.58027	16265.575
1455.9986	16265.675
1459.41463	16318.275
1462.82837	16530.775
1466.23982	16918.975
1469.64898	17315.775
1473.05586	17676.875
1476.46045	17897.575
1479.86276	18092.175
1483.26279	18177.575
1486.66054	18354.675
1490.05602	18682.575
1493.44922	19214.775
1496.84016	19921.275
1500.22882	21026.775
1503.61521	22498.175
1506.99934	23922.475
1510.38121	24875.875
1513.76081	24787.075
1517.13816	23587.475
1520.51324	21965.975
1523.88607	20653.675
1527.25665	19842.275
1530.62498	19444.575
1533.99105	19134.375
1537.35488	18782.175
1540.71647	18343.675
1544.07581	17873.875
1547.4329	17476.275
1550.78776	17105.175
1554.14038	16882.275
1557.49077	16851.675
1560.83892	16922.975
1564.18484	17126.475
1567.52853	17509.075
1570.86999	17820.175
1574.20922	18103.575
1577.54624	18179.975
1580.88103	17728.175
1584.2136	17168.775
1587.54395	16937.575
1590.87208	17232.175
1594.19801	17956.275
1597.52172	18842.875
1600.84321	19149.675
1604.16251	18621.275
1607.47959	17683.175
1610.79447	16700.375
1614.10715	15682.375
1617.41763	14825.775
1620.7259	14197.075
1624.03199	13810.875
1627.33587	13766.375
1630.63757	13917.275
1633.93707	14466.575
1637.23439	15475.275
1640.52951	17130.475
1643.82246	19331.475
1647.11321	21377.475
1650.40179	22250.575
1653.68819	21285.875
1656.97241	18910.775
1660.25446	16391.575
1663.53433	14516.575
1666.81203	13364.175
1670.08756	12643.075
1673.36092	12199.375
1676.63211	11903.075
1679.90115	11678.375
1683.16801	11551.575
1686.43272	11389.275
1689.69527	11311.575
1692.95567	11204.575
1696.2139	11157.875
1699.46999	11099.875
1702.72392	11053.975
1705.97571	11007.975
1709.22535	10975.375
1712.47284	10954.775
1715.71819	10926.375
1718.96139	10861.875
1722.20246	10805.475
1725.44139	10767.975
1728.67818	10722.775
1731.91284	10638.775
1735.14537	10568.575
1738.37576	10504.975
1741.60403	10509.475
1744.83017	10435.375
1748.05418	10413.775
1751.27607	10383.175
1754.49584	10363.675
1757.71349	10330.375
1760.92903	10341.875
1764.14244	10344.275
1767.35375	10335.275
1770.56294	10271.675
1773.77002	10228.475
1776.97499	10183.375
1780.17785	10183.275
1783.37861	10164.575
1786.57727	10136.575
1789.77382	10118.975
1792.96828	10110.275
1796.16064	10083.575
1799.3509	10053.275
1802.53907	10037.375
1805.72514	10010.875
1808.90913	9949.775
1812.09102	9922.175
1815.27083	9898.675
1818.44856	9909.675
1821.6242	9869.375
1824.79776	9856.775
1827.96924	9838.275
1831.13864	9827.375
1834.30597	9787.975
1837.47122	9764.975
1840.6344	9747.275
1843.7955	9764.975
1846.95454	9734.175
1850.11151	9714.275
1853.26642	9722.075
1856.41926	9696.475
1859.57004	9698.375
1862.71876	9675.375
1865.86542	9654.075
1869.01003	9645.175
1872.15258	9645.575
1875.29308	9622.375
1878.43152	9582.575
1881.56792	9630.275
1884.70227	9581.575
1887.83457	9612.275
1890.96482	9581.075
1894.09304	9552.575
1897.21921	9541.375
1900.34335	9497.475
1903.46544	9520.575
1906.58551	9531.275
1909.70353	9487.475
1912.81953	9477.775
1915.93349	9449.175
1919.04543	9421.275
1922.15534	9401.075
1925.26322	9381.675
1928.36908	9381.375
1931.47292	9337.075
1934.57473	9294.675
1937.67453	9293.575
1940.77232	9281.375
1943.86808	9248.475
1946.96184	9198.975
1950.05358	9180.375
1953.14331	9119.275
1956.23103	9106.175
1959.31675	9059.475
1962.40046	9053.575
1965.48217	9019.075
1968.56188	8989.575
1971.63959	8972.575
1974.7153	8929.475
1977.78901	8923.975
1980.86073	8905.875
1983.93046	8861.875
1986.99819	8818.575
1990.06394	8785.875
1993.1277	8786.975
1996.18947	8756.875
1999.24925	8704.575
2002.30706	8673.175
2005.36288	8618.075
2008.41672	8602.175
2011.46859	8557.775
2014.51848	8542.975
2017.56639	8519.375
2020.61233	8478.875
2023.6563	8458.075
2026.6983	8432.775
2029.73833	8406.975
2032.7764	8359.375
2035.8125	8367.875
2038.84664	8338.375
2041.87881	8316.775
2044.90903	8310.675
2047.93729	8278.375
2050.96359	8269.475
2053.98794	8235.575
2057.01034	8241.975
2060.03078	8202.775
2063.04927	8200.775
2066.06582	8189.775
2069.08042	8203.575
2072.09307	8175.575
2075.10378	8170.475
2078.11255	8165.575
2081.11938	8196.075
2084.12426	8149.575
2087.12722	8149.175
2090.12824	8164.775
2093.12732	8158.375
2096.12447	8158.275
2099.11969	8153.475
2102.11299	8143.075
2105.10435	8144.075
2108.09379	8130.875
2111.08131	8137.675
2114.0669	8150.275
2117.05057	8169.775
2120.03233	8138.375
2123.01216	8154.175
2125.99008	8157.175
2128.96609	8165.575
2131.94018	8152.375
2134.91236	8129.675
2137.88263	8159.275
2140.851	8169.075
2143.81746	8159.275
2146.78201	8143.775
2149.74466	8155.075
2152.7054	8106.575
2155.66425	8132.075
2158.6212	8113.775
2161.57625	8091.575
2164.52941	8100.975
2167.48067	8094.575
2170.43004	8091.775
2173.37752	8099.075
2176.32311	8075.475
2179.26681	8069.675
2182.20863	8059.975
2185.14856	8060.875
2188.08661	8078.975
2191.02278	8044.275
2193.95707	8043.175
2196.88948	8024.275
2199.82001	8034.775
2202.74867	8008.375
2205.67545	8001.375
2208.60037	7995.275
2211.52341	7964.675
2214.44458	7944.575
2217.36388	7928.975
2220.28132	7907.975
2223.1969	7889.975
2226.11061	7877.675
2229.02246	7849.175
2231.93245	7826.475
2234.84058	7820.675
2237.74686	7830.275
2240.65128	7808.475
2243.55385	7782.575
2246.45456	7794.475
2249.35343	7761.175
2252.25044	7768.475
2255.14561	7734.775
2258.03893	7740.875
2260.93041	7712.375
2263.82004	7680.875
2266.70783	7670.475
2269.59378	7640.275
2272.4779	7647.575
2275.36017	7646.275
2278.24061	7594.775
2281.11922	7600.875
2283.996	7555.975
2286.87094	7546.475
2289.74405	7535.375
2292.61534	7519.175
2295.4848	7500.875
2298.35243	7498.875
2301.21824	7490.875
2304.08223	7458.775
2306.94439	7478.575
2309.80474	7458.175
2312.66327	7442.675
2315.51999	7447.575
2318.37489	7437.275
2321.22797	7402.175
2324.07925	7397.975
2326.92871	7390.175
2329.77637	7376.775
2332.62222	7369.075
2335.46626	7335.875
2338.3085	7339.275
2341.14893	7317.075
2343.98756	7333.475
2346.8244	7324.775
2349.65943	7329.275
2352.49267	7316.975
2355.32411	7293.475
2358.15376	7315.975
2360.98161	7299.575
2363.80768	7301.675
2366.63195	7326.575
2369.45444	7311.975
2372.27514	7285.275
2375.09405	7274.175
2377.91118	7261.875
2380.72652	7245.175
2383.54009	7204.975
2386.35187	7202.975
2389.16188	7189.575
2391.97011	7161.575
2394.77657	7140.575
2397.58125	7114.675
2400.38416	7109.575
2403.18529	7099.575
2405.98466	7081.175
2408.78226	7078.775
2411.57809	7037.075
2414.37216	7019.075
2417.16446	7020.775
2419.955	7035.675
2422.74378	7020.675
2425.5308	7013.475
2428.31606	6985.275
2431.09956	6992.475
2433.88131	6973.275
2436.6613	6973.975
2439.43954	6978.475
2442.21603	6963.375
2444.99077	6948.675
2447.76377	6958.175
2450.53501	6953.175
2453.30451	6959.675
2456.07226	6922.375
2458.83827	6931.875
2461.60254	6921.175
2464.36507	6934.475
2467.12586	6915.375
2469.88492	6902.675
2472.64224	6895.575
2475.39782	6924.775
2478.15167	6894.475
2480.90379	6887.075
2483.65417	6901.975
2486.40283	6898.375
2489.14976	6911.775
2491.89497	6902.075
2494.63845	6908.675
2497.3802	6875.475
2500.12024	6873.575
2502.85855	6874.975
2505.59514	6861.375
2508.33002	6835.075
2511.06318	6815.675
2513.79462	6812.875
2516.52435	6789.575
2519.25237	6773.075
2521.97867	6766.075
2524.70327	6759.875
2527.42616	6751.075
2530.14734	6744.175
2532.86681	6722.875
2535.58458	6734.875
2538.30065	6721.975
2541.01501	6718.375
2543.72768	6702.275
2546.43864	6693.575
2549.14791	6690.875
2551.85548	6668.475
2554.56136	6656.975
2557.26554	6619.075
2559.96803	6631.475
2562.66883	6613.075
2565.36794	6611.975
2568.06536	6600.275
2570.7611	6565.375
2573.45514	6545.575
2576.14751	6557.775
2578.83819	6537.275
2581.52719	6546.475
2584.21451	6525.275
2586.90015	6509.975
2589.58411	6498.475
2592.2664	6505.275
2594.94701	6476.075
2597.62594	6477.475
2600.30321	6436.575
2602.9788	6457.475
2605.65273	6419.075
2608.32498	6432.775
2610.99557	6427.075
2613.66449	6418.475
2616.33175	6402.475
2618.99734	6420.475
2621.66128	6403.575
2624.32355	6389.575
2626.98416	6395.875
2629.64311	6351.075
2632.30041	6365.875
2634.95605	6348.975
2637.61004	6353.975
2640.26238	6343.675
2642.91306	6325.075
2645.56209	6333.175
2648.20948	6319.575
2650.85521	6330.775
2653.4993	6305.875
2656.14175	6304.575
2658.78255	6322.975
2661.42171	6334.075
2664.05923	6343.375
2666.6951	6341.875
2669.32934	6337.075
2671.96194	6328.575
2674.59291	6327.175
2677.22224	6322.875
2679.84993	6306.975
2682.476	6288.675
2685.10043	6299.375
2687.72324	6284.475
2690.34441	6276.675
2692.96396	6285.275
2695.58188	6295.975
2698.19818	6305.875
2700.81285	6290.075
2703.4259	6280.275
2706.03733	6264.875
2708.64714	6276.575
2711.25533	6265.975
2713.86191	6280.475
2716.46687	6280.975
2719.07021	6292.775
2721.67194	6285.975
2724.27206	6277.175
2726.87057	6280.575
2729.46747	6279.275
2732.06276	6276.475
2734.65644	6278.875
2737.24852	6254.075
2739.83899	6259.575
2742.42786	6244.575
2745.01513	6236.575
2747.60079	6224.275
2750.18486	6201.375
2752.76733	6196.875
2755.3482	6191.075
2757.92747	6182.775
2760.50515	6186.075
2763.08123	6171.975
2765.65573	6163.975
2768.22863	6177.375
2770.79994	6160.075
2773.36967	6157.175
2775.9378	6147.375
2778.50435	6141.275
2781.06932	6112.475
2783.6327	6123.775
2786.1945	6120.875
2788.75471	6110.175
2791.31335	6106.075
2793.87041	6102.875
2796.42589	6085.475
2798.97979	6074.675
2801.53212	6074.075
2804.08288	6038.675
2806.63206	6041.275
2809.17967	6036.475
2811.72571	6005.675
2814.27018	6001.875
2816.81308	5984.075
2819.35442	5955.075
2821.89419	5968.075
2824.43239	5983.475
2826.96904	5946.475
2829.50412	5947.275
2832.03763	5934.775
2834.56959	5947.075
2837.1	5928.475
2839.62884	5932.775
2842.15613	5917.875
2844.68186	5947.575
2847.20604	5948.775
2849.72867	5943.775
2852.24974	5946.675
2854.76927	5946.575
2857.28724	5922.375
2859.80367	5926.675
2862.31855	5919.975
2864.83189	5909.175
2867.34368	5903.775
2869.85393	5891.675
2872.36264	5895.575
2874.8698	5879.375
2877.37543	5883.875
2879.87952	5892.775
2882.38207	5884.375
2884.88308	5863.975
2887.38256	5868.175
2889.88051	5866.875
2892.37692	5869.475
2894.8718	5870.975
2897.36515	5878.775
2899.85698	5859.875
2902.34727	5857.475
2904.83604	5842.475
2907.32328	5864.675
2909.809	5875.475
2912.29319	5896.475
2914.77587	5874.675
2917.25702	5873.575
2919.73665	5850.575
2922.21476	5849.975
2924.69136	5835.475
2927.16644	5848.475
2929.64	5843.275
2932.11205	5801.475
2934.58258	5820.375
2937.05161	5813.475
2939.51912	5806.775
2941.98513	5794.575
2944.44962	5771.275
2946.91261	5741.775
2949.37409	5756.075
2951.83407	5759.275
2954.29254	5755.475
2956.74951	5763.075
2959.20498	5760.775
2961.65895	5742.075
2964.11142	5734.075
2966.56239	5719.575
2969.01186	5709.475
2971.45984	5700.075
2973.90632	5689.875
2976.35131	5680.975
2978.7948	5653.975
2981.23681	5646.375
2983.67732	5645.075
2986.11635	5623.875
2988.55388	5628.675
2990.98993	5604.475
2993.4245	5588.175
2995.85758	5578.775
2998.28917	5568.275
3000.71928	5552.675
3003.14791	5550.175
3005.57506	5545.075
3008.00073	5530.575
3010.42493	5531.075
3012.84764	5534.275
3015.26888	5497.675
3017.68865	5499.375
3020.10694	5503.375
3022.52376	5477.575
3024.9391	5451.875
3027.35298	5450.275
3029.76539	5446.975
3032.17632	5410.375
3034.5858	5424.375
3036.9938	5427.575
3039.40034	5408.575
3041.80542	5401.475
3044.20903	5407.475
3046.61118	5408.475
3049.01187	5390.375
3051.4111	5393.575
3053.80888	5350.475
3056.20519	5346.775
3058.60005	5330.075
3060.99345	5321.775
3063.3854	5322.875
3065.7759	5295.875
3068.16494	5299.475
3070.55254	5293.475
3072.93868	5273.475
3075.32338	5278.475
3077.70662	5266.975
3080.08842	5230.775
3082.46878	5237.775
3084.84769	5249.375
3087.22515	5249.775
3089.60118	5240.475
3091.97576	5237.575
3094.3489	5236.775
3096.72061	5253.775
3099.09087	5231.575
3101.4597	5228.075
3103.82709	5215.075
3106.19305	5204.575
3108.55757	5214.775
3110.92066	5206.375
3113.28232	5200.275
3115.64255	5192.375
3118.00134	5168.375
3120.35871	5167.875
3122.71466	5160.275
3125.06917	5150.075
3127.42226	5152.175
3129.77393	5157.275
3132.12417	5134.775
3134.47299	5130.075
3136.82039	5142.375
3139.16636	5134.975
3141.51092	5136.475
3143.85406	5126.175
3146.19579	5132.275
3148.53609	5134.975
3150.87499	5147.775
3153.21246	5146.375
3155.54853	5154.775
3157.88318	5175.975
3160.21642	5169.875
3162.54826	5173.575
3164.87868	5155.675
3167.2077	5167.675
3169.5353	5156.475
3171.86151	5162.675
3174.18631	5141.775
3176.5097	5153.975
3178.83169	5154.375
3181.15228	5137.375
3183.47147	5120.875
3185.78926	5130.675
