Data from AgNP_FTO_APTES_UA_100uM_CRN_2uM_R6G_10uM_NaF_0.1M_Addition_RamanShift__13__14-00-00-305.txt Node

Date: Thu Mar 24 14:00:00 GMT 2022
User: TCL
Spectrometer: QEP01345
Trigger mode: 4
Integration Time (sec): 7.000000E0
Scans to average: 10
Electric dark correction enabled: true
Nonlinearity correction enabled: false
Boxcar width: 0
XAxis mode: Raman Shifts
Number of Pixels in Spectrum: 1044
>>>>>Begin Spectral Data<<<<<
46.04893	-1.7375
50.45542	-0.9375
54.85868	0.2625
59.25871	0.5625
63.6555	38.8625
68.04907	44.8625
72.43941	43.8625
76.82654	45.0625
81.21044	49.2625
85.59113	49.1625
89.96862	53.7625
94.34289	49.7625
98.71396	57.1625
103.08183	55.1625
107.4465	55.9625
111.80798	62.5625
116.16626	58.3625
120.52136	63.0625
124.87327	61.2625
129.222	65.3625
133.56755	68.5625
137.90993	72.1625
142.24913	79.3625
146.58517	89.3625
150.91804	102.1625
155.24774	125.6625
159.57429	149.4625
163.89768	194.4625
168.21792	258.6625
172.53501	356.9625
176.84895	506.9625
181.15975	707.4625
185.46741	997.0625
189.77193	1377.5625
194.07331	1842.5625
198.37157	2401.8625
202.6667	2962.8625
206.9587	3541.8625
211.24758	4107.4625
215.53334	4707.0625
219.81599	5298.8625
224.09553	5980.4625
228.37195	6709.8625
232.64527	7547.4625
236.91549	8419.3625
241.18261	9274.2625
245.44663	10038.7625
249.70755	10702.8625
253.96539	11282.7625
258.22014	11758.4625
262.4718	12149.9625
266.72039	12470.2625
270.96589	12623.8625
275.20832	12607.6625
279.44768	12513.7625
283.68397	12357.6625
287.91719	12214.4625
292.14735	12162.7625
296.37445	12181.8625
300.59849	12301.8625
304.81948	12515.2625
309.03742	12690.5625
313.25231	12670.5625
317.46415	12414.6625
321.67296	12019.4625
325.87872	11596.8625
330.08145	11418.8625
334.28114	11402.7625
338.47781	11545.3625
342.67145	11760.2625
346.86207	12026.7625
351.04966	12364.5625
355.23424	12692.6625
359.4158	13009.7625
363.59435	13239.6625
367.76989	13323.7625
371.94243	13398.9625
376.11196	13437.1625
380.27849	13465.7625
384.44203	13473.5625
388.60257	13451.6625
392.76012	13551.6625
396.91468	13645.2625
401.06626	13852.8625
405.21485	14017.3625
409.36047	13923.0625
413.50311	13558.8625
417.64277	13217.6625
421.77947	12998.0625
425.9132	12924.6625
430.04396	12967.9625
434.17176	12998.8625
438.2966	13065.8625
442.41849	13214.1625
446.53742	13414.2625
450.6534	13625.9625
454.76644	13782.2625
458.87653	13864.0625
462.98368	13894.2625
467.08789	13806.6625
471.18916	13733.0625
475.2875	13528.0625
479.38291	13412.0625
483.4754	13269.3625
487.56496	13213.5625
491.6516	13175.1625
495.73531	13167.3625
499.81612	13209.4625
503.89401	13359.1625
507.96899	13414.9625
512.04106	13491.3625
516.11023	13564.3625
520.1765	13582.6625
524.23987	13581.0625
528.30034	13520.1625
532.35792	13420.5625
536.41261	13312.7625
540.46441	13184.4625
544.51333	13123.5625
548.55936	13217.0625
552.60252	13377.8625
556.64279	13580.4625
560.6802	13688.4625
564.71473	13758.8625
568.7464	13872.6625
572.7752	13994.1625
576.80114	14002.0625
580.82422	14014.0625
584.84444	14109.1625
588.86181	14113.1625
592.87633	14090.3625
596.888	14103.2625
600.89682	14353.4625
604.9028	15255.3625
608.90594	17443.4625
612.90624	20099.9625
616.90371	19482.3625
620.89834	15807.4625
624.89015	13920.8625
628.87913	13572.7625
632.86528	13779.7625
636.84862	13925.5625
640.82913	13891.0625
644.80683	13546.4625
648.78172	13283.5625
652.75379	13274.2625
656.72306	13513.3625
660.68952	13870.9625
664.65319	13843.9625
668.61405	13577.9625
672.57211	13440.8625
676.52738	13463.1625
680.47986	13445.3625
684.42955	13356.9625
688.37646	13244.4625
692.32058	13286.3625
696.26192	13394.2625
700.20048	13554.8625
704.13626	13660.6625
708.06928	13622.0625
711.99952	13551.0625
715.927	13500.2625
719.85171	13497.4625
723.77365	13532.3625
727.69284	13474.9625
731.60928	13351.4625
735.52295	13321.5625
739.43388	13303.9625
743.34206	13341.4625
747.24749	13406.9625
751.15017	13427.0625
755.05012	13530.2625
758.94733	13845.6625
762.8418	14653.8625
766.73354	16059.1625
770.62254	17525.5625
774.50882	18232.4625
778.39237	17629.4625
782.27321	16289.3625
786.15132	14933.4625
790.02671	14051.5625
793.89938	13620.7625
797.76935	13417.5625
801.6366	13323.0625
805.50115	13245.4625
809.36299	13206.2625
813.22213	13148.6625
817.07857	13153.1625
820.93231	13146.4625
824.78336	13124.7625
828.63172	13138.4625
832.47738	13114.4625
836.32036	13121.0625
840.16066	13079.4625
843.99827	13092.9625
847.8332	13063.0625
851.66546	13078.5625
855.49504	13098.4625
859.32195	13124.1625
863.1462	13106.6625
866.96777	13107.1625
870.78668	13101.4625
874.60293	13134.9625
878.41652	13147.7625
882.22745	13170.4625
886.03573	13216.3625
889.84136	13204.6625
893.64433	13195.5625
897.44466	13167.2625
901.24235	13119.3625
905.0374	13111.2625
908.8298	13061.2625
912.61957	13031.2625
916.40671	13042.7625
920.19121	13093.1625
923.97308	13159.5625
927.75233	13194.4625
931.52895	13187.3625
935.30295	13175.2625
939.07433	12982.8625
942.84309	12810.0625
946.60924	12717.0625
950.37278	12633.8625
954.13371	12609.9625
957.89203	12591.0625
961.64774	12586.0625
965.40086	12584.7625
969.15137	12566.4625
972.89929	12516.9625
976.64461	12520.9625
980.38733	12533.0625
984.12747	12512.0625
987.86502	12571.3625
991.59999	12622.3625
995.33237	12671.7625
999.06217	12761.7625
1002.78939	12887.1625
1006.51404	13057.0625
1010.23611	13189.9625
1013.95561	13279.6625
1017.67255	13326.9625
1021.38692	13252.5625
1025.09872	13143.5625
1028.80796	13015.4625
1032.51465	12979.8625
1036.21877	12974.1625
1039.92035	13000.2625
1043.61937	13062.5625
1047.31584	13128.9625
1051.00976	13193.8625
1054.70114	13221.7625
1058.38998	13244.7625
1062.07627	13300.3625
1065.76003	13399.5625
1069.44126	13537.9625
1073.11995	13703.8625
1076.79611	13893.6625
1080.46974	14105.0625
1084.14085	14197.6625
1087.80943	14331.0625
1091.47549	14443.6625
1095.13903	14383.2625
1098.80005	14189.2625
1102.45857	14028.2625
1106.11456	13912.8625
1109.76805	13882.8625
1113.41903	13923.4625
1117.06751	14068.5625
1120.71348	14282.5625
1124.35696	14545.4625
1127.99793	14828.6625
1131.63641	14857.0625
1135.2724	14564.5625
1138.90589	14257.8625
1142.5369	14064.7625
1146.16542	13936.0625
1149.79145	13766.2625
1153.415	13745.3625
1157.03607	13762.1625
1160.65467	13901.5625
1164.27079	14204.4625
1167.88443	14636.3625
1171.49561	15310.3625
1175.10432	16316.4625
1178.71056	17626.4625
1182.31434	18782.2625
1185.91565	19258.5625
1189.51451	19169.0625
1193.11091	18688.8625
1196.70485	17937.5625
1200.29634	17202.3625
1203.88538	16621.2625
1207.47197	15893.8625
1211.05612	15320.0625
1214.63782	14882.6625
1218.21708	14653.7625
1221.79391	14507.8625
1225.36829	14436.1625
1228.94024	14432.9625
1232.50976	14438.5625
1236.07685	14411.6625
1239.6415	14412.6625
1243.20374	14397.1625
1246.76355	14496.8625
1250.32093	14599.5625
1253.8759	14723.1625
1257.42845	14993.1625
1260.97859	15294.6625
1264.52631	15660.1625
1268.07163	16016.7625
1271.61453	16331.2625
1275.15503	16580.0625
1278.69312	16659.5625
1282.22882	16777.5625
1285.76211	16954.1625
1289.29301	17197.1625
1292.82151	17554.6625
1296.34761	17942.5625
1299.87133	18507.3625
1303.39266	19381.1625
1306.9116	20671.3625
1310.42815	22015.0625
1313.94233	22764.5625
1317.45412	22442.8625
1320.96354	21528.7625
1324.47058	20631.3625
1327.97525	19786.1625
1331.47754	19196.7625
1334.97747	18966.7625
1338.47502	18987.9625
1341.97022	19324.9625
1345.46305	19974.6625
1348.95352	20874.5625
1352.44163	21840.8625
1355.92738	23015.5625
1359.41078	24735.6625
1362.89183	26472.0625
1366.37053	26201.5625
1369.84688	23432.1625
1373.32088	20398.0625
1376.79254	18400.1625
1380.26186	17292.3625
1383.72883	16666.7625
1387.19347	16257.2625
1390.65578	15814.0625
1394.11575	15410.1625
1397.57339	15141.4625
1401.0287	14937.6625
1404.48168	14853.9625
1407.93234	14802.8625
1411.38068	14797.7625
1414.82669	14796.2625
1418.27039	14767.5625
1421.71177	14681.5625
1425.15083	14507.3625
1428.58758	14358.8625
1432.02203	14365.5625
1435.45416	14456.7625
1438.88399	14549.3625
1442.31151	14579.6625
1445.73673	14611.9625
1449.15965	14736.1625
1452.58027	14742.9625
1455.9986	14720.8625
1459.41463	14785.4625
1462.82837	14927.2625
1466.23982	15224.4625
1469.64898	15534.7625
1473.05586	15808.7625
1476.46045	16003.0625
1479.86276	16200.0625
1483.26279	16418.0625
1486.66054	16662.0625
1490.05602	17056.0625
1493.44922	17659.9625
1496.84016	18665.2625
1500.22882	20157.1625
1503.61521	22159.1625
1506.99934	24278.1625
1510.38121	25761.4625
1513.76081	25794.2625
1517.13816	24310.1625
1520.51324	21982.9625
1523.88607	19904.1625
1527.25665	18499.3625
1530.62498	17668.6625
1533.99105	17223.5625
1537.35488	16851.0625
1540.71647	16575.3625
1544.07581	16347.0625
1547.4329	16175.5625
1550.78776	16007.4625
1554.14038	15973.7625
1557.49077	16057.6625
1560.83892	16254.1625
1564.18484	16565.9625
1567.52853	17008.9625
1570.86999	17380.9625
1574.20922	17585.9625
1577.54624	17523.4625
1580.88103	16882.8625
1584.2136	16065.7625
1587.54395	15473.6625
1590.87208	15395.5625
1594.19801	15788.2625
1597.52172	16417.2625
1600.84321	16730.9625
1604.16251	16485.3625
1607.47959	16030.7625
1610.79447	15569.7625
1614.10715	14929.2625
1617.41763	14268.7625
1620.7259	13778.2625
1624.03199	13440.7625
1627.33587	13338.1625
1630.63757	13429.0625
1633.93707	13702.9625
1637.23439	14343.2625
1640.52951	15330.6625
1643.82246	16819.0625
1647.11321	18538.0625
1650.40179	19748.3625
1653.68819	19505.6625
1656.97241	17794.7625
1660.25446	15715.5625
1663.53433	14187.6625
1666.81203	13204.7625
1670.08756	12640.1625
1673.36092	12227.9625
1676.63211	12023.9625
1679.90115	11838.1625
1683.16801	11733.7625
1686.43272	11619.7625
1689.69527	11503.6625
1692.95567	11452.0625
1696.2139	11428.6625
1699.46999	11390.4625
1702.72392	11383.1625
1705.97571	11343.8625
1709.22535	11337.6625
1712.47284	11327.3625
1715.71819	11317.6625
1718.96139	11290.9625
1722.20246	11285.2625
1725.44139	11225.0625
1728.67818	11164.1625
1731.91284	11078.7625
1735.14537	11019.6625
1738.37576	10995.8625
1741.60403	10959.5625
1744.83017	10907.3625
1748.05418	10899.0625
1751.27607	10864.9625
1754.49584	10850.0625
1757.71349	10822.1625
1760.92903	10813.4625
1764.14244	10818.3625
1767.35375	10788.1625
1770.56294	10762.6625
1773.77002	10752.4625
1776.97499	10731.1625
1780.17785	10694.2625
1783.37861	10663.9625
1786.57727	10662.1625
1789.77382	10618.7625
1792.96828	10628.7625
1796.16064	10592.1625
1799.3509	10579.4625
1802.53907	10587.6625
1805.72514	10518.3625
1808.90913	10522.5625
1812.09102	10485.3625
1815.27083	10468.1625
1818.44856	10424.7625
1821.6242	10411.5625
1824.79776	10391.4625
1827.96924	10362.7625
1831.13864	10364.2625
1834.30597	10338.1625
1837.47122	10327.8625
1840.6344	10320.5625
1843.7955	10303.2625
1846.95454	10304.5625
1850.11151	10280.2625
1853.26642	10270.5625
1856.41926	10238.9625
1859.57004	10231.6625
1862.71876	10228.4625
1865.86542	10209.3625
1869.01003	10182.6625
1872.15258	10177.9625
1875.29308	10173.2625
1878.43152	10145.9625
1881.56792	10141.6625
1884.70227	10141.7625
1887.83457	10151.5625
1890.96482	10136.9625
1894.09304	10109.9625
1897.21921	10080.5625
1900.34335	10092.8625
1903.46544	10075.0625
1906.58551	10081.5625
1909.70353	10051.0625
1912.81953	10031.3625
1915.93349	10020.0625
1919.04543	10005.9625
1922.15534	9983.5625
1925.26322	9981.9625
1928.36908	9956.7625
1931.47292	9902.2625
1934.57473	9886.4625
1937.67453	9871.9625
1940.77232	9849.1625
1943.86808	9826.0625
1946.96184	9801.9625
1950.05358	9764.6625
1953.14331	9719.4625
1956.23103	9714.4625
1959.31675	9679.5625
1962.40046	9657.3625
1965.48217	9654.1625
1968.56188	9612.6625
1971.63959	9597.0625
1974.7153	9582.6625
1977.78901	9548.1625
1980.86073	9521.8625
1983.93046	9488.3625
1986.99819	9441.5625
1990.06394	9402.9625
1993.1277	9392.8625
1996.18947	9330.5625
1999.24925	9320.8625
2002.30706	9281.4625
2005.36288	9253.1625
2008.41672	9215.1625
2011.46859	9192.1625
2014.51848	9173.1625
2017.56639	9156.3625
2020.61233	9125.8625
2023.6563	9087.5625
2026.6983	9047.6625
2029.73833	9022.3625
2032.7764	9013.3625
2035.8125	8997.6625
2038.84664	8950.3625
2041.87881	8953.2625
2044.90903	8946.4625
2047.93729	8898.6625
2050.96359	8895.2625
2053.98794	8870.7625
2057.01034	8859.7625
2060.03078	8855.0625
2063.04927	8821.4625
2066.06582	8830.2625
2069.08042	8816.5625
2072.09307	8788.0625
2075.10378	8797.3625
2078.11255	8808.9625
2081.11938	8816.0625
2084.12426	8791.8625
2087.12722	8801.6625
2090.12824	8788.5625
2093.12732	8799.5625
2096.12447	8798.2625
2099.11969	8783.8625
2102.11299	8782.2625
2105.10435	8798.3625
2108.09379	8796.6625
2111.08131	8802.2625
2114.0669	8802.5625
2117.05057	8843.9625
2120.03233	8828.6625
2123.01216	8819.7625
2125.99008	8828.0625
2128.96609	8816.3625
2131.94018	8831.9625
2134.91236	8843.2625
2137.88263	8826.1625
2140.851	8827.7625
2143.81746	8853.6625
2146.78201	8837.8625
2149.74466	8860.0625
2152.7054	8843.1625
2155.66425	8846.5625
2158.6212	8839.4625
2161.57625	8830.0625
2164.52941	8834.0625
2167.48067	8818.3625
2170.43004	8814.6625
2173.37752	8796.3625
2176.32311	8806.8625
2179.26681	8792.8625
2182.20863	8774.7625
2185.14856	8761.7625
2188.08661	8764.0625
2191.02278	8761.0625
2193.95707	8752.1625
2196.88948	8753.7625
2199.82001	8733.8625
2202.74867	8737.5625
2205.67545	8713.5625
2208.60037	8695.8625
2211.52341	8684.9625
2214.44458	8657.1625
2217.36388	8655.8625
2220.28132	8661.4625
2223.1969	8650.3625
2226.11061	8613.0625
2229.02246	8579.9625
2231.93245	8574.3625
2234.84058	8527.8625
2237.74686	8503.7625
2240.65128	8488.3625
2243.55385	8488.9625
2246.45456	8460.8625
2249.35343	8474.6625
2252.25044	8473.6625
2255.14561	8454.8625
2258.03893	8446.3625
2260.93041	8439.7625
2263.82004	8421.7625
2266.70783	8397.3625
2269.59378	8400.3625
2272.4779	8366.4625
2275.36017	8344.1625
2278.24061	8313.9625
2281.11922	8320.7625
2283.996	8294.6625
2286.87094	8284.7625
2289.74405	8272.4625
2292.61534	8269.5625
2295.4848	8244.0625
2298.35243	8249.9625
2301.21824	8214.8625
2304.08223	8206.1625
2306.94439	8197.0625
2309.80474	8195.4625
2312.66327	8171.5625
2315.51999	8151.3625
2318.37489	8154.5625
2321.22797	8152.2625
2324.07925	8132.2625
2326.92871	8132.5625
2329.77637	8143.3625
2332.62222	8090.4625
2335.46626	8101.5625
2338.3085	8075.3625
2341.14893	8075.8625
2343.98756	8067.4625
2346.8244	8049.3625
2349.65943	8058.5625
2352.49267	8026.4625
2355.32411	8047.9625
2358.15376	8033.3625
2360.98161	8051.9625
2363.80768	8036.6625
2366.63195	8049.6625
2369.45444	8030.3625
2372.27514	8018.3625
2375.09405	8023.4625
2377.91118	7998.8625
2380.72652	7988.5625
2383.54009	7947.2625
2386.35187	7965.4625
2389.16188	7918.3625
2391.97011	7897.8625
2394.77657	7895.3625
2397.58125	7877.9625
2400.38416	7839.9625
2403.18529	7843.0625
2405.98466	7823.4625
2408.78226	7798.3625
2411.57809	7778.4625
2414.37216	7773.6625
2417.16446	7747.9625
2419.955	7744.3625
2422.74378	7751.7625
2425.5308	7739.1625
2428.31606	7726.1625
2431.09956	7740.9625
2433.88131	7699.8625
2436.6613	7705.3625
2439.43954	7711.7625
2442.21603	7699.7625
2444.99077	7686.0625
2447.76377	7689.8625
2450.53501	7675.7625
2453.30451	7672.5625
2456.07226	7665.6625
2458.83827	7677.2625
2461.60254	7655.2625
2464.36507	7638.0625
2467.12586	7653.6625
2469.88492	7653.2625
2472.64224	7654.5625
2475.39782	7629.7625
2478.15167	7632.0625
2480.90379	7622.5625
2483.65417	7593.9625
2486.40283	7626.6625
2489.14976	7626.4625
2491.89497	7628.8625
2494.63845	7630.6625
2497.3802	7609.7625
2500.12024	7614.3625
2502.85855	7609.7625
2505.59514	7571.0625
2508.33002	7567.0625
2511.06318	7549.5625
2513.79462	7555.6625
2516.52435	7514.4625
2519.25237	7509.6625
2521.97867	7505.3625
2524.70327	7493.5625
2527.42616	7475.8625
2530.14734	7448.3625
2532.86681	7434.8625
2535.58458	7416.0625
2538.30065	7413.1625
2541.01501	7405.2625
2543.72768	7396.0625
2546.43864	7370.5625
2549.14791	7371.7625
2551.85548	7355.4625
2554.56136	7347.6625
2557.26554	7332.1625
2559.96803	7318.1625
2562.66883	7316.1625
2565.36794	7321.6625
2568.06536	7311.3625
2570.7611	7294.4625
2573.45514	7270.2625
2576.14751	7263.7625
2578.83819	7237.2625
2581.52719	7236.3625
2584.21451	7226.2625
2586.90015	7214.0625
2589.58411	7161.7625
2592.2664	7174.1625
2594.94701	7174.2625
2597.62594	7125.4625
2600.30321	7118.5625
2602.9788	7110.6625
2605.65273	7106.8625
2608.32498	7118.4625
2610.99557	7088.9625
2613.66449	7062.4625
2616.33175	7065.4625
2618.99734	7063.0625
2621.66128	7051.4625
2624.32355	7037.2625
2626.98416	6993.5625
2629.64311	7000.3625
2632.30041	7008.0625
2634.95605	6999.4625
2637.61004	6974.1625
2640.26238	6969.5625
2642.91306	6961.3625
2645.56209	6948.6625
2648.20948	6971.3625
2650.85521	6949.4625
2653.4993	6932.3625
2656.14175	6937.1625
2658.78255	6930.3625
2661.42171	6926.8625
2664.05923	6931.0625
2666.6951	6934.8625
2669.32934	6937.2625
2671.96194	6925.5625
2674.59291	6935.2625
2677.22224	6923.6625
2679.84993	6930.0625
2682.476	6924.8625
2685.10043	6926.8625
2687.72324	6931.9625
2690.34441	6937.8625
2692.96396	6934.8625
2695.58188	6918.4625
2698.19818	6917.0625
2700.81285	6912.6625
2703.4259	6923.6625
2706.03733	6909.3625
2708.64714	6917.1625
2711.25533	6907.7625
2713.86191	6911.0625
2716.46687	6899.2625
2719.07021	6874.0625
2721.67194	6899.5625
2724.27206	6867.9625
2726.87057	6885.4625
2729.46747	6885.8625
2732.06276	6868.3625
2734.65644	6862.4625
2737.24852	6885.3625
2739.83899	6863.5625
2742.42786	6857.3625
2745.01513	6829.7625
2747.60079	6825.9625
2750.18486	6828.1625
2752.76733	6817.6625
2755.3482	6800.3625
2757.92747	6792.6625
2760.50515	6778.1625
2763.08123	6785.5625
2765.65573	6765.4625
2768.22863	6766.4625
2770.79994	6743.0625
2773.36967	6726.6625
2775.9378	6738.2625
2778.50435	6725.0625
2781.06932	6704.7625
2783.6327	6714.4625
2786.1945	6687.8625
2788.75471	6680.3625
2791.31335	6643.4625
2793.87041	6647.5625
2796.42589	6625.8625
2798.97979	6637.2625
2801.53212	6612.3625
2804.08288	6629.6625
2806.63206	6607.2625
2809.17967	6581.6625
2811.72571	6575.5625
2814.27018	6570.1625
2816.81308	6567.3625
2819.35442	6552.6625
2821.89419	6537.4625
2824.43239	6556.2625
2826.96904	6539.5625
2829.50412	6542.1625
2832.03763	6520.5625
2834.56959	6518.2625
2837.1	6485.2625
2839.62884	6491.5625
2842.15613	6486.8625
2844.68186	6487.8625
2847.20604	6463.2625
2849.72867	6473.7625
2852.24974	6467.4625
2854.76927	6450.1625
2857.28724	6441.3625
2859.80367	6444.9625
2862.31855	6419.3625
2864.83189	6434.0625
2867.34368	6438.8625
2869.85393	6437.4625
2872.36264	6446.6625
2874.8698	6427.5625
2877.37543	6427.8625
2879.87952	6436.2625
2882.38207	6429.7625
2884.88308	6413.9625
2887.38256	6412.3625
2889.88051	6419.0625
2892.37692	6418.1625
2894.8718	6417.6625
2897.36515	6406.8625
2899.85698	6408.7625
2902.34727	6424.2625
2904.83604	6410.9625
2907.32328	6417.5625
2909.809	6439.3625
2912.29319	6423.4625
2914.77587	6382.0625
2917.25702	6407.4625
2919.73665	6383.1625
2922.21476	6403.1625
2924.69136	6382.6625
2927.16644	6375.9625
2929.64	6383.9625
2932.11205	6375.8625
2934.58258	6350.4625
2937.05161	6345.9625
2939.51912	6336.6625
2941.98513	6337.1625
2944.44962	6317.9625
2946.91261	6305.0625
2949.37409	6311.8625
2951.83407	6327.3625
2954.29254	6299.1625
2956.74951	6280.4625
2959.20498	6296.2625
2961.65895	6276.6625
2964.11142	6271.6625
2966.56239	6264.3625
2969.01186	6251.8625
2971.45984	6233.0625
2973.90632	6227.1625
2976.35131	6210.6625
2978.7948	6207.3625
2981.23681	6196.5625
2983.67732	6195.3625
2986.11635	6173.4625
2988.55388	6170.1625
2990.98993	6184.2625
2993.4245	6166.8625
2995.85758	6148.5625
2998.28917	6133.5625
3000.71928	6107.3625
3003.14791	6102.6625
3005.57506	6107.3625
3008.00073	6095.6625
3010.42493	6103.9625
3012.84764	6096.3625
3015.26888	6084.3625
3017.68865	6049.8625
3020.10694	6061.8625
3022.52376	6044.9625
3024.9391	6026.5625
3027.35298	6024.0625
3029.76539	6006.8625
3032.17632	6010.8625
3034.5858	5994.9625
3036.9938	5979.7625
3039.40034	5968.8625
3041.80542	5969.7625
3044.20903	5941.5625
3046.61118	5942.9625
3049.01187	5925.5625
3051.4111	5905.1625
3053.80888	5893.1625
3056.20519	5890.5625
3058.60005	5906.9625
3060.99345	5889.6625
3063.3854	5878.5625
3065.7759	5858.9625
3068.16494	5861.3625
3070.55254	5847.7625
3072.93868	5834.3625
