Data from AgNP_FTO_APTES_UA_100uM_CRN_0uM_R6G_10uM_NaF_0.1M_Addition_RamanShift__13__11-00-20-096.txt Node

Date: Thu Mar 24 11:00:20 GMT 2022
User: TCL
Spectrometer: QEP01345
Trigger mode: 4
Integration Time (sec): 7.000000E0
Scans to average: 10
Electric dark correction enabled: true
Nonlinearity correction enabled: false
Boxcar width: 0
XAxis mode: Raman Shifts
Number of Pixels in Spectrum: 1044
>>>>>Begin Spectral Data<<<<<
46.04893	-0.4875
50.45542	0.0125
54.85868	1.1125
59.25871	0.4125
63.6555	24.2125
68.04907	28.6125
72.43941	24.5125
76.82654	27.8125
81.21044	31.8125
85.59113	34.4125
89.96862	33.9125
94.34289	33.4125
98.71396	36.6125
103.08183	35.8125
107.4465	36.0125
111.80798	38.8125
116.16626	38.3125
120.52136	41.2125
124.87327	38.7125
129.222	40.3125
133.56755	45.4125
137.90993	47.2125
142.24913	49.8125
146.58517	53.4125
150.91804	62.4125
155.24774	73.2125
159.57429	88.0125
163.89768	113.6125
168.21792	144.5125
172.53501	192.5125
176.84895	273.5125
181.15975	385.4125
185.46741	528.0125
189.77193	734.9125
194.07331	980.2125
198.37157	1257.1125
202.6667	1552.8125
206.9587	1855.1125
211.24758	2175.0125
215.53334	2503.6125
219.81599	2880.9125
224.09553	3327.4125
228.37195	3789.6125
232.64527	4309.2125
236.91549	4780.5125
241.18261	5209.1125
245.44663	5541.7125
249.70755	5762.3125
253.96539	5945.3125
258.22014	6138.3125
262.4718	6298.4125
266.72039	6401.0125
270.96589	6385.2125
275.20832	6287.1125
279.44768	6101.8125
283.68397	5910.8125
287.91719	5793.9125
292.14735	5758.0125
296.37445	5863.6125
300.59849	6143.9125
304.81948	6492.6125
309.03742	6821.5125
313.25231	6976.9125
317.46415	6822.3125
321.67296	6434.3125
325.87872	6083.6125
330.08145	5916.4125
334.28114	5902.1125
338.47781	5977.5125
342.67145	6114.0125
346.86207	6304.6125
351.04966	6594.2125
355.23424	6953.9125
359.4158	7222.9125
363.59435	7291.0125
367.76989	7313.2125
371.94243	7234.4125
376.11196	7156.2125
380.27849	7115.7125
384.44203	7048.8125
388.60257	6979.0125
392.76012	6879.7125
396.91468	6885.0125
401.06626	7004.2125
405.21485	7152.6125
409.36047	7000.4125
413.50311	6663.4125
417.64277	6392.7125
421.77947	6302.6125
425.9132	6089.3125
430.04396	6008.3125
434.17176	6114.1125
438.2966	6358.7125
442.41849	6743.1125
446.53742	7292.3125
450.6534	7783.2125
454.76644	7995.0125
458.87653	7796.5125
462.98368	7396.4125
467.08789	7012.7125
471.18916	6652.9125
475.2875	6309.4125
479.38291	6008.9125
483.4754	5745.9125
487.56496	5621.9125
491.6516	5520.9125
495.73531	5470.5125
499.81612	5451.0125
503.89401	5521.6125
507.96899	5586.5125
512.04106	5645.4125
516.11023	5703.2125
520.1765	5791.6125
524.23987	5909.6125
528.30034	5963.2125
532.35792	5978.6125
536.41261	5821.7125
540.46441	5586.0125
544.51333	5417.1125
548.55936	5409.9125
552.60252	5580.2125
556.64279	5950.9125
560.6802	6179.6125
564.71473	6298.2125
568.7464	6501.3125
572.7752	6728.2125
576.80114	6592.7125
580.82422	6414.0125
584.84444	6604.3125
588.86181	7406.4125
592.87633	8657.4125
596.888	9424.0125
600.89682	8875.9125
604.9028	8508.7125
608.90594	10108.3125
612.90624	12770.6125
616.90371	12211.4125
620.89834	8195.9125
624.89015	6076.8125
628.87913	5633.6125
632.86528	5707.6125
636.84862	5774.6125
640.82913	5607.1125
644.80683	5208.6125
648.78172	4949.9125
652.75379	4960.9125
656.72306	5265.0125
660.68952	5630.7125
664.65319	5541.1125
668.61405	5125.6125
672.57211	4950.2125
676.52738	4987.5125
680.47986	4945.6125
684.42955	4813.8125
688.37646	4746.9125
692.32058	4787.8125
696.26192	4926.0125
700.20048	5072.5125
704.13626	5135.9125
708.06928	5086.8125
711.99952	5034.1125
715.927	5059.9125
719.85171	5150.7125
723.77365	5173.0125
727.69284	5058.3125
731.60928	4989.7125
735.52295	5053.3125
739.43388	5129.1125
743.34206	5188.1125
747.24749	5174.9125
751.15017	5211.3125
755.05012	5293.9125
758.94733	5619.0125
762.8418	6484.2125
766.73354	7930.9125
770.62254	9354.4125
774.50882	10040.5125
778.39237	9631.1125
782.27321	8263.9125
786.15132	6728.7125
790.02671	5765.3125
793.89938	5315.6125
797.76935	5122.3125
801.6366	5025.2125
805.50115	4969.2125
809.36299	4925.2125
813.22213	4857.7125
817.07857	4825.9125
820.93231	4824.4125
824.78336	4835.5125
828.63172	4861.2125
832.47738	4873.9125
836.32036	4876.4125
840.16066	4842.9125
843.99827	4816.3125
847.8332	4791.1125
851.66546	4783.4125
855.49504	4798.4125
859.32195	4754.5125
863.1462	4719.0125
866.96777	4709.2125
870.78668	4700.1125
874.60293	4704.4125
878.41652	4747.0125
882.22745	4819.8125
886.03573	4870.1125
889.84136	4856.7125
893.64433	4827.6125
897.44466	4799.0125
901.24235	4780.6125
905.0374	4737.0125
908.8298	4688.2125
912.61957	4651.9125
916.40671	4635.3125
920.19121	4719.1125
923.97308	4802.2125
927.75233	4944.5125
931.52895	4994.0125
935.30295	4888.2125
939.07433	4677.4125
942.84309	4514.1125
946.60924	4417.6125
950.37278	4361.5125
954.13371	4346.5125
957.89203	4319.6125
961.64774	4297.2125
965.40086	4307.4125
969.15137	4291.4125
972.89929	4263.8125
976.64461	4268.6125
980.38733	4269.0125
984.12747	4279.5125
987.86502	4332.1125
991.59999	4386.5125
995.33237	4518.6125
999.06217	4759.3125
1002.78939	5027.7125
1006.51404	5231.4125
1010.23611	5414.7125
1013.95561	5528.0125
1017.67255	5492.4125
1021.38692	5286.6125
1025.09872	4970.3125
1028.80796	4767.6125
1032.51465	4714.7125
1036.21877	4731.8125
1039.92035	4787.4125
1043.61937	4820.5125
1047.31584	4838.3125
1051.00976	4815.9125
1054.70114	4785.1125
1058.38998	4771.0125
1062.07627	4739.9125
1065.76003	4764.8125
1069.44126	4786.9125
1073.11995	4908.9125
1076.79611	5094.0125
1080.46974	5291.5125
1084.14085	5534.4125
1087.80943	5787.1125
1091.47549	5888.4125
1095.13903	5719.7125
1098.80005	5420.8125
1102.45857	5159.4125
1106.11456	5105.9125
1109.76805	5187.9125
1113.41903	5379.2125
1117.06751	5621.0125
1120.71348	5987.4125
1124.35696	6414.6125
1127.99793	6746.8125
1131.63641	6642.6125
1135.2724	6249.2125
1138.90589	5874.1125
1142.5369	5693.7125
1146.16542	5654.5125
1149.79145	5616.0125
1153.415	5653.2125
1157.03607	5681.0125
1160.65467	5808.9125
1164.27079	6132.6125
1167.88443	6747.1125
1171.49561	7708.8125
1175.10432	9226.4125
1178.71056	11229.3125
1182.31434	12980.3125
1185.91565	13476.5125
1189.51451	12732.9125
1193.11091	11492.8125
1196.70485	10312.7125
1200.29634	9269.5125
1203.88538	8371.6125
1207.47197	7574.9125
1211.05612	6985.2125
1214.63782	6747.4125
1218.21708	6882.7125
1221.79391	7215.2125
1225.36829	7514.3125
1228.94024	7466.6125
1232.50976	7111.9125
1236.07685	6727.6125
1239.6415	6562.8125
1243.20374	6541.9125
1246.76355	6505.0125
1250.32093	6538.5125
1253.8759	6725.9125
1257.42845	7090.6125
1260.97859	7522.0125
1264.52631	8024.0125
1268.07163	8485.9125
1271.61453	8814.7125
1275.15503	9029.9125
1278.69312	9164.0125
1282.22882	9441.0125
1285.76211	10082.6125
1289.29301	10939.3125
1292.82151	11824.1125
1296.34761	12813.9125
1299.87133	13914.0125
1303.39266	15433.9125
1306.9116	17492.1125
1310.42815	19742.2125
1313.94233	21003.7125
1317.45412	20249.3125
1320.96354	18097.6125
1324.47058	15741.0125
1327.97525	13798.1125
1331.47754	12617.5125
1334.97747	12188.8125
1338.47502	12162.5125
1341.97022	12218.7125
1345.46305	12434.7125
1348.95352	13218.5125
1352.44163	14840.3125
1355.92738	17400.1125
1359.41078	20905.6125
1362.89183	23783.7125
1366.37053	23259.6125
1369.84688	19247.6125
1373.32088	15179.0125
1376.79254	12840.0125
1380.26186	11819.0125
1383.72883	11157.3125
1387.19347	10383.3125
1390.65578	9737.3125
1394.11575	9442.9125
1397.57339	9524.9125
1401.0287	9713.9125
1404.48168	9815.4125
1407.93234	9763.9125
1411.38068	9634.8125
1414.82669	9464.9125
1418.27039	9199.0125
1421.71177	8843.9125
1425.15083	8576.0125
1428.58758	8578.9125
1432.02203	8924.9125
1435.45416	9274.9125
1438.88399	9454.3125
1442.31151	9410.6125
1445.73673	9356.1125
1449.15965	9322.5125
1452.58027	9080.3125
1455.9986	8748.9125
1459.41463	8586.8125
1462.82837	8778.2125
1466.23982	9234.4125
1469.64898	9701.3125
1473.05586	10065.7125
1476.46045	10285.2125
1479.86276	10540.0125
1483.26279	10717.7125
1486.66054	10935.9125
1490.05602	11290.8125
1493.44922	11691.2125
1496.84016	12181.9125
1500.22882	13002.8125
1503.61521	14370.5125
1506.99934	16108.8125
1510.38121	17655.8125
1513.76081	17979.6125
1517.13816	16580.1125
1520.51324	14236.8125
1523.88607	12268.8125
1527.25665	11209.9125
1530.62498	10777.3125
1533.99105	10539.0125
1537.35488	10278.7125
1540.71647	9969.3125
1544.07581	9602.6125
1547.4329	9251.8125
1550.78776	8876.7125
1554.14038	8524.9125
1557.49077	8312.6125
1560.83892	8269.4125
1564.18484	8499.8125
1567.52853	8996.8125
1570.86999	9519.5125
1574.20922	9886.0125
1577.54624	9869.4125
1580.88103	9296.6125
1584.2136	8548.3125
1587.54395	8320.3125
1590.87208	8868.4125
1594.19801	10168.3125
1597.52172	11810.2125
1600.84321	12864.7125
1604.16251	12420.3125
1607.47959	10841.2125
1610.79447	8944.9125
1614.10715	7402.2125
1617.41763	6453.0125
1620.7259	5951.1125
1624.03199	5745.8125
1627.33587	5815.4125
1630.63757	6096.9125
1633.93707	6787.4125
1637.23439	8074.0125
1640.52951	10237.4125
1643.82246	13345.2125
1647.11321	16288.8125
1650.40179	17392.9125
1653.68819	15621.8125
1656.97241	12148.5125
1660.25446	8949.8125
1663.53433	6827.9125
1666.81203	5671.5125
1670.08756	5046.2125
1673.36092	4661.2125
1676.63211	4438.8125
1679.90115	4289.0125
1683.16801	4170.6125
1686.43272	4107.3125
1689.69527	4041.1125
1692.95567	3988.6125
1696.2139	3957.8125
1699.46999	3935.7125
1702.72392	3910.7125
1705.97571	3892.8125
1709.22535	3885.3125
1712.47284	3873.7125
1715.71819	3897.0125
1718.96139	3869.9125
1722.20246	3835.4125
1725.44139	3804.4125
1728.67818	3764.3125
1731.91284	3718.5125
1735.14537	3664.8125
1738.37576	3647.1125
1741.60403	3627.5125
1744.83017	3604.1125
1748.05418	3582.4125
1751.27607	3562.9125
1754.49584	3553.6125
1757.71349	3530.6125
1760.92903	3533.7125
1764.14244	3512.8125
1767.35375	3496.7125
1770.56294	3501.9125
1773.77002	3474.1125
1776.97499	3464.1125
1780.17785	3441.2125
1783.37861	3438.8125
1786.57727	3429.8125
1789.77382	3400.3125
1792.96828	3396.4125
1796.16064	3402.4125
1799.3509	3387.5125
1802.53907	3372.6125
1805.72514	3365.2125
1808.90913	3356.0125
1812.09102	3354.9125
1815.27083	3333.7125
1818.44856	3336.9125
1821.6242	3299.1125
1824.79776	3311.3125
1827.96924	3305.8125
1831.13864	3301.6125
1834.30597	3303.6125
1837.47122	3293.6125
1840.6344	3300.0125
1843.7955	3298.2125
1846.95454	3308.0125
1850.11151	3316.8125
1853.26642	3335.7125
1856.41926	3363.8125
1859.57004	3380.3125
1862.71876	3410.5125
1865.86542	3413.5125
1869.01003	3438.2125
1872.15258	3462.1125
1875.29308	3490.5125
1878.43152	3514.4125
1881.56792	3513.2125
1884.70227	3540.7125
1887.83457	3538.4125
1890.96482	3533.2125
1894.09304	3539.4125
1897.21921	3526.3125
1900.34335	3515.9125
1903.46544	3508.8125
1906.58551	3510.6125
1909.70353	3475.5125
1912.81953	3486.1125
1915.93349	3457.9125
1919.04543	3454.4125
1922.15534	3439.5125
1925.26322	3414.7125
1928.36908	3406.6125
1931.47292	3390.9125
1934.57473	3371.0125
1937.67453	3349.9125
1940.77232	3353.7125
1943.86808	3328.2125
1946.96184	3318.9125
1950.05358	3289.8125
1953.14331	3272.5125
1956.23103	3274.6125
1959.31675	3242.7125
1962.40046	3225.0125
1965.48217	3231.3125
1968.56188	3200.1125
1971.63959	3197.8125
1974.7153	3177.6125
1977.78901	3185.7125
1980.86073	3156.4125
1983.93046	3146.1125
1986.99819	3147.4125
1990.06394	3132.0125
1993.1277	3127.3125
1996.18947	3126.8125
1999.24925	3123.9125
2002.30706	3112.7125
2005.36288	3107.9125
2008.41672	3095.5125
2011.46859	3083.8125
2014.51848	3073.2125
2017.56639	3045.3125
2020.61233	3017.2125
2023.6563	3000.0125
2026.6983	2977.6125
2029.73833	2958.3125
2032.7764	2946.7125
2035.8125	2941.7125
2038.84664	2935.1125
2041.87881	2932.8125
2044.90903	2930.7125
2047.93729	2952.7125
2050.96359	2954.9125
2053.98794	2973.2125
2057.01034	2975.8125
2060.03078	3017.7125
2063.04927	3036.7125
2066.06582	3064.6125
2069.08042	3094.9125
2072.09307	3114.0125
2075.10378	3117.1125
2078.11255	3138.2125
2081.11938	3120.6125
2084.12426	3113.8125
2087.12722	3087.9125
2090.12824	3066.8125
2093.12732	3036.1125
2096.12447	3025.8125
2099.11969	2982.0125
2102.11299	2969.4125
2105.10435	2950.2125
2108.09379	2928.5125
2111.08131	2891.5125
2114.0669	2895.6125
2117.05057	2869.3125
2120.03233	2872.9125
2123.01216	2846.4125
2125.99008	2833.4125
2128.96609	2820.6125
2131.94018	2836.6125
2134.91236	2824.6125
2137.88263	2809.8125
2140.851	2803.8125
2143.81746	2788.6125
2146.78201	2791.4125
2149.74466	2769.0125
2152.7054	2759.1125
2155.66425	2741.2125
2158.6212	2736.0125
2161.57625	2722.9125
2164.52941	2711.7125
2167.48067	2699.5125
2170.43004	2700.3125
2173.37752	2686.5125
2176.32311	2686.9125
2179.26681	2672.8125
2182.20863	2679.9125
2185.14856	2692.3125
2188.08661	2679.1125
2191.02278	2665.3125
2193.95707	2669.8125
2196.88948	2659.0125
2199.82001	2659.7125
2202.74867	2650.6125
2205.67545	2643.8125
2208.60037	2635.0125
2211.52341	2623.1125
2214.44458	2616.9125
2217.36388	2605.5125
2220.28132	2603.2125
2223.1969	2590.2125
2226.11061	2596.2125
2229.02246	2580.3125
2231.93245	2579.6125
2234.84058	2590.2125
2237.74686	2577.8125
2240.65128	2592.4125
2243.55385	2575.7125
2246.45456	2570.3125
2249.35343	2568.4125
2252.25044	2570.4125
2255.14561	2557.2125
2258.03893	2564.8125
2260.93041	2554.0125
2263.82004	2542.7125
2266.70783	2534.9125
2269.59378	2536.8125
2272.4779	2520.3125
2275.36017	2520.4125
2278.24061	2516.7125
2281.11922	2505.5125
2283.996	2507.8125
2286.87094	2481.1125
2289.74405	2481.6125
2292.61534	2470.0125
2295.4848	2470.3125
2298.35243	2460.2125
2301.21824	2454.2125
2304.08223	2450.4125
2306.94439	2452.1125
2309.80474	2459.6125
2312.66327	2465.0125
2315.51999	2457.1125
2318.37489	2455.0125
2321.22797	2456.5125
2324.07925	2451.3125
2326.92871	2427.1125
2329.77637	2450.7125
2332.62222	2440.7125
2335.46626	2424.9125
2338.3085	2426.7125
2341.14893	2432.5125
2343.98756	2431.6125
2346.8244	2442.6125
2349.65943	2437.7125
2352.49267	2458.1125
2355.32411	2455.4125
2358.15376	2454.2125
2360.98161	2465.4125
2363.80768	2462.4125
2366.63195	2473.1125
2369.45444	2466.4125
2372.27514	2481.2125
2375.09405	2476.4125
2377.91118	2465.2125
2380.72652	2461.4125
2383.54009	2443.0125
2386.35187	2428.3125
2389.16188	2419.0125
2391.97011	2393.1125
2394.77657	2398.8125
2397.58125	2392.6125
2400.38416	2384.2125
2403.18529	2373.6125
2405.98466	2375.2125
2408.78226	2361.7125
2411.57809	2350.3125
2414.37216	2347.6125
2417.16446	2353.1125
2419.955	2356.2125
2422.74378	2358.6125
2425.5308	2348.6125
2428.31606	2350.1125
2431.09956	2351.7125
2433.88131	2340.6125
2436.6613	2340.5125
2439.43954	2364.4125
2442.21603	2346.9125
2444.99077	2358.8125
2447.76377	2361.1125
2450.53501	2374.6125
2453.30451	2367.8125
2456.07226	2360.6125
2458.83827	2368.5125
2461.60254	2357.8125
2464.36507	2364.0125
2467.12586	2359.8125
2469.88492	2364.1125
2472.64224	2377.9125
2475.39782	2364.6125
2478.15167	2380.8125
2480.90379	2388.8125
2483.65417	2391.1125
2486.40283	2398.9125
2489.14976	2402.7125
2491.89497	2423.2125
2494.63845	2417.2125
2497.3802	2417.5125
2500.12024	2414.0125
2502.85855	2400.2125
2505.59514	2395.1125
2508.33002	2388.4125
2511.06318	2371.0125
2513.79462	2359.7125
2516.52435	2344.0125
2519.25237	2334.5125
2521.97867	2327.1125
2524.70327	2322.8125
2527.42616	2313.6125
2530.14734	2315.5125
2532.86681	2309.6125
2535.58458	2307.0125
2538.30065	2316.9125
2541.01501	2319.0125
2543.72768	2318.0125
2546.43864	2333.0125
2549.14791	2314.3125
2551.85548	2321.0125
2554.56136	2322.2125
2557.26554	2320.4125
2559.96803	2324.3125
2562.66883	2311.5125
2565.36794	2327.8125
2568.06536	2316.0125
2570.7611	2323.5125
2573.45514	2312.8125
2576.14751	2300.5125
2578.83819	2298.6125
2581.52719	2305.2125
2584.21451	2308.3125
2586.90015	2297.3125
2589.58411	2289.0125
2592.2664	2299.5125
2594.94701	2295.1125
2597.62594	2293.8125
2600.30321	2285.6125
2602.9788	2284.2125
2605.65273	2291.9125
2608.32498	2289.7125
2610.99557	2282.1125
2613.66449	2291.8125
2616.33175	2304.1125
2618.99734	2294.6125
2621.66128	2291.7125
2624.32355	2286.0125
2626.98416	2278.1125
2629.64311	2285.2125
2632.30041	2261.4125
2634.95605	2288.7125
2637.61004	2277.6125
2640.26238	2263.1125
2642.91306	2270.9125
2645.56209	2271.1125
2648.20948	2272.7125
2650.85521	2263.4125
2653.4993	2278.7125
2656.14175	2289.2125
2658.78255	2288.7125
2661.42171	2293.1125
2664.05923	2302.2125
2666.6951	2304.2125
2669.32934	2316.9125
2671.96194	2310.6125
2674.59291	2311.3125
2677.22224	2320.7125
2679.84993	2310.2125
2682.476	2298.9125
2685.10043	2298.2125
2687.72324	2298.7125
2690.34441	2301.5125
2692.96396	2305.4125
2695.58188	2309.7125
2698.19818	2298.0125
2700.81285	2300.7125
2703.4259	2302.4125
2706.03733	2288.9125
2708.64714	2305.3125
2711.25533	2296.6125
2713.86191	2308.2125
2716.46687	2316.9125
2719.07021	2317.7125
2721.67194	2329.2125
2724.27206	2333.7125
2726.87057	2338.9125
2729.46747	2336.5125
2732.06276	2334.7125
2734.65644	2329.9125
2737.24852	2325.2125
2739.83899	2310.1125
2742.42786	2316.5125
2745.01513	2312.0125
2747.60079	2308.5125
2750.18486	2311.1125
2752.76733	2310.1125
2755.3482	2314.3125
2757.92747	2311.3125
2760.50515	2308.0125
2763.08123	2317.4125
2765.65573	2310.8125
2768.22863	2306.8125
2770.79994	2297.4125
2773.36967	2312.1125
2775.9378	2299.9125
2778.50435	2307.9125
2781.06932	2312.0125
2783.6327	2318.5125
2786.1945	2329.1125
2788.75471	2310.5125
2791.31335	2311.7125
2793.87041	2314.9125
2796.42589	2332.9125
2798.97979	2323.8125
2801.53212	2320.1125
2804.08288	2323.5125
2806.63206	2323.7125
2809.17967	2317.2125
2811.72571	2319.7125
2814.27018	2345.9125
2816.81308	2336.8125
2819.35442	2332.3125
2821.89419	2343.1125
2824.43239	2343.8125
2826.96904	2362.3125
2829.50412	2365.3125
2832.03763	2365.4125
2834.56959	2378.2125
2837.1	2370.1125
2839.62884	2391.8125
2842.15613	2405.1125
2844.68186	2433.0125
2847.20604	2462.3125
2849.72867	2477.9125
2852.24974	2492.0125
2854.76927	2501.5125
2857.28724	2501.7125
2859.80367	2514.2125
2862.31855	2512.4125
2864.83189	2518.3125
2867.34368	2513.8125
2869.85393	2529.5125
2872.36264	2537.8125
2874.8698	2531.3125
2877.37543	2538.7125
2879.87952	2537.6125
2882.38207	2538.1125
2884.88308	2536.7125
2887.38256	2531.7125
2889.88051	2522.4125
2892.37692	2529.6125
2894.8718	2525.3125
2897.36515	2535.7125
2899.85698	2539.9125
2902.34727	2539.0125
2904.83604	2529.1125
2907.32328	2546.2125
2909.809	2545.7125
2912.29319	2537.8125
2914.77587	2530.0125
2917.25702	2521.0125
2919.73665	2511.5125
2922.21476	2517.3125
2924.69136	2503.2125
2927.16644	2520.5125
2929.64	2497.2125
2932.11205	2488.2125
2934.58258	2459.7125
2937.05161	2456.9125
2939.51912	2449.9125
2941.98513	2429.3125
2944.44962	2401.4125
2946.91261	2375.7125
2949.37409	2364.8125
2951.83407	2370.6125
2954.29254	2339.9125
2956.74951	2333.3125
2959.20498	2328.7125
2961.65895	2314.7125
2964.11142	2298.0125
2966.56239	2278.7125
2969.01186	2280.8125
2971.45984	2259.7125
2973.90632	2238.8125
2976.35131	2236.7125
2978.7948	2219.5125
2981.23681	2200.5125
2983.67732	2197.5125
2986.11635	2183.0125
2988.55388	2178.3125
2990.98993	2179.4125
2993.4245	2163.8125
2995.85758	2146.8125
2998.28917	2167.7125
3000.71928	2156.6125
3003.14791	2152.1125
3005.57506	2151.1125
3008.00073	2142.0125
3010.42493	2160.7125
3012.84764	2139.7125
3015.26888	2140.7125
3017.68865	2132.9125
3020.10694	2126.4125
3022.52376	2119.2125
3024.9391	2104.5125
3027.35298	2105.0125
3029.76539	2102.6125
3032.17632	2085.4125
3034.5858	2087.0125
3036.9938	2083.5125
3039.40034	2079.7125
3041.80542	2068.4125
3044.20903	2077.2125
3046.61118	2072.4125
3049.01187	2066.8125
3051.4111	2071.5125
3053.80888	2066.0125
3056.20519	2071.7125
3058.60005	2063.7125
3060.99345	2069.1125
3063.3854	2062.2125
3065.7759	2049.9125
3068.16494	2048.1125
3070.55254	2043.4125
3072.93868	2040.8125
3075.32338	2033.0125
3077.70662	2010.3125
3080.08842	2022.3125
3082.46878	2018.7125
3084.84769	2008.0125
3087.22515	2010.0125
3089.60118	2016.0125
3091.97576	2004.9125
3094.3489	2018.1125
3096.72061	2009.6125
3099.09087	2014.2125
3101.4597	2002.5125
3103.82709	1995.9125
3106.19305	1988.2125
3108.55757	1985.6125
3110.92066	1983.4125
3113.28232	1979.5125
3115.64255	1982.3125
3118.00134	1981.4125
