Data from AgNP_FTO_APTES_UA_100uM_CRN_50uM_R6G_10uM_NaF_0.1M_Addition_RamanShift__26__17-38-10-553.txt Node

Date: Thu Mar 24 17:38:10 GMT 2022
User: TCL
Spectrometer: QEP01345
Trigger mode: 4
Integration Time (sec): 7.000000E0
Scans to average: 10
Electric dark correction enabled: true
Nonlinearity correction enabled: false
Boxcar width: 0
XAxis mode: Raman Shifts
Number of Pixels in Spectrum: 1044
>>>>>Begin Spectral Data<<<<<
46.04893	-0.5375
50.45542	0.7625
54.85868	0.2625
59.25871	-0.6375
63.6555	35.8625
68.04907	37.5625
72.43941	39.6625
76.82654	37.2625
81.21044	40.3625
85.59113	44.4625
89.96862	44.8625
94.34289	45.9625
98.71396	47.0625
103.08183	48.0625
107.4465	48.8625
111.80798	52.4625
116.16626	49.8625
120.52136	53.1625
124.87327	53.6625
129.222	56.0625
133.56755	60.1625
137.90993	63.5625
142.24913	73.1625
146.58517	81.8625
150.91804	96.7625
155.24774	112.4625
159.57429	141.6625
163.89768	182.3625
168.21792	245.5625
172.53501	340.8625
176.84895	470.7625
181.15975	662.4625
185.46741	922.8625
189.77193	1277.8625
194.07331	1712.3625
198.37157	2215.3625
202.6667	2744.5625
206.9587	3261.9625
211.24758	3817.1625
215.53334	4354.7625
219.81599	4935.3625
224.09553	5611.4625
228.37195	6324.6625
232.64527	7139.9625
236.91549	7961.6625
241.18261	8769.4625
245.44663	9471.2625
249.70755	10041.2625
253.96539	10485.4625
258.22014	10935.4625
262.4718	11258.4625
266.72039	11520.5625
270.96589	11643.3625
275.20832	11664.5625
279.44768	11566.1625
283.68397	11457.8625
287.91719	11392.7625
292.14735	11343.4625
296.37445	11453.3625
300.59849	11654.3625
304.81948	11879.9625
309.03742	12020.7625
313.25231	11941.0625
317.46415	11655.0625
321.67296	11205.4625
325.87872	10767.1625
330.08145	10540.3625
334.28114	10517.4625
338.47781	10634.4625
342.67145	10790.4625
346.86207	11044.0625
351.04966	11347.3625
355.23424	11721.7625
359.4158	11957.1625
363.59435	12095.6625
367.76989	12158.2625
371.94243	12142.8625
376.11196	12183.5625
380.27849	12154.2625
384.44203	12149.6625
388.60257	12148.6625
392.76012	12190.2625
396.91468	12305.2625
401.06626	12514.6625
405.21485	12640.3625
409.36047	12488.9625
413.50311	12074.1625
417.64277	11751.8625
421.77947	11547.1625
425.9132	11530.6625
430.04396	11564.8625
434.17176	11662.1625
438.2966	11782.3625
442.41849	12003.5625
446.53742	12320.5625
450.6534	12654.8625
454.76644	12876.9625
458.87653	12939.5625
462.98368	12807.1625
467.08789	12659.0625
471.18916	12493.0625
475.2875	12319.1625
479.38291	12164.6625
483.4754	12009.2625
487.56496	11808.1625
491.6516	11683.1625
495.73531	11587.4625
499.81612	11555.6625
503.89401	11621.0625
507.96899	11668.1625
512.04106	11688.3625
516.11023	11737.9625
520.1765	11686.8625
524.23987	11666.3625
528.30034	11601.8625
532.35792	11519.9625
536.41261	11391.6625
540.46441	11242.2625
544.51333	11203.9625
548.55936	11336.6625
552.60252	11575.9625
556.64279	11864.2625
560.6802	12008.3625
564.71473	12098.2625
568.7464	12320.0625
572.7752	12651.8625
576.80114	12807.8625
580.82422	12892.5625
584.84444	12992.3625
588.86181	13192.2625
592.87633	13499.5625
596.888	13672.0625
600.89682	13738.2625
604.9028	14351.2625
608.90594	16408.2625
612.90624	18945.2625
616.90371	17915.2625
620.89834	13889.3625
624.89015	11904.9625
628.87913	11653.5625
632.86528	11819.7625
636.84862	11996.3625
640.82913	11854.5625
644.80683	11399.1625
648.78172	11045.9625
652.75379	10941.5625
656.72306	11151.9625
660.68952	11446.6625
664.65319	11369.9625
668.61405	10967.8625
672.57211	10773.9625
676.52738	10804.4625
680.47986	10824.7625
684.42955	10730.8625
688.37646	10661.5625
692.32058	10684.0625
696.26192	10788.5625
700.20048	10936.2625
704.13626	11007.0625
708.06928	10980.6625
711.99952	10936.2625
715.927	10891.6625
719.85171	10923.7625
723.77365	10944.0625
727.69284	10908.1625
731.60928	10818.5625
735.52295	10807.1625
739.43388	10826.9625
743.34206	10866.5625
747.24749	10880.3625
751.15017	10961.6625
755.05012	11076.1625
758.94733	11521.1625
762.8418	12481.8625
766.73354	14170.7625
770.62254	15840.4625
774.50882	16401.0625
778.39237	15501.5625
782.27321	13751.1625
786.15132	12231.3625
790.02671	11295.2625
793.89938	10854.1625
797.76935	10661.2625
801.6366	10561.6625
805.50115	10514.4625
809.36299	10493.2625
813.22213	10436.6625
817.07857	10397.8625
820.93231	10366.6625
824.78336	10320.6625
828.63172	10311.4625
832.47738	10269.8625
836.32036	10262.2625
840.16066	10243.4625
843.99827	10255.7625
847.8332	10219.4625
851.66546	10227.0625
855.49504	10230.0625
859.32195	10224.4625
863.1462	10192.1625
866.96777	10186.7625
870.78668	10174.3625
874.60293	10174.5625
878.41652	10210.2625
882.22745	10249.9625
886.03573	10304.8625
889.84136	10349.0625
893.64433	10272.3625
897.44466	10239.4625
901.24235	10174.5625
905.0374	10111.8625
908.8298	10088.2625
912.61957	10056.7625
916.40671	10098.7625
920.19121	10237.1625
923.97308	10314.1625
927.75233	10324.9625
931.52895	10281.6625
935.30295	10155.2625
939.07433	9912.6625
942.84309	9739.6625
946.60924	9665.1625
950.37278	9605.3625
954.13371	9560.9625
957.89203	9539.5625
961.64774	9536.3625
965.40086	9524.4625
969.15137	9493.8625
972.89929	9456.2625
976.64461	9437.5625
980.38733	9422.5625
984.12747	9419.7625
987.86502	9473.6625
991.59999	9524.3625
995.33237	9641.7625
999.06217	9840.2625
1002.78939	10080.4625
1006.51404	10320.1625
1010.23611	10550.5625
1013.95561	10665.1625
1017.67255	10643.9625
1021.38692	10525.2625
1025.09872	10318.8625
1028.80796	10176.3625
1032.51465	10160.7625
1036.21877	10241.1625
1039.92035	10287.6625
1043.61937	10325.3625
1047.31584	10297.1625
1051.00976	10276.4625
1054.70114	10300.1625
1058.38998	10324.5625
1062.07627	10405.5625
1065.76003	10488.5625
1069.44126	10557.9625
1073.11995	10699.9625
1076.79611	10821.7625
1080.46974	10965.9625
1084.14085	11170.1625
1087.80943	11334.8625
1091.47549	11449.8625
1095.13903	11347.6625
1098.80005	11088.3625
1102.45857	10866.8625
1106.11456	10723.3625
1109.76805	10730.1625
1113.41903	10864.0625
1117.06751	11133.5625
1120.71348	11444.3625
1124.35696	11807.6625
1127.99793	12096.0625
1131.63641	12100.6625
1135.2724	11851.7625
1138.90589	11542.2625
1142.5369	11356.0625
1146.16542	11244.2625
1149.79145	11177.3625
1153.415	11195.2625
1157.03607	11316.1625
1160.65467	11577.7625
1164.27079	12012.1625
1167.88443	12711.2625
1171.49561	13707.1625
1175.10432	15125.9625
1178.71056	16950.6625
1182.31434	18511.8625
1185.91565	19100.2625
1189.51451	18747.4625
1193.11091	17872.1625
1196.70485	16799.0625
1200.29634	15873.9625
1203.88538	15079.7625
1207.47197	14319.3625
1211.05612	13607.0625
1214.63782	13165.1625
1218.21708	12938.1625
1221.79391	12872.0625
1225.36829	12868.9625
1228.94024	12759.6625
1232.50976	12551.5625
1236.07685	12315.8625
1239.6415	12199.1625
1243.20374	12186.8625
1246.76355	12208.5625
1250.32093	12346.1625
1253.8759	12584.5625
1257.42845	12900.0625
1260.97859	13263.8625
1264.52631	13711.1625
1268.07163	14149.2625
1271.61453	14577.1625
1275.15503	14968.0625
1278.69312	15264.5625
1282.22882	15584.6625
1285.76211	15976.0625
1289.29301	16532.2625
1292.82151	17204.2625
1296.34761	18031.7625
1299.87133	19167.3625
1303.39266	20639.2625
1306.9116	22465.5625
1310.42815	24372.1625
1313.94233	25314.2625
1317.45412	24912.4625
1320.96354	23822.5625
1324.47058	22564.7625
1327.97525	21417.9625
1331.47754	20571.7625
1334.97747	20120.4625
1338.47502	20066.7625
1341.97022	20291.2625
1345.46305	20832.2625
1348.95352	21496.9625
1352.44163	22414.8625
1355.92738	23893.6625
1359.41078	26155.0625
1362.89183	28319.1625
1366.37053	27768.0625
1369.84688	24362.1625
1373.32088	20648.8625
1376.79254	18262.1625
1380.26186	17128.3625
1383.72883	16595.3625
1387.19347	16234.1625
1390.65578	15899.3625
1394.11575	15603.3625
1397.57339	15473.3625
1401.0287	15554.0625
1404.48168	15607.3625
1407.93234	15554.3625
1411.38068	15313.7625
1414.82669	14976.6625
1418.27039	14547.9625
1421.71177	14043.3625
1425.15083	13595.7625
1428.58758	13353.8625
1432.02203	13389.8625
1435.45416	13617.4625
1438.88399	13889.9625
1442.31151	14085.4625
1445.73673	14244.4625
1449.15965	14416.2625
1452.58027	14515.8625
1455.9986	14555.1625
1459.41463	14693.9625
1462.82837	14989.0625
1466.23982	15425.1625
1469.64898	15852.1625
1473.05586	16219.6625
1476.46045	16454.6625
1479.86276	16615.6625
1483.26279	16650.7625
1486.66054	16819.5625
1490.05602	17169.2625
1493.44922	17747.1625
1496.84016	18595.3625
1500.22882	19944.8625
1503.61521	21868.7625
1506.99934	23833.5625
1510.38121	25144.6625
1513.76081	25041.2625
1517.13816	23370.8625
1520.51324	21143.0625
1523.88607	19247.5625
1527.25665	18114.8625
1530.62498	17532.8625
1533.99105	17179.7625
1537.35488	16805.3625
1540.71647	16422.1625
1544.07581	15935.6625
1547.4329	15530.8625
1550.78776	15174.9625
1554.14038	15023.3625
1557.49077	15048.1625
1560.83892	15190.4625
1564.18484	15538.2625
1567.52853	15977.8625
1570.86999	16340.5625
1574.20922	16659.7625
1577.54624	16659.2625
1580.88103	16056.2625
1584.2136	15283.2625
1587.54395	14996.4625
1590.87208	15327.4625
1594.19801	16178.2625
1597.52172	17246.6625
1600.84321	17610.4625
1604.16251	17001.6625
1607.47959	15892.3625
1610.79447	14742.8625
1614.10715	13615.9625
1617.41763	12624.3625
1620.7259	11919.0625
1624.03199	11552.2625
1627.33587	11480.8625
1630.63757	11766.8625
1633.93707	12434.6625
1637.23439	13626.6625
1640.52951	15533.4625
1643.82246	17991.4625
1647.11321	20369.0625
1650.40179	21465.1625
1653.68819	20338.4625
1656.97241	17599.3625
1660.25446	14621.8625
1663.53433	12469.0625
1666.81203	11127.7625
1670.08756	10321.0625
1673.36092	9808.6625
1676.63211	9489.7625
1679.90115	9241.3625
1683.16801	9070.4625
1686.43272	8908.2625
1689.69527	8816.8625
1692.95567	8734.5625
1696.2139	8668.0625
1699.46999	8614.7625
1702.72392	8553.3625
1705.97571	8506.8625
1709.22535	8474.6625
1712.47284	8488.6625
1715.71819	8450.8625
1718.96139	8377.1625
1722.20246	8362.5625
1725.44139	8303.4625
1728.67818	8242.3625
1731.91284	8170.1625
1735.14537	8117.7625
1738.37576	8075.1625
1741.60403	8040.3625
1744.83017	8001.0625
1748.05418	7969.5625
1751.27607	7955.3625
1754.49584	7917.7625
1757.71349	7880.1625
1760.92903	7884.4625
1764.14244	7886.7625
1767.35375	7878.9625
1770.56294	7847.6625
1773.77002	7790.5625
1776.97499	7763.3625
1780.17785	7768.4625
1783.37861	7740.1625
1786.57727	7705.4625
1789.77382	7711.5625
1792.96828	7707.5625
1796.16064	7673.4625
1799.3509	7645.3625
1802.53907	7644.7625
1805.72514	7607.5625
1808.90913	7578.6625
1812.09102	7546.4625
1815.27083	7535.4625
1818.44856	7516.4625
1821.6242	7479.5625
1824.79776	7470.1625
1827.96924	7424.0625
1831.13864	7438.6625
1834.30597	7438.1625
1837.47122	7421.2625
1840.6344	7410.9625
1843.7955	7411.2625
1846.95454	7382.4625
1850.11151	7380.3625
1853.26642	7387.0625
1856.41926	7384.3625
1859.57004	7358.1625
1862.71876	7361.7625
1865.86542	7343.7625
1869.01003	7350.0625
1872.15258	7332.8625
1875.29308	7304.7625
1878.43152	7304.4625
1881.56792	7309.6625
1884.70227	7295.6625
1887.83457	7296.9625
1890.96482	7295.5625
1894.09304	7257.0625
1897.21921	7267.0625
1900.34335	7263.7625
1903.46544	7257.4625
1906.58551	7260.4625
1909.70353	7242.8625
1912.81953	7227.8625
1915.93349	7212.8625
1919.04543	7201.3625
1922.15534	7174.7625
1925.26322	7182.1625
1928.36908	7157.9625
1931.47292	7127.4625
1934.57473	7110.2625
1937.67453	7110.5625
1940.77232	7083.5625
1943.86808	7040.4625
1946.96184	7035.4625
1950.05358	6999.5625
1953.14331	6974.8625
1956.23103	6945.2625
1959.31675	6915.6625
1962.40046	6923.7625
1965.48217	6900.5625
1968.56188	6894.1625
1971.63959	6874.9625
1974.7153	6836.9625
1977.78901	6830.9625
1980.86073	6812.3625
1983.93046	6774.1625
1986.99819	6759.2625
1990.06394	6710.7625
1993.1277	6704.6625
1996.18947	6679.7625
1999.24925	6648.9625
2002.30706	6632.6625
2005.36288	6601.7625
2008.41672	6586.0625
2011.46859	6563.2625
2014.51848	6560.2625
2017.56639	6535.2625
2020.61233	6485.9625
2023.6563	6488.5625
2026.6983	6463.2625
2029.73833	6451.5625
2032.7764	6444.1625
2035.8125	6415.9625
2038.84664	6391.7625
2041.87881	6379.6625
2044.90903	6374.9625
2047.93729	6358.6625
2050.96359	6353.6625
2053.98794	6355.4625
2057.01034	6334.4625
2060.03078	6315.2625
2063.04927	6300.5625
2066.06582	6292.6625
2069.08042	6315.0625
2072.09307	6299.9625
2075.10378	6285.1625
2078.11255	6285.2625
2081.11938	6288.5625
2084.12426	6289.0625
2087.12722	6273.2625
2090.12824	6272.4625
2093.12732	6271.1625
2096.12447	6280.9625
2099.11969	6280.5625
2102.11299	6267.8625
2105.10435	6280.1625
2108.09379	6281.7625
2111.08131	6290.0625
2114.0669	6289.1625
2117.05057	6311.6625
2120.03233	6289.8625
2123.01216	6309.1625
2125.99008	6330.2625
2128.96609	6314.7625
2131.94018	6310.0625
2134.91236	6302.4625
2137.88263	6297.4625
2140.851	6302.8625
2143.81746	6305.0625
2146.78201	6286.5625
2149.74466	6311.4625
2152.7054	6297.5625
2155.66425	6281.3625
2158.6212	6275.9625
2161.57625	6262.9625
2164.52941	6259.4625
2167.48067	6255.5625
2170.43004	6256.3625
2173.37752	6267.6625
2176.32311	6257.1625
2179.26681	6252.1625
2182.20863	6241.3625
2185.14856	6255.5625
2188.08661	6247.7625
2191.02278	6248.7625
2193.95707	6235.2625
2196.88948	6213.2625
2199.82001	6223.5625
2202.74867	6209.1625
2205.67545	6217.4625
2208.60037	6210.7625
2211.52341	6180.1625
2214.44458	6180.3625
2217.36388	6164.3625
2220.28132	6161.0625
2223.1969	6151.4625
2226.11061	6133.8625
2229.02246	6116.0625
2231.93245	6102.6625
2234.84058	6088.3625
2237.74686	6092.0625
2240.65128	6070.1625
2243.55385	6085.5625
2246.45456	6052.5625
2249.35343	6060.8625
2252.25044	6050.7625
2255.14561	6041.3625
2258.03893	6042.6625
2260.93041	6007.1625
2263.82004	5997.2625
2266.70783	5988.0625
2269.59378	5978.9625
2272.4779	5964.4625
2275.36017	5954.6625
2278.24061	5942.2625
2281.11922	5920.5625
2283.996	5917.9625
2286.87094	5890.9625
2289.74405	5883.1625
2292.61534	5900.5625
2295.4848	5881.3625
2298.35243	5865.5625
2301.21824	5868.0625
2304.08223	5874.2625
2306.94439	5850.5625
2309.80474	5859.2625
2312.66327	5861.0625
2315.51999	5856.1625
2318.37489	5839.0625
2321.22797	5835.2625
2324.07925	5826.8625
2326.92871	5824.9625
2329.77637	5827.8625
2332.62222	5804.3625
2335.46626	5796.1625
2338.3085	5786.5625
2341.14893	5801.3625
2343.98756	5806.2625
2346.8244	5799.4625
2349.65943	5807.8625
2352.49267	5820.8625
2355.32411	5827.1625
2358.15376	5820.4625
2360.98161	5808.0625
2363.80768	5826.6625
2366.63195	5826.4625
2369.45444	5828.5625
2372.27514	5815.1625
2375.09405	5809.3625
2377.91118	5792.1625
2380.72652	5766.8625
2383.54009	5740.1625
2386.35187	5742.3625
2389.16188	5706.6625
2391.97011	5686.9625
2394.77657	5701.6625
2397.58125	5686.4625
2400.38416	5658.9625
2403.18529	5655.7625
2405.98466	5637.1625
2408.78226	5616.2625
2411.57809	5620.5625
2414.37216	5615.0625
2417.16446	5604.5625
2419.955	5597.5625
2422.74378	5611.0625
2425.5308	5591.5625
2428.31606	5574.8625
2431.09956	5582.1625
2433.88131	5578.2625
2436.6613	5570.5625
2439.43954	5568.7625
2442.21603	5589.9625
2444.99077	5562.8625
2447.76377	5583.5625
2450.53501	5581.9625
2453.30451	5578.6625
2456.07226	5557.9625
2458.83827	5562.6625
2461.60254	5560.4625
2464.36507	5563.3625
2467.12586	5563.3625
2469.88492	5560.9625
2472.64224	5570.5625
2475.39782	5578.4625
2478.15167	5579.7625
2480.90379	5584.8625
2483.65417	5601.7625
2486.40283	5589.4625
2489.14976	5590.0625
2491.89497	5616.5625
2494.63845	5618.4625
2497.3802	5608.7625
2500.12024	5577.0625
2502.85855	5587.6625
2505.59514	5577.1625
2508.33002	5561.4625
2511.06318	5547.2625
2513.79462	5519.3625
2516.52435	5499.7625
2519.25237	5504.5625
2521.97867	5500.9625
2524.70327	5487.9625
2527.42616	5484.2625
2530.14734	5501.5625
2532.86681	5473.3625
2535.58458	5485.7625
2538.30065	5459.4625
2541.01501	5476.9625
2543.72768	5457.6625
2546.43864	5455.1625
2549.14791	5451.3625
2551.85548	5444.8625
2554.56136	5445.5625
2557.26554	5416.9625
2559.96803	5406.7625
2562.66883	5406.8625
2565.36794	5400.2625
2568.06536	5406.2625
2570.7611	5391.1625
2573.45514	5373.6625
2576.14751	5385.4625
2578.83819	5384.2625
2581.52719	5375.7625
2584.21451	5355.9625
2586.90015	5363.9625
2589.58411	5364.7625
2592.2664	5344.6625
2594.94701	5362.7625
2597.62594	5341.4625
2600.30321	5333.9625
2602.9788	5336.8625
2605.65273	5327.6625
2608.32498	5309.6625
2610.99557	5314.5625
2613.66449	5318.3625
2616.33175	5320.3625
2618.99734	5333.7625
2621.66128	5303.6625
2624.32355	5308.9625
2626.98416	5315.7625
2629.64311	5317.0625
2632.30041	5303.9625
2634.95605	5307.9625
2637.61004	5307.9625
2640.26238	5294.7625
2642.91306	5289.4625
2645.56209	5283.0625
2648.20948	5273.2625
2650.85521	5282.8625
2653.4993	5271.3625
2656.14175	5288.4625
2658.78255	5291.5625
2661.42171	5292.1625
2664.05923	5309.0625
2666.6951	5293.0625
2669.32934	5300.0625
2671.96194	5309.9625
2674.59291	5322.3625
2677.22224	5300.7625
2679.84993	5308.4625
2682.476	5293.5625
2685.10043	5297.1625
2687.72324	5269.8625
2690.34441	5268.2625
2692.96396	5285.9625
2695.58188	5273.8625
2698.19818	5261.7625
2700.81285	5288.2625
2703.4259	5287.5625
2706.03733	5294.9625
2708.64714	5297.8625
2711.25533	5295.9625
2713.86191	5300.0625
2716.46687	5313.7625
2719.07021	5315.4625
2721.67194	5309.4625
2724.27206	5316.4625
2726.87057	5304.2625
2729.46747	5303.9625
2732.06276	5292.8625
2734.65644	5299.0625
2737.24852	5300.7625
2739.83899	5280.1625
2742.42786	5291.3625
2745.01513	5281.9625
2747.60079	5267.9625
2750.18486	5238.7625
2752.76733	5253.2625
2755.3482	5253.7625
2757.92747	5255.7625
2760.50515	5254.9625
2763.08123	5229.8625
2765.65573	5242.8625
2768.22863	5258.8625
2770.79994	5226.3625
2773.36967	5239.2625
2775.9378	5240.0625
2778.50435	5225.6625
2781.06932	5213.3625
2783.6327	5251.4625
2786.1945	5236.5625
2788.75471	5244.7625
2791.31335	5211.9625
2793.87041	5206.9625
2796.42589	5195.3625
2798.97979	5200.9625
2801.53212	5200.9625
2804.08288	5187.1625
2806.63206	5185.4625
2809.17967	5177.6625
2811.72571	5163.5625
2814.27018	5174.6625
2816.81308	5181.7625
2819.35442	5162.1625
2821.89419	5159.3625
2824.43239	5145.3625
2826.96904	5134.6625
2829.50412	5137.3625
2832.03763	5132.2625
2834.56959	5126.5625
2837.1	5115.8625
2839.62884	5141.4625
2842.15613	5127.8625
2844.68186	5137.0625
2847.20604	5160.7625
2849.72867	5157.7625
2852.24974	5159.9625
2854.76927	5132.4625
2857.28724	5145.7625
2859.80367	5155.2625
2862.31855	5163.6625
2864.83189	5141.1625
2867.34368	5145.9625
2869.85393	5143.5625
2872.36264	5154.4625
2874.8698	5138.4625
2877.37543	5153.4625
2879.87952	5148.4625
2882.38207	5161.5625
2884.88308	5134.3625
2887.38256	5139.5625
2889.88051	5146.3625
2892.37692	5129.5625
2894.8718	5146.3625
2897.36515	5159.4625
2899.85698	5148.5625
2902.34727	5142.5625
2904.83604	5151.5625
2907.32328	5161.5625
2909.809	5174.6625
2912.29319	5182.7625
2914.77587	5175.2625
2917.25702	5163.5625
2919.73665	5159.3625
2922.21476	5177.0625
2924.69136	5162.6625
2927.16644	5148.5625
2929.64	5155.1625
2932.11205	5120.6625
2934.58258	5101.7625
2937.05161	5111.2625
2939.51912	5101.7625
2941.98513	5100.1625
2944.44962	5078.1625
2946.91261	5076.4625
2949.37409	5062.7625
2951.83407	5064.0625
2954.29254	5072.3625
2956.74951	5070.3625
2959.20498	5076.0625
2961.65895	5049.2625
2964.11142	5039.9625
2966.56239	5041.0625
2969.01186	5039.2625
2971.45984	5003.5625
2973.90632	5014.7625
2976.35131	5010.0625
2978.7948	4983.7625
2981.23681	4978.8625
2983.67732	4982.8625
2986.11635	4960.8625
2988.55388	4956.1625
2990.98993	4952.2625
2993.4245	4917.3625
2995.85758	4913.9625
2998.28917	4911.0625
3000.71928	4897.8625
3003.14791	4911.0625
3005.57506	4908.6625
3008.00073	4901.7625
3010.42493	4877.8625
3012.84764	4863.1625
3015.26888	4871.3625
3017.68865	4872.7625
3020.10694	4874.6625
3022.52376	4848.8625
3024.9391	4845.0625
3027.35298	4829.7625
3029.76539	4838.4625
3032.17632	4814.1625
3034.5858	4811.3625
3036.9938	4806.6625
3039.40034	4807.9625
3041.80542	4822.9625
3044.20903	4817.3625
3046.61118	4815.6625
3049.01187	4787.9625
3051.4111	4805.4625
3053.80888	4771.4625
3056.20519	4756.4625
3058.60005	4745.5625
3060.99345	4759.0625
3063.3854	4749.4625
3065.7759	4719.6625
3068.16494	4728.3625
3070.55254	4719.2625
3072.93868	4712.7625
3075.32338	4714.7625
3077.70662	4684.2625
3080.08842	4673.6625
3082.46878	4680.2625
