Data from AgNP_FTO_APTES_UA_100uM_CRN_50uM_R6G_10uM_NaF_0.1M_Addition_RamanShift__16__17-26-30-540.txt Node

Date: Thu Mar 24 17:26:30 GMT 2022
User: TCL
Spectrometer: QEP01345
Trigger mode: 4
Integration Time (sec): 7.000000E0
Scans to average: 10
Electric dark correction enabled: true
Nonlinearity correction enabled: false
Boxcar width: 0
XAxis mode: Raman Shifts
Number of Pixels in Spectrum: 1044
>>>>>Begin Spectral Data<<<<<
46.04893	-1.325
50.45542	0.575
54.85868	-0.425
59.25871	-0.425
63.6555	34.775
68.04907	41.275
72.43941	41.175
76.82654	38.675
81.21044	42.275
85.59113	46.975
89.96862	47.475
94.34289	43.375
98.71396	50.575
103.08183	50.175
107.4465	52.075
111.80798	52.575
116.16626	50.175
120.52136	54.175
124.87327	55.375
129.222	58.975
133.56755	62.275
137.90993	70.575
142.24913	78.075
146.58517	83.675
150.91804	98.875
155.24774	119.875
159.57429	145.075
163.89768	191.075
168.21792	253.175
172.53501	347.575
176.84895	486.975
181.15975	689.375
185.46741	974.175
189.77193	1346.875
194.07331	1791.975
198.37157	2337.575
202.6667	2889.575
206.9587	3448.875
211.24758	4005.175
215.53334	4558.775
219.81599	5141.275
224.09553	5818.475
228.37195	6532.675
232.64527	7345.075
236.91549	8217.675
241.18261	9035.475
245.44663	9810.375
249.70755	10443.775
253.96539	11015.675
258.22014	11480.575
262.4718	11859.875
266.72039	12157.675
270.96589	12303.875
275.20832	12350.375
279.44768	12282.275
283.68397	12145.875
287.91719	12090.275
292.14735	12019.875
296.37445	12078.675
300.59849	12199.875
304.81948	12385.575
309.03742	12436.475
313.25231	12377.675
317.46415	12134.875
321.67296	11754.875
325.87872	11405.575
330.08145	11239.975
334.28114	11247.075
338.47781	11348.275
342.67145	11493.275
346.86207	11721.075
351.04966	11990.475
355.23424	12291.475
359.4158	12524.975
363.59435	12659.175
367.76989	12741.175
371.94243	12795.275
376.11196	12855.575
380.27849	12880.975
384.44203	12891.775
388.60257	12933.675
392.76012	13008.075
396.91468	13136.975
401.06626	13320.975
405.21485	13491.075
409.36047	13355.075
413.50311	13059.575
417.64277	12732.975
421.77947	12609.775
425.9132	12559.375
430.04396	12629.375
434.17176	12684.775
438.2966	12762.875
442.41849	12947.075
446.53742	13146.575
450.6534	13348.875
454.76644	13536.075
458.87653	13586.475
462.98368	13538.975
467.08789	13487.175
471.18916	13400.675
475.2875	13251.875
479.38291	13124.775
483.4754	13006.375
487.56496	12895.375
491.6516	12823.275
495.73531	12798.675
499.81612	12755.775
503.89401	12877.775
507.96899	12898.275
512.04106	12958.475
516.11023	13003.275
520.1765	12991.075
524.23987	12916.575
528.30034	12896.275
532.35792	12790.175
536.41261	12695.775
540.46441	12637.875
544.51333	12602.475
548.55936	12717.575
552.60252	12914.475
556.64279	13130.075
560.6802	13227.675
564.71473	13280.975
568.7464	13382.375
572.7752	13574.575
576.80114	13664.775
580.82422	13772.975
584.84444	13872.375
588.86181	13954.075
592.87633	14034.075
596.888	14133.175
600.89682	14291.675
604.9028	14955.375
608.90594	16787.775
612.90624	19029.375
616.90371	18249.175
620.89834	14880.875
624.89015	13244.575
628.87913	12978.775
632.86528	13175.775
636.84862	13402.775
640.82913	13319.875
644.80683	12963.675
648.78172	12664.175
652.75379	12578.475
656.72306	12725.875
660.68952	13015.275
664.65319	12966.375
668.61405	12619.675
672.57211	12505.475
676.52738	12568.875
680.47986	12545.475
684.42955	12449.875
688.37646	12389.875
692.32058	12406.175
696.26192	12522.175
700.20048	12614.375
704.13626	12730.775
708.06928	12747.075
711.99952	12670.875
715.927	12616.175
719.85171	12634.975
723.77365	12659.375
727.69284	12630.575
731.60928	12553.475
735.52295	12491.375
739.43388	12491.275
743.34206	12541.775
747.24749	12573.575
751.15017	12606.375
755.05012	12750.275
758.94733	13094.875
762.8418	13835.075
766.73354	15228.875
770.62254	16647.275
774.50882	17141.875
778.39237	16387.075
782.27321	14988.575
786.15132	13772.975
790.02671	13007.075
793.89938	12591.475
797.76935	12387.175
801.6366	12347.075
805.50115	12262.675
809.36299	12259.275
813.22213	12240.075
817.07857	12200.875
820.93231	12185.275
824.78336	12143.475
828.63172	12127.275
832.47738	12109.375
836.32036	12070.475
840.16066	12068.875
843.99827	12056.875
847.8332	12088.675
851.66546	12026.275
855.49504	12063.275
859.32195	12075.175
863.1462	12071.475
866.96777	12066.175
870.78668	12043.875
874.60293	12076.875
878.41652	12070.875
882.22745	12131.875
886.03573	12164.375
889.84136	12194.475
893.64433	12164.575
897.44466	12113.775
901.24235	12035.675
905.0374	12025.375
908.8298	11976.375
912.61957	11942.375
916.40671	11976.775
920.19121	12067.575
923.97308	12124.575
927.75233	12116.075
931.52895	12062.575
935.30295	11946.775
939.07433	11780.075
942.84309	11649.075
946.60924	11537.675
950.37278	11494.775
954.13371	11465.275
957.89203	11439.675
961.64774	11442.075
965.40086	11442.675
969.15137	11385.275
972.89929	11360.075
976.64461	11311.975
980.38733	11300.875
984.12747	11322.275
987.86502	11354.175
991.59999	11416.275
995.33237	11466.275
999.06217	11550.875
1002.78939	11712.275
1006.51404	11867.875
1010.23611	12038.875
1013.95561	12149.475
1017.67255	12142.275
1021.38692	12076.575
1025.09872	11975.175
1028.80796	11839.575
1032.51465	11753.575
1036.21877	11754.475
1039.92035	11826.575
1043.61937	11850.275
1047.31584	11937.875
1051.00976	11980.575
1054.70114	12036.375
1058.38998	12082.075
1062.07627	12137.375
1065.76003	12227.675
1069.44126	12336.375
1073.11995	12488.075
1076.79611	12648.275
1080.46974	12751.775
1084.14085	12885.075
1087.80943	12984.375
1091.47549	13071.775
1095.13903	13017.375
1098.80005	12857.075
1102.45857	12658.675
1106.11456	12536.575
1109.76805	12459.675
1113.41903	12535.075
1117.06751	12720.575
1120.71348	12963.475
1124.35696	13227.875
1127.99793	13480.475
1131.63641	13521.175
1135.2724	13343.875
1138.90589	13107.575
1142.5369	12898.375
1146.16542	12766.275
1149.79145	12655.175
1153.415	12633.375
1157.03607	12681.675
1160.65467	12876.575
1164.27079	13214.975
1167.88443	13708.475
1171.49561	14415.675
1175.10432	15451.275
1178.71056	16785.775
1182.31434	18006.675
1185.91565	18565.775
1189.51451	18425.275
1193.11091	17939.675
1196.70485	17209.475
1200.29634	16462.775
1203.88538	15835.675
1207.47197	15197.975
1211.05612	14560.275
1214.63782	14136.875
1218.21708	13828.275
1221.79391	13694.675
1225.36829	13599.475
1228.94024	13572.375
1232.50976	13500.875
1236.07685	13417.575
1239.6415	13377.075
1243.20374	13409.575
1246.76355	13396.575
1250.32093	13518.075
1253.8759	13659.575
1257.42845	13912.675
1260.97859	14236.575
1264.52631	14575.575
1268.07163	14915.375
1271.61453	15230.375
1275.15503	15495.575
1278.69312	15633.075
1282.22882	15815.475
1285.76211	16059.475
1289.29301	16406.175
1292.82151	16857.775
1296.34761	17399.175
1299.87133	18104.175
1303.39266	19089.975
1306.9116	20346.175
1310.42815	21623.375
1313.94233	22174.675
1317.45412	21905.975
1320.96354	21166.975
1324.47058	20373.575
1327.97525	19603.575
1331.47754	19007.975
1334.97747	18749.975
1338.47502	18863.975
1341.97022	19201.775
1345.46305	19803.475
1348.95352	20481.275
1352.44163	21328.475
1355.92738	22421.475
1359.41078	24031.475
1362.89183	25619.275
1366.37053	25288.575
1369.84688	22683.975
1373.32088	19722.975
1376.79254	17811.175
1380.26186	16776.875
1383.72883	16232.975
1387.19347	15850.075
1390.65578	15493.475
1394.11575	15151.775
1397.57339	14844.075
1401.0287	14735.875
1404.48168	14712.675
1407.93234	14608.075
1411.38068	14505.675
1414.82669	14355.275
1418.27039	14108.975
1421.71177	13853.975
1425.15083	13543.775
1428.58758	13393.775
1432.02203	13373.175
1435.45416	13501.575
1438.88399	13611.775
1442.31151	13751.075
1445.73673	13863.875
1449.15965	13948.675
1452.58027	14002.175
1455.9986	14024.675
1459.41463	14117.175
1462.82837	14290.375
1466.23982	14631.775
1469.64898	14972.675
1473.05586	15237.875
1476.46045	15455.275
1479.86276	15603.975
1483.26279	15759.575
1486.66054	15980.375
1490.05602	16329.875
1493.44922	16894.675
1496.84016	17748.375
1500.22882	19133.875
1503.61521	20904.575
1506.99934	22711.075
1510.38121	23785.875
1513.76081	23684.375
1517.13816	22317.875
1520.51324	20430.575
1523.88607	18836.075
1527.25665	17798.175
1530.62498	17235.775
1533.99105	16902.475
1537.35488	16569.975
1540.71647	16226.875
1544.07581	15868.375
1547.4329	15528.175
1550.78776	15265.475
1554.14038	15095.375
1557.49077	15147.475
1560.83892	15261.975
1564.18484	15595.275
1567.52853	15954.975
1570.86999	16311.375
1574.20922	16514.375
1577.54624	16456.575
1580.88103	15946.275
1584.2136	15230.875
1587.54395	14851.275
1590.87208	14870.975
1594.19801	15361.775
1597.52172	16032.275
1600.84321	16280.775
1604.16251	15893.375
1607.47959	15284.375
1610.79447	14605.775
1614.10715	13886.675
1617.41763	13172.375
1620.7259	12642.075
1624.03199	12298.175
1627.33587	12226.375
1630.63757	12321.975
1633.93707	12720.475
1637.23439	13455.075
1640.52951	14673.375
1643.82246	16307.575
1647.11321	18034.375
1650.40179	19070.875
1653.68819	18508.375
1656.97241	16657.675
1660.25446	14552.075
1663.53433	13000.575
1666.81203	11932.875
1670.08756	11337.875
1673.36092	10930.475
1676.63211	10666.775
1679.90115	10485.775
1683.16801	10337.675
1686.43272	10242.275
1689.69527	10139.175
1692.95567	10052.775
1696.2139	10017.775
1699.46999	9979.575
1702.72392	9925.475
1705.97571	9916.375
1709.22535	9858.175
1712.47284	9849.675
1715.71819	9804.475
1718.96139	9789.775
1722.20246	9715.975
1725.44139	9678.475
1728.67818	9613.575
1731.91284	9568.675
1735.14537	9504.575
1738.37576	9472.875
1741.60403	9436.475
1744.83017	9378.175
1748.05418	9364.475
1751.27607	9349.975
1754.49584	9357.775
1757.71349	9311.575
1760.92903	9296.975
1764.14244	9299.675
1767.35375	9279.075
1770.56294	9252.575
1773.77002	9203.875
1776.97499	9188.375
1780.17785	9158.075
1783.37861	9165.475
1786.57727	9133.475
1789.77382	9102.575
1792.96828	9077.375
1796.16064	9061.775
1799.3509	9028.375
1802.53907	9032.575
1805.72514	8995.275
1808.90913	8967.675
1812.09102	8952.375
1815.27083	8927.175
1818.44856	8908.475
1821.6242	8890.475
1824.79776	8851.175
1827.96924	8830.175
1831.13864	8817.975
1834.30597	8806.975
1837.47122	8801.475
1840.6344	8774.175
1843.7955	8788.875
1846.95454	8739.575
1850.11151	8745.475
1853.26642	8736.775
1856.41926	8745.475
1859.57004	8731.275
1862.71876	8684.375
1865.86542	8683.575
1869.01003	8687.375
1872.15258	8678.175
1875.29308	8673.275
1878.43152	8632.675
1881.56792	8625.875
1884.70227	8631.675
1887.83457	8637.375
1890.96482	8619.475
1894.09304	8596.775
1897.21921	8560.775
1900.34335	8552.475
1903.46544	8552.575
1906.58551	8536.075
1909.70353	8553.375
1912.81953	8523.975
1915.93349	8520.475
1919.04543	8503.575
1922.15534	8465.475
1925.26322	8421.275
1928.36908	8427.375
1931.47292	8395.475
1934.57473	8385.575
1937.67453	8346.575
1940.77232	8343.575
1943.86808	8298.375
1946.96184	8286.975
1950.05358	8252.375
1953.14331	8215.375
1956.23103	8189.575
1959.31675	8164.375
1962.40046	8158.575
1965.48217	8126.375
1968.56188	8112.675
1971.63959	8087.875
1974.7153	8055.275
1977.78901	8033.575
1980.86073	8012.775
1983.93046	7981.475
1986.99819	7936.775
1990.06394	7933.375
1993.1277	7878.975
1996.18947	7866.375
1999.24925	7860.075
2002.30706	7816.375
2005.36288	7786.675
2008.41672	7750.575
2011.46859	7725.475
2014.51848	7723.375
2017.56639	7681.875
2020.61233	7634.175
2023.6563	7643.375
2026.6983	7609.275
2029.73833	7605.775
2032.7764	7561.475
2035.8125	7538.075
2038.84664	7528.175
2041.87881	7510.275
2044.90903	7496.675
2047.93729	7460.275
2050.96359	7471.275
2053.98794	7428.075
2057.01034	7424.775
2060.03078	7422.675
2063.04927	7407.475
2066.06582	7382.975
2069.08042	7384.575
2072.09307	7394.475
2075.10378	7385.075
2078.11255	7376.075
2081.11938	7373.675
2084.12426	7397.575
2087.12722	7358.675
2090.12824	7367.875
2093.12732	7354.875
2096.12447	7359.375
2099.11969	7358.975
2102.11299	7363.075
2105.10435	7359.875
2108.09379	7357.675
2111.08131	7362.975
2114.0669	7365.675
2117.05057	7395.775
2120.03233	7366.775
2123.01216	7383.175
2125.99008	7382.575
2128.96609	7387.175
2131.94018	7385.875
2134.91236	7388.575
2137.88263	7377.275
2140.851	7395.475
2143.81746	7394.075
2146.78201	7377.175
2149.74466	7367.775
2152.7054	7361.575
2155.66425	7354.075
2158.6212	7351.975
2161.57625	7339.075
2164.52941	7334.075
2167.48067	7344.775
2170.43004	7317.675
2173.37752	7337.775
2176.32311	7307.775
2179.26681	7315.975
2182.20863	7317.175
2185.14856	7308.575
2188.08661	7307.175
2191.02278	7296.575
2193.95707	7293.875
2196.88948	7274.675
2199.82001	7275.775
2202.74867	7268.275
2205.67545	7269.775
2208.60037	7264.975
2211.52341	7232.375
2214.44458	7216.875
2217.36388	7189.375
2220.28132	7180.875
2223.1969	7164.775
2226.11061	7149.175
2229.02246	7116.475
2231.93245	7131.575
2234.84058	7104.875
2237.74686	7088.175
2240.65128	7081.575
2243.55385	7055.475
2246.45456	7064.175
2249.35343	7048.675
2252.25044	7052.775
2255.14561	7030.675
2258.03893	7035.275
2260.93041	7025.575
2263.82004	6975.775
2266.70783	6951.875
2269.59378	6954.475
2272.4779	6945.975
2275.36017	6937.675
2278.24061	6908.275
2281.11922	6892.175
2283.996	6863.875
2286.87094	6883.775
2289.74405	6860.975
2292.61534	6846.575
2295.4848	6834.975
2298.35243	6822.275
2301.21824	6816.075
2304.08223	6807.975
2306.94439	6791.975
2309.80474	6822.475
2312.66327	6792.975
2315.51999	6767.375
2318.37489	6757.675
2321.22797	6746.275
2324.07925	6734.175
2326.92871	6743.275
2329.77637	6720.975
2332.62222	6698.475
2335.46626	6695.875
2338.3085	6675.975
2341.14893	6687.175
2343.98756	6679.075
2346.8244	6683.675
2349.65943	6682.275
2352.49267	6682.775
2355.32411	6691.575
2358.15376	6682.075
2360.98161	6678.575
2363.80768	6685.075
2366.63195	6690.275
2369.45444	6687.875
2372.27514	6665.475
2375.09405	6638.775
2377.91118	6636.475
2380.72652	6615.075
2383.54009	6604.075
2386.35187	6613.975
2389.16188	6556.275
2391.97011	6551.075
2394.77657	6529.975
2397.58125	6502.975
2400.38416	6511.475
2403.18529	6482.675
2405.98466	6472.375
2408.78226	6460.475
2411.57809	6442.075
2414.37216	6418.875
2417.16446	6423.775
2419.955	6415.575
2422.74378	6428.175
2425.5308	6421.775
2428.31606	6408.775
2431.09956	6397.575
2433.88131	6385.275
2436.6613	6389.675
2439.43954	6396.275
2442.21603	6377.475
2444.99077	6358.675
2447.76377	6336.175
2450.53501	6358.575
2453.30451	6341.475
2456.07226	6338.375
2458.83827	6358.175
2461.60254	6344.075
2464.36507	6323.975
2467.12586	6327.775
2469.88492	6325.575
2472.64224	6325.175
2475.39782	6324.475
2478.15167	6341.775
2480.90379	6334.975
2483.65417	6326.675
2486.40283	6331.175
2489.14976	6335.175
2491.89497	6330.675
2494.63845	6331.375
2497.3802	6332.375
2500.12024	6298.375
2502.85855	6315.075
2505.59514	6297.375
2508.33002	6280.775
2511.06318	6254.375
2513.79462	6248.375
2516.52435	6226.775
2519.25237	6223.975
2521.97867	6212.075
2524.70327	6195.075
2527.42616	6195.675
2530.14734	6171.975
2532.86681	6177.175
2535.58458	6162.875
2538.30065	6152.275
2541.01501	6151.575
2543.72768	6149.875
2546.43864	6124.175
2549.14791	6123.975
2551.85548	6126.875
2554.56136	6081.175
2557.26554	6081.675
2559.96803	6068.375
2562.66883	6044.775
2565.36794	6040.975
2568.06536	6038.075
2570.7611	6021.775
2573.45514	6011.575
2576.14751	6006.975
2578.83819	5993.575
2581.52719	5991.675
2584.21451	6001.775
2586.90015	5969.775
2589.58411	5964.575
2592.2664	5972.975
2594.94701	5947.975
2597.62594	5933.375
2600.30321	5905.875
2602.9788	5907.275
2605.65273	5902.575
2608.32498	5886.875
2610.99557	5901.375
2613.66449	5882.175
2616.33175	5878.975
2618.99734	5869.975
2621.66128	5857.775
2624.32355	5851.675
2626.98416	5861.875
2629.64311	5819.975
2632.30041	5840.075
2634.95605	5827.475
2637.61004	5830.175
2640.26238	5803.975
2642.91306	5824.675
2645.56209	5794.075
2648.20948	5805.975
2650.85521	5805.275
2653.4993	5792.975
2656.14175	5789.275
2658.78255	5791.775
2661.42171	5780.175
2664.05923	5810.275
2666.6951	5803.275
2669.32934	5807.975
2671.96194	5811.075
2674.59291	5817.175
2677.22224	5793.875
2679.84993	5794.175
2682.476	5781.575
2685.10043	5777.375
2687.72324	5762.575
2690.34441	5773.175
2692.96396	5776.675
2695.58188	5776.175
2698.19818	5768.675
2700.81285	5771.875
2703.4259	5772.675
2706.03733	5762.575
2708.64714	5766.675
2711.25533	5763.775
2713.86191	5757.175
2716.46687	5792.075
2719.07021	5782.475
2721.67194	5791.775
2724.27206	5776.875
2726.87057	5783.275
2729.46747	5767.675
2732.06276	5778.175
2734.65644	5773.675
2737.24852	5766.075
2739.83899	5726.375
2742.42786	5743.075
2745.01513	5737.575
2747.60079	5737.975
2750.18486	5700.975
2752.76733	5709.675
2755.3482	5684.775
2757.92747	5697.475
2760.50515	5677.275
2763.08123	5646.375
2765.65573	5662.875
2768.22863	5669.275
2770.79994	5655.275
2773.36967	5658.175
2775.9378	5642.175
2778.50435	5645.875
2781.06932	5627.375
2783.6327	5622.275
2786.1945	5630.375
2788.75471	5628.275
2791.31335	5608.375
2793.87041	5589.075
2796.42589	5589.975
2798.97979	5590.075
2801.53212	5579.675
2804.08288	5567.675
2806.63206	5550.175
2809.17967	5557.775
2811.72571	5548.975
2814.27018	5520.175
2816.81308	5520.675
2819.35442	5508.775
2821.89419	5511.575
2824.43239	5504.675
2826.96904	5479.375
2829.50412	5480.375
2832.03763	5460.775
2834.56959	5473.975
2837.1	5457.275
2839.62884	5462.575
2842.15613	5465.975
2844.68186	5478.375
2847.20604	5472.875
2849.72867	5498.575
2852.24974	5477.775
2854.76927	5464.075
2857.28724	5480.675
2859.80367	5460.975
2862.31855	5475.975
2864.83189	5457.575
2867.34368	5468.675
2869.85393	5458.175
2872.36264	5444.175
2874.8698	5452.375
2877.37543	5439.675
2879.87952	5438.275
2882.38207	5457.675
2884.88308	5439.375
2887.38256	5433.975
2889.88051	5426.975
2892.37692	5423.675
2894.8718	5422.675
2897.36515	5450.575
2899.85698	5426.875
2902.34727	5415.675
2904.83604	5430.575
2907.32328	5448.075
2909.809	5435.675
2912.29319	5462.275
2914.77587	5453.075
2917.25702	5459.275
2919.73665	5431.675
2922.21476	5436.075
2924.69136	5415.275
2927.16644	5429.575
2929.64	5437.375
2932.11205	5393.075
2934.58258	5378.375
2937.05161	5384.475
2939.51912	5385.675
2941.98513	5371.375
2944.44962	5357.375
2946.91261	5339.975
2949.37409	5341.175
2951.83407	5308.475
2954.29254	5330.075
2956.74951	5324.375
2959.20498	5341.375
2961.65895	5321.275
2964.11142	5320.975
2966.56239	5307.175
2969.01186	5289.675
2971.45984	5293.475
2973.90632	5284.975
2976.35131	5260.275
2978.7948	5257.275
2981.23681	5235.975
2983.67732	5230.175
2986.11635	5219.975
2988.55388	5195.375
2990.98993	5192.675
2993.4245	5198.275
2995.85758	5185.075
2998.28917	5175.775
3000.71928	5166.475
3003.14791	5163.775
3005.57506	5165.075
3008.00073	5143.275
3010.42493	5155.375
3012.84764	5132.775
3015.26888	5145.575
3017.68865	5130.975
3020.10694	5126.475
3022.52376	5117.075
3024.9391	5089.475
3027.35298	5085.375
3029.76539	5087.175
3032.17632	5047.875
3034.5858	5070.375
3036.9938	5048.175
3039.40034	5048.675
3041.80542	5051.475
3044.20903	5052.175
3046.61118	5043.575
3049.01187	5034.775
3051.4111	5034.375
3053.80888	5001.875
3056.20519	5011.775
3058.60005	4972.575
3060.99345	4983.575
3063.3854	4973.375
3065.7759	4965.175
3068.16494	4956.775
3070.55254	4953.575
3072.93868	4943.775
3075.32338	4937.475
3077.70662	4939.275
3080.08842	4900.375
3082.46878	4905.775
3084.84769	4911.175
3087.22515	4913.375
3089.60118	4916.175
3091.97576	4903.275
3094.3489	4913.575
3096.72061	4912.975
3099.09087	4925.175
3101.4597	4907.575
3103.82709	4901.275
3106.19305	4906.875
3108.55757	4900.875
3110.92066	4884.475
3113.28232	4888.075
3115.64255	4855.575
3118.00134	4876.675
3120.35871	4854.475
3122.71466	4858.475
3125.06917	4850.775
3127.42226	4834.975
3129.77393	4848.375
3132.12417	4835.375
3134.47299	4842.175
3136.82039	4841.675
3139.16636	4835.675
3141.51092	4836.075
3143.85406	4846.575
3146.19579	4851.775
3148.53609	4863.175
3150.87499	4860.075
3153.21246	4880.675
3155.54853	4891.475
3157.88318	4883.775
3160.21642	4874.375
3162.54826	4874.475
3164.87868	4882.675
3167.2077	4886.675
3169.5353	4872.475
3171.86151	4875.975
3174.18631	4869.375
3176.5097	4882.375
3178.83169	4862.275
3181.15228	4872.075
3183.47147	4866.975
3185.78926	4870.675
3188.10565	4868.775
3190.42065	4865.475
