Data from AgNP_FTO_APTES_UA_100uM_CRN_50uM_R6G_10uM_NaF_0.1M_Addition_RamanShift__0__17-07-50-519.txt Node

Date: Thu Mar 24 17:07:50 GMT 2022
User: TCL
Spectrometer: QEP01345
Trigger mode: 4
Integration Time (sec): 7.000000E0
Scans to average: 10
Electric dark correction enabled: true
Nonlinearity correction enabled: false
Boxcar width: 0
XAxis mode: Raman Shifts
Number of Pixels in Spectrum: 1044
>>>>>Begin Spectral Data<<<<<
46.04893	-1.2625
50.45542	0.6375
54.85868	0.0375
59.25871	-0.2625
63.6555	33.3375
68.04907	35.7375
72.43941	32.8375
76.82654	32.6375
81.21044	37.2375
85.59113	38.6375
89.96862	41.9375
94.34289	37.9375
98.71396	45.1375
103.08183	38.5375
107.4465	43.5375
111.80798	44.8375
116.16626	45.1375
120.52136	48.1375
124.87327	49.5375
129.222	54.9375
133.56755	57.8375
137.90993	58.1375
142.24913	70.3375
146.58517	74.8375
150.91804	93.0375
155.24774	114.6375
159.57429	137.9375
163.89768	179.9375
168.21792	244.6375
172.53501	337.3375
176.84895	473.8375
181.15975	669.4375
185.46741	938.8375
189.77193	1286.0375
194.07331	1717.1375
198.37157	2236.0375
202.6667	2742.9375
206.9587	3273.7375
211.24758	3833.0375
215.53334	4385.8375
219.81599	5008.7375
224.09553	5699.3375
228.37195	6472.9375
232.64527	7334.7375
236.91549	8179.0375
241.18261	8947.7375
245.44663	9607.2375
249.70755	10085.1375
253.96539	10524.2375
258.22014	10881.3375
262.4718	11226.9375
266.72039	11459.6375
270.96589	11575.3375
275.20832	11503.7375
279.44768	11348.7375
283.68397	11129.3375
287.91719	10982.5375
292.14735	10926.6375
296.37445	11064.7375
300.59849	11336.0375
304.81948	11721.0375
309.03742	12008.8375
313.25231	12090.9375
317.46415	11841.7375
321.67296	11354.6375
325.87872	10905.2375
330.08145	10715.6375
334.28114	10718.9375
338.47781	10830.9375
342.67145	11082.5375
346.86207	11368.0375
351.04966	11799.9375
355.23424	12251.6375
359.4158	12544.4375
363.59435	12654.1375
367.76989	12620.0375
371.94243	12611.3375
376.11196	12559.9375
380.27849	12552.4375
384.44203	12551.2375
388.60257	12507.9375
392.76012	12509.5375
396.91468	12617.4375
401.06626	12818.1375
405.21485	12960.9375
409.36047	12736.5375
413.50311	12234.0375
417.64277	11800.6375
421.77947	11590.3375
425.9132	11551.2375
430.04396	11641.3375
434.17176	11799.4375
438.2966	12117.7375
442.41849	12578.8375
446.53742	13252.9375
450.6534	13866.4375
454.76644	14225.3375
458.87653	14198.3375
462.98368	13848.8375
467.08789	13419.3375
471.18916	13040.3375
475.2875	12714.2375
479.38291	12420.1375
483.4754	12110.9375
487.56496	11817.4375
491.6516	11594.5375
495.73531	11408.9375
499.81612	11309.3375
503.89401	11403.9375
507.96899	11489.3375
512.04106	11530.8375
516.11023	11576.7375
520.1765	11614.5375
524.23987	11619.8375
528.30034	11632.8375
532.35792	11563.0375
536.41261	11395.3375
540.46441	11177.1375
544.51333	11073.2375
548.55936	11162.8375
552.60252	11433.3375
556.64279	11823.5375
560.6802	12144.6375
564.71473	12361.7375
568.7464	12705.2375
572.7752	13088.7375
576.80114	13175.1375
580.82422	13234.8375
584.84444	13503.5375
588.86181	14320.2375
592.87633	15623.9375
596.888	16510.9375
600.89682	16354.7375
604.9028	16284.1375
608.90594	18162.9375
612.90624	20942.7375
616.90371	19519.0375
620.89834	14386.6375
624.89015	11985.6375
628.87913	11556.4375
632.86528	11713.8375
636.84862	11839.8375
640.82913	11575.3375
644.80683	11061.9375
648.78172	10714.6375
652.75379	10677.5375
656.72306	10976.3375
660.68952	11348.0375
664.65319	11189.1375
668.61405	10652.1375
672.57211	10434.5375
676.52738	10482.7375
680.47986	10436.1375
684.42955	10280.9375
688.37646	10191.7375
692.32058	10208.9375
696.26192	10360.2375
700.20048	10539.5375
704.13626	10669.9375
708.06928	10645.1375
711.99952	10552.4375
715.927	10557.5375
719.85171	10659.8375
723.77365	10683.6375
727.69284	10578.6375
731.60928	10518.9375
735.52295	10584.4375
739.43388	10686.0375
743.34206	10713.8375
747.24749	10753.8375
751.15017	10771.3375
755.05012	10931.6375
758.94733	11404.4375
762.8418	12542.3375
766.73354	14513.5375
770.62254	16348.2375
774.50882	16984.6375
778.39237	16085.0375
782.27321	14113.8375
786.15132	12271.2375
790.02671	11154.1375
793.89938	10596.9375
797.76935	10350.1375
801.6366	10235.6375
805.50115	10183.9375
809.36299	10118.4375
813.22213	10078.1375
817.07857	10022.7375
820.93231	10015.4375
824.78336	10011.2375
828.63172	10024.4375
832.47738	10043.6375
836.32036	9998.8375
840.16066	9958.4375
843.99827	9961.8375
847.8332	9917.4375
851.66546	9924.0375
855.49504	9903.3375
859.32195	9892.5375
863.1462	9844.7375
866.96777	9821.5375
870.78668	9796.8375
874.60293	9861.6375
878.41652	9888.2375
882.22745	9982.0375
886.03573	10036.8375
889.84136	10042.7375
893.64433	9952.7375
897.44466	9915.5375
901.24235	9861.2375
905.0374	9797.3375
908.8298	9759.9375
912.61957	9720.9375
916.40671	9746.7375
920.19121	9843.6375
923.97308	10024.0375
927.75233	10072.5375
931.52895	10075.1375
935.30295	9893.0375
939.07433	9578.9375
942.84309	9385.6375
946.60924	9266.5375
950.37278	9247.6375
954.13371	9224.4375
957.89203	9218.0375
961.64774	9206.7375
965.40086	9193.6375
969.15137	9187.3375
972.89929	9147.8375
976.64461	9100.7375
980.38733	9106.9375
984.12747	9140.5375
987.86502	9182.7375
991.59999	9284.8375
995.33237	9463.2375
999.06217	9780.0375
1002.78939	10188.2375
1006.51404	10566.6375
1010.23611	10872.1375
1013.95561	11027.8375
1017.67255	10987.9375
1021.38692	10614.6375
1025.09872	10204.6375
1028.80796	9888.2375
1032.51465	9787.7375
1036.21877	9774.3375
1039.92035	9865.9375
1043.61937	9889.9375
1047.31584	9923.1375
1051.00976	9921.8375
1054.70114	9890.1375
1058.38998	9908.2375
1062.07627	9961.6375
1065.76003	10023.7375
1069.44126	10146.9375
1073.11995	10305.8375
1076.79611	10518.7375
1080.46974	10746.5375
1084.14085	11025.8375
1087.80943	11317.0375
1091.47549	11491.9375
1095.13903	11371.1375
1098.80005	11022.9375
1102.45857	10695.3375
1106.11456	10576.7375
1109.76805	10634.9375
1113.41903	10861.5375
1117.06751	11208.7375
1120.71348	11651.1375
1124.35696	12112.5375
1127.99793	12454.7375
1131.63641	12416.9375
1135.2724	11979.7375
1138.90589	11627.2375
1142.5369	11401.7375
1146.16542	11377.7375
1149.79145	11393.9375
1153.415	11468.0375
1157.03607	11621.6375
1160.65467	11919.4375
1164.27079	12501.7375
1167.88443	13419.1375
1171.49561	14829.8375
1175.10432	16875.7375
1178.71056	19488.0375
1182.31434	21678.6375
1185.91565	22164.8375
1189.51451	21156.0375
1193.11091	19630.1375
1196.70485	18127.1375
1200.29634	16893.1375
1203.88538	15896.3375
1207.47197	15008.9375
1211.05612	14308.7375
1214.63782	13932.7375
1218.21708	13874.0375
1221.79391	14065.8375
1225.36829	14201.7375
1228.94024	14076.4375
1232.50976	13642.5375
1236.07685	13113.1375
1239.6415	12882.4375
1243.20374	12896.9375
1246.76355	12921.5375
1250.32093	13029.7375
1253.8759	13292.5375
1257.42845	13730.7375
1260.97859	14330.8375
1264.52631	14966.3375
1268.07163	15553.3375
1271.61453	16044.7375
1275.15503	16379.0375
1278.69312	16678.2375
1282.22882	17082.0375
1285.76211	17882.7375
1289.29301	19003.0375
1292.82151	20203.6375
1296.34761	21592.3375
1299.87133	23368.3375
1303.39266	25498.2375
1306.9116	28217.8375
1310.42815	31063.1375
1313.94233	32603.2375
1317.45412	32034.4375
1320.96354	30263.5375
1324.47058	28192.8375
1327.97525	26193.6375
1331.47754	24560.6375
1334.97747	23601.9375
1338.47502	23311.8375
1341.97022	23348.1375
1345.46305	23616.2375
1348.95352	24357.3375
1352.44163	25747.8375
1355.92738	28298.1375
1359.41078	32087.0375
1362.89183	35379.9375
1366.37053	34624.6375
1369.84688	29544.5375
1373.32088	24219.1375
1376.79254	21242.2375
1380.26186	20146.6375
1383.72883	19618.7375
1387.19347	19075.6375
1390.65578	18436.5375
1394.11575	18184.2375
1397.57339	18378.0375
1401.0287	18849.4375
1404.48168	19276.7375
1407.93234	19307.9375
1411.38068	19043.8375
1414.82669	18576.3375
1418.27039	17880.0375
1421.71177	16994.5375
1425.15083	16153.6375
1428.58758	15783.9375
1432.02203	16077.9375
1435.45416	16797.7375
1438.88399	17442.9375
1442.31151	17783.8375
1445.73673	18013.6375
1449.15965	18171.1375
1452.58027	18104.2375
1455.9986	17703.9375
1459.41463	17490.2375
1462.82837	17752.0375
1466.23982	18398.0375
1469.64898	19198.8375
1473.05586	19897.9375
1476.46045	20431.3375
1479.86276	20780.4375
1483.26279	20985.9375
1486.66054	21137.1375
1490.05602	21600.3375
1493.44922	22157.7375
1496.84016	22667.8375
1500.22882	23404.5375
1503.61521	24823.5375
1506.99934	26711.8375
1510.38121	28172.3375
1513.76081	28010.3375
1517.13816	25955.9375
1520.51324	23067.6375
1523.88607	20755.9375
1527.25665	19552.0375
1530.62498	19073.8375
1533.99105	18834.6375
1537.35488	18518.8375
1540.71647	18142.9375
1544.07581	17567.5375
1547.4329	17052.2375
1550.78776	16536.1375
1554.14038	16086.6375
1557.49077	15886.4375
1560.83892	15956.7375
1564.18484	16299.0375
1567.52853	16885.9375
1570.86999	17480.4375
1574.20922	17979.6375
1577.54624	18057.1375
1580.88103	17445.0375
1584.2136	16660.5375
1587.54395	16623.7375
1590.87208	17560.4375
1594.19801	19347.6375
1597.52172	21520.2375
1600.84321	22679.6375
1604.16251	21897.0375
1607.47959	19756.2375
1610.79447	17205.4375
1614.10715	15033.5375
1617.41763	13451.8375
1620.7259	12492.9375
1624.03199	12081.5375
1627.33587	12135.0375
1630.63757	12639.5375
1633.93707	13752.1375
1637.23439	15795.8375
1640.52951	19184.5375
1643.82246	23638.8375
1647.11321	27762.4375
1650.40179	29104.5375
1653.68819	26512.2375
1656.97241	21487.5375
1660.25446	16800.2375
1663.53433	13612.9375
1666.81203	11739.8375
1670.08756	10693.8375
1673.36092	10023.6375
1676.63211	9610.2375
1679.90115	9337.7375
1683.16801	9111.7375
1686.43272	8946.2375
1689.69527	8835.5375
1692.95567	8722.7375
1696.2139	8648.8375
1699.46999	8581.6375
1702.72392	8536.1375
1705.97571	8476.9375
1709.22535	8473.8375
1712.47284	8451.1375
1715.71819	8429.1375
1718.96139	8362.2375
1722.20246	8326.0375
1725.44139	8282.9375
1728.67818	8184.8375
1731.91284	8108.8375
1735.14537	8054.1375
1738.37576	8009.0375
1741.60403	7955.4375
1744.83017	7931.9375
1748.05418	7904.1375
1751.27607	7865.9375
1754.49584	7833.3375
1757.71349	7838.0375
1760.92903	7845.1375
1764.14244	7800.2375
1767.35375	7792.7375
1770.56294	7735.0375
1773.77002	7720.2375
1776.97499	7694.7375
1780.17785	7668.7375
1783.37861	7635.6375
1786.57727	7617.3375
1789.77382	7598.1375
1792.96828	7579.0375
1796.16064	7557.2375
1799.3509	7556.3375
1802.53907	7505.8375
1805.72514	7466.8375
1808.90913	7460.8375
1812.09102	7430.0375
1815.27083	7419.8375
1818.44856	7407.3375
1821.6242	7381.0375
1824.79776	7340.6375
1827.96924	7321.3375
1831.13864	7312.9375
1834.30597	7294.1375
1837.47122	7254.4375
1840.6344	7251.6375
1843.7955	7246.2375
1846.95454	7236.3375
1850.11151	7230.4375
1853.26642	7213.1375
1856.41926	7202.9375
1859.57004	7213.1375
1862.71876	7205.5375
1865.86542	7195.2375
1869.01003	7187.4375
1872.15258	7178.1375
1875.29308	7178.8375
1878.43152	7170.9375
1881.56792	7184.2375
1884.70227	7177.8375
1887.83457	7190.9375
1890.96482	7180.6375
1894.09304	7156.0375
1897.21921	7158.8375
1900.34335	7163.1375
1903.46544	7147.6375
1906.58551	7174.3375
1909.70353	7136.2375
1912.81953	7148.7375
1915.93349	7135.2375
1919.04543	7111.1375
1922.15534	7086.0375
1925.26322	7065.3375
1928.36908	7047.9375
1931.47292	7030.3375
1934.57473	7002.5375
1937.67453	6986.5375
1940.77232	6951.7375
1943.86808	6923.2375
1946.96184	6897.5375
1950.05358	6885.8375
1953.14331	6846.1375
1956.23103	6819.1375
1959.31675	6800.6375
1962.40046	6769.9375
1965.48217	6794.8375
1968.56188	6736.7375
1971.63959	6725.1375
1974.7153	6722.4375
1977.78901	6685.6375
1980.86073	6662.1375
1983.93046	6634.6375
1986.99819	6595.6375
1990.06394	6580.7375
1993.1277	6549.1375
1996.18947	6549.4375
1999.24925	6522.0375
2002.30706	6477.3375
2005.36288	6458.0375
2008.41672	6417.1375
2011.46859	6420.0375
2014.51848	6405.4375
2017.56639	6369.3375
2020.61233	6334.0375
2023.6563	6337.4375
2026.6983	6314.6375
2029.73833	6318.9375
2032.7764	6275.0375
2035.8125	6265.3375
2038.84664	6250.1375
2041.87881	6247.8375
2044.90903	6233.9375
2047.93729	6225.6375
2050.96359	6221.6375
2053.98794	6183.5375
2057.01034	6172.4375
2060.03078	6168.5375
2063.04927	6153.5375
2066.06582	6159.9375
2069.08042	6139.8375
2072.09307	6139.4375
2075.10378	6129.6375
2078.11255	6127.2375
2081.11938	6136.0375
2084.12426	6137.0375
2087.12722	6129.0375
2090.12824	6115.8375
2093.12732	6129.4375
2096.12447	6107.6375
2099.11969	6110.0375
2102.11299	6129.8375
2105.10435	6111.7375
2108.09379	6090.7375
2111.08131	6070.4375
2114.0669	6096.2375
2117.05057	6093.4375
2120.03233	6097.1375
2123.01216	6086.7375
2125.99008	6087.7375
2128.96609	6102.5375
2131.94018	6097.3375
2134.91236	6057.4375
2137.88263	6069.9375
2140.851	6073.4375
2143.81746	6089.1375
2146.78201	6062.6375
2149.74466	6054.2375
2152.7054	6040.1375
2155.66425	6028.4375
2158.6212	6018.7375
2161.57625	6018.9375
2164.52941	6002.1375
2167.48067	5981.8375
2170.43004	6000.1375
2173.37752	6000.9375
2176.32311	5999.2375
2179.26681	5990.5375
2182.20863	5999.0375
2185.14856	6020.7375
2188.08661	5998.7375
2191.02278	5989.7375
2193.95707	5988.9375
2196.88948	5969.4375
2199.82001	5982.8375
2202.74867	5979.9375
2205.67545	5973.3375
2208.60037	5961.6375
2211.52341	5940.2375
2214.44458	5920.1375
2217.36388	5904.7375
2220.28132	5891.9375
2223.1969	5867.5375
2226.11061	5875.9375
2229.02246	5863.1375
2231.93245	5846.7375
2234.84058	5843.7375
2237.74686	5827.3375
2240.65128	5833.1375
2243.55385	5826.2375
2246.45456	5813.4375
2249.35343	5824.1375
2252.25044	5800.1375
2255.14561	5815.2375
2258.03893	5776.9375
2260.93041	5752.0375
2263.82004	5743.0375
2266.70783	5706.1375
2269.59378	5691.9375
2272.4779	5694.1375
2275.36017	5665.6375
2278.24061	5641.9375
2281.11922	5639.0375
2283.996	5628.6375
2286.87094	5599.8375
2289.74405	5588.8375
2292.61534	5572.2375
2295.4848	5584.3375
2298.35243	5576.4375
2301.21824	5539.0375
2304.08223	5549.9375
2306.94439	5550.8375
2309.80474	5558.5375
2312.66327	5552.5375
2315.51999	5538.2375
2318.37489	5531.6375
2321.22797	5504.0375
2324.07925	5517.9375
2326.92871	5504.2375
2329.77637	5510.8375
2332.62222	5497.0375
2335.46626	5488.7375
2338.3085	5478.5375
2341.14893	5485.6375
2343.98756	5492.0375
2346.8244	5484.6375
2349.65943	5498.4375
2352.49267	5478.1375
2355.32411	5501.1375
2358.15376	5502.0375
2360.98161	5504.2375
2363.80768	5511.6375
2366.63195	5529.1375
2369.45444	5511.4375
2372.27514	5511.8375
2375.09405	5475.2375
2377.91118	5493.0375
2380.72652	5449.4375
2383.54009	5441.6375
2386.35187	5445.3375
2389.16188	5418.2375
2391.97011	5396.1375
2394.77657	5386.4375
2397.58125	5362.7375
2400.38416	5353.9375
2403.18529	5352.6375
2405.98466	5314.1375
2408.78226	5323.1375
2411.57809	5307.6375
2414.37216	5284.9375
2417.16446	5296.6375
2419.955	5285.2375
2422.74378	5281.6375
2425.5308	5275.0375
2428.31606	5277.9375
2431.09956	5295.7375
2433.88131	5267.7375
2436.6613	5282.8375
2439.43954	5273.1375
2442.21603	5257.1375
2444.99077	5261.7375
2447.76377	5266.3375
2450.53501	5273.6375
2453.30451	5256.3375
2456.07226	5267.7375
2458.83827	5271.4375
2461.60254	5281.6375
2464.36507	5281.0375
2467.12586	5267.8375
2469.88492	5257.7375
2472.64224	5275.3375
2475.39782	5289.5375
2478.15167	5298.2375
2480.90379	5295.7375
2483.65417	5323.1375
2486.40283	5325.3375
2489.14976	5326.6375
2491.89497	5334.6375
2494.63845	5345.7375
2497.3802	5337.2375
2500.12024	5332.4375
2502.85855	5308.5375
2505.59514	5297.7375
2508.33002	5288.8375
2511.06318	5259.5375
2513.79462	5249.6375
2516.52435	5227.4375
2519.25237	5221.7375
2521.97867	5238.0375
2524.70327	5213.5375
2527.42616	5210.6375
2530.14734	5200.9375
2532.86681	5194.0375
2535.58458	5190.0375
2538.30065	5196.1375
2541.01501	5193.8375
2543.72768	5188.5375
2546.43864	5185.9375
2549.14791	5192.3375
2551.85548	5194.9375
2554.56136	5182.2375
2557.26554	5152.0375
2559.96803	5160.2375
2562.66883	5165.2375
2565.36794	5159.5375
2568.06536	5150.3375
2570.7611	5143.1375
2573.45514	5154.0375
2576.14751	5131.6375
2578.83819	5140.1375
2581.52719	5146.5375
2584.21451	5135.5375
2586.90015	5112.5375
2589.58411	5113.8375
2592.2664	5122.1375
2594.94701	5120.0375
2597.62594	5095.1375
2600.30321	5102.4375
2602.9788	5106.6375
2605.65273	5098.4375
2608.32498	5100.7375
2610.99557	5108.8375
2613.66449	5102.3375
2616.33175	5099.5375
2618.99734	5114.7375
2621.66128	5111.7375
2624.32355	5113.8375
2626.98416	5121.5375
2629.64311	5104.1375
2632.30041	5077.1375
2634.95605	5095.6375
2637.61004	5098.6375
2640.26238	5073.0375
2642.91306	5069.8375
2645.56209	5079.4375
2648.20948	5084.0375
2650.85521	5093.7375
2653.4993	5101.5375
2656.14175	5106.2375
2658.78255	5101.0375
2661.42171	5111.7375
2664.05923	5130.8375
2666.6951	5135.8375
2669.32934	5142.6375
2671.96194	5143.2375
2674.59291	5153.9375
2677.22224	5135.7375
2679.84993	5137.5375
2682.476	5115.5375
2685.10043	5109.6375
2687.72324	5103.7375
2690.34441	5101.2375
2692.96396	5117.1375
2695.58188	5123.2375
2698.19818	5100.1375
2700.81285	5098.3375
2703.4259	5106.6375
2706.03733	5109.3375
2708.64714	5113.8375
2711.25533	5108.9375
2713.86191	5125.0375
2716.46687	5133.7375
2719.07021	5129.9375
2721.67194	5137.0375
2724.27206	5145.8375
2726.87057	5153.0375
2729.46747	5150.1375
2732.06276	5148.6375
2734.65644	5122.2375
2737.24852	5133.2375
2739.83899	5121.3375
2742.42786	5121.8375
2745.01513	5114.8375
2747.60079	5109.7375
2750.18486	5086.2375
2752.76733	5107.2375
2755.3482	5108.2375
2757.92747	5097.3375
2760.50515	5097.9375
2763.08123	5106.6375
2765.65573	5093.1375
2768.22863	5113.2375
2770.79994	5097.3375
2773.36967	5105.3375
2775.9378	5114.4375
2778.50435	5088.0375
2781.06932	5077.0375
2783.6327	5114.2375
2786.1945	5123.4375
2788.75471	5107.0375
2791.31335	5110.3375
2793.87041	5108.4375
2796.42589	5106.7375
2798.97979	5112.6375
2801.53212	5078.3375
2804.08288	5072.0375
2806.63206	5070.7375
2809.17967	5077.5375
2811.72571	5065.4375
2814.27018	5058.4375
2816.81308	5051.4375
2819.35442	5053.8375
2821.89419	5042.2375
2824.43239	5038.9375
2826.96904	5032.8375
2829.50412	5033.2375
2832.03763	5010.5375
2834.56959	5016.3375
2837.1	5015.2375
2839.62884	5029.7375
2842.15613	5013.1375
2844.68186	5011.5375
2847.20604	5015.8375
2849.72867	5010.5375
2852.24974	5023.9375
2854.76927	5002.6375
2857.28724	4993.4375
2859.80367	5009.4375
2862.31855	5007.3375
2864.83189	5008.4375
2867.34368	5004.9375
2869.85393	4992.5375
2872.36264	4990.8375
2874.8698	4977.1375
2877.37543	4985.4375
2879.87952	4994.1375
2882.38207	4971.0375
2884.88308	4974.9375
2887.38256	4985.6375
2889.88051	4974.1375
2892.37692	4984.8375
2894.8718	4968.8375
2897.36515	4989.0375
2899.85698	4980.1375
2902.34727	4969.8375
2904.83604	4973.6375
2907.32328	4975.7375
2909.809	4987.9375
2912.29319	4999.0375
2914.77587	5008.8375
2917.25702	4982.6375
2919.73665	4970.5375
2922.21476	4981.3375
2924.69136	4955.0375
2927.16644	4965.5375
2929.64	4958.7375
2932.11205	4933.1375
2934.58258	4930.2375
2937.05161	4935.5375
2939.51912	4934.2375
2941.98513	4910.8375
2944.44962	4906.5375
2946.91261	4896.7375
2949.37409	4896.5375
2951.83407	4887.9375
2954.29254	4886.5375
2956.74951	4897.6375
2959.20498	4904.9375
2961.65895	4899.4375
2964.11142	4888.6375
2966.56239	4875.3375
2969.01186	4846.4375
2971.45984	4847.7375
2973.90632	4850.0375
2976.35131	4809.8375
2978.7948	4792.5375
2981.23681	4771.1375
2983.67732	4774.7375
2986.11635	4739.9375
2988.55388	4745.2375
2990.98993	4723.2375
2993.4245	4705.4375
2995.85758	4702.0375
2998.28917	4680.3375
3000.71928	4684.0375
3003.14791	4671.3375
3005.57506	4669.2375
3008.00073	4680.8375
3010.42493	4666.4375
3012.84764	4643.4375
3015.26888	4628.5375
3017.68865	4624.6375
3020.10694	4624.6375
3022.52376	4602.8375
3024.9391	4584.6375
3027.35298	4561.8375
3029.76539	4541.2375
3032.17632	4561.2375
3034.5858	4547.3375
3036.9938	4529.7375
3039.40034	4540.0375
3041.80542	4526.9375
3044.20903	4516.3375
3046.61118	4511.2375
3049.01187	4504.1375
3051.4111	4513.4375
3053.80888	4500.2375
3056.20519	4471.5375
3058.60005	4457.8375
3060.99345	4459.9375
3063.3854	4441.1375
3065.7759	4430.4375
3068.16494	4422.2375
3070.55254	4393.8375
3072.93868	4399.6375
3075.32338	4368.8375
3077.70662	4358.6375
3080.08842	4344.3375
3082.46878	4342.3375
3084.84769	4335.5375
3087.22515	4363.0375
