Data from AgNP_FTO_APTES_UA_100uM_CRN_0uM_R6G_10uM_NaF_0.1M_Addition_RamanShift__8__10-54-30-090.txt Node

Date: Thu Mar 24 10:54:30 GMT 2022
User: TCL
Spectrometer: QEP01345
Trigger mode: 4
Integration Time (sec): 7.000000E0
Scans to average: 10
Electric dark correction enabled: true
Nonlinearity correction enabled: false
Boxcar width: 0
XAxis mode: Raman Shifts
Number of Pixels in Spectrum: 1044
>>>>>Begin Spectral Data<<<<<
46.04893	-1.125
50.45542	0.575
54.85868	-0.425
59.25871	0.275
63.6555	29.175
68.04907	32.975
72.43941	32.675
76.82654	32.775
81.21044	34.275
85.59113	36.075
89.96862	42.575
94.34289	39.475
98.71396	44.875
103.08183	40.375
107.4465	41.675
111.80798	46.675
116.16626	44.375
120.52136	46.975
124.87327	45.875
129.222	48.575
133.56755	53.375
137.90993	55.375
142.24913	65.175
146.58517	69.875
150.91804	79.175
155.24774	93.675
159.57429	115.075
163.89768	148.375
168.21792	197.175
172.53501	265.875
176.84895	371.775
181.15975	517.275
185.46741	724.175
189.77193	1000.475
194.07331	1334.475
198.37157	1724.575
202.6667	2127.775
206.9587	2534.575
211.24758	2957.875
215.53334	3397.075
219.81599	3901.275
224.09553	4467.175
228.37195	5139.975
232.64527	5821.775
236.91549	6502.275
241.18261	7117.975
245.44663	7625.475
249.70755	7994.575
253.96539	8293.875
258.22014	8490.875
262.4718	8603.775
266.72039	8623.375
270.96589	8555.675
275.20832	8381.975
279.44768	8151.275
283.68397	7939.675
287.91719	7835.875
292.14735	7873.475
296.37445	8078.975
300.59849	8479.975
304.81948	9012.275
309.03742	9425.775
313.25231	9591.775
317.46415	9257.775
321.67296	8582.075
325.87872	7944.875
330.08145	7644.475
334.28114	7628.575
338.47781	7800.375
342.67145	8002.575
346.86207	8305.675
351.04966	8795.275
355.23424	9373.775
359.4158	9884.475
363.59435	10111.975
367.76989	10181.775
371.94243	10106.875
376.11196	9993.975
380.27849	9904.475
384.44203	9732.275
388.60257	9545.375
392.76012	9397.475
396.91468	9447.575
401.06626	9650.775
405.21485	9838.475
409.36047	9594.575
413.50311	8948.675
417.64277	8346.475
421.77947	7997.975
425.9132	7881.875
430.04396	7926.075
434.17176	8056.375
438.2966	8339.975
442.41849	8809.975
446.53742	9514.575
450.6534	10097.375
454.76644	10270.775
458.87653	9965.875
462.98368	9386.975
467.08789	8877.975
471.18916	8433.475
475.2875	8022.175
479.38291	7660.775
483.4754	7406.275
487.56496	7241.775
491.6516	7123.075
495.73531	7105.375
499.81612	7123.975
503.89401	7253.975
507.96899	7381.575
512.04106	7499.075
516.11023	7650.375
520.1765	7856.275
524.23987	7930.875
528.30034	7989.275
532.35792	7905.375
536.41261	7681.175
540.46441	7282.275
544.51333	7006.575
548.55936	6974.875
552.60252	7237.075
556.64279	7662.375
560.6802	7906.975
564.71473	8000.075
568.7464	8321.675
572.7752	8608.375
576.80114	8308.675
580.82422	7961.975
584.84444	8152.875
588.86181	8963.775
592.87633	10083.575
596.888	10509.175
600.89682	9846.175
604.9028	10158.875
608.90594	13192.275
612.90624	17539.275
616.90371	16903.475
620.89834	10889.975
624.89015	7734.075
628.87913	7129.675
632.86528	7265.275
636.84862	7410.675
640.82913	7195.775
644.80683	6624.375
648.78172	6209.675
652.75379	6188.975
656.72306	6605.975
660.68952	7143.375
664.65319	7070.075
668.61405	6592.675
672.57211	6409.575
676.52738	6407.375
680.47986	6311.775
684.42955	6099.175
688.37646	5970.075
692.32058	5998.375
696.26192	6126.475
700.20048	6349.475
704.13626	6473.875
708.06928	6448.275
711.99952	6371.775
715.927	6324.575
719.85171	6357.275
723.77365	6382.575
727.69284	6253.175
731.60928	6177.875
735.52295	6222.175
739.43388	6315.975
743.34206	6409.675
747.24749	6422.675
751.15017	6432.975
755.05012	6584.575
758.94733	7091.675
762.8418	8371.175
766.73354	10554.975
770.62254	12728.575
774.50882	14003.475
778.39237	13623.375
782.27321	11455.975
786.15132	8966.975
790.02671	7412.475
793.89938	6666.975
797.76935	6350.275
801.6366	6198.475
805.50115	6105.475
809.36299	6048.975
813.22213	5944.475
817.07857	5929.275
820.93231	5928.575
824.78336	5954.175
828.63172	6020.075
832.47738	6046.175
836.32036	6041.375
840.16066	5974.275
843.99827	5926.575
847.8332	5891.875
851.66546	5883.575
855.49504	5878.175
859.32195	5866.975
863.1462	5820.975
866.96777	5797.775
870.78668	5786.875
874.60293	5810.975
878.41652	5829.975
882.22745	5909.375
886.03573	5984.775
889.84136	5998.875
893.64433	5944.575
897.44466	5911.375
901.24235	5888.175
905.0374	5814.375
908.8298	5717.375
912.61957	5660.375
916.40671	5685.075
920.19121	5775.075
923.97308	5936.175
927.75233	6118.475
931.52895	6211.075
935.30295	6075.375
939.07433	5771.675
942.84309	5525.375
946.60924	5390.375
950.37278	5294.875
954.13371	5254.475
957.89203	5202.975
961.64774	5163.575
965.40086	5128.975
969.15137	5077.175
972.89929	5057.475
976.64461	5050.675
980.38733	5068.275
984.12747	5095.575
987.86502	5110.275
991.59999	5187.275
995.33237	5337.875
999.06217	5611.675
1002.78939	5955.675
1006.51404	6216.875
1010.23611	6397.575
1013.95561	6520.875
1017.67255	6494.075
1021.38692	6229.575
1025.09872	5874.975
1028.80796	5659.975
1032.51465	5643.475
1036.21877	5718.775
1039.92035	5809.975
1043.61937	5857.775
1047.31584	5872.475
1051.00976	5847.775
1054.70114	5826.975
1058.38998	5797.975
1062.07627	5780.475
1065.76003	5778.675
1069.44126	5847.875
1073.11995	6037.375
1076.79611	6312.875
1080.46974	6576.275
1084.14085	6942.375
1087.80943	7208.275
1091.47549	7270.875
1095.13903	7014.175
1098.80005	6574.475
1102.45857	6256.375
1106.11456	6151.475
1109.76805	6256.075
1113.41903	6533.575
1117.06751	6955.575
1120.71348	7554.575
1124.35696	8271.175
1127.99793	8712.675
1131.63641	8480.675
1135.2724	7815.575
1138.90589	7241.975
1142.5369	6895.475
1146.16542	6703.575
1149.79145	6594.775
1153.415	6518.175
1157.03607	6534.075
1160.65467	6694.575
1164.27079	7125.875
1167.88443	7910.775
1171.49561	9189.675
1175.10432	11131.375
1178.71056	13637.275
1182.31434	15590.975
1185.91565	16031.375
1189.51451	15266.575
1193.11091	14133.275
1196.70485	12853.075
1200.29634	11602.575
1203.88538	10374.075
1207.47197	9150.475
1211.05612	8326.875
1214.63782	8084.575
1218.21708	8284.975
1221.79391	8576.275
1225.36829	8535.675
1228.94024	8146.575
1232.50976	7716.375
1236.07685	7450.775
1239.6415	7372.875
1243.20374	7399.475
1246.76355	7400.275
1250.32093	7467.675
1253.8759	7726.975
1257.42845	8121.275
1260.97859	8595.375
1264.52631	9165.375
1268.07163	9676.375
1271.61453	10110.375
1275.15503	10413.175
1278.69312	10632.275
1282.22882	11010.075
1285.76211	11606.975
1289.29301	12418.675
1292.82151	13283.275
1296.34761	14306.275
1299.87133	15672.575
1303.39266	17555.775
1306.9116	20343.075
1310.42815	23354.075
1313.94233	24790.075
1317.45412	23479.275
1320.96354	20559.575
1324.47058	17581.875
1327.97525	15380.975
1331.47754	14299.275
1334.97747	14156.675
1338.47502	14528.975
1341.97022	14936.375
1345.46305	15592.775
1348.95352	16887.575
1352.44163	19034.075
1355.92738	22243.575
1359.41078	26199.375
1362.89183	28770.475
1366.37053	27062.475
1369.84688	22429.375
1373.32088	18072.775
1376.79254	15250.075
1380.26186	13559.475
1383.72883	12403.975
1387.19347	11539.075
1390.65578	10930.575
1394.11575	10670.975
1397.57339	10753.675
1401.0287	10996.575
1404.48168	11161.375
1407.93234	11205.975
1411.38068	11149.275
1414.82669	10943.475
1418.27039	10529.775
1421.71177	10050.675
1425.15083	9738.175
1428.58758	9770.575
1432.02203	10059.075
1435.45416	10317.375
1438.88399	10424.575
1442.31151	10353.075
1445.73673	10329.375
1449.15965	10341.175
1452.58027	10178.675
1455.9986	9912.875
1459.41463	9945.575
1462.82837	10297.475
1466.23982	10917.675
1469.64898	11395.175
1473.05586	11699.475
1476.46045	11907.475
1479.86276	12077.775
1483.26279	12177.375
1486.66054	12387.475
1490.05602	12804.775
1493.44922	13343.275
1496.84016	14195.175
1500.22882	15783.075
1503.61521	18141.175
1506.99934	20832.875
1510.38121	22974.075
1513.76081	23322.875
1517.13816	21154.175
1520.51324	17743.375
1523.88607	14901.175
1527.25665	13327.075
1530.62498	12670.975
1533.99105	12403.075
1537.35488	12161.775
1540.71647	11917.375
1544.07581	11617.075
1547.4329	11308.275
1550.78776	10967.875
1554.14038	10640.075
1557.49077	10390.775
1560.83892	10365.675
1564.18484	10642.375
1567.52853	11204.775
1570.86999	11775.375
1574.20922	12138.775
1577.54624	12031.975
1580.88103	11180.775
1584.2136	10025.875
1587.54395	9500.875
1590.87208	9910.675
1594.19801	11286.975
1597.52172	13196.075
1600.84321	14417.875
1604.16251	14070.075
1607.47959	12437.775
1610.79447	10329.275
1614.10715	8576.075
1617.41763	7456.075
1620.7259	6811.075
1624.03199	6548.575
1627.33587	6560.375
1630.63757	6823.675
1633.93707	7502.375
1637.23439	8760.675
1640.52951	10894.675
1643.82246	13929.675
1647.11321	16949.175
1650.40179	18298.675
1653.68819	16793.775
1656.97241	13347.375
1660.25446	9935.475
1663.53433	7650.175
1666.81203	6367.875
1670.08756	5655.075
1673.36092	5218.775
1676.63211	4966.475
1679.90115	4789.175
1683.16801	4679.375
1686.43272	4585.975
1689.69527	4521.975
1692.95567	4466.475
1696.2139	4442.875
1699.46999	4411.575
1702.72392	4411.075
1705.97571	4383.775
1709.22535	4361.675
1712.47284	4367.975
1715.71819	4362.975
1718.96139	4337.775
1722.20246	4323.775
1725.44139	4300.175
1728.67818	4238.975
1731.91284	4163.275
1735.14537	4115.075
1738.37576	4082.075
1741.60403	4062.175
1744.83017	4035.475
1748.05418	4009.775
1751.27607	3995.775
1754.49584	3979.375
1757.71349	3951.375
1760.92903	3940.275
1764.14244	3936.875
1767.35375	3913.875
1770.56294	3893.375
1773.77002	3871.975
1776.97499	3872.075
1780.17785	3837.175
1783.37861	3831.175
1786.57727	3813.575
1789.77382	3797.275
1792.96828	3796.175
1796.16064	3798.575
1799.3509	3793.275
1802.53907	3786.375
1805.72514	3789.175
1808.90913	3764.075
1812.09102	3754.475
1815.27083	3730.275
1818.44856	3729.275
1821.6242	3736.875
1824.79776	3729.075
1827.96924	3716.275
1831.13864	3729.575
1834.30597	3732.575
1837.47122	3726.675
1840.6344	3737.975
1843.7955	3786.975
1846.95454	3803.875
1850.11151	3818.175
1853.26642	3837.675
1856.41926	3854.475
1859.57004	3876.875
1862.71876	3883.575
1865.86542	3871.275
1869.01003	3872.575
1872.15258	3880.775
1875.29308	3872.675
1878.43152	3868.575
1881.56792	3884.675
1884.70227	3883.375
1887.83457	3862.475
1890.96482	3860.075
1894.09304	3858.475
1897.21921	3830.875
1900.34335	3807.875
1903.46544	3786.475
1906.58551	3783.075
1909.70353	3777.475
1912.81953	3760.575
1915.93349	3734.575
1919.04543	3719.775
1922.15534	3711.775
1925.26322	3707.575
1928.36908	3681.475
1931.47292	3669.775
1934.57473	3652.375
1937.67453	3615.575
1940.77232	3595.675
1943.86808	3552.175
1946.96184	3554.275
1950.05358	3542.475
1953.14331	3520.775
1956.23103	3509.975
1959.31675	3518.775
1962.40046	3511.175
1965.48217	3531.775
1968.56188	3518.975
1971.63959	3553.575
1974.7153	3561.675
1977.78901	3554.775
1980.86073	3535.675
1983.93046	3529.775
1986.99819	3509.175
1990.06394	3510.375
1993.1277	3493.575
1996.18947	3463.475
1999.24925	3461.075
2002.30706	3426.875
2005.36288	3402.875
2008.41672	3397.475
2011.46859	3366.975
2014.51848	3338.075
2017.56639	3330.875
2020.61233	3291.575
2023.6563	3286.075
2026.6983	3263.375
2029.73833	3249.875
2032.7764	3241.875
2035.8125	3255.675
2038.84664	3240.275
2041.87881	3256.575
2044.90903	3262.075
2047.93729	3285.075
2050.96359	3282.875
2053.98794	3309.175
2057.01034	3310.475
2060.03078	3311.075
2063.04927	3309.975
2066.06582	3316.575
2069.08042	3323.075
2072.09307	3317.075
2075.10378	3300.375
2078.11255	3284.075
2081.11938	3275.275
2084.12426	3264.575
2087.12722	3240.375
2090.12824	3234.875
2093.12732	3230.375
2096.12447	3233.275
2099.11969	3248.175
2102.11299	3274.475
2105.10435	3211.675
2108.09379	3181.575
2111.08131	3138.875
2114.0669	3124.875
2117.05057	3097.675
2120.03233	3078.175
2123.01216	3066.275
2125.99008	3064.675
2128.96609	3059.675
2131.94018	3059.675
2134.91236	3053.775
2137.88263	3048.075
2140.851	3051.275
2143.81746	3045.375
2146.78201	3020.975
2149.74466	3011.675
2152.7054	2992.475
2155.66425	2961.975
2158.6212	2944.375
2161.57625	2934.375
2164.52941	2921.775
2167.48067	2922.875
2170.43004	2919.575
2173.37752	2909.975
2176.32311	2898.675
2179.26681	2905.075
2182.20863	2895.875
2185.14856	2894.975
2188.08661	2891.475
2191.02278	2891.375
2193.95707	2885.375
2196.88948	2889.675
2199.82001	2877.075
2202.74867	2857.975
2205.67545	2860.575
2208.60037	2855.475
2211.52341	2839.375
2214.44458	2837.975
2217.36388	2815.075
2220.28132	2826.675
2223.1969	2813.675
2226.11061	2798.975
2229.02246	2806.075
2231.93245	2790.775
2234.84058	2789.875
2237.74686	2772.175
2240.65128	2787.575
2243.55385	2786.675
2246.45456	2764.675
2249.35343	2767.675
2252.25044	2771.375
2255.14561	2755.675
2258.03893	2770.175
2260.93041	2755.075
2263.82004	2752.275
2266.70783	2749.775
2269.59378	2749.475
2272.4779	2732.375
2275.36017	2722.775
2278.24061	2721.875
2281.11922	2710.675
2283.996	2694.575
2286.87094	2685.675
2289.74405	2688.475
2292.61534	2675.075
2295.4848	2660.475
2298.35243	2662.275
2301.21824	2654.675
2304.08223	2657.675
2306.94439	2655.275
2309.80474	2658.675
2312.66327	2666.675
2315.51999	2646.675
2318.37489	2662.375
2321.22797	2657.575
2324.07925	2653.375
2326.92871	2646.375
2329.77637	2644.975
2332.62222	2640.375
2335.46626	2634.575
2338.3085	2623.175
2341.14893	2638.275
2343.98756	2651.075
2346.8244	2649.475
2349.65943	2640.175
2352.49267	2652.575
2355.32411	2661.775
2358.15376	2661.875
2360.98161	2673.975
2363.80768	2685.375
2366.63195	2693.075
2369.45444	2706.475
2372.27514	2708.675
2375.09405	2707.175
2377.91118	2701.275
2380.72652	2685.775
2383.54009	2675.375
2386.35187	2665.775
2389.16188	2622.775
2391.97011	2603.275
2394.77657	2621.675
2397.58125	2588.875
2400.38416	2596.475
2403.18529	2586.175
2405.98466	2605.775
2408.78226	2558.375
2411.57809	2550.775
2414.37216	2545.075
2417.16446	2528.675
2419.955	2529.375
2422.74378	2551.175
2425.5308	2542.275
2428.31606	2536.075
2431.09956	2536.275
2433.88131	2537.575
2436.6613	2530.475
2439.43954	2534.075
2442.21603	2536.375
2444.99077	2544.375
2447.76377	2555.575
2450.53501	2550.875
2453.30451	2560.075
2456.07226	2559.775
2458.83827	2570.375
2461.60254	2564.975
2464.36507	2560.775
2467.12586	2565.475
2469.88492	2569.375
2472.64224	2569.375
2475.39782	2565.175
2478.15167	2574.575
2480.90379	2587.575
2483.65417	2603.275
2486.40283	2616.675
2489.14976	2630.775
2491.89497	2618.175
2494.63845	2628.675
2497.3802	2635.375
2500.12024	2624.475
2502.85855	2619.075
2505.59514	2601.975
2508.33002	2588.175
2511.06318	2559.575
2513.79462	2552.475
2516.52435	2527.375
2519.25237	2514.575
2521.97867	2507.175
2524.70327	2500.675
2527.42616	2485.375
2530.14734	2493.575
2532.86681	2491.475
2535.58458	2486.675
2538.30065	2504.675
2541.01501	2505.875
2543.72768	2490.475
2546.43864	2503.575
2549.14791	2499.175
2551.85548	2492.075
2554.56136	2503.775
2557.26554	2507.275
2559.96803	2504.975
2562.66883	2509.775
2565.36794	2503.275
2568.06536	2486.075
2570.7611	2494.675
2573.45514	2495.075
2576.14751	2483.175
2578.83819	2482.275
2581.52719	2473.975
2584.21451	2476.375
2586.90015	2464.575
2589.58411	2470.275
2592.2664	2467.875
2594.94701	2472.775
2597.62594	2469.275
2600.30321	2464.175
2602.9788	2469.075
2605.65273	2477.675
2608.32498	2467.375
2610.99557	2473.675
2613.66449	2480.575
2616.33175	2483.975
2618.99734	2475.975
2621.66128	2474.075
2624.32355	2481.275
2626.98416	2474.575
2629.64311	2466.475
2632.30041	2457.475
2634.95605	2455.475
2637.61004	2443.975
2640.26238	2438.175
2642.91306	2451.975
2645.56209	2446.075
2648.20948	2442.375
2650.85521	2454.475
2653.4993	2443.575
2656.14175	2467.975
2658.78255	2468.475
2661.42171	2460.175
2664.05923	2470.475
2666.6951	2478.475
2669.32934	2502.175
2671.96194	2488.375
2674.59291	2486.475
2677.22224	2478.075
2679.84993	2490.775
2682.476	2472.175
2685.10043	2479.975
2687.72324	2470.775
2690.34441	2463.775
2692.96396	2468.175
2695.58188	2469.275
2698.19818	2463.875
2700.81285	2471.475
2703.4259	2476.475
2706.03733	2467.075
2708.64714	2482.575
2711.25533	2485.875
2713.86191	2494.675
2716.46687	2504.475
2719.07021	2502.875
2721.67194	2507.575
2724.27206	2505.475
2726.87057	2510.475
2729.46747	2511.975
2732.06276	2512.775
2734.65644	2505.875
2737.24852	2495.175
2739.83899	2495.575
2742.42786	2491.575
2745.01513	2493.675
2747.60079	2483.675
2750.18486	2481.875
2752.76733	2478.375
2755.3482	2485.675
2757.92747	2488.675
2760.50515	2481.775
2763.08123	2484.575
2765.65573	2493.675
2768.22863	2487.275
2770.79994	2488.275
2773.36967	2507.575
2775.9378	2508.275
2778.50435	2518.175
2781.06932	2515.575
2783.6327	2524.375
2786.1945	2532.575
2788.75471	2535.675
2791.31335	2537.275
2793.87041	2543.175
2796.42589	2546.675
2798.97979	2560.275
2801.53212	2551.575
2804.08288	2552.475
2806.63206	2566.975
2809.17967	2564.175
2811.72571	2585.575
2814.27018	2607.075
2816.81308	2598.775
2819.35442	2602.575
2821.89419	2620.675
2824.43239	2635.575
2826.96904	2644.875
2829.50412	2639.075
2832.03763	2652.875
2834.56959	2661.475
2837.1	2665.775
2839.62884	2695.775
2842.15613	2712.675
2844.68186	2745.575
2847.20604	2796.075
2849.72867	2846.575
2852.24974	2873.475
2854.76927	2876.275
2857.28724	2869.475
2859.80367	2880.675
2862.31855	2896.075
2864.83189	2887.375
2867.34368	2881.475
2869.85393	2879.775
2872.36264	2900.575
2874.8698	2899.675
2877.37543	2894.075
2879.87952	2904.575
2882.38207	2884.075
2884.88308	2876.975
2887.38256	2885.475
2889.88051	2869.075
2892.37692	2877.675
2894.8718	2868.975
2897.36515	2878.075
2899.85698	2859.775
2902.34727	2861.375
2904.83604	2851.475
2907.32328	2871.775
2909.809	2856.275
2912.29319	2854.875
2914.77587	2838.675
2917.25702	2832.475
2919.73665	2818.975
2922.21476	2820.075
2924.69136	2814.575
2927.16644	2808.575
2929.64	2793.275
2932.11205	2776.175
2934.58258	2758.075
2937.05161	2743.875
2939.51912	2707.875
2941.98513	2686.575
2944.44962	2649.175
2946.91261	2611.175
2949.37409	2597.875
2951.83407	2571.475
2954.29254	2558.275
2956.74951	2529.775
2959.20498	2526.675
2961.65895	2504.475
2964.11142	2488.375
2966.56239	2474.375
2969.01186	2448.775
2971.45984	2428.475
2973.90632	2411.775
2976.35131	2398.375
2978.7948	2386.875
2981.23681	2368.275
2983.67732	2353.975
2986.11635	2336.975
2988.55388	2330.175
2990.98993	2330.975
2993.4245	2322.275
2995.85758	2328.875
2998.28917	2320.475
3000.71928	2309.975
3003.14791	2315.075
3005.57506	2301.175
3008.00073	2302.675
3010.42493	2310.675
3012.84764	2308.975
3015.26888	2305.175
3017.68865	2290.775
3020.10694	2282.575
3022.52376	2277.275
3024.9391	2263.375
3027.35298	2265.175
3029.76539	2250.775
3032.17632	2243.675
3034.5858	2235.875
3036.9938	2229.175
3039.40034	2233.375
3041.80542	2218.075
3044.20903	2214.275
3046.61118	2219.475
3049.01187	2216.475
3051.4111	2211.375
3053.80888	2204.175
3056.20519	2197.175
3058.60005	2195.775
3060.99345	2198.575
3063.3854	2200.475
3065.7759	2183.175
3068.16494	2178.875
3070.55254	2172.475
3072.93868	2178.675
3075.32338	2166.975
3077.70662	2154.775
3080.08842	2145.575
3082.46878	2155.175
3084.84769	2140.275
3087.22515	2145.875
3089.60118	2147.675
3091.97576	2147.275
3094.3489	2140.675
3096.72061	2130.175
3099.09087	2139.475
3101.4597	2147.575
3103.82709	2123.875
3106.19305	2120.575
3108.55757	2117.175
3110.92066	2101.375
3113.28232	2113.275
3115.64255	2115.875
3118.00134	2106.475
3120.35871	2111.675
3122.71466	2110.475
3125.06917	2104.975
3127.42226	2111.875
3129.77393	2123.575
3132.12417	2126.375
3134.47299	2132.175
3136.82039	2129.075
3139.16636	2142.575
3141.51092	2130.375
3143.85406	2133.475
3146.19579	2135.775
3148.53609	2137.375
3150.87499	2150.275
3153.21246	2140.875
3155.54853	2137.375
3157.88318	2150.275
3160.21642	2144.075
3162.54826	2146.475
3164.87868	2152.075
3167.2077	2160.275
3169.5353	2160.575
3171.86151	2165.175
3174.18631	2156.475
3176.5097	2163.375
3178.83169	2175.175
3181.15228	2183.475
3183.47147	2177.375
3185.78926	2184.375
3188.10565	2187.975
3190.42065	2189.075
3192.73424	2199.375
3195.04645	2202.975
3197.35725	2211.575
3199.66667	2202.275
3201.97469	2216.375
3204.28132	2212.475
3206.58656	2230.875
3208.8904	2235.675
3211.19287	2226.975
3213.49394	2234.775
3215.79363	2227.575
3218.09193	2239.875
3220.38884	2233.475
