Data from AgNP_FTO_APTES_UA_100uM_CRN_20uM_R6G_10uM_NaF_0.1M_Addition_RamanShift__25__16-55-00-505.txt Node

Date: Thu Mar 24 16:55:00 GMT 2022
User: TCL
Spectrometer: QEP01345
Trigger mode: 4
Integration Time (sec): 7.000000E0
Scans to average: 10
Electric dark correction enabled: true
Nonlinearity correction enabled: false
Boxcar width: 0
XAxis mode: Raman Shifts
Number of Pixels in Spectrum: 1044
>>>>>Begin Spectral Data<<<<<
46.04893	-2.0125
50.45542	0.2875
54.85868	-0.6125
59.25871	-0.6125
63.6555	44.4875
68.04907	44.1875
72.43941	47.4875
76.82654	45.2875
81.21044	50.9875
85.59113	50.1875
89.96862	54.0875
94.34289	54.5875
98.71396	57.4875
103.08183	54.3875
107.4465	56.9875
111.80798	59.2875
116.16626	63.3875
120.52136	63.0875
124.87327	66.6875
129.222	70.9875
133.56755	77.0875
137.90993	81.6875
142.24913	93.0875
146.58517	102.5875
150.91804	120.0875
155.24774	146.8875
159.57429	185.5875
163.89768	238.1875
168.21792	318.8875
172.53501	444.2875
176.84895	626.3875
181.15975	885.0875
185.46741	1238.7875
189.77193	1708.6875
194.07331	2292.4875
198.37157	2969.9875
202.6667	3679.9875
206.9587	4387.2875
211.24758	5155.9875
215.53334	5921.1875
219.81599	6784.0875
224.09553	7763.3875
228.37195	8859.0875
232.64527	10024.2875
236.91549	11231.2875
241.18261	12294.2875
245.44663	13123.1875
249.70755	13770.5875
253.96539	14304.6875
258.22014	14816.6875
262.4718	15239.8875
266.72039	15589.2875
270.96589	15713.5875
275.20832	15603.3875
279.44768	15325.0875
283.68397	15032.2875
287.91719	14870.9875
292.14735	14894.9875
296.37445	15197.4875
300.59849	15751.4875
304.81948	16424.8875
309.03742	16922.8875
313.25231	16957.2875
317.46415	16370.4875
321.67296	15361.4875
325.87872	14445.4875
330.08145	13966.9875
334.28114	13890.9875
338.47781	14099.1875
342.67145	14400.3875
346.86207	14922.3875
351.04966	15631.6875
355.23424	16404.7875
359.4158	17020.1875
363.59435	17295.0875
367.76989	17313.1875
371.94243	17283.1875
376.11196	17178.3875
380.27849	17060.9875
384.44203	16907.7875
388.60257	16782.7875
392.76012	16734.1875
396.91468	16851.2875
401.06626	17196.2875
405.21485	17427.8875
409.36047	17022.3875
413.50311	16194.6875
417.64277	15407.3875
421.77947	14942.5875
425.9132	14786.8875
430.04396	14831.5875
434.17176	14967.8875
438.2966	15185.5875
442.41849	15632.2875
446.53742	16219.4875
450.6534	16786.0875
454.76644	17086.4875
458.87653	17052.3875
462.98368	16771.4875
467.08789	16385.9875
471.18916	16037.7875
475.2875	15630.2875
479.38291	15330.4875
483.4754	15012.3875
487.56496	14782.6875
491.6516	14531.6875
495.73531	14420.4875
499.81612	14364.7875
503.89401	14517.2875
507.96899	14645.5875
512.04106	14792.3875
516.11023	14938.2875
520.1765	15036.0875
524.23987	14987.6875
528.30034	14893.9875
532.35792	14776.0875
536.41261	14518.9875
540.46441	14203.7875
544.51333	14056.6875
548.55936	14238.9875
552.60252	14637.3875
556.64279	15160.6875
560.6802	15418.9875
564.71473	15632.5875
568.7464	16172.1875
572.7752	16603.5875
576.80114	16419.1875
580.82422	16151.3875
584.84444	16205.3875
588.86181	16621.4875
592.87633	17236.5875
596.888	17547.0875
600.89682	17581.3875
604.9028	18943.6875
608.90594	23519.8875
612.90624	29527.4875
616.90371	27791.5875
620.89834	19402.3875
624.89015	15406.9875
628.87913	14764.4875
632.86528	14997.4875
636.84862	15291.3875
640.82913	14992.3875
644.80683	14163.6875
648.78172	13543.5875
652.75379	13506.2875
656.72306	14025.2875
660.68952	14740.8875
664.65319	14542.4875
668.61405	13705.0875
672.57211	13357.3875
676.52738	13381.3875
680.47986	13351.2875
684.42955	13165.0875
688.37646	13040.0875
692.32058	13059.8875
696.26192	13232.6875
700.20048	13478.8875
704.13626	13642.8875
708.06928	13544.4875
711.99952	13442.9875
715.927	13416.0875
719.85171	13512.0875
723.77365	13579.1875
727.69284	13488.0875
731.60928	13373.9875
735.52295	13335.8875
739.43388	13415.7875
743.34206	13458.9875
747.24749	13481.4875
751.15017	13565.3875
755.05012	13812.7875
758.94733	14582.5875
762.8418	16490.8875
766.73354	19707.8875
770.62254	22797.5875
774.50882	23997.3875
778.39237	22530.4875
782.27321	19307.1875
786.15132	16287.6875
790.02671	14506.8875
793.89938	13638.2875
797.76935	13265.0875
801.6366	13120.9875
805.50115	13018.6875
809.36299	12940.1875
813.22213	12853.9875
817.07857	12824.6875
820.93231	12750.4875
824.78336	12766.8875
828.63172	12801.3875
832.47738	12794.9875
836.32036	12752.8875
840.16066	12716.7875
843.99827	12674.6875
847.8332	12670.3875
851.66546	12649.2875
855.49504	12635.2875
859.32195	12619.4875
863.1462	12572.3875
866.96777	12545.8875
870.78668	12544.6875
874.60293	12550.7875
878.41652	12588.2875
882.22745	12714.9875
886.03573	12822.7875
889.84136	12812.4875
893.64433	12695.3875
897.44466	12642.4875
901.24235	12592.8875
905.0374	12498.7875
908.8298	12418.4875
912.61957	12373.4875
916.40671	12417.2875
920.19121	12588.0875
923.97308	12759.5875
927.75233	12899.7875
931.52895	12985.3875
935.30295	12803.4875
939.07433	12382.7875
942.84309	12048.6875
946.60924	11894.7875
950.37278	11802.2875
954.13371	11765.0875
957.89203	11707.2875
961.64774	11681.7875
965.40086	11660.7875
969.15137	11618.1875
972.89929	11569.7875
976.64461	11519.4875
980.38733	11553.0875
984.12747	11574.7875
987.86502	11659.2875
991.59999	11799.8875
995.33237	12012.4875
999.06217	12377.1875
1002.78939	12832.7875
1006.51404	13261.4875
1010.23611	13557.1875
1013.95561	13704.8875
1017.67255	13655.4875
1021.38692	13408.9875
1025.09872	13068.2875
1028.80796	12912.5875
1032.51465	13050.7875
1036.21877	13251.1875
1039.92035	13330.4875
1043.61937	13325.6875
1047.31584	13225.6875
1051.00976	13088.0875
1054.70114	12991.1875
1058.38998	12938.2875
1062.07627	12981.5875
1065.76003	13082.9875
1069.44126	13169.3875
1073.11995	13361.9875
1076.79611	13647.6875
1080.46974	13956.4875
1084.14085	14373.8875
1087.80943	14812.4875
1091.47549	14946.9875
1095.13903	14727.0875
1098.80005	14241.1875
1102.45857	13802.4875
1106.11456	13689.6875
1109.76805	13788.3875
1113.41903	14191.1875
1117.06751	14793.2875
1120.71348	15520.3875
1124.35696	16342.5875
1127.99793	16916.8875
1131.63641	16666.3875
1135.2724	15847.8875
1138.90589	15101.4875
1142.5369	14701.9875
1146.16542	14398.1875
1149.79145	14222.9875
1153.415	14261.1875
1157.03607	14452.4875
1160.65467	14862.8875
1164.27079	15631.8875
1167.88443	16810.7875
1171.49561	18502.4875
1175.10432	21090.0875
1178.71056	24432.0875
1182.31434	27274.5875
1185.91565	28074.3875
1189.51451	27004.5875
1193.11091	25095.2875
1196.70485	23096.7875
1200.29634	21443.1875
1203.88538	20151.2875
1207.47197	18795.3875
1211.05612	17595.7875
1214.63782	16915.2875
1218.21708	16670.1875
1221.79391	16713.9875
1225.36829	16809.2875
1228.94024	16640.0875
1232.50976	16222.7875
1236.07685	15848.3875
1239.6415	15718.3875
1243.20374	15722.7875
1246.76355	15866.6875
1250.32093	16060.8875
1253.8759	16443.5875
1257.42845	16970.1875
1260.97859	17655.5875
1264.52631	18435.9875
1268.07163	19216.3875
1271.61453	19908.4875
1275.15503	20491.5875
1278.69312	20933.0875
1282.22882	21380.2875
1285.76211	22104.3875
1289.29301	23058.3875
1292.82151	24205.6875
1296.34761	25550.1875
1299.87133	27566.3875
1303.39266	30432.9875
1306.9116	34394.5875
1310.42815	38366.1875
1313.94233	40143.9875
1317.45412	38719.3875
1320.96354	35769.7875
1324.47058	32640.2875
1327.97525	30048.5875
1331.47754	28265.7875
1334.97747	27523.4875
1338.47502	27416.2875
1341.97022	27911.8875
1345.46305	28997.4875
1348.95352	30636.7875
1352.44163	33047.8875
1355.92738	36690.4875
1359.41078	42313.1875
1362.89183	47039.2875
1366.37053	45096.8875
1369.84688	37255.9875
1373.32088	30004.9875
1376.79254	25863.3875
1380.26186	23884.7875
1383.72883	22796.0875
1387.19347	21987.9875
1390.65578	21244.5875
1394.11575	20838.9875
1397.57339	20825.1875
1401.0287	21032.3875
1404.48168	21236.6875
1407.93234	21233.3875
1411.38068	20977.7875
1414.82669	20648.9875
1418.27039	20092.6875
1421.71177	19392.5875
1425.15083	18652.4875
1428.58758	18376.8875
1432.02203	18651.9875
1435.45416	19178.9875
1438.88399	19519.1875
1442.31151	19716.4875
1445.73673	19939.0875
1449.15965	20064.7875
1452.58027	20083.8875
1455.9986	19958.8875
1459.41463	20011.2875
1462.82837	20374.5875
1466.23982	21030.3875
1469.64898	21678.4875
1473.05586	22174.9875
1476.46045	22460.2875
1479.86276	22624.4875
1483.26279	22846.3875
1486.66054	23239.4875
1490.05602	23988.4875
1493.44922	25197.8875
1496.84016	27015.3875
1500.22882	29970.1875
1503.61521	34136.8875
1506.99934	38788.8875
1510.38121	41988.2875
1513.76081	41778.5875
1517.13816	37881.6875
1520.51324	32474.7875
1523.88607	28021.8875
1527.25665	25412.0875
1530.62498	24156.7875
1533.99105	23471.6875
1537.35488	22853.4875
1540.71647	22311.9875
1544.07581	21720.2875
1547.4329	21269.2875
1550.78776	20884.0875
1554.14038	20735.7875
1557.49077	20816.1875
1560.83892	21177.1875
1564.18484	21866.9875
1567.52853	22717.6875
1570.86999	23490.4875
1574.20922	23993.7875
1577.54624	23889.8875
1580.88103	22637.4875
1584.2136	21064.4875
1587.54395	20414.0875
1590.87208	20906.4875
1594.19801	22511.0875
1597.52172	24548.3875
1600.84321	25414.9875
1604.16251	24408.2875
1607.47959	22526.8875
1610.79447	20421.8875
1614.10715	18471.3875
1617.41763	16900.5875
1620.7259	15816.2875
1624.03199	15273.1875
1627.33587	15346.6875
1630.63757	15883.9875
1633.93707	17036.3875
1637.23439	19134.1875
1640.52951	22347.5875
1643.82246	26787.4875
1647.11321	31249.5875
1650.40179	33365.2875
1653.68819	31148.7875
1656.97241	25802.9875
1660.25446	20448.5875
1663.53433	16850.9875
1666.81203	14700.8875
1670.08756	13488.3875
1673.36092	12712.7875
1676.63211	12209.4875
1679.90115	11890.8875
1683.16801	11607.9875
1686.43272	11449.1875
1689.69527	11280.3875
1692.95567	11189.9875
1696.2139	11093.0875
1699.46999	11045.0875
1702.72392	10978.3875
1705.97571	10944.5875
1709.22535	10893.8875
1712.47284	10902.1875
1715.71819	10889.7875
1718.96139	10856.8875
1722.20246	10783.0875
1725.44139	10727.9875
1728.67818	10598.1875
1731.91284	10493.3875
1735.14537	10436.8875
1738.37576	10363.5875
1741.60403	10324.7875
1744.83017	10271.4875
1748.05418	10251.6875
1751.27607	10205.5875
1754.49584	10166.4875
1757.71349	10158.7875
1760.92903	10112.2875
1764.14244	10116.3875
1767.35375	10110.1875
1770.56294	10054.7875
1773.77002	10002.9875
1776.97499	9966.7875
1780.17785	9913.5875
1783.37861	9922.4875
1786.57727	9867.8875
1789.77382	9858.4875
1792.96828	9840.6875
1796.16064	9813.6875
1799.3509	9797.9875
1802.53907	9767.7875
1805.72514	9721.1875
1808.90913	9653.6875
1812.09102	9651.6875
1815.27083	9615.9875
1818.44856	9622.3875
1821.6242	9609.5875
1824.79776	9557.8875
1827.96924	9536.3875
1831.13864	9536.5875
1834.30597	9499.0875
1837.47122	9480.2875
1840.6344	9485.5875
1843.7955	9465.6875
1846.95454	9426.7875
1850.11151	9433.1875
1853.26642	9416.6875
1856.41926	9421.1875
1859.57004	9420.0875
1862.71876	9416.9875
1865.86542	9390.3875
1869.01003	9409.2875
1872.15258	9394.9875
1875.29308	9381.9875
1878.43152	9396.1875
1881.56792	9396.3875
1884.70227	9400.6875
1887.83457	9390.4875
1890.96482	9373.8875
1894.09304	9380.4875
1897.21921	9361.1875
1900.34335	9343.7875
1903.46544	9342.6875
1906.58551	9341.7875
1909.70353	9347.8875
1912.81953	9342.0875
1915.93349	9295.6875
1919.04543	9267.7875
1922.15534	9238.1875
1925.26322	9216.1875
1928.36908	9203.0875
1931.47292	9172.5875
1934.57473	9146.6875
1937.67453	9130.6875
1940.77232	9119.2875
1943.86808	9085.5875
1946.96184	9053.0875
1950.05358	8988.9875
1953.14331	8981.3875
1956.23103	8957.3875
1959.31675	8930.1875
1962.40046	8897.0875
1965.48217	8893.5875
1968.56188	8903.4875
1971.63959	8863.1875
1974.7153	8844.8875
1977.78901	8841.8875
1980.86073	8778.1875
1983.93046	8739.1875
1986.99819	8712.7875
1990.06394	8679.5875
1993.1277	8651.8875
1996.18947	8603.1875
1999.24925	8592.1875
2002.30706	8577.0875
2005.36288	8510.7875
2008.41672	8489.0875
2011.46859	8445.9875
2014.51848	8432.0875
2017.56639	8419.0875
2020.61233	8385.0875
2023.6563	8369.8875
2026.6983	8374.5875
2029.73833	8334.6875
2032.7764	8318.2875
2035.8125	8282.6875
2038.84664	8274.6875
2041.87881	8276.6875
2044.90903	8263.2875
2047.93729	8227.5875
2050.96359	8236.5875
2053.98794	8199.5875
2057.01034	8203.4875
2060.03078	8197.6875
2063.04927	8156.4875
2066.06582	8163.4875
2069.08042	8170.5875
2072.09307	8158.8875
2075.10378	8133.6875
2078.11255	8143.9875
2081.11938	8147.8875
2084.12426	8133.2875
2087.12722	8135.2875
2090.12824	8118.7875
2093.12732	8139.1875
2096.12447	8143.5875
2099.11969	8148.5875
2102.11299	8154.2875
2105.10435	8157.4875
2108.09379	8148.0875
2111.08131	8145.9875
2114.0669	8137.7875
2117.05057	8155.3875
2120.03233	8151.7875
2123.01216	8178.7875
2125.99008	8194.0875
2128.96609	8182.5875
2131.94018	8176.7875
2134.91236	8181.5875
2137.88263	8166.5875
2140.851	8160.3875
2143.81746	8201.9875
2146.78201	8172.4875
2149.74466	8178.9875
2152.7054	8144.1875
2155.66425	8161.9875
2158.6212	8123.0875
2161.57625	8119.2875
2164.52941	8125.6875
2167.48067	8120.4875
2170.43004	8111.3875
2173.37752	8138.7875
2176.32311	8140.9875
2179.26681	8126.0875
2182.20863	8102.8875
2185.14856	8113.6875
2188.08661	8123.6875
2191.02278	8117.3875
2193.95707	8122.6875
2196.88948	8126.8875
2199.82001	8094.0875
2202.74867	8093.4875
2205.67545	8093.8875
2208.60037	8098.1875
2211.52341	8083.8875
2214.44458	8065.3875
2217.36388	8039.9875
2220.28132	8041.9875
2223.1969	8015.3875
2226.11061	8004.3875
2229.02246	7968.7875
2231.93245	7959.6875
2234.84058	7941.7875
2237.74686	7939.4875
2240.65128	7950.5875
2243.55385	7937.3875
2246.45456	7921.0875
2249.35343	7919.0875
2252.25044	7903.9875
2255.14561	7893.4875
2258.03893	7915.5875
2260.93041	7887.9875
2263.82004	7873.6875
2266.70783	7838.9875
2269.59378	7854.9875
2272.4779	7833.8875
2275.36017	7804.7875
2278.24061	7800.6875
2281.11922	7768.2875
2283.996	7778.3875
2286.87094	7738.0875
2289.74405	7732.6875
2292.61534	7709.0875
2295.4848	7701.6875
2298.35243	7670.0875
2301.21824	7698.7875
2304.08223	7677.9875
2306.94439	7715.6875
2309.80474	7702.0875
2312.66327	7706.1875
2315.51999	7699.8875
2318.37489	7714.8875
2321.22797	7666.2875
2324.07925	7696.5875
2326.92871	7679.0875
2329.77637	7696.0875
2332.62222	7655.1875
2335.46626	7639.2875
2338.3085	7649.0875
2341.14893	7656.1875
2343.98756	7673.2875
2346.8244	7691.3875
2349.65943	7680.2875
2352.49267	7670.0875
2355.32411	7710.4875
2358.15376	7715.6875
2360.98161	7734.6875
2363.80768	7736.3875
2366.63195	7759.7875
2369.45444	7739.7875
2372.27514	7745.8875
2375.09405	7702.5875
2377.91118	7674.1875
2380.72652	7670.8875
2383.54009	7623.8875
2386.35187	7596.2875
2389.16188	7568.1875
2391.97011	7550.9875
2394.77657	7526.7875
2397.58125	7506.7875
2400.38416	7496.0875
2403.18529	7490.8875
2405.98466	7451.0875
2408.78226	7449.8875
2411.57809	7420.4875
2414.37216	7416.3875
2417.16446	7405.2875
2419.955	7410.3875
2422.74378	7404.7875
2425.5308	7393.1875
2428.31606	7406.0875
2431.09956	7378.6875
2433.88131	7394.6875
2436.6613	7406.4875
2439.43954	7418.9875
2442.21603	7403.4875
2444.99077	7393.7875
2447.76377	7410.5875
2450.53501	7418.0875
2453.30451	7426.6875
2456.07226	7395.7875
2458.83827	7410.1875
2461.60254	7421.7875
2464.36507	7403.7875
2467.12586	7400.4875
2469.88492	7414.9875
2472.64224	7430.9875
2475.39782	7447.6875
2478.15167	7447.8875
2480.90379	7473.7875
2483.65417	7493.7875
2486.40283	7528.2875
2489.14976	7521.8875
2491.89497	7552.4875
2494.63845	7523.3875
2497.3802	7514.4875
2500.12024	7504.8875
2502.85855	7510.7875
2505.59514	7475.7875
2508.33002	7436.7875
2511.06318	7419.5875
2513.79462	7395.2875
2516.52435	7357.0875
2519.25237	7352.2875
2521.97867	7349.1875
2524.70327	7330.9875
2527.42616	7321.7875
2530.14734	7332.5875
2532.86681	7311.4875
2535.58458	7330.3875
2538.30065	7303.7875
2541.01501	7309.6875
2543.72768	7323.2875
2546.43864	7314.1875
2549.14791	7316.8875
2551.85548	7306.5875
2554.56136	7305.5875
2557.26554	7256.7875
2559.96803	7255.9875
2562.66883	7258.9875
2565.36794	7275.1875
2568.06536	7254.5875
2570.7611	7243.7875
2573.45514	7242.1875
2576.14751	7229.0875
2578.83819	7233.6875
2581.52719	7223.3875
2584.21451	7229.5875
2586.90015	7214.9875
2589.58411	7208.3875
2592.2664	7221.5875
2594.94701	7212.0875
2597.62594	7212.9875
2600.30321	7183.3875
2602.9788	7197.5875
2605.65273	7196.5875
2608.32498	7179.2875
2610.99557	7176.6875
2613.66449	7200.2875
2616.33175	7199.9875
2618.99734	7205.8875
2621.66128	7203.5875
2624.32355	7196.5875
2626.98416	7211.5875
2629.64311	7184.9875
2632.30041	7190.0875
2634.95605	7162.7875
2637.61004	7179.5875
2640.26238	7176.4875
2642.91306	7178.7875
2645.56209	7136.2875
2648.20948	7151.2875
2650.85521	7153.8875
2653.4993	7161.2875
2656.14175	7153.1875
2658.78255	7162.9875
2661.42171	7189.1875
2664.05923	7202.4875
2666.6951	7188.3875
2669.32934	7211.5875
2671.96194	7212.2875
2674.59291	7235.4875
2677.22224	7221.0875
2679.84993	7195.6875
2682.476	7181.9875
2685.10043	7167.8875
2687.72324	7155.9875
2690.34441	7174.1875
2692.96396	7155.8875
2695.58188	7174.8875
2698.19818	7144.5875
2700.81285	7154.8875
2703.4259	7164.4875
2706.03733	7182.2875
2708.64714	7155.9875
2711.25533	7164.8875
2713.86191	7163.7875
2716.46687	7226.7875
2719.07021	7189.4875
2721.67194	7208.9875
2724.27206	7185.9875
2726.87057	7205.6875
2729.46747	7202.6875
2732.06276	7204.9875
2734.65644	7181.4875
2737.24852	7176.7875
2739.83899	7152.8875
2742.42786	7147.6875
2745.01513	7137.4875
2747.60079	7153.3875
2750.18486	7155.5875
2752.76733	7141.5875
2755.3482	7134.0875
2757.92747	7123.3875
2760.50515	7101.0875
2763.08123	7104.5875
2765.65573	7109.9875
2768.22863	7132.9875
2770.79994	7114.4875
2773.36967	7124.6875
2775.9378	7127.2875
2778.50435	7117.9875
2781.06932	7113.0875
2783.6327	7102.3875
2786.1945	7128.7875
2788.75471	7116.1875
2791.31335	7102.1875
2793.87041	7093.5875
2796.42589	7107.7875
2798.97979	7090.5875
2801.53212	7079.0875
2804.08288	7058.2875
2806.63206	7084.0875
2809.17967	7065.0875
2811.72571	7072.0875
2814.27018	7065.9875
2816.81308	7062.3875
2819.35442	7048.5875
2821.89419	7061.0875
2824.43239	7074.2875
2826.96904	7037.0875
2829.50412	7044.2875
2832.03763	7048.6875
2834.56959	7044.2875
2837.1	7022.4875
2839.62884	7043.4875
2842.15613	7028.1875
2844.68186	7043.9875
2847.20604	7031.4875
2849.72867	7064.2875
2852.24974	7062.7875
2854.76927	7048.6875
2857.28724	7069.1875
2859.80367	7072.5875
2862.31855	7069.3875
2864.83189	7077.9875
2867.34368	7077.5875
2869.85393	7081.5875
2872.36264	7062.3875
2874.8698	7072.9875
2877.37543	7091.0875
2879.87952	7064.2875
2882.38207	7068.3875
2884.88308	7081.1875
2887.38256	7064.9875
2889.88051	7031.5875
2892.37692	7045.8875
2894.8718	7058.7875
2897.36515	7080.6875
2899.85698	7074.0875
2902.34727	7075.1875
2904.83604	7082.7875
2907.32328	7087.1875
2909.809	7094.3875
2912.29319	7102.8875
2914.77587	7105.9875
2917.25702	7118.9875
2919.73665	7096.6875
2922.21476	7061.3875
2924.69136	7060.4875
2927.16644	7050.6875
2929.64	7043.4875
2932.11205	7024.4875
2934.58258	6980.4875
2937.05161	6990.3875
2939.51912	6990.4875
2941.98513	6975.3875
2944.44962	6951.9875
2946.91261	6927.9875
2949.37409	6938.4875
2951.83407	6933.1875
2954.29254	6950.7875
2956.74951	6954.1875
2959.20498	6939.7875
2961.65895	6940.5875
2964.11142	6918.5875
2966.56239	6925.1875
2969.01186	6913.2875
2971.45984	6895.7875
2973.90632	6885.8875
2976.35131	6862.2875
2978.7948	6842.7875
2981.23681	6816.7875
2983.67732	6815.7875
2986.11635	6811.3875
2988.55388	6792.5875
2990.98993	6768.9875
2993.4245	6749.5875
2995.85758	6748.2875
2998.28917	6742.2875
3000.71928	6731.9875
3003.14791	6734.3875
3005.57506	6717.3875
3008.00073	6700.4875
3010.42493	6713.7875
3012.84764	6697.8875
3015.26888	6691.7875
3017.68865	6686.0875
3020.10694	6665.1875
3022.52376	6640.8875
3024.9391	6640.2875
3027.35298	6608.1875
3029.76539	6600.0875
3032.17632	6595.8875
3034.5858	6582.4875
3036.9938	6582.4875
3039.40034	6575.1875
3041.80542	6576.7875
3044.20903	6557.5875
3046.61118	6562.0875
3049.01187	6533.0875
3051.4111	6537.7875
3053.80888	6509.6875
3056.20519	6499.1875
3058.60005	6486.6875
3060.99345	6459.4875
3063.3854	6454.0875
3065.7759	6429.4875
3068.16494	6427.5875
3070.55254	6414.0875
3072.93868	6403.5875
3075.32338	6393.3875
3077.70662	6359.5875
