Data from AgNP_FTO_APTES_UA_100uM_CRN_5uM_R6G_10uM_NaF_0.1M_Addition_RamanShift__24__15-06-30-382.txt Node

Date: Thu Mar 24 15:06:30 GMT 2022
User: TCL
Spectrometer: QEP01345
Trigger mode: 4
Integration Time (sec): 7.000000E0
Scans to average: 10
Electric dark correction enabled: true
Nonlinearity correction enabled: false
Boxcar width: 0
XAxis mode: Raman Shifts
Number of Pixels in Spectrum: 1044
>>>>>Begin Spectral Data<<<<<
46.04893	-0.525
50.45542	-0.425
54.85868	-0.525
59.25871	-0.225
63.6555	32.875
68.04907	34.675
72.43941	33.475
76.82654	34.475
81.21044	41.675
85.59113	39.775
89.96862	43.575
94.34289	41.575
98.71396	47.475
103.08183	44.675
107.4465	46.175
111.80798	45.575
116.16626	46.375
120.52136	49.575
124.87327	49.175
129.222	49.775
133.56755	57.775
137.90993	60.175
142.24913	71.175
146.58517	73.475
150.91804	87.775
155.24774	106.375
159.57429	130.975
163.89768	168.975
168.21792	231.475
172.53501	314.775
176.84895	434.575
181.15975	619.075
185.46741	865.275
189.77193	1188.875
194.07331	1604.275
198.37157	2089.575
202.6667	2607.175
206.9587	3134.975
211.24758	3708.175
215.53334	4311.475
219.81599	5014.775
224.09553	5820.675
228.37195	6727.475
232.64527	7694.575
236.91549	8564.175
241.18261	9309.975
245.44663	9818.975
249.70755	10146.975
253.96539	10440.375
258.22014	10758.375
262.4718	11025.175
266.72039	11202.775
270.96589	11133.875
275.20832	10894.575
279.44768	10522.875
283.68397	10163.975
287.91719	10016.175
292.14735	10089.275
296.37445	10526.075
300.59849	11369.575
304.81948	12290.675
309.03742	13141.475
313.25231	13354.875
317.46415	12659.575
321.67296	11326.275
325.87872	10110.675
330.08145	9505.775
334.28114	9444.075
338.47781	9685.875
342.67145	10082.475
346.86207	10681.275
351.04966	11600.575
355.23424	12718.475
359.4158	13556.775
363.59435	13863.175
367.76989	13790.975
371.94243	13553.375
376.11196	13225.575
380.27849	12924.275
384.44203	12583.875
388.60257	12245.875
392.76012	12024.775
396.91468	12102.975
401.06626	12469.175
405.21485	12772.375
409.36047	12322.175
413.50311	11265.475
417.64277	10232.975
421.77947	9615.975
425.9132	9361.975
430.04396	9288.875
434.17176	9300.575
438.2966	9464.975
442.41849	9825.475
446.53742	10239.375
450.6534	10590.175
454.76644	10784.175
458.87653	10672.975
462.98368	10413.775
467.08789	10106.875
471.18916	9762.175
475.2875	9398.375
479.38291	9095.475
483.4754	8838.075
487.56496	8674.075
491.6516	8583.575
495.73531	8528.075
499.81612	8598.475
503.89401	8758.975
507.96899	8974.375
512.04106	9233.475
516.11023	9526.175
520.1765	9759.875
524.23987	9810.475
528.30034	9665.875
532.35792	9515.475
536.41261	9273.775
540.46441	8941.475
544.51333	8712.975
548.55936	8782.075
552.60252	9092.575
556.64279	9547.475
560.6802	9745.575
564.71473	10042.475
568.7464	10798.575
572.7752	11135.575
576.80114	10388.275
580.82422	9650.775
584.84444	9395.375
588.86181	9469.175
592.87633	9727.575
596.888	9974.075
600.89682	10395.675
604.9028	12388.675
608.90594	18166.375
612.90624	25959.375
616.90371	25035.075
620.89834	15159.875
624.89015	10222.075
628.87913	9335.275
632.86528	9598.475
636.84862	9911.975
640.82913	9607.075
644.80683	8750.275
648.78172	8163.075
652.75379	8176.275
656.72306	8863.975
660.68952	9666.975
664.65319	9490.775
668.61405	8518.475
672.57211	8088.375
676.52738	8058.675
680.47986	7996.475
684.42955	7812.675
688.37646	7691.675
692.32058	7701.975
696.26192	7835.275
700.20048	8035.675
704.13626	8161.275
708.06928	8124.375
711.99952	8020.275
715.927	8018.875
719.85171	8105.875
723.77365	8213.075
727.69284	8154.975
731.60928	8042.975
735.52295	8040.575
739.43388	8100.075
743.34206	8130.075
747.24749	8130.175
751.15017	8166.375
755.05012	8399.875
758.94733	9215.175
762.8418	11330.775
766.73354	14864.675
770.62254	18186.575
774.50882	19719.875
778.39237	18549.975
782.27321	15140.475
786.15132	11561.175
790.02671	9473.875
793.89938	8506.475
797.76935	8130.075
801.6366	7982.075
805.50115	7911.875
809.36299	7859.675
813.22213	7829.375
817.07857	7774.675
820.93231	7745.475
824.78336	7794.575
828.63172	7903.275
832.47738	7930.875
836.32036	7855.875
840.16066	7734.875
843.99827	7679.075
847.8332	7658.475
851.66546	7626.275
855.49504	7635.075
859.32195	7593.975
863.1462	7561.475
866.96777	7527.575
870.78668	7521.475
874.60293	7547.675
878.41652	7609.675
882.22745	7733.075
886.03573	7814.375
889.84136	7794.475
893.64433	7723.075
897.44466	7703.475
901.24235	7707.375
905.0374	7655.675
908.8298	7520.675
912.61957	7446.275
916.40671	7440.975
920.19121	7516.975
923.97308	7695.575
927.75233	7965.975
931.52895	8271.475
935.30295	8135.175
939.07433	7707.675
942.84309	7374.075
946.60924	7223.575
950.37278	7102.675
954.13371	7015.675
957.89203	6937.075
961.64774	6897.375
965.40086	6845.975
969.15137	6826.775
972.89929	6824.275
976.64461	6829.975
980.38733	6814.675
984.12747	6823.575
987.86502	6879.875
991.59999	6960.475
995.33237	7092.775
999.06217	7344.675
1002.78939	7675.275
1006.51404	8023.975
1010.23611	8254.275
1013.95561	8360.375
1017.67255	8296.575
1021.38692	8110.675
1025.09872	7919.975
1028.80796	7780.775
1032.51465	7929.875
1036.21877	8135.975
1039.92035	8235.875
1043.61937	8251.675
1047.31584	8169.675
1051.00976	8029.575
1054.70114	7930.075
1058.38998	7817.675
1062.07627	7833.575
1065.76003	7845.275
1069.44126	7897.075
1073.11995	8043.675
1076.79611	8331.575
1080.46974	8713.575
1084.14085	9273.975
1087.80943	9776.975
1091.47549	9901.375
1095.13903	9563.975
1098.80005	8995.975
1102.45857	8551.975
1106.11456	8491.975
1109.76805	8709.075
1113.41903	9209.775
1117.06751	9994.575
1120.71348	11064.975
1124.35696	12198.775
1127.99793	12890.875
1131.63641	12352.575
1135.2724	11039.075
1138.90589	10008.675
1142.5369	9400.975
1146.16542	9000.375
1149.79145	8755.375
1153.415	8706.575
1157.03607	8840.175
1160.65467	9157.075
1164.27079	9760.875
1167.88443	10688.775
1171.49561	12168.375
1175.10432	14550.175
1178.71056	17767.175
1182.31434	20300.575
1185.91565	20849.475
1189.51451	19848.675
1193.11091	17948.275
1196.70485	15831.875
1200.29634	14294.675
1203.88538	13119.975
1207.47197	11814.475
1211.05612	10649.775
1214.63782	9942.975
1218.21708	9715.875
1221.79391	9700.875
1225.36829	9805.975
1228.94024	9765.175
1232.50976	9606.375
1236.07685	9487.475
1239.6415	9453.975
1243.20374	9527.675
1246.76355	9609.175
1250.32093	9800.175
1253.8759	10138.375
1257.42845	10622.775
1260.97859	11293.375
1264.52631	11982.375
1268.07163	12664.675
1271.61453	13192.175
1275.15503	13532.975
1278.69312	13644.975
1282.22882	13935.275
1285.76211	14546.375
1289.29301	15401.775
1292.82151	16162.775
1296.34761	17043.675
1299.87133	18527.275
1303.39266	21311.875
1306.9116	25685.275
1310.42815	30440.475
1313.94233	32307.375
1317.45412	29939.175
1320.96354	25779.975
1324.47058	21715.575
1327.97525	18603.575
1331.47754	16737.275
1334.97747	16049.875
1338.47502	16206.575
1341.97022	17138.875
1345.46305	18928.775
1348.95352	21519.275
1352.44163	24722.975
1355.92738	29371.175
1359.41078	36574.675
1362.89183	42609.075
1366.37053	39516.275
1369.84688	29921.275
1373.32088	22141.775
1376.79254	17979.475
1380.26186	15755.675
1383.72883	14387.675
1387.19347	13338.275
1390.65578	12429.075
1394.11575	11729.175
1397.57339	11466.575
1401.0287	11419.175
1404.48168	11436.175
1407.93234	11491.875
1411.38068	11615.875
1414.82669	11793.975
1418.27039	11853.375
1421.71177	11700.775
1425.15083	11382.175
1428.58758	11323.275
1432.02203	11691.175
1435.45416	12000.575
1438.88399	12020.075
1442.31151	11904.275
1445.73673	11972.975
1449.15965	12058.275
1452.58027	11970.475
1455.9986	11741.275
1459.41463	11647.075
1462.82837	11883.275
1466.23982	12406.275
1469.64898	12875.075
1473.05586	13137.175
1476.46045	13259.975
1479.86276	13507.975
1483.26279	13905.075
1486.66054	14666.875
1490.05602	15714.275
1493.44922	17304.375
1496.84016	19832.375
1500.22882	23895.975
1503.61521	29624.175
1506.99934	36310.175
1510.38121	41380.075
1513.76081	41764.475
1517.13816	36554.275
1520.51324	28838.175
1523.88607	22410.475
1527.25665	18539.875
1530.62498	16417.175
1533.99105	15168.475
1537.35488	14352.475
1540.71647	13850.475
1544.07581	13609.575
1547.4329	13508.675
1550.78776	13599.875
1554.14038	13825.075
1557.49077	14162.375
1560.83892	14751.375
1564.18484	15657.075
1567.52853	16714.975
1570.86999	17485.775
1574.20922	17903.275
1577.54624	17659.175
1580.88103	16086.675
1584.2136	13980.975
1587.54395	12768.975
1590.87208	12723.875
1594.19801	13763.675
1597.52172	15374.575
1600.84321	16182.975
1604.16251	15561.775
1607.47959	14377.175
1610.79447	13097.075
1614.10715	11767.775
1617.41763	10643.375
1620.7259	9909.275
1624.03199	9616.175
1627.33587	9678.675
1630.63757	10124.475
1633.93707	10998.475
1637.23439	12573.275
1640.52951	15155.575
1643.82246	19164.675
1647.11321	24081.675
1650.40179	27231.175
1653.68819	25836.475
1656.97241	20553.475
1660.25446	15225.975
1663.53433	11738.275
1666.81203	9831.575
1670.08756	8756.575
1673.36092	8132.475
1676.63211	7741.575
1679.90115	7467.175
1683.16801	7284.875
1686.43272	7131.875
1689.69527	7019.475
1692.95567	6960.375
1696.2139	6932.775
1699.46999	6911.575
1702.72392	6886.775
1705.97571	6842.675
1709.22535	6842.775
1712.47284	6821.875
1715.71819	6854.475
1718.96139	6831.475
1722.20246	6809.775
1725.44139	6737.475
1728.67818	6646.775
1731.91284	6543.175
1735.14537	6451.775
1738.37576	6432.175
1741.60403	6421.975
1744.83017	6361.375
1748.05418	6332.275
1751.27607	6293.075
1754.49584	6279.475
1757.71349	6284.375
1760.92903	6250.975
1764.14244	6232.775
1767.35375	6190.975
1770.56294	6177.375
1773.77002	6125.375
1776.97499	6095.175
1780.17785	6035.775
1783.37861	6042.975
1786.57727	5990.375
1789.77382	5973.775
1792.96828	5966.475
1796.16064	5962.075
1799.3509	5947.175
1802.53907	5907.775
1805.72514	5889.775
1808.90913	5866.975
1812.09102	5846.375
1815.27083	5828.075
1818.44856	5804.775
1821.6242	5789.675
1824.79776	5772.275
1827.96924	5782.375
1831.13864	5757.475
1834.30597	5745.975
1837.47122	5736.875
1840.6344	5726.375
1843.7955	5735.275
1846.95454	5716.375
1850.11151	5700.675
1853.26642	5682.575
1856.41926	5680.175
1859.57004	5689.375
1862.71876	5688.975
1865.86542	5686.775
1869.01003	5688.175
1872.15258	5681.475
1875.29308	5691.275
1878.43152	5683.375
1881.56792	5684.175
1884.70227	5700.275
1887.83457	5687.975
1890.96482	5677.775
1894.09304	5669.375
1897.21921	5661.675
1900.34335	5674.975
1903.46544	5672.075
1906.58551	5670.875
1909.70353	5677.775
1912.81953	5671.175
1915.93349	5652.975
1919.04543	5628.275
1922.15534	5638.675
1925.26322	5591.975
1928.36908	5575.675
1931.47292	5542.175
1934.57473	5510.375
1937.67453	5504.775
1940.77232	5469.575
1943.86808	5456.975
1946.96184	5427.175
1950.05358	5431.475
1953.14331	5409.675
1956.23103	5406.275
1959.31675	5397.775
1962.40046	5379.275
1965.48217	5378.375
1968.56188	5384.875
1971.63959	5378.375
1974.7153	5365.575
1977.78901	5349.675
1980.86073	5310.375
1983.93046	5299.475
1986.99819	5255.875
1990.06394	5215.075
1993.1277	5204.275
1996.18947	5163.375
1999.24925	5144.675
2002.30706	5142.075
2005.36288	5114.675
2008.41672	5127.575
2011.46859	5095.975
2014.51848	5075.275
2017.56639	5063.975
2020.61233	5049.875
2023.6563	5013.975
2026.6983	5012.675
2029.73833	5032.775
2032.7764	5002.175
2035.8125	4994.975
2038.84664	4986.975
2041.87881	4988.075
2044.90903	4987.975
2047.93729	4961.475
2050.96359	4963.375
2053.98794	4938.775
2057.01034	4940.275
2060.03078	4922.075
2063.04927	4928.675
2066.06582	4906.575
2069.08042	4912.475
2072.09307	4888.875
2075.10378	4881.275
2078.11255	4879.175
2081.11938	4894.275
2084.12426	4894.375
2087.12722	4876.175
2090.12824	4897.375
2093.12732	4887.575
2096.12447	4891.675
2099.11969	4876.275
2102.11299	4902.675
2105.10435	4881.375
2108.09379	4894.675
2111.08131	4908.675
2114.0669	4911.875
2117.05057	4920.375
2120.03233	4926.975
2123.01216	4940.575
2125.99008	4949.675
2128.96609	4962.575
2131.94018	4950.575
2134.91236	4943.575
2137.88263	4959.475
2140.851	4927.675
2143.81746	4926.375
2146.78201	4940.675
2149.74466	4907.575
2152.7054	4908.475
2155.66425	4891.475
2158.6212	4906.275
2161.57625	4880.175
2164.52941	4886.075
2167.48067	4890.675
2170.43004	4887.875
2173.37752	4886.875
2176.32311	4899.075
2179.26681	4899.075
2182.20863	4879.375
2185.14856	4898.875
2188.08661	4887.075
2191.02278	4880.475
2193.95707	4865.075
2196.88948	4875.875
2199.82001	4865.475
2202.74867	4860.475
2205.67545	4861.375
2208.60037	4851.375
2211.52341	4855.875
2214.44458	4838.275
2217.36388	4841.175
2220.28132	4834.775
2223.1969	4822.575
2226.11061	4818.975
2229.02246	4793.075
2231.93245	4789.075
2234.84058	4780.875
2237.74686	4775.775
2240.65128	4775.875
2243.55385	4761.775
2246.45456	4744.175
2249.35343	4791.775
2252.25044	4775.475
2255.14561	4790.275
2258.03893	4808.675
2260.93041	4814.675
2263.82004	4797.775
2266.70783	4799.675
2269.59378	4799.575
2272.4779	4778.575
2275.36017	4761.175
2278.24061	4759.375
2281.11922	4751.275
2283.996	4731.875
2286.87094	4714.675
2289.74405	4685.475
2292.61534	4676.475
2295.4848	4673.475
2298.35243	4673.075
2301.21824	4637.475
2304.08223	4665.275
2306.94439	4665.475
2309.80474	4666.175
2312.66327	4673.375
2315.51999	4670.575
2318.37489	4680.675
2321.22797	4664.775
2324.07925	4673.975
2326.92871	4659.075
2329.77637	4665.175
2332.62222	4669.675
2335.46626	4663.575
2338.3085	4671.675
2341.14893	4669.675
2343.98756	4678.775
2346.8244	4686.775
2349.65943	4706.675
2352.49267	4705.975
2355.32411	4732.375
2358.15376	4746.375
2360.98161	4754.275
2363.80768	4786.975
2366.63195	4792.575
2369.45444	4796.575
2372.27514	4792.275
2375.09405	4771.875
2377.91118	4757.375
2380.72652	4713.075
2383.54009	4713.375
2386.35187	4675.275
2389.16188	4638.775
2391.97011	4635.775
2394.77657	4617.575
2397.58125	4592.175
2400.38416	4575.175
2403.18529	4566.475
2405.98466	4556.675
2408.78226	4548.475
2411.57809	4520.875
2414.37216	4493.675
2417.16446	4513.175
2419.955	4516.075
2422.74378	4498.775
2425.5308	4507.475
2428.31606	4513.475
2431.09956	4525.275
2433.88131	4527.375
2436.6613	4536.475
2439.43954	4545.075
2442.21603	4547.575
2444.99077	4552.875
2447.76377	4563.475
2450.53501	4576.475
2453.30451	4568.875
2456.07226	4565.675
2458.83827	4572.375
2461.60254	4568.675
2464.36507	4573.375
2467.12586	4566.375
2469.88492	4583.475
2472.64224	4574.475
2475.39782	4599.575
2478.15167	4602.075
2480.90379	4610.475
2483.65417	4635.875
2486.40283	4665.475
2489.14976	4683.675
2491.89497	4683.775
2494.63845	4701.775
2497.3802	4685.675
2500.12024	4675.275
2502.85855	4660.575
2505.59514	4625.975
2508.33002	4615.775
2511.06318	4586.275
2513.79462	4545.275
2516.52435	4517.075
2519.25237	4496.875
2521.97867	4479.575
2524.70327	4483.475
2527.42616	4466.875
2530.14734	4439.975
2532.86681	4455.775
2535.58458	4447.275
2538.30065	4441.475
2541.01501	4471.475
2543.72768	4456.175
2546.43864	4469.175
2549.14791	4458.675
2551.85548	4460.775
2554.56136	4484.675
2557.26554	4465.275
2559.96803	4466.475
2562.66883	4456.275
2565.36794	4472.175
2568.06536	4463.475
2570.7611	4451.975
2573.45514	4441.175
2576.14751	4426.175
2578.83819	4436.375
2581.52719	4431.375
2584.21451	4403.975
2586.90015	4404.775
2589.58411	4397.575
2592.2664	4394.575
2594.94701	4401.575
2597.62594	4391.775
2600.30321	4387.575
2602.9788	4385.575
2605.65273	4388.375
2608.32498	4389.275
2610.99557	4402.375
2613.66449	4400.475
2616.33175	4418.275
2618.99734	4424.575
2621.66128	4430.375
2624.32355	4408.775
2626.98416	4402.975
2629.64311	4396.575
2632.30041	4377.675
2634.95605	4368.375
2637.61004	4370.075
2640.26238	4357.175
2642.91306	4354.975
2645.56209	4332.975
2648.20948	4344.975
2650.85521	4351.975
2653.4993	4326.575
2656.14175	4342.575
2658.78255	4359.475
2661.42171	4368.575
2664.05923	4367.275
2666.6951	4376.275
2669.32934	4409.075
2671.96194	4389.375
2674.59291	4404.475
2677.22224	4386.475
2679.84993	4404.875
2682.476	4386.375
2685.10043	4392.775
2687.72324	4384.875
2690.34441	4393.075
2692.96396	4386.675
2695.58188	4378.675
2698.19818	4376.275
2700.81285	4362.375
2703.4259	4368.075
2706.03733	4388.975
2708.64714	4374.075
2711.25533	4384.175
2713.86191	4383.575
2716.46687	4403.475
2719.07021	4394.375
2721.67194	4395.875
2724.27206	4385.175
2726.87057	4398.675
2729.46747	4399.775
2732.06276	4388.075
2734.65644	4369.375
2737.24852	4354.575
2739.83899	4349.475
2742.42786	4348.975
2745.01513	4329.875
2747.60079	4321.475
2750.18486	4334.475
2752.76733	4310.975
2755.3482	4305.675
2757.92747	4313.875
2760.50515	4291.175
2763.08123	4294.475
2765.65573	4283.675
2768.22863	4284.375
2770.79994	4288.775
2773.36967	4303.775
2775.9378	4295.375
2778.50435	4303.075
2781.06932	4279.475
2783.6327	4296.075
2786.1945	4298.575
2788.75471	4309.375
2791.31335	4288.175
2793.87041	4288.075
2796.42589	4277.175
2798.97979	4290.375
2801.53212	4297.375
2804.08288	4303.375
2806.63206	4296.475
2809.17967	4314.775
2811.72571	4314.075
2814.27018	4339.075
2816.81308	4338.575
2819.35442	4360.175
2821.89419	4368.675
2824.43239	4381.475
2826.96904	4375.475
2829.50412	4370.875
2832.03763	4355.675
2834.56959	4357.975
2837.1	4353.775
2839.62884	4358.275
2842.15613	4338.475
2844.68186	4346.375
2847.20604	4357.275
2849.72867	4361.975
2852.24974	4361.875
2854.76927	4366.675
2857.28724	4399.275
2859.80367	4375.775
2862.31855	4394.675
2864.83189	4408.275
2867.34368	4426.475
2869.85393	4441.975
2872.36264	4446.975
2874.8698	4459.875
2877.37543	4458.475
2879.87952	4444.375
2882.38207	4456.275
2884.88308	4437.675
2887.38256	4418.175
2889.88051	4408.575
2892.37692	4412.275
2894.8718	4402.275
2897.36515	4418.075
2899.85698	4412.675
2902.34727	4401.775
2904.83604	4404.475
2907.32328	4403.975
2909.809	4403.575
2912.29319	4391.675
2914.77587	4381.075
2917.25702	4377.375
2919.73665	4354.775
2922.21476	4354.475
2924.69136	4334.375
2927.16644	4336.775
2929.64	4322.375
2932.11205	4287.675
2934.58258	4294.975
2937.05161	4305.175
2939.51912	4287.275
2941.98513	4287.375
2944.44962	4288.175
2946.91261	4272.275
2949.37409	4302.675
2951.83407	4301.675
2954.29254	4286.375
2956.74951	4279.575
2959.20498	4278.975
2961.65895	4272.175
2964.11142	4278.175
2966.56239	4263.875
2969.01186	4239.375
2971.45984	4227.875
2973.90632	4205.375
2976.35131	4204.075
2978.7948	4182.675
2981.23681	4185.475
2983.67732	4178.575
2986.11635	4160.475
2988.55388	4147.775
2990.98993	4138.375
2993.4245	4161.375
2995.85758	4158.675
2998.28917	4147.075
3000.71928	4140.775
3003.14791	4141.275
3005.57506	4140.475
3008.00073	4146.575
3010.42493	4160.775
3012.84764	4149.975
3015.26888	4151.375
3017.68865	4145.075
3020.10694	4139.175
3022.52376	4127.775
3024.9391	4099.175
3027.35298	4098.675
3029.76539	4094.975
3032.17632	4067.775
3034.5858	4056.375
3036.9938	4040.675
3039.40034	4027.875
3041.80542	4013.675
3044.20903	3988.075
3046.61118	3999.675
3049.01187	3988.275
3051.4111	3976.375
3053.80888	3970.475
3056.20519	3956.575
3058.60005	3965.875
3060.99345	3953.575
3063.3854	3937.275
3065.7759	3939.475
3068.16494	3922.875
3070.55254	3911.875
3072.93868	3901.875
3075.32338	3902.275
3077.70662	3891.475
3080.08842	3879.175
3082.46878	3885.675
3084.84769	3874.975
3087.22515	3875.575
3089.60118	3868.375
3091.97576	3864.775
3094.3489	3869.975
3096.72061	3866.275
3099.09087	3870.375
3101.4597	3855.775
3103.82709	3854.175
3106.19305	3852.175
3108.55757	3848.175
3110.92066	3837.975
3113.28232	3840.675
3115.64255	3833.175
3118.00134	3826.275
3120.35871	3824.875
3122.71466	3824.175
3125.06917	3815.775
3127.42226	3823.975
3129.77393	3845.175
3132.12417	3828.075
3134.47299	3839.975
3136.82039	3843.575
3139.16636	3843.775
3141.51092	3855.175
3143.85406	3850.075
3146.19579	3866.375
3148.53609	3854.375
3150.87499	3867.675
3153.21246	3876.775
3155.54853	3876.275
3157.88318	3885.075
3160.21642	3872.975
3162.54826	3886.775
3164.87868	3886.375
3167.2077	3870.775
3169.5353	3868.475
3171.86151	3878.875
3174.18631	3885.375
3176.5097	3857.975
3178.83169	3877.375
3181.15228	3878.375
3183.47147	3883.475
3185.78926	3876.275
3188.10565	3881.575
3190.42065	3883.275
3192.73424	3894.275
3195.04645	3890.275
3197.35725	3893.075
3199.66667	3906.175
3201.97469	3915.575
3204.28132	3928.875
3206.58656	3942.375
3208.8904	3949.175
3211.19287	3952.475
3213.49394	3967.875
