Data from AgNP_FTO_APTES_UA_100uM_CRN_50uM_R6G_10uM_NaF_0.1M_Addition_RamanShift__13__17-23-00-536.txt Node

Date: Thu Mar 24 17:23:00 GMT 2022
User: TCL
Spectrometer: QEP01345
Trigger mode: 4
Integration Time (sec): 7.000000E0
Scans to average: 10
Electric dark correction enabled: true
Nonlinearity correction enabled: false
Boxcar width: 0
XAxis mode: Raman Shifts
Number of Pixels in Spectrum: 1044
>>>>>Begin Spectral Data<<<<<
46.04893	-1.1125
50.45542	-0.8125
54.85868	-0.2125
59.25871	0.4875
63.6555	34.9875
68.04907	42.1875
72.43941	41.2875
76.82654	39.5875
81.21044	45.8875
85.59113	45.1875
89.96862	48.8875
94.34289	48.5875
98.71396	51.1875
103.08183	49.4875
107.4465	52.5875
111.80798	55.4875
116.16626	56.4875
120.52136	60.5875
124.87327	58.0875
129.222	60.2875
133.56755	67.2875
137.90993	68.3875
142.24913	78.7875
146.58517	86.4875
150.91804	98.1875
155.24774	121.1875
159.57429	154.9875
163.89768	196.4875
168.21792	268.5875
172.53501	366.8875
176.84895	512.8875
181.15975	730.7875
185.46741	1017.7875
189.77193	1406.7875
194.07331	1892.1875
198.37157	2447.3875
202.6667	3039.3875
206.9587	3624.3875
211.24758	4179.7875
215.53334	4765.2875
219.81599	5368.8875
224.09553	6030.4875
228.37195	6773.2875
232.64527	7608.3875
236.91549	8489.2875
241.18261	9346.3875
245.44663	10162.8875
249.70755	10864.0875
253.96539	11496.3875
258.22014	11984.5875
262.4718	12393.4875
266.72039	12684.1875
270.96589	12873.5875
275.20832	12897.0875
279.44768	12851.1875
283.68397	12711.0875
287.91719	12606.3875
292.14735	12539.1875
296.37445	12550.6875
300.59849	12630.5875
304.81948	12733.8875
309.03742	12785.2875
313.25231	12746.7875
317.46415	12549.8875
321.67296	12234.7875
325.87872	11975.3875
330.08145	11905.9875
334.28114	11873.5875
338.47781	11985.0875
342.67145	12155.2875
346.86207	12391.5875
351.04966	12632.2875
355.23424	12891.1875
359.4158	13114.9875
363.59435	13237.9875
367.76989	13343.1875
371.94243	13422.5875
376.11196	13455.8875
380.27849	13477.0875
384.44203	13525.7875
388.60257	13594.1875
392.76012	13683.9875
396.91468	13813.0875
401.06626	14003.8875
405.21485	14131.3875
409.36047	14033.0875
413.50311	13774.6875
417.64277	13549.2875
421.77947	13430.4875
425.9132	13441.7875
430.04396	13504.0875
434.17176	13576.0875
438.2966	13690.6875
442.41849	13873.5875
446.53742	14107.3875
450.6534	14380.2875
454.76644	14570.3875
458.87653	14629.7875
462.98368	14593.7875
467.08789	14541.1875
471.18916	14435.5875
475.2875	14287.0875
479.38291	14160.7875
483.4754	14028.6875
487.56496	13965.6875
491.6516	13874.9875
495.73531	13806.1875
499.81612	13763.5875
503.89401	13859.8875
507.96899	13884.3875
512.04106	13937.1875
516.11023	13970.6875
520.1765	13923.7875
524.23987	13924.5875
528.30034	13877.9875
532.35792	13796.2875
536.41261	13729.0875
540.46441	13621.7875
544.51333	13634.4875
548.55936	13717.3875
552.60252	13882.9875
556.64279	14126.2875
560.6802	14263.6875
564.71473	14326.4875
568.7464	14412.3875
572.7752	14624.5875
576.80114	14791.6875
580.82422	14908.5875
584.84444	15092.6875
588.86181	15329.5875
592.87633	15585.1875
596.888	15752.8875
600.89682	15807.2875
604.9028	16147.9875
608.90594	17583.2875
612.90624	19338.2875
616.90371	18563.1875
620.89834	15637.9875
624.89015	14252.2875
628.87913	14055.2875
632.86528	14237.6875
636.84862	14423.9875
640.82913	14353.2875
644.80683	14014.8875
648.78172	13758.1875
652.75379	13664.4875
656.72306	13826.8875
660.68952	14056.6875
664.65319	13999.2875
668.61405	13738.7875
672.57211	13612.9875
676.52738	13686.8875
680.47986	13715.1875
684.42955	13611.4875
688.37646	13558.6875
692.32058	13581.2875
696.26192	13678.8875
700.20048	13769.6875
704.13626	13868.2875
708.06928	13917.3875
711.99952	13876.4875
715.927	13825.3875
719.85171	13827.3875
723.77365	13862.5875
727.69284	13825.0875
731.60928	13730.8875
735.52295	13704.8875
739.43388	13707.3875
743.34206	13737.3875
747.24749	13776.3875
751.15017	13861.9875
755.05012	13946.1875
758.94733	14254.4875
762.8418	14969.9875
766.73354	16180.6875
770.62254	17404.3875
774.50882	17768.6875
778.39237	17077.5875
782.27321	15903.6875
786.15132	14823.1875
790.02671	14128.4875
793.89938	13806.2875
797.76935	13628.5875
801.6366	13529.3875
805.50115	13503.5875
809.36299	13455.4875
813.22213	13448.9875
817.07857	13434.7875
820.93231	13387.1875
824.78336	13353.5875
828.63172	13359.9875
832.47738	13321.0875
836.32036	13295.3875
840.16066	13282.5875
843.99827	13310.8875
847.8332	13296.4875
851.66546	13292.5875
855.49504	13331.7875
859.32195	13319.1875
863.1462	13314.8875
866.96777	13320.2875
870.78668	13295.7875
874.60293	13318.3875
878.41652	13339.2875
882.22745	13373.7875
886.03573	13441.4875
889.84136	13417.8875
893.64433	13409.5875
897.44466	13357.5875
901.24235	13303.3875
905.0374	13294.4875
908.8298	13236.5875
912.61957	13202.8875
916.40671	13244.9875
920.19121	13335.6875
923.97308	13404.2875
927.75233	13397.4875
931.52895	13309.6875
935.30295	13237.8875
939.07433	13034.4875
942.84309	12890.4875
946.60924	12802.1875
950.37278	12771.1875
954.13371	12746.0875
957.89203	12732.5875
961.64774	12725.3875
965.40086	12726.2875
969.15137	12693.5875
972.89929	12638.8875
976.64461	12620.2875
980.38733	12591.6875
984.12747	12637.4875
987.86502	12653.8875
991.59999	12684.2875
995.33237	12754.7875
999.06217	12863.8875
1002.78939	13017.3875
1006.51404	13207.0875
1010.23611	13372.4875
1013.95561	13456.4875
1017.67255	13462.2875
1021.38692	13405.1875
1025.09872	13240.6875
1028.80796	13131.5875
1032.51465	13012.4875
1036.21877	13015.6875
1039.92035	13055.3875
1043.61937	13116.9875
1047.31584	13188.7875
1051.00976	13238.9875
1054.70114	13278.9875
1058.38998	13303.9875
1062.07627	13371.4875
1065.76003	13485.2875
1069.44126	13599.4875
1073.11995	13742.2875
1076.79611	13942.3875
1080.46974	14050.1875
1084.14085	14178.9875
1087.80943	14242.7875
1091.47549	14309.5875
1095.13903	14323.6875
1098.80005	14159.5875
1102.45857	13970.2875
1106.11456	13831.6875
1109.76805	13784.8875
1113.41903	13824.8875
1117.06751	13990.1875
1120.71348	14151.9875
1124.35696	14380.5875
1127.99793	14603.2875
1131.63641	14666.1875
1135.2724	14542.4875
1138.90589	14352.6875
1142.5369	14204.1875
1146.16542	14132.1875
1149.79145	14050.2875
1153.415	14035.6875
1157.03607	14099.5875
1160.65467	14267.8875
1164.27079	14573.9875
1167.88443	15055.1875
1171.49561	15735.8875
1175.10432	16675.2875
1178.71056	17933.2875
1182.31434	19038.5875
1185.91565	19535.1875
1189.51451	19401.0875
1193.11091	19042.2875
1196.70485	18379.4875
1200.29634	17700.2875
1203.88538	17179.1875
1207.47197	16570.2875
1211.05612	16028.5875
1214.63782	15657.3875
1218.21708	15412.0875
1221.79391	15278.3875
1225.36829	15203.6875
1228.94024	15136.6875
1232.50976	15016.2875
1236.07685	14886.0875
1239.6415	14811.0875
1243.20374	14799.9875
1246.76355	14797.8875
1250.32093	14907.6875
1253.8759	15063.1875
1257.42845	15291.1875
1260.97859	15600.4875
1264.52631	15953.2875
1268.07163	16274.8875
1271.61453	16582.2875
1275.15503	16809.5875
1278.69312	17023.0875
1282.22882	17226.4875
1285.76211	17527.0875
1289.29301	17953.7875
1292.82151	18463.3875
1296.34761	18993.7875
1299.87133	19767.3875
1303.39266	20777.4875
1306.9116	21890.6875
1310.42815	22995.2875
1313.94233	23638.9875
1317.45412	23381.4875
1320.96354	22702.7875
1324.47058	22004.7875
1327.97525	21298.3875
1331.47754	20712.5875
1334.97747	20429.3875
1338.47502	20450.2875
1341.97022	20714.7875
1345.46305	21191.6875
1348.95352	21820.0875
1352.44163	22462.4875
1355.92738	23317.6875
1359.41078	24638.6875
1362.89183	25940.5875
1366.37053	25787.3875
1369.84688	23558.1875
1373.32088	20845.7875
1376.79254	19043.2875
1380.26186	18077.1875
1383.72883	17691.4875
1387.19347	17358.0875
1390.65578	17009.4875
1394.11575	16694.6875
1397.57339	16486.1875
1401.0287	16424.3875
1404.48168	16386.3875
1407.93234	16303.6875
1411.38068	16140.0875
1414.82669	15934.4875
1418.27039	15589.6875
1421.71177	15269.9875
1425.15083	14954.6875
1428.58758	14810.4875
1432.02203	14743.9875
1435.45416	14842.9875
1438.88399	14995.1875
1442.31151	15109.6875
1445.73673	15244.8875
1449.15965	15326.2875
1452.58027	15425.0875
1455.9986	15426.9875
1459.41463	15497.9875
1462.82837	15652.2875
1466.23982	16018.4875
1469.64898	16347.3875
1473.05586	16619.3875
1476.46045	16842.6875
1479.86276	16984.6875
1483.26279	17069.9875
1486.66054	17267.1875
1490.05602	17555.7875
1493.44922	18043.6875
1496.84016	18744.8875
1500.22882	19863.9875
1503.61521	21298.8875
1506.99934	22732.3875
1510.38121	23624.5875
1513.76081	23555.7875
1517.13816	22493.9875
1520.51324	20966.5875
1523.88607	19726.9875
1527.25665	18942.4875
1530.62498	18524.7875
1533.99105	18226.9875
1537.35488	17908.9875
1540.71647	17520.6875
1544.07581	17148.0875
1547.4329	16787.6875
1550.78776	16490.3875
1554.14038	16302.4875
1557.49077	16277.6875
1560.83892	16394.1875
1564.18484	16603.0875
1567.52853	16899.6875
1570.86999	17200.4875
1574.20922	17441.3875
1577.54624	17441.9875
1580.88103	17048.2875
1584.2136	16471.2875
1587.54395	16199.7875
1590.87208	16390.1875
1594.19801	16930.7875
1597.52172	17579.6875
1600.84321	17866.7875
1604.16251	17452.3875
1607.47959	16755.6875
1610.79447	15973.0875
1614.10715	15215.1875
1617.41763	14465.1875
1620.7259	13905.4875
1624.03199	13572.3875
1627.33587	13467.4875
1630.63757	13581.4875
1633.93707	13991.5875
1637.23439	14776.4875
1640.52951	16089.4875
1643.82246	17790.8875
1647.11321	19505.3875
1650.40179	20303.0875
1653.68819	19690.8875
1656.97241	17765.2875
1660.25446	15670.9875
1663.53433	14105.7875
1666.81203	13107.3875
1670.08756	12504.7875
1673.36092	12094.7875
1676.63211	11828.6875
1679.90115	11675.9875
1683.16801	11524.4875
1686.43272	11415.7875
1689.69527	11318.6875
1692.95567	11255.8875
1696.2139	11180.4875
1699.46999	11133.5875
1702.72392	11091.1875
1705.97571	11056.9875
1709.22535	11029.4875
1712.47284	11026.7875
1715.71819	10986.3875
1718.96139	10923.8875
1722.20246	10884.9875
1725.44139	10820.5875
1728.67818	10764.7875
1731.91284	10702.3875
1735.14537	10654.5875
1738.37576	10602.3875
1741.60403	10573.1875
1744.83017	10517.7875
1748.05418	10507.1875
1751.27607	10460.9875
1754.49584	10443.0875
1757.71349	10418.8875
1760.92903	10401.7875
1764.14244	10402.5875
1767.35375	10392.6875
1770.56294	10363.2875
1773.77002	10322.3875
1776.97499	10306.2875
1780.17785	10247.9875
1783.37861	10250.8875
1786.57727	10225.1875
1789.77382	10238.3875
1792.96828	10189.8875
1796.16064	10177.0875
1799.3509	10158.7875
1802.53907	10130.3875
1805.72514	10092.1875
1808.90913	10061.0875
1812.09102	10042.4875
1815.27083	10015.5875
1818.44856	9977.0875
1821.6242	9990.0875
1824.79776	9936.5875
1827.96924	9920.5875
1831.13864	9925.2875
1834.30597	9894.1875
1837.47122	9866.0875
1840.6344	9842.4875
1843.7955	9845.0875
1846.95454	9838.2875
1850.11151	9800.3875
1853.26642	9814.9875
1856.41926	9809.3875
1859.57004	9778.4875
1862.71876	9779.0875
1865.86542	9783.0875
1869.01003	9763.5875
1872.15258	9747.9875
1875.29308	9721.1875
1878.43152	9702.8875
1881.56792	9728.8875
1884.70227	9693.8875
1887.83457	9693.5875
1890.96482	9684.8875
1894.09304	9653.6875
1897.21921	9626.5875
1900.34335	9607.7875
1903.46544	9599.3875
1906.58551	9593.3875
1909.70353	9590.6875
1912.81953	9553.6875
1915.93349	9541.6875
1919.04543	9500.0875
1922.15534	9498.9875
1925.26322	9460.8875
1928.36908	9462.6875
1931.47292	9449.8875
1934.57473	9402.2875
1937.67453	9387.3875
1940.77232	9385.6875
1943.86808	9350.6875
1946.96184	9299.0875
1950.05358	9249.9875
1953.14331	9221.1875
1956.23103	9178.4875
1959.31675	9126.7875
1962.40046	9142.3875
1965.48217	9121.5875
1968.56188	9094.0875
1971.63959	9059.3875
1974.7153	9039.5875
1977.78901	8993.3875
1980.86073	8991.4875
1983.93046	8929.1875
1986.99819	8895.4875
1990.06394	8890.3875
1993.1277	8845.1875
1996.18947	8833.6875
1999.24925	8795.6875
2002.30706	8776.3875
2005.36288	8705.8875
2008.41672	8675.4875
2011.46859	8671.9875
2014.51848	8637.6875
2017.56639	8607.6875
2020.61233	8591.3875
2023.6563	8556.5875
2026.6983	8538.1875
2029.73833	8514.6875
2032.7764	8482.4875
2035.8125	8463.8875
2038.84664	8418.9875
2041.87881	8401.7875
2044.90903	8399.6875
2047.93729	8362.9875
2050.96359	8355.6875
2053.98794	8322.3875
2057.01034	8331.5875
2060.03078	8294.7875
2063.04927	8270.5875
2066.06582	8266.4875
2069.08042	8279.7875
2072.09307	8271.1875
2075.10378	8254.5875
2078.11255	8251.8875
2081.11938	8276.1875
2084.12426	8256.7875
2087.12722	8254.5875
2090.12824	8249.0875
2093.12732	8235.7875
2096.12447	8218.6875
2099.11969	8220.7875
2102.11299	8230.1875
2105.10435	8237.3875
2108.09379	8209.6875
2111.08131	8236.9875
2114.0669	8243.2875
2117.05057	8231.5875
2120.03233	8234.0875
2123.01216	8241.7875
2125.99008	8255.0875
2128.96609	8265.2875
2131.94018	8227.5875
2134.91236	8231.7875
2137.88263	8232.6875
2140.851	8250.0875
2143.81746	8237.2875
2146.78201	8246.5875
2149.74466	8224.0875
2152.7054	8216.9875
2155.66425	8225.6875
2158.6212	8192.4875
2161.57625	8186.6875
2164.52941	8197.5875
2167.48067	8182.1875
2170.43004	8185.5875
2173.37752	8168.5875
2176.32311	8156.3875
2179.26681	8152.4875
2182.20863	8147.8875
2185.14856	8147.5875
2188.08661	8141.4875
2191.02278	8141.2875
2193.95707	8119.6875
2196.88948	8108.1875
2199.82001	8095.1875
2202.74867	8095.4875
2205.67545	8093.4875
2208.60037	8085.7875
2211.52341	8049.7875
2214.44458	8027.0875
2217.36388	8008.0875
2220.28132	7984.3875
2223.1969	7988.7875
2226.11061	7994.2875
2229.02246	7949.9875
2231.93245	7939.8875
2234.84058	7901.4875
2237.74686	7910.0875
2240.65128	7893.2875
2243.55385	7879.5875
2246.45456	7881.5875
2249.35343	7872.0875
2252.25044	7862.6875
2255.14561	7818.8875
2258.03893	7840.0875
2260.93041	7807.2875
2263.82004	7756.4875
2266.70783	7750.1875
2269.59378	7719.1875
2272.4779	7737.5875
2275.36017	7705.6875
2278.24061	7682.1875
2281.11922	7661.4875
2283.996	7632.7875
2286.87094	7657.9875
2289.74405	7613.7875
2292.61534	7584.6875
2295.4848	7587.4875
2298.35243	7603.5875
2301.21824	7558.4875
2304.08223	7567.0875
2306.94439	7551.5875
2309.80474	7545.9875
2312.66327	7538.1875
2315.51999	7537.3875
2318.37489	7524.6875
2321.22797	7511.9875
2324.07925	7478.8875
2326.92871	7470.8875
2329.77637	7475.5875
2332.62222	7469.9875
2335.46626	7426.8875
2338.3085	7416.0875
2341.14893	7401.3875
2343.98756	7416.1875
2346.8244	7400.8875
2349.65943	7393.2875
2352.49267	7393.4875
2355.32411	7384.1875
2358.15376	7403.4875
2360.98161	7385.1875
2363.80768	7385.2875
2366.63195	7407.3875
2369.45444	7376.7875
2372.27514	7357.5875
2375.09405	7350.1875
2377.91118	7327.8875
2380.72652	7322.8875
2383.54009	7283.7875
2386.35187	7284.2875
2389.16188	7262.5875
2391.97011	7252.8875
2394.77657	7230.2875
2397.58125	7195.7875
2400.38416	7181.0875
2403.18529	7170.6875
2405.98466	7161.3875
2408.78226	7147.5875
2411.57809	7120.8875
2414.37216	7111.9875
2417.16446	7114.5875
2419.955	7102.5875
2422.74378	7107.0875
2425.5308	7087.2875
2428.31606	7086.1875
2431.09956	7066.4875
2433.88131	7067.8875
2436.6613	7041.9875
2439.43954	7054.8875
2442.21603	7035.3875
2444.99077	7022.6875
2447.76377	7015.3875
2450.53501	7005.3875
2453.30451	7007.9875
2456.07226	7001.2875
2458.83827	7003.6875
2461.60254	6973.9875
2464.36507	7001.5875
2467.12586	6969.1875
2469.88492	6972.4875
2472.64224	6970.1875
2475.39782	6962.7875
2478.15167	6960.2875
2480.90379	6975.1875
2483.65417	6957.1875
2486.40283	6974.3875
2489.14976	6971.8875
2491.89497	6952.5875
2494.63845	6967.4875
2497.3802	6950.5875
2500.12024	6925.8875
2502.85855	6920.7875
2505.59514	6918.9875
2508.33002	6886.0875
2511.06318	6861.6875
2513.79462	6855.8875
2516.52435	6840.7875
2519.25237	6837.2875
2521.97867	6822.8875
2524.70327	6831.4875
2527.42616	6805.9875
2530.14734	6807.7875
2532.86681	6784.0875
2535.58458	6778.2875
2538.30065	6777.3875
2541.01501	6763.1875
2543.72768	6745.5875
2546.43864	6751.9875
2549.14791	6732.0875
2551.85548	6723.7875
2554.56136	6683.0875
2557.26554	6682.3875
2559.96803	6648.0875
2562.66883	6642.7875
2565.36794	6635.4875
2568.06536	6635.9875
2570.7611	6605.2875
2573.45514	6586.4875
2576.14751	6585.2875
2578.83819	6581.7875
2581.52719	6569.5875
2584.21451	6562.0875
2586.90015	6554.4875
2589.58411	6535.2875
2592.2664	6525.4875
2594.94701	6543.5875
2597.62594	6517.3875
2600.30321	6493.3875
2602.9788	6493.3875
2605.65273	6464.6875
2608.32498	6471.9875
2610.99557	6451.3875
2613.66449	6464.8875
2616.33175	6427.5875
2618.99734	6437.6875
2621.66128	6419.2875
2624.32355	6419.8875
2626.98416	6385.8875
2629.64311	6387.2875
2632.30041	6393.8875
2634.95605	6381.0875
2637.61004	6388.5875
2640.26238	6358.0875
2642.91306	6353.4875
2645.56209	6339.9875
2648.20948	6351.6875
2650.85521	6329.2875
2653.4993	6350.0875
2656.14175	6323.0875
2658.78255	6324.7875
2661.42171	6350.8875
2664.05923	6341.1875
2666.6951	6320.3875
2669.32934	6333.7875
2671.96194	6343.8875
2674.59291	6345.3875
2677.22224	6312.4875
2679.84993	6336.1875
2682.476	6296.3875
2685.10043	6309.5875
2687.72324	6301.4875
2690.34441	6292.5875
2692.96396	6289.6875
2695.58188	6311.0875
2698.19818	6302.1875
2700.81285	6296.7875
2703.4259	6298.8875
2706.03733	6286.8875
2708.64714	6297.0875
2711.25533	6288.6875
2713.86191	6307.8875
2716.46687	6312.9875
2719.07021	6296.6875
2721.67194	6298.8875
2724.27206	6305.0875
2726.87057	6300.2875
2729.46747	6281.5875
2732.06276	6278.6875
2734.65644	6285.6875
2737.24852	6277.3875
2739.83899	6251.4875
2742.42786	6249.7875
2745.01513	6234.1875
2747.60079	6223.0875
2750.18486	6211.3875
2752.76733	6202.6875
2755.3482	6192.6875
2757.92747	6200.8875
2760.50515	6177.7875
2763.08123	6183.3875
2765.65573	6180.3875
2768.22863	6169.9875
2770.79994	6155.3875
2773.36967	6163.6875
2775.9378	6148.6875
2778.50435	6104.9875
2781.06932	6111.3875
2783.6327	6119.4875
2786.1945	6117.3875
2788.75471	6103.0875
2791.31335	6089.6875
2793.87041	6084.5875
2796.42589	6049.6875
2798.97979	6064.3875
2801.53212	6051.4875
2804.08288	6036.4875
2806.63206	6012.0875
2809.17967	6008.4875
2811.72571	6014.7875
2814.27018	5992.7875
2816.81308	5973.9875
2819.35442	5964.2875
2821.89419	5956.1875
2824.43239	5955.2875
2826.96904	5926.0875
2829.50412	5929.3875
2832.03763	5920.2875
2834.56959	5905.2875
2837.1	5909.8875
2839.62884	5908.9875
2842.15613	5922.9875
2844.68186	5926.5875
2847.20604	5918.2875
2849.72867	5920.2875
2852.24974	5927.3875
2854.76927	5899.4875
2857.28724	5903.2875
2859.80367	5889.1875
2862.31855	5906.5875
2864.83189	5879.8875
2867.34368	5857.2875
2869.85393	5859.9875
2872.36264	5882.8875
2874.8698	5847.4875
2877.37543	5862.1875
2879.87952	5857.7875
2882.38207	5853.5875
2884.88308	5836.6875
2887.38256	5857.7875
2889.88051	5838.1875
2892.37692	5837.6875
2894.8718	5822.2875
2897.36515	5851.7875
2899.85698	5830.6875
2902.34727	5825.2875
2904.83604	5825.7875
2907.32328	5841.4875
2909.809	5837.4875
2912.29319	5842.5875
2914.77587	5849.0875
2917.25702	5854.9875
2919.73665	5850.5875
2922.21476	5858.4875
2924.69136	5827.7875
2927.16644	5815.2875
2929.64	5819.2875
2932.11205	5805.9875
2934.58258	5774.0875
2937.05161	5801.5875
2939.51912	5780.9875
2941.98513	5774.1875
2944.44962	5741.5875
2946.91261	5726.4875
2949.37409	5736.4875
2951.83407	5737.0875
2954.29254	5714.0875
2956.74951	5726.6875
2959.20498	5727.8875
2961.65895	5723.8875
2964.11142	5713.9875
2966.56239	5697.5875
2969.01186	5697.9875
2971.45984	5687.2875
2973.90632	5686.2875
2976.35131	5663.1875
2978.7948	5647.5875
2981.23681	5623.5875
2983.67732	5624.5875
2986.11635	5596.9875
2988.55388	5578.4875
2990.98993	5592.8875
2993.4245	5565.8875
2995.85758	5566.3875
2998.28917	5557.4875
3000.71928	5534.3875
3003.14791	5529.7875
3005.57506	5547.2875
3008.00073	5534.8875
3010.42493	5509.4875
3012.84764	5503.2875
3015.26888	5490.2875
3017.68865	5491.2875
3020.10694	5501.3875
3022.52376	5459.0875
3024.9391	5457.4875
3027.35298	5454.9875
3029.76539	5426.6875
3032.17632	5423.3875
3034.5858	5405.9875
3036.9938	5413.0875
3039.40034	5418.9875
3041.80542	5400.6875
3044.20903	5399.1875
3046.61118	5399.5875
3049.01187	5385.2875
3051.4111	5381.4875
3053.80888	5356.7875
3056.20519	5338.1875
3058.60005	5337.0875
3060.99345	5324.5875
3063.3854	5320.1875
3065.7759	5307.2875
3068.16494	5288.6875
3070.55254	5289.9875
3072.93868	5280.6875
3075.32338	5274.4875
