Data from AgNP_FTO_APTES_UA_100uM_CRN_20uM_R6G_10uM_NaF_0.1M_Addition_RamanShift__0__16-25-50-473.txt Node

Date: Thu Mar 24 16:25:50 GMT 2022
User: TCL
Spectrometer: QEP01345
Trigger mode: 4
Integration Time (sec): 7.000000E0
Scans to average: 10
Electric dark correction enabled: true
Nonlinearity correction enabled: false
Boxcar width: 0
XAxis mode: Raman Shifts
Number of Pixels in Spectrum: 1044
>>>>>Begin Spectral Data<<<<<
46.04893	-0.8625
50.45542	-1.4625
54.85868	0.0375
59.25871	0.6375
63.6555	19.8375
68.04907	20.3375
72.43941	20.2375
76.82654	22.2375
81.21044	23.6375
85.59113	23.1375
89.96862	26.2375
94.34289	21.6375
98.71396	27.3375
103.08183	28.3375
107.4465	27.1375
111.80798	28.3375
116.16626	29.2375
120.52136	28.1375
124.87327	30.2375
129.222	29.6375
133.56755	36.2375
137.90993	33.5375
142.24913	46.3375
146.58517	47.7375
150.91804	58.3375
155.24774	69.0375
159.57429	90.1375
163.89768	118.7375
168.21792	157.7375
172.53501	217.0375
176.84895	306.1375
181.15975	427.7375
185.46741	605.9375
189.77193	832.0375
194.07331	1112.9375
198.37157	1446.4375
202.6667	1801.6375
206.9587	2138.6375
211.24758	2491.5375
215.53334	2878.8375
219.81599	3292.5375
224.09553	3752.6375
228.37195	4274.2375
232.64527	4806.4375
236.91549	5353.6375
241.18261	5846.7375
245.44663	6254.5375
249.70755	6519.9375
253.96539	6787.5375
258.22014	7025.3375
262.4718	7226.9375
266.72039	7392.3375
270.96589	7457.9375
275.20832	7418.7375
279.44768	7294.7375
283.68397	7148.5375
287.91719	7063.7375
292.14735	7056.4375
296.37445	7141.5375
300.59849	7363.8375
304.81948	7712.4375
309.03742	7965.5375
313.25231	8019.6375
317.46415	7822.3375
321.67296	7399.1375
325.87872	6992.8375
330.08145	6814.1375
334.28114	6798.3375
338.47781	6902.5375
342.67145	7056.9375
346.86207	7268.5375
351.04966	7623.1375
355.23424	8000.5375
359.4158	8233.6375
363.59435	8323.7375
367.76989	8318.0375
371.94243	8282.3375
376.11196	8236.0375
380.27849	8215.6375
384.44203	8172.9375
388.60257	8118.9375
392.76012	8079.6375
396.91468	8162.9375
401.06626	8334.9375
405.21485	8443.4375
409.36047	8309.4375
413.50311	7962.0375
417.64277	7675.2375
421.77947	7559.2375
425.9132	7568.3375
430.04396	7626.7375
434.17176	7677.6375
438.2966	7793.3375
442.41849	8019.2375
446.53742	8385.6375
450.6534	8730.0375
454.76644	8868.3375
458.87653	8849.5375
462.98368	8671.1375
467.08789	8408.8375
471.18916	8182.4375
475.2875	7947.0375
479.38291	7749.1375
483.4754	7568.7375
487.56496	7411.7375
491.6516	7311.0375
495.73531	7210.1375
499.81612	7177.1375
503.89401	7217.7375
507.96899	7240.7375
512.04106	7307.4375
516.11023	7359.3375
520.1765	7390.1375
524.23987	7431.7375
528.30034	7447.1375
532.35792	7395.6375
536.41261	7272.1375
540.46441	7116.5375
544.51333	7039.8375
548.55936	7073.4375
552.60252	7215.6375
556.64279	7426.9375
560.6802	7630.4375
564.71473	7782.7375
568.7464	8063.4375
572.7752	8363.6375
576.80114	8336.6375
580.82422	8242.6375
584.84444	8391.1375
588.86181	8784.7375
592.87633	9394.2375
596.888	9716.3375
600.89682	9483.8375
604.9028	9721.3375
608.90594	11672.7375
612.90624	14246.3375
616.90371	13255.2375
620.89834	9400.2375
624.89015	7598.6375
628.87913	7270.8375
632.86528	7362.3375
636.84862	7440.0375
640.82913	7281.2375
644.80683	6865.7375
648.78172	6647.6375
652.75379	6666.9375
656.72306	6950.3375
660.68952	7301.4375
664.65319	7153.4375
668.61405	6764.3375
672.57211	6628.9375
676.52738	6637.9375
680.47986	6613.1375
684.42955	6529.6375
688.37646	6482.8375
692.32058	6540.6375
696.26192	6684.8375
700.20048	6874.9375
704.13626	6998.4375
708.06928	7000.1375
711.99952	6932.8375
715.927	6906.5375
719.85171	6931.2375
723.77365	6892.3375
727.69284	6799.2375
731.60928	6746.9375
735.52295	6772.3375
739.43388	6845.9375
743.34206	6847.0375
747.24749	6831.8375
751.15017	6856.8375
755.05012	6988.6375
758.94733	7290.1375
762.8418	8072.2375
766.73354	9397.5375
770.62254	10666.4375
774.50882	11122.5375
778.39237	10606.1375
782.27321	9316.3375
786.15132	8017.3375
790.02671	7230.3375
793.89938	6835.2375
797.76935	6673.8375
801.6366	6614.7375
805.50115	6573.0375
809.36299	6549.3375
813.22213	6485.1375
817.07857	6497.4375
820.93231	6490.0375
824.78336	6483.5375
828.63172	6498.9375
832.47738	6502.2375
836.32036	6476.1375
840.16066	6459.8375
843.99827	6454.4375
847.8332	6410.2375
851.66546	6415.5375
855.49504	6393.1375
859.32195	6398.5375
863.1462	6372.2375
866.96777	6363.5375
870.78668	6358.2375
874.60293	6384.2375
878.41652	6410.5375
882.22745	6479.9375
886.03573	6522.7375
889.84136	6484.5375
893.64433	6444.3375
897.44466	6434.2375
901.24235	6392.9375
905.0374	6382.3375
908.8298	6314.0375
912.61957	6298.3375
916.40671	6319.5375
920.19121	6371.0375
923.97308	6463.1375
927.75233	6557.6375
931.52895	6578.1375
935.30295	6461.8375
939.07433	6259.6375
942.84309	6128.1375
946.60924	6049.6375
950.37278	6010.1375
954.13371	6002.2375
957.89203	5979.6375
961.64774	5966.3375
965.40086	5976.1375
969.15137	5958.1375
972.89929	5957.1375
976.64461	5943.0375
980.38733	5945.3375
984.12747	5955.8375
987.86502	6011.8375
991.59999	6090.8375
995.33237	6189.6375
999.06217	6380.8375
1002.78939	6601.9375
1006.51404	6802.4375
1010.23611	7012.6375
1013.95561	7089.3375
1017.67255	7031.7375
1021.38692	6818.3375
1025.09872	6572.9375
1028.80796	6408.8375
1032.51465	6380.9375
1036.21877	6426.1375
1039.92035	6461.8375
1043.61937	6500.8375
1047.31584	6499.2375
1051.00976	6496.6375
1054.70114	6475.8375
1058.38998	6468.0375
1062.07627	6485.5375
1065.76003	6549.3375
1069.44126	6602.7375
1073.11995	6759.7375
1076.79611	6945.8375
1080.46974	7106.1375
1084.14085	7302.0375
1087.80943	7536.6375
1091.47549	7632.6375
1095.13903	7527.4375
1098.80005	7269.8375
1102.45857	7024.3375
1106.11456	6920.8375
1109.76805	6963.2375
1113.41903	7095.0375
1117.06751	7342.9375
1120.71348	7655.0375
1124.35696	7991.0375
1127.99793	8245.6375
1131.63641	8186.9375
1135.2724	7829.4375
1138.90589	7534.3375
1142.5369	7389.8375
1146.16542	7328.5375
1149.79145	7316.5375
1153.415	7353.1375
1157.03607	7384.8375
1160.65467	7555.2375
1164.27079	7875.1375
1167.88443	8424.7375
1171.49561	9224.6375
1175.10432	10478.7375
1178.71056	12128.3375
1182.31434	13523.6375
1185.91565	13883.6375
1189.51451	13308.9375
1193.11091	12359.6375
1196.70485	11339.0375
1200.29634	10565.7375
1203.88538	9956.8375
1207.47197	9383.8375
1211.05612	8901.4375
1214.63782	8658.1375
1218.21708	8579.3375
1221.79391	8600.4375
1225.36829	8683.3375
1228.94024	8622.5375
1232.50976	8385.9375
1236.07685	8187.3375
1239.6415	8118.9375
1243.20374	8225.3375
1246.76355	8337.2375
1250.32093	8452.3375
1253.8759	8681.3375
1257.42845	9009.3375
1260.97859	9456.5375
1264.52631	9940.7375
1268.07163	10345.2375
1271.61453	10632.0375
1275.15503	10717.7375
1278.69312	10730.5375
1282.22882	10900.6375
1285.76211	11342.1375
1289.29301	12015.7375
1292.82151	12736.6375
1296.34761	13503.7375
1299.87133	14453.2375
1303.39266	15762.8375
1306.9116	17425.1375
1310.42815	19144.8375
1313.94233	19943.1375
1317.45412	19314.5375
1320.96354	17926.5375
1324.47058	16649.5375
1327.97525	15414.1375
1331.47754	14378.2375
1334.97747	13835.9375
1338.47502	13671.0375
1341.97022	13765.9375
1345.46305	14060.7375
1348.95352	14663.5375
1352.44163	15697.3375
1355.92738	17499.2375
1359.41078	20253.5375
1362.89183	22720.1375
1366.37053	22231.0375
1369.84688	18734.9375
1373.32088	15159.7375
1376.79254	13235.9375
1380.26186	12586.7375
1383.72883	12311.0375
1387.19347	11912.9375
1390.65578	11359.4375
1394.11575	10916.1375
1397.57339	10775.2375
1401.0287	10780.0375
1404.48168	10829.8375
1407.93234	10784.0375
1411.38068	10711.4375
1414.82669	10582.3375
1418.27039	10359.0375
1421.71177	9974.6375
1425.15083	9582.5375
1428.58758	9470.4375
1432.02203	9699.3375
1435.45416	10149.3375
1438.88399	10461.1375
1442.31151	10558.0375
1445.73673	10736.2375
1449.15965	10787.5375
1452.58027	10620.3375
1455.9986	10401.3375
1459.41463	10217.2375
1462.82837	10325.8375
1466.23982	10722.3375
1469.64898	11162.2375
1473.05586	11516.4375
1476.46045	11834.0375
1479.86276	12083.4375
1483.26279	12315.8375
1486.66054	12597.6375
1490.05602	13050.3375
1493.44922	13657.0375
1496.84016	14246.0375
1500.22882	14994.6375
1503.61521	16192.1375
1506.99934	17735.2375
1510.38121	18987.1375
1513.76081	18996.3375
1517.13816	17494.0375
1520.51324	15220.3375
1523.88607	13356.2375
1527.25665	12256.4375
1530.62498	11775.2375
1533.99105	11504.2375
1537.35488	11221.0375
1540.71647	10989.2375
1544.07581	10738.8375
1547.4329	10465.0375
1550.78776	10202.9375
1554.14038	10024.4375
1557.49077	9943.2375
1560.83892	10003.1375
1564.18484	10281.7375
1567.52853	10732.1375
1570.86999	11164.8375
1574.20922	11502.7375
1577.54624	11467.9375
1580.88103	10932.0375
1584.2136	10317.6375
1587.54395	10151.6375
1590.87208	10631.2375
1594.19801	11694.6375
1597.52172	12980.2375
1600.84321	13669.0375
1604.16251	13148.8375
1607.47959	11879.5375
1610.79447	10427.6375
1614.10715	9159.9375
1617.41763	8289.9375
1620.7259	7821.0375
1624.03199	7637.8375
1627.33587	7704.8375
1630.63757	8014.5375
1633.93707	8690.1375
1637.23439	9866.5375
1640.52951	11835.3375
1643.82246	14535.4375
1647.11321	17165.3375
1650.40179	18316.7375
1653.68819	17049.9375
1656.97241	14064.4375
1660.25446	11164.0375
1663.53433	9165.2375
1666.81203	8024.0375
1670.08756	7313.7375
1673.36092	6834.5375
1676.63211	6500.4375
1679.90115	6303.3375
1683.16801	6194.8375
1686.43272	6109.8375
1689.69527	6105.0375
1692.95567	6201.4375
1696.2139	6457.3375
1699.46999	6695.5375
1702.72392	6688.1375
1705.97571	6413.1375
1709.22535	6129.2375
1712.47284	5893.5375
1715.71819	5778.4375
1718.96139	5680.4375
1722.20246	5642.6375
1725.44139	5570.1375
1728.67818	5509.1375
1731.91284	5483.9375
1735.14537	5452.2375
1738.37576	5416.9375
1741.60403	5420.5375
1744.83017	5418.0375
1748.05418	5455.0375
1751.27607	5532.5375
1754.49584	5673.7375
1757.71349	5817.2375
1760.92903	5912.1375
1764.14244	5879.7375
1767.35375	5859.3375
1770.56294	5839.0375
1773.77002	5712.6375
1776.97499	5537.1375
1780.17785	5360.3375
1783.37861	5246.1375
1786.57727	5178.8375
1789.77382	5134.4375
1792.96828	5091.2375
1796.16064	5062.5375
1799.3509	5050.1375
1802.53907	5026.6375
1805.72514	5012.2375
1808.90913	5007.3375
1812.09102	4995.7375
1815.27083	4962.1375
1818.44856	4959.2375
1821.6242	4921.6375
1824.79776	4909.7375
1827.96924	4888.4375
1831.13864	4887.4375
1834.30597	4876.8375
1837.47122	4868.0375
1840.6344	4858.1375
1843.7955	4870.4375
1846.95454	4839.6375
1850.11151	4834.0375
1853.26642	4828.5375
1856.41926	4805.5375
1859.57004	4808.3375
1862.71876	4804.2375
1865.86542	4814.7375
1869.01003	4816.2375
1872.15258	4803.3375
1875.29308	4812.4375
1878.43152	4798.4375
1881.56792	4808.5375
1884.70227	4787.5375
1887.83457	4800.7375
1890.96482	4786.7375
1894.09304	4783.9375
1897.21921	4776.9375
1900.34335	4772.6375
1903.46544	4776.7375
1906.58551	4777.9375
1909.70353	4774.9375
1912.81953	4780.4375
1915.93349	4765.5375
1919.04543	4737.7375
1922.15534	4729.6375
1925.26322	4711.9375
1928.36908	4708.7375
1931.47292	4695.1375
1934.57473	4670.0375
1937.67453	4679.5375
1940.77232	4657.9375
1943.86808	4626.4375
1946.96184	4632.1375
1950.05358	4619.2375
1953.14331	4596.3375
1956.23103	4581.9375
1959.31675	4576.3375
1962.40046	4553.1375
1965.48217	4542.9375
1968.56188	4535.2375
1971.63959	4522.5375
1974.7153	4525.1375
1977.78901	4494.8375
1980.86073	4469.5375
1983.93046	4465.7375
1986.99819	4415.5375
1990.06394	4414.4375
1993.1277	4413.2375
1996.18947	4391.6375
1999.24925	4384.9375
2002.30706	4361.8375
2005.36288	4360.3375
2008.41672	4311.3375
2011.46859	4303.8375
2014.51848	4289.6375
2017.56639	4295.2375
2020.61233	4275.4375
2023.6563	4290.5375
2026.6983	4250.9375
2029.73833	4256.5375
2032.7764	4229.4375
2035.8125	4217.5375
2038.84664	4213.2375
2041.87881	4202.3375
2044.90903	4206.5375
2047.93729	4201.1375
2050.96359	4206.3375
2053.98794	4210.1375
2057.01034	4171.3375
2060.03078	4164.0375
2063.04927	4168.2375
2066.06582	4150.4375
2069.08042	4125.6375
2072.09307	4142.1375
2075.10378	4134.8375
2078.11255	4127.4375
2081.11938	4135.0375
2084.12426	4135.6375
2087.12722	4135.4375
2090.12824	4128.6375
2093.12732	4139.3375
2096.12447	4139.6375
2099.11969	4140.4375
2102.11299	4150.5375
2105.10435	4136.6375
2108.09379	4130.9375
2111.08131	4118.1375
2114.0669	4130.2375
2117.05057	4125.3375
2120.03233	4131.1375
2123.01216	4120.0375
2125.99008	4131.3375
2128.96609	4144.9375
2131.94018	4138.6375
2134.91236	4122.7375
2137.88263	4122.6375
2140.851	4125.4375
2143.81746	4110.1375
2146.78201	4120.8375
2149.74466	4112.7375
2152.7054	4102.7375
2155.66425	4099.8375
2158.6212	4099.6375
2161.57625	4098.7375
2164.52941	4095.1375
2167.48067	4085.4375
2170.43004	4081.0375
2173.37752	4088.1375
2176.32311	4092.3375
2179.26681	4077.0375
2182.20863	4077.0375
2185.14856	4096.1375
2188.08661	4077.1375
2191.02278	4082.9375
2193.95707	4080.5375
2196.88948	4066.5375
2199.82001	4076.6375
2202.74867	4079.3375
2205.67545	4060.9375
2208.60037	4052.7375
2211.52341	4040.2375
2214.44458	4030.0375
2217.36388	4029.9375
2220.28132	4012.0375
2223.1969	3998.7375
2226.11061	3988.9375
2229.02246	3986.1375
2231.93245	3994.6375
2234.84058	3970.0375
2237.74686	3968.5375
2240.65128	3955.7375
2243.55385	3968.1375
2246.45456	3953.3375
2249.35343	3952.9375
2252.25044	3938.8375
2255.14561	3962.7375
2258.03893	4003.7375
2260.93041	4068.4375
2263.82004	4003.9375
2266.70783	3946.8375
2269.59378	3929.6375
2272.4779	3918.9375
2275.36017	3900.9375
2278.24061	3876.3375
2281.11922	3870.1375
2283.996	3854.4375
2286.87094	3861.0375
2289.74405	3843.8375
2292.61534	3831.6375
2295.4848	3836.9375
2298.35243	3837.3375
2301.21824	3826.0375
2304.08223	3828.3375
2306.94439	3837.7375
2309.80474	3808.4375
2312.66327	3816.6375
2315.51999	3816.1375
2318.37489	3821.0375
2321.22797	3813.5375
2324.07925	3823.1375
2326.92871	3818.9375
2329.77637	3800.0375
2332.62222	3793.5375
2335.46626	3798.0375
2338.3085	3805.2375
2341.14893	3794.5375
2343.98756	3810.3375
2346.8244	3808.9375
2349.65943	3815.6375
2352.49267	3775.8375
2355.32411	3800.7375
2358.15376	3804.4375
2360.98161	3807.4375
2363.80768	3806.6375
2366.63195	3792.3375
2369.45444	3807.9375
2372.27514	3797.9375
2375.09405	3790.5375
2377.91118	3804.1375
2380.72652	3778.3375
2383.54009	3768.9375
2386.35187	3764.7375
2389.16188	3733.7375
2391.97011	3723.2375
2394.77657	3708.5375
2397.58125	3715.5375
2400.38416	3702.9375
2403.18529	3675.1375
2405.98466	3678.5375
2408.78226	3670.8375
2411.57809	3672.2375
2414.37216	3662.6375
2417.16446	3668.0375
2419.955	3655.0375
2422.74378	3653.4375
2425.5308	3648.0375
2428.31606	3636.4375
2431.09956	3635.1375
2433.88131	3646.6375
2436.6613	3647.5375
2439.43954	3651.0375
2442.21603	3649.9375
2444.99077	3642.2375
2447.76377	3664.0375
2450.53501	3643.5375
2453.30451	3641.5375
2456.07226	3651.8375
2458.83827	3636.4375
2461.60254	3651.0375
2464.36507	3640.0375
2467.12586	3651.0375
2469.88492	3646.6375
2472.64224	3662.5375
2475.39782	3715.8375
2478.15167	3728.5375
2480.90379	3702.7375
2483.65417	3694.8375
2486.40283	3700.1375
2489.14976	3698.0375
2491.89497	3696.8375
2494.63845	3749.2375
2497.3802	3772.8375
2500.12024	3708.0375
2502.85855	3691.4375
2505.59514	3675.5375
2508.33002	3633.5375
2511.06318	3626.8375
2513.79462	3615.8375
2516.52435	3595.0375
2519.25237	3604.1375
2521.97867	3586.8375
2524.70327	3599.2375
2527.42616	3581.0375
2530.14734	3579.5375
2532.86681	3571.2375
2535.58458	3582.2375
2538.30065	3578.6375
2541.01501	3578.7375
2543.72768	3558.9375
2546.43864	3572.5375
2549.14791	3573.4375
2551.85548	3572.4375
2554.56136	3564.2375
2557.26554	3567.6375
2559.96803	3561.8375
2562.66883	3553.2375
2565.36794	3542.6375
2568.06536	3544.4375
2570.7611	3542.9375
2573.45514	3541.7375
2576.14751	3541.7375
2578.83819	3520.9375
2581.52719	3525.3375
2584.21451	3522.2375
2586.90015	3518.6375
2589.58411	3523.4375
2592.2664	3505.2375
2594.94701	3513.6375
2597.62594	3510.6375
2600.30321	3503.1375
2602.9788	3504.2375
2605.65273	3499.5375
2608.32498	3507.1375
2610.99557	3501.3375
2613.66449	3491.3375
2616.33175	3484.0375
2618.99734	3493.4375
2621.66128	3489.2375
2624.32355	3490.3375
2626.98416	3478.8375
2629.64311	3474.2375
2632.30041	3478.2375
2634.95605	3471.3375
2637.61004	3466.4375
2640.26238	3465.7375
2642.91306	3471.8375
2645.56209	3480.8375
2648.20948	3485.7375
2650.85521	3479.0375
2653.4993	3467.5375
2656.14175	3472.8375
2658.78255	3475.7375
2661.42171	3479.5375
2664.05923	3486.0375
2666.6951	3486.3375
2669.32934	3501.5375
2671.96194	3501.1375
2674.59291	3507.4375
2677.22224	3494.5375
2679.84993	3500.6375
2682.476	3487.3375
2685.10043	3472.2375
2687.72324	3473.6375
2690.34441	3476.7375
2692.96396	3488.3375
2695.58188	3479.0375
2698.19818	3482.5375
2700.81285	3486.6375
2703.4259	3639.3375
2706.03733	3923.0375
2708.64714	3722.1375
2711.25533	3610.9375
2713.86191	3575.5375
2716.46687	3551.0375
2719.07021	3522.0375
2721.67194	3499.9375
2724.27206	3507.6375
2726.87057	3501.4375
2729.46747	3495.8375
2732.06276	3509.0375
2734.65644	3486.2375
2737.24852	3493.8375
2739.83899	3488.6375
2742.42786	3482.0375
2745.01513	3494.6375
2747.60079	3487.2375
2750.18486	3481.6375
2752.76733	3474.8375
2755.3482	3466.6375
2757.92747	3463.3375
2760.50515	3462.2375
2763.08123	3456.4375
2765.65573	3469.8375
2768.22863	3459.9375
2770.79994	3463.3375
2773.36967	3451.8375
2775.9378	3458.8375
2778.50435	3449.8375
2781.06932	3451.1375
2783.6327	3457.2375
2786.1945	3443.0375
2788.75471	3450.8375
2791.31335	3445.8375
2793.87041	3448.5375
2796.42589	3445.6375
2798.97979	3428.5375
2801.53212	3421.9375
2804.08288	3418.5375
2806.63206	3424.8375
2809.17967	3409.4375
2811.72571	3404.1375
2814.27018	3428.6375
2816.81308	3421.7375
2819.35442	3417.6375
2821.89419	3413.3375
2824.43239	3419.7375
2826.96904	3403.3375
2829.50412	3405.2375
2832.03763	3395.6375
2834.56959	3401.7375
2837.1	3390.9375
2839.62884	3387.1375
2842.15613	3389.3375
2844.68186	3394.4375
2847.20604	3398.8375
2849.72867	3391.1375
2852.24974	3404.8375
2854.76927	3464.8375
2857.28724	3525.8375
2859.80367	3458.7375
2862.31855	3436.7375
2864.83189	3425.1375
2867.34368	3410.8375
2869.85393	3394.6375
2872.36264	3398.2375
2874.8698	3377.9375
2877.37543	3375.3375
2879.87952	3367.5375
2882.38207	3385.7375
2884.88308	3363.1375
2887.38256	3356.3375
2889.88051	3354.6375
2892.37692	3357.0375
2894.8718	3366.4375
2897.36515	3372.6375
2899.85698	3363.4375
2902.34727	3361.5375
2904.83604	3371.8375
2907.32328	3375.0375
2909.809	3378.7375
2912.29319	3386.4375
2914.77587	3383.6375
2917.25702	3379.4375
2919.73665	3366.8375
2922.21476	3361.8375
2924.69136	3346.5375
2927.16644	3346.4375
2929.64	3350.8375
2932.11205	3341.4375
2934.58258	3322.2375
2937.05161	3319.3375
2939.51912	3323.4375
2941.98513	3325.0375
2944.44962	3313.9375
2946.91261	3293.6375
2949.37409	3292.7375
2951.83407	3298.5375
2954.29254	3294.3375
2956.74951	3304.2375
2959.20498	3299.0375
2961.65895	3290.5375
2964.11142	3282.3375
2966.56239	3286.8375
2969.01186	3280.7375
2971.45984	3269.3375
2973.90632	3261.7375
2976.35131	3257.0375
2978.7948	3241.3375
2981.23681	3226.4375
2983.67732	3236.1375
2986.11635	3222.9375
2988.55388	3211.5375
2990.98993	3203.9375
2993.4245	3203.8375
2995.85758	3188.8375
2998.28917	3188.6375
3000.71928	3177.6375
3003.14791	3169.2375
3005.57506	3167.2375
3008.00073	3163.7375
3010.42493	3154.4375
3012.84764	3155.8375
3015.26888	3138.2375
3017.68865	3138.7375
3020.10694	3135.5375
3022.52376	3121.0375
3024.9391	3106.2375
3027.35298	3110.9375
3029.76539	3102.5375
3032.17632	3093.4375
3034.5858	3089.8375
3036.9938	3086.7375
3039.40034	3069.4375
3041.80542	3076.4375
3044.20903	3059.8375
3046.61118	3066.4375
3049.01187	3047.1375
3051.4111	3060.7375
3053.80888	3050.3375
3056.20519	3031.8375
3058.60005	3023.5375
3060.99345	3028.6375
3063.3854	3011.0375
3065.7759	2994.0375
3068.16494	2995.5375
3070.55254	2995.9375
3072.93868	2988.3375
3075.32338	2970.7375
3077.70662	2963.2375
3080.08842	2960.9375
3082.46878	2958.7375
3084.84769	2953.6375
3087.22515	2956.3375
3089.60118	2964.2375
3091.97576	2967.6375
3094.3489	2955.4375
3096.72061	2951.1375
3099.09087	2943.9375
3101.4597	2946.0375
3103.82709	2937.2375
3106.19305	2948.8375
3108.55757	2931.3375
3110.92066	2914.1375
