Data from AgNP_FTO_APTES_UA_100uM_CRN_2uM_R6G_10uM_NaF_0.1M_Addition_RamanShift__37__14-28-00-338.txt Node

Date: Thu Mar 24 14:28:00 GMT 2022
User: TCL
Spectrometer: QEP01345
Trigger mode: 4
Integration Time (sec): 7.000000E0
Scans to average: 10
Electric dark correction enabled: true
Nonlinearity correction enabled: false
Boxcar width: 0
XAxis mode: Raman Shifts
Number of Pixels in Spectrum: 1044
>>>>>Begin Spectral Data<<<<<
46.04893	0.2
50.45542	-0.4
54.85868	-0.6
59.25871	0.5
63.6555	47
68.04907	51.2
72.43941	52.9
76.82654	54
81.21044	56.9
85.59113	59.5
89.96862	62.5
94.34289	59.4
98.71396	63.4
103.08183	65.4
107.4465	65.3
111.80798	69.9
116.16626	72.5
120.52136	74.3
124.87327	75
129.222	78
133.56755	86.4
137.90993	88.9
142.24913	102.7
146.58517	112.4
150.91804	131.9
155.24774	155.6
159.57429	199.4
163.89768	254.5
168.21792	341.6
172.53501	468.8
176.84895	657.1
181.15975	917.8
185.46741	1295.1
189.77193	1778.6
194.07331	2399.8
198.37157	3083
202.6667	3808.3
206.9587	4540.9
211.24758	5286.2
215.53334	6054.7
219.81599	6875.3
224.09553	7821.8
228.37195	8871.8
232.64527	10017.4
236.91549	11142.1
241.18261	12252.3
245.44663	13147.8
249.70755	13897.2
253.96539	14479.4
258.22014	15006.9
262.4718	15435.8
266.72039	15737.8
270.96589	15870.8
275.20832	15789.6
279.44768	15595.9
283.68397	15337.8
287.91719	15123.6
292.14735	15066.9
296.37445	15187.9
300.59849	15459.2
304.81948	15841.1
309.03742	16204.7
313.25231	16347.5
317.46415	16137
321.67296	15660.2
325.87872	15234.8
330.08145	15045.1
334.28114	15037.8
338.47781	15144.9
342.67145	15444.9
346.86207	15799.2
351.04966	16308.5
355.23424	16823.5
359.4158	17181.1
363.59435	17369.1
367.76989	17400.4
371.94243	17314.4
376.11196	17295.9
380.27849	17322.8
384.44203	17353.2
388.60257	17375.9
392.76012	17384.8
396.91468	17532.4
401.06626	17788.4
405.21485	17996.3
409.36047	17776.1
413.50311	17169.6
417.64277	16685.1
421.77947	16484.6
425.9132	16459.1
430.04396	16554.3
434.17176	16799.5
438.2966	17121.2
442.41849	17765.5
446.53742	18661.7
450.6534	19595.3
454.76644	20070
458.87653	20006.3
462.98368	19524.1
467.08789	18953.2
471.18916	18331.9
475.2875	17741.4
479.38291	17175.8
483.4754	16732.6
487.56496	16359.8
491.6516	16146.1
495.73531	15986
499.81612	15991.9
503.89401	16111.6
507.96899	16204.6
512.04106	16205.6
516.11023	16215.7
520.1765	16220
524.23987	16367.7
528.30034	16426.2
532.35792	16398.5
536.41261	16120.8
540.46441	15765.6
544.51333	15621.7
548.55936	15703.3
552.60252	16072.3
556.64279	16728.8
560.6802	17162.8
564.71473	17352.2
568.7464	17580
572.7752	17990.2
576.80114	18218.3
580.82422	18493.9
584.84444	19258.5
588.86181	20759.6
592.87633	22948.8
596.888	24171.9
600.89682	23106.6
604.9028	22313.1
608.90594	24551.4
612.90624	28017.1
616.90371	26344.7
620.89834	20033.1
624.89015	16913.3
628.87913	16320.2
632.86528	16498.1
636.84862	16553.2
640.82913	16134.6
644.80683	15494.3
648.78172	15011.8
652.75379	15022.5
656.72306	15493.2
660.68952	16054.4
664.65319	15845.8
668.61405	15187.7
672.57211	15015.7
676.52738	15074.8
680.47986	15028.2
684.42955	14800.6
688.37646	14692
692.32058	14778.8
696.26192	15063.8
700.20048	15403.2
704.13626	15552.3
708.06928	15470.2
711.99952	15387.7
715.927	15411.3
719.85171	15518.6
723.77365	15536.9
727.69284	15363.6
731.60928	15249.5
735.52295	15291.5
739.43388	15385.1
743.34206	15467.9
747.24749	15533.8
751.15017	15610.2
755.05012	15808.5
758.94733	16436.6
762.8418	17849.7
766.73354	20311.9
770.62254	22698.9
774.50882	23487.8
778.39237	22267.3
782.27321	19939.7
786.15132	17692.3
790.02671	16256.5
793.89938	15533.7
797.76935	15168.4
801.6366	15004.9
805.50115	14865.6
809.36299	14773.2
813.22213	14682.4
817.07857	14629.6
820.93231	14557.8
824.78336	14538
828.63172	14559
832.47738	14581.3
836.32036	14532.6
840.16066	14544.9
843.99827	14491.2
847.8332	14512.4
851.66546	14512.3
855.49504	14517
859.32195	14515
863.1462	14430.9
866.96777	14398.4
870.78668	14369.5
874.60293	14427
878.41652	14500.6
882.22745	14609.6
886.03573	14696.5
889.84136	14654.4
893.64433	14584.8
897.44466	14543.2
901.24235	14471.1
905.0374	14389.6
908.8298	14329.7
912.61957	14229.7
916.40671	14312.4
920.19121	14497.9
923.97308	14739.1
927.75233	14886
931.52895	14858.1
935.30295	14590.7
939.07433	14215
942.84309	13927.9
946.60924	13777.2
950.37278	13712.9
954.13371	13699.6
957.89203	13702.9
961.64774	13684.1
965.40086	13682.8
969.15137	13691.2
972.89929	13646.7
976.64461	13665.8
980.38733	13672.3
984.12747	13743
987.86502	13808.9
991.59999	13948
995.33237	14233.3
999.06217	14651.7
1002.78939	15254.7
1006.51404	15797.8
1010.23611	16214.9
1013.95561	16446.2
1017.67255	16426.3
1021.38692	16057
1025.09872	15443
1028.80796	15043.2
1032.51465	15067.2
1036.21877	15192.8
1039.92035	15249.5
1043.61937	15262
1047.31584	15174.7
1051.00976	15051.6
1054.70114	14957.3
1058.38998	14978.8
1062.07627	15051.4
1065.76003	15175.8
1069.44126	15306
1073.11995	15657.7
1076.79611	16015.8
1080.46974	16338.8
1084.14085	16716.3
1087.80943	17040.9
1091.47549	17314.2
1095.13903	17088.7
1098.80005	16593.7
1102.45857	16182.8
1106.11456	15985.3
1109.76805	16030.7
1113.41903	16285.3
1117.06751	16697.7
1120.71348	17188.3
1124.35696	17731.1
1127.99793	18135
1131.63641	18095.7
1135.2724	17657.7
1138.90589	17241.3
1142.5369	17065.1
1146.16542	17060.6
1149.79145	17125.4
1153.415	17241.3
1157.03607	17444.7
1160.65467	17899.1
1164.27079	18694.4
1167.88443	20006.3
1171.49561	21845.1
1175.10432	24576.1
1178.71056	28046.7
1182.31434	31023.8
1185.91565	31885.3
1189.51451	30784.9
1193.11091	28844.5
1196.70485	26801
1200.29634	24998.4
1203.88538	23667.6
1207.47197	22399.4
1211.05612	21462.6
1214.63782	20931.6
1218.21708	20866.4
1221.79391	21098.2
1225.36829	21427.6
1228.94024	21348.4
1232.50976	20717.6
1236.07685	19967.1
1239.6415	19559
1243.20374	19480.5
1246.76355	19562
1250.32093	19779.5
1253.8759	20173.7
1257.42845	20823.8
1260.97859	21684.8
1264.52631	22670.3
1268.07163	23646.6
1271.61453	24459
1275.15503	25043.1
1278.69312	25592.7
1282.22882	26306.4
1285.76211	27502.1
1289.29301	28980.7
1292.82151	30719.5
1296.34761	32748.8
1299.87133	35148.7
1303.39266	38123.9
1306.9116	41758.4
1310.42815	45340.5
1313.94233	47459.7
1317.45412	46606.9
1320.96354	43818.9
1324.47058	40659.1
1327.97525	37868
1331.47754	35749.4
1334.97747	34570.5
1338.47502	34123
1341.97022	34128.9
1345.46305	34373.6
1348.95352	35282.8
1352.44163	37110.4
1355.92738	40510
1359.41078	45351.9
1362.89183	49677.5
1366.37053	49069.8
1369.84688	42699.3
1373.32088	35372.5
1376.79254	30994.4
1380.26186	29364.3
1383.72883	28845
1387.19347	28163.7
1390.65578	27269.7
1394.11575	26805.9
1397.57339	26940.8
1401.0287	27194.6
1404.48168	27465.9
1407.93234	27352.5
1411.38068	27050.7
1414.82669	26553.9
1418.27039	25962.6
1421.71177	25065
1425.15083	24168.7
1428.58758	23792.5
1432.02203	24273
1435.45416	25165.1
1438.88399	25903
1442.31151	26179.2
1445.73673	26322
1449.15965	26374.2
1452.58027	26100.7
1455.9986	25571.7
1459.41463	25367.2
1462.82837	25725.2
1466.23982	26607.8
1469.64898	27648
1473.05586	28588.6
1476.46045	29249.4
1479.86276	29692.1
1483.26279	29969.1
1486.66054	30325.5
1490.05602	31070.9
1493.44922	31993.7
1496.84016	32826.1
1500.22882	33824.2
1503.61521	35462.5
1506.99934	37622.9
1510.38121	39316.6
1513.76081	39136.5
1517.13816	36748.8
1520.51324	33402.3
1523.88607	30742.8
1527.25665	29327.8
1530.62498	28815.8
1533.99105	28450.3
1537.35488	27918.3
1540.71647	27224.5
1544.07581	26418.6
1547.4329	25546.3
1550.78776	24797.8
1554.14038	24220
1557.49077	23909
1560.83892	23941.8
1564.18484	24288.9
1567.52853	25019.6
1570.86999	25722.9
1574.20922	26366.6
1577.54624	26565.7
1580.88103	25810
1584.2136	24993.8
1587.54395	25096.8
1590.87208	26545
1594.19801	29210.1
1597.52172	32276.7
1600.84321	33888.8
1604.16251	32630.4
1607.47959	29392.1
1610.79447	25735.4
1614.10715	22554
1617.41763	20304.5
1620.7259	18965.6
1624.03199	18418.1
1627.33587	18502.9
1630.63757	19244.9
1633.93707	20918.8
1637.23439	23902.4
1640.52951	28674.9
1643.82246	34932.2
1647.11321	40336.9
1650.40179	41722.1
1653.68819	37763.7
1656.97241	30809.6
1660.25446	24458.6
1663.53433	20165.7
1666.81203	17667.4
1670.08756	16226.2
1673.36092	15331.8
1676.63211	14813.1
1679.90115	14390.6
1683.16801	14106.6
1686.43272	13896
1689.69527	13708.1
1692.95567	13572.6
1696.2139	13496.2
1699.46999	13431.3
1702.72392	13380.6
1705.97571	13307.8
1709.22535	13295.3
1712.47284	13254.5
1715.71819	13264.5
1718.96139	13208.3
1722.20246	13167.5
1725.44139	13069.1
1728.67818	12944.6
1731.91284	12838.8
1735.14537	12717.3
1738.37576	12647.8
1741.60403	12573.8
1744.83017	12510.5
1748.05418	12501.2
1751.27607	12471.9
1754.49584	12434.9
1757.71349	12423.2
1760.92903	12386.2
1764.14244	12395.9
1767.35375	12370.7
1770.56294	12343.6
1773.77002	12289.2
1776.97499	12255.7
1780.17785	12224.8
1783.37861	12198
1786.57727	12165.1
1789.77382	12118
1792.96828	12068.6
1796.16064	12066.4
1799.3509	12048.5
1802.53907	12029.1
1805.72514	11999.9
1808.90913	11943.6
1812.09102	11909.3
1815.27083	11876.9
1818.44856	11865.4
1821.6242	11852
1824.79776	11822.8
1827.96924	11805.4
1831.13864	11774.7
1834.30597	11777.7
1837.47122	11747
1840.6344	11748.4
1843.7955	11740.3
1846.95454	11724.7
1850.11151	11707.7
1853.26642	11698.8
1856.41926	11693
1859.57004	11672.3
1862.71876	11648.4
1865.86542	11643.6
1869.01003	11648.2
1872.15258	11620.3
1875.29308	11635
1878.43152	11609.3
1881.56792	11605.6
1884.70227	11621.7
1887.83457	11611.9
1890.96482	11613.9
1894.09304	11589.6
1897.21921	11590.4
1900.34335	11582.4
1903.46544	11576.1
1906.58551	11574.9
1909.70353	11573.7
1912.81953	11555.5
1915.93349	11537.7
1919.04543	11493.4
1922.15534	11469.4
1925.26322	11438.9
1928.36908	11405.9
1931.47292	11366.2
1934.57473	11355.3
1937.67453	11322.4
1940.77232	11298.4
1943.86808	11226.6
1946.96184	11204.2
1950.05358	11181.9
1953.14331	11177.3
1956.23103	11135.9
1959.31675	11117
1962.40046	11075.6
1965.48217	11049.8
1968.56188	11008.4
1971.63959	10998
1974.7153	10990.6
1977.78901	10926.7
1980.86073	10865.2
1983.93046	10850.8
1986.99819	10804.6
1990.06394	10764.2
1993.1277	10726.8
1996.18947	10696.9
1999.24925	10665
2002.30706	10622.3
2005.36288	10572.9
2008.41672	10515.3
2011.46859	10512.1
2014.51848	10485.1
2017.56639	10495.4
2020.61233	10445.5
2023.6563	10407.9
2026.6983	10390.4
2029.73833	10384.4
2032.7764	10350.6
2035.8125	10334.4
2038.84664	10300.5
2041.87881	10287.6
2044.90903	10281.3
2047.93729	10269.8
2050.96359	10276.1
2053.98794	10229.6
2057.01034	10203.8
2060.03078	10197.6
2063.04927	10178.7
2066.06582	10161.9
2069.08042	10141.9
2072.09307	10149.7
2075.10378	10145.6
2078.11255	10150.4
2081.11938	10111.5
2084.12426	10133.7
2087.12722	10134.1
2090.12824	10134.1
2093.12732	10169.7
2096.12447	10175.8
2099.11969	10148.7
2102.11299	10127.4
2105.10435	10138.2
2108.09379	10128.1
2111.08131	10120.2
2114.0669	10116.7
2117.05057	10145.4
2120.03233	10120.6
2123.01216	10134.9
2125.99008	10158.1
2128.96609	10138.8
2131.94018	10158.5
2134.91236	10138.6
2137.88263	10166
2140.851	10147.6
2143.81746	10149.3
2146.78201	10167.7
2149.74466	10119.7
2152.7054	10131.6
2155.66425	10113
2158.6212	10117.1
2161.57625	10109.7
2164.52941	10091.8
2167.48067	10117
2170.43004	10105.9
2173.37752	10110.8
2176.32311	10088.4
2179.26681	10095.5
2182.20863	10083.2
2185.14856	10101.5
2188.08661	10079.3
2191.02278	10078.4
2193.95707	10073.4
2196.88948	10081
2199.82001	10051.9
2202.74867	10057.3
2205.67545	10026.7
2208.60037	10040.9
2211.52341	9997.1
2214.44458	9983.4
2217.36388	9972.5
2220.28132	9970.4
2223.1969	9967.3
2226.11061	9917.8
2229.02246	9879.1
2231.93245	9877.6
2234.84058	9885.7
2237.74686	9854.5
2240.65128	9846.1
2243.55385	9840.4
2246.45456	9823.4
2249.35343	9810.2
2252.25044	9807.8
2255.14561	9807.3
2258.03893	9775.6
2260.93041	9758.8
2263.82004	9745.3
2266.70783	9703.5
2269.59378	9682.4
2272.4779	9655.2
2275.36017	9632.2
2278.24061	9596.5
2281.11922	9602.8
2283.996	9591.2
2286.87094	9565.4
2289.74405	9547.1
2292.61534	9529.8
2295.4848	9510.3
2298.35243	9544.8
2301.21824	9551.9
2304.08223	9521.4
2306.94439	9520.4
2309.80474	9499.3
2312.66327	9504.5
2315.51999	9493.2
2318.37489	9466.9
2321.22797	9501.9
2324.07925	9472.8
2326.92871	9482.2
2329.77637	9433.3
2332.62222	9444
2335.46626	9434.5
2338.3085	9452.4
2341.14893	9449.5
2343.98756	9444.8
2346.8244	9434
2349.65943	9425.6
2352.49267	9443.9
2355.32411	9450.3
2358.15376	9428.2
2360.98161	9421.2
2363.80768	9442.7
2366.63195	9461
2369.45444	9437.2
2372.27514	9448.5
2375.09405	9411.6
2377.91118	9400.3
2380.72652	9377.7
2383.54009	9347.4
2386.35187	9342
2389.16188	9305.6
2391.97011	9301
2394.77657	9274.6
2397.58125	9251.9
2400.38416	9240
2403.18529	9228
2405.98466	9225.4
2408.78226	9199.7
2411.57809	9184.5
2414.37216	9153.3
2417.16446	9158.3
2419.955	9139.5
2422.74378	9137.3
2425.5308	9133.8
2428.31606	9129
2431.09956	9133
2433.88131	9136.8
2436.6613	9110
2439.43954	9083.9
2442.21603	9093.8
2444.99077	9114.3
2447.76377	9106.8
2450.53501	9121.7
2453.30451	9138
2456.07226	9113.3
2458.83827	9111.9
2461.60254	9132.2
2464.36507	9135.3
2467.12586	9129.1
2469.88492	9150.9
2472.64224	9152.5
2475.39782	9147.1
2478.15167	9139.2
2480.90379	9133.6
2483.65417	9170.5
2486.40283	9199.7
2489.14976	9201.4
2491.89497	9196
2494.63845	9194.8
2497.3802	9212.1
2500.12024	9194.6
2502.85855	9200.3
2505.59514	9172
2508.33002	9138.8
2511.06318	9140
2513.79462	9108.5
2516.52435	9097.9
2519.25237	9096.8
2521.97867	9071.2
2524.70327	9096.3
2527.42616	9069.2
2530.14734	9054.5
2532.86681	9048.6
2535.58458	9048
2538.30065	9020.6
2541.01501	9052.4
2543.72768	9041.7
2546.43864	9041
2549.14791	9029.6
2551.85548	9028.7
2554.56136	9026.2
2557.26554	9014.4
2559.96803	9014.8
2562.66883	8993.3
2565.36794	9017.1
2568.06536	9016.3
2570.7611	9021.4
2573.45514	9003.9
2576.14751	9004.6
2578.83819	8992.1
2581.52719	8974.9
2584.21451	8943.1
2586.90015	8933.4
2589.58411	8940.3
2592.2664	8935.2
2594.94701	8929.8
2597.62594	8942.3
2600.30321	8892.9
2602.9788	8905.4
2605.65273	8917.4
2608.32498	8917.8
2610.99557	8911
2613.66449	8914
2616.33175	8905
2618.99734	8921.8
2621.66128	8919.3
2624.32355	8893.6
2626.98416	8893.2
2629.64311	8882.3
2632.30041	8855.9
2634.95605	8867.4
2637.61004	8857.6
2640.26238	8866.5
2642.91306	8855.9
2645.56209	8872.1
2648.20948	8876.7
2650.85521	8889.9
2653.4993	8853
2656.14175	8876
2658.78255	8893.6
2661.42171	8895.7
2664.05923	8908.1
2666.6951	8918.4
2669.32934	8931.7
2671.96194	8931.7
2674.59291	8927.2
2677.22224	8925.7
2679.84993	8943.1
2682.476	8920.2
2685.10043	8922
2687.72324	8913.3
2690.34441	8908.2
2692.96396	8931.7
2695.58188	8927.6
2698.19818	8886.8
2700.81285	8933.6
2703.4259	8905
2706.03733	8921.4
2708.64714	8906.3
2711.25533	8923.5
2713.86191	8931.4
2716.46687	8959.5
2719.07021	8952.3
2721.67194	8970.3
2724.27206	8939.9
2726.87057	8951.8
2729.46747	8943.6
2732.06276	8956.1
2734.65644	8940.2
2737.24852	8956
2739.83899	8930.7
2742.42786	8957.1
2745.01513	8941.6
2747.60079	8915.8
2750.18486	8935
2752.76733	8933
2755.3482	8914.2
2757.92747	8913.2
2760.50515	8905.5
2763.08123	8917.2
2765.65573	8927.2
2768.22863	8914.9
2770.79994	8894.1
2773.36967	8920.7
2775.9378	8888.5
2778.50435	8899
2781.06932	8895.3
2783.6327	8870.5
2786.1945	8876.3
2788.75471	8886.8
2791.31335	8850.1
2793.87041	8847.8
2796.42589	8834.3
2798.97979	8824.9
2801.53212	8823.9
2804.08288	8828.6
2806.63206	8831.6
2809.17967	8814.7
2811.72571	8814.4
2814.27018	8807.9
2816.81308	8782.5
2819.35442	8790
2821.89419	8781.4
2824.43239	8780.5
2826.96904	8778.2
2829.50412	8781.2
2832.03763	8777.1
2834.56959	8744.5
2837.1	8738.6
2839.62884	8731.6
2842.15613	8719.9
2844.68186	8734
2847.20604	8725.1
2849.72867	8724.9
2852.24974	8716.6
2854.76927	8681.5
2857.28724	8688.4
2859.80367	8708
2862.31855	8656.9
2864.83189	8701.4
2867.34368	8714.3
2869.85393	8696.3
2872.36264	8685.5
2874.8698	8709.5
2877.37543	8697.3
2879.87952	8705.5
2882.38207	8688.1
2884.88308	8676.9
2887.38256	8680
2889.88051	8696.2
2892.37692	8693.4
2894.8718	8692.3
2897.36515	8688.4
2899.85698	8682.5
2902.34727	8718.8
2904.83604	8707.2
2907.32328	8728.4
2909.809	8702.4
2912.29319	8720.9
2914.77587	8711.4
2917.25702	8696.4
2919.73665	8686.1
2922.21476	8708.9
2924.69136	8677.8
2927.16644	8651.6
2929.64	8683.9
2932.11205	8650.2
2934.58258	8652
2937.05161	8653
2939.51912	8654.7
2941.98513	8629
2944.44962	8622.9
2946.91261	8595.7
2949.37409	8585.7
2951.83407	8601.8
2954.29254	8588.8
2956.74951	8579.5
2959.20498	8565.7
2961.65895	8569.1
2964.11142	8569.6
2966.56239	8554
2969.01186	8542.8
2971.45984	8489.7
2973.90632	8483.3
2976.35131	8452.3
2978.7948	8448.9
2981.23681	8405.6
2983.67732	8402.8
2986.11635	8363.6
2988.55388	8328.2
2990.98993	8336.7
2993.4245	8320.5
2995.85758	8324
2998.28917	8287.8
3000.71928	8265.2
3003.14791	8238.6
3005.57506	8239.2
3008.00073	8228.4
3010.42493	8225.9
3012.84764	8232.2
3015.26888	8213.9
3017.68865	8177
3020.10694	8163.4
3022.52376	8138.6
3024.9391	8111.8
3027.35298	8105.1
3029.76539	8112.2
3032.17632	8088.2
3034.5858	8056
3036.9938	8060.4
3039.40034	8047.7
3041.80542	8034.2
3044.20903	8022.9
3046.61118	7986.4
3049.01187	7987.9
3051.4111	7969.7
3053.80888	7942.7
3056.20519	7944.8
3058.60005	7927.2
3060.99345	7937.9
3063.3854	7884.3
3065.7759	7881.4
3068.16494	7875.7
3070.55254	7847.6
3072.93868	7825.6
3075.32338	7795.8
3077.70662	7798.8
3080.08842	7768
3082.46878	7760
3084.84769	7739.5
3087.22515	7749.6
3089.60118	7725.5
3091.97576	7744.2
3094.3489	7744.9
3096.72061	7728.9
3099.09087	7727.6
3101.4597	7707.7
3103.82709	7701.6
3106.19305	7691.5
3108.55757	7696.6
3110.92066	7644.9
3113.28232	7641.6
3115.64255	7587.5
3118.00134	7593.6
3120.35871	7586.4
3122.71466	7563.9
3125.06917	7559.8
3127.42226	7564.7
3129.77393	7577.9
3132.12417	7563.9
3134.47299	7557.7
3136.82039	7553.5
3139.16636	7544
3141.51092	7535.7
3143.85406	7543.7
3146.19579	7563.5
3148.53609	7552.8
3150.87499	7523.2
3153.21246	7520
3155.54853	7535.5
3157.88318	7495
3160.21642	7505.3
3162.54826	7470.8
3164.87868	7479
3167.2077	7487.3
3169.5353	7489.8
3171.86151	7454
3174.18631	7453.2
3176.5097	7464
3178.83169	7480.9
3181.15228	7466.5
3183.47147	7432.4
3185.78926	7439.1
3188.10565	7435.6
3190.42065	7430.3
3192.73424	7444.9
3195.04645	7423.2
3197.35725	7449.2
3199.66667	7460.8
3201.97469	7462.2
3204.28132	7444.2
3206.58656	7453.6
3208.8904	7434.7
3211.19287	7440.7
3213.49394	7437.6
3215.79363	7457.6
3218.09193	7428.8
3220.38884	7424.1
3222.68438	7412.3
3224.97853	7418.7
3227.2713	7388.3
3229.56269	7399
3231.8527	7388.8
3234.14133	7360.7
3236.42858	7360.1
3238.71446	7368.8
3240.99896	7352.1
3243.28209	7365.4
3245.56384	7356.8
3247.84423	7351.7
3250.12324	7328.8
3252.40088	7344.9
3254.67715	7334
3256.95205	7312.1
3259.22558	7288.8
3261.49775	7269.6
3263.76855	7255.1
3266.03799	7241.5
3268.30606	7236.1
3270.57277	7221.5
3272.83812	7211.7
3275.10211	7213.8
3277.36474	7216.3
3279.62601	7204.4
3281.88593	7203.4
3284.14448	7224.5
3286.40168	7228.4
3288.65753	7231.1
3290.91202	7229.7
3293.16516	7185.3
3295.41695	7178.4
3297.66738	7141.6
3299.91647	7127.9
3302.16421	7088.1
3304.4106	7067.8
3306.65564	7041.7
3308.89933	6997.6
3311.14169	6944.4
3313.38269	6904.4
3315.62236	6849.6
3317.86068	6802
3320.09766	6734.6
3322.3333	6653.3
3324.5676	6650.2
3326.80056	6565
3329.03219	6532.4
3331.26248	1.4
3333.49143	-0.4
3335.71905	0.1
