Data from AgNP_FTO_APTES_UA_100uM_CRN_2uM_R6G_10uM_NaF_0.1M_Addition_RamanShift__27__14-16-20-324.txt Node

Date: Thu Mar 24 14:16:20 GMT 2022
User: TCL
Spectrometer: QEP01345
Trigger mode: 4
Integration Time (sec): 7.000000E0
Scans to average: 10
Electric dark correction enabled: true
Nonlinearity correction enabled: false
Boxcar width: 0
XAxis mode: Raman Shifts
Number of Pixels in Spectrum: 1044
>>>>>Begin Spectral Data<<<<<
46.04893	-1.2125
50.45542	0.0875
54.85868	-1.1125
59.25871	-0.0125
63.6555	46.2875
68.04907	49.9875
72.43941	47.3875
76.82654	49.3875
81.21044	53.3875
85.59113	53.5875
89.96862	58.7875
94.34289	53.8875
98.71396	60.4875
103.08183	59.2875
107.4465	62.8875
111.80798	68.1875
116.16626	66.6875
120.52136	68.2875
124.87327	69.9875
129.222	71.6875
133.56755	79.0875
137.90993	82.5875
142.24913	91.7875
146.58517	104.5875
150.91804	121.4875
155.24774	148.0875
159.57429	181.2875
163.89768	234.3875
168.21792	319.0875
172.53501	432.5875
176.84895	604.0875
181.15975	856.9875
185.46741	1200.3875
189.77193	1660.4875
194.07331	2242.6875
198.37157	2918.7875
202.6667	3619.7875
206.9587	4347.6875
211.24758	5132.3875
215.53334	5966.3875
219.81599	6912.3875
224.09553	8016.6875
228.37195	9258.9875
232.64527	10535.0875
236.91549	11798.9875
241.18261	12842.2875
245.44663	13582.6875
249.70755	14100.8875
253.96539	14547.4875
258.22014	14967.0875
262.4718	15295.5875
266.72039	15487.2875
270.96589	15387.5875
275.20832	15099.5875
279.44768	14674.8875
283.68397	14304.8875
287.91719	14077.9875
292.14735	14221.7875
296.37445	14834.9875
300.59849	15937.9875
304.81948	17236.3875
309.03742	18331.2875
313.25231	18594.5875
317.46415	17602.7875
321.67296	15761.4875
325.87872	14092.8875
330.08145	13213.4875
334.28114	13155.3875
338.47781	13487.1875
342.67145	14039.0875
346.86207	14933.1875
351.04966	16221.6875
355.23424	17779.7875
359.4158	18953.1875
363.59435	19405.3875
367.76989	19321.6875
371.94243	19040.2875
376.11196	18618.4875
380.27849	18210.1875
384.44203	17752.9875
388.60257	17266.2875
392.76012	16965.2875
396.91468	17025.6875
401.06626	17518.9875
405.21485	17886.6875
409.36047	17337.1875
413.50311	15906.6875
417.64277	14512.8875
421.77947	13648.0875
425.9132	13244.7875
430.04396	13135.7875
434.17176	13180.3875
438.2966	13427.5875
442.41849	13836.1875
446.53742	14354.8875
450.6534	14801.1875
454.76644	15066.4875
458.87653	14944.3875
462.98368	14626.2875
467.08789	14294.6875
471.18916	13856.0875
475.2875	13319.3875
479.38291	12916.2875
483.4754	12556.1875
487.56496	12350.8875
491.6516	12245.6875
495.73531	12201.4875
499.81612	12305.4875
503.89401	12537.5875
507.96899	12841.9875
512.04106	13210.2875
516.11023	13650.2875
520.1765	13954.6875
524.23987	14018.5875
528.30034	13771.2875
532.35792	13509.3875
536.41261	13173.4875
540.46441	12700.8875
544.51333	12417.3875
548.55936	12530.6875
552.60252	12957.6875
556.64279	13554.7875
560.6802	13825.9875
564.71473	14225.5875
568.7464	15236.2875
572.7752	15716.6875
576.80114	14685.4875
580.82422	13549.9875
584.84444	13058.4875
588.86181	12922.7875
592.87633	13022.3875
596.888	13296.7875
600.89682	14090.2875
604.9028	17119.1875
608.90594	25168.2875
612.90624	35723.9875
616.90371	34478.8875
620.89834	21171.7875
624.89015	14604.4875
628.87913	13401.5875
632.86528	13725.2875
636.84862	14202.8875
640.82913	13778.8875
644.80683	12611.5875
648.78172	11834.5875
652.75379	11874.3875
656.72306	12807.7875
660.68952	13902.2875
664.65319	13635.2875
668.61405	12363.1875
672.57211	11757.2875
676.52738	11680.1875
680.47986	11654.5875
684.42955	11442.7875
688.37646	11312.4875
692.32058	11350.8875
696.26192	11521.9875
700.20048	11768.5875
704.13626	11984.0875
708.06928	11918.1875
711.99952	11778.9875
715.927	11764.0875
719.85171	11916.7875
723.77365	12014.3875
727.69284	11880.8875
731.60928	11713.9875
735.52295	11659.9875
739.43388	11706.4875
743.34206	11787.8875
747.24749	11821.9875
751.15017	11906.8875
755.05012	12256.6875
758.94733	13421.7875
762.8418	16297.3875
766.73354	21007.4875
770.62254	25446.7875
774.50882	27492.5875
778.39237	26051.3875
782.27321	21311.7875
786.15132	16513.0875
790.02671	13672.5875
793.89938	12445.0875
797.76935	11954.5875
801.6366	11722.9875
805.50115	11611.1875
809.36299	11572.4875
813.22213	11529.6875
817.07857	11469.6875
820.93231	11470.1875
824.78336	11566.7875
828.63172	11670.4875
832.47738	11716.4875
836.32036	11638.0875
840.16066	11450.6875
843.99827	11361.6875
847.8332	11321.5875
851.66546	11308.4875
855.49504	11292.3875
859.32195	11275.4875
863.1462	11217.2875
866.96777	11176.5875
870.78668	11145.9875
874.60293	11207.6875
878.41652	11300.6875
882.22745	11459.7875
886.03573	11565.3875
889.84136	11524.3875
893.64433	11440.4875
897.44466	11426.0875
901.24235	11452.2875
905.0374	11354.2875
908.8298	11244.2875
912.61957	11149.8875
916.40671	11146.8875
920.19121	11269.6875
923.97308	11433.3875
927.75233	11808.3875
931.52895	12147.8875
935.30295	11979.9875
939.07433	11395.4875
942.84309	10899.2875
946.60924	10638.6875
950.37278	10511.4875
954.13371	10430.8875
957.89203	10344.4875
961.64774	10333.9875
965.40086	10281.3875
969.15137	10273.4875
972.89929	10228.3875
976.64461	10234.4875
980.38733	10226.5875
984.12747	10258.5875
987.86502	10330.2875
991.59999	10433.8875
995.33237	10607.1875
999.06217	10931.2875
1002.78939	11318.4875
1006.51404	11748.5875
1010.23611	12056.7875
1013.95561	12196.6875
1017.67255	12151.5875
1021.38692	11956.9875
1025.09872	11731.4875
1028.80796	11643.3875
1032.51465	11827.2875
1036.21877	12092.0875
1039.92035	12196.2875
1043.61937	12224.6875
1047.31584	12117.1875
1051.00976	11972.3875
1054.70114	11815.0875
1058.38998	11736.7875
1062.07627	11758.0875
1065.76003	11786.4875
1069.44126	11841.0875
1073.11995	12029.9875
1076.79611	12378.0875
1080.46974	12877.3875
1084.14085	13577.6875
1087.80943	14261.1875
1091.47549	14489.5875
1095.13903	13973.7875
1098.80005	13203.0875
1102.45857	12639.2875
1106.11456	12489.0875
1109.76805	12789.7875
1113.41903	13453.2875
1117.06751	14505.2875
1120.71348	15903.1875
1124.35696	17447.4875
1127.99793	18327.8875
1131.63641	17552.5875
1135.2724	15844.3875
1138.90589	14473.0875
1142.5369	13634.2875
1146.16542	13124.5875
1149.79145	12813.0875
1153.415	12737.7875
1157.03607	12903.6875
1160.65467	13281.4875
1164.27079	14011.8875
1167.88443	15178.4875
1171.49561	17028.2875
1175.10432	20107.3875
1178.71056	24238.6875
1182.31434	27413.6875
1185.91565	28176.7875
1189.51451	26891.8875
1193.11091	24519.8875
1196.70485	21798.6875
1200.29634	19846.6875
1203.88538	18442.6875
1207.47197	16735.6875
1211.05612	15190.7875
1214.63782	14289.7875
1218.21708	13959.2875
1221.79391	13876.6875
1225.36829	13903.6875
1228.94024	13858.6875
1232.50976	13800.1875
1236.07685	13722.8875
1239.6415	13752.4875
1243.20374	13925.9875
1246.76355	14103.3875
1250.32093	14382.5875
1253.8759	14835.4875
1257.42845	15476.7875
1260.97859	16284.4875
1264.52631	17134.7875
1268.07163	17917.4875
1271.61453	18539.2875
1275.15503	18870.6875
1278.69312	19029.6875
1282.22882	19332.7875
1285.76211	20042.4875
1289.29301	21019.3875
1292.82151	21928.7875
1296.34761	23002.3875
1299.87133	24842.6875
1303.39266	28349.1875
1306.9116	33863.9875
1310.42815	39739.0875
1313.94233	41889.7875
1317.45412	38882.7875
1320.96354	33617.0875
1324.47058	28668.9875
1327.97525	24766.6875
1331.47754	22529.0875
1334.97747	21784.2875
1338.47502	22200.1875
1341.97022	23674.4875
1345.46305	26154.7875
1348.95352	29396.6875
1352.44163	33359.9875
1355.92738	39340.4875
1359.41078	48580.3875
1362.89183	56047.3875
1366.37053	51951.5875
1369.84688	40173.4875
1373.32088	30456.4875
1376.79254	24981.1875
1380.26186	21975.6875
1383.72883	20166.5875
1387.19347	18904.8875
1390.65578	17683.3875
1394.11575	16737.4875
1397.57339	16218.5875
1401.0287	16067.5875
1404.48168	16045.4875
1407.93234	16155.9875
1411.38068	16409.6875
1414.82669	16739.6875
1418.27039	16847.5875
1421.71177	16649.1875
1425.15083	16284.9875
1428.58758	16228.3875
1432.02203	16570.5875
1435.45416	16856.1875
1438.88399	16799.3875
1442.31151	16662.5875
1445.73673	16760.6875
1449.15965	16929.4875
1452.58027	16794.0875
1455.9986	16502.3875
1459.41463	16386.5875
1462.82837	16646.1875
1466.23982	17238.5875
1469.64898	17807.1875
1473.05586	18174.0875
1476.46045	18372.2875
1479.86276	18727.6875
1483.26279	19406.2875
1486.66054	20353.9875
1490.05602	21769.1875
1493.44922	23887.6875
1496.84016	27239.0875
1500.22882	32582.6875
1503.61521	40056.2875
1506.99934	48563.2875
1510.38121	55060.1875
1513.76081	55568.3875
1517.13816	49171.4875
1520.51324	39368.2875
1523.88607	31090.6875
1527.25665	26004.8875
1530.62498	23245.4875
1533.99105	21596.6875
1537.35488	20532.1875
1540.71647	19949.6875
1544.07581	19692.3875
1547.4329	19688.2875
1550.78776	19790.9875
1554.14038	20031.2875
1557.49077	20464.8875
1560.83892	21193.5875
1564.18484	22396.2875
1567.52853	23769.5875
1570.86999	24709.3875
1574.20922	25168.3875
1577.54624	24732.6875
1580.88103	22645.3875
1584.2136	19866.8875
1587.54395	18199.1875
1590.87208	18091.8875
1594.19801	19314.6875
1597.52172	21284.9875
1600.84321	22298.2875
1604.16251	21591.3875
1607.47959	20135.6875
1610.79447	18562.2875
1614.10715	16891.9875
1617.41763	15437.9875
1620.7259	14532.5875
1624.03199	14141.4875
1627.33587	14176.6875
1630.63757	14694.1875
1633.93707	15802.3875
1637.23439	17591.3875
1640.52951	20551.6875
1643.82246	25246.5875
1647.11321	31094.4875
1650.40179	35001.8875
1653.68819	33438.3875
1656.97241	27176.9875
1660.25446	20852.8875
1663.53433	16596.6875
1666.81203	14199.8875
1670.08756	12900.4875
1673.36092	12110.4875
1676.63211	11621.3875
1679.90115	11287.5875
1683.16801	11032.6875
1686.43272	10864.0875
1689.69527	10729.5875
1692.95567	10647.7875
1696.2139	10568.2875
1699.46999	10554.3875
1702.72392	10529.3875
1705.97571	10484.0875
1709.22535	10481.9875
1712.47284	10482.0875
1715.71819	10489.6875
1718.96139	10463.1875
1722.20246	10448.2875
1725.44139	10333.7875
1728.67818	10207.4875
1731.91284	10108.5875
1735.14537	9996.2875
1738.37576	9960.7875
1741.60403	9888.8875
1744.83017	9832.1875
1748.05418	9807.0875
1751.27607	9784.7875
1754.49584	9775.4875
1757.71349	9735.1875
1760.92903	9697.7875
1764.14244	9663.1875
1767.35375	9643.0875
1770.56294	9605.6875
1773.77002	9550.6875
1776.97499	9479.7875
1780.17785	9463.1875
1783.37861	9448.2875
1786.57727	9378.6875
1789.77382	9391.0875
1792.96828	9375.6875
1796.16064	9341.5875
1799.3509	9327.5875
1802.53907	9317.5875
1805.72514	9289.4875
1808.90913	9271.2875
1812.09102	9219.3875
1815.27083	9208.3875
1818.44856	9162.2875
1821.6242	9146.5875
1824.79776	9096.5875
1827.96924	9122.5875
1831.13864	9076.5875
1834.30597	9091.1875
1837.47122	9024.2875
1840.6344	9029.6875
1843.7955	9031.7875
1846.95454	9025.1875
1850.11151	8996.7875
1853.26642	9030.2875
1856.41926	9008.1875
1859.57004	8972.3875
1862.71876	9013.4875
1865.86542	8986.0875
1869.01003	9000.7875
1872.15258	8983.7875
1875.29308	8994.3875
1878.43152	8986.1875
1881.56792	8973.5875
1884.70227	8983.2875
1887.83457	8999.0875
1890.96482	8970.9875
1894.09304	8965.2875
1897.21921	8947.5875
1900.34335	8942.6875
1903.46544	8944.9875
1906.58551	8964.3875
1909.70353	8957.0875
1912.81953	8943.0875
1915.93349	8946.9875
1919.04543	8937.2875
1922.15534	8906.7875
1925.26322	8872.1875
1928.36908	8849.5875
1931.47292	8829.3875
1934.57473	8784.6875
1937.67453	8775.3875
1940.77232	8733.7875
1943.86808	8714.5875
1946.96184	8692.9875
1950.05358	8650.3875
1953.14331	8639.7875
1956.23103	8636.7875
1959.31675	8634.7875
1962.40046	8619.7875
1965.48217	8618.0875
1968.56188	8599.8875
1971.63959	8611.1875
1974.7153	8617.8875
1977.78901	8544.9875
1980.86073	8504.8875
1983.93046	8463.4875
1986.99819	8409.8875
1990.06394	8373.1875
1993.1277	8346.4875
1996.18947	8294.0875
1999.24925	8265.8875
2002.30706	8222.9875
2005.36288	8218.7875
2008.41672	8190.6875
2011.46859	8167.8875
2014.51848	8136.7875
2017.56639	8121.5875
2020.61233	8092.7875
2023.6563	8059.0875
2026.6983	8034.7875
2029.73833	8036.4875
2032.7764	8033.2875
2035.8125	8000.6875
2038.84664	7985.4875
2041.87881	7988.0875
2044.90903	7979.4875
2047.93729	7954.1875
2050.96359	7915.0875
2053.98794	7914.1875
2057.01034	7904.0875
2060.03078	7883.1875
2063.04927	7848.6875
2066.06582	7852.8875
2069.08042	7830.3875
2072.09307	7836.5875
2075.10378	7835.5875
2078.11255	7837.6875
2081.11938	7829.8875
2084.12426	7813.2875
2087.12722	7827.4875
2090.12824	7831.8875
2093.12732	7837.7875
2096.12447	7837.2875
2099.11969	7827.9875
2102.11299	7814.6875
2105.10435	7841.4875
2108.09379	7856.4875
2111.08131	7839.3875
2114.0669	7868.9875
2117.05057	7861.6875
2120.03233	7885.1875
2123.01216	7916.1875
2125.99008	7927.2875
2128.96609	7917.3875
2131.94018	7942.8875
2134.91236	7933.0875
2137.88263	7928.1875
2140.851	7908.3875
2143.81746	7916.6875
2146.78201	7888.5875
2149.74466	7868.8875
2152.7054	7873.5875
2155.66425	7880.6875
2158.6212	7871.6875
2161.57625	7856.9875
2164.52941	7853.9875
2167.48067	7851.3875
2170.43004	7830.9875
2173.37752	7833.7875
2176.32311	7850.7875
2179.26681	7855.4875
2182.20863	7824.4875
2185.14856	7847.2875
2188.08661	7831.5875
2191.02278	7832.6875
2193.95707	7820.7875
2196.88948	7800.4875
2199.82001	7817.2875
2202.74867	7796.1875
2205.67545	7795.9875
2208.60037	7779.2875
2211.52341	7769.2875
2214.44458	7778.1875
2217.36388	7765.1875
2220.28132	7769.7875
2223.1969	7753.2875
2226.11061	7749.2875
2229.02246	7697.6875
2231.93245	7697.9875
2234.84058	7657.7875
2237.74686	7636.3875
2240.65128	7650.6875
2243.55385	7609.4875
2246.45456	7630.5875
2249.35343	7614.7875
2252.25044	7659.9875
2255.14561	7654.3875
2258.03893	7684.8875
2260.93041	7686.5875
2263.82004	7675.8875
2266.70783	7673.6875
2269.59378	7644.2875
2272.4779	7624.1875
2275.36017	7602.4875
2278.24061	7580.8875
2281.11922	7572.7875
2283.996	7555.4875
2286.87094	7537.3875
2289.74405	7506.5875
2292.61534	7493.8875
2295.4848	7486.4875
2298.35243	7475.8875
2301.21824	7484.4875
2304.08223	7454.4875
2306.94439	7464.5875
2309.80474	7444.2875
2312.66327	7463.9875
2315.51999	7459.9875
2318.37489	7439.0875
2321.22797	7457.4875
2324.07925	7442.1875
2326.92871	7452.0875
2329.77637	7448.9875
2332.62222	7435.8875
2335.46626	7440.0875
2338.3085	7432.9875
2341.14893	7446.6875
2343.98756	7455.1875
2346.8244	7459.6875
2349.65943	7480.4875
2352.49267	7491.8875
2355.32411	7510.1875
2358.15376	7521.9875
2360.98161	7561.3875
2363.80768	7578.2875
2366.63195	7579.9875
2369.45444	7580.4875
2372.27514	7571.1875
2375.09405	7545.4875
2377.91118	7515.3875
2380.72652	7491.2875
2383.54009	7465.8875
2386.35187	7423.2875
2389.16188	7380.8875
2391.97011	7351.9875
2394.77657	7355.1875
2397.58125	7317.0875
2400.38416	7275.6875
2403.18529	7256.2875
2405.98466	7240.3875
2408.78226	7222.2875
2411.57809	7209.4875
2414.37216	7185.0875
2417.16446	7172.0875
2419.955	7164.1875
2422.74378	7155.8875
2425.5308	7181.1875
2428.31606	7182.1875
2431.09956	7182.3875
2433.88131	7187.7875
2436.6613	7175.8875
2439.43954	7205.9875
2442.21603	7203.5875
2444.99077	7204.9875
2447.76377	7229.6875
2450.53501	7211.0875
2453.30451	7224.3875
2456.07226	7206.5875
2458.83827	7207.0875
2461.60254	7216.6875
2464.36507	7207.4875
2467.12586	7203.7875
2469.88492	7225.1875
2472.64224	7238.1875
2475.39782	7233.8875
2478.15167	7256.7875
2480.90379	7272.6875
2483.65417	7301.3875
2486.40283	7338.8875
2489.14976	7362.5875
2491.89497	7369.1875
2494.63845	7380.2875
2497.3802	7350.9875
2500.12024	7333.5875
2502.85855	7335.6875
2505.59514	7308.2875
2508.33002	7240.2875
2511.06318	7203.7875
2513.79462	7158.4875
2516.52435	7127.9875
2519.25237	7091.0875
2521.97867	7081.5875
2524.70327	7070.3875
2527.42616	7048.8875
2530.14734	7035.5875
2532.86681	7026.5875
2535.58458	7029.2875
2538.30065	7022.6875
2541.01501	7034.8875
2543.72768	7044.7875
2546.43864	7019.8875
2549.14791	7029.5875
2551.85548	7023.0875
2554.56136	7028.9875
2557.26554	7009.2875
2559.96803	7013.8875
2562.66883	7000.3875
2565.36794	7003.6875
2568.06536	7015.3875
2570.7611	6986.7875
2573.45514	6982.6875
2576.14751	6969.7875
2578.83819	6953.0875
2581.52719	6948.4875
2584.21451	6951.7875
2586.90015	6921.5875
2589.58411	6925.7875
2592.2664	6907.2875
2594.94701	6908.9875
2597.62594	6868.8875
2600.30321	6868.4875
2602.9788	6874.9875
2605.65273	6861.4875
2608.32498	6890.1875
2610.99557	6887.3875
2613.66449	6881.1875
2616.33175	6901.7875
2618.99734	6904.7875
2621.66128	6886.3875
2624.32355	6883.0875
2626.98416	6870.9875
2629.64311	6864.3875
2632.30041	6848.1875
2634.95605	6834.6875
2637.61004	6831.9875
2640.26238	6829.3875
2642.91306	6806.8875
2645.56209	6806.1875
2648.20948	6798.5875
2650.85521	6801.6875
2653.4993	6790.6875
2656.14175	6790.2875
2658.78255	6786.3875
2661.42171	6802.6875
2664.05923	6827.9875
2666.6951	6836.4875
2669.32934	6840.0875
2671.96194	6854.3875
2674.59291	6862.8875
2677.22224	6847.4875
2679.84993	6866.3875
2682.476	6842.9875
2685.10043	6838.2875
2687.72324	6841.8875
2690.34441	6855.8875
2692.96396	6844.0875
2695.58188	6842.8875
2698.19818	6829.2875
2700.81285	6834.0875
2703.4259	6812.1875
2706.03733	6836.6875
2708.64714	6820.4875
2711.25533	6853.2875
2713.86191	6842.2875
2716.46687	6852.8875
2719.07021	6839.0875
2721.67194	6859.3875
2724.27206	6846.9875
2726.87057	6848.3875
2729.46747	6831.8875
2732.06276	6829.9875
2734.65644	6821.0875
2737.24852	6802.8875
2739.83899	6806.2875
2742.42786	6793.3875
2745.01513	6781.8875
2747.60079	6766.1875
2750.18486	6755.7875
2752.76733	6754.0875
2755.3482	6730.7875
2757.92747	6708.9875
2760.50515	6700.1875
2763.08123	6709.9875
2765.65573	6717.7875
2768.22863	6710.5875
2770.79994	6699.3875
2773.36967	6712.4875
2775.9378	6706.4875
2778.50435	6713.3875
2781.06932	6679.2875
2783.6327	6685.5875
2786.1945	6694.7875
2788.75471	6702.0875
2791.31335	6694.2875
2793.87041	6664.5875
2796.42589	6664.6875
2798.97979	6687.9875
2801.53212	6666.3875
2804.08288	6679.2875
2806.63206	6685.4875
2809.17967	6696.1875
2811.72571	6687.5875
2814.27018	6732.2875
2816.81308	6733.8875
2819.35442	6750.0875
2821.89419	6743.3875
2824.43239	6753.5875
2826.96904	6757.7875
2829.50412	6759.3875
2832.03763	6743.3875
2834.56959	6725.0875
2837.1	6731.7875
2839.62884	6724.4875
2842.15613	6725.8875
2844.68186	6714.9875
2847.20604	6746.8875
2849.72867	6732.2875
2852.24974	6755.0875
2854.76927	6764.3875
2857.28724	6764.5875
2859.80367	6757.2875
2862.31855	6770.7875
2864.83189	6813.1875
2867.34368	6806.5875
2869.85393	6829.3875
2872.36264	6848.0875
2874.8698	6844.8875
2877.37543	6824.7875
2879.87952	6846.3875
2882.38207	6837.6875
2884.88308	6817.4875
2887.38256	6803.8875
2889.88051	6796.6875
2892.37692	6792.9875
2894.8718	6781.2875
2897.36515	6787.7875
2899.85698	6771.4875
2902.34727	6785.8875
2904.83604	6799.3875
2907.32328	6797.5875
2909.809	6771.1875
2912.29319	6771.4875
2914.77587	6740.1875
2917.25702	6711.6875
2919.73665	6713.0875
2922.21476	6725.4875
2924.69136	6693.6875
2927.16644	6672.8875
2929.64	6673.6875
2932.11205	6654.9875
2934.58258	6652.0875
2937.05161	6622.4875
2939.51912	6632.4875
2941.98513	6635.0875
2944.44962	6625.2875
2946.91261	6583.2875
2949.37409	6604.1875
2951.83407	6614.3875
2954.29254	6587.9875
2956.74951	6588.8875
2959.20498	6580.9875
2961.65895	6561.4875
2964.11142	6556.0875
2966.56239	6563.7875
2969.01186	6551.7875
2971.45984	6510.6875
2973.90632	6498.9875
2976.35131	6470.7875
2978.7948	6445.6875
2981.23681	6425.3875
2983.67732	6431.8875
2986.11635	6427.2875
2988.55388	6404.7875
2990.98993	6410.2875
2993.4245	6399.1875
2995.85758	6408.1875
2998.28917	6409.0875
3000.71928	6383.1875
3003.14791	6394.4875
3005.57506	6387.6875
3008.00073	6365.8875
3010.42493	6393.6875
3012.84764	6376.1875
3015.26888	6383.9875
3017.68865	6367.5875
3020.10694	6352.5875
3022.52376	6337.5875
3024.9391	6313.5875
3027.35298	6301.5875
3029.76539	6279.3875
3032.17632	6257.7875
3034.5858	6261.7875
3036.9938	6241.4875
3039.40034	6222.5875
3041.80542	6183.9875
3044.20903	6149.3875
3046.61118	6160.0875
3049.01187	6137.6875
3051.4111	6137.8875
3053.80888	6124.6875
3056.20519	6104.8875
3058.60005	6094.2875
3060.99345	6084.3875
3063.3854	6074.4875
3065.7759	6054.0875
3068.16494	6055.2875
3070.55254	6027.6875
3072.93868	6004.1875
3075.32338	5987.5875
3077.70662	5967.4875
