Data from AgNP_FTO_APTES_UA_100uM_CRN_1uM_R6G_10uM_NaF_0.1M_Addition_RamanShift__15__12-05-40-173.txt Node

Date: Thu Mar 24 12:05:40 GMT 2022
User: TCL
Spectrometer: QEP01345
Trigger mode: 4
Integration Time (sec): 7.000000E0
Scans to average: 10
Electric dark correction enabled: true
Nonlinearity correction enabled: false
Boxcar width: 0
XAxis mode: Raman Shifts
Number of Pixels in Spectrum: 1044
>>>>>Begin Spectral Data<<<<<
46.04893	-1.1
50.45542	-0.5
54.85868	1
59.25871	-1
63.6555	48.4
68.04907	52.7
72.43941	50.5
76.82654	51
81.21044	57.9
85.59113	59
89.96862	60.1
94.34289	63.2
98.71396	64.6
103.08183	60.8
107.4465	64.6
111.80798	70.3
116.16626	66.1
120.52136	72.6
124.87327	75.2
129.222	80
133.56755	87
137.90993	94.1
142.24913	104.8
146.58517	116.2
150.91804	134.8
155.24774	164.8
159.57429	204.7
163.89768	262
168.21792	350.7
172.53501	488.8
176.84895	677.9
181.15975	959.4
185.46741	1345.2
189.77193	1858.3
194.07331	2494.6
198.37157	3241.7
202.6667	4007.9
206.9587	4778.2
211.24758	5551.4
215.53334	6341.3
219.81599	7184.3
224.09553	8171
228.37195	9207
232.64527	10364.9
236.91549	11566.3
241.18261	12691.3
245.44663	13688.9
249.70755	14479.6
253.96539	15122
258.22014	15670.1
262.4718	16146.1
266.72039	16462.9
270.96589	16642.6
275.20832	16638.8
279.44768	16564.6
283.68397	16426.2
287.91719	16310.9
292.14735	16271.8
296.37445	16391.2
300.59849	16602.6
304.81948	16885
309.03742	17139.8
313.25231	17118.3
317.46415	16708.7
321.67296	16069.8
325.87872	15492.9
330.08145	15161.7
334.28114	15084.4
338.47781	15220.1
342.67145	15442.7
346.86207	15780.2
351.04966	16212.7
355.23424	16704.5
359.4158	17080.9
363.59435	17264.2
367.76989	17345.6
371.94243	17316.8
376.11196	17319.9
380.27849	17289.6
384.44203	17267.3
388.60257	17315.2
392.76012	17460.1
396.91468	17681.3
401.06626	17944.8
405.21485	18107.8
409.36047	17911.3
413.50311	17343
417.64277	16897.7
421.77947	16730.9
425.9132	16700.7
430.04396	16787.7
434.17176	16853.8
438.2966	17006.4
442.41849	17311.5
446.53742	17782.6
450.6534	18294.1
454.76644	18658.6
458.87653	18703.5
462.98368	18629.3
467.08789	18410.2
471.18916	18174.9
475.2875	17871.5
479.38291	17617.9
483.4754	17454.2
487.56496	17231.4
491.6516	16972.1
495.73531	16778.2
499.81612	16653.1
503.89401	16777.2
507.96899	16876.2
512.04106	16895.1
516.11023	16819.1
520.1765	16736
524.23987	16659.6
528.30034	16533.9
532.35792	16399.1
536.41261	16169.1
540.46441	15941.1
544.51333	15846.7
548.55936	16044.8
552.60252	16448.1
556.64279	16936.6
560.6802	17282.2
564.71473	17559.3
568.7464	18068.3
572.7752	18782.2
576.80114	19279.7
580.82422	19598.9
584.84444	19893.4
588.86181	20251.4
592.87633	20671.6
596.888	20738.9
600.89682	20352.8
604.9028	20823.6
608.90594	23547.7
612.90624	26830.3
616.90371	25247.5
620.89834	19551.7
624.89015	16814.1
628.87913	16350.8
632.86528	16613.3
636.84862	16820.3
640.82913	16612.7
644.80683	15967.9
648.78172	15499.7
652.75379	15485.3
656.72306	15824.7
660.68952	16297.6
664.65319	16192.4
668.61405	15691.6
672.57211	15541.9
676.52738	15601.5
680.47986	15564.4
684.42955	15377.7
688.37646	15247.3
692.32058	15299.8
696.26192	15526.2
700.20048	15806.1
704.13626	15974.5
708.06928	16025.4
711.99952	15959.8
715.927	15875.1
719.85171	15928.5
723.77365	15884.6
727.69284	15637
731.60928	15440.4
735.52295	15367
739.43388	15446.4
743.34206	15482.3
747.24749	15603.7
751.15017	15773.4
755.05012	16078.4
758.94733	16721
762.8418	18137.4
766.73354	20591.7
770.62254	22898.6
774.50882	23413.4
778.39237	22015.5
782.27321	19845.5
786.15132	17859.6
790.02671	16554.5
793.89938	15914.3
797.76935	15540.4
801.6366	15406.7
805.50115	15273.1
809.36299	15166.4
813.22213	15031.8
817.07857	15016.1
820.93231	14961.8
824.78336	14890.5
828.63172	14877
832.47738	14834.1
836.32036	14775.6
840.16066	14734.1
843.99827	14730.5
847.8332	14734.6
851.66546	14773.6
855.49504	14801.9
859.32195	14816.7
863.1462	14771.7
866.96777	14751.1
870.78668	14739.7
874.60293	14750.9
878.41652	14762.3
882.22745	14831.5
886.03573	14938.4
889.84136	14983.2
893.64433	14891
897.44466	14845.4
901.24235	14797.4
905.0374	14718.1
908.8298	14630.1
912.61957	14575
916.40671	14707.2
920.19121	14908.8
923.97308	15128.5
927.75233	15185.3
931.52895	15086.4
935.30295	14810.8
939.07433	14413.2
942.84309	14132
946.60924	13962.4
950.37278	13903.7
954.13371	13947.7
957.89203	13903.2
961.64774	13922.6
965.40086	13898.5
969.15137	13913.2
972.89929	13861.7
976.64461	13815
980.38733	13817.2
984.12747	13762
987.86502	13871.9
991.59999	13953.1
995.33237	14111
999.06217	14331.7
1002.78939	14683.3
1006.51404	15113.6
1010.23611	15496.6
1013.95561	15779.6
1017.67255	15765.7
1021.38692	15546.9
1025.09872	15155.4
1028.80796	14812.3
1032.51465	14678.7
1036.21877	14729.5
1039.92035	14801.5
1043.61937	14914.8
1047.31584	14989.1
1051.00976	15070
1054.70114	15131.8
1058.38998	15215.2
1062.07627	15332.3
1065.76003	15538.3
1069.44126	15788.9
1073.11995	16115.7
1076.79611	16445.4
1080.46974	16704.1
1084.14085	16968.5
1087.80943	17303.1
1091.47549	17488.9
1095.13903	17425.6
1098.80005	17056.8
1102.45857	16631.3
1106.11456	16254.3
1109.76805	16125.3
1113.41903	16233.6
1117.06751	16481.1
1120.71348	16827.9
1124.35696	17261.7
1127.99793	17679.9
1131.63641	17736.3
1135.2724	17437.2
1138.90589	17133.7
1142.5369	16970.5
1146.16542	16882.7
1149.79145	16939.1
1153.415	17056.5
1157.03607	17265.8
1160.65467	17703.5
1164.27079	18454.7
1167.88443	19556.3
1171.49561	21127.6
1175.10432	23306.4
1178.71056	26027.8
1182.31434	28427.7
1185.91565	29386.9
1189.51451	29132.7
1193.11091	28155.8
1196.70485	26664.5
1200.29634	25098.3
1203.88538	23707.6
1207.47197	22514.2
1211.05612	21532.7
1214.63782	20861.4
1218.21708	20447
1221.79391	20289
1225.36829	20238.5
1228.94024	20132.3
1232.50976	19792.2
1236.07685	19379.6
1239.6415	19113.9
1243.20374	18970.3
1246.76355	19041.7
1250.32093	19255
1253.8759	19602
1257.42845	20254
1260.97859	21044.2
1264.52631	21859.8
1268.07163	22694.6
1271.61453	23401.4
1275.15503	24059.3
1278.69312	24630.8
1282.22882	25231.7
1285.76211	26155.2
1289.29301	27238.7
1292.82151	28493.1
1296.34761	29945.3
1299.87133	31734.2
1303.39266	33876.1
1306.9116	36367.5
1310.42815	38752.9
1313.94233	40038.3
1317.45412	39417.7
1320.96354	38023
1324.47058	36548
1327.97525	35267.8
1331.47754	34393.7
1334.97747	33771.7
1338.47502	33538.3
1341.97022	33721.2
1345.46305	34162
1348.95352	34823.6
1352.44163	35758.1
1355.92738	37165.1
1359.41078	39691.5
1362.89183	42299.1
1366.37053	41782.9
1369.84688	37322.5
1373.32088	32117
1376.79254	28660.6
1380.26186	27037.8
1383.72883	26361.9
1387.19347	25937.9
1390.65578	25457.9
1394.11575	25089.8
1397.57339	24930.9
1401.0287	24916
1404.48168	24829.3
1407.93234	24600
1411.38068	24180
1414.82669	23581.4
1418.27039	22849.2
1421.71177	22152.3
1425.15083	21546.1
1428.58758	21196
1432.02203	21310
1435.45416	21745.1
1438.88399	22185.2
1442.31151	22505.1
1445.73673	22762.1
1449.15965	23051.4
1452.58027	23242.7
1455.9986	23435.1
1459.41463	23669
1462.82837	24118.6
1466.23982	24695.5
1469.64898	25256.1
1473.05586	25581.1
1476.46045	25766.6
1479.86276	25875.3
1483.26279	25998.9
1486.66054	26344.1
1490.05602	26948.5
1493.44922	27887.5
1496.84016	29309.4
1500.22882	31272.3
1503.61521	33789.5
1506.99934	36409.5
1510.38121	38180.2
1513.76081	38047.2
1517.13816	35935.4
1520.51324	32954.3
1523.88607	30452.6
1527.25665	28964.6
1530.62498	28260.1
1533.99105	27739.3
1537.35488	27132.2
1540.71647	26339.1
1544.07581	25427
1547.4329	24540
1550.78776	23962.3
1554.14038	23576.2
1557.49077	23574.9
1560.83892	23835.7
1564.18484	24230.4
1567.52853	24861.9
1570.86999	25407.3
1574.20922	25881.8
1577.54624	25948.6
1580.88103	25202.6
1584.2136	24261.9
1587.54395	24030
1590.87208	24656.4
1594.19801	26004.8
1597.52172	27571.5
1600.84321	28014
1604.16251	26909.7
1607.47959	25045.8
1610.79447	23104.4
1614.10715	21193.6
1617.41763	19546.7
1620.7259	18370.5
1624.03199	17733.5
1627.33587	17676.5
1630.63757	18182.9
1633.93707	19371.7
1637.23439	21530.6
1640.52951	24904
1643.82246	29205.5
1647.11321	33101.6
1650.40179	34672.7
1653.68819	32613.7
1656.97241	27929.3
1660.25446	22982.9
1663.53433	19344.3
1666.81203	17035.6
1670.08756	15665.2
1673.36092	14852.7
1676.63211	14330
1679.90115	13950.7
1683.16801	13693.9
1686.43272	13499.4
1689.69527	13369.5
1692.95567	13228.8
1696.2139	13135.3
1699.46999	13070
1702.72392	12985.7
1705.97571	12986.7
1709.22535	12945.3
1712.47284	12911.3
1715.71819	12899.5
1718.96139	12853.9
1722.20246	12794.2
1725.44139	12726.7
1728.67818	12638.9
1731.91284	12536.2
1735.14537	12424.1
1738.37576	12351.7
1741.60403	12257.2
1744.83017	12213.1
1748.05418	12178.8
1751.27607	12140.7
1754.49584	12123.3
1757.71349	12099.3
1760.92903	12040.6
1764.14244	12063.9
1767.35375	12066.8
1770.56294	12001.7
1773.77002	11962.1
1776.97499	11939.3
1780.17785	11937.1
1783.37861	11915.8
1786.57727	11873.4
1789.77382	11849.6
1792.96828	11848.2
1796.16064	11786.6
1799.3509	11810
1802.53907	11736.3
1805.72514	11675.8
1808.90913	11664.6
1812.09102	11639.5
1815.27083	11620.5
1818.44856	11601.3
1821.6242	11529.6
1824.79776	11540
1827.96924	11504
1831.13864	11506.4
1834.30597	11496.8
1837.47122	11485.5
1840.6344	11462.5
1843.7955	11461.5
1846.95454	11444.8
1850.11151	11445.1
1853.26642	11438.3
1856.41926	11442.1
1859.57004	11441.6
1862.71876	11409.9
1865.86542	11393.3
1869.01003	11388.7
1872.15258	11379.7
1875.29308	11357.6
1878.43152	11317.8
1881.56792	11336.2
1884.70227	11303.7
1887.83457	11297.6
1890.96482	11280.9
1894.09304	11263.3
1897.21921	11265.3
1900.34335	11226.6
1903.46544	11232.8
1906.58551	11225
1909.70353	11190.7
1912.81953	11184.8
1915.93349	11153.9
1919.04543	11120.1
1922.15534	11121.1
1925.26322	11075.9
1928.36908	11042.3
1931.47292	11002.4
1934.57473	10963.1
1937.67453	10925.5
1940.77232	10900.9
1943.86808	10884.1
1946.96184	10857.4
1950.05358	10817.3
1953.14331	10794
1956.23103	10775.7
1959.31675	10731.3
1962.40046	10711.3
1965.48217	10703.3
1968.56188	10684.5
1971.63959	10633.6
1974.7153	10610.4
1977.78901	10548.8
1980.86073	10518.1
1983.93046	10500.1
1986.99819	10424.5
1990.06394	10414.3
1993.1277	10367.3
1996.18947	10314.3
1999.24925	10297.9
2002.30706	10231.3
2005.36288	10219.2
2008.41672	10193.3
2011.46859	10171.5
2014.51848	10120.5
2017.56639	10097.7
2020.61233	10066.4
2023.6563	10028.1
2026.6983	10035.4
2029.73833	9984.1
2032.7764	9961.8
2035.8125	9934.1
2038.84664	9908.2
2041.87881	9863.6
2044.90903	9866.3
2047.93729	9833.9
2050.96359	9816.9
2053.98794	9806.8
2057.01034	9775.7
2060.03078	9755.7
2063.04927	9751.4
2066.06582	9713.4
2069.08042	9718.8
2072.09307	9728.1
2075.10378	9710.1
2078.11255	9716.7
2081.11938	9736.6
2084.12426	9732.6
2087.12722	9730.6
2090.12824	9732.3
2093.12732	9736.5
2096.12447	9735.2
2099.11969	9726.6
2102.11299	9729.7
2105.10435	9736.3
2108.09379	9726.7
2111.08131	9753.8
2114.0669	9737.3
2117.05057	9745.8
2120.03233	9736.6
2123.01216	9753.4
2125.99008	9761.3
2128.96609	9759
2131.94018	9743.2
2134.91236	9767.6
2137.88263	9755.5
2140.851	9745.7
2143.81746	9751
2146.78201	9728
2149.74466	9750.5
2152.7054	9755.8
2155.66425	9719.9
2158.6212	9710.8
2161.57625	9698.6
2164.52941	9673.6
2167.48067	9682.5
2170.43004	9674.4
2173.37752	9668.6
2176.32311	9666.4
2179.26681	9664.8
2182.20863	9655.3
2185.14856	9641.2
2188.08661	9641.4
2191.02278	9648.7
2193.95707	9628.8
2196.88948	9601.3
2199.82001	9572
2202.74867	9567.3
2205.67545	9552.6
2208.60037	9533.2
2211.52341	9519.2
2214.44458	9522.2
2217.36388	9487.4
2220.28132	9487.7
2223.1969	9434.3
2226.11061	9443.4
2229.02246	9410.5
2231.93245	9424.2
2234.84058	9373.7
2237.74686	9370.6
2240.65128	9349.4
2243.55385	9348.1
2246.45456	9351.4
2249.35343	9311.9
2252.25044	9315.9
2255.14561	9291.7
2258.03893	9308.4
2260.93041	9281.1
2263.82004	9244.7
2266.70783	9216.8
2269.59378	9208.9
2272.4779	9180.4
2275.36017	9151.4
2278.24061	9144.8
2281.11922	9107.1
2283.996	9110
2286.87094	9088.9
2289.74405	9059.4
2292.61534	9053.5
2295.4848	9050.8
2298.35243	9030.9
2301.21824	9026.8
2304.08223	9029
2306.94439	8983.8
2309.80474	9017.7
2312.66327	8990.7
2315.51999	8981.3
2318.37489	8990.9
2321.22797	8950.3
2324.07925	8947
2326.92871	8948.9
2329.77637	8916.8
2332.62222	8923.8
2335.46626	8884.3
2338.3085	8888.8
2341.14893	8885.3
2343.98756	8892.5
2346.8244	8901.2
2349.65943	8907.4
2352.49267	8881.5
2355.32411	8889.3
2358.15376	8896.5
2360.98161	8892.8
2363.80768	8910.9
2366.63195	8901.3
2369.45444	8932.2
2372.27514	8892.7
2375.09405	8899
2377.91118	8873.3
2380.72652	8839.3
2383.54009	8805.7
2386.35187	8794.2
2389.16188	8753.4
2391.97011	8737.4
2394.77657	8724.8
2397.58125	8687.4
2400.38416	8671.7
2403.18529	8653.5
2405.98466	8650.7
2408.78226	8619.3
2411.57809	8615.5
2414.37216	8601
2417.16446	8590.9
2419.955	8593.8
2422.74378	8576.1
2425.5308	8557.8
2428.31606	8556.5
2431.09956	8545.9
2433.88131	8529.5
2436.6613	8531.7
2439.43954	8549.2
2442.21603	8554.2
2444.99077	8561.3
2447.76377	8565.1
2450.53501	8530.7
2453.30451	8579.3
2456.07226	8561.7
2458.83827	8553.2
2461.60254	8552.4
2464.36507	8534.4
2467.12586	8537.8
2469.88492	8522.1
2472.64224	8521.5
2475.39782	8518.1
2478.15167	8529.2
2480.90379	8526.1
2483.65417	8528.7
2486.40283	8527
2489.14976	8524.3
2491.89497	8535.4
2494.63845	8552.5
2497.3802	8518
2500.12024	8532.7
2502.85855	8533.3
2505.59514	8511.3
2508.33002	8486.6
2511.06318	8472.9
2513.79462	8444.3
2516.52435	8442.5
2519.25237	8459.4
2521.97867	8408.7
2524.70327	8403.8
2527.42616	8366.4
2530.14734	8382.6
2532.86681	8354
2535.58458	8350
2538.30065	8339.9
2541.01501	8348.6
2543.72768	8329.9
2546.43864	8325.3
2549.14791	8323.3
2551.85548	8324.4
2554.56136	8307.7
2557.26554	8308.4
2559.96803	8282.7
2562.66883	8280.7
2565.36794	8286.5
2568.06536	8273.3
2570.7611	8258.8
2573.45514	8233.3
2576.14751	8240.4
2578.83819	8216.3
2581.52719	8182.3
2584.21451	8197.5
2586.90015	8183.2
2589.58411	8154.2
2592.2664	8131.7
2594.94701	8114.2
2597.62594	8115.4
2600.30321	8105.7
2602.9788	8105.8
2605.65273	8107.2
2608.32498	8081.9
2610.99557	8084.1
2613.66449	8095.6
2616.33175	8080.9
2618.99734	8091.9
2621.66128	8076.4
2624.32355	8074.7
2626.98416	8064.5
2629.64311	8054.5
2632.30041	8028.3
2634.95605	8016.4
2637.61004	8015.8
2640.26238	8001.9
2642.91306	8025.8
2645.56209	8002
2648.20948	8010.2
2650.85521	8019.1
2653.4993	8034.1
2656.14175	8001.4
2658.78255	8032.8
2661.42171	8024.3
2664.05923	8013.4
2666.6951	8043
2669.32934	8055.3
2671.96194	8019.6
2674.59291	8043.9
2677.22224	8026.4
2679.84993	8037.6
2682.476	8039.4
2685.10043	8028.7
2687.72324	8018.4
2690.34441	8045.1
2692.96396	8033.5
2695.58188	8021
2698.19818	8022.8
2700.81285	8053.7
2703.4259	8012.2
2706.03733	8018.8
2708.64714	8012.9
2711.25533	8011.3
2713.86191	7995.7
2716.46687	8046.9
2719.07021	8024.3
2721.67194	8026.9
2724.27206	8020.3
2726.87057	8019.6
2729.46747	8028
2732.06276	8025.5
2734.65644	8018.1
2737.24852	7999.9
2739.83899	7986.9
2742.42786	8004.4
2745.01513	7997.5
2747.60079	7967.1
2750.18486	7960.3
2752.76733	7970.2
2755.3482	7964.2
2757.92747	7963.4
2760.50515	7958.3
2763.08123	7960.3
2765.65573	7958.2
2768.22863	7920
2770.79994	7922.3
2773.36967	7919.6
2775.9378	7900.1
2778.50435	7897.9
2781.06932	7906.1
2783.6327	7912
2786.1945	7880.1
2788.75471	7866.9
2791.31335	7842.2
2793.87041	7854.6
2796.42589	7824.6
2798.97979	7844.4
2801.53212	7822.9
2804.08288	7829.2
2806.63206	7817
2809.17967	7827.1
2811.72571	7781.5
2814.27018	7795.3
2816.81308	7781.5
2819.35442	7775.8
2821.89419	7747
2824.43239	7751.1
2826.96904	7747.3
2829.50412	7742.8
2832.03763	7747.6
2834.56959	7741.2
2837.1	7738.2
2839.62884	7722.9
2842.15613	7719.2
2844.68186	7719.3
2847.20604	7713.9
2849.72867	7726.9
2852.24974	7703.8
2854.76927	7698.5
2857.28724	7689
2859.80367	7701.7
2862.31855	7700.7
2864.83189	7693.3
2867.34368	7673.7
2869.85393	7689.3
2872.36264	7705.4
2874.8698	7722.7
2877.37543	7701.5
2879.87952	7704.3
2882.38207	7698.7
2884.88308	7690.1
2887.38256	7693.4
2889.88051	7676.4
2892.37692	7689.8
2894.8718	7683.8
2897.36515	7706
2899.85698	7698
2902.34727	7709.1
2904.83604	7706.4
2907.32328	7705.1
2909.809	7706.9
2912.29319	7707.3
2914.77587	7715.8
2917.25702	7698.8
2919.73665	7695
2922.21476	7704.1
2924.69136	7690.9
2927.16644	7702
2929.64	7684.7
2932.11205	7644.3
2934.58258	7614.2
2937.05161	7620.4
2939.51912	7628
2941.98513	7602.6
2944.44962	7573.4
2946.91261	7538.6
2949.37409	7593.3
2951.83407	7547.7
2954.29254	7541.2
2956.74951	7524.7
2959.20498	7488
2961.65895	7468.6
2964.11142	7475.5
2966.56239	7463.3
2969.01186	7448.3
2971.45984	7452.6
2973.90632	7427
2976.35131	7397.4
2978.7948	7369.7
2981.23681	7362.3
2983.67732	7341.6
2986.11635	7319.2
2988.55388	7300
2990.98993	7287.6
2993.4245	7267.4
2995.85758	7260.9
2998.28917	7247.2
3000.71928	7217.6
3003.14791	7227.5
3005.57506	7210.1
3008.00073	7176
3010.42493	7184
3012.84764	7162.2
3015.26888	7171.7
3017.68865	7157
3020.10694	7131.7
3022.52376	7096.9
3024.9391	7100.3
3027.35298	7093.9
3029.76539	7071
3032.17632	7046.1
3034.5858	7047.6
3036.9938	7034.7
3039.40034	7029.4
3041.80542	7022.7
3044.20903	6982.6
3046.61118	6971.1
3049.01187	6983.2
3051.4111	6946.6
3053.80888	6953.1
3056.20519	6935.2
3058.60005	6916.5
3060.99345	6919.8
3063.3854	6891.6
3065.7759	6879.2
3068.16494	6900.2
3070.55254	6847.6
3072.93868	6828
3075.32338	6795.7
3077.70662	6813.6
3080.08842	6776.1
3082.46878	6796.8
3084.84769	6750.8
3087.22515	6757.2
3089.60118	6749
3091.97576	6741.5
3094.3489	6729.8
3096.72061	6720.9
3099.09087	6723.9
3101.4597	6708.3
3103.82709	6708.8
3106.19305	6675.1
3108.55757	6673.2
3110.92066	6649.4
3113.28232	6644.5
3115.64255	6627.4
3118.00134	6610.7
3120.35871	6598.7
3122.71466	6592.8
3125.06917	6571.9
3127.42226	6567.7
3129.77393	6579.9
3132.12417	6563.8
3134.47299	6577.5
3136.82039	6562.3
3139.16636	6571
3141.51092	6593.3
3143.85406	6576.2
3146.19579	6561.4
3148.53609	6569.1
3150.87499	6578.1
3153.21246	6569.5
3155.54853	6563.6
3157.88318	6548.9
3160.21642	6558.4
3162.54826	6528.1
3164.87868	6548.3
3167.2077	6537.8
3169.5353	6513
3171.86151	6537.9
3174.18631	6526.5
3176.5097	6500.2
3178.83169	6507.9
3181.15228	6487.4
3183.47147	6493.9
3185.78926	6499.7
3188.10565	6486.2
3190.42065	6480.9
3192.73424	6480.1
3195.04645	6478.5
3197.35725	6488.2
3199.66667	6489.3
3201.97469	6481.2
3204.28132	6476.2
3206.58656	6485.3
3208.8904	6482.7
3211.19287	6468.5
3213.49394	6473.8
3215.79363	6469.4
3218.09193	6463.6
3220.38884	6479.1
3222.68438	6474.9
3224.97853	6470
3227.2713	6449.7
3229.56269	6442.2
3231.8527	6436.1
3234.14133	6421.3
3236.42858	6406.1
3238.71446	6410.7
3240.99896	6396.2
3243.28209	6400.7
3245.56384	6370.7
3247.84423	6384.7
3250.12324	6385.1
3252.40088	6348
3254.67715	6348.9
3256.95205	6330.8
3259.22558	6333.8
3261.49775	6315.9
3263.76855	6308.5
3266.03799	6273.2
3268.30606	6259.3
3270.57277	6276.3
3272.83812	6249.6
3275.10211	6232.7
3277.36474	6245.7
3279.62601	6254.3
3281.88593	6244
3284.14448	6239.9
3286.40168	6247
3288.65753	6236.2
3290.91202	6216.1
3293.16516	6209.2
3295.41695	6202.5
3297.66738	6183.7
3299.91647	6168.2
3302.16421	6108.9
3304.4106	6116.9
3306.65564	6077.4
3308.89933	6051.2
3311.14169	5979.3
3313.38269	5955.9
3315.62236	5923
3317.86068	5863.9
3320.09766	5796.5
3322.3333	5741.3
3324.5676	5743
3326.80056	5640.1
3329.03219	5619
3331.26248	2.2
3333.49143	-2
3335.71905	0.8
