Data from AgNP_FTO_APTES_UA_100uM_CRN_100uM_R6G_10uM_NaF_0.1M_Addition_RamanShift__25__18-16-40-595.txt Node

Date: Thu Mar 24 18:16:40 GMT 2022
User: TCL
Spectrometer: QEP01345
Trigger mode: 4
Integration Time (sec): 7.000000E0
Scans to average: 10
Electric dark correction enabled: true
Nonlinearity correction enabled: false
Boxcar width: 0
XAxis mode: Raman Shifts
Number of Pixels in Spectrum: 1044
>>>>>Begin Spectral Data<<<<<
46.04893	-1.1625
50.45542	1.1375
54.85868	0.7375
59.25871	-0.3625
63.6555	31.6375
68.04907	35.1375
72.43941	33.2375
76.82654	36.8375
81.21044	40.4375
85.59113	42.0375
89.96862	46.6375
94.34289	42.5375
98.71396	45.2375
103.08183	47.8375
107.4465	47.8375
111.80798	51.5375
116.16626	49.1375
120.52136	49.7375
124.87327	47.8375
129.222	48.3375
133.56755	56.1375
137.90993	56.2375
142.24913	64.3375
146.58517	66.2375
150.91804	76.5375
155.24774	91.4375
159.57429	111.0375
163.89768	140.4375
168.21792	182.2375
172.53501	248.8375
176.84895	340.9375
181.15975	483.6375
185.46741	678.5375
189.77193	930.4375
194.07331	1254.4375
198.37157	1616.3375
202.6667	2003.8375
206.9587	2392.0375
211.24758	2773.2375
215.53334	3164.4375
219.81599	3592.5375
224.09553	4052.0375
228.37195	4615.4375
232.64527	5174.6375
236.91549	5775.5375
241.18261	6365.7375
245.44663	6866.8375
249.70755	7273.0375
253.96539	7616.8375
258.22014	7913.2375
262.4718	8165.2375
266.72039	8314.6375
270.96589	8395.3375
275.20832	8379.4375
279.44768	8312.0375
283.68397	8195.1375
287.91719	8118.4375
292.14735	8110.8375
296.37445	8157.2375
300.59849	8317.8375
304.81948	8503.6375
309.03742	8629.6375
313.25231	8624.5375
317.46415	8411.3375
321.67296	8072.1375
325.87872	7758.2375
330.08145	7570.4375
334.28114	7557.6375
338.47781	7627.3375
342.67145	7767.3375
346.86207	7933.7375
351.04966	8159.0375
355.23424	8409.9375
359.4158	8607.8375
363.59435	8724.7375
367.76989	8767.6375
371.94243	8749.4375
376.11196	8759.4375
380.27849	8740.6375
384.44203	8731.8375
388.60257	8717.2375
392.76012	8733.6375
396.91468	8836.3375
401.06626	8982.4375
405.21485	9087.0375
409.36047	8976.2375
413.50311	8702.2375
417.64277	8415.4375
421.77947	8288.3375
425.9132	8243.8375
430.04396	8289.7375
434.17176	8303.9375
438.2966	8388.4375
442.41849	8536.6375
446.53742	8754.5375
450.6534	8988.5375
454.76644	9111.7375
458.87653	9112.5375
462.98368	9061.5375
467.08789	8951.4375
471.18916	8830.7375
475.2875	8685.2375
479.38291	8590.9375
483.4754	8473.0375
487.56496	8369.4375
491.6516	8290.7375
495.73531	8241.2375
499.81612	8251.1375
503.89401	8296.3375
507.96899	8317.7375
512.04106	8346.2375
516.11023	8361.0375
520.1765	8335.0375
524.23987	8340.8375
528.30034	8322.9375
532.35792	8256.8375
536.41261	8140.4375
540.46441	8042.0375
544.51333	7992.4375
548.55936	8038.0375
552.60252	8210.8375
556.64279	8383.6375
560.6802	8502.5375
564.71473	8565.2375
568.7464	8731.7375
572.7752	8962.5375
576.80114	9079.0375
580.82422	9157.7375
584.84444	9293.3375
588.86181	9468.0375
592.87633	9656.6375
596.888	9785.0375
600.89682	9753.7375
604.9028	10138.4375
608.90594	11670.1375
612.90624	13604.3375
616.90371	12909.2375
620.89834	9901.2375
624.89015	8429.6375
628.87913	8230.4375
632.86528	8396.2375
636.84862	8546.6375
640.82913	8460.3375
644.80683	8134.0375
648.78172	7845.2375
652.75379	7778.6375
656.72306	7930.7375
660.68952	8169.7375
664.65319	8098.0375
668.61405	7812.8375
672.57211	7671.0375
676.52738	7707.9375
680.47986	7699.0375
684.42955	7598.5375
688.37646	7566.7375
692.32058	7587.7375
696.26192	7655.8375
700.20048	7733.0375
704.13626	7798.8375
708.06928	7817.6375
711.99952	7750.6375
715.927	7785.5375
719.85171	7767.0375
723.77365	7796.0375
727.69284	7751.5375
731.60928	7718.1375
735.52295	7672.9375
739.43388	7702.0375
743.34206	7729.8375
747.24749	7726.7375
751.15017	7763.1375
755.05012	7864.0375
758.94733	8165.6375
762.8418	8850.1375
766.73354	10055.5375
770.62254	11259.8375
774.50882	11615.2375
778.39237	11005.2375
782.27321	9777.7375
786.15132	8717.5375
790.02671	8036.9375
793.89938	7686.6375
797.76935	7547.9375
801.6366	7463.3375
805.50115	7433.9375
809.36299	7412.1375
813.22213	7387.9375
817.07857	7367.2375
820.93231	7323.0375
824.78336	7297.1375
828.63172	7301.5375
832.47738	7289.8375
836.32036	7262.7375
840.16066	7240.7375
843.99827	7221.6375
847.8332	7214.8375
851.66546	7200.1375
855.49504	7221.6375
859.32195	7197.4375
863.1462	7184.0375
866.96777	7192.3375
870.78668	7201.5375
874.60293	7193.3375
878.41652	7211.0375
882.22745	7247.3375
886.03573	7292.9375
889.84136	7319.8375
893.64433	7284.8375
897.44466	7245.9375
901.24235	7191.5375
905.0374	7152.4375
908.8298	7126.5375
912.61957	7072.0375
916.40671	7111.0375
920.19121	7173.5375
923.97308	7245.7375
927.75233	7283.9375
931.52895	7256.7375
935.30295	7161.4375
939.07433	7004.5375
942.84309	6878.3375
946.60924	6772.8375
950.37278	6740.4375
954.13371	6717.5375
957.89203	6698.1375
961.64774	6710.7375
965.40086	6684.6375
969.15137	6666.5375
972.89929	6640.9375
976.64461	6622.0375
980.38733	6621.8375
984.12747	6616.6375
987.86502	6615.3375
991.59999	6680.8375
995.33237	6747.1375
999.06217	6849.4375
1002.78939	7005.7375
1006.51404	7158.1375
1010.23611	7317.8375
1013.95561	7407.3375
1017.67255	7375.1375
1021.38692	7291.7375
1025.09872	7140.1375
1028.80796	7029.1375
1032.51465	6976.2375
1036.21877	7001.9375
1039.92035	7052.6375
1043.61937	7077.0375
1047.31584	7109.8375
1051.00976	7127.4375
1054.70114	7131.3375
1058.38998	7159.6375
1062.07627	7201.5375
1065.76003	7262.0375
1069.44126	7345.4375
1073.11995	7466.6375
1076.79611	7581.3375
1080.46974	7699.2375
1084.14085	7825.8375
1087.80943	7917.7375
1091.47549	7992.9375
1095.13903	7937.2375
1098.80005	7755.5375
1102.45857	7542.7375
1106.11456	7431.7375
1109.76805	7424.4375
1113.41903	7517.6375
1117.06751	7708.1375
1120.71348	7931.7375
1124.35696	8207.7375
1127.99793	8431.6375
1131.63641	8449.5375
1135.2724	8245.2375
1138.90589	8012.8375
1142.5369	7869.4375
1146.16542	7770.0375
1149.79145	7695.3375
1153.415	7690.1375
1157.03607	7760.5375
1160.65467	7939.5375
1164.27079	8259.4375
1167.88443	8696.0375
1171.49561	9400.2375
1175.10432	10397.3375
1178.71056	11620.1375
1182.31434	12691.2375
1185.91565	13056.2375
1189.51451	12775.4375
1193.11091	12171.0375
1196.70485	11405.5375
1200.29634	10734.5375
1203.88538	10194.8375
1207.47197	9634.5375
1211.05612	9168.2375
1214.63782	8882.8375
1218.21708	8752.5375
1221.79391	8673.6375
1225.36829	8660.6375
1228.94024	8615.0375
1232.50976	8480.8375
1236.07685	8356.4375
1239.6415	8291.1375
1243.20374	8296.9375
1246.76355	8327.7375
1250.32093	8386.2375
1253.8759	8538.4375
1257.42845	8747.9375
1260.97859	9049.7375
1264.52631	9365.8375
1268.07163	9663.7375
1271.61453	9939.2375
1275.15503	10206.1375
1278.69312	10400.6375
1282.22882	10614.2375
1285.76211	10926.8375
1289.29301	11339.2375
1292.82151	11791.6375
1296.34761	12341.2375
1299.87133	13073.9375
1303.39266	14079.1375
1306.9116	15336.1375
1310.42815	16619.8375
1313.94233	17275.4375
1317.45412	16878.6375
1320.96354	16031.6375
1324.47058	15145.9375
1327.97525	14337.9375
1331.47754	13764.1375
1334.97747	13437.1375
1338.47502	13336.2375
1341.97022	13468.1375
1345.46305	13794.2375
1348.95352	14314.7375
1352.44163	15007.1375
1355.92738	16094.1375
1359.41078	17744.5375
1362.89183	19343.5375
1366.37053	19008.7375
1369.84688	16625.4375
1373.32088	14009.8375
1376.79254	12336.5375
1380.26186	11508.9375
1383.72883	11071.5375
1387.19347	10735.8375
1390.65578	10415.4375
1394.11575	10214.9375
1397.57339	10141.6375
1401.0287	10130.9375
1404.48168	10172.1375
1407.93234	10126.3375
1411.38068	10016.5375
1414.82669	9848.7375
1418.27039	9621.4375
1421.71177	9309.8375
1425.15083	9038.8375
1428.58758	8875.4375
1432.02203	8938.1375
1435.45416	9093.2375
1438.88399	9235.0375
1442.31151	9319.2375
1445.73673	9453.5375
1449.15965	9530.6375
1452.58027	9575.8375
1455.9986	9598.1375
1459.41463	9654.8375
1462.82837	9827.1375
1466.23982	10109.7375
1469.64898	10428.5375
1473.05586	10714.4375
1476.46045	10883.9375
1479.86276	11023.3375
1483.26279	11182.6375
1486.66054	11368.4375
1490.05602	11707.5375
1493.44922	12230.9375
1496.84016	12906.4375
1500.22882	13988.2375
1503.61521	15389.1375
1506.99934	16903.4375
1510.38121	17804.2375
1513.76081	17708.8375
1517.13816	16406.9375
1520.51324	14658.2375
1523.88607	13140.5375
1527.25665	12198.4375
1530.62498	11705.6375
1533.99105	11367.6375
1537.35488	11086.8375
1540.71647	10791.5375
1544.07581	10527.1375
1547.4329	10228.9375
1550.78776	10049.1375
1554.14038	9958.7375
1557.49077	9987.0375
1560.83892	10111.9375
1564.18484	10372.5375
1567.52853	10712.8375
1570.86999	11026.0375
1574.20922	11232.9375
1577.54624	11219.9375
1580.88103	10770.4375
1584.2136	10195.7375
1587.54395	9946.2375
1590.87208	10103.8375
1594.19801	10636.5375
1597.52172	11323.3375
1600.84321	11607.0375
1604.16251	11203.1375
1607.47959	10453.3375
1610.79447	9675.0375
1614.10715	8969.4375
1617.41763	8359.0375
1620.7259	7922.1375
1624.03199	7679.2375
1627.33587	7648.2375
1630.63757	7796.2375
1633.93707	8272.0375
1637.23439	9080.0375
1640.52951	10366.3375
1643.82246	12132.5375
1647.11321	13927.1375
1650.40179	14828.3375
1653.68819	14147.7375
1656.97241	12225.2375
1660.25446	10112.3375
1663.53433	8546.2375
1666.81203	7584.1375
1670.08756	7011.9375
1673.36092	6650.5375
1676.63211	6438.8375
1679.90115	6273.0375
1683.16801	6144.8375
1686.43272	6039.5375
1689.69527	5973.0375
1692.95567	5915.2375
1696.2139	5846.1375
1699.46999	5834.5375
1702.72392	5775.6375
1705.97571	5772.1375
1709.22535	5729.0375
1712.47284	5719.9375
1715.71819	5689.4375
1718.96139	5649.9375
1722.20246	5644.1375
1725.44139	5601.9375
1728.67818	5559.4375
1731.91284	5497.2375
1735.14537	5457.1375
1738.37576	5439.7375
1741.60403	5403.8375
1744.83017	5375.6375
1748.05418	5362.0375
1751.27607	5328.3375
1754.49584	5314.9375
1757.71349	5314.4375
1760.92903	5303.8375
1764.14244	5302.1375
1767.35375	5275.6375
1770.56294	5259.3375
1773.77002	5242.7375
1776.97499	5221.9375
1780.17785	5198.5375
1783.37861	5165.8375
1786.57727	5167.3375
1789.77382	5167.2375
1792.96828	5147.6375
1796.16064	5129.6375
1799.3509	5122.2375
1802.53907	5102.8375
1805.72514	5090.4375
1808.90913	5071.5375
1812.09102	5068.6375
1815.27083	5034.7375
1818.44856	5027.7375
1821.6242	5025.3375
1824.79776	4994.1375
1827.96924	4978.6375
1831.13864	4982.6375
1834.30597	4980.4375
1837.47122	4968.7375
1840.6344	4966.3375
1843.7955	4950.7375
1846.95454	4950.4375
1850.11151	4935.5375
1853.26642	4933.8375
1856.41926	4916.8375
1859.57004	4921.5375
1862.71876	4893.9375
1865.86542	4906.0375
1869.01003	4914.2375
1872.15258	4902.2375
1875.29308	4893.4375
1878.43152	4878.9375
1881.56792	4880.0375
1884.70227	4863.8375
1887.83457	4854.4375
1890.96482	4852.2375
1894.09304	4842.7375
1897.21921	4831.2375
1900.34335	4836.1375
1903.46544	4816.4375
1906.58551	4816.4375
1909.70353	4814.8375
1912.81953	4789.9375
1915.93349	4790.6375
1919.04543	4786.0375
1922.15534	4772.0375
1925.26322	4761.9375
1928.36908	4746.9375
1931.47292	4731.7375
1934.57473	4710.5375
1937.67453	4712.3375
1940.77232	4699.7375
1943.86808	4676.2375
1946.96184	4654.4375
1950.05358	4632.9375
1953.14331	4626.2375
1956.23103	4616.3375
1959.31675	4573.7375
1962.40046	4572.4375
1965.48217	4566.0375
1968.56188	4550.1375
1971.63959	4540.9375
1974.7153	4532.5375
1977.78901	4509.9375
1980.86073	4493.3375
1983.93046	4479.9375
1986.99819	4455.5375
1990.06394	4457.8375
1993.1277	4437.1375
1996.18947	4412.5375
1999.24925	4413.4375
2002.30706	4389.5375
2005.36288	4337.9375
2008.41672	4348.6375
2011.46859	4326.6375
2014.51848	4311.1375
2017.56639	4298.8375
2020.61233	4298.6375
2023.6563	4268.4375
2026.6983	4260.4375
2029.73833	4260.5375
2032.7764	4246.4375
2035.8125	4217.1375
2038.84664	4212.2375
2041.87881	4214.2375
2044.90903	4186.8375
2047.93729	4201.3375
2050.96359	4184.5375
2053.98794	4184.2375
2057.01034	4164.9375
2060.03078	4160.7375
2063.04927	4143.8375
2066.06582	4140.9375
2069.08042	4141.7375
2072.09307	4132.9375
2075.10378	4130.8375
2078.11255	4127.5375
2081.11938	4122.1375
2084.12426	4122.8375
2087.12722	4133.3375
2090.12824	4121.4375
2093.12732	4117.5375
2096.12447	4120.6375
2099.11969	4129.0375
2102.11299	4120.3375
2105.10435	4127.7375
2108.09379	4122.8375
2111.08131	4110.6375
2114.0669	4118.6375
2117.05057	4128.5375
2120.03233	4123.6375
2123.01216	4119.6375
2125.99008	4126.9375
2128.96609	4146.4375
2131.94018	4128.0375
2134.91236	4114.6375
2137.88263	4122.6375
2140.851	4131.1375
2143.81746	4127.0375
2146.78201	4120.1375
2149.74466	4105.6375
2152.7054	4114.2375
2155.66425	4100.3375
2158.6212	4094.3375
2161.57625	4089.2375
2164.52941	4087.1375
2167.48067	4074.4375
2170.43004	4079.5375
2173.37752	4082.7375
2176.32311	4073.4375
2179.26681	4070.7375
2182.20863	4075.7375
2185.14856	4082.7375
2188.08661	4079.4375
2191.02278	4072.6375
2193.95707	4052.2375
2196.88948	4060.3375
2199.82001	4063.7375
2202.74867	4034.8375
2205.67545	4052.7375
2208.60037	4050.6375
2211.52341	4015.2375
2214.44458	4022.1375
2217.36388	3999.4375
2220.28132	3985.9375
2223.1969	3988.8375
2226.11061	3967.2375
2229.02246	3980.2375
2231.93245	3966.3375
2234.84058	3956.7375
2237.74686	3958.2375
2240.65128	3935.5375
2243.55385	3939.5375
2246.45456	3928.4375
2249.35343	3914.7375
2252.25044	3928.7375
2255.14561	3921.0375
2258.03893	3929.8375
2260.93041	3915.5375
2263.82004	3900.4375
2266.70783	3887.2375
2269.59378	3861.8375
2272.4779	3868.7375
2275.36017	3857.5375
2278.24061	3838.4375
2281.11922	3843.6375
2283.996	3832.9375
2286.87094	3834.7375
2289.74405	3812.1375
2292.61534	3811.3375
2295.4848	3804.9375
2298.35243	3794.5375
2301.21824	3778.8375
2304.08223	3787.0375
2306.94439	3785.2375
2309.80474	3776.6375
2312.66327	3777.8375
2315.51999	3753.5375
2318.37489	3767.4375
2321.22797	3765.7375
2324.07925	3765.9375
2326.92871	3765.3375
2329.77637	3753.5375
2332.62222	3742.9375
2335.46626	3738.4375
2338.3085	3731.4375
2341.14893	3742.1375
2343.98756	3719.0375
2346.8244	3719.7375
2349.65943	3727.3375
2352.49267	3736.8375
2355.32411	3738.0375
2358.15376	3737.4375
2360.98161	3745.2375
2363.80768	3749.0375
2366.63195	3761.5375
2369.45444	3750.2375
2372.27514	3737.4375
2375.09405	3739.0375
2377.91118	3725.9375
2380.72652	3714.9375
2383.54009	3703.5375
2386.35187	3690.9375
2389.16188	3680.7375
2391.97011	3659.4375
2394.77657	3660.1375
2397.58125	3640.8375
2400.38416	3647.7375
2403.18529	3625.3375
2405.98466	3617.2375
2408.78226	3603.9375
2411.57809	3607.0375
2414.37216	3588.6375
2417.16446	3602.1375
2419.955	3593.4375
2422.74378	3581.6375
2425.5308	3582.2375
2428.31606	3577.2375
2431.09956	3575.9375
2433.88131	3581.2375
2436.6613	3568.4375
2439.43954	3572.1375
2442.21603	3559.0375
2444.99077	3562.3375
2447.76377	3569.8375
2450.53501	3570.4375
2453.30451	3565.0375
2456.07226	3555.1375
2458.83827	3559.6375
2461.60254	3565.1375
2464.36507	3569.3375
2467.12586	3555.1375
2469.88492	3568.7375
2472.64224	3567.5375
2475.39782	3554.9375
2478.15167	3569.9375
2480.90379	3575.9375
2483.65417	3567.6375
2486.40283	3570.6375
2489.14976	3571.3375
2491.89497	3567.0375
2494.63845	3580.3375
2497.3802	3577.4375
2500.12024	3579.0375
2502.85855	3578.8375
2505.59514	3547.4375
2508.33002	3549.7375
2511.06318	3518.1375
2513.79462	3521.9375
2516.52435	3518.3375
2519.25237	3504.4375
2521.97867	3504.9375
2524.70327	3484.9375
2527.42616	3493.7375
2530.14734	3477.4375
2532.86681	3478.0375
2535.58458	3479.9375
2538.30065	3480.0375
2541.01501	3464.4375
2543.72768	3448.7375
2546.43864	3468.9375
2549.14791	3462.7375
2551.85548	3443.6375
2554.56136	3447.6375
2557.26554	3446.2375
2559.96803	3434.2375
2562.66883	3434.7375
2565.36794	3429.6375
2568.06536	3422.1375
2570.7611	3421.3375
2573.45514	3402.4375
2576.14751	3405.7375
2578.83819	3392.4375
2581.52719	3394.6375
2584.21451	3400.8375
2586.90015	3384.0375
2589.58411	3396.3375
2592.2664	3387.8375
2594.94701	3375.5375
2597.62594	3381.3375
2600.30321	3374.1375
2602.9788	3370.6375
2605.65273	3356.7375
2608.32498	3361.7375
2610.99557	3355.8375
2613.66449	3363.3375
2616.33175	3359.8375
2618.99734	3352.2375
2621.66128	3350.5375
2624.32355	3349.8375
2626.98416	3346.1375
2629.64311	3334.7375
2632.30041	3325.5375
2634.95605	3323.0375
2637.61004	3342.5375
2640.26238	3335.5375
2642.91306	3327.0375
2645.56209	3319.4375
2648.20948	3323.2375
2650.85521	3324.6375
2653.4993	3314.1375
2656.14175	3327.0375
2658.78255	3314.3375
2661.42171	3318.4375
2664.05923	3325.2375
2666.6951	3332.0375
2669.32934	3319.6375
2671.96194	3328.6375
2674.59291	3331.5375
2677.22224	3332.5375
2679.84993	3326.9375
2682.476	3327.8375
2685.10043	3317.0375
2687.72324	3321.1375
2690.34441	3304.6375
2692.96396	3307.4375
2695.58188	3323.2375
2698.19818	3312.1375
2700.81285	3309.1375
2703.4259	3312.3375
2706.03733	3316.4375
2708.64714	3316.8375
2711.25533	3321.1375
2713.86191	3329.7375
2716.46687	3326.9375
2719.07021	3324.7375
2721.67194	3330.9375
2724.27206	3326.7375
2726.87057	3327.4375
2729.46747	3326.1375
2732.06276	3318.8375
2734.65644	3299.7375
2737.24852	3324.0375
2739.83899	3308.0375
2742.42786	3300.5375
2745.01513	3296.3375
2747.60079	3293.5375
2750.18486	3284.9375
2752.76733	3287.1375
2755.3482	3282.4375
2757.92747	3275.2375
2760.50515	3280.4375
2763.08123	3251.1375
2765.65573	3271.0375
2768.22863	3276.4375
2770.79994	3258.0375
2773.36967	3281.0375
2775.9378	3262.9375
2778.50435	3273.7375
2781.06932	3263.2375
2783.6327	3276.2375
2786.1945	3268.1375
2788.75471	3267.5375
2791.31335	3255.9375
2793.87041	3251.3375
2796.42589	3252.3375
2798.97979	3243.4375
2801.53212	3236.1375
2804.08288	3230.3375
2806.63206	3233.9375
2809.17967	3234.1375
2811.72571	3224.2375
2814.27018	3239.6375
2816.81308	3229.2375
2819.35442	3205.9375
2821.89419	3224.9375
2824.43239	3211.3375
2826.96904	3216.3375
2829.50412	3205.3375
2832.03763	3211.9375
2834.56959	3209.2375
2837.1	3203.9375
2839.62884	3214.5375
2842.15613	3211.6375
2844.68186	3215.3375
2847.20604	3210.7375
2849.72867	3218.5375
2852.24974	3225.0375
2854.76927	3208.3375
2857.28724	3196.3375
2859.80367	3219.9375
2862.31855	3210.2375
2864.83189	3220.9375
2867.34368	3207.7375
2869.85393	3219.5375
2872.36264	3224.5375
2874.8698	3202.0375
2877.37543	3215.3375
2879.87952	3221.5375
2882.38207	3203.3375
2884.88308	3189.7375
2887.38256	3204.2375
2889.88051	3203.9375
2892.37692	3200.0375
2894.8718	3221.8375
2897.36515	3195.9375
2899.85698	3220.2375
2902.34727	3188.6375
2904.83604	3206.2375
2907.32328	3208.2375
2909.809	3217.5375
2912.29319	3234.0375
2914.77587	3226.2375
2917.25702	3225.2375
2919.73665	3215.2375
2922.21476	3209.3375
2924.69136	3207.2375
2927.16644	3216.6375
2929.64	3201.5375
2932.11205	3182.1375
2934.58258	3176.8375
2937.05161	3176.3375
2939.51912	3173.3375
2941.98513	3179.1375
2944.44962	3167.0375
2946.91261	3145.9375
2949.37409	3150.9375
2951.83407	3160.1375
2954.29254	3159.6375
2956.74951	3150.3375
2959.20498	3150.0375
2961.65895	3143.9375
2964.11142	3140.5375
2966.56239	3139.6375
2969.01186	3123.6375
2971.45984	3118.6375
2973.90632	3121.3375
2976.35131	3109.5375
2978.7948	3103.9375
2981.23681	3081.0375
2983.67732	3085.1375
2986.11635	3074.7375
2988.55388	3073.1375
2990.98993	3077.1375
2993.4245	3070.3375
2995.85758	3052.7375
2998.28917	3042.7375
3000.71928	3047.9375
3003.14791	3047.5375
3005.57506	3045.0375
3008.00073	3043.5375
3010.42493	3039.7375
3012.84764	3026.0375
3015.26888	3027.1375
3017.68865	3024.3375
3020.10694	3029.8375
3022.52376	3017.1375
3024.9391	3009.8375
3027.35298	3017.8375
3029.76539	3009.1375
3032.17632	2999.2375
3034.5858	2977.7375
3036.9938	2981.3375
3039.40034	2977.7375
3041.80542	2985.5375
3044.20903	2983.3375
3046.61118	2986.8375
3049.01187	2979.1375
3051.4111	2979.2375
3053.80888	2970.1375
3056.20519	2964.3375
3058.60005	2958.6375
3060.99345	2945.1375
3063.3854	2944.7375
3065.7759	2942.1375
3068.16494	2943.9375
3070.55254	2934.9375
3072.93868	2934.4375
3075.32338	2913.2375
3077.70662	2927.2375
3080.08842	2916.4375
3082.46878	2918.9375
3084.84769	2915.8375
3087.22515	2914.6375
3089.60118	2928.4375
3091.97576	2922.8375
3094.3489	2921.9375
3096.72061	2924.6375
3099.09087	2927.6375
3101.4597	2917.6375
3103.82709	2930.8375
3106.19305	2919.5375
3108.55757	2923.7375
3110.92066	2913.7375
3113.28232	2927.9375
