Data from AgNP_FTO_APTES_UA_100uM_CRN_50uM_R6G_10uM_NaF_0.1M_Addition_RamanShift__24__17-35-50-550.txt Node

Date: Thu Mar 24 17:35:50 GMT 2022
User: TCL
Spectrometer: QEP01345
Trigger mode: 4
Integration Time (sec): 7.000000E0
Scans to average: 10
Electric dark correction enabled: true
Nonlinearity correction enabled: false
Boxcar width: 0
XAxis mode: Raman Shifts
Number of Pixels in Spectrum: 1044
>>>>>Begin Spectral Data<<<<<
46.04893	-2.4
50.45542	0.1
54.85868	0.2
59.25871	-0.5
63.6555	34.3
68.04907	37.7
72.43941	38.2
76.82654	39.6
81.21044	42.1
85.59113	44.1
89.96862	44.8
94.34289	43.1
98.71396	46.6
103.08183	47.3
107.4465	48.1
111.80798	48.3
116.16626	75.7
120.52136	62.2
124.87327	51.5
129.222	58.7
133.56755	63.7
137.90993	65.9
142.24913	74.6
146.58517	80.3
150.91804	92.6
155.24774	116.1
159.57429	140
163.89768	185.4
168.21792	250.6
172.53501	338.1
176.84895	477.9
181.15975	671.8
185.46741	936.8
189.77193	1298
194.07331	1743.9
198.37157	2252.1
202.6667	2788.2
206.9587	3319.2
211.24758	3855.5
215.53334	4392.3
219.81599	4991.1
224.09553	5633.8
228.37195	6373.2
232.64527	7171
236.91549	8002.5
241.18261	8810.8
245.44663	9541.7
249.70755	10123.1
253.96539	10634.2
258.22014	11060.2
262.4718	11422.9
266.72039	11665.6
270.96589	11812.7
275.20832	11842.3
279.44768	11761.5
283.68397	11645.9
287.91719	11545.4
292.14735	11519
296.37445	11618.2
300.59849	11765.5
304.81948	11938.2
309.03742	12039.7
313.25231	11971.1
317.46415	11716.4
321.67296	11291.8
325.87872	10947.5
330.08145	10737.7
334.28114	10724.6
338.47781	10831
342.67145	10994.6
346.86207	11222.7
351.04966	11510.9
355.23424	11795.8
359.4158	12029.7
363.59435	12135
367.76989	12212.4
371.94243	12250.4
376.11196	12235.2
380.27849	12281.1
384.44203	12285
388.60257	12299.8
392.76012	12370.5
396.91468	12475.4
401.06626	12649.8
405.21485	12769.1
409.36047	12657.6
413.50311	12299.5
417.64277	12011.2
421.77947	11871.6
425.9132	11840.8
430.04396	11914.6
434.17176	11987.9
438.2966	12112.9
442.41849	12340.2
446.53742	12667.6
450.6534	12965.1
454.76644	13171.5
458.87653	13223.7
462.98368	13129.2
467.08789	13012.1
471.18916	12864.2
475.2875	12687.4
479.38291	12547.9
483.4754	12369.2
487.56496	12263
491.6516	12089.7
495.73531	11998.8
499.81612	11965.7
503.89401	12003.3
507.96899	12070.7
512.04106	12072.1
516.11023	12098.5
520.1765	12062
524.23987	12036.2
528.30034	11974.6
532.35792	11880.8
536.41261	11783.6
540.46441	11627.3
544.51333	11601.8
548.55936	11733.8
552.60252	11942.7
556.64279	12219.6
560.6802	12387.1
564.71473	12458.4
568.7464	12660.2
572.7752	12965.5
576.80114	13158.9
580.82422	13310.9
584.84444	13418.9
588.86181	13619.8
592.87633	13889.7
596.888	14114.3
600.89682	14166.5
604.9028	14632.8
608.90594	16389.1
612.90624	18577.1
616.90371	17588.4
620.89834	13960.8
624.89015	12229
628.87913	12000.5
632.86528	12155.3
636.84862	12383.2
640.82913	12241.4
644.80683	11827.1
648.78172	11499.1
652.75379	11372.6
656.72306	11544.7
660.68952	11836.4
664.65319	11747.3
668.61405	11393.4
672.57211	11251.7
676.52738	11298.4
680.47986	11296.7
684.42955	11211.3
688.37646	11126.9
692.32058	11147.3
696.26192	11249.3
700.20048	11365.5
704.13626	11465.3
708.06928	11469.9
711.99952	11394.5
715.927	11373
719.85171	11396.2
723.77365	11428.6
727.69284	11370.6
731.60928	11271.1
735.52295	11286.6
739.43388	11270.1
743.34206	11311.9
747.24749	11336.4
751.15017	11367.4
755.05012	11525.3
758.94733	11926.2
762.8418	12802.9
766.73354	14335.6
770.62254	15781.4
774.50882	16290.1
778.39237	15433.7
782.27321	13884.7
786.15132	12524.2
790.02671	11700.3
793.89938	11300.6
797.76935	11091.4
801.6366	10983.4
805.50115	10950
809.36299	10940.2
813.22213	10877.5
817.07857	10870.8
820.93231	10844.2
824.78336	10808.2
828.63172	10772.5
832.47738	10754.4
836.32036	10728.2
840.16066	10696.3
843.99827	10692.1
847.8332	10692.2
851.66546	10694.1
855.49504	10682.1
859.32195	10688.4
863.1462	10672.9
866.96777	10661.6
870.78668	10655.9
874.60293	10672.4
878.41652	10663
882.22745	10732.8
886.03573	10772
889.84136	10773.1
893.64433	10728.3
897.44466	10681.3
901.24235	10644.1
905.0374	10577
908.8298	10533
912.61957	10515.3
916.40671	10573.6
920.19121	10691.2
923.97308	10770.6
927.75233	10770.5
931.52895	10694.9
935.30295	10554.7
939.07433	10352.1
942.84309	10200.3
946.60924	10104.2
950.37278	10071.3
954.13371	10032.1
957.89203	10010.2
961.64774	10021
965.40086	10018.6
969.15137	9954.1
972.89929	9944.5
976.64461	9896.2
980.38733	9878.8
984.12747	9903.8
987.86502	9937.9
991.59999	10005.5
995.33237	10061.9
999.06217	10244
1002.78939	10454.6
1006.51404	10673.6
1010.23611	10896.2
1013.95561	11013.1
1017.67255	11022.3
1021.38692	10855.2
1025.09872	10669.8
1028.80796	10515.1
1032.51465	10453.6
1036.21877	10458.7
1039.92035	10532
1043.61937	10582.5
1047.31584	10613.9
1051.00976	10638.2
1054.70114	10639.7
1058.38998	10689.3
1062.07627	10763.4
1065.76003	10852.1
1069.44126	10972.3
1073.11995	11112.9
1076.79611	11238.2
1080.46974	11377.1
1084.14085	11520.5
1087.80943	11673.9
1091.47549	11754.9
1095.13903	11702.1
1098.80005	11519.6
1102.45857	11258.8
1106.11456	11108.3
1109.76805	11110.8
1113.41903	11215.7
1117.06751	11440.7
1120.71348	11726.9
1124.35696	12012.2
1127.99793	12282.1
1131.63641	12338.2
1135.2724	12134.6
1138.90589	11883.3
1142.5369	11723
1146.16542	11594
1149.79145	11554.5
1153.415	11594.4
1157.03607	11680.6
1160.65467	11905
1164.27079	12334.8
1167.88443	12942.8
1171.49561	13864.7
1175.10432	15164.1
1178.71056	16792.4
1182.31434	18224.6
1185.91565	18747.6
1189.51451	18464.3
1193.11091	17755.3
1196.70485	16857.2
1200.29634	15989.3
1203.88538	15259.7
1207.47197	14557.1
1211.05612	13931.2
1214.63782	13490.2
1218.21708	13277.5
1221.79391	13157.3
1225.36829	13162.1
1228.94024	13046.6
1232.50976	12845.5
1236.07685	12635.5
1239.6415	12500.1
1243.20374	12501.8
1246.76355	12529.6
1250.32093	12651.4
1253.8759	12835.9
1257.42845	13133.3
1260.97859	13488.9
1264.52631	13924.8
1268.07163	14308.6
1271.61453	14719.9
1275.15503	15042.5
1278.69312	15314.6
1282.22882	15599.4
1285.76211	15972.3
1289.29301	16537.2
1292.82151	17185.3
1296.34761	17982.2
1299.87133	18996.3
1303.39266	20317.3
1306.9116	21900.9
1310.42815	23463.6
1313.94233	24336.2
1317.45412	24025.3
1320.96354	23172.8
1324.47058	22163.9
1327.97525	21237.3
1331.47754	20484.4
1334.97747	20102.1
1338.47502	20055.6
1341.97022	20245.7
1345.46305	20710.8
1348.95352	21330
1352.44163	22060.6
1355.92738	23242.8
1359.41078	25105.3
1362.89183	26933.7
1366.37053	26498
1369.84688	23533.4
1373.32088	20215.7
1376.79254	18091.8
1380.26186	17039
1383.72883	16575.7
1387.19347	16269.3
1390.65578	15932.3
1394.11575	15688.1
1397.57339	15558.8
1401.0287	15603.4
1404.48168	15670
1407.93234	15627.6
1411.38068	15420.9
1414.82669	15137.5
1418.27039	14655.9
1421.71177	14183.1
1425.15083	13730
1428.58758	13467
1432.02203	13491.2
1435.45416	13697.9
1438.88399	13974.1
1442.31151	14155.8
1445.73673	14332.7
1449.15965	14506.7
1452.58027	14632.8
1455.9986	14665.2
1459.41463	14743.3
1462.82837	15030.9
1466.23982	15445.2
1469.64898	15937.8
1473.05586	16317.8
1476.46045	16531
1479.86276	16661.4
1483.26279	16737.5
1486.66054	16865.9
1490.05602	17167.6
1493.44922	17659
1496.84016	18390.6
1500.22882	19582.4
1503.61521	21168.8
1506.99934	22863.8
1510.38121	23931.4
1513.76081	23744.5
1517.13816	22410.6
1520.51324	20478.2
1523.88607	18841.6
1527.25665	17885.6
1530.62498	17387.9
1533.99105	17092.3
1537.35488	16786.8
1540.71647	16377.2
1544.07581	15900.5
1547.4329	15490.4
1550.78776	15182.1
1554.14038	15002.1
1557.49077	15004.7
1560.83892	15137.4
1564.18484	15425
1567.52853	15817.1
1570.86999	16148.3
1574.20922	16411.9
1577.54624	16410.7
1580.88103	15893.9
1584.2136	15277.1
1587.54395	15010
1590.87208	15349.9
1594.19801	16102.5
1597.52172	17075
1600.84321	17446.1
1604.16251	16888.8
1607.47959	15867.2
1610.79447	14764.2
1614.10715	13707.8
1617.41763	12787.5
1620.7259	12104.6
1624.03199	11699.4
1627.33587	11650.3
1630.63757	11873.9
1633.93707	12502.5
1637.23439	13637
1640.52951	15432
1643.82246	17725.8
1647.11321	19938.1
1650.40179	20925.8
1653.68819	19902.8
1656.97241	17326.3
1660.25446	14615.2
1663.53433	12606.1
1666.81203	11326.7
1670.08756	10540.8
1673.36092	10069.2
1676.63211	9730.9
1679.90115	9483.6
1683.16801	9323.4
1686.43272	9179.8
1689.69527	9092.2
1692.95567	9011.2
1696.2139	8955.4
1699.46999	8900.5
1702.72392	8828.4
1705.97571	8785.8
1709.22535	8783.5
1712.47284	8731
1715.71819	8703.7
1718.96139	8653.4
1722.20246	8613.3
1725.44139	8576.4
1728.67818	8508
1731.91284	8429
1735.14537	8390.1
1738.37576	8347.4
1741.60403	8314.4
1744.83017	8258.5
1748.05418	8249.5
1751.27607	8219.4
1754.49584	8186.9
1757.71349	8183.4
1760.92903	8164
1764.14244	8151.5
1767.35375	8149.4
1770.56294	8118.7
1773.77002	8072.9
1776.97499	8035.9
1780.17785	8017.3
1783.37861	8014.1
1786.57727	8008.5
1789.77382	7971.5
1792.96828	7981.1
1796.16064	7939.1
1799.3509	7929.6
1802.53907	7896.1
1805.72514	7873.6
1808.90913	7849.6
1812.09102	7827.4
1815.27083	7808.6
1818.44856	7791.8
1821.6242	7767.5
1824.79776	7741.3
1827.96924	7724.9
1831.13864	7727.7
1834.30597	7701.4
1837.47122	7688.3
1840.6344	7675.1
1843.7955	7684.5
1846.95454	7674.6
1850.11151	7647.5
1853.26642	7646.5
1856.41926	7637.7
1859.57004	7619.8
1862.71876	7613.9
1865.86542	7606.9
1869.01003	7584.9
1872.15258	7580.8
1875.29308	7576.4
1878.43152	7560.6
1881.56792	7555.1
1884.70227	7553.6
1887.83457	7566.2
1890.96482	7531.1
1894.09304	7537.7
1897.21921	7512.4
1900.34335	7481.9
1903.46544	7494.3
1906.58551	7481.7
1909.70353	7466.3
1912.81953	7469.8
1915.93349	7452
1919.04543	7439.8
1922.15534	7426.5
1925.26322	7393.7
1928.36908	7387
1931.47292	7348.8
1934.57473	7338.9
1937.67453	7319.8
1940.77232	7319.3
1943.86808	7283.8
1946.96184	7252.4
1950.05358	7213.9
1953.14331	7202.2
1956.23103	7163.8
1959.31675	7165.9
1962.40046	7129.9
1965.48217	7122
1968.56188	7106.7
1971.63959	7070.7
1974.7153	7079.2
1977.78901	7052.2
1980.86073	7022.1
1983.93046	6992.3
1986.99819	6964.7
1990.06394	6944.8
1993.1277	6927.2
1996.18947	6896.3
1999.24925	6880
2002.30706	6850.8
2005.36288	6807.5
2008.41672	6760.7
2011.46859	6760.4
2014.51848	6734.3
2017.56639	6732.5
2020.61233	6702.5
2023.6563	6690
2026.6983	6664.8
2029.73833	6654.3
2032.7764	6637.5
2035.8125	6596.8
2038.84664	6598.6
2041.87881	6580.5
2044.90903	6570.9
2047.93729	6543.9
2050.96359	6569.1
2053.98794	6530.4
2057.01034	6508.9
2060.03078	6505.5
2063.04927	6479.3
2066.06582	6479.2
2069.08042	6470.6
2072.09307	6471.7
2075.10378	6479.1
2078.11255	6462
2081.11938	6476
2084.12426	6467.8
2087.12722	6462.7
2090.12824	6463.5
2093.12732	6457.7
2096.12447	6459.6
2099.11969	6454.1
2102.11299	6456
2105.10435	6458.1
2108.09379	6450.4
2111.08131	6455.5
2114.0669	6466.4
2117.05057	6456.5
2120.03233	6458.1
2123.01216	6486.7
2125.99008	6468.7
2128.96609	6482.2
2131.94018	6473.9
2134.91236	6444.2
2137.88263	6462.7
2140.851	6473.9
2143.81746	6476.8
2146.78201	6457.8
2149.74466	6455
2152.7054	6447.6
2155.66425	6440.4
2158.6212	6438
2161.57625	6439.6
2164.52941	6439.1
2167.48067	6433.3
2170.43004	6414.1
2173.37752	6400.3
2176.32311	6404.9
2179.26681	6405.8
2182.20863	6400.7
2185.14856	6413.9
2188.08661	6404.9
2191.02278	6384.5
2193.95707	6384.1
2196.88948	6376.4
2199.82001	6377.9
2202.74867	6363.4
2205.67545	6359.2
2208.60037	6371.7
2211.52341	6325.3
2214.44458	6319.5
2217.36388	6305.3
2220.28132	6299.6
2223.1969	6285.5
2226.11061	6269.2
2229.02246	6240.6
2231.93245	6238
2234.84058	6239.6
2237.74686	6220.8
2240.65128	6215.5
2243.55385	6198.1
2246.45456	6197.6
2249.35343	6190.9
2252.25044	6203.1
2255.14561	6177.7
2258.03893	6166.7
2260.93041	6146.5
2263.82004	6128.4
2266.70783	6112.9
2269.59378	6091.4
2272.4779	6087.8
2275.36017	6066.5
2278.24061	6066
2281.11922	6053.8
2283.996	6043.9
2286.87094	6030
2289.74405	6008.6
2292.61534	6002
2295.4848	5988.9
2298.35243	5988.9
2301.21824	5965.7
2304.08223	5953.8
2306.94439	5985.9
2309.80474	5977.9
2312.66327	5976.5
2315.51999	5948.3
2318.37489	5941.7
2321.22797	5938.4
2324.07925	5952.9
2326.92871	5911.5
2329.77637	5912.8
2332.62222	5913.8
2335.46626	5902.5
2338.3085	5898.7
2341.14893	5872.7
2343.98756	5902.6
2346.8244	5900.9
2349.65943	5891.5
2352.49267	5900.5
2355.32411	5889.7
2358.15376	5901.5
2360.98161	5890.4
2363.80768	5897.6
2366.63195	5904.2
2369.45444	5907.9
2372.27514	5877.1
2375.09405	5867.8
2377.91118	5870.7
2380.72652	5845.8
2383.54009	5833.9
2386.35187	5817.1
2389.16188	5818.5
2391.97011	5771
2394.77657	5751.6
2397.58125	5745.7
2400.38416	5738.6
2403.18529	5729.2
2405.98466	5709.2
2408.78226	5709.4
2411.57809	5694.7
2414.37216	5682.7
2417.16446	5714
2419.955	5673.2
2422.74378	5676
2425.5308	5657.9
2428.31606	5664.1
2431.09956	5651.6
2433.88131	5640.6
2436.6613	5646.5
2439.43954	5655.2
2442.21603	5643.2
2444.99077	5644.4
2447.76377	5631.9
2450.53501	5618.7
2453.30451	5635.9
2456.07226	5638
2458.83827	5630.1
2461.60254	5625.5
2464.36507	5642.8
2467.12586	5632
2469.88492	5615
2472.64224	5612.3
2475.39782	5624.8
2478.15167	5630.4
2480.90379	5632.7
2483.65417	5617.8
2486.40283	5630.3
2489.14976	5644.6
2491.89497	5653.8
2494.63845	5658.4
2497.3802	5643.5
2500.12024	5616.8
2502.85855	5640.6
2505.59514	5626.1
2508.33002	5587.9
2511.06318	5570
2513.79462	5557.7
2516.52435	5562.2
2519.25237	5553.5
2521.97867	5535.2
2524.70327	5527.8
2527.42616	5538.5
2530.14734	5518.3
2532.86681	5520.9
2535.58458	5513.3
2538.30065	5518.1
2541.01501	5492.5
2543.72768	5499.8
2546.43864	5489.8
2549.14791	5477.1
2551.85548	5478.7
2554.56136	5460.6
2557.26554	5436.6
2559.96803	5426.5
2562.66883	5425.1
2565.36794	5424.7
2568.06536	5413.2
2570.7611	5406.4
2573.45514	5399.3
2576.14751	5407.8
2578.83819	5393.1
2581.52719	5389.4
2584.21451	5389
2586.90015	5376.3
2589.58411	5377
2592.2664	5370.3
2594.94701	5342.8
2597.62594	5342
2600.30321	5333.2
2602.9788	5321.7
2605.65273	5317.6
2608.32498	5317.1
2610.99557	5335.6
2613.66449	5316
2616.33175	5331.1
2618.99734	5318.6
2621.66128	5314.4
2624.32355	5312.9
2626.98416	5312.2
2629.64311	5308
2632.30041	5288.1
2634.95605	5279
2637.61004	5284
2640.26238	5280.7
2642.91306	5297.2
2645.56209	5275.7
2648.20948	5277.2
2650.85521	5280.2
2653.4993	5269.3
2656.14175	5274.4
2658.78255	5274.7
2661.42171	5280
2664.05923	5290.9
2666.6951	5285.3
2669.32934	5287.3
2671.96194	5303.2
2674.59291	5284.7
2677.22224	5298.7
2679.84993	5287.8
2682.476	5286.7
2685.10043	5282.7
2687.72324	5259.5
2690.34441	5261.2
2692.96396	5266.9
2695.58188	5271.2
2698.19818	5267.3
2700.81285	5271
2703.4259	5260.3
2706.03733	5256.5
2708.64714	5256.2
2711.25533	5278.9
2713.86191	5285.6
2716.46687	5301.8
2719.07021	5287.2
2721.67194	5312.9
2724.27206	5294.8
2726.87057	5310.3
2729.46747	5298.4
2732.06276	5293.8
2734.65644	5284.1
2737.24852	5287.1
2739.83899	5274
2742.42786	5262.8
2745.01513	5245.7
2747.60079	5259.4
2750.18486	5259.7
2752.76733	5239.8
2755.3482	5226.2
2757.92747	5234.1
2760.50515	5229.9
2763.08123	5220.6
2765.65573	5205.7
2768.22863	5228
2770.79994	5222.4
2773.36967	5215.9
2775.9378	5219.5
2778.50435	5212.4
2781.06932	5196.7
2783.6327	5209
2786.1945	5198.7
2788.75471	5206.1
2791.31335	5197.6
2793.87041	5187.8
2796.42589	5177.5
2798.97979	5177.3
2801.53212	5177.6
2804.08288	5161.3
2806.63206	5151.4
2809.17967	5149.5
2811.72571	5154.2
2814.27018	5127.9
2816.81308	5124.4
2819.35442	5101.5
2821.89419	5100.4
2824.43239	5114.9
2826.96904	5094.7
2829.50412	5076.2
2832.03763	5094.3
2834.56959	5089.1
2837.1	5076.5
2839.62884	5091.7
2842.15613	5081.2
2844.68186	5099.3
2847.20604	5097.4
2849.72867	5101.6
2852.24974	5111.3
2854.76927	5094.8
2857.28724	5085.3
2859.80367	5089.6
2862.31855	5093.1
2864.83189	5091.5
2867.34368	5087.7
2869.85393	5090.5
2872.36264	5089.3
2874.8698	5084.8
2877.37543	5093.5
2879.87952	5076.6
2882.38207	5070.7
2884.88308	5083.6
2887.38256	5086
2889.88051	5069.6
2892.37692	5053.6
2894.8718	5084.7
2897.36515	5091.7
2899.85698	5079
2902.34727	5082.8
2904.83604	5080.6
2907.32328	5099.2
2909.809	5107.3
2912.29319	5101.4
2914.77587	5105.6
2917.25702	5117
2919.73665	5103.1
2922.21476	5102.9
2924.69136	5084.5
2927.16644	5089.2
2929.64	5093
2932.11205	5060.9
2934.58258	5045.3
2937.05161	5046.2
2939.51912	5028.4
2941.98513	5011.3
2944.44962	5014.3
2946.91261	4988.8
2949.37409	4999.8
2951.83407	5001.5
2954.29254	4994.4
2956.74951	5005.4
2959.20498	4995.4
2961.65895	4989
2964.11142	4985.8
2966.56239	4972.8
2969.01186	4956.2
2971.45984	4958.3
2973.90632	4952.2
2976.35131	4935.4
2978.7948	4918.1
2981.23681	4908.7
2983.67732	4904.8
2986.11635	4888.1
2988.55388	4904.8
2990.98993	4863.9
2993.4245	4859.1
2995.85758	4845.9
2998.28917	4842.9
3000.71928	4845.4
3003.14791	4823.8
3005.57506	4829
3008.00073	4825.6
3010.42493	4822.1
3012.84764	4804.9
3015.26888	4799.5
3017.68865	4788.3
3020.10694	4806.3
3022.52376	4779.8
3024.9391	4754.2
3027.35298	4759.3
3029.76539	4754
3032.17632	4737.5
3034.5858	4746.2
3036.9938	4738.9
3039.40034	4729.5
3041.80542	4726.6
3044.20903	4719.5
3046.61118	4733.6
3049.01187	4720.6
3051.4111	4713.4
3053.80888	4697.9
3056.20519	4683.9
3058.60005	4658.2
3060.99345	4677.3
3063.3854	4651.4
3065.7759	4645.3
3068.16494	4648.6
3070.55254	4623.4
3072.93868	4626.5
3075.32338	4629.3
3077.70662	4607.1
3080.08842	4597.7
3082.46878	4599.5
3084.84769	4589.9
3087.22515	4607.7
3089.60118	4601.4
3091.97576	4607.7
3094.3489	4598.5
3096.72061	4601.3
3099.09087	4612
3101.4597	4606.6
3103.82709	4607
3106.19305	4588.7
3108.55757	4591.6
3110.92066	4599.5
3113.28232	4587.6
3115.64255	4576.2
3118.00134	4566.2
3120.35871	4554.7
3122.71466	4556.6
3125.06917	4548.1
3127.42226	4536.7
3129.77393	4553.2
3132.12417	4546.9
3134.47299	4534.7
3136.82039	4536.7
3139.16636	4520.8
3141.51092	4533.8
3143.85406	4546.2
3146.19579	4544.1
3148.53609	4526
3150.87499	4560.1
3153.21246	4560.9
3155.54853	4580.2
3157.88318	4577.6
3160.21642	4579.8
3162.54826	4572.1
3164.87868	4562.7
3167.2077	4578.1
3169.5353	4570.2
3171.86151	4578.1
3174.18631	4576.5
3176.5097	4579.2
3178.83169	4573.5
3181.15228	4574.3
3183.47147	4547.7
3185.78926	4563.4
3188.10565	4563
3190.42065	4560
3192.73424	4573.8
3195.04645	4558.5
3197.35725	4550.1
3199.66667	4555.6
3201.97469	4576
3204.28132	4561
3206.58656	4569.8
3208.8904	4570.7
3211.19287	4563.3
3213.49394	4579.5
3215.79363	4574.8
3218.09193	4595.6
3220.38884	4590.7
3222.68438	4615.4
3224.97853	4588
3227.2713	4596.4
3229.56269	4592.6
3231.8527	4581
3234.14133	4582
3236.42858	4569.2
3238.71446	4566.3
3240.99896	4563.7
3243.28209	4552.6
3245.56384	4543.8
3247.84423	4543.1
3250.12324	4543.3
3252.40088	4533.5
3254.67715	4527.8
3256.95205	4533.4
3259.22558	4542.1
3261.49775	4525.3
3263.76855	4516.4
3266.03799	4506
3268.30606	4511.9
3270.57277	4499.6
3272.83812	4490
3275.10211	4480.6
3277.36474	4484.9
3279.62601	4483
3281.88593	4470.8
3284.14448	4484.5
3286.40168	4496.3
3288.65753	4488
3290.91202	4482.1
3293.16516	4463
3295.41695	4461.6
3297.66738	4443.7
3299.91647	4405.8
3302.16421	4388.1
3304.4106	4379.1
3306.65564	4370.1
3308.89933	4325.5
3311.14169	4306.1
3313.38269	4262.8
3315.62236	4241.2
3317.86068	4207.3
3320.09766	4181.3
3322.3333	4148
3324.5676	4149
3326.80056	4063
3329.03219	4048.8
3331.26248	1.6
3333.49143	0
3335.71905	1.3
