Data from AgNP_FTO_APTES_UA_100uM_CRN_20uM_R6G_10uM_NaF_0.1M_Addition_RamanShift__26__16-56-10-506.txt Node

Date: Thu Mar 24 16:56:10 GMT 2022
User: TCL
Spectrometer: QEP01345
Trigger mode: 4
Integration Time (sec): 7.000000E0
Scans to average: 10
Electric dark correction enabled: true
Nonlinearity correction enabled: false
Boxcar width: 0
XAxis mode: Raman Shifts
Number of Pixels in Spectrum: 1044
>>>>>Begin Spectral Data<<<<<
46.04893	-1.675
50.45542	-1.675
54.85868	0.225
59.25871	-0.475
63.6555	42.925
68.04907	45.025
72.43941	42.925
76.82654	43.625
81.21044	48.825
85.59113	48.425
89.96862	50.825
94.34289	51.825
98.71396	55.125
103.08183	57.025
107.4465	56.625
111.80798	61.725
116.16626	62.025
120.52136	62.225
124.87327	61.925
129.222	68.325
133.56755	75.225
137.90993	77.825
142.24913	91.425
146.58517	99.525
150.91804	115.025
155.24774	141.925
159.57429	180.325
163.89768	235.825
168.21792	316.725
172.53501	437.825
176.84895	612.125
181.15975	856.125
185.46741	1208.925
189.77193	1658.925
194.07331	2244.325
198.37157	2881.925
202.6667	3589.525
206.9587	4284.725
211.24758	5003.525
215.53334	5764.925
219.81599	6621.825
224.09553	7550.025
228.37195	8620.425
232.64527	9781.925
236.91549	10933.025
241.18261	11964.425
245.44663	12793.525
249.70755	13421.625
253.96539	13929.225
258.22014	14413.825
262.4718	14875.625
266.72039	15165.825
270.96589	15317.425
275.20832	15198.025
279.44768	14931.025
283.68397	14644.525
287.91719	14481.725
292.14735	14501.625
296.37445	14774.225
300.59849	15305.525
304.81948	15981.425
309.03742	16448.125
313.25231	16484.425
317.46415	15950.425
321.67296	14974.025
325.87872	14118.125
330.08145	13632.025
334.28114	13581.125
338.47781	13774.625
342.67145	14058.825
346.86207	14565.125
351.04966	15225.925
355.23424	15982.225
359.4158	16543.325
363.59435	16795.525
367.76989	16860.225
371.94243	16806.925
376.11196	16705.725
380.27849	16582.025
384.44203	16498.425
388.60257	16318.625
392.76012	16272.325
396.91468	16424.425
401.06626	16765.925
405.21485	16943.325
409.36047	16579.625
413.50311	15780.525
417.64277	15018.325
421.77947	14592.625
425.9132	14480.525
430.04396	14538.225
434.17176	14662.125
438.2966	14888.525
442.41849	15321.725
446.53742	15915.725
450.6534	16483.125
454.76644	16772.525
458.87653	16752.125
462.98368	16457.125
467.08789	16078.125
471.18916	15707.925
475.2875	15324.325
479.38291	15018.725
483.4754	14739.925
487.56496	14464.525
491.6516	14256.725
495.73531	14112.225
499.81612	14062.625
503.89401	14244.325
507.96899	14354.725
512.04106	14437.025
516.11023	14569.625
520.1765	14632.525
524.23987	14653.125
528.30034	14573.325
532.35792	14429.025
536.41261	14197.325
540.46441	13880.425
544.51333	13756.925
548.55936	13903.725
552.60252	14269.225
556.64279	14803.025
560.6802	15075.525
564.71473	15305.525
568.7464	15801.125
572.7752	16257.625
576.80114	16126.925
580.82422	15846.525
584.84444	15949.725
588.86181	16405.125
592.87633	17074.325
596.888	17445.125
600.89682	17452.325
604.9028	18618.125
608.90594	22944.625
612.90624	28628.225
616.90371	26969.725
620.89834	18899.925
624.89015	15071.225
628.87913	14412.325
632.86528	14688.325
636.84862	14946.025
640.82913	14631.325
644.80683	13810.125
648.78172	13225.925
652.75379	13181.425
656.72306	13700.725
660.68952	14366.825
664.65319	14156.625
668.61405	13344.925
672.57211	13034.625
676.52738	13074.325
680.47986	13019.825
684.42955	12861.425
688.37646	12738.325
692.32058	12775.925
696.26192	12917.825
700.20048	13129.125
704.13626	13305.425
708.06928	13226.325
711.99952	13105.025
715.927	13106.725
719.85171	13198.325
723.77365	13280.325
727.69284	13169.225
731.60928	13017.925
735.52295	13032.725
739.43388	13080.025
743.34206	13161.025
747.24749	13173.425
751.15017	13254.725
755.05012	13467.725
758.94733	14236.125
762.8418	16054.725
766.73354	19177.325
770.62254	22140.725
774.50882	23307.125
778.39237	21910.025
782.27321	18786.825
786.15132	15895.825
790.02671	14141.325
793.89938	13336.125
797.76935	12948.525
801.6366	12761.425
805.50115	12681.125
809.36299	12636.725
813.22213	12538.725
817.07857	12497.325
820.93231	12468.325
824.78336	12471.725
828.63172	12465.225
832.47738	12503.025
836.32036	12442.125
840.16066	12411.225
843.99827	12377.025
847.8332	12359.725
851.66546	12331.425
855.49504	12301.325
859.32195	12328.725
863.1462	12256.225
866.96777	12220.325
870.78668	12206.725
874.60293	12231.225
878.41652	12276.125
882.22745	12406.425
886.03573	12501.525
889.84136	12443.225
893.64433	12375.125
897.44466	12322.525
901.24235	12260.225
905.0374	12180.125
908.8298	12119.325
912.61957	12068.825
916.40671	12112.125
920.19121	12260.525
923.97308	12425.225
927.75233	12602.325
931.52895	12662.225
935.30295	12432.725
939.07433	12065.025
942.84309	11753.625
946.60924	11588.225
950.37278	11494.225
954.13371	11454.825
957.89203	11413.225
961.64774	11400.925
965.40086	11372.425
969.15137	11323.625
972.89929	11269.325
976.64461	11245.425
980.38733	11237.625
984.12747	11279.625
987.86502	11361.625
991.59999	11490.425
995.33237	11718.125
999.06217	12085.425
1002.78939	12539.825
1006.51404	12936.025
1010.23611	13261.725
1013.95561	13374.625
1017.67255	13369.325
1021.38692	13110.725
1025.09872	12757.725
1028.80796	12615.425
1032.51465	12693.925
1036.21877	12896.325
1039.92035	13020.325
1043.61937	12996.125
1047.31584	12880.025
1051.00976	12734.225
1054.70114	12638.825
1058.38998	12607.625
1062.07627	12668.325
1065.76003	12751.625
1069.44126	12810.425
1073.11995	12990.325
1076.79611	13284.925
1080.46974	13599.325
1084.14085	14010.425
1087.80943	14417.525
1091.47549	14553.625
1095.13903	14331.325
1098.80005	13828.425
1102.45857	13450.925
1106.11456	13303.925
1109.76805	13404.425
1113.41903	13807.825
1117.06751	14389.325
1120.71348	15132.825
1124.35696	15847.825
1127.99793	16387.925
1131.63641	16194.125
1135.2724	15438.425
1138.90589	14740.525
1142.5369	14332.325
1146.16542	14044.225
1149.79145	13923.825
1153.415	13927.725
1157.03607	14123.025
1160.65467	14529.525
1164.27079	15320.925
1167.88443	16468.025
1171.49561	18154.325
1175.10432	20673.625
1178.71056	24004.125
1182.31434	26811.025
1185.91565	27520.825
1189.51451	26452.025
1193.11091	24616.625
1196.70485	22615.025
1200.29634	21004.525
1203.88538	19769.525
1207.47197	18464.425
1211.05612	17314.825
1214.63782	16616.425
1218.21708	16400.825
1221.79391	16491.225
1225.36829	16559.325
1228.94024	16401.025
1232.50976	15944.925
1236.07685	15567.125
1239.6415	15402.425
1243.20374	15424.325
1246.76355	15514.325
1250.32093	15730.225
1253.8759	16103.125
1257.42845	16643.025
1260.97859	17318.425
1264.52631	18072.025
1268.07163	18798.725
1271.61453	19480.125
1275.15503	20084.225
1278.69312	20548.125
1282.22882	20972.525
1285.76211	21732.525
1289.29301	22745.625
1292.82151	23871.325
1296.34761	25240.725
1299.87133	27228.425
1303.39266	30082.225
1306.9116	33920.925
1310.42815	37846.225
1313.94233	39641.425
1317.45412	38263.325
1320.96354	35369.825
1324.47058	32359.325
1327.97525	29797.325
1331.47754	28108.525
1334.97747	27263.125
1338.47502	27136.925
1341.97022	27611.025
1345.46305	28594.225
1348.95352	30167.225
1352.44163	32407.025
1355.92738	36014.725
1359.41078	41360.825
1362.89183	45997.625
1366.37053	44175.225
1369.84688	36589.225
1373.32088	29522.325
1376.79254	25439.825
1380.26186	23546.125
1383.72883	22512.025
1387.19347	21707.525
1390.65578	21032.825
1394.11575	20649.325
1397.57339	20682.925
1401.0287	20950.725
1404.48168	21142.225
1407.93234	21114.525
1411.38068	20885.025
1414.82669	20545.925
1418.27039	19919.425
1421.71177	19131.525
1425.15083	18427.825
1428.58758	18123.825
1432.02203	18410.725
1435.45416	18890.425
1438.88399	19313.025
1442.31151	19528.125
1445.73673	19746.025
1449.15965	19929.425
1452.58027	19901.425
1455.9986	19773.125
1459.41463	19850.625
1462.82837	20214.825
1466.23982	20816.525
1469.64898	21532.225
1473.05586	21992.125
1476.46045	22303.225
1479.86276	22430.625
1483.26279	22658.525
1486.66054	23008.625
1490.05602	23728.125
1493.44922	24854.225
1496.84016	26513.525
1500.22882	29323.725
1503.61521	33299.525
1506.99934	37646.925
1510.38121	40700.225
1513.76081	40507.125
1517.13816	36784.025
1520.51324	31652.525
1523.88607	27364.425
1527.25665	24896.725
1530.62498	23736.225
1533.99105	23077.725
1537.35488	22523.425
1540.71647	21961.325
1544.07581	21360.625
1547.4329	20908.025
1550.78776	20529.725
1554.14038	20308.925
1557.49077	20394.425
1560.83892	20712.725
1564.18484	21338.925
1567.52853	22200.125
1570.86999	22945.725
1574.20922	23439.025
1577.54624	23322.025
1580.88103	22166.425
1584.2136	20684.825
1587.54395	20079.425
1590.87208	20668.525
1594.19801	22279.625
1597.52172	24323.125
1600.84321	25209.425
1604.16251	24178.225
1607.47959	22286.425
1610.79447	20103.525
1614.10715	18149.225
1617.41763	16589.325
1620.7259	15489.325
1624.03199	14980.325
1627.33587	15026.025
1630.63757	15598.125
1633.93707	16780.225
1637.23439	18821.125
1640.52951	22131.525
1643.82246	26575.925
1647.11321	30942.525
1650.40179	32940.525
1653.68819	30662.425
1656.97241	25334.325
1660.25446	20071.925
1663.53433	16482.525
1666.81203	14414.625
1670.08756	13177.125
1673.36092	12405.925
1676.63211	11880.925
1679.90115	11587.925
1683.16801	11317.625
1686.43272	11110.925
1689.69527	10996.425
1692.95567	10884.625
1696.2139	10801.225
1699.46999	10749.525
1702.72392	10706.525
1705.97571	10646.725
1709.22535	10604.125
1712.47284	10615.325
1715.71819	10594.125
1718.96139	10534.125
1722.20246	10483.525
1725.44139	10430.425
1728.67818	10334.225
1731.91284	10222.825
1735.14537	10141.325
1738.37576	10079.825
1741.60403	10021.125
1744.83017	9971.525
1748.05418	9960.925
1751.27607	9917.725
1754.49584	9882.625
1757.71349	9843.925
1760.92903	9835.125
1764.14244	9842.825
1767.35375	9800.225
1770.56294	9745.125
1773.77002	9717.525
1776.97499	9670.025
1780.17785	9633.725
1783.37861	9621.025
1786.57727	9589.125
1789.77382	9555.825
1792.96828	9547.625
1796.16064	9525.825
1799.3509	9507.225
1802.53907	9488.925
1805.72514	9434.925
1808.90913	9413.825
1812.09102	9411.425
1815.27083	9357.025
1818.44856	9333.925
1821.6242	9308.025
1824.79776	9278.725
1827.96924	9267.525
1831.13864	9243.125
1834.30597	9227.925
1837.47122	9213.325
1840.6344	9213.025
1843.7955	9182.825
1846.95454	9186.325
1850.11151	9154.425
1853.26642	9145.625
1856.41926	9161.225
1859.57004	9122.125
1862.71876	9112.925
1865.86542	9133.125
1869.01003	9118.525
1872.15258	9127.225
1875.29308	9109.225
1878.43152	9091.325
1881.56792	9127.725
1884.70227	9103.725
1887.83457	9138.025
1890.96482	9087.425
1894.09304	9060.025
1897.21921	9083.525
1900.34335	9081.825
1903.46544	9081.725
1906.58551	9076.125
1909.70353	9050.325
1912.81953	9045.225
1915.93349	9036.825
1919.04543	8981.025
1922.15534	8986.325
1925.26322	8955.825
1928.36908	8923.625
1931.47292	8904.125
1934.57473	8870.325
1937.67453	8858.725
1940.77232	8842.525
1943.86808	8820.425
1946.96184	8772.425
1950.05358	8751.425
1953.14331	8707.525
1956.23103	8663.125
1959.31675	8661.725
1962.40046	8638.825
1965.48217	8637.325
1968.56188	8610.625
1971.63959	8621.625
1974.7153	8594.225
1977.78901	8561.525
1980.86073	8529.425
1983.93046	8481.825
1986.99819	8436.025
1990.06394	8419.325
1993.1277	8392.225
1996.18947	8355.225
1999.24925	8330.025
2002.30706	8279.225
2005.36288	8262.125
2008.41672	8235.525
2011.46859	8190.525
2014.51848	8185.425
2017.56639	8172.825
2020.61233	8128.525
2023.6563	8132.525
2026.6983	8071.025
2029.73833	8099.025
2032.7764	8060.625
2035.8125	8046.325
2038.84664	8027.625
2041.87881	8038.825
2044.90903	8030.925
2047.93729	7995.325
2050.96359	7997.925
2053.98794	7972.125
2057.01034	7927.325
2060.03078	7942.125
2063.04927	7926.325
2066.06582	7934.025
2069.08042	7911.525
2072.09307	7911.725
2075.10378	7890.625
2078.11255	7880.525
2081.11938	7896.425
2084.12426	7885.625
2087.12722	7895.025
2090.12824	7893.425
2093.12732	7892.525
2096.12447	7879.525
2099.11969	7880.625
2102.11299	7895.225
2105.10435	7900.225
2108.09379	7904.325
2111.08131	7867.025
2114.0669	7897.525
2117.05057	7905.425
2120.03233	7921.125
2123.01216	7909.625
2125.99008	7924.625
2128.96609	7930.125
2131.94018	7912.425
2134.91236	7930.325
2137.88263	7923.225
2140.851	7926.225
2143.81746	7924.225
2146.78201	7913.925
2149.74466	7893.625
2152.7054	7888.925
2155.66425	7875.725
2158.6212	7877.425
2161.57625	7860.325
2164.52941	7862.325
2167.48067	7870.525
2170.43004	7866.225
2173.37752	7874.825
2176.32311	7863.725
2179.26681	7854.625
2182.20863	7862.625
2185.14856	7877.325
2188.08661	7850.125
2191.02278	7868.225
2193.95707	7846.625
2196.88948	7851.525
2199.82001	7842.225
2202.74867	7855.225
2205.67545	7847.825
2208.60037	7825.725
2211.52341	7814.525
2214.44458	7825.425
2217.36388	7802.525
2220.28132	7787.325
2223.1969	7756.025
2226.11061	7758.025
2229.02246	7721.825
2231.93245	7705.425
2234.84058	7686.325
2237.74686	7697.525
2240.65128	7671.825
2243.55385	7664.225
2246.45456	7675.425
2249.35343	7669.525
2252.25044	7651.925
2255.14561	7645.825
2258.03893	7664.925
2260.93041	7638.825
2263.82004	7625.925
2266.70783	7600.725
2269.59378	7589.125
2272.4779	7575.925
2275.36017	7562.225
2278.24061	7528.725
2281.11922	7527.325
2283.996	7517.625
2286.87094	7499.725
2289.74405	7466.025
2292.61534	7447.725
2295.4848	7444.725
2298.35243	7454.325
2301.21824	7449.925
2304.08223	7431.325
2306.94439	7442.425
2309.80474	7442.325
2312.66327	7454.625
2315.51999	7438.125
2318.37489	7441.425
2321.22797	7436.825
2324.07925	7434.025
2326.92871	7417.525
2329.77637	7415.025
2332.62222	7412.225
2335.46626	7403.425
2338.3085	7378.225
2341.14893	7403.925
2343.98756	7417.625
2346.8244	7431.925
2349.65943	7443.225
2352.49267	7438.225
2355.32411	7459.125
2358.15376	7464.125
2360.98161	7483.225
2363.80768	7484.825
2366.63195	7488.625
2369.45444	7473.225
2372.27514	7475.425
2375.09405	7441.225
2377.91118	7443.625
2380.72652	7396.425
2383.54009	7373.325
2386.35187	7369.425
2389.16188	7338.725
2391.97011	7302.325
2394.77657	7254.525
2397.58125	7261.725
2400.38416	7262.625
2403.18529	7233.425
2405.98466	7233.025
2408.78226	7193.325
2411.57809	7179.925
2414.37216	7171.325
2417.16446	7186.625
2419.955	7170.925
2422.74378	7169.525
2425.5308	7163.725
2428.31606	7131.225
2431.09956	7137.025
2433.88131	7152.825
2436.6613	7155.525
2439.43954	7167.125
2442.21603	7142.425
2444.99077	7153.825
2447.76377	7148.225
2450.53501	7182.325
2453.30451	7170.125
2456.07226	7138.325
2458.83827	7172.025
2461.60254	7170.625
2464.36507	7176.425
2467.12586	7160.025
2469.88492	7176.725
2472.64224	7183.025
2475.39782	7203.425
2478.15167	7213.425
2480.90379	7223.225
2483.65417	7238.225
2486.40283	7287.225
2489.14976	7285.725
2491.89497	7296.825
2494.63845	7292.225
2497.3802	7273.025
2500.12024	7275.125
2502.85855	7271.825
2505.59514	7244.525
2508.33002	7213.325
2511.06318	7176.525
2513.79462	7168.225
2516.52435	7155.425
2519.25237	7133.525
2521.97867	7109.025
2524.70327	7079.425
2527.42616	7086.325
2530.14734	7082.425
2532.86681	7071.025
2535.58458	7080.725
2538.30065	7079.625
2541.01501	7078.425
2543.72768	7059.825
2546.43864	7053.225
2549.14791	7073.525
2551.85548	7081.125
2554.56136	7064.825
2557.26554	7046.125
2559.96803	7040.025
2562.66883	7039.825
2565.36794	7009.125
2568.06536	7036.825
2570.7611	7012.525
2573.45514	7012.225
2576.14751	7007.225
2578.83819	6996.725
2581.52719	6992.525
2584.21451	6996.425
2586.90015	7003.925
2589.58411	6981.625
2592.2664	6983.025
2594.94701	6988.325
2597.62594	6963.625
2600.30321	6963.025
2602.9788	6963.725
2605.65273	6972.125
2608.32498	6965.225
2610.99557	6981.125
2613.66449	6957.725
2616.33175	6982.225
2618.99734	6993.425
2621.66128	6989.325
2624.32355	6966.925
2626.98416	6984.825
2629.64311	6968.125
2632.30041	6984.425
2634.95605	6968.025
2637.61004	6961.825
2640.26238	6940.525
2642.91306	6965.425
2645.56209	6939.125
2648.20948	6949.925
2650.85521	6932.025
2653.4993	6941.825
2656.14175	6941.125
2658.78255	6945.725
2661.42171	6964.025
2664.05923	6980.525
2666.6951	6975.725
2669.32934	7016.625
2671.96194	7010.225
2674.59291	6991.125
2677.22224	6992.825
2679.84993	6979.525
2682.476	6956.025
2685.10043	6952.025
2687.72324	6940.625
2690.34441	6934.025
2692.96396	6944.925
2695.58188	6934.125
2698.19818	6948.925
2700.81285	6945.725
2703.4259	6929.925
2706.03733	6937.225
2708.64714	6943.425
2711.25533	6983.225
2713.86191	6953.425
2716.46687	6998.625
2719.07021	6983.825
2721.67194	6992.925
2724.27206	6974.525
2726.87057	6996.125
2729.46747	6991.125
2732.06276	6984.825
2734.65644	6957.625
2737.24852	6970.925
2739.83899	6937.025
2742.42786	6952.325
2745.01513	6919.025
2747.60079	6899.425
2750.18486	6921.925
2752.76733	6908.625
2755.3482	6917.325
2757.92747	6915.725
2760.50515	6906.125
2763.08123	6881.125
2765.65573	6887.525
2768.22863	6913.925
2770.79994	6912.925
2773.36967	6909.625
2775.9378	6913.125
2778.50435	6896.825
2781.06932	6884.225
2783.6327	6901.025
2786.1945	6912.225
2788.75471	6913.725
2791.31335	6924.725
2793.87041	6897.325
2796.42589	6892.825
2798.97979	6884.325
2801.53212	6872.725
2804.08288	6856.825
2806.63206	6854.425
2809.17967	6856.825
2811.72571	6857.025
2814.27018	6872.925
2816.81308	6852.925
2819.35442	6838.625
2821.89419	6839.225
2824.43239	6851.525
2826.96904	6847.425
2829.50412	6858.425
2832.03763	6832.125
2834.56959	6830.625
2837.1	6826.025
2839.62884	6836.325
2842.15613	6834.725
2844.68186	6848.925
2847.20604	6868.325
2849.72867	6849.725
2852.24974	6843.625
2854.76927	6854.225
2857.28724	6847.425
2859.80367	6856.825
2862.31855	6850.225
2864.83189	6881.425
2867.34368	6867.825
2869.85393	6877.725
2872.36264	6864.925
2874.8698	6871.025
2877.37543	6857.725
2879.87952	6858.425
2882.38207	6862.325
2884.88308	6855.425
2887.38256	6871.225
2889.88051	6849.525
2892.37692	6849.925
2894.8718	6861.625
2897.36515	6843.625
2899.85698	6846.525
2902.34727	6855.225
2904.83604	6870.025
2907.32328	6884.925
2909.809	6893.525
2912.29319	6898.325
2914.77587	6913.925
2917.25702	6907.025
2919.73665	6861.125
2922.21476	6865.125
2924.69136	6853.725
2927.16644	6841.225
2929.64	6836.425
2932.11205	6824.025
2934.58258	6788.625
2937.05161	6800.225
2939.51912	6781.725
2941.98513	6767.525
2944.44962	6737.125
2946.91261	6733.325
2949.37409	6759.125
2951.83407	6744.325
2954.29254	6743.925
2956.74951	6760.825
2959.20498	6757.625
2961.65895	6748.525
2964.11142	6742.325
2966.56239	6705.525
2969.01186	6702.525
2971.45984	6694.925
2973.90632	6678.525
2976.35131	6652.525
2978.7948	6645.725
2981.23681	6610.025
2983.67732	6598.125
2986.11635	6574.525
2988.55388	6572.625
2990.98993	6555.225
2993.4245	6552.725
2995.85758	6543.025
2998.28917	6545.725
3000.71928	6540.725
3003.14791	6522.125
3005.57506	6507.625
3008.00073	6503.125
3010.42493	6520.725
3012.84764	6496.925
3015.26888	6488.325
3017.68865	6467.925
3020.10694	6475.325
3022.52376	6441.125
3024.9391	6440.025
3027.35298	6439.325
3029.76539	6398.725
3032.17632	6381.125
3034.5858	6388.125
3036.9938	6376.025
3039.40034	6375.225
3041.80542	6365.425
3044.20903	6374.625
3046.61118	6354.525
3049.01187	6331.925
3051.4111	6316.925
3053.80888	6313.425
3056.20519	6306.125
3058.60005	6293.625
3060.99345	6285.625
3063.3854	6261.425
3065.7759	6236.925
3068.16494	6239.925
3070.55254	6219.025
3072.93868	6193.825
3075.32338	6219.625
3077.70662	6176.225
3080.08842	6158.125
3082.46878	6153.025
3084.84769	6153.725
3087.22515	6139.225
3089.60118	6147.325
3091.97576	6156.225
3094.3489	6147.825
3096.72061	6134.725
3099.09087	6145.425
3101.4597	6126.625
3103.82709	6132.925
3106.19305	6125.725
3108.55757	6134.225
3110.92066	6111.225
3113.28232	6117.725
3115.64255	6107.525
3118.00134	6103.525
3120.35871	6081.325
3122.71466	6065.225
3125.06917	6056.925
3127.42226	6058.425
3129.77393	6047.325
3132.12417	6057.325
3134.47299	6024.725
3136.82039	6050.225
3139.16636	6012.325
3141.51092	6045.225
3143.85406	6038.325
3146.19579	6014.725
3148.53609	6031.825
3150.87499	6037.825
3153.21246	6048.925
3155.54853	6065.225
3157.88318	6045.425
3160.21642	6068.025
3162.54826	6054.325
3164.87868	6066.225
3167.2077	6050.125
3169.5353	6035.125
3171.86151	6035.725
3174.18631	6044.425
3176.5097	6045.325
3178.83169	6037.725
3181.15228	6031.025
3183.47147	6027.325
3185.78926	6024.825
3188.10565	6036.925
