Data from AgNP_FTO_APTES_UA_100uM_CRN_100uM_R6G_10uM_NaF_0.1M_Addition_RamanShift__6__17-54-30-571.txt Node

Date: Thu Mar 24 17:54:30 GMT 2022
User: TCL
Spectrometer: QEP01345
Trigger mode: 4
Integration Time (sec): 7.000000E0
Scans to average: 10
Electric dark correction enabled: true
Nonlinearity correction enabled: false
Boxcar width: 0
XAxis mode: Raman Shifts
Number of Pixels in Spectrum: 1044
>>>>>Begin Spectral Data<<<<<
46.04893	-1.725
50.45542	-0.425
54.85868	0.275
59.25871	0.875
63.6555	30.675
68.04907	38.975
72.43941	36.975
76.82654	36.875
81.21044	43.775
85.59113	42.375
89.96862	43.575
94.34289	43.175
98.71396	49.475
103.08183	46.375
107.4465	49.175
111.80798	49.975
116.16626	50.975
120.52136	49.575
124.87327	51.075
129.222	52.475
133.56755	59.375
137.90993	57.075
142.24913	66.875
146.58517	68.175
150.91804	78.375
155.24774	95.375
159.57429	112.175
163.89768	147.775
168.21792	191.875
172.53501	263.675
176.84895	367.275
181.15975	520.675
185.46741	724.575
189.77193	993.375
194.07331	1327.875
198.37157	1724.275
202.6667	2129.875
206.9587	2544.275
211.24758	2961.475
215.53334	3394.875
219.81599	3849.675
224.09553	4353.975
228.37195	4946.075
232.64527	5540.575
236.91549	6199.475
241.18261	6802.875
245.44663	7324.775
249.70755	7749.875
253.96539	8101.375
258.22014	8390.875
262.4718	8641.575
266.72039	8823.675
270.96589	8927.175
275.20832	8917.175
279.44768	8821.875
283.68397	8677.175
287.91719	8610.775
292.14735	8578.575
296.37445	8658.475
300.59849	8814.175
304.81948	9047.275
309.03742	9227.675
313.25231	9247.975
317.46415	8993.075
321.67296	8613.875
325.87872	8284.575
330.08145	8096.175
334.28114	8064.475
338.47781	8182.675
342.67145	8310.375
346.86207	8521.875
351.04966	8789.275
355.23424	9064.975
359.4158	9287.575
363.59435	9430.075
367.76989	9436.275
371.94243	9401.775
376.11196	9413.075
380.27849	9395.275
384.44203	9370.375
388.60257	9345.375
392.76012	9398.375
396.91468	9486.275
401.06626	9657.175
405.21485	9771.275
409.36047	9653.875
413.50311	9366.875
417.64277	9060.275
421.77947	8907.775
425.9132	8849.675
430.04396	8876.375
434.17176	8903.275
438.2966	8996.075
442.41849	9168.375
446.53742	9407.175
450.6534	9623.875
454.76644	9745.575
458.87653	9769.975
462.98368	9689.275
467.08789	9581.275
471.18916	9469.275
475.2875	9327.175
479.38291	9211.875
483.4754	9108.675
487.56496	8990.975
491.6516	8935.175
495.73531	8902.375
499.81612	8850.875
503.89401	8929.675
507.96899	8965.975
512.04106	8997.975
516.11023	9009.775
520.1765	9035.975
524.23987	8992.875
528.30034	8968.375
532.35792	8892.075
536.41261	8795.675
540.46441	8660.675
544.51333	8612.775
548.55936	8663.375
552.60252	8847.075
556.64279	9052.975
560.6802	9160.875
564.71473	9248.975
568.7464	9436.075
572.7752	9675.075
576.80114	9780.375
580.82422	9852.375
584.84444	10047.375
588.86181	10264.175
592.87633	10507.375
596.888	10631.875
600.89682	10587.275
604.9028	10962.775
608.90594	12575.275
612.90624	14746.875
616.90371	13993.475
620.89834	10726.475
624.89015	9151.775
628.87913	8899.075
632.86528	9084.275
636.84862	9292.275
640.82913	9166.875
644.80683	8803.475
648.78172	8515.875
652.75379	8444.475
656.72306	8633.575
660.68952	8895.775
664.65319	8843.275
668.61405	8496.575
672.57211	8388.575
676.52738	8364.975
680.47986	8370.175
684.42955	8289.075
688.37646	8227.775
692.32058	8239.775
696.26192	8310.175
700.20048	8408.475
704.13626	8483.675
708.06928	8496.575
711.99952	8487.275
715.927	8441.475
719.85171	8482.575
723.77365	8503.975
727.69284	8448.175
731.60928	8414.875
735.52295	8399.975
739.43388	8407.575
743.34206	8416.175
747.24749	8458.275
751.15017	8458.075
755.05012	8567.875
758.94733	8865.875
762.8418	9625.275
766.73354	10912.475
770.62254	12152.675
774.50882	12550.175
778.39237	11950.575
782.27321	10691.875
786.15132	9515.675
790.02671	8770.375
793.89938	8402.775
797.76935	8236.975
801.6366	8160.775
805.50115	8124.875
809.36299	8096.275
813.22213	8067.975
817.07857	8078.675
820.93231	8026.575
824.78336	7997.175
828.63172	8024.475
832.47738	8014.175
836.32036	7981.675
840.16066	7929.075
843.99827	7927.975
847.8332	7920.575
851.66546	7906.475
855.49504	7929.075
859.32195	7906.575
863.1462	7889.775
866.96777	7903.575
870.78668	7865.875
874.60293	7916.775
878.41652	7912.475
882.22745	7974.875
886.03573	8022.575
889.84136	8019.875
893.64433	7965.775
897.44466	7914.975
901.24235	7899.075
905.0374	7857.575
908.8298	7813.575
912.61957	7801.975
916.40671	7816.075
920.19121	7856.475
923.97308	7958.175
927.75233	7991.675
931.52895	7991.275
935.30295	7867.275
939.07433	7702.075
942.84309	7549.275
946.60924	7446.475
950.37278	7402.175
954.13371	7385.475
957.89203	7376.275
961.64774	7380.375
965.40086	7369.675
969.15137	7346.675
972.89929	7314.175
976.64461	7317.575
980.38733	7267.075
984.12747	7296.375
987.86502	7319.775
991.59999	7361.275
995.33237	7424.175
999.06217	7546.275
1002.78939	7669.375
1006.51404	7860.875
1010.23611	7994.275
1013.95561	8096.775
1017.67255	8058.775
1021.38692	7958.575
1025.09872	7811.275
1028.80796	7676.175
1032.51465	7623.975
1036.21877	7619.175
1039.92035	7664.275
1043.61937	7724.375
1047.31584	7756.875
1051.00976	7791.075
1054.70114	7819.675
1058.38998	7847.775
1062.07627	7877.975
1065.76003	7950.375
1069.44126	8063.375
1073.11995	8197.975
1076.79611	8349.275
1080.46974	8464.775
1084.14085	8604.675
1087.80943	8726.475
1091.47549	8807.375
1095.13903	8729.175
1098.80005	8521.375
1102.45857	8294.275
1106.11456	8174.375
1109.76805	8143.875
1113.41903	8235.975
1117.06751	8444.575
1120.71348	8679.775
1124.35696	8966.275
1127.99793	9250.575
1131.63641	9250.275
1135.2724	9010.775
1138.90589	8759.175
1142.5369	8587.275
1146.16542	8469.875
1149.79145	8418.075
1153.415	8404.775
1157.03607	8451.475
1160.65467	8615.475
1164.27079	8930.875
1167.88443	9426.675
1171.49561	10121.275
1175.10432	11203.675
1178.71056	12515.175
1182.31434	13614.475
1185.91565	13927.075
1189.51451	13571.275
1193.11091	12935.275
1196.70485	12159.275
1200.29634	11479.175
1203.88538	10931.475
1207.47197	10377.775
1211.05612	9890.375
1214.63782	9584.375
1218.21708	9432.875
1221.79391	9366.775
1225.36829	9347.675
1228.94024	9304.475
1232.50976	9203.075
1236.07685	9056.875
1239.6415	9024.775
1243.20374	9013.075
1246.76355	9034.275
1250.32093	9104.775
1253.8759	9232.375
1257.42845	9457.775
1260.97859	9784.375
1264.52631	10102.375
1268.07163	10423.875
1271.61453	10714.675
1275.15503	10939.375
1278.69312	11164.875
1282.22882	11382.675
1285.76211	11762.775
1289.29301	12247.775
1292.82151	12750.175
1296.34761	13348.975
1299.87133	14130.175
1303.39266	15206.775
1306.9116	16589.775
1310.42815	17893.475
1313.94233	18507.075
1317.45412	18080.175
1320.96354	17114.475
1324.47058	16104.375
1327.97525	15247.675
1331.47754	14557.475
1334.97747	14198.975
1338.47502	14079.275
1341.97022	14163.575
1345.46305	14507.175
1348.95352	15065.775
1352.44163	15876.675
1355.92738	17111.275
1359.41078	19019.075
1362.89183	20753.375
1366.37053	20437.675
1369.84688	17808.775
1373.32088	14950.175
1376.79254	13216.675
1380.26186	12357.475
1383.72883	11857.475
1387.19347	11473.775
1390.65578	11118.575
1394.11575	10890.675
1397.57339	10823.575
1401.0287	10835.375
1404.48168	10865.275
1407.93234	10833.775
1411.38068	10688.775
1414.82669	10499.075
1418.27039	10272.275
1421.71177	9961.075
1425.15083	9639.075
1428.58758	9500.975
1432.02203	9586.675
1435.45416	9728.475
1438.88399	9857.475
1442.31151	9963.475
1445.73673	10075.675
1449.15965	10172.975
1452.58027	10217.475
1455.9986	10189.675
1459.41463	10228.175
1462.82837	10404.375
1466.23982	10694.475
1469.64898	11038.375
1473.05586	11308.675
1476.46045	11458.575
1479.86276	11610.975
1483.26279	11781.675
1486.66054	12010.175
1490.05602	12399.575
1493.44922	12951.375
1496.84016	13736.875
1500.22882	14954.375
1503.61521	16546.075
1506.99934	18205.475
1510.38121	19312.975
1513.76081	19177.275
1517.13816	17769.175
1520.51324	15736.275
1523.88607	14053.375
1527.25665	13037.075
1530.62498	12456.675
1533.99105	12076.875
1537.35488	11785.875
1540.71647	11493.375
1544.07581	11185.475
1547.4329	10911.075
1550.78776	10685.975
1554.14038	10576.175
1557.49077	10598.775
1560.83892	10726.875
1564.18484	11028.275
1567.52853	11418.875
1570.86999	11768.075
1574.20922	12020.275
1577.54624	12009.775
1580.88103	11529.775
1584.2136	10890.175
1587.54395	10629.875
1590.87208	10822.275
1594.19801	11352.275
1597.52172	12055.475
1600.84321	12342.075
1604.16251	11871.275
1607.47959	11114.275
1610.79447	10324.275
1614.10715	9561.275
1617.41763	8927.175
1620.7259	8501.175
1624.03199	8264.875
1627.33587	8241.875
1630.63757	8412.775
1633.93707	8871.875
1637.23439	9703.675
1640.52951	11109.975
1643.82246	13006.875
1647.11321	14940.475
1650.40179	15988.575
1653.68819	15245.075
1656.97241	13182.975
1660.25446	10917.175
1663.53433	9217.775
1666.81203	8190.175
1670.08756	7608.775
1673.36092	7249.775
1676.63211	7009.375
1679.90115	6839.675
1683.16801	6727.075
1686.43272	6609.375
1689.69527	6514.275
1692.95567	6466.575
1696.2139	6422.575
1699.46999	6378.775
1702.72392	6365.075
1705.97571	6318.575
1709.22535	6292.775
1712.47284	6266.275
1715.71819	6267.075
1718.96139	6208.775
1722.20246	6207.875
1725.44139	6165.475
1728.67818	6107.075
1731.91284	6058.075
1735.14537	6010.775
1738.37576	5993.675
1741.60403	5937.075
1744.83017	5934.475
1748.05418	5897.675
1751.27607	5899.975
1754.49584	5866.275
1757.71349	5857.275
1760.92903	5835.675
1764.14244	5831.175
1767.35375	5818.375
1770.56294	5797.475
1773.77002	5756.275
1776.97499	5739.275
1780.17785	5736.275
1783.37861	5709.075
1786.57727	5701.375
1789.77382	5695.575
1792.96828	5682.275
1796.16064	5654.475
1799.3509	5646.075
1802.53907	5634.975
1805.72514	5602.475
1808.90913	5591.775
1812.09102	5593.075
1815.27083	5547.975
1818.44856	5554.775
1821.6242	5510.075
1824.79776	5518.375
1827.96924	5499.575
1831.13864	5477.775
1834.30597	5487.675
1837.47122	5463.175
1840.6344	5460.875
1843.7955	5470.075
1846.95454	5453.775
1850.11151	5447.375
1853.26642	5426.675
1856.41926	5435.175
1859.57004	5415.375
1862.71876	5419.975
1865.86542	5380.975
1869.01003	5398.475
1872.15258	5379.375
1875.29308	5376.375
1878.43152	5365.575
1881.56792	5366.875
1884.70227	5372.175
1887.83457	5355.675
1890.96482	5360.675
1894.09304	5333.675
1897.21921	5331.875
1900.34335	5327.975
1903.46544	5322.475
1906.58551	5326.675
1909.70353	5305.875
1912.81953	5308.075
1915.93349	5281.275
1919.04543	5269.175
1922.15534	5261.775
1925.26322	5245.975
1928.36908	5231.875
1931.47292	5205.975
1934.57473	5195.575
1937.67453	5177.575
1940.77232	5170.075
1943.86808	5146.275
1946.96184	5130.175
1950.05358	5116.275
1953.14331	5117.675
1956.23103	5079.975
1959.31675	5057.875
1962.40046	5044.675
1965.48217	5047.675
1968.56188	5023.775
1971.63959	4991.975
1974.7153	4979.975
1977.78901	4972.875
1980.86073	4943.375
1983.93046	4933.375
1986.99819	4909.475
1990.06394	4892.575
1993.1277	4878.175
1996.18947	4856.075
1999.24925	4847.575
2002.30706	4822.275
2005.36288	4805.175
2008.41672	4781.375
2011.46859	4753.475
2014.51848	4762.075
2017.56639	4728.575
2020.61233	4724.675
2023.6563	4712.275
2026.6983	4690.775
2029.73833	4677.275
2032.7764	4659.675
2035.8125	4657.275
2038.84664	4635.775
2041.87881	4618.575
2044.90903	4629.575
2047.93729	4605.575
2050.96359	4605.575
2053.98794	4589.375
2057.01034	4572.675
2060.03078	4564.275
2063.04927	4557.575
2066.06582	4560.275
2069.08042	4559.875
2072.09307	4538.575
2075.10378	4545.175
2078.11255	4548.275
2081.11938	4541.275
2084.12426	4539.375
2087.12722	4534.775
2090.12824	4540.575
2093.12732	4535.875
2096.12447	4540.475
2099.11969	4530.475
2102.11299	4525.675
2105.10435	4523.375
2108.09379	4537.875
2111.08131	4526.375
2114.0669	4528.375
2117.05057	4530.775
2120.03233	4523.875
2123.01216	4537.875
2125.99008	4539.575
2128.96609	4554.175
2131.94018	4537.375
2134.91236	4528.375
2137.88263	4547.875
2140.851	4530.375
2143.81746	4543.775
2146.78201	4516.575
2149.74466	4531.275
2152.7054	4514.175
2155.66425	4510.475
2158.6212	4499.475
2161.57625	4498.875
2164.52941	4506.575
2167.48067	4478.375
2170.43004	4494.675
2173.37752	4487.275
2176.32311	4486.675
2179.26681	4467.975
2182.20863	4459.475
2185.14856	4484.775
2188.08661	4483.375
2191.02278	4475.575
2193.95707	4457.175
2196.88948	4467.275
2199.82001	4447.075
2202.74867	4450.875
2205.67545	4467.275
2208.60037	4470.275
2211.52341	4424.175
2214.44458	4406.575
2217.36388	4396.075
2220.28132	4380.875
2223.1969	4368.875
2226.11061	4373.875
2229.02246	4350.775
2231.93245	4359.175
2234.84058	4345.975
2237.74686	4339.775
2240.65128	4336.975
2243.55385	4320.575
2246.45456	4333.675
2249.35343	4307.875
2252.25044	4316.175
2255.14561	4313.575
2258.03893	4294.975
2260.93041	4290.675
2263.82004	4287.275
2266.70783	4265.475
2269.59378	4258.475
2272.4779	4265.175
2275.36017	4239.675
2278.24061	4221.575
2281.11922	4215.075
2283.996	4191.175
2286.87094	4200.675
2289.74405	4178.975
2292.61534	4198.575
2295.4848	4187.175
2298.35243	4153.275
2301.21824	4154.775
2304.08223	4147.575
2306.94439	4159.275
2309.80474	4149.275
2312.66327	4143.675
2315.51999	4143.475
2318.37489	4109.475
2321.22797	4131.075
2324.07925	4116.975
2326.92871	4123.275
2329.77637	4134.975
2332.62222	4105.675
2335.46626	4095.175
2338.3085	4078.275
2341.14893	4083.075
2343.98756	4093.475
2346.8244	4074.875
2349.65943	4077.975
2352.49267	4082.175
2355.32411	4095.875
2358.15376	4101.075
2360.98161	4096.475
2363.80768	4081.775
2366.63195	4104.875
2369.45444	4100.075
2372.27514	4095.075
2375.09405	4097.575
2377.91118	4079.375
2380.72652	4066.675
2383.54009	4051.875
2386.35187	4040.175
2389.16188	4033.175
2391.97011	3998.475
2394.77657	3995.475
2397.58125	3984.675
2400.38416	3979.475
2403.18529	3955.675
2405.98466	3959.875
2408.78226	3958.175
2411.57809	3948.475
2414.37216	3935.075
2417.16446	3920.375
2419.955	3927.275
2422.74378	3929.375
2425.5308	3903.575
2428.31606	3919.675
2431.09956	3896.875
2433.88131	3895.775
2436.6613	3904.175
2439.43954	3912.475
2442.21603	3899.475
2444.99077	3884.875
2447.76377	3897.575
2450.53501	3895.475
2453.30451	3896.475
2456.07226	3893.275
2458.83827	3887.375
2461.60254	3882.575
2464.36507	3891.075
2467.12586	3906.775
2469.88492	3885.575
2472.64224	3888.175
2475.39782	3891.675
2478.15167	3892.775
2480.90379	3908.675
2483.65417	3909.875
2486.40283	3914.275
2489.14976	3907.875
2491.89497	3904.475
2494.63845	3910.675
2497.3802	3909.175
2500.12024	3893.275
2502.85855	3889.775
2505.59514	3877.775
2508.33002	3867.475
2511.06318	3841.175
2513.79462	3841.575
2516.52435	3833.075
2519.25237	3823.275
2521.97867	3817.875
2524.70327	3794.775
2527.42616	3804.075
2530.14734	3788.175
2532.86681	3764.575
2535.58458	3778.375
2538.30065	3781.075
2541.01501	3773.475
2543.72768	3777.075
2546.43864	3769.675
2549.14791	3758.175
2551.85548	3748.875
2554.56136	3748.675
2557.26554	3736.775
2559.96803	3736.675
2562.66883	3736.475
2565.36794	3735.875
2568.06536	3722.775
2570.7611	3712.675
2573.45514	3697.575
2576.14751	3714.275
2578.83819	3695.575
2581.52719	3705.975
2584.21451	3679.575
2586.90015	3682.275
2589.58411	3680.575
2592.2664	3679.375
2594.94701	3669.775
2597.62594	3670.075
2600.30321	3661.275
2602.9788	3657.875
2605.65273	3656.575
2608.32498	3656.875
2610.99557	3642.775
2613.66449	3629.175
2616.33175	3634.775
2618.99734	3637.175
2621.66128	3641.675
2624.32355	3620.375
2626.98416	3623.275
2629.64311	3613.075
2632.30041	3602.975
2634.95605	3611.575
2637.61004	3605.475
2640.26238	3592.575
2642.91306	3605.675
2645.56209	3590.575
2648.20948	3588.675
2650.85521	3591.075
2653.4993	3597.175
2656.14175	3608.075
2658.78255	3605.975
2661.42171	3625.275
2664.05923	3613.775
2666.6951	3601.175
2669.32934	3612.975
2671.96194	3610.775
2674.59291	3608.275
2677.22224	3611.175
2679.84993	3601.075
2682.476	3589.575
2685.10043	3639.975
2687.72324	3575.575
2690.34441	3586.375
2692.96396	3590.475
2695.58188	3587.775
2698.19818	3586.275
2700.81285	3576.575
2703.4259	3568.275
2706.03733	3573.575
2708.64714	3577.775
2711.25533	3575.275
2713.86191	3583.975
2716.46687	3585.975
2719.07021	3587.775
2721.67194	3589.375
2724.27206	3584.775
2726.87057	3604.875
2729.46747	3591.875
2732.06276	3594.075
2734.65644	3582.075
2737.24852	3583.175
2739.83899	3574.375
2742.42786	3573.475
2745.01513	3555.375
2747.60079	3558.875
2750.18486	3562.775
2752.76733	3537.175
2755.3482	3548.975
2757.92747	3542.375
2760.50515	3532.375
2763.08123	3524.975
2765.65573	3530.775
2768.22863	3525.775
2770.79994	3525.975
2773.36967	3537.875
2775.9378	3515.075
2778.50435	3509.475
2781.06932	3511.275
2783.6327	3524.475
2786.1945	3522.175
2788.75471	3505.775
2791.31335	3492.075
2793.87041	3498.175
2796.42589	3490.775
2798.97979	3494.775
2801.53212	3494.975
2804.08288	3481.475
2806.63206	3470.975
2809.17967	3468.375
2811.72571	3470.975
2814.27018	3485.875
2816.81308	3467.875
2819.35442	3453.875
2821.89419	3450.475
2824.43239	3452.975
2826.96904	3451.575
2829.50412	3454.675
2832.03763	3438.575
2834.56959	3444.875
2837.1	3438.275
2839.62884	3445.275
2842.15613	3428.475
2844.68186	3439.875
2847.20604	3437.775
2849.72867	3446.675
2852.24974	3456.975
2854.76927	3446.675
2857.28724	3426.175
2859.80367	3449.075
2862.31855	3458.875
2864.83189	3445.775
2867.34368	3450.175
2869.85393	3438.175
2872.36264	3448.275
2874.8698	3442.075
2877.37543	3437.475
2879.87952	3433.975
2882.38207	3433.375
2884.88308	3438.475
2887.38256	3430.675
2889.88051	3419.375
2892.37692	3428.475
2894.8718	3430.475
2897.36515	3429.875
2899.85698	3449.375
2902.34727	3443.175
2904.83604	3428.875
2907.32328	3432.175
2909.809	3441.275
2912.29319	3455.875
2914.77587	3443.875
2917.25702	3448.375
2919.73665	3426.975
2922.21476	3434.975
2924.69136	3432.175
2927.16644	3429.375
2929.64	3419.675
2932.11205	3403.675
2934.58258	3400.675
2937.05161	3398.775
2939.51912	3396.375
2941.98513	3399.975
2944.44962	3374.275
2946.91261	3369.975
2949.37409	3379.075
2951.83407	3369.075
2954.29254	3374.975
2956.74951	3366.175
2959.20498	3374.275
2961.65895	3358.275
2964.11142	3353.475
2966.56239	3342.575
2969.01186	3339.375
2971.45984	3324.275
2973.90632	3326.575
2976.35131	3307.575
2978.7948	3304.175
2981.23681	3307.275
2983.67732	3298.675
2986.11635	3272.775
2988.55388	3282.875
2990.98993	3269.175
2993.4245	3269.575
2995.85758	3278.375
2998.28917	3268.875
3000.71928	3267.075
3003.14791	3259.175
3005.57506	3259.575
3008.00073	3239.475
3010.42493	3250.975
3012.84764	3242.075
3015.26888	3235.375
3017.68865	3219.275
3020.10694	3229.075
3022.52376	3226.675
3024.9391	3202.075
3027.35298	3198.575
3029.76539	3193.775
3032.17632	3188.375
3034.5858	3177.875
3036.9938	3182.575
3039.40034	3178.275
3041.80542	3180.175
3044.20903	3168.975
3046.61118	3171.775
3049.01187	3159.875
3051.4111	3169.575
3053.80888	3158.175
3056.20519	3138.475
3058.60005	3141.875
3060.99345	3127.175
3063.3854	3138.975
3065.7759	3124.875
3068.16494	3129.875
3070.55254	3115.375
3072.93868	3108.575
3075.32338	3099.275
3077.70662	3103.175
3080.08842	3088.875
3082.46878	3092.075
3084.84769	3087.975
3087.22515	3088.875
3089.60118	3104.975
3091.97576	3103.775
3094.3489	3084.275
3096.72061	3091.975
3099.09087	3108.175
3101.4597	3094.975
3103.82709	3084.575
3106.19305	3093.375
3108.55757	3092.975
3110.92066	3077.975
3113.28232	3093.975
3115.64255	3082.675
3118.00134	3077.775
3120.35871	3085.975
3122.71466	3076.975
3125.06917	3077.275
3127.42226	3067.675
3129.77393	3057.575
3132.12417	3061.475
3134.47299	3072.275
3136.82039	3063.275
3139.16636	3068.975
3141.51092	3074.475
3143.85406	3075.475
3146.19579	3076.275
3148.53609	3082.075
3150.87499	3072.975
3153.21246	3094.675
3155.54853	3107.575
3157.88318	3105.175
3160.21642	3092.775
3162.54826	3115.075
3164.87868	3109.575
3167.2077	3099.675
3169.5353	3121.375
3171.86151	3137.475
3174.18631	3114.075
3176.5097	3097.275
3178.83169	3109.175
3181.15228	3107.375
3183.47147	3114.575
3185.78926	3119.475
3188.10565	3105.175
3190.42065	3114.275
3192.73424	3117.775
3195.04645	3102.175
3197.35725	3110.775
3199.66667	3108.475
3201.97469	3113.775
3204.28132	3120.175
3206.58656	3119.875
3208.8904	3125.875
3211.19287	3101.375
3213.49394	3126.175
3215.79363	3134.675
3218.09193	3133.575
3220.38884	3126.175
