Data from AgNP_FTO_APTES_UA_100uM_CRN_2uM_R6G_10uM_NaF_0.1M_Addition_RamanShift__28__14-17-30-325.txt Node

Date: Thu Mar 24 14:17:30 GMT 2022
User: TCL
Spectrometer: QEP01345
Trigger mode: 4
Integration Time (sec): 7.000000E0
Scans to average: 10
Electric dark correction enabled: true
Nonlinearity correction enabled: false
Boxcar width: 0
XAxis mode: Raman Shifts
Number of Pixels in Spectrum: 1044
>>>>>Begin Spectral Data<<<<<
46.04893	-0.7875
50.45542	-2.0875
54.85868	0.9125
59.25871	-0.2875
63.6555	41.7125
68.04907	43.5125
72.43941	43.6125
76.82654	46.1125
81.21044	50.7125
85.59113	53.6125
89.96862	56.2125
94.34289	55.9125
98.71396	59.5125
103.08183	58.4125
107.4465	59.7125
111.80798	62.0125
116.16626	60.9125
120.52136	68.1125
124.87327	68.1125
129.222	72.2125
133.56755	74.9125
137.90993	79.8125
142.24913	89.3125
146.58517	99.2125
150.91804	117.5125
155.24774	142.4125
159.57429	176.2125
163.89768	225.3125
168.21792	302.7125
172.53501	419.5125
176.84895	582.1125
181.15975	823.4125
185.46741	1150.7125
189.77193	1604.7125
194.07331	2162.4125
198.37157	2830.8125
202.6667	3524.4125
206.9587	4244.8125
211.24758	4993.2125
215.53334	5828.9125
219.81599	6771.1125
224.09553	7854.6125
228.37195	9055.1125
232.64527	10401.8125
236.91549	11659.6125
241.18261	12651.1125
245.44663	13336.2125
249.70755	13814.7125
253.96539	14220.6125
258.22014	14567.6125
262.4718	14833.5125
266.72039	14924.0125
270.96589	14773.0125
275.20832	14438.1125
279.44768	13975.2125
283.68397	13541.5125
287.91719	13346.3125
292.14735	13579.5125
296.37445	14266.4125
300.59849	15409.0125
304.81948	16870.0125
309.03742	18065.2125
313.25231	18434.9125
317.46415	17388.3125
321.67296	15401.9125
325.87872	13590.0125
330.08145	12688.2125
334.28114	12611.1125
338.47781	12970.1125
342.67145	13553.2125
346.86207	14522.7125
351.04966	15969.7125
355.23424	17665.3125
359.4158	18913.4125
363.59435	19334.0125
367.76989	19224.6125
371.94243	18780.2125
376.11196	18269.1125
380.27849	17781.4125
384.44203	17221.5125
388.60257	16684.8125
392.76012	16378.6125
396.91468	16412.5125
401.06626	16933.9125
405.21485	17306.3125
409.36047	16716.6125
413.50311	15207.1125
417.64277	13664.7125
421.77947	12742.7125
425.9132	12324.1125
430.04396	12180.3125
434.17176	12243.9125
438.2966	12427.3125
442.41849	12856.0125
446.53742	13376.5125
450.6534	13772.0125
454.76644	13959.0125
458.87653	13823.6125
462.98368	13537.8125
467.08789	13133.1125
471.18916	12720.4125
475.2875	12218.2125
479.38291	11763.7125
483.4754	11443.3125
487.56496	11262.5125
491.6516	11155.6125
495.73531	11139.5125
499.81612	11268.4125
503.89401	11529.0125
507.96899	11859.1125
512.04106	12254.6125
516.11023	12726.0125
520.1765	13037.8125
524.23987	13079.6125
528.30034	12859.1125
532.35792	12557.2125
536.41261	12162.2125
540.46441	11659.2125
544.51333	11362.6125
548.55936	11450.3125
552.60252	11882.1125
556.64279	12445.5125
560.6802	12740.2125
564.71473	13250.0125
568.7464	14399.5125
572.7752	14873.3125
576.80114	13672.5125
580.82422	12391.3125
584.84444	11848.8125
588.86181	11632.1125
592.87633	11634.4125
596.888	11867.4125
600.89682	12776.9125
604.9028	16014.5125
608.90594	24532.0125
612.90624	35788.2125
616.90371	34618.5125
620.89834	20531.1125
624.89015	13568.1125
628.87913	12343.2125
632.86528	12708.3125
636.84862	13207.2125
640.82913	12782.6125
644.80683	11549.0125
648.78172	10724.8125
652.75379	10847.8125
656.72306	11802.3125
660.68952	12985.8125
664.65319	12650.6125
668.61405	11344.9125
672.57211	10657.1125
676.52738	10587.4125
680.47986	10545.9125
684.42955	10320.8125
688.37646	10189.9125
692.32058	10222.0125
696.26192	10401.4125
700.20048	10667.2125
704.13626	10861.7125
708.06928	10802.8125
711.99952	10682.4125
715.927	10634.3125
719.85171	10811.2125
723.77365	10919.4125
727.69284	10810.2125
731.60928	10641.1125
735.52295	10573.5125
739.43388	10625.9125
743.34206	10692.7125
747.24749	10728.6125
751.15017	10787.7125
755.05012	11168.5125
758.94733	12437.1125
762.8418	15520.6125
766.73354	20466.2125
770.62254	24965.7125
774.50882	27135.2125
778.39237	25792.1125
782.27321	20945.9125
786.15132	15796.6125
790.02671	12733.4125
793.89938	11441.3125
797.76935	10893.4125
801.6366	10642.7125
805.50115	10545.8125
809.36299	10472.5125
813.22213	10434.8125
817.07857	10368.6125
820.93231	10391.5125
824.78336	10476.8125
828.63172	10620.7125
832.47738	10693.1125
836.32036	10590.1125
840.16066	10395.4125
843.99827	10284.8125
847.8332	10207.1125
851.66546	10210.7125
855.49504	10225.9125
859.32195	10211.0125
863.1462	10140.4125
866.96777	10051.2125
870.78668	10052.3125
874.60293	10145.2125
878.41652	10217.9125
882.22745	10383.6125
886.03573	10501.7125
889.84136	10466.3125
893.64433	10409.1125
897.44466	10410.0125
901.24235	10420.8125
905.0374	10321.5125
908.8298	10202.6125
912.61957	10056.9125
916.40671	10044.6125
920.19121	10138.0125
923.97308	10371.6125
927.75233	10705.9125
931.52895	11125.5125
935.30295	10927.0125
939.07433	10304.1125
942.84309	9764.2125
946.60924	9479.8125
950.37278	9321.4125
954.13371	9274.7125
957.89203	9246.3125
961.64774	9189.5125
965.40086	9184.6125
969.15137	9170.7125
972.89929	9148.9125
976.64461	9146.3125
980.38733	9151.5125
984.12747	9147.7125
987.86502	9207.2125
991.59999	9297.0125
995.33237	9441.4125
999.06217	9685.2125
1002.78939	10044.3125
1006.51404	10434.5125
1010.23611	10737.7125
1013.95561	10869.6125
1017.67255	10797.6125
1021.38692	10623.2125
1025.09872	10398.5125
1028.80796	10287.0125
1032.51465	10395.4125
1036.21877	10595.8125
1039.92035	10757.2125
1043.61937	10792.4125
1047.31584	10756.7125
1051.00976	10699.7125
1054.70114	10578.1125
1058.38998	10519.4125
1062.07627	10556.8125
1065.76003	10596.1125
1069.44126	10671.8125
1073.11995	10880.8125
1076.79611	11227.1125
1080.46974	11796.4125
1084.14085	12582.9125
1087.80943	13222.1125
1091.47549	13392.2125
1095.13903	12889.3125
1098.80005	12061.3125
1102.45857	11491.6125
1106.11456	11341.7125
1109.76805	11614.2125
1113.41903	12342.1125
1117.06751	13464.0125
1120.71348	14999.4125
1124.35696	16751.0125
1127.99793	17713.1125
1131.63641	16758.8125
1135.2724	14826.0125
1138.90589	13385.8125
1142.5369	12506.9125
1146.16542	11933.2125
1149.79145	11597.6125
1153.415	11529.0125
1157.03607	11644.3125
1160.65467	12046.6125
1164.27079	12757.4125
1167.88443	13885.7125
1171.49561	15754.1125
1175.10432	18908.6125
1178.71056	23059.3125
1182.31434	26112.0125
1185.91565	26645.6125
1189.51451	25294.4125
1193.11091	22894.2125
1196.70485	20210.5125
1200.29634	18354.7125
1203.88538	16999.1125
1207.47197	15258.8125
1211.05612	13731.2125
1214.63782	12778.2125
1218.21708	12387.4125
1221.79391	12259.7125
1225.36829	12261.6125
1228.94024	12234.9125
1232.50976	12227.9125
1236.07685	12236.0125
1239.6415	12306.9125
1243.20374	12511.2125
1246.76355	12688.1125
1250.32093	12937.9125
1253.8759	13371.3125
1257.42845	13996.6125
1260.97859	14794.3125
1264.52631	15658.7125
1268.07163	16400.6125
1271.61453	16972.5125
1275.15503	17235.3125
1278.69312	17281.0125
1282.22882	17579.7125
1285.76211	18314.7125
1289.29301	19252.2125
1292.82151	20146.1125
1296.34761	21086.4125
1299.87133	22921.9125
1303.39266	26468.9125
1306.9116	32108.6125
1310.42815	38070.8125
1313.94233	40077.3125
1317.45412	36770.4125
1320.96354	31244.5125
1324.47058	26053.6125
1327.97525	22161.2125
1331.47754	19978.0125
1334.97747	19323.5125
1338.47502	19823.5125
1341.97022	21426.5125
1345.46305	24138.6125
1348.95352	27592.0125
1352.44163	31782.3125
1355.92738	38033.9125
1359.41078	47606.8125
1362.89183	55067.3125
1366.37053	50430.4125
1369.84688	38471.7125
1373.32088	28897.3125
1376.79254	23464.6125
1380.26186	20416.0125
1383.72883	18507.6125
1387.19347	17132.1125
1390.65578	15820.5125
1394.11575	14807.0125
1397.57339	14240.0125
1401.0287	14002.8125
1404.48168	13934.7125
1407.93234	13995.0125
1411.38068	14259.5125
1414.82669	14597.6125
1418.27039	14826.8125
1421.71177	14673.4125
1425.15083	14441.9125
1428.58758	14470.0125
1432.02203	14873.2125
1435.45416	15053.7125
1438.88399	14921.7125
1442.31151	14773.1125
1445.73673	14801.2125
1449.15965	14946.4125
1452.58027	14820.7125
1455.9986	14512.0125
1459.41463	14430.3125
1462.82837	14680.0125
1466.23982	15202.5125
1469.64898	15752.4125
1473.05586	16012.6125
1476.46045	16156.9125
1479.86276	16582.0125
1483.26279	17290.5125
1486.66054	18348.8125
1490.05602	19842.7125
1493.44922	22136.0125
1496.84016	25707.9125
1500.22882	31384.3125
1503.61521	39206.1125
1506.99934	48047.8125
1510.38121	54729.9125
1513.76081	55421.0125
1517.13816	48775.6125
1520.51324	38612.6125
1523.88607	29888.7125
1527.25665	24594.4125
1530.62498	21659.8125
1533.99105	19876.4125
1537.35488	18823.9125
1540.71647	18163.3125
1544.07581	17948.4125
1547.4329	18029.5125
1550.78776	18146.6125
1554.14038	18431.8125
1557.49077	18891.6125
1560.83892	19666.6125
1564.18484	20962.3125
1567.52853	22442.7125
1570.86999	23468.4125
1574.20922	23978.0125
1577.54624	23428.3125
1580.88103	21219.3125
1584.2136	18274.2125
1587.54395	16447.2125
1590.87208	16182.2125
1594.19801	17244.0125
1597.52172	19084.5125
1600.84321	19925.2125
1604.16251	19209.7125
1607.47959	17873.8125
1610.79447	16456.2125
1614.10715	14913.5125
1617.41763	13617.7125
1620.7259	12857.8125
1624.03199	12551.1125
1627.33587	12625.0125
1630.63757	13137.1125
1633.93707	14129.2125
1637.23439	15857.2125
1640.52951	18761.5125
1643.82246	23413.4125
1647.11321	29302.3125
1650.40179	33321.1125
1653.68819	31822.2125
1656.97241	25631.5125
1660.25446	19336.9125
1663.53433	15188.6125
1666.81203	12839.3125
1670.08756	11547.4125
1673.36092	10804.9125
1676.63211	10320.8125
1679.90115	10008.2125
1683.16801	9803.2125
1686.43272	9661.1125
1689.69527	9506.8125
1692.95567	9412.3125
1696.2139	9390.4125
1699.46999	9361.2125
1702.72392	9329.3125
1705.97571	9321.8125
1709.22535	9307.7125
1712.47284	9310.1125
1715.71819	9361.6125
1718.96139	9329.4125
1722.20246	9276.7125
1725.44139	9188.8125
1728.67818	9065.5125
1731.91284	8958.3125
1735.14537	8860.6125
1738.37576	8794.8125
1741.60403	8754.4125
1744.83017	8683.0125
1748.05418	8679.4125
1751.27607	8620.4125
1754.49584	8591.6125
1757.71349	8571.5125
1760.92903	8558.1125
1764.14244	8494.5125
1767.35375	8472.9125
1770.56294	8433.3125
1773.77002	8369.4125
1776.97499	8321.8125
1780.17785	8277.2125
1783.37861	8242.2125
1786.57727	8232.8125
1789.77382	8203.0125
1792.96828	8186.4125
1796.16064	8185.1125
1799.3509	8176.2125
1802.53907	8138.6125
1805.72514	8114.7125
1808.90913	8090.0125
1812.09102	8071.5125
1815.27083	8011.7125
1818.44856	8007.6125
1821.6242	7975.4125
1824.79776	7965.5125
1827.96924	7956.9125
1831.13864	7939.8125
1834.30597	7907.7125
1837.47122	7869.6125
1840.6344	7853.5125
1843.7955	7863.7125
1846.95454	7856.6125
1850.11151	7829.1125
1853.26642	7826.5125
1856.41926	7829.5125
1859.57004	7841.7125
1862.71876	7834.6125
1865.86542	7849.1125
1869.01003	7820.5125
1872.15258	7830.1125
1875.29308	7820.5125
1878.43152	7811.1125
1881.56792	7813.2125
1884.70227	7800.8125
1887.83457	7824.6125
1890.96482	7801.0125
1894.09304	7782.3125
1897.21921	7780.0125
1900.34335	7786.2125
1903.46544	7795.7125
1906.58551	7776.3125
1909.70353	7774.2125
1912.81953	7780.4125
1915.93349	7785.0125
1919.04543	7755.6125
1922.15534	7737.6125
1925.26322	7713.1125
1928.36908	7685.2125
1931.47292	7656.9125
1934.57473	7615.2125
1937.67453	7599.1125
1940.77232	7581.8125
1943.86808	7542.9125
1946.96184	7523.1125
1950.05358	7499.6125
1953.14331	7487.7125
1956.23103	7487.7125
1959.31675	7475.9125
1962.40046	7454.4125
1965.48217	7451.8125
1968.56188	7456.1125
1971.63959	7463.5125
1974.7153	7457.9125
1977.78901	7419.6125
1980.86073	7387.5125
1983.93046	7315.7125
1986.99819	7285.4125
1990.06394	7253.8125
1993.1277	7217.2125
1996.18947	7199.3125
1999.24925	7146.9125
2002.30706	7126.5125
2005.36288	7091.9125
2008.41672	7061.0125
2011.46859	7067.1125
2014.51848	7031.5125
2017.56639	7025.6125
2020.61233	6984.1125
2023.6563	6962.8125
2026.6983	6937.3125
2029.73833	6925.0125
2032.7764	6892.1125
2035.8125	6893.3125
2038.84664	6912.8125
2041.87881	6866.6125
2044.90903	6878.4125
2047.93729	6850.0125
2050.96359	6840.5125
2053.98794	6822.4125
2057.01034	6806.2125
2060.03078	6776.3125
2063.04927	6757.6125
2066.06582	6738.6125
2069.08042	6741.2125
2072.09307	6733.3125
2075.10378	6717.2125
2078.11255	6738.6125
2081.11938	6734.4125
2084.12426	6713.7125
2087.12722	6741.5125
2090.12824	6757.0125
2093.12732	6729.1125
2096.12447	6752.5125
2099.11969	6746.5125
2102.11299	6726.6125
2105.10435	6733.9125
2108.09379	6749.7125
2111.08131	6743.5125
2114.0669	6764.1125
2117.05057	6785.0125
2120.03233	6787.5125
2123.01216	6783.6125
2125.99008	6820.4125
2128.96609	6823.7125
2131.94018	6823.0125
2134.91236	6809.3125
2137.88263	6801.0125
2140.851	6788.6125
2143.81746	6792.6125
2146.78201	6778.8125
2149.74466	6774.0125
2152.7054	6766.0125
2155.66425	6745.0125
2158.6212	6752.2125
2161.57625	6730.4125
2164.52941	6718.1125
2167.48067	6720.5125
2170.43004	6720.6125
2173.37752	6706.6125
2176.32311	6718.6125
2179.26681	6723.3125
2182.20863	6701.0125
2185.14856	6697.1125
2188.08661	6709.1125
2191.02278	6700.9125
2193.95707	6682.4125
2196.88948	6689.5125
2199.82001	6664.6125
2202.74867	6664.9125
2205.67545	6661.4125
2208.60037	6646.9125
2211.52341	6637.5125
2214.44458	6644.7125
2217.36388	6634.6125
2220.28132	6633.5125
2223.1969	6602.3125
2226.11061	6591.3125
2229.02246	6561.5125
2231.93245	6558.6125
2234.84058	6525.5125
2237.74686	6509.3125
2240.65128	6507.6125
2243.55385	6523.0125
2246.45456	6509.0125
2249.35343	6499.6125
2252.25044	6532.1125
2255.14561	6532.0125
2258.03893	6551.9125
2260.93041	6569.5125
2263.82004	6555.5125
2266.70783	6551.5125
2269.59378	6545.9125
2272.4779	6523.9125
2275.36017	6503.5125
2278.24061	6501.4125
2281.11922	6485.5125
2283.996	6455.0125
2286.87094	6432.1125
2289.74405	6411.6125
2292.61534	6401.8125
2295.4848	6370.4125
2298.35243	6371.0125
2301.21824	6346.3125
2304.08223	6356.3125
2306.94439	6354.6125
2309.80474	6339.3125
2312.66327	6351.6125
2315.51999	6325.8125
2318.37489	6325.2125
2321.22797	6329.2125
2324.07925	6316.7125
2326.92871	6329.2125
2329.77637	6299.0125
2332.62222	6315.7125
2335.46626	6290.7125
2338.3085	6310.3125
2341.14893	6324.4125
2343.98756	6333.6125
2346.8244	6324.1125
2349.65943	6351.4125
2352.49267	6366.8125
2355.32411	6361.0125
2358.15376	6387.8125
2360.98161	6419.0125
2363.80768	6420.5125
2366.63195	6466.7125
2369.45444	6451.9125
2372.27514	6463.8125
2375.09405	6433.3125
2377.91118	6417.0125
2380.72652	6367.0125
2383.54009	6358.5125
2386.35187	6325.9125
2389.16188	6272.2125
2391.97011	6262.8125
2394.77657	6222.8125
2397.58125	6208.7125
2400.38416	6170.2125
2403.18529	6160.5125
2405.98466	6153.0125
2408.78226	6128.9125
2411.57809	6104.8125
2414.37216	6070.6125
2417.16446	6093.0125
2419.955	6056.8125
2422.74378	6078.7125
2425.5308	6082.5125
2428.31606	6064.4125
2431.09956	6081.1125
2433.88131	6094.5125
2436.6613	6090.7125
2439.43954	6094.0125
2442.21603	6106.2125
2444.99077	6105.6125
2447.76377	6125.8125
2450.53501	6121.6125
2453.30451	6139.0125
2456.07226	6116.0125
2458.83827	6134.9125
2461.60254	6119.5125
2464.36507	6109.0125
2467.12586	6116.8125
2469.88492	6131.2125
2472.64224	6130.9125
2475.39782	6133.1125
2478.15167	6148.5125
2480.90379	6190.3125
2483.65417	6198.5125
2486.40283	6219.7125
2489.14976	6239.3125
2491.89497	6271.4125
2494.63845	6270.6125
2497.3802	6261.8125
2500.12024	6241.2125
2502.85855	6218.4125
2505.59514	6189.0125
2508.33002	6143.6125
2511.06318	6108.0125
2513.79462	6059.0125
2516.52435	6017.6125
2519.25237	5985.4125
2521.97867	5979.9125
2524.70327	5950.2125
2527.42616	5945.1125
2530.14734	5915.5125
2532.86681	5926.3125
2535.58458	5912.5125
2538.30065	5902.4125
2541.01501	5933.7125
2543.72768	5923.6125
2546.43864	5912.7125
2549.14791	5934.0125
2551.85548	5921.7125
2554.56136	5923.7125
2557.26554	5919.7125
2559.96803	5932.3125
2562.66883	5917.3125
2565.36794	5906.7125
2568.06536	5892.0125
2570.7611	5895.2125
2573.45514	5875.6125
2576.14751	5871.8125
2578.83819	5852.8125
2581.52719	5831.8125
2584.21451	5806.2125
2586.90015	5802.9125
2589.58411	5784.5125
2592.2664	5777.4125
2594.94701	5778.0125
2597.62594	5773.9125
2600.30321	5753.5125
2602.9788	5748.7125
2605.65273	5758.7125
2608.32498	5768.0125
2610.99557	5767.3125
2613.66449	5762.3125
2616.33175	5753.4125
2618.99734	5771.6125
2621.66128	5764.9125
2624.32355	5758.8125
2626.98416	5758.8125
2629.64311	5733.2125
2632.30041	5740.5125
2634.95605	5719.9125
2637.61004	5691.4125
2640.26238	5680.3125
2642.91306	5689.3125
2645.56209	5675.1125
2648.20948	5667.6125
2650.85521	5656.8125
2653.4993	5648.5125
2656.14175	5676.9125
2658.78255	5677.7125
2661.42171	5678.1125
2664.05923	5692.4125
2666.6951	5705.8125
2669.32934	5719.5125
2671.96194	5737.1125
2674.59291	5748.3125
2677.22224	5726.0125
2679.84993	5739.0125
2682.476	5719.4125
2685.10043	5725.0125
2687.72324	5711.1125
2690.34441	5718.2125
2692.96396	5720.3125
2695.58188	5716.2125
2698.19818	5706.5125
2700.81285	5695.6125
2703.4259	5693.8125
2706.03733	5708.6125
2708.64714	5708.3125
2711.25533	5715.0125
2713.86191	5718.8125
2716.46687	5714.0125
2719.07021	5725.3125
2721.67194	5722.6125
2724.27206	5721.5125
2726.87057	5716.9125
2729.46747	5707.6125
2732.06276	5701.1125
2734.65644	5681.4125
2737.24852	5679.8125
2739.83899	5659.4125
2742.42786	5661.0125
2745.01513	5621.8125
2747.60079	5626.0125
2750.18486	5623.8125
2752.76733	5627.7125
2755.3482	5605.8125
2757.92747	5570.4125
2760.50515	5572.3125
2763.08123	5566.5125
2765.65573	5563.8125
2768.22863	5555.7125
2770.79994	5564.9125
2773.36967	5556.6125
2775.9378	5562.0125
2778.50435	5560.6125
2781.06932	5547.1125
2783.6327	5549.9125
2786.1945	5557.9125
2788.75471	5549.4125
2791.31335	5543.4125
2793.87041	5561.4125
2796.42589	5546.3125
2798.97979	5537.9125
2801.53212	5550.1125
2804.08288	5550.8125
2806.63206	5564.9125
2809.17967	5573.3125
2811.72571	5586.7125
2814.27018	5586.1125
2816.81308	5610.4125
2819.35442	5640.5125
2821.89419	5631.5125
2824.43239	5639.5125
2826.96904	5656.2125
2829.50412	5656.4125
2832.03763	5657.4125
2834.56959	5626.8125
2837.1	5636.1125
2839.62884	5623.7125
2842.15613	5616.6125
2844.68186	5652.4125
2847.20604	5657.3125
2849.72867	5669.5125
2852.24974	5687.8125
2854.76927	5675.7125
2857.28724	5690.6125
2859.80367	5713.7125
2862.31855	5726.7125
2864.83189	5745.1125
2867.34368	5751.3125
2869.85393	5752.7125
2872.36264	5779.6125
2874.8698	5761.0125
2877.37543	5757.0125
2879.87952	5756.9125
2882.38207	5755.8125
2884.88308	5738.3125
2887.38256	5707.1125
2889.88051	5705.3125
2892.37692	5708.4125
2894.8718	5694.4125
2897.36515	5687.6125
2899.85698	5694.9125
2902.34727	5689.5125
2904.83604	5680.6125
2907.32328	5698.4125
2909.809	5682.8125
2912.29319	5656.8125
2914.77587	5624.9125
2917.25702	5631.7125
2919.73665	5611.2125
2922.21476	5622.2125
2924.69136	5585.3125
2927.16644	5564.5125
2929.64	5555.6125
2932.11205	5566.9125
2934.58258	5533.0125
2937.05161	5521.4125
2939.51912	5529.2125
2941.98513	5527.3125
2944.44962	5529.4125
2946.91261	5486.6125
2949.37409	5486.3125
2951.83407	5496.9125
2954.29254	5490.1125
2956.74951	5468.7125
2959.20498	5461.8125
2961.65895	5445.6125
2964.11142	5454.3125
2966.56239	5443.3125
2969.01186	5422.5125
2971.45984	5409.0125
2973.90632	5380.9125
2976.35131	5374.7125
2978.7948	5338.4125
2981.23681	5332.1125
2983.67732	5331.2125
2986.11635	5307.6125
2988.55388	5314.2125
2990.98993	5306.5125
2993.4245	5313.7125
2995.85758	5299.9125
2998.28917	5292.6125
3000.71928	5282.5125
3003.14791	5280.4125
3005.57506	5297.6125
3008.00073	5276.4125
3010.42493	5294.3125
3012.84764	5284.6125
3015.26888	5284.9125
3017.68865	5276.4125
3020.10694	5264.2125
3022.52376	5251.6125
3024.9391	5231.4125
3027.35298	5218.2125
3029.76539	5208.7125
3032.17632	5191.0125
3034.5858	5160.4125
3036.9938	5151.4125
3039.40034	5133.5125
3041.80542	5105.9125
3044.20903	5083.5125
3046.61118	5083.0125
3049.01187	5079.3125
3051.4111	5063.5125
3053.80888	5046.5125
3056.20519	5031.0125
3058.60005	5019.7125
3060.99345	5023.9125
3063.3854	5008.3125
3065.7759	4978.1125
3068.16494	4961.9125
3070.55254	4961.5125
3072.93868	4943.2125
3075.32338	4916.5125
3077.70662	4916.9125
3080.08842	4915.3125
3082.46878	4908.9125
