Data from AgNP_FTO_APTES_UA_100uM_CRN_2uM_R6G_10uM_NaF_0.1M_Addition_RamanShift__2__13-47-10-290.txt Node

Date: Thu Mar 24 13:47:10 GMT 2022
User: TCL
Spectrometer: QEP01345
Trigger mode: 4
Integration Time (sec): 7.000000E0
Scans to average: 10
Electric dark correction enabled: true
Nonlinearity correction enabled: false
Boxcar width: 0
XAxis mode: Raman Shifts
Number of Pixels in Spectrum: 1044
>>>>>Begin Spectral Data<<<<<
46.04893	-2.1375
50.45542	0.0625
54.85868	-0.8375
59.25871	-0.0375
63.6555	41.5625
68.04907	46.0625
72.43941	45.4625
76.82654	44.9625
81.21044	49.4625
85.59113	52.2625
89.96862	54.3625
94.34289	47.7625
98.71396	54.7625
103.08183	57.7625
107.4465	59.2625
111.80798	60.5625
116.16626	62.3625
120.52136	61.2625
124.87327	63.2625
129.222	68.0625
133.56755	76.2625
137.90993	79.0625
142.24913	89.5625
146.58517	97.2625
150.91804	114.2625
155.24774	136.7625
159.57429	172.2625
163.89768	221.2625
168.21792	300.3625
172.53501	406.7625
176.84895	572.8625
181.15975	798.6625
185.46741	1117.1625
189.77193	1547.2625
194.07331	2077.1625
198.37157	2681.7625
202.6667	3318.0625
206.9587	3977.4625
211.24758	4637.0625
215.53334	5329.4625
219.81599	6077.8625
224.09553	6912.7625
228.37195	7878.7625
232.64527	8905.4625
236.91549	9916.6625
241.18261	10850.3625
245.44663	11558.1625
249.70755	12106.4625
253.96539	12527.4625
258.22014	12869.2625
262.4718	13234.0625
266.72039	13483.3625
270.96589	13588.6625
275.20832	13541.6625
279.44768	13384.9625
283.68397	13239.7625
287.91719	13176.8625
292.14735	13242.2625
296.37445	13408.0625
300.59849	13812.8625
304.81948	14336.4625
309.03742	14815.1625
313.25231	14935.1625
317.46415	14566.6625
321.67296	13783.9625
325.87872	13012.2625
330.08145	12621.3625
334.28114	12523.2625
338.47781	12658.9625
342.67145	12946.1625
346.86207	13311.1625
351.04966	13876.3625
355.23424	14391.3625
359.4158	14760.6625
363.59435	14929.7625
367.76989	14866.9625
371.94243	14734.3625
376.11196	14625.5625
380.27849	14526.8625
384.44203	14485.3625
388.60257	14443.4625
392.76012	14477.9625
396.91468	14627.5625
401.06626	14920.4625
405.21485	15120.8625
409.36047	14831.6625
413.50311	14186.9625
417.64277	13558.3625
421.77947	13283.4625
425.9132	13201.5625
430.04396	13267.2625
434.17176	13345.2625
438.2966	13517.9625
442.41849	13856.8625
446.53742	14379.3625
450.6534	14942.1625
454.76644	15231.6625
458.87653	15240.0625
462.98368	14999.1625
467.08789	14748.4625
471.18916	14404.4625
475.2875	14098.1625
479.38291	13816.2625
483.4754	13593.5625
487.56496	13377.4625
491.6516	13172.9625
495.73531	12987.6625
499.81612	12905.2625
503.89401	13006.3625
507.96899	13086.5625
512.04106	13133.2625
516.11023	13137.3625
520.1765	13109.6625
524.23987	13095.8625
528.30034	13005.2625
532.35792	12877.2625
536.41261	12597.0625
540.46441	12289.6625
544.51333	12142.4625
548.55936	12299.1625
552.60252	12682.0625
556.64279	13233.8625
560.6802	13604.5625
564.71473	13920.1625
568.7464	14514.6625
572.7752	15252.9625
576.80114	15511.8625
580.82422	15575.8625
584.84444	15831.5625
588.86181	16398.1625
592.87633	17108.4625
596.888	17323.8625
600.89682	16769.3625
604.9028	17146.7625
608.90594	20309.0625
612.90624	24575.8625
616.90371	23194.4625
620.89834	16450.0625
624.89015	13143.9625
628.87913	12580.3625
632.86528	12855.3625
636.84862	13160.0625
640.82913	12841.2625
644.80683	12128.8625
648.78172	11627.8625
652.75379	11597.0625
656.72306	12051.6625
660.68952	12642.8625
664.65319	12442.0625
668.61405	11828.6625
672.57211	11503.9625
676.52738	11515.7625
680.47986	11496.9625
684.42955	11341.9625
688.37646	11233.2625
692.32058	11252.2625
696.26192	11445.9625
700.20048	11688.6625
704.13626	11858.4625
708.06928	11910.5625
711.99952	11828.0625
715.927	11818.7625
719.85171	11888.2625
723.77365	11856.5625
727.69284	11650.9625
731.60928	11484.7625
735.52295	11466.4625
739.43388	11513.1625
743.34206	11585.9625
747.24749	11693.5625
751.15017	11840.1625
755.05012	12156.1625
758.94733	12886.0625
762.8418	14534.8625
766.73354	17327.7625
770.62254	19933.6625
774.50882	20559.8625
778.39237	19068.3625
782.27321	16502.4625
786.15132	14153.7625
790.02671	12688.5625
793.89938	11933.1625
797.76935	11589.6625
801.6366	11404.2625
805.50115	11295.3625
809.36299	11186.6625
813.22213	11138.8625
817.07857	11090.3625
820.93231	11072.7625
824.78336	11054.1625
828.63172	11049.2625
832.47738	11016.2625
836.32036	10984.3625
840.16066	10932.6625
843.99827	10899.3625
847.8332	10891.8625
851.66546	10890.7625
855.49504	10907.3625
859.32195	10904.5625
863.1462	10840.7625
866.96777	10763.2625
870.78668	10768.7625
874.60293	10777.8625
878.41652	10810.8625
882.22745	10913.4625
886.03573	10974.7625
889.84136	10977.4625
893.64433	10909.8625
897.44466	10879.4625
901.24235	10858.7625
905.0374	10742.9625
908.8298	10683.7625
912.61957	10655.5625
916.40671	10740.7625
920.19121	10934.8625
923.97308	11156.7625
927.75233	11256.8625
931.52895	11207.5625
935.30295	10963.9625
939.07433	10515.1625
942.84309	10230.3625
946.60924	10025.8625
950.37278	9971.1625
954.13371	9965.0625
957.89203	9952.8625
961.64774	9953.0625
965.40086	9942.6625
969.15137	9922.4625
972.89929	9892.4625
976.64461	9815.5625
980.38733	9804.1625
984.12747	9840.7625
987.86502	9875.2625
991.59999	9978.0625
995.33237	10114.1625
999.06217	10379.7625
1002.78939	10737.6625
1006.51404	11169.1625
1010.23611	11544.6625
1013.95561	11751.9625
1017.67255	11705.7625
1021.38692	11417.8625
1025.09872	10964.6625
1028.80796	10701.5625
1032.51465	10639.3625
1036.21877	10756.6625
1039.92035	10851.1625
1043.61937	10951.5625
1047.31584	11005.3625
1051.00976	10993.1625
1054.70114	11014.6625
1058.38998	11046.5625
1062.07627	11144.0625
1065.76003	11240.3625
1069.44126	11465.7625
1073.11995	11765.6625
1076.79611	12073.7625
1080.46974	12308.7625
1084.14085	12612.1625
1087.80943	12991.6625
1091.47549	13180.0625
1095.13903	13070.5625
1098.80005	12649.3625
1102.45857	12148.1625
1106.11456	11826.4625
1109.76805	11763.0625
1113.41903	11941.0625
1117.06751	12333.1625
1120.71348	12818.1625
1124.35696	13432.9625
1127.99793	13933.9625
1131.63641	13876.2625
1135.2724	13354.9625
1138.90589	12855.5625
1142.5369	12637.1625
1146.16542	12560.0625
1149.79145	12582.1625
1153.415	12665.7625
1157.03607	12889.0625
1160.65467	13242.3625
1164.27079	13947.8625
1167.88443	14985.9625
1171.49561	16583.8625
1175.10432	19035.4625
1178.71056	22060.4625
1182.31434	24422.8625
1185.91565	24943.1625
1189.51451	23943.7625
1193.11091	22480.2625
1196.70485	20851.4625
1200.29634	19453.9625
1203.88538	18261.6625
1207.47197	17161.1625
1211.05612	16252.9625
1214.63782	15614.2625
1218.21708	15327.4625
1221.79391	15281.9625
1225.36829	15408.8625
1228.94024	15312.6625
1232.50976	14903.3625
1236.07685	14392.3625
1239.6415	14079.9625
1243.20374	13980.8625
1246.76355	14095.1625
1250.32093	14282.5625
1253.8759	14659.1625
1257.42845	15253.8625
1260.97859	15949.7625
1264.52631	16668.7625
1268.07163	17411.6625
1271.61453	18083.0625
1275.15503	18669.0625
1278.69312	19153.7625
1282.22882	19780.9625
1285.76211	20784.3625
1289.29301	22069.1625
1292.82151	23533.9625
1296.34761	25133.6625
1299.87133	27181.6625
1303.39266	29698.3625
1306.9116	32819.7625
1310.42815	35871.6625
1313.94233	37216.9625
1317.45412	36101.9625
1320.96354	33735.3625
1324.47058	31442.2625
1327.97525	29493.7625
1331.47754	28047.7625
1334.97747	27089.9625
1338.47502	26564.4625
1341.97022	26529.4625
1345.46305	26934.5625
1348.95352	27850.1625
1352.44163	29393.2625
1355.92738	32065.4625
1359.41078	36248.4625
1362.89183	40297.3625
1366.37053	39719.2625
1369.84688	34034.2625
1373.32088	27818.2625
1376.79254	24016.5625
1380.26186	22351.1625
1383.72883	21640.9625
1387.19347	21102.2625
1390.65578	20588.0625
1394.11575	20207.1625
1397.57339	20161.2625
1401.0287	20179.2625
1404.48168	20024.2625
1407.93234	19648.4625
1411.38068	19132.9625
1414.82669	18510.3625
1418.27039	17841.3625
1421.71177	17148.9625
1425.15083	16462.0625
1428.58758	16139.7625
1432.02203	16352.7625
1435.45416	16871.8625
1438.88399	17328.1625
1442.31151	17577.4625
1445.73673	17843.7625
1449.15965	18074.5625
1452.58027	18177.6625
1455.9986	18089.2625
1459.41463	18228.5625
1462.82837	18531.1625
1466.23982	19061.7625
1469.64898	19621.7625
1473.05586	20053.5625
1476.46045	20237.7625
1479.86276	20434.8625
1483.26279	20662.6625
1486.66054	21066.4625
1490.05602	21784.1625
1493.44922	22916.8625
1496.84016	24498.4625
1500.22882	26866.7625
1503.61521	29992.7625
1506.99934	33388.3625
1510.38121	35819.6625
1513.76081	35941.0625
1517.13816	33193.5625
1520.51324	29252.3625
1523.88607	25990.4625
1527.25665	24060.6625
1530.62498	23125.2625
1533.99105	22532.0625
1537.35488	21902.0625
1540.71647	21094.1625
1544.07581	20184.8625
1547.4329	19375.8625
1550.78776	18753.3625
1554.14038	18417.7625
1557.49077	18376.9625
1560.83892	18699.3625
1564.18484	19300.1625
1567.52853	20170.5625
1570.86999	20898.6625
1574.20922	21450.5625
1577.54624	21384.0625
1580.88103	20430.6625
1584.2136	19172.9625
1587.54395	18874.5625
1590.87208	19495.6625
1594.19801	21000.8625
1597.52172	22714.9625
1600.84321	23243.9625
1604.16251	22018.7625
1607.47959	19939.7625
1610.79447	17821.8625
1614.10715	15957.4625
1617.41763	14486.8625
1620.7259	13549.4625
1624.03199	13129.8625
1627.33587	13127.7625
1630.63757	13610.8625
1633.93707	14750.5625
1637.23439	16842.2625
1640.52951	20259.3625
1643.82246	24849.6625
1647.11321	29481.6625
1650.40179	31664.1625
1653.68819	29640.5625
1656.97241	24527.1625
1660.25446	19185.8625
1663.53433	15319.0625
1666.81203	12982.0625
1670.08756	11613.6625
1673.36092	10842.0625
1676.63211	10337.0625
1679.90115	9996.0625
1683.16801	9759.7625
1686.43272	9586.9625
1689.69527	9431.5625
1692.95567	9324.9625
1696.2139	9268.3625
1699.46999	9223.6625
1702.72392	9169.3625
1705.97571	9102.2625
1709.22535	9081.9625
1712.47284	9070.8625
1715.71819	9051.3625
1718.96139	9017.4625
1722.20246	8956.7625
1725.44139	8893.4625
1728.67818	8768.1625
1731.91284	8684.0625
1735.14537	8580.6625
1738.37576	8526.7625
1741.60403	8476.6625
1744.83017	8435.9625
1748.05418	8411.7625
1751.27607	8390.1625
1754.49584	8365.6625
1757.71349	8354.9625
1760.92903	8325.3625
1764.14244	8305.9625
1767.35375	8280.8625
1770.56294	8261.0625
1773.77002	8224.2625
1776.97499	8186.2625
1780.17785	8183.7625
1783.37861	8122.6625
1786.57727	8103.8625
1789.77382	8060.3625
1792.96828	8049.6625
1796.16064	8023.0625
1799.3509	8026.3625
1802.53907	7979.1625
1805.72514	7941.7625
1808.90913	7919.3625
1812.09102	7879.8625
1815.27083	7869.7625
1818.44856	7840.7625
1821.6242	7828.9625
1824.79776	7800.6625
1827.96924	7771.7625
1831.13864	7766.4625
1834.30597	7745.4625
1837.47122	7733.1625
1840.6344	7722.2625
1843.7955	7723.5625
1846.95454	7699.4625
1850.11151	7677.0625
1853.26642	7671.3625
1856.41926	7664.6625
1859.57004	7645.7625
1862.71876	7647.7625
1865.86542	7642.4625
1869.01003	7628.7625
1872.15258	7610.3625
1875.29308	7600.8625
1878.43152	7603.0625
1881.56792	7607.0625
1884.70227	7602.8625
1887.83457	7602.6625
1890.96482	7599.6625
1894.09304	7577.5625
1897.21921	7569.0625
1900.34335	7562.2625
1903.46544	7566.5625
1906.58551	7572.9625
1909.70353	7557.6625
1912.81953	7542.5625
1915.93349	7546.4625
1919.04543	7499.7625
1922.15534	7488.9625
1925.26322	7455.9625
1928.36908	7445.8625
1931.47292	7415.2625
1934.57473	7390.7625
1937.67453	7383.8625
1940.77232	7342.2625
1943.86808	7324.8625
1946.96184	7309.3625
1950.05358	7287.2625
1953.14331	7258.6625
1956.23103	7233.1625
1959.31675	7229.5625
1962.40046	7210.5625
1965.48217	7187.1625
1968.56188	7163.0625
1971.63959	7152.0625
1974.7153	7140.1625
1977.78901	7096.5625
1980.86073	7066.4625
1983.93046	7046.8625
1986.99819	7019.9625
1990.06394	6986.2625
1993.1277	6951.6625
1996.18947	6933.1625
1999.24925	6913.1625
2002.30706	6877.5625
2005.36288	6849.1625
2008.41672	6825.5625
2011.46859	6790.7625
2014.51848	6770.7625
2017.56639	6766.2625
2020.61233	6727.2625
2023.6563	6723.0625
2026.6983	6707.4625
2029.73833	6666.6625
2032.7764	6669.1625
2035.8125	6642.9625
2038.84664	6620.1625
2041.87881	6622.0625
2044.90903	6606.8625
2047.93729	6590.1625
2050.96359	6578.2625
2053.98794	6562.7625
2057.01034	6557.2625
2060.03078	6542.5625
2063.04927	6528.0625
2066.06582	6509.1625
2069.08042	6511.8625
2072.09307	6505.0625
2075.10378	6504.0625
2078.11255	6505.5625
2081.11938	6493.7625
2084.12426	6479.8625
2087.12722	6492.2625
2090.12824	6516.6625
2093.12732	6489.4625
2096.12447	6509.6625
2099.11969	6508.7625
2102.11299	6515.7625
2105.10435	6482.7625
2108.09379	6469.9625
2111.08131	6490.7625
2114.0669	6498.5625
2117.05057	6503.6625
2120.03233	6498.2625
2123.01216	6500.2625
2125.99008	6510.8625
2128.96609	6509.9625
2131.94018	6494.9625
2134.91236	6505.0625
2137.88263	6491.9625
2140.851	6483.8625
2143.81746	6498.5625
2146.78201	6478.4625
2149.74466	6467.5625
2152.7054	6469.8625
2155.66425	6474.4625
2158.6212	6449.2625
2161.57625	6441.3625
2164.52941	6444.2625
2167.48067	6437.9625
2170.43004	6408.0625
2173.37752	6427.4625
2176.32311	6399.2625
2179.26681	6408.2625
2182.20863	6398.0625
2185.14856	6402.8625
2188.08661	6381.6625
2191.02278	6388.1625
2193.95707	6365.7625
2196.88948	6348.6625
2199.82001	6351.4625
2202.74867	6357.6625
2205.67545	6344.2625
2208.60037	6324.4625
2211.52341	6298.3625
2214.44458	6284.8625
2217.36388	6293.5625
2220.28132	6288.4625
2223.1969	6265.0625
2226.11061	6267.1625
2229.02246	6229.0625
2231.93245	6243.6625
2234.84058	6230.9625
2237.74686	6193.6625
2240.65128	6197.1625
2243.55385	6199.8625
2246.45456	6171.9625
2249.35343	6160.9625
2252.25044	6166.7625
2255.14561	6164.3625
2258.03893	6148.8625
2260.93041	6153.5625
2263.82004	6145.6625
2266.70783	6125.2625
2269.59378	6106.4625
2272.4779	6095.2625
2275.36017	6070.3625
2278.24061	6074.1625
2281.11922	6062.9625
2283.996	6049.2625
2286.87094	6023.6625
2289.74405	6018.8625
2292.61534	5991.4625
2295.4848	5971.4625
2298.35243	5961.0625
2301.21824	5959.5625
2304.08223	5957.0625
2306.94439	5964.1625
2309.80474	5947.6625
2312.66327	5944.2625
2315.51999	5935.0625
2318.37489	5932.6625
2321.22797	5921.7625
2324.07925	5913.0625
2326.92871	5908.3625
2329.77637	5919.9625
2332.62222	5908.5625
2335.46626	5905.9625
2338.3085	5890.9625
2341.14893	5916.8625
2343.98756	5891.7625
2346.8244	5909.1625
2349.65943	5911.4625
2352.49267	5913.0625
2355.32411	5923.3625
2358.15376	5929.7625
2360.98161	5947.6625
2363.80768	5945.6625
2366.63195	5961.7625
2369.45444	5957.8625
2372.27514	5945.7625
2375.09405	5929.5625
2377.91118	5928.8625
2380.72652	5902.4625
2383.54009	5878.0625
2386.35187	5863.6625
2389.16188	5835.1625
2391.97011	5825.2625
2394.77657	5803.4625
2397.58125	5798.0625
2400.38416	5770.2625
2403.18529	5745.0625
2405.98466	5737.1625
2408.78226	5731.3625
2411.57809	5719.4625
2414.37216	5703.1625
2417.16446	5708.7625
2419.955	5684.9625
2422.74378	5690.2625
2425.5308	5683.7625
2428.31606	5654.3625
2431.09956	5697.5625
2433.88131	5677.4625
2436.6613	5668.3625
2439.43954	5686.9625
2442.21603	5677.7625
2444.99077	5689.4625
2447.76377	5700.6625
2450.53501	5685.2625
2453.30451	5706.8625
2456.07226	5682.2625
2458.83827	5690.7625
2461.60254	5690.8625
2464.36507	5687.9625
2467.12586	5697.9625
2469.88492	5717.1625
2472.64224	5706.6625
2475.39782	5721.0625
2478.15167	5727.3625
2480.90379	5713.3625
2483.65417	5734.9625
2486.40283	5759.9625
2489.14976	5769.4625
2491.89497	5753.9625
2494.63845	5780.0625
2497.3802	5769.6625
2500.12024	5771.3625
2502.85855	5747.2625
2505.59514	5738.9625
2508.33002	5708.5625
2511.06318	5690.8625
2513.79462	5664.4625
2516.52435	5648.0625
2519.25237	5634.4625
2521.97867	5622.2625
2524.70327	5624.3625
2527.42616	5608.2625
2530.14734	5597.8625
2532.86681	5579.8625
2535.58458	5579.3625
2538.30065	5583.4625
2541.01501	5569.0625
2543.72768	5569.3625
2546.43864	5579.4625
2549.14791	5575.7625
2551.85548	5545.1625
2554.56136	5556.5625
2557.26554	5550.9625
2559.96803	5558.1625
2562.66883	5545.3625
2565.36794	5567.4625
2568.06536	5572.0625
2570.7611	5546.3625
2573.45514	5540.2625
2576.14751	5529.3625
2578.83819	5536.5625
2581.52719	5515.3625
2584.21451	5503.3625
2586.90015	5504.0625
2589.58411	5491.6625
2592.2664	5496.2625
2594.94701	5465.2625
2597.62594	5456.8625
2600.30321	5482.4625
2602.9788	5473.5625
2605.65273	5463.2625
2608.32498	5473.0625
2610.99557	5464.2625
2613.66449	5470.5625
2616.33175	5465.0625
2618.99734	5474.0625
2621.66128	5466.2625
2624.32355	5446.3625
2626.98416	5444.2625
2629.64311	5433.8625
2632.30041	5439.4625
2634.95605	5441.7625
2637.61004	5428.6625
2640.26238	5412.4625
2642.91306	5425.8625
2645.56209	5416.0625
2648.20948	5415.4625
2650.85521	5426.3625
2653.4993	5415.8625
2656.14175	5401.0625
2658.78255	5443.0625
2661.42171	5437.5625
2664.05923	5438.5625
2666.6951	5439.9625
2669.32934	5453.5625
2671.96194	5457.8625
2674.59291	5429.0625
2677.22224	5445.6625
2679.84993	5438.4625
2682.476	5447.2625
2685.10043	5439.6625
2687.72324	5425.1625
2690.34441	5430.8625
2692.96396	5426.2625
2695.58188	5439.6625
2698.19818	5431.0625
2700.81285	5418.0625
2703.4259	5418.0625
2706.03733	5428.6625
2708.64714	5408.3625
2711.25533	5451.3625
2713.86191	5442.2625
2716.46687	5432.0625
2719.07021	5431.1625
2721.67194	5459.0625
2724.27206	5448.9625
2726.87057	5447.9625
2729.46747	5446.3625
2732.06276	5456.4625
2734.65644	5425.5625
2737.24852	5439.8625
2739.83899	5420.8625
2742.42786	5427.9625
2745.01513	5386.8625
2747.60079	5418.8625
2750.18486	5403.2625
2752.76733	5394.4625
2755.3482	5391.4625
2757.92747	5391.0625
2760.50515	5369.2625
2763.08123	5372.3625
2765.65573	5364.7625
2768.22863	5364.8625
2770.79994	5357.6625
2773.36967	5367.0625
2775.9378	5374.7625
2778.50435	5369.4625
2781.06932	5371.6625
2783.6327	5358.3625
2786.1945	5354.6625
2788.75471	5353.5625
2791.31335	5334.6625
2793.87041	5346.5625
2796.42589	5330.5625
2798.97979	5329.3625
2801.53212	5319.0625
2804.08288	5332.0625
2806.63206	5332.9625
2809.17967	5329.3625
2811.72571	5326.5625
2814.27018	5343.2625
2816.81308	5327.2625
2819.35442	5329.7625
2821.89419	5329.4625
2824.43239	5324.8625
2826.96904	5327.7625
2829.50412	5315.4625
2832.03763	5325.6625
2834.56959	5303.0625
2837.1	5304.6625
2839.62884	5295.2625
2842.15613	5291.8625
2844.68186	5311.5625
2847.20604	5316.9625
2849.72867	5322.5625
2852.24974	5314.3625
2854.76927	5322.7625
2857.28724	5321.4625
2859.80367	5332.9625
2862.31855	5335.1625
2864.83189	5341.3625
2867.34368	5360.4625
2869.85393	5350.7625
2872.36264	5350.2625
2874.8698	5356.7625
2877.37543	5353.6625
2879.87952	5360.6625
2882.38207	5356.1625
2884.88308	5337.7625
2887.38256	5366.7625
2889.88051	5330.5625
2892.37692	5333.8625
2894.8718	5329.6625
2897.36515	5341.2625
2899.85698	5342.7625
2902.34727	5351.8625
2904.83604	5364.6625
2907.32328	5382.5625
2909.809	5369.9625
2912.29319	5383.0625
2914.77587	5363.2625
2917.25702	5385.7625
2919.73665	5344.8625
2922.21476	5352.8625
2924.69136	5341.8625
2927.16644	5331.8625
2929.64	5313.4625
2932.11205	5316.4625
2934.58258	5284.1625
2937.05161	5282.0625
2939.51912	5271.6625
2941.98513	5292.3625
2944.44962	5252.4625
2946.91261	5231.6625
2949.37409	5221.6625
2951.83407	5218.7625
2954.29254	5212.6625
2956.74951	5212.7625
2959.20498	5211.0625
2961.65895	5186.1625
2964.11142	5181.4625
2966.56239	5177.9625
2969.01186	5163.0625
2971.45984	5129.0625
2973.90632	5102.9625
2976.35131	5100.9625
2978.7948	5095.8625
2981.23681	5069.7625
2983.67732	5048.4625
2986.11635	5045.7625
2988.55388	5025.8625
2990.98993	5020.0625
2993.4245	5022.5625
2995.85758	4998.5625
2998.28917	4984.8625
3000.71928	4986.7625
3003.14791	4995.1625
3005.57506	4959.6625
3008.00073	4953.5625
3010.42493	4961.1625
3012.84764	4949.2625
3015.26888	4939.7625
3017.68865	4924.9625
3020.10694	4915.5625
3022.52376	4897.6625
3024.9391	4879.9625
3027.35298	4882.4625
3029.76539	4872.8625
3032.17632	4875.0625
3034.5858	4852.1625
3036.9938	4853.2625
3039.40034	4828.6625
3041.80542	4814.7625
3044.20903	4816.8625
3046.61118	4808.5625
3049.01187	4804.2625
3051.4111	4791.8625
3053.80888	4783.2625
3056.20519	4781.6625
3058.60005	4755.6625
3060.99345	4754.0625
3063.3854	4760.0625
3065.7759	4726.7625
3068.16494	4723.1625
3070.55254	4717.2625
3072.93868	4700.1625
3075.32338	4667.5625
3077.70662	4659.9625
3080.08842	4663.9625
3082.46878	4663.2625
