Data from AgNP_FTO_APTES_UA_100uM_CRN_20uM_R6G_10uM_NaF_0.1M_Addition_RamanShift__5__16-31-40-479.txt Node

Date: Thu Mar 24 16:31:40 GMT 2022
User: TCL
Spectrometer: QEP01345
Trigger mode: 4
Integration Time (sec): 7.000000E0
Scans to average: 10
Electric dark correction enabled: true
Nonlinearity correction enabled: false
Boxcar width: 0
XAxis mode: Raman Shifts
Number of Pixels in Spectrum: 1044
>>>>>Begin Spectral Data<<<<<
46.04893	-2.1125
50.45542	-0.3125
54.85868	-0.7125
59.25871	1.1875
63.6555	38.2875
68.04907	40.5875
72.43941	36.8875
76.82654	39.1875
81.21044	44.9875
85.59113	43.9875
89.96862	46.2875
94.34289	45.1875
98.71396	48.2875
103.08183	50.1875
107.4465	52.6875
111.80798	53.3875
116.16626	53.7875
120.52136	55.9875
124.87327	56.9875
129.222	60.9875
133.56755	64.2875
137.90993	68.8875
142.24913	79.7875
146.58517	88.8875
150.91804	105.6875
155.24774	129.9875
159.57429	164.4875
163.89768	207.7875
168.21792	282.0875
172.53501	387.5875
176.84895	549.7875
181.15975	774.3875
185.46741	1093.6875
189.77193	1510.7875
194.07331	2029.2875
198.37157	2621.0875
202.6667	3247.9875
206.9587	3860.7875
211.24758	4497.4875
215.53334	5165.0875
219.81599	5894.9875
224.09553	6699.2875
228.37195	7561.7875
232.64527	8549.9875
236.91549	9521.5875
241.18261	10431.1875
245.44663	11194.0875
249.70755	11751.7875
253.96539	12210.1875
258.22014	12648.3875
262.4718	13003.7875
266.72039	13245.1875
270.96589	13375.6875
275.20832	13324.2875
279.44768	13143.0875
283.68397	12947.7875
287.91719	12813.7875
292.14735	12783.1875
296.37445	12938.0875
300.59849	13269.5875
304.81948	13703.3875
309.03742	14060.5875
313.25231	14135.3875
317.46415	13805.4875
321.67296	13190.5875
325.87872	12623.6875
330.08145	12332.7875
334.28114	12319.9875
338.47781	12470.6875
342.67145	12713.3875
346.86207	13057.4875
351.04966	13531.7875
355.23424	14099.7875
359.4158	14418.4875
363.59435	14552.3875
367.76989	14602.7875
371.94243	14530.8875
376.11196	14481.5875
380.27849	14426.2875
384.44203	14399.5875
388.60257	14378.2875
392.76012	14410.3875
396.91468	14549.2875
401.06626	14822.8875
405.21485	14991.7875
409.36047	14733.8875
413.50311	14169.9875
417.64277	13663.7875
421.77947	13415.4875
425.9132	13361.0875
430.04396	13390.5875
434.17176	13463.2875
438.2966	13660.3875
442.41849	14058.6875
446.53742	14589.2875
450.6534	15138.2875
454.76644	15450.3875
458.87653	15384.8875
462.98368	15173.0875
467.08789	14854.1875
471.18916	14524.3875
475.2875	14173.7875
479.38291	13880.7875
483.4754	13617.8875
487.56496	13419.1875
491.6516	13226.1875
495.73531	13106.5875
499.81612	13067.4875
503.89401	13165.4875
507.96899	13233.3875
512.04106	13275.6875
516.11023	13330.5875
520.1765	13368.3875
524.23987	13385.0875
528.30034	13372.4875
532.35792	13279.1875
536.41261	13085.9875
540.46441	12827.8875
544.51333	12696.1875
548.55936	12782.4875
552.60252	13059.8875
556.64279	13496.7875
560.6802	13779.4875
564.71473	13952.3875
568.7464	14353.9875
572.7752	14770.0875
576.80114	14841.2875
580.82422	14911.9875
584.84444	15247.7875
588.86181	15943.6875
592.87633	16840.8875
596.888	17281.3875
600.89682	16795.5875
604.9028	17125.8875
608.90594	19986.0875
612.90624	23735.3875
616.90371	22165.1875
620.89834	16318.3875
624.89015	13639.7875
628.87913	13199.1875
632.86528	13429.7875
636.84862	13617.5875
640.82913	13354.2875
644.80683	12707.5875
648.78172	12283.9875
652.75379	12276.5875
656.72306	12692.4875
660.68952	13196.2875
664.65319	12992.1875
668.61405	12409.2875
672.57211	12213.5875
676.52738	12272.8875
680.47986	12211.6875
684.42955	12063.2875
688.37646	11978.5875
692.32058	12020.5875
696.26192	12208.8875
700.20048	12448.8875
704.13626	12595.5875
708.06928	12599.4875
711.99952	12506.1875
715.927	12478.7875
719.85171	12534.7875
723.77365	12563.7875
727.69284	12428.0875
731.60928	12319.8875
735.52295	12336.8875
739.43388	12386.8875
743.34206	12433.8875
747.24749	12424.5875
751.15017	12532.2875
755.05012	12739.9875
758.94733	13306.2875
762.8418	14639.5875
766.73354	16841.2875
770.62254	18913.4875
774.50882	19558.2875
778.39237	18516.4875
782.27321	16450.1875
786.15132	14397.8875
790.02671	13134.5875
793.89938	12556.8875
797.76935	12244.7875
801.6366	12106.9875
805.50115	12026.0875
809.36299	11949.6875
813.22213	11891.3875
817.07857	11836.3875
820.93231	11800.7875
824.78336	11798.1875
828.63172	11821.2875
832.47738	11804.2875
836.32036	11757.2875
840.16066	11722.1875
843.99827	11721.6875
847.8332	11715.6875
851.66546	11696.2875
855.49504	11710.1875
859.32195	11714.7875
863.1462	11658.5875
866.96777	11648.1875
870.78668	11627.7875
874.60293	11659.7875
878.41652	11694.0875
882.22745	11782.7875
886.03573	11891.9875
889.84136	11873.3875
893.64433	11796.2875
897.44466	11724.1875
901.24235	11694.9875
905.0374	11616.6875
908.8298	11541.0875
912.61957	11475.2875
916.40671	11548.9875
920.19121	11684.2875
923.97308	11863.2875
927.75233	11970.8875
931.52895	11992.9875
935.30295	11808.5875
939.07433	11458.4875
942.84309	11215.4875
946.60924	11074.1875
950.37278	11007.0875
954.13371	11036.0875
957.89203	10965.3875
961.64774	10979.1875
965.40086	10964.8875
969.15137	10962.3875
972.89929	10923.7875
976.64461	10912.8875
980.38733	10914.0875
984.12747	10936.6875
987.86502	11008.7875
991.59999	11082.5875
995.33237	11272.0875
999.06217	11532.1875
1002.78939	11894.1875
1006.51404	12277.0875
1010.23611	12565.4875
1013.95561	12730.6875
1017.67255	12694.2875
1021.38692	12419.0875
1025.09872	12090.9875
1028.80796	11834.1875
1032.51465	11793.7875
1036.21877	11874.5875
1039.92035	11976.3875
1043.61937	12028.0875
1047.31584	12022.9875
1051.00976	12000.0875
1054.70114	11944.2875
1058.38998	11958.9875
1062.07627	11994.8875
1065.76003	12120.9875
1069.44126	12274.3875
1073.11995	12553.1875
1076.79611	12846.2875
1080.46974	13073.4875
1084.14085	13364.2875
1087.80943	13652.1875
1091.47549	13809.1875
1095.13903	13662.3875
1098.80005	13303.7875
1102.45857	12925.1875
1106.11456	12726.0875
1109.76805	12745.8875
1113.41903	12925.1875
1117.06751	13272.9875
1120.71348	13736.2875
1124.35696	14235.9875
1127.99793	14641.6875
1131.63641	14608.0875
1135.2724	14131.1875
1138.90589	13708.0875
1142.5369	13444.5875
1146.16542	13359.2875
1149.79145	13326.6875
1153.415	13373.2875
1157.03607	13503.3875
1160.65467	13831.0875
1164.27079	14418.3875
1167.88443	15343.3875
1171.49561	16708.8875
1175.10432	18724.5875
1178.71056	21300.9875
1182.31434	23438.1875
1185.91565	24020.6875
1189.51451	23172.5875
1193.11091	21838.9875
1196.70485	20398.3875
1200.29634	19151.6875
1203.88538	18200.0875
1207.47197	17184.3875
1211.05612	16365.0875
1214.63782	15905.3875
1218.21708	15679.4875
1221.79391	15687.2875
1225.36829	15755.7875
1228.94024	15601.5875
1232.50976	15260.4875
1236.07685	14878.8875
1239.6415	14702.3875
1243.20374	14752.7875
1246.76355	14868.0875
1250.32093	15026.0875
1253.8759	15367.0875
1257.42845	15843.1875
1260.97859	16458.1875
1264.52631	17136.4875
1268.07163	17839.4875
1271.61453	18397.9875
1275.15503	18783.9875
1278.69312	19147.6875
1282.22882	19594.0875
1285.76211	20348.3875
1289.29301	21440.0875
1292.82151	22586.5875
1296.34761	23892.7875
1299.87133	25508.9875
1303.39266	27724.8875
1306.9116	30399.4875
1310.42815	33058.8875
1313.94233	34323.0875
1317.45412	33301.2875
1320.96354	31179.9875
1324.47058	29006.8875
1327.97525	27103.5875
1331.47754	25704.9875
1334.97747	24942.6875
1338.47502	24716.7875
1341.97022	24849.7875
1345.46305	25400.6875
1348.95352	26401.4875
1352.44163	28000.6875
1355.92738	30516.5875
1359.41078	34322.2875
1362.89183	37747.2875
1366.37053	36772.5875
1369.84688	31504.5875
1373.32088	26044.1875
1376.79254	22910.7875
1380.26186	21605.4875
1383.72883	20981.9875
1387.19347	20358.5875
1390.65578	19701.6875
1394.11575	19289.3875
1397.57339	19181.6875
1401.0287	19202.7875
1404.48168	19210.1875
1407.93234	19103.4875
1411.38068	18821.4875
1414.82669	18496.1875
1418.27039	18068.0875
1421.71177	17532.7875
1425.15083	16997.1875
1428.58758	16791.2875
1432.02203	17072.8875
1435.45416	17521.5875
1438.88399	17903.3875
1442.31151	18093.6875
1445.73673	18224.4875
1449.15965	18325.5875
1452.58027	18305.0875
1455.9986	18102.8875
1459.41463	18068.0875
1462.82837	18355.5875
1466.23982	18915.5875
1469.64898	19569.1875
1473.05586	20078.7875
1476.46045	20452.3875
1479.86276	20702.0875
1483.26279	20925.7875
1486.66054	21288.0875
1490.05602	21967.7875
1493.44922	22973.4875
1496.84016	24121.6875
1500.22882	25839.9875
1503.61521	28209.9875
1506.99934	30837.2875
1510.38121	32687.3875
1513.76081	32493.8875
1517.13816	30044.4875
1520.51324	26618.8875
1523.88607	23869.3875
1527.25665	22230.1875
1530.62498	21497.9875
1533.99105	21040.1875
1537.35488	20536.1875
1540.71647	19986.7875
1544.07581	19396.3875
1547.4329	18841.6875
1550.78776	18370.3875
1554.14038	18160.8875
1557.49077	18072.4875
1560.83892	18256.4875
1564.18484	18729.7875
1567.52853	19391.9875
1570.86999	20037.3875
1574.20922	20538.7875
1577.54624	20424.5875
1580.88103	19616.2875
1584.2136	18730.3875
1587.54395	18462.4875
1590.87208	19123.6875
1594.19801	20570.1875
1597.52172	22324.5875
1600.84321	23025.8875
1604.16251	22082.8875
1607.47959	20187.5875
1610.79447	18155.7875
1614.10715	16328.4875
1617.41763	15005.8875
1620.7259	14196.1875
1624.03199	13801.7875
1627.33587	13881.0875
1630.63757	14332.7875
1633.93707	15405.0875
1637.23439	17334.0875
1640.52951	20370.9875
1643.82246	24427.4875
1647.11321	28269.4875
1650.40179	29659.7875
1653.68819	27440.3875
1656.97241	22832.7875
1660.25446	18351.9875
1663.53433	15309.7875
1666.81203	13497.7875
1670.08756	12447.2875
1673.36092	11765.2875
1676.63211	11357.2875
1679.90115	11077.3875
1683.16801	10851.1875
1686.43272	10728.5875
1689.69527	10610.7875
1692.95567	10518.4875
1696.2139	10510.1875
1699.46999	10504.0875
1702.72392	10448.0875
1705.97571	10387.5875
1709.22535	10293.9875
1712.47284	10244.5875
1715.71819	10186.0875
1718.96139	10161.8875
1722.20246	10107.0875
1725.44139	10031.2875
1728.67818	9936.8875
1731.91284	9866.2875
1735.14537	9778.4875
1738.37576	9719.2875
1741.60403	9693.2875
1744.83017	9674.6875
1748.05418	9673.9875
1751.27607	9642.3875
1754.49584	9641.4875
1757.71349	9668.6875
1760.92903	9618.6875
1764.14244	9601.7875
1767.35375	9607.2875
1770.56294	9578.0875
1773.77002	9514.9875
1776.97499	9471.3875
1780.17785	9406.2875
1783.37861	9377.2875
1786.57727	9319.6875
1789.77382	9278.0875
1792.96828	9282.7875
1796.16064	9233.4875
1799.3509	9223.2875
1802.53907	9199.9875
1805.72514	9173.4875
1808.90913	9154.5875
1812.09102	9130.1875
1815.27083	9096.9875
1818.44856	9085.2875
1821.6242	9078.3875
1824.79776	9034.1875
1827.96924	9015.6875
1831.13864	8991.2875
1834.30597	8976.3875
1837.47122	8929.5875
1840.6344	8941.5875
1843.7955	8948.3875
1846.95454	8895.1875
1850.11151	8905.0875
1853.26642	8879.3875
1856.41926	8885.6875
1859.57004	8876.0875
1862.71876	8877.6875
1865.86542	8850.9875
1869.01003	8859.4875
1872.15258	8861.9875
1875.29308	8841.4875
1878.43152	8836.6875
1881.56792	8855.6875
1884.70227	8817.4875
1887.83457	8832.7875
1890.96482	8813.4875
1894.09304	8782.5875
1897.21921	8789.6875
1900.34335	8783.0875
1903.46544	8780.7875
1906.58551	8774.0875
1909.70353	8768.4875
1912.81953	8770.4875
1915.93349	8732.3875
1919.04543	8725.9875
1922.15534	8686.8875
1925.26322	8669.2875
1928.36908	8652.9875
1931.47292	8611.6875
1934.57473	8607.3875
1937.67453	8613.1875
1940.77232	8543.2875
1943.86808	8531.5875
1946.96184	8494.4875
1950.05358	8501.7875
1953.14331	8462.4875
1956.23103	8408.5875
1959.31675	8400.0875
1962.40046	8374.5875
1965.48217	8356.7875
1968.56188	8356.8875
1971.63959	8308.9875
1974.7153	8289.2875
1977.78901	8280.5875
1980.86073	8220.6875
1983.93046	8174.8875
1986.99819	8130.4875
1990.06394	8140.5875
1993.1277	8100.1875
1996.18947	8084.4875
1999.24925	8037.3875
2002.30706	8017.1875
2005.36288	7989.6875
2008.41672	7980.5875
2011.46859	7938.1875
2014.51848	7901.7875
2017.56639	7910.7875
2020.61233	7870.7875
2023.6563	7864.8875
2026.6983	7833.2875
2029.73833	7798.0875
2032.7764	7787.6875
2035.8125	7778.5875
2038.84664	7757.0875
2041.87881	7727.6875
2044.90903	7728.4875
2047.93729	7717.4875
2050.96359	7716.0875
2053.98794	7688.1875
2057.01034	7681.1875
2060.03078	7663.4875
2063.04927	7645.9875
2066.06582	7643.5875
2069.08042	7629.5875
2072.09307	7611.7875
2075.10378	7613.3875
2078.11255	7632.4875
2081.11938	7639.4875
2084.12426	7626.7875
2087.12722	7594.8875
2090.12824	7618.4875
2093.12732	7612.6875
2096.12447	7623.4875
2099.11969	7623.2875
2102.11299	7617.9875
2105.10435	7609.8875
2108.09379	7613.6875
2111.08131	7629.7875
2114.0669	7618.6875
2117.05057	7611.9875
2120.03233	7614.8875
2123.01216	7624.1875
2125.99008	7635.9875
2128.96609	7639.0875
2131.94018	7651.1875
2134.91236	7616.6875
2137.88263	7623.0875
2140.851	7622.6875
2143.81746	7633.0875
2146.78201	7626.3875
2149.74466	7608.2875
2152.7054	7601.7875
2155.66425	7599.1875
2158.6212	7591.6875
2161.57625	7579.8875
2164.52941	7582.7875
2167.48067	7557.6875
2170.43004	7566.6875
2173.37752	7572.3875
2176.32311	7567.3875
2179.26681	7539.9875
2182.20863	7562.1875
2185.14856	7558.2875
2188.08661	7566.2875
2191.02278	7557.3875
2193.95707	7556.7875
2196.88948	7550.7875
2199.82001	7530.2875
2202.74867	7505.7875
2205.67545	7504.0875
2208.60037	7489.4875
2211.52341	7492.0875
2214.44458	7486.4875
2217.36388	7448.6875
2220.28132	7463.1875
2223.1969	7412.5875
2226.11061	7412.1875
2229.02246	7390.0875
2231.93245	7396.4875
2234.84058	7372.3875
2237.74686	7349.5875
2240.65128	7385.9875
2243.55385	7352.5875
2246.45456	7346.7875
2249.35343	7335.8875
2252.25044	7334.5875
2255.14561	7305.1875
2258.03893	7320.0875
2260.93041	7326.6875
2263.82004	7299.0875
2266.70783	7281.1875
2269.59378	7235.0875
2272.4779	7231.9875
2275.36017	7202.3875
2278.24061	7205.4875
2281.11922	7184.0875
2283.996	7177.2875
2286.87094	7154.9875
2289.74405	7168.8875
2292.61534	7110.7875
2295.4848	7116.9875
2298.35243	7092.4875
2301.21824	7083.9875
2304.08223	7093.1875
2306.94439	7076.5875
2309.80474	7092.9875
2312.66327	7096.1875
2315.51999	7077.9875
2318.37489	7063.1875
2321.22797	7046.0875
2324.07925	7072.5875
2326.92871	7043.4875
2329.77637	7057.0875
2332.62222	7050.4875
2335.46626	7016.1875
2338.3085	7009.0875
2341.14893	7012.4875
2343.98756	7017.3875
2346.8244	7015.0875
2349.65943	7035.1875
2352.49267	7046.0875
2355.32411	7024.1875
2358.15376	7035.8875
2360.98161	7048.3875
2363.80768	7044.1875
2366.63195	7054.0875
2369.45444	7056.5875
2372.27514	7059.7875
2375.09405	7020.0875
2377.91118	7025.2875
2380.72652	6998.6875
2383.54009	6966.1875
2386.35187	6966.0875
2389.16188	6915.8875
2391.97011	6897.5875
2394.77657	6896.3875
2397.58125	6878.9875
2400.38416	6849.5875
2403.18529	6835.0875
2405.98466	6821.6875
2408.78226	6816.4875
2411.57809	6794.0875
2414.37216	6790.9875
2417.16446	6799.6875
2419.955	6796.7875
2422.74378	6809.3875
2425.5308	6773.9875
2428.31606	6774.6875
2431.09956	6774.0875
2433.88131	6790.3875
2436.6613	6799.1875
2439.43954	6771.5875
2442.21603	6779.2875
2444.99077	6770.8875
2447.76377	6786.0875
2450.53501	6775.7875
2453.30451	6789.7875
2456.07226	6771.2875
2458.83827	6765.7875
2461.60254	6772.9875
2464.36507	6760.1875
2467.12586	6780.3875
2469.88492	6759.3875
2472.64224	6784.4875
2475.39782	6792.2875
2478.15167	6796.8875
2480.90379	6808.0875
2483.65417	6806.1875
2486.40283	6835.1875
2489.14976	6830.7875
2491.89497	6829.7875
2494.63845	6837.4875
2497.3802	6844.1875
2500.12024	6808.3875
2502.85855	6792.9875
2505.59514	6794.3875
2508.33002	6758.3875
2511.06318	6733.7875
2513.79462	6723.3875
2516.52435	6706.8875
2519.25237	6686.5875
2521.97867	6659.5875
2524.70327	6675.4875
2527.42616	6675.4875
2530.14734	6676.1875
2532.86681	6672.7875
2535.58458	6660.3875
2538.30065	6646.4875
2541.01501	6660.9875
2543.72768	6652.0875
2546.43864	6644.9875
2549.14791	6630.1875
2551.85548	6628.7875
2554.56136	6612.1875
2557.26554	6616.1875
2559.96803	6607.8875
2562.66883	6621.7875
2565.36794	6605.4875
2568.06536	6590.9875
2570.7611	6595.0875
2573.45514	6605.2875
2576.14751	6552.9875
2578.83819	6549.3875
2581.52719	6553.9875
2584.21451	6535.4875
2586.90015	6540.7875
2589.58411	6533.3875
2592.2664	6540.0875
2594.94701	6518.2875
2597.62594	6528.1875
2600.30321	6519.6875
2602.9788	6513.1875
2605.65273	6514.1875
2608.32498	6498.5875
2610.99557	6506.8875
2613.66449	6493.1875
2616.33175	6511.5875
2618.99734	6497.6875
2621.66128	6501.3875
2624.32355	6480.4875
2626.98416	6476.3875
2629.64311	6467.4875
2632.30041	6472.1875
2634.95605	6455.6875
2637.61004	6440.4875
2640.26238	6446.6875
2642.91306	6454.7875
2645.56209	6429.8875
2648.20948	6431.0875
2650.85521	6444.9875
2653.4993	6435.5875
2656.14175	6436.6875
2658.78255	6454.1875
2661.42171	6440.1875
2664.05923	6477.2875
2666.6951	6465.8875
2669.32934	6474.8875
2671.96194	6473.1875
2674.59291	6508.9875
2677.22224	6476.2875
2679.84993	6477.9875
2682.476	6460.5875
2685.10043	6452.5875
2687.72324	6460.8875
2690.34441	6434.4875
2692.96396	6426.6875
2695.58188	6447.7875
2698.19818	6423.9875
2700.81285	6439.4875
2703.4259	6456.7875
2706.03733	6528.0875
2708.64714	6486.0875
2711.25533	6473.1875
2713.86191	6467.5875
2716.46687	6491.1875
2719.07021	6483.5875
2721.67194	6480.7875
2724.27206	6467.9875
2726.87057	6473.3875
2729.46747	6474.1875
2732.06276	6485.8875
2734.65644	6461.6875
2737.24852	6463.0875
2739.83899	6452.6875
2742.42786	6469.3875
2745.01513	6452.6875
2747.60079	6464.0875
2750.18486	6439.5875
2752.76733	6436.3875
2755.3482	6422.0875
2757.92747	6405.7875
2760.50515	6405.9875
2763.08123	6413.7875
2765.65573	6394.1875
2768.22863	6399.4875
2770.79994	6397.9875
2773.36967	6395.5875
2775.9378	6387.3875
2778.50435	6371.0875
2781.06932	6393.2875
2783.6327	6405.7875
2786.1945	6385.7875
2788.75471	6379.9875
2791.31335	6370.1875
2793.87041	6360.1875
2796.42589	6371.0875
2798.97979	6349.5875
2801.53212	6342.0875
2804.08288	6322.0875
2806.63206	6315.8875
2809.17967	6305.7875
2811.72571	6309.7875
2814.27018	6316.0875
2816.81308	6318.9875
2819.35442	6279.8875
2821.89419	6298.0875
2824.43239	6315.0875
2826.96904	6294.6875
2829.50412	6267.5875
2832.03763	6263.8875
2834.56959	6259.9875
2837.1	6262.3875
2839.62884	6263.1875
2842.15613	6261.1875
2844.68186	6272.4875
2847.20604	6267.7875
2849.72867	6288.1875
2852.24974	6294.5875
2854.76927	6307.2875
2857.28724	6313.6875
2859.80367	6299.3875
2862.31855	6287.5875
2864.83189	6252.7875
2867.34368	6259.5875
2869.85393	6265.0875
2872.36264	6252.1875
2874.8698	6257.4875
2877.37543	6244.2875
2879.87952	6250.8875
2882.38207	6245.7875
2884.88308	6228.6875
2887.38256	6244.0875
2889.88051	6222.1875
2892.37692	6221.5875
2894.8718	6243.8875
2897.36515	6244.7875
2899.85698	6248.8875
2902.34727	6259.9875
2904.83604	6260.0875
2907.32328	6259.2875
2909.809	6249.0875
2912.29319	6285.5875
2914.77587	6270.5875
2917.25702	6269.2875
2919.73665	6255.9875
2922.21476	6242.7875
2924.69136	6227.7875
2927.16644	6225.1875
2929.64	6222.5875
2932.11205	6207.5875
2934.58258	6192.8875
2937.05161	6182.2875
2939.51912	6173.9875
2941.98513	6162.7875
2944.44962	6167.4875
2946.91261	6144.9875
2949.37409	6149.6875
2951.83407	6151.2875
2954.29254	6138.5875
2956.74951	6147.9875
2959.20498	6144.2875
2961.65895	6131.4875
2964.11142	6131.0875
2966.56239	6103.1875
2969.01186	6091.9875
2971.45984	6069.8875
2973.90632	6081.2875
2976.35131	6049.6875
2978.7948	6036.8875
2981.23681	6023.4875
2983.67732	6001.6875
2986.11635	6011.7875
2988.55388	5979.0875
2990.98993	5958.2875
2993.4245	5948.0875
2995.85758	5952.5875
2998.28917	5940.7875
3000.71928	5926.3875
3003.14791	5904.7875
3005.57506	5902.3875
3008.00073	5887.6875
3010.42493	5885.3875
3012.84764	5858.7875
3015.26888	5873.1875
3017.68865	5857.1875
3020.10694	5841.4875
3022.52376	5811.9875
3024.9391	5829.2875
3027.35298	5800.1875
3029.76539	5809.5875
3032.17632	5801.9875
3034.5858	5785.4875
3036.9938	5772.7875
3039.40034	5775.2875
3041.80542	5769.0875
3044.20903	5747.3875
3046.61118	5742.9875
3049.01187	5746.7875
3051.4111	5729.6875
3053.80888	5717.9875
3056.20519	5705.7875
3058.60005	5689.5875
3060.99345	5675.0875
3063.3854	5660.2875
3065.7759	5625.4875
3068.16494	5660.6875
3070.55254	5636.8875
3072.93868	5623.5875
3075.32338	5603.3875
3077.70662	5591.7875
3080.08842	5573.5875
