Data from AgNP_FTO_APTES_UA_100uM_CRN_2uM_R6G_10uM_NaF_0.1M_Addition_RamanShift__16__14-03-30-309.txt Node

Date: Thu Mar 24 14:03:30 GMT 2022
User: TCL
Spectrometer: QEP01345
Trigger mode: 4
Integration Time (sec): 7.000000E0
Scans to average: 10
Electric dark correction enabled: true
Nonlinearity correction enabled: false
Boxcar width: 0
XAxis mode: Raman Shifts
Number of Pixels in Spectrum: 1044
>>>>>Begin Spectral Data<<<<<
46.04893	-0.6875
50.45542	-0.5875
54.85868	0.4125
59.25871	0.2125
63.6555	39.5125
68.04907	44.4125
72.43941	43.4125
76.82654	44.4125
81.21044	49.9125
85.59113	53.3125
89.96862	51.8125
94.34289	53.3125
98.71396	56.5125
103.08183	56.7125
107.4465	56.6125
111.80798	61.8125
116.16626	55.9125
120.52136	61.1125
124.87327	60.8125
129.222	68.5125
133.56755	69.4125
137.90993	73.9125
142.24913	83.5125
146.58517	92.1125
150.91804	109.4125
155.24774	129.3125
159.57429	159.0125
163.89768	202.9125
168.21792	272.9125
172.53501	363.8125
176.84895	512.2125
181.15975	726.9125
185.46741	1026.8125
189.77193	1416.5125
194.07331	1899.3125
198.37157	2445.7125
202.6667	3046.7125
206.9587	3623.6125
211.24758	4227.9125
215.53334	4848.9125
219.81599	5520.5125
224.09553	6285.4125
228.37195	7123.4125
232.64527	8056.0125
236.91549	9011.7125
241.18261	9904.0125
245.44663	10641.3125
249.70755	11245.3125
253.96539	11758.3125
258.22014	12198.8125
262.4718	12567.9125
266.72039	12875.7125
270.96589	13025.7125
275.20832	12955.3125
279.44768	12770.4125
283.68397	12533.8125
287.91719	12381.7125
292.14735	12383.7125
296.37445	12516.7125
300.59849	12866.8125
304.81948	13260.2125
309.03742	13593.6125
313.25231	13602.8125
317.46415	13195.9125
321.67296	12496.0125
325.87872	11873.7125
330.08145	11518.6125
334.28114	11512.9125
338.47781	11648.0125
342.67145	11915.0125
346.86207	12257.4125
351.04966	12776.8125
355.23424	13329.8125
359.4158	13772.8125
363.59435	14030.7125
367.76989	14108.9125
371.94243	14116.4125
376.11196	14101.2125
380.27849	14074.0125
384.44203	13996.3125
388.60257	13922.1125
392.76012	13939.5125
396.91468	14001.8125
401.06626	14251.3125
405.21485	14453.6125
409.36047	14235.0125
413.50311	13674.7125
417.64277	13119.1125
421.77947	12768.8125
425.9132	12640.5125
430.04396	12628.2125
434.17176	12674.9125
438.2966	12824.2125
442.41849	13073.9125
446.53742	13437.6125
450.6534	13762.0125
454.76644	14005.5125
458.87653	14060.2125
462.98368	13943.7125
467.08789	13725.5125
471.18916	13500.9125
475.2875	13233.7125
479.38291	13003.7125
483.4754	12786.6125
487.56496	12659.6125
491.6516	12564.4125
495.73531	12536.9125
499.81612	12577.4125
503.89401	12706.7125
507.96899	12824.0125
512.04106	12952.6125
516.11023	13013.2125
520.1765	13091.6125
524.23987	13092.4125
528.30034	12994.7125
532.35792	12928.6125
536.41261	12754.1125
540.46441	12517.5125
544.51333	12411.3125
548.55936	12493.9125
552.60252	12747.8125
556.64279	13026.3125
560.6802	13223.6125
564.71473	13313.7125
568.7464	13609.9125
572.7752	13885.5125
576.80114	13768.5125
580.82422	13626.3125
584.84444	13696.8125
588.86181	13872.9125
592.87633	14089.0125
596.888	14222.1125
600.89682	14395.3125
604.9028	15526.0125
608.90594	18848.4125
612.90624	23063.2125
616.90371	22094.2125
620.89834	16289.1125
624.89015	13389.2125
628.87913	12893.1125
632.86528	13038.7125
636.84862	13277.2125
640.82913	13107.0125
644.80683	12591.0125
648.78172	12160.5125
652.75379	12136.6125
656.72306	12509.5125
660.68952	13025.6125
664.65319	12937.2125
668.61405	12417.8125
672.57211	12227.4125
676.52738	12247.9125
680.47986	12218.6125
684.42955	12042.5125
688.37646	11964.2125
692.32058	11960.2125
696.26192	12119.1125
700.20048	12262.4125
704.13626	12388.0125
708.06928	12330.3125
711.99952	12235.4125
715.927	12214.3125
719.85171	12253.8125
723.77365	12295.3125
727.69284	12245.2125
731.60928	12135.5125
735.52295	12081.2125
739.43388	12132.1125
743.34206	12161.4125
747.24749	12198.7125
751.15017	12214.2125
755.05012	12342.3125
758.94733	12867.4125
762.8418	14109.4125
766.73354	16296.4125
770.62254	18592.3125
774.50882	19640.5125
778.39237	18761.3125
782.27321	16531.7125
786.15132	14368.8125
790.02671	13029.6125
793.89938	12351.0125
797.76935	12092.6125
801.6366	11953.3125
805.50115	11864.4125
809.36299	11806.0125
813.22213	11736.0125
817.07857	11697.6125
820.93231	11684.7125
824.78336	11661.8125
828.63172	11661.8125
832.47738	11675.9125
836.32036	11639.5125
840.16066	11589.1125
843.99827	11583.2125
847.8332	11563.0125
851.66546	11589.4125
855.49504	11582.5125
859.32195	11580.8125
863.1462	11582.8125
866.96777	11523.1125
870.78668	11553.3125
874.60293	11592.7125
878.41652	11611.2125
882.22745	11683.5125
886.03573	11724.6125
889.84136	11739.4125
893.64433	11687.0125
897.44466	11606.0125
901.24235	11564.8125
905.0374	11495.4125
908.8298	11418.4125
912.61957	11386.9125
916.40671	11411.6125
920.19121	11503.5125
923.97308	11622.7125
927.75233	11734.1125
931.52895	11803.6125
935.30295	11691.6125
939.07433	11427.9125
942.84309	11209.9125
946.60924	11043.1125
950.37278	10975.2125
954.13371	10931.1125
957.89203	10929.5125
961.64774	10879.4125
965.40086	10835.3125
969.15137	10813.4125
972.89929	10796.5125
976.64461	10795.4125
980.38733	10776.6125
984.12747	10812.0125
987.86502	10882.2125
991.59999	10947.7125
995.33237	11093.3125
999.06217	11294.2125
1002.78939	11565.7125
1006.51404	11807.5125
1010.23611	12035.9125
1013.95561	12192.4125
1017.67255	12189.1125
1021.38692	12064.0125
1025.09872	11846.7125
1028.80796	11707.1125
1032.51465	11748.5125
1036.21877	11858.8125
1039.92035	11922.5125
1043.61937	11951.6125
1047.31584	11919.9125
1051.00976	11864.4125
1054.70114	11855.3125
1058.38998	11839.5125
1062.07627	11902.6125
1065.76003	11936.9125
1069.44126	12046.7125
1073.11995	12206.5125
1076.79611	12421.9125
1080.46974	12657.9125
1084.14085	12899.2125
1087.80943	13201.6125
1091.47549	13342.5125
1095.13903	13217.7125
1098.80005	12898.2125
1102.45857	12588.7125
1106.11456	12474.8125
1109.76805	12505.9125
1113.41903	12725.3125
1117.06751	13053.4125
1120.71348	13525.5125
1124.35696	14009.3125
1127.99793	14430.2125
1131.63641	14407.2125
1135.2724	13920.2125
1138.90589	13435.5125
1142.5369	13085.3125
1146.16542	12834.6125
1149.79145	12684.9125
1153.415	12631.5125
1157.03607	12714.8125
1160.65467	12987.0125
1164.27079	13481.6125
1167.88443	14235.1125
1171.49561	15320.7125
1175.10432	16986.0125
1178.71056	19168.3125
1182.31434	21119.2125
1185.91565	21799.0125
1189.51451	21286.7125
1193.11091	20131.7125
1196.70485	18724.7125
1200.29634	17562.0125
1203.88538	16656.7125
1207.47197	15678.3125
1211.05612	14844.5125
1214.63782	14297.2125
1218.21708	14097.0125
1221.79391	14040.2125
1225.36829	14071.4125
1228.94024	14075.8125
1232.50976	13896.4125
1236.07685	13720.0125
1239.6415	13619.9125
1243.20374	13630.4125
1246.76355	13749.0125
1250.32093	13926.3125
1253.8759	14182.8125
1257.42845	14580.3125
1260.97859	15033.7125
1264.52631	15598.6125
1268.07163	16176.1125
1271.61453	16685.6125
1275.15503	17130.0125
1278.69312	17408.1125
1282.22882	17711.9125
1285.76211	18023.1125
1289.29301	18564.0125
1292.82151	19214.2125
1296.34761	20000.9125
1299.87133	21154.8125
1303.39266	22878.9125
1306.9116	25370.0125
1310.42815	27863.4125
1313.94233	29176.9125
1317.45412	28346.4125
1320.96354	26475.8125
1324.47058	24572.9125
1327.97525	22919.8125
1331.47754	21758.8125
1334.97747	21212.8125
1338.47502	21149.4125
1341.97022	21524.7125
1345.46305	22274.2125
1348.95352	23528.4125
1352.44163	25179.0125
1355.92738	27522.1125
1359.41078	31053.4125
1362.89183	34395.3125
1366.37053	33550.5125
1369.84688	28506.8125
1373.32088	23495.8125
1376.79254	20428.3125
1380.26186	18899.5125
1383.72883	18049.4125
1387.19347	17436.6125
1390.65578	16811.5125
1394.11575	16321.6125
1397.57339	16119.5125
1401.0287	16072.7125
1404.48168	16069.8125
1407.93234	16041.0125
1411.38068	15999.2125
1414.82669	15879.6125
1418.27039	15695.1125
1421.71177	15437.9125
1425.15083	15071.7125
1428.58758	14873.8125
1432.02203	15002.1125
1435.45416	15297.6125
1438.88399	15546.1125
1442.31151	15658.3125
1445.73673	15772.1125
1449.15965	15890.5125
1452.58027	15965.7125
1455.9986	15882.6125
1459.41463	15920.2125
1462.82837	16169.9125
1466.23982	16607.9125
1469.64898	17033.3125
1473.05586	17379.5125
1476.46045	17573.5125
1479.86276	17703.7125
1483.26279	17928.4125
1486.66054	18210.7125
1490.05602	18757.5125
1493.44922	19560.5125
1496.84016	20861.0125
1500.22882	22991.4125
1503.61521	26011.9125
1506.99934	29305.2125
1510.38121	31690.8125
1513.76081	31879.8125
1517.13816	29440.5125
1520.51324	25752.6125
1523.88607	22472.5125
1527.25665	20432.8125
1530.62498	19247.5125
1533.99105	18608.6125
1537.35488	18124.8125
1540.71647	17724.6125
1544.07581	17398.7125
1547.4329	17159.4125
1550.78776	16972.8125
1554.14038	16933.0125
1557.49077	17043.5125
1560.83892	17283.4125
1564.18484	17793.1125
1567.52853	18437.3125
1570.86999	18982.3125
1574.20922	19327.3125
1577.54624	19165.5125
1580.88103	18227.6125
1584.2136	17006.4125
1587.54395	16344.3125
1590.87208	16455.2125
1594.19801	17351.4125
1597.52172	18648.5125
1600.84321	19228.0125
1604.16251	18696.8125
1607.47959	17592.7125
1610.79447	16465.0125
1614.10715	15271.1125
1617.41763	14234.4125
1620.7259	13475.5125
1624.03199	13106.6125
1627.33587	13028.1125
1630.63757	13279.0125
1633.93707	13952.4125
1637.23439	15191.7125
1640.52951	17126.1125
1643.82246	19893.6125
1647.11321	22873.2125
1650.40179	24631.0125
1653.68819	23688.1125
1656.97241	20392.0125
1660.25446	16838.3125
1663.53433	14319.7125
1666.81203	12764.8125
1670.08756	11892.8125
1673.36092	11354.1125
1676.63211	11008.5125
1679.90115	10758.2125
1683.16801	10573.4125
1686.43272	10429.1125
1689.69527	10324.5125
1692.95567	10238.7125
1696.2139	10200.0125
1699.46999	10135.6125
1702.72392	10087.4125
1705.97571	10099.5125
1709.22535	10053.3125
1712.47284	10048.4125
1715.71819	10015.7125
1718.96139	9988.5125
1722.20246	9954.8125
1725.44139	9896.3125
1728.67818	9807.8125
1731.91284	9742.8125
1735.14537	9653.7125
1738.37576	9610.7125
1741.60403	9589.4125
1744.83017	9517.0125
1748.05418	9517.4125
1751.27607	9492.5125
1754.49584	9475.0125
1757.71349	9468.5125
1760.92903	9449.3125
1764.14244	9433.2125
1767.35375	9411.2125
1770.56294	9387.0125
1773.77002	9350.1125
1776.97499	9334.4125
1780.17785	9286.0125
1783.37861	9285.3125
1786.57727	9254.9125
1789.77382	9215.9125
1792.96828	9224.8125
1796.16064	9220.7125
1799.3509	9194.9125
1802.53907	9162.7125
1805.72514	9139.8125
1808.90913	9129.5125
1812.09102	9103.1125
1815.27083	9064.7125
1818.44856	9046.4125
1821.6242	9022.5125
1824.79776	8999.5125
1827.96924	8988.4125
1831.13864	8970.1125
1834.30597	8967.5125
1837.47122	8936.2125
1840.6344	8915.3125
1843.7955	8938.8125
1846.95454	8908.0125
1850.11151	8892.6125
1853.26642	8877.6125
1856.41926	8881.0125
1859.57004	8847.3125
1862.71876	8859.8125
1865.86542	8826.5125
1869.01003	8836.2125
1872.15258	8816.9125
1875.29308	8826.4125
1878.43152	8794.6125
1881.56792	8796.6125
1884.70227	8783.3125
1887.83457	8815.0125
1890.96482	8786.6125
1894.09304	8770.1125
1897.21921	8766.6125
1900.34335	8763.7125
1903.46544	8758.7125
1906.58551	8753.4125
1909.70353	8747.1125
1912.81953	8743.4125
1915.93349	8717.3125
1919.04543	8721.1125
1922.15534	8666.4125
1925.26322	8668.8125
1928.36908	8643.6125
1931.47292	8613.4125
1934.57473	8595.5125
1937.67453	8588.8125
1940.77232	8591.6125
1943.86808	8534.2125
1946.96184	8524.1125
1950.05358	8475.8125
1953.14331	8483.4125
1956.23103	8444.4125
1959.31675	8449.1125
1962.40046	8426.7125
1965.48217	8403.5125
1968.56188	8399.7125
1971.63959	8364.8125
1974.7153	8352.3125
1977.78901	8338.2125
1980.86073	8304.0125
1983.93046	8274.2125
1986.99819	8226.9125
1990.06394	8206.4125
1993.1277	8158.8125
1996.18947	8142.5125
1999.24925	8129.2125
2002.30706	8102.7125
2005.36288	8064.3125
2008.41672	8008.6125
2011.46859	8001.6125
2014.51848	7997.8125
2017.56639	7973.5125
2020.61233	7957.6125
2023.6563	7915.5125
2026.6983	7901.4125
2029.73833	7873.0125
2032.7764	7870.4125
2035.8125	7843.7125
2038.84664	7815.4125
2041.87881	7822.1125
2044.90903	7804.3125
2047.93729	7800.1125
2050.96359	7802.6125
2053.98794	7753.4125
2057.01034	7744.2125
2060.03078	7722.3125
2063.04927	7715.5125
2066.06582	7690.9125
2069.08042	7700.2125
2072.09307	7692.9125
2075.10378	7687.4125
2078.11255	7695.8125
2081.11938	7687.4125
2084.12426	7674.1125
2087.12722	7701.3125
2090.12824	7695.1125
2093.12732	7681.5125
2096.12447	7701.1125
2099.11969	7688.5125
2102.11299	7704.3125
2105.10435	7713.5125
2108.09379	7700.8125
2111.08131	7704.3125
2114.0669	7710.8125
2117.05057	7725.8125
2120.03233	7728.2125
2123.01216	7729.6125
2125.99008	7725.9125
2128.96609	7739.3125
2131.94018	7741.8125
2134.91236	7754.4125
2137.88263	7736.2125
2140.851	7729.3125
2143.81746	7751.9125
2146.78201	7752.2125
2149.74466	7745.2125
2152.7054	7725.9125
2155.66425	7716.5125
2158.6212	7735.9125
2161.57625	7745.3125
2164.52941	7736.2125
2167.48067	7728.8125
2170.43004	7710.3125
2173.37752	7697.0125
2176.32311	7717.2125
2179.26681	7721.2125
2182.20863	7688.1125
2185.14856	7709.6125
2188.08661	7688.5125
2191.02278	7685.2125
2193.95707	7675.7125
2196.88948	7683.8125
2199.82001	7669.9125
2202.74867	7659.3125
2205.67545	7659.9125
2208.60037	7653.5125
2211.52341	7619.5125
2214.44458	7623.0125
2217.36388	7613.5125
2220.28132	7627.6125
2223.1969	7599.4125
2226.11061	7586.3125
2229.02246	7557.8125
2231.93245	7529.1125
2234.84058	7516.8125
2237.74686	7499.2125
2240.65128	7461.0125
2243.55385	7478.7125
2246.45456	7476.7125
2249.35343	7468.2125
2252.25044	7480.9125
2255.14561	7463.1125
2258.03893	7460.0125
2260.93041	7464.3125
2263.82004	7437.8125
2266.70783	7405.3125
2269.59378	7409.1125
2272.4779	7399.5125
2275.36017	7381.4125
2278.24061	7373.5125
2281.11922	7345.9125
2283.996	7343.8125
2286.87094	7329.2125
2289.74405	7301.2125
2292.61534	7286.5125
2295.4848	7285.9125
2298.35243	7292.2125
2301.21824	7260.9125
2304.08223	7255.5125
2306.94439	7273.5125
2309.80474	7267.2125
2312.66327	7268.7125
2315.51999	7264.6125
2318.37489	7248.8125
2321.22797	7230.2125
2324.07925	7239.9125
2326.92871	7248.1125
2329.77637	7209.1125
2332.62222	7211.8125
2335.46626	7216.5125
2338.3085	7218.7125
2341.14893	7222.7125
2343.98756	7207.2125
2346.8244	7206.3125
2349.65943	7219.5125
2352.49267	7215.7125
2355.32411	7235.1125
2358.15376	7210.6125
2360.98161	7217.7125
2363.80768	7243.2125
2366.63195	7223.7125
2369.45444	7239.6125
2372.27514	7238.2125
2375.09405	7222.7125
2377.91118	7197.4125
2380.72652	7165.9125
2383.54009	7136.5125
2386.35187	7143.6125
2389.16188	7091.8125
2391.97011	7103.4125
2394.77657	7088.7125
2397.58125	7075.9125
2400.38416	7050.2125
2403.18529	7028.1125
2405.98466	7007.1125
2408.78226	6990.3125
2411.57809	6979.3125
2414.37216	6963.2125
2417.16446	6973.7125
2419.955	6942.9125
2422.74378	6955.8125
2425.5308	6938.8125
2428.31606	6966.3125
2431.09956	6947.3125
2433.88131	6932.5125
2436.6613	6921.0125
2439.43954	6954.8125
2442.21603	6935.7125
2444.99077	6938.5125
2447.76377	6962.8125
2450.53501	6957.5125
2453.30451	6929.5125
2456.07226	6930.0125
2458.83827	6930.4125
2461.60254	6939.8125
2464.36507	6945.8125
2467.12586	6939.1125
2469.88492	6964.2125
2472.64224	6938.5125
2475.39782	6924.7125
2478.15167	6939.5125
2480.90379	6939.0125
2483.65417	6954.6125
2486.40283	6968.1125
2489.14976	6987.4125
2491.89497	6978.5125
2494.63845	6973.1125
2497.3802	6972.2125
2500.12024	6966.4125
2502.85855	6977.7125
2505.59514	6949.9125
2508.33002	6921.0125
2511.06318	6907.7125
2513.79462	6909.4125
2516.52435	6857.7125
2519.25237	6865.1125
2521.97867	6852.1125
2524.70327	6836.1125
2527.42616	6846.9125
2530.14734	6820.9125
2532.86681	6782.2125
2535.58458	6806.5125
2538.30065	6789.7125
2541.01501	6788.6125
2543.72768	6783.8125
2546.43864	6784.1125
2549.14791	6744.4125
2551.85548	6772.9125
2554.56136	6748.5125
2557.26554	6741.0125
2559.96803	6747.4125
2562.66883	6770.5125
2565.36794	6754.8125
2568.06536	6753.7125
2570.7611	6742.5125
2573.45514	6725.9125
2576.14751	6717.6125
2578.83819	6713.4125
2581.52719	6686.2125
2584.21451	6696.6125
2586.90015	6673.8125
2589.58411	6645.5125
2592.2664	6653.7125
2594.94701	6639.4125
2597.62594	6649.4125
2600.30321	6619.5125
2602.9788	6597.5125
2605.65273	6612.9125
2608.32498	6622.8125
2610.99557	6619.9125
2613.66449	6598.3125
2616.33175	6584.5125
2618.99734	6602.1125
2621.66128	6582.6125
2624.32355	6591.0125
2626.98416	6581.7125
2629.64311	6590.4125
2632.30041	6586.6125
2634.95605	6574.5125
2637.61004	6546.1125
2640.26238	6543.0125
2642.91306	6549.4125
2645.56209	6561.9125
2648.20948	6530.2125
2650.85521	6515.6125
2653.4993	6527.0125
2656.14175	6537.4125
2658.78255	6543.5125
2661.42171	6544.8125
2664.05923	6533.4125
2666.6951	6556.9125
2669.32934	6551.8125
2671.96194	6548.4125
2674.59291	6542.2125
2677.22224	6561.5125
2679.84993	6539.5125
2682.476	6528.4125
2685.10043	6540.0125
2687.72324	6551.3125
2690.34441	6548.3125
2692.96396	6538.2125
2695.58188	6542.1125
2698.19818	6536.3125
2700.81285	6531.3125
2703.4259	6527.4125
2706.03733	6536.1125
2708.64714	6540.6125
2711.25533	6549.6125
2713.86191	6552.9125
2716.46687	6561.0125
2719.07021	6539.6125
2721.67194	6542.8125
2724.27206	6539.9125
2726.87057	6532.4125
2729.46747	6552.4125
2732.06276	6541.5125
2734.65644	6523.5125
2737.24852	6527.1125
2739.83899	6529.6125
2742.42786	6519.6125
2745.01513	6493.3125
2747.60079	6499.1125
2750.18486	6489.6125
2752.76733	6486.1125
2755.3482	6474.5125
2757.92747	6469.4125
2760.50515	6471.9125
2763.08123	6465.1125
2765.65573	6455.7125
2768.22863	6456.3125
2770.79994	6434.3125
2773.36967	6463.2125
2775.9378	6445.8125
2778.50435	6426.8125
2781.06932	6420.8125
2783.6327	6438.4125
2786.1945	6418.8125
2788.75471	6401.1125
2791.31335	6392.8125
2793.87041	6404.2125
2796.42589	6377.5125
2798.97979	6378.3125
2801.53212	6365.9125
2804.08288	6379.3125
2806.63206	6345.2125
2809.17967	6361.2125
2811.72571	6358.2125
2814.27018	6363.2125
2816.81308	6358.5125
2819.35442	6374.4125
2821.89419	6348.2125
2824.43239	6359.8125
2826.96904	6336.3125
2829.50412	6368.8125
2832.03763	6347.0125
2834.56959	6333.0125
2837.1	6332.9125
2839.62884	6330.8125
2842.15613	6298.0125
2844.68186	6317.7125
2847.20604	6310.2125
2849.72867	6321.3125
2852.24974	6317.7125
2854.76927	6307.5125
2857.28724	6304.4125
2859.80367	6291.4125
2862.31855	6287.1125
2864.83189	6309.1125
2867.34368	6319.4125
2869.85393	6341.6125
2872.36264	6330.5125
2874.8698	6320.2125
2877.37543	6320.5125
2879.87952	6318.9125
2882.38207	6324.1125
2884.88308	6321.4125
2887.38256	6336.7125
2889.88051	6320.4125
2892.37692	6315.0125
2894.8718	6285.5125
2897.36515	6295.1125
2899.85698	6307.4125
2902.34727	6331.7125
2904.83604	6331.1125
2907.32328	6329.7125
2909.809	6330.4125
2912.29319	6324.4125
2914.77587	6317.8125
2917.25702	6305.3125
2919.73665	6314.7125
2922.21476	6322.1125
2924.69136	6292.4125
2927.16644	6298.3125
2929.64	6286.6125
2932.11205	6278.6125
2934.58258	6268.2125
2937.05161	6259.8125
2939.51912	6251.9125
2941.98513	6256.7125
2944.44962	6235.3125
2946.91261	6216.4125
2949.37409	6224.2125
2951.83407	6229.6125
2954.29254	6203.4125
2956.74951	6195.0125
2959.20498	6198.6125
2961.65895	6180.6125
2964.11142	6218.5125
2966.56239	6185.0125
2969.01186	6159.9125
2971.45984	6175.4125
2973.90632	6156.8125
2976.35131	6127.5125
2978.7948	6101.3125
2981.23681	6107.6125
2983.67732	6094.3125
2986.11635	6077.2125
2988.55388	6072.0125
2990.98993	6073.8125
2993.4245	6058.9125
2995.85758	6053.6125
2998.28917	6075.4125
3000.71928	6034.0125
3003.14791	6035.0125
3005.57506	6029.3125
3008.00073	6008.5125
3010.42493	6027.1125
3012.84764	6014.6125
3015.26888	6024.8125
3017.68865	5995.8125
3020.10694	5994.1125
3022.52376	5963.6125
3024.9391	5945.6125
3027.35298	5941.9125
3029.76539	5940.3125
3032.17632	5918.5125
3034.5858	5925.7125
3036.9938	5928.5125
3039.40034	5897.9125
3041.80542	5880.7125
3044.20903	5863.3125
3046.61118	5854.8125
3049.01187	5857.3125
3051.4111	5847.5125
3053.80888	5841.3125
3056.20519	5822.3125
3058.60005	5805.3125
3060.99345	5823.7125
3063.3854	5803.2125
3065.7759	5797.4125
3068.16494	5784.5125
3070.55254	5781.9125
3072.93868	5763.8125
3075.32338	5751.0125
3077.70662	5728.3125
3080.08842	5751.9125
