Data from AgNP_FTO_APTES_UA_100uM_CRN_1uM_R6G_10uM_NaF_0.1M_Addition_RamanShift__0__11-48-10-152.txt Node

Date: Thu Mar 24 11:48:10 GMT 2022
User: TCL
Spectrometer: QEP01345
Trigger mode: 4
Integration Time (sec): 7.000000E0
Scans to average: 10
Electric dark correction enabled: true
Nonlinearity correction enabled: false
Boxcar width: 0
XAxis mode: Raman Shifts
Number of Pixels in Spectrum: 1044
>>>>>Begin Spectral Data<<<<<
46.04893	-2.5375
50.45542	-0.5375
54.85868	0.5625
59.25871	-0.6375
63.6555	50.8625
68.04907	53.4625
72.43941	55.8625
76.82654	54.5625
81.21044	58.8625
85.59113	61.2625
89.96862	63.9625
94.34289	61.1625
98.71396	66.2625
103.08183	66.7625
107.4465	72.2625
111.80798	72.9625
116.16626	72.7625
120.52136	73.5625
124.87327	77.7625
129.222	84.2625
133.56755	90.9625
137.90993	97.9625
142.24913	108.1625
146.58517	118.7625
150.91804	142.5625
155.24774	169.1625
159.57429	210.5625
163.89768	278.9625
168.21792	369.2625
172.53501	505.4625
176.84895	713.5625
181.15975	1008.7625
185.46741	1409.2625
189.77193	1943.1625
194.07331	2591.7625
198.37157	3354.3625
202.6667	4143.0625
206.9587	4937.9625
211.24758	5740.8625
215.53334	6557.1625
219.81599	7453.4625
224.09553	8483.0625
228.37195	9581.2625
232.64527	10818.6625
236.91549	12029.3625
241.18261	13214.2625
245.44663	14254.0625
249.70755	15028.7625
253.96539	15651.2625
258.22014	16195.9625
262.4718	16589.8625
266.72039	16888.9625
270.96589	16989.8625
275.20832	16934.3625
279.44768	16758.1625
283.68397	16503.8625
287.91719	16339.4625
292.14735	16215.6625
296.37445	16292.6625
300.59849	16505.5625
304.81948	16825.4625
309.03742	17141.4625
313.25231	17262.6625
317.46415	17114.3625
321.67296	16812.0625
325.87872	16480.2625
330.08145	16316.8625
334.28114	16314.5625
338.47781	16411.6625
342.67145	16659.3625
346.86207	17018.4625
351.04966	17485.2625
355.23424	17943.7625
359.4158	18244.6625
363.59435	18383.2625
367.76989	18350.4625
371.94243	18341.1625
376.11196	18326.4625
380.27849	18352.5625
384.44203	18397.3625
388.60257	18505.1625
392.76012	18623.6625
396.91468	18736.8625
401.06626	19005.1625
405.21485	19156.0625
409.36047	18940.2625
413.50311	18363.7625
417.64277	17932.2625
421.77947	17873.2625
425.9132	17922.0625
430.04396	18043.2625
434.17176	18195.0625
438.2966	18522.3625
442.41849	19214.1625
446.53742	20212.4625
450.6534	21238.0625
454.76644	21700.1625
458.87653	21608.8625
462.98368	21113.5625
467.08789	20575.7625
471.18916	19989.8625
475.2875	19398.0625
479.38291	18853.5625
483.4754	18482.9625
487.56496	18126.5625
491.6516	17757.9625
495.73531	17535.8625
499.81612	17407.0625
503.89401	17512.6625
507.96899	17590.2625
512.04106	17526.3625
516.11023	17413.5625
520.1765	17345.4625
524.23987	17420.6625
528.30034	17543.1625
532.35792	17498.6625
536.41261	17152.5625
540.46441	16673.5625
544.51333	16393.2625
548.55936	16466.1625
552.60252	16938.4625
556.64279	17706.3625
560.6802	18374.7625
564.71473	18724.8625
568.7464	19186.7625
572.7752	20035.1625
576.80114	20652.9625
580.82422	21166.8625
584.84444	22180.5625
588.86181	24405.9625
592.87633	27500.2625
596.888	29022.4625
600.89682	27029.4625
604.9028	24727.0625
608.90594	25950.0625
612.90624	28681.9625
616.90371	26685.0625
620.89834	20682.0625
624.89015	17729.9625
628.87913	17271.9625
632.86528	17498.1625
636.84862	17477.3625
640.82913	16975.4625
644.80683	16188.3625
648.78172	15714.2625
652.75379	15716.3625
656.72306	16191.8625
660.68952	16750.3625
664.65319	16557.5625
668.61405	15873.3625
672.57211	15744.4625
676.52738	15888.7625
680.47986	15845.0625
684.42955	15570.6625
688.37646	15405.4625
692.32058	15522.8625
696.26192	15883.1625
700.20048	16300.4625
704.13626	16521.2625
708.06928	16547.6625
711.99952	16486.9625
715.927	16554.4625
719.85171	16659.4625
723.77365	16553.8625
727.69284	16247.5625
731.60928	16012.9625
735.52295	16061.9625
739.43388	16229.4625
743.34206	16393.4625
747.24749	16494.4625
751.15017	16688.6625
755.05012	17000.2625
758.94733	17669.3625
762.8418	19133.6625
766.73354	21625.1625
770.62254	24020.0625
774.50882	24495.1625
778.39237	23079.9625
782.27321	20785.3625
786.15132	18638.5625
790.02671	17277.1625
793.89938	16522.6625
797.76935	16164.5625
801.6366	15944.8625
805.50115	15804.4625
809.36299	15673.7625
813.22213	15548.5625
817.07857	15480.8625
820.93231	15401.7625
824.78336	15309.1625
828.63172	15305.4625
832.47738	15300.6625
836.32036	15304.3625
840.16066	15335.3625
843.99827	15329.4625
847.8332	15297.8625
851.66546	15310.3625
855.49504	15327.3625
859.32195	15316.7625
863.1462	15225.5625
866.96777	15119.3625
870.78668	15091.9625
874.60293	15134.5625
878.41652	15197.5625
882.22745	15338.6625
886.03573	15449.9625
889.84136	15430.6625
893.64433	15322.4625
897.44466	15261.9625
901.24235	15227.9625
905.0374	15115.7625
908.8298	15018.6625
912.61957	14991.0625
916.40671	15101.9625
920.19121	15344.8625
923.97308	15699.4625
927.75233	15931.4625
931.52895	15812.7625
935.30295	15359.4625
939.07433	14870.4625
942.84309	14513.0625
946.60924	14341.6625
950.37278	14337.4625
954.13371	14336.9625
957.89203	14347.7625
961.64774	14354.2625
965.40086	14355.5625
969.15137	14355.7625
972.89929	14352.0625
976.64461	14307.1625
980.38733	14274.7625
984.12747	14293.4625
987.86502	14393.0625
991.59999	14561.6625
995.33237	14788.1625
999.06217	15255.3625
1002.78939	15935.4625
1006.51404	16571.2625
1010.23611	17103.9625
1013.95561	17464.0625
1017.67255	17437.6625
1021.38692	16997.9625
1025.09872	16221.8625
1028.80796	15692.2625
1032.51465	15593.2625
1036.21877	15693.2625
1039.92035	15785.3625
1043.61937	15862.4625
1047.31584	15837.7625
1051.00976	15779.1625
1054.70114	15801.4625
1058.38998	15816.9625
1062.07627	15889.7625
1065.76003	16044.0625
1069.44126	16365.2625
1073.11995	16753.5625
1076.79611	17176.1625
1080.46974	17516.7625
1084.14085	17925.7625
1087.80943	18322.8625
1091.47549	18588.5625
1095.13903	18472.9625
1098.80005	17916.4625
1102.45857	17293.5625
1106.11456	16937.7625
1109.76805	16946.3625
1113.41903	17168.1625
1117.06751	17519.5625
1120.71348	17900.5625
1124.35696	18418.6625
1127.99793	18801.3625
1131.63641	18872.6625
1135.2724	18556.2625
1138.90589	18276.1625
1142.5369	18219.5625
1146.16542	18409.6625
1149.79145	18719.1625
1153.415	19025.2625
1157.03607	19211.9625
1160.65467	19717.8625
1164.27079	20722.0625
1167.88443	22181.5625
1171.49561	24357.9625
1175.10432	27446.2625
1178.71056	31360.2625
1182.31434	34767.1625
1185.91565	35560.5625
1189.51451	34073.2625
1193.11091	31786.4625
1196.70485	29559.3625
1200.29634	27652.1625
1203.88538	26061.3625
1207.47197	24954.4625
1211.05612	24158.9625
1214.63782	23706.1625
1218.21708	23573.9625
1221.79391	23817.1625
1225.36829	24244.5625
1228.94024	24317.0625
1232.50976	23516.8625
1236.07685	22408.3625
1239.6415	21626.7625
1243.20374	21349.9625
1246.76355	21337.3625
1250.32093	21542.7625
1253.8759	22040.9625
1257.42845	22837.5625
1260.97859	23863.6625
1264.52631	24990.1625
1268.07163	26077.6625
1271.61453	27029.5625
1275.15503	27903.7625
1278.69312	28838.6625
1282.22882	30152.1625
1285.76211	32015.4625
1289.29301	34325.7625
1292.82151	36789.4625
1296.34761	39470.0625
1299.87133	42603.8625
1303.39266	46082.7625
1306.9116	49779.4625
1310.42815	53118.4625
1313.94233	54943.7625
1317.45412	53694.5625
1320.96354	50476.3625
1324.47058	47034.5625
1327.97525	44049.8625
1331.47754	41995.0625
1334.97747	40556.8625
1338.47502	39655.0625
1341.97022	38999.3625
1345.46305	38695.7625
1348.95352	39139.1625
1352.44163	40927.1625
1355.92738	44469.0625
1359.41078	49683.0625
1362.89183	54385.0625
1366.37053	54478.4625
1369.84688	48540.7625
1373.32088	40567.0625
1376.79254	35542.9625
1380.26186	33711.3625
1383.72883	33086.1625
1387.19347	32488.9625
1390.65578	31727.2625
1394.11575	31412.5625
1397.57339	31710.5625
1401.0287	32140.5625
1404.48168	32309.2625
1407.93234	31979.5625
1411.38068	31122.6625
1414.82669	30144.4625
1418.27039	29084.6625
1421.71177	27948.7625
1425.15083	26913.8625
1428.58758	26488.5625
1432.02203	26898.3625
1435.45416	27747.9625
1438.88399	28496.6625
1442.31151	28805.4625
1445.73673	29035.7625
1449.15965	29176.2625
1452.58027	29024.5625
1455.9986	28641.9625
1459.41463	28578.5625
1462.82837	29068.3625
1466.23982	30134.5625
1469.64898	31105.4625
1473.05586	31812.1625
1476.46045	32346.1625
1479.86276	32687.1625
1483.26279	32905.7625
1486.66054	33207.0625
1490.05602	34029.1625
1493.44922	35007.0625
1496.84016	35845.8625
1500.22882	36661.7625
1503.61521	37799.5625
1506.99934	39293.1625
1510.38121	40528.4625
1513.76081	40433.9625
1517.13816	38749.7625
1520.51324	36334.8625
1523.88607	34507.5625
1527.25665	33793.4625
1530.62498	33647.4625
1533.99105	33363.8625
1537.35488	32623.6625
1540.71647	31435.4625
1544.07581	30028.3625
1547.4329	28732.7625
1550.78776	27666.1625
1554.14038	26887.5625
1557.49077	26513.4625
1560.83892	26472.2625
1564.18484	26812.8625
1567.52853	27481.8625
1570.86999	28174.8625
1574.20922	28981.5625
1577.54624	29275.3625
1580.88103	28775.1625
1584.2136	28252.5625
1587.54395	28868.7625
1590.87208	30914.5625
1594.19801	33970.9625
1597.52172	37272.9625
1600.84321	38522.1625
1604.16251	36549.6625
1607.47959	32413.5625
1610.79447	27946.5625
1614.10715	24289.0625
1617.41763	21838.5625
1620.7259	20385.8625
1624.03199	19819.3625
1627.33587	20001.0625
1630.63757	20939.3625
1633.93707	23027.8625
1637.23439	26791.0625
1640.52951	32792.7625
1643.82246	40632.8625
1647.11321	47249.8625
1650.40179	48632.6625
1653.68819	43565.3625
1656.97241	35059.2625
1660.25446	27429.5625
1663.53433	22271.4625
1666.81203	19158.0625
1670.08756	17420.5625
1673.36092	16401.9625
1676.63211	15740.0625
1679.90115	15329.5625
1683.16801	14970.6625
1686.43272	14708.4625
1689.69527	14536.7625
1692.95567	14383.4625
1696.2139	14300.0625
1699.46999	14206.5625
1702.72392	14132.5625
1705.97571	14117.0625
1709.22535	14054.0625
1712.47284	14016.3625
1715.71819	14013.1625
1718.96139	13974.5625
1722.20246	13897.1625
1725.44139	13825.3625
1728.67818	13703.2625
1731.91284	13568.1625
1735.14537	13475.0625
1738.37576	13368.4625
1741.60403	13283.9625
1744.83017	13240.3625
1748.05418	13193.7625
1751.27607	13119.3625
1754.49584	13102.6625
1757.71349	13048.1625
1760.92903	13052.8625
1764.14244	13020.7625
1767.35375	13043.5625
1770.56294	12985.4625
1773.77002	12944.4625
1776.97499	12911.3625
1780.17785	12875.1625
1783.37861	12858.7625
1786.57727	12827.8625
1789.77382	12787.3625
1792.96828	12799.3625
1796.16064	12753.4625
1799.3509	12705.7625
1802.53907	12682.7625
1805.72514	12611.7625
1808.90913	12591.1625
1812.09102	12558.8625
1815.27083	12526.4625
1818.44856	12496.7625
1821.6242	12458.2625
1824.79776	12450.0625
1827.96924	12441.7625
1831.13864	12406.5625
1834.30597	12429.8625
1837.47122	12421.3625
1840.6344	12412.4625
1843.7955	12380.8625
1846.95454	12384.4625
1850.11151	12374.6625
1853.26642	12389.6625
1856.41926	12388.9625
1859.57004	12345.4625
1862.71876	12317.1625
1865.86542	12344.7625
1869.01003	12327.5625
1872.15258	12327.2625
1875.29308	12330.8625
1878.43152	12316.6625
1881.56792	12353.9625
1884.70227	12318.2625
1887.83457	12317.1625
1890.96482	12304.0625
1894.09304	12299.9625
1897.21921	12278.4625
1900.34335	12294.4625
1903.46544	12310.0625
1906.58551	12266.1625
1909.70353	12279.8625
1912.81953	12224.4625
1915.93349	12227.0625
1919.04543	12208.4625
1922.15534	12157.5625
1925.26322	12124.8625
1928.36908	12062.5625
1931.47292	12028.6625
1934.57473	12006.0625
1937.67453	11970.6625
1940.77232	11947.2625
1943.86808	11897.4625
1946.96184	11883.5625
1950.05358	11840.8625
1953.14331	11826.0625
1956.23103	11810.5625
1959.31675	11761.9625
1962.40046	11738.3625
1965.48217	11715.9625
1968.56188	11660.6625
1971.63959	11630.2625
1974.7153	11594.4625
1977.78901	11545.8625
1980.86073	11510.1625
1983.93046	11466.4625
1986.99819	11423.0625
1990.06394	11398.5625
1993.1277	11322.7625
1996.18947	11294.5625
1999.24925	11269.2625
2002.30706	11222.6625
2005.36288	11203.2625
2008.41672	11169.2625
2011.46859	11140.0625
2014.51848	11084.6625
2017.56639	11066.9625
2020.61233	11021.6625
2023.6563	11009.1625
2026.6983	10961.9625
2029.73833	10951.8625
2032.7764	10913.3625
2035.8125	10884.2625
2038.84664	10870.4625
2041.87881	10847.8625
2044.90903	10829.6625
2047.93729	10837.6625
2050.96359	10807.8625
2053.98794	10771.9625
2057.01034	10778.9625
2060.03078	10762.6625
2063.04927	10749.8625
2066.06582	10728.6625
2069.08042	10735.9625
2072.09307	10713.8625
2075.10378	10739.1625
2078.11255	10729.6625
2081.11938	10756.6625
2084.12426	10730.7625
2087.12722	10754.4625
2090.12824	10747.6625
2093.12732	10742.9625
2096.12447	10782.5625
2099.11969	10797.9625
2102.11299	10763.8625
2105.10435	10758.1625
2108.09379	10767.2625
2111.08131	10762.0625
2114.0669	10737.7625
2117.05057	10747.1625
2120.03233	10748.6625
2123.01216	10755.9625
2125.99008	10765.9625
2128.96609	10749.2625
2131.94018	10768.7625
2134.91236	10775.9625
2137.88263	10763.1625
2140.851	10746.5625
2143.81746	10740.8625
2146.78201	10737.7625
2149.74466	10736.3625
2152.7054	10704.6625
2155.66425	10703.2625
2158.6212	10703.0625
2161.57625	10645.7625
2164.52941	10656.7625
2167.48067	10674.1625
2170.43004	10657.1625
2173.37752	10649.9625
2176.32311	10639.3625
2179.26681	10658.6625
2182.20863	10615.3625
2185.14856	10644.8625
2188.08661	10625.1625
2191.02278	10626.4625
2193.95707	10608.1625
2196.88948	10590.5625
2199.82001	10546.3625
2202.74867	10544.4625
2205.67545	10527.9625
2208.60037	10516.8625
2211.52341	10484.7625
2214.44458	10514.4625
2217.36388	10466.1625
2220.28132	10473.4625
2223.1969	10420.2625
2226.11061	10419.0625
2229.02246	10411.5625
2231.93245	10401.0625
2234.84058	10371.5625
2237.74686	10386.4625
2240.65128	10395.7625
2243.55385	10391.8625
2246.45456	10367.6625
2249.35343	10309.4625
2252.25044	10324.7625
2255.14561	10302.6625
2258.03893	10293.0625
2260.93041	10255.5625
2263.82004	10212.2625
2266.70783	10164.0625
2269.59378	10162.7625
2272.4779	10137.3625
2275.36017	10099.4625
2278.24061	10121.0625
2281.11922	10078.8625
2283.996	10046.7625
2286.87094	10034.2625
2289.74405	10017.6625
2292.61534	10003.6625
2295.4848	10000.9625
2298.35243	9993.4625
2301.21824	9991.5625
2304.08223	9963.7625
2306.94439	9972.3625
2309.80474	9996.4625
2312.66327	9990.1625
2315.51999	9975.3625
2318.37489	9959.6625
2321.22797	9960.3625
2324.07925	9937.8625
2326.92871	9931.3625
2329.77637	9908.8625
2332.62222	9896.3625
2335.46626	9897.4625
2338.3085	9888.0625
2341.14893	9890.8625
2343.98756	9913.3625
2346.8244	9905.4625
2349.65943	9911.0625
2352.49267	9892.7625
2355.32411	9921.4625
2358.15376	9924.6625
2360.98161	9894.0625
2363.80768	9905.7625
2366.63195	9925.1625
2369.45444	9906.0625
2372.27514	9907.2625
2375.09405	9888.2625
2377.91118	9883.1625
2380.72652	9843.8625
2383.54009	9809.6625
2386.35187	9797.8625
2389.16188	9741.0625
2391.97011	9746.2625
2394.77657	9705.6625
2397.58125	9711.0625
2400.38416	9686.2625
2403.18529	9654.7625
2405.98466	9668.0625
2408.78226	9650.9625
2411.57809	9617.3625
2414.37216	9640.1625
2417.16446	9616.5625
2419.955	9606.9625
2422.74378	9606.6625
2425.5308	9581.9625
2428.31606	9571.6625
2431.09956	9557.2625
2433.88131	9560.9625
2436.6613	9542.3625
2439.43954	9558.5625
2442.21603	9576.4625
2444.99077	9571.0625
2447.76377	9602.5625
2450.53501	9566.3625
2453.30451	9601.3625
2456.07226	9600.0625
2458.83827	9596.6625
2461.60254	9583.3625
2464.36507	9609.0625
2467.12586	9584.1625
2469.88492	9577.5625
2472.64224	9600.5625
2475.39782	9578.9625
2478.15167	9619.9625
2480.90379	9598.8625
2483.65417	9590.0625
2486.40283	9610.5625
2489.14976	9607.9625
2491.89497	9621.1625
2494.63845	9650.9625
2497.3802	9618.8625
2500.12024	9637.7625
2502.85855	9654.6625
2505.59514	9624.6625
2508.33002	9577.5625
2511.06318	9580.2625
2513.79462	9557.6625
2516.52435	9524.4625
2519.25237	9516.1625
2521.97867	9513.1625
2524.70327	9504.7625
2527.42616	9495.6625
2530.14734	9508.7625
2532.86681	9493.8625
2535.58458	9496.3625
2538.30065	9457.1625
2541.01501	9505.8625
2543.72768	9482.7625
2546.43864	9481.9625
2549.14791	9464.4625
2551.85548	9475.7625
2554.56136	9462.0625
2557.26554	9461.7625
2559.96803	9462.9625
2562.66883	9470.7625
2565.36794	9454.8625
2568.06536	9469.5625
2570.7611	9419.8625
2573.45514	9454.3625
2576.14751	9417.0625
2578.83819	9435.5625
2581.52719	9446.8625
2584.21451	9403.4625
2586.90015	9396.5625
2589.58411	9368.8625
2592.2664	9369.1625
2594.94701	9343.4625
2597.62594	9333.1625
2600.30321	9339.9625
2602.9788	9337.4625
2605.65273	9347.3625
2608.32498	9356.5625
2610.99557	9329.4625
2613.66449	9361.2625
2616.33175	9361.3625
2618.99734	9359.5625
2621.66128	9352.1625
2624.32355	9325.1625
2626.98416	9342.6625
2629.64311	9336.9625
2632.30041	9309.2625
2634.95605	9307.5625
2637.61004	9282.7625
2640.26238	9280.1625
2642.91306	9284.6625
2645.56209	9316.7625
2648.20948	9298.0625
2650.85521	9308.0625
2653.4993	9312.7625
2656.14175	9340.0625
2658.78255	9348.3625
2661.42171	9336.5625
2664.05923	9377.9625
2666.6951	9372.8625
2669.32934	9390.0625
2671.96194	9387.5625
2674.59291	9381.8625
2677.22224	9378.1625
2679.84993	9359.4625
2682.476	9362.6625
2685.10043	9385.4625
2687.72324	9362.5625
2690.34441	9364.0625
2692.96396	9376.0625
2695.58188	9369.3625
2698.19818	9366.4625
2700.81285	9371.1625
2703.4259	9356.7625
2706.03733	9357.4625
2708.64714	9347.8625
2711.25533	9363.2625
2713.86191	9377.1625
2716.46687	9405.0625
2719.07021	9374.2625
2721.67194	9425.9625
2724.27206	9406.1625
2726.87057	9428.5625
2729.46747	9433.7625
2732.06276	9437.1625
2734.65644	9401.6625
2737.24852	9394.8625
2739.83899	9400.7625
2742.42786	9418.7625
2745.01513	9410.5625
2747.60079	9407.9625
2750.18486	9410.5625
2752.76733	9399.4625
2755.3482	9374.6625
2757.92747	9393.2625
2760.50515	9411.0625
2763.08123	9402.5625
2765.65573	9383.8625
2768.22863	9365.1625
2770.79994	9394.4625
2773.36967	9362.2625
2775.9378	9344.7625
2778.50435	9377.2625
2781.06932	9376.4625
2783.6327	9365.6625
2786.1945	9342.7625
2788.75471	9327.0625
2791.31335	9330.9625
2793.87041	9308.7625
2796.42589	9323.9625
2798.97979	9331.8625
2801.53212	9304.5625
2804.08288	9305.3625
2806.63206	9298.5625
2809.17967	9291.1625
2811.72571	9279.0625
2814.27018	9277.6625
2816.81308	9250.3625
2819.35442	9245.7625
2821.89419	9243.3625
2824.43239	9256.5625
2826.96904	9233.1625
2829.50412	9228.6625
2832.03763	9209.9625
2834.56959	9223.3625
2837.1	9196.5625
2839.62884	9222.0625
2842.15613	9213.9625
2844.68186	9202.8625
2847.20604	9204.6625
2849.72867	9195.1625
2852.24974	9193.0625
2854.76927	9170.2625
2857.28724	9179.8625
2859.80367	9178.5625
2862.31855	9179.8625
2864.83189	9192.9625
2867.34368	9166.8625
2869.85393	9180.4625
2872.36264	9157.6625
2874.8698	9202.8625
2877.37543	9180.1625
2879.87952	9179.7625
2882.38207	9187.4625
2884.88308	9170.4625
2887.38256	9181.1625
2889.88051	9174.9625
2892.37692	9185.2625
2894.8718	9181.1625
2897.36515	9185.0625
2899.85698	9183.9625
2902.34727	9224.3625
2904.83604	9202.5625
2907.32328	9200.0625
2909.809	9201.7625
2912.29319	9185.1625
2914.77587	9204.5625
2917.25702	9207.9625
2919.73665	9206.4625
2922.21476	9185.0625
2924.69136	9164.1625
2927.16644	9192.6625
2929.64	9163.6625
2932.11205	9125.7625
2934.58258	9101.0625
2937.05161	9125.8625
2939.51912	9110.2625
2941.98513	9104.0625
2944.44962	9102.7625
2946.91261	9045.0625
2949.37409	9072.6625
2951.83407	9073.8625
2954.29254	9070.9625
2956.74951	9043.2625
2959.20498	9045.5625
2961.65895	9010.6625
2964.11142	8980.8625
2966.56239	8960.5625
2969.01186	8947.8625
2971.45984	8918.5625
2973.90632	8925.6625
2976.35131	8837.0625
2978.7948	8858.0625
2981.23681	8806.7625
2983.67732	8798.4625
2986.11635	8777.6625
2988.55388	8722.5625
2990.98993	8699.9625
2993.4245	8678.3625
2995.85758	8681.3625
2998.28917	8668.8625
3000.71928	8648.3625
3003.14791	8636.8625
3005.57506	8618.3625
3008.00073	8611.4625
3010.42493	8597.0625
3012.84764	8587.3625
3015.26888	8564.9625
3017.68865	8553.9625
3020.10694	8524.7625
3022.52376	8506.1625
3024.9391	8501.3625
3027.35298	8477.8625
3029.76539	8452.9625
3032.17632	8452.0625
3034.5858	8416.7625
3036.9938	8425.6625
3039.40034	8391.9625
3041.80542	8398.1625
3044.20903	8373.7625
3046.61118	8367.1625
3049.01187	8352.6625
3051.4111	8354.8625
3053.80888	8321.7625
3056.20519	8298.8625
