Data from AgNP_FTO_APTES_UA_100uM_CRN_2uM_R6G_10uM_NaF_0.1M_Addition_RamanShift__25__14-14-00-322.txt Node

Date: Thu Mar 24 14:14:00 GMT 2022
User: TCL
Spectrometer: QEP01345
Trigger mode: 4
Integration Time (sec): 7.000000E0
Scans to average: 10
Electric dark correction enabled: true
Nonlinearity correction enabled: false
Boxcar width: 0
XAxis mode: Raman Shifts
Number of Pixels in Spectrum: 1044
>>>>>Begin Spectral Data<<<<<
46.04893	-1.1125
50.45542	0.9875
54.85868	-0.4125
59.25871	-0.6125
63.6555	44.2875
68.04907	47.4875
72.43941	46.2875
76.82654	49.7875
81.21044	54.8875
85.59113	54.5875
89.96862	56.5875
94.34289	56.3875
98.71396	63.3875
103.08183	59.0875
107.4465	58.9875
111.80798	67.5875
116.16626	67.7875
120.52136	68.0875
124.87327	69.5875
129.222	73.7875
133.56755	79.2875
137.90993	81.3875
142.24913	95.1875
146.58517	103.2875
150.91804	122.0875
155.24774	144.4875
159.57429	178.8875
163.89768	237.0875
168.21792	315.5875
172.53501	437.9875
176.84895	600.9875
181.15975	856.2875
185.46741	1191.9875
189.77193	1652.8875
194.07331	2220.8875
198.37157	2879.8875
202.6667	3583.9875
206.9587	4312.9875
211.24758	5057.2875
215.53334	5867.7875
219.81599	6777.6875
224.09553	7844.0875
228.37195	9024.9875
232.64527	10271.0875
236.91549	11478.1875
241.18261	12545.5875
245.44663	13267.7875
249.70755	13833.6875
253.96539	14311.4875
258.22014	14766.7875
262.4718	15159.8875
266.72039	15409.8875
270.96589	15392.2875
275.20832	15139.7875
279.44768	14743.8875
283.68397	14328.2875
287.91719	14123.4875
292.14735	14225.1875
296.37445	14723.7875
300.59849	15670.2875
304.81948	16801.8875
309.03742	17700.5875
313.25231	17864.6875
317.46415	16981.2875
321.67296	15340.1875
325.87872	13875.7875
330.08145	13141.0875
334.28114	13055.6875
338.47781	13343.2875
342.67145	13889.3875
346.86207	14624.4875
351.04966	15754.7875
355.23424	17102.8875
359.4158	18123.9875
363.59435	18560.1875
367.76989	18611.7875
371.94243	18369.7875
376.11196	18073.0875
380.27849	17798.7875
384.44203	17416.2875
388.60257	16990.8875
392.76012	16751.1875
396.91468	16821.4875
401.06626	17259.8875
405.21485	17585.9875
409.36047	17121.6875
413.50311	15819.5875
417.64277	14567.1875
421.77947	13824.9875
425.9132	13466.3875
430.04396	13371.6875
434.17176	13432.1875
438.2966	13644.2875
442.41849	14051.0875
446.53742	14527.5875
450.6534	15028.0875
454.76644	15285.3875
458.87653	15220.7875
462.98368	14980.8875
467.08789	14604.5875
471.18916	14189.1875
475.2875	13740.0875
479.38291	13328.0875
483.4754	13003.0875
487.56496	12754.1875
491.6516	12636.0875
495.73531	12590.1875
499.81612	12671.5875
503.89401	12900.9875
507.96899	13155.4875
512.04106	13478.2875
516.11023	13859.3875
520.1765	14083.1875
524.23987	14115.4875
528.30034	13893.2875
532.35792	13687.7875
536.41261	13366.7875
540.46441	12912.4875
544.51333	12724.5875
548.55936	12844.8875
552.60252	13262.0875
556.64279	13817.3875
560.6802	14067.1875
564.71473	14405.6875
568.7464	15238.0875
572.7752	15664.2875
576.80114	14831.3875
580.82422	13897.7875
584.84444	13572.1875
588.86181	13558.4875
592.87633	13730.4875
596.888	14020.5875
600.89682	14643.2875
604.9028	17273.2875
608.90594	24440.3875
612.90624	33807.8875
616.90371	32624.7875
620.89834	20673.7875
624.89015	14717.5875
628.87913	13621.0875
632.86528	13908.2875
636.84862	14328.8875
640.82913	13941.1875
644.80683	12920.7875
648.78172	12147.1875
652.75379	12185.8875
656.72306	12997.0875
660.68952	13967.9875
664.65319	13740.9875
668.61405	12655.0875
672.57211	12123.7875
676.52738	12066.1875
680.47986	12027.3875
684.42955	11790.3875
688.37646	11656.0875
692.32058	11733.9875
696.26192	11873.5875
700.20048	12107.5875
704.13626	12270.8875
708.06928	12231.7875
711.99952	12061.1875
715.927	12059.8875
719.85171	12187.3875
723.77365	12302.0875
727.69284	12204.7875
731.60928	12020.1875
735.52295	11994.3875
739.43388	12035.9875
743.34206	12112.9875
747.24749	12151.1875
751.15017	12217.6875
755.05012	12491.1875
758.94733	13509.3875
762.8418	16113.0875
766.73354	20402.9875
770.62254	24594.6875
774.50882	26547.1875
778.39237	25113.1875
782.27321	20764.1875
786.15132	16408.0875
790.02671	13824.0875
793.89938	12696.1875
797.76935	12214.5875
801.6366	11991.7875
805.50115	11904.4875
809.36299	11852.9875
813.22213	11799.7875
817.07857	11769.0875
820.93231	11734.1875
824.78336	11764.5875
828.63172	11869.4875
832.47738	11920.6875
836.32036	11833.4875
840.16066	11724.6875
843.99827	11665.8875
847.8332	11611.1875
851.66546	11586.2875
855.49504	11608.7875
859.32195	11557.6875
863.1462	11484.3875
866.96777	11434.8875
870.78668	11427.2875
874.60293	11480.2875
878.41652	11550.1875
882.22745	11702.0875
886.03573	11784.7875
889.84136	11772.4875
893.64433	11711.9875
897.44466	11672.2875
901.24235	11662.2875
905.0374	11584.2875
908.8298	11457.0875
912.61957	11362.7875
916.40671	11379.1875
920.19121	11518.0875
923.97308	11710.9875
927.75233	11984.4875
931.52895	12317.9875
935.30295	12174.4875
939.07433	11644.7875
942.84309	11217.4875
946.60924	10961.9875
950.37278	10801.9875
954.13371	10743.4875
957.89203	10671.4875
961.64774	10629.0875
965.40086	10585.2875
969.15137	10540.0875
972.89929	10530.3875
976.64461	10502.9875
980.38733	10506.9875
984.12747	10543.7875
987.86502	10613.9875
991.59999	10724.7875
995.33237	10926.7875
999.06217	11266.7875
1002.78939	11705.7875
1006.51404	12148.6875
1010.23611	12460.4875
1013.95561	12578.5875
1017.67255	12521.0875
1021.38692	12363.7875
1025.09872	12151.2875
1028.80796	12069.6875
1032.51465	12302.0875
1036.21877	12547.2875
1039.92035	12699.3875
1043.61937	12637.3875
1047.31584	12525.6875
1051.00976	12279.4875
1054.70114	12116.2875
1058.38998	12036.9875
1062.07627	12008.1875
1065.76003	12063.5875
1069.44126	12123.9875
1073.11995	12318.6875
1076.79611	12593.8875
1080.46974	13082.4875
1084.14085	13726.4875
1087.80943	14330.6875
1091.47549	14523.5875
1095.13903	14104.3875
1098.80005	13423.6875
1102.45857	12902.1875
1106.11456	12822.7875
1109.76805	13021.2875
1113.41903	13644.9875
1117.06751	14612.7875
1120.71348	15792.4875
1124.35696	17083.2875
1127.99793	17926.2875
1131.63641	17352.6875
1135.2724	15900.9875
1138.90589	14691.6875
1142.5369	13917.2875
1146.16542	13433.2875
1149.79145	13147.0875
1153.415	13088.1875
1157.03607	13222.4875
1160.65467	13613.5875
1164.27079	14363.7875
1167.88443	15473.8875
1171.49561	17243.5875
1175.10432	20108.2875
1178.71056	23991.7875
1182.31434	27225.1875
1185.91565	28122.9875
1189.51451	26896.4875
1193.11091	24572.7875
1196.70485	22003.1875
1200.29634	20064.5875
1203.88538	18762.1875
1207.47197	17180.4875
1211.05612	15750.2875
1214.63782	14911.9875
1218.21708	14578.0875
1221.79391	14547.7875
1225.36829	14630.5875
1228.94024	14513.8875
1232.50976	14378.9875
1236.07685	14270.3875
1239.6415	14235.5875
1243.20374	14356.6875
1246.76355	14549.5875
1250.32093	14803.9875
1253.8759	15211.5875
1257.42845	15862.9875
1260.97859	16612.3875
1264.52631	17421.2875
1268.07163	18270.4875
1271.61453	18924.2875
1275.15503	19370.5875
1278.69312	19600.4875
1282.22882	19929.9875
1285.76211	20594.0875
1289.29301	21539.6875
1292.82151	22463.5875
1296.34761	23583.3875
1299.87133	25443.0875
1303.39266	28779.8875
1306.9116	33924.7875
1310.42815	39317.3875
1313.94233	41310.9875
1317.45412	38619.6875
1320.96354	33882.8875
1324.47058	29387.9875
1327.97525	25886.9875
1331.47754	23790.9875
1334.97747	23104.3875
1338.47502	23397.9875
1341.97022	24637.2875
1345.46305	26765.7875
1348.95352	29670.6875
1352.44163	33232.3875
1355.92738	38563.7875
1359.41078	46855.7875
1362.89183	54041.8875
1366.37053	50777.0875
1369.84688	39678.1875
1373.32088	30405.5875
1376.79254	25164.3875
1380.26186	22383.7875
1383.72883	20729.4875
1387.19347	19523.8875
1390.65578	18466.0875
1394.11575	17620.8875
1397.57339	17202.5875
1401.0287	17138.3875
1404.48168	17224.9875
1407.93234	17327.9875
1411.38068	17550.9875
1414.82669	17765.1875
1418.27039	17734.8875
1421.71177	17457.0875
1425.15083	16966.9875
1428.58758	16828.1875
1432.02203	17108.3875
1435.45416	17451.7875
1438.88399	17498.6875
1442.31151	17458.2875
1445.73673	17551.3875
1449.15965	17736.9875
1452.58027	17647.4875
1455.9986	17394.2875
1459.41463	17354.0875
1462.82837	17595.0875
1466.23982	18227.4875
1469.64898	18854.7875
1473.05586	19269.6875
1476.46045	19422.9875
1479.86276	19791.4875
1483.26279	20328.3875
1486.66054	21134.7875
1490.05602	22374.5875
1493.44922	24210.4875
1496.84016	27182.0875
1500.22882	31840.1875
1503.61521	38595.7875
1506.99934	46278.1875
1510.38121	52079.1875
1513.76081	52459.5875
1517.13816	46486.3875
1520.51324	37806.2875
1523.88607	30388.1875
1527.25665	25856.1875
1530.62498	23417.0875
1533.99105	21969.5875
1537.35488	21041.3875
1540.71647	20491.4875
1544.07581	20191.6875
1547.4329	20145.9875
1550.78776	20209.4875
1554.14038	20411.4875
1557.49077	20770.3875
1560.83892	21416.3875
1564.18484	22402.1875
1567.52853	23636.2875
1570.86999	24557.0875
1574.20922	25029.9875
1577.54624	24660.5875
1580.88103	22778.5875
1584.2136	20245.4875
1587.54395	18830.2875
1590.87208	18789.4875
1594.19801	20135.2875
1597.52172	22108.5875
1600.84321	23121.2875
1604.16251	22350.6875
1607.47959	20832.6875
1610.79447	19122.5875
1614.10715	17401.0875
1617.41763	15943.3875
1620.7259	14958.5875
1624.03199	14535.1875
1627.33587	14580.4875
1630.63757	15079.6875
1633.93707	16138.6875
1637.23439	17948.8875
1640.52951	20824.7875
1643.82246	25325.0875
1647.11321	30753.9875
1650.40179	34419.7875
1653.68819	32827.1875
1656.97241	26932.1875
1660.25446	20885.6875
1663.53433	16761.2875
1666.81203	14444.4875
1670.08756	13126.0875
1673.36092	12348.5875
1676.63211	11855.9875
1679.90115	11516.0875
1683.16801	11289.5875
1686.43272	11103.0875
1689.69527	10961.6875
1692.95567	10870.9875
1696.2139	10796.7875
1699.46999	10754.3875
1702.72392	10714.1875
1705.97571	10678.3875
1709.22535	10678.2875
1712.47284	10675.9875
1715.71819	10674.7875
1718.96139	10657.9875
1722.20246	10616.2875
1725.44139	10510.4875
1728.67818	10395.2875
1731.91284	10315.9875
1735.14537	10183.4875
1738.37576	10116.5875
1741.60403	10079.1875
1744.83017	10033.2875
1748.05418	10004.2875
1751.27607	9970.8875
1754.49584	9950.6875
1757.71349	9932.8875
1760.92903	9893.7875
1764.14244	9891.5875
1767.35375	9852.1875
1770.56294	9828.4875
1773.77002	9774.9875
1776.97499	9706.9875
1780.17785	9657.9875
1783.37861	9660.3875
1786.57727	9647.4875
1789.77382	9598.7875
1792.96828	9601.8875
1796.16064	9576.6875
1799.3509	9566.4875
1802.53907	9544.0875
1805.72514	9497.0875
1808.90913	9475.5875
1812.09102	9440.9875
1815.27083	9426.7875
1818.44856	9395.4875
1821.6242	9371.9875
1824.79776	9344.3875
1827.96924	9356.0875
1831.13864	9325.8875
1834.30597	9311.7875
1837.47122	9277.3875
1840.6344	9253.5875
1843.7955	9270.2875
1846.95454	9237.6875
1850.11151	9231.7875
1853.26642	9232.7875
1856.41926	9200.3875
1859.57004	9214.3875
1862.71876	9192.2875
1865.86542	9216.8875
1869.01003	9218.2875
1872.15258	9188.2875
1875.29308	9210.8875
1878.43152	9173.6875
1881.56792	9200.0875
1884.70227	9191.2875
1887.83457	9198.8875
1890.96482	9206.1875
1894.09304	9198.2875
1897.21921	9202.3875
1900.34335	9188.0875
1903.46544	9177.1875
1906.58551	9174.7875
1909.70353	9178.1875
1912.81953	9166.9875
1915.93349	9178.8875
1919.04543	9139.8875
1922.15534	9123.8875
1925.26322	9108.9875
1928.36908	9081.5875
1931.47292	9071.5875
1934.57473	9012.7875
1937.67453	8980.3875
1940.77232	8955.7875
1943.86808	8920.4875
1946.96184	8918.6875
1950.05358	8879.3875
1953.14331	8871.9875
1956.23103	8857.2875
1959.31675	8857.1875
1962.40046	8823.1875
1965.48217	8832.9875
1968.56188	8821.8875
1971.63959	8804.9875
1974.7153	8801.4875
1977.78901	8766.3875
1980.86073	8733.5875
1983.93046	8713.6875
1986.99819	8619.4875
1990.06394	8599.9875
1993.1277	8546.0875
1996.18947	8538.1875
1999.24925	8508.6875
2002.30706	8474.9875
2005.36288	8427.5875
2008.41672	8411.9875
2011.46859	8373.9875
2014.51848	8355.5875
2017.56639	8342.6875
2020.61233	8324.6875
2023.6563	8281.5875
2026.6983	8282.0875
2029.73833	8258.8875
2032.7764	8241.2875
2035.8125	8235.8875
2038.84664	8212.0875
2041.87881	8195.5875
2044.90903	8189.4875
2047.93729	8185.4875
2050.96359	8164.2875
2053.98794	8160.9875
2057.01034	8118.0875
2060.03078	8105.7875
2063.04927	8085.0875
2066.06582	8074.0875
2069.08042	8078.8875
2072.09307	8068.1875
2075.10378	8060.4875
2078.11255	8067.4875
2081.11938	8046.1875
2084.12426	8035.5875
2087.12722	8049.2875
2090.12824	8043.1875
2093.12732	8060.9875
2096.12447	8052.1875
2099.11969	8071.0875
2102.11299	8059.9875
2105.10435	8066.0875
2108.09379	8067.6875
2111.08131	8056.4875
2114.0669	8086.5875
2117.05057	8108.6875
2120.03233	8124.4875
2123.01216	8135.6875
2125.99008	8156.5875
2128.96609	8152.4875
2131.94018	8145.5875
2134.91236	8131.8875
2137.88263	8151.3875
2140.851	8130.0875
2143.81746	8127.4875
2146.78201	8121.2875
2149.74466	8122.3875
2152.7054	8108.3875
2155.66425	8106.7875
2158.6212	8114.3875
2161.57625	8109.4875
2164.52941	8071.6875
2167.48067	8101.1875
2170.43004	8069.3875
2173.37752	8074.8875
2176.32311	8100.0875
2179.26681	8086.7875
2182.20863	8098.9875
2185.14856	8083.1875
2188.08661	8103.2875
2191.02278	8078.5875
2193.95707	8062.6875
2196.88948	8058.7875
2199.82001	8034.6875
2202.74867	8034.2875
2205.67545	8035.4875
2208.60037	8044.3875
2211.52341	8033.2875
2214.44458	8012.9875
2217.36388	8006.4875
2220.28132	8017.4875
2223.1969	7997.8875
2226.11061	7994.1875
2229.02246	7961.9875
2231.93245	7953.8875
2234.84058	7923.6875
2237.74686	7912.2875
2240.65128	7889.5875
2243.55385	7907.7875
2246.45456	7894.5875
2249.35343	7891.4875
2252.25044	7900.9875
2255.14561	7896.5875
2258.03893	7917.3875
2260.93041	7913.5875
2263.82004	7919.9875
2266.70783	7911.8875
2269.59378	7879.3875
2272.4779	7866.1875
2275.36017	7869.6875
2278.24061	7821.5875
2281.11922	7823.3875
2283.996	7811.1875
2286.87094	7808.6875
2289.74405	7761.5875
2292.61534	7734.9875
2295.4848	7754.9875
2298.35243	7744.5875
2301.21824	7721.7875
2304.08223	7703.4875
2306.94439	7725.9875
2309.80474	7719.7875
2312.66327	7730.7875
2315.51999	7715.6875
2318.37489	7708.3875
2321.22797	7718.2875
2324.07925	7709.2875
2326.92871	7711.5875
2329.77637	7714.3875
2332.62222	7714.5875
2335.46626	7695.8875
2338.3085	7712.4875
2341.14893	7736.1875
2343.98756	7716.4875
2346.8244	7746.8875
2349.65943	7751.1875
2352.49267	7759.5875
2355.32411	7784.0875
2358.15376	7801.0875
2360.98161	7813.4875
2363.80768	7853.0875
2366.63195	7837.9875
2369.45444	7826.4875
2372.27514	7832.9875
2375.09405	7821.5875
2377.91118	7793.4875
2380.72652	7750.0875
2383.54009	7707.2875
2386.35187	7698.5875
2389.16188	7630.5875
2391.97011	7616.9875
2394.77657	7612.7875
2397.58125	7569.2875
2400.38416	7568.2875
2403.18529	7531.9875
2405.98466	7497.9875
2408.78226	7497.7875
2411.57809	7481.7875
2414.37216	7467.6875
2417.16446	7453.0875
2419.955	7453.6875
2422.74378	7456.7875
2425.5308	7451.3875
2428.31606	7440.3875
2431.09956	7472.0875
2433.88131	7453.7875
2436.6613	7452.5875
2439.43954	7484.0875
2442.21603	7478.2875
2444.99077	7472.1875
2447.76377	7482.2875
2450.53501	7489.6875
2453.30451	7501.0875
2456.07226	7465.1875
2458.83827	7486.2875
2461.60254	7472.6875
2464.36507	7487.6875
2467.12586	7477.6875
2469.88492	7511.5875
2472.64224	7499.2875
2475.39782	7538.5875
2478.15167	7533.0875
2480.90379	7533.2875
2483.65417	7574.5875
2486.40283	7608.6875
2489.14976	7634.7875
2491.89497	7633.6875
2494.63845	7657.0875
2497.3802	7639.5875
2500.12024	7626.8875
2502.85855	7617.4875
2505.59514	7563.7875
2508.33002	7551.2875
2511.06318	7518.5875
2513.79462	7463.0875
2516.52435	7423.9875
2519.25237	7417.7875
2521.97867	7398.2875
2524.70327	7384.1875
2527.42616	7344.9875
2530.14734	7353.2875
2532.86681	7336.4875
2535.58458	7335.4875
2538.30065	7354.2875
2541.01501	7350.2875
2543.72768	7348.0875
2546.43864	7345.6875
2549.14791	7342.3875
2551.85548	7341.2875
2554.56136	7344.2875
2557.26554	7340.2875
2559.96803	7323.5875
2562.66883	7308.0875
2565.36794	7323.5875
2568.06536	7321.2875
2570.7611	7302.3875
2573.45514	7303.4875
2576.14751	7268.4875
2578.83819	7272.6875
2581.52719	7274.0875
2584.21451	7241.1875
2586.90015	7247.5875
2589.58411	7209.8875
2592.2664	7247.2875
2594.94701	7210.8875
2597.62594	7226.2875
2600.30321	7194.1875
2602.9788	7208.0875
2605.65273	7217.6875
2608.32498	7226.5875
2610.99557	7219.3875
2613.66449	7221.7875
2616.33175	7230.5875
2618.99734	7233.8875
2621.66128	7230.2875
2624.32355	7232.8875
2626.98416	7243.1875
2629.64311	7203.8875
2632.30041	7211.7875
2634.95605	7195.4875
2637.61004	7196.9875
2640.26238	7164.0875
2642.91306	7147.7875
2645.56209	7153.9875
2648.20948	7148.3875
2650.85521	7161.0875
2653.4993	7136.7875
2656.14175	7145.8875
2658.78255	7161.4875
2661.42171	7152.1875
2664.05923	7160.7875
2666.6951	7194.0875
2669.32934	7201.7875
2671.96194	7201.4875
2674.59291	7211.1875
2677.22224	7207.0875
2679.84993	7209.7875
2682.476	7207.0875
2685.10043	7191.7875
2687.72324	7187.5875
2690.34441	7201.1875
2692.96396	7180.9875
2695.58188	7188.4875
2698.19818	7199.7875
2700.81285	7178.0875
2703.4259	7179.7875
2706.03733	7188.7875
2708.64714	7200.2875
2711.25533	7196.2875
2713.86191	7183.0875
2716.46687	7191.9875
2719.07021	7201.4875
2721.67194	7221.9875
2724.27206	7191.0875
2726.87057	7184.9875
2729.46747	7181.8875
2732.06276	7173.7875
2734.65644	7173.9875
2737.24852	7182.8875
2739.83899	7153.2875
2742.42786	7156.0875
2745.01513	7142.2875
2747.60079	7134.0875
2750.18486	7126.9875
2752.76733	7114.9875
2755.3482	7091.7875
2757.92747	7085.2875
2760.50515	7079.8875
2763.08123	7085.0875
2765.65573	7091.6875
2768.22863	7080.8875
2770.79994	7058.8875
2773.36967	7070.8875
2775.9378	7082.0875
2778.50435	7080.3875
2781.06932	7081.5875
2783.6327	7069.9875
2786.1945	7043.3875
2788.75471	7051.9875
2791.31335	7042.2875
2793.87041	7045.1875
2796.42589	7051.6875
2798.97979	7059.7875
2801.53212	7035.2875
2804.08288	7039.8875
2806.63206	7048.6875
2809.17967	7041.9875
2811.72571	7062.0875
2814.27018	7064.4875
2816.81308	7062.9875
2819.35442	7092.6875
2821.89419	7106.3875
2824.43239	7091.7875
2826.96904	7116.6875
2829.50412	7106.5875
2832.03763	7101.3875
2834.56959	7075.8875
2837.1	7065.4875
2839.62884	7092.3875
2842.15613	7054.6875
2844.68186	7054.5875
2847.20604	7067.2875
2849.72867	7081.4875
2852.24974	7082.1875
2854.76927	7077.9875
2857.28724	7053.4875
2859.80367	7104.7875
2862.31855	7106.0875
2864.83189	7114.6875
2867.34368	7153.3875
2869.85393	7164.6875
2872.36264	7178.5875
2874.8698	7179.8875
2877.37543	7162.0875
2879.87952	7180.8875
2882.38207	7163.1875
2884.88308	7148.7875
2887.38256	7145.4875
2889.88051	7130.8875
2892.37692	7125.4875
2894.8718	7113.6875
2897.36515	7125.1875
2899.85698	7132.5875
2902.34727	7123.0875
2904.83604	7109.8875
2907.32328	7124.0875
2909.809	7120.8875
2912.29319	7126.4875
2914.77587	7100.4875
2917.25702	7065.1875
2919.73665	7068.2875
2922.21476	7068.1875
2924.69136	7052.2875
2927.16644	7035.3875
2929.64	7026.1875
2932.11205	7013.9875
2934.58258	6992.4875
2937.05161	6999.9875
2939.51912	7001.0875
2941.98513	6985.3875
2944.44962	6970.2875
2946.91261	6941.0875
2949.37409	6965.8875
2951.83407	6966.9875
2954.29254	6957.4875
2956.74951	6965.4875
2959.20498	6942.0875
2961.65895	6925.9875
2964.11142	6932.8875
2966.56239	6912.6875
2969.01186	6897.0875
2971.45984	6875.0875
2973.90632	6862.6875
2976.35131	6849.7875
2978.7948	6829.3875
2981.23681	6822.5875
2983.67732	6814.4875
2986.11635	6794.2875
2988.55388	6785.4875
2990.98993	6781.1875
2993.4245	6754.6875
2995.85758	6769.3875
2998.28917	6767.8875
3000.71928	6741.9875
3003.14791	6743.5875
3005.57506	6747.7875
3008.00073	6739.6875
3010.42493	6745.0875
3012.84764	6733.6875
3015.26888	6744.7875
3017.68865	6727.6875
3020.10694	6707.6875
3022.52376	6697.1875
3024.9391	6653.4875
3027.35298	6641.8875
3029.76539	6644.7875
3032.17632	6627.5875
3034.5858	6623.3875
3036.9938	6590.5875
3039.40034	6565.2875
3041.80542	6548.4875
3044.20903	6497.5875
3046.61118	6530.1875
3049.01187	6486.1875
3051.4111	6495.1875
3053.80888	6448.8875
3056.20519	6471.5875
3058.60005	6460.2875
3060.99345	6438.2875
3063.3854	6415.3875
3065.7759	6396.1875
3068.16494	6405.7875
3070.55254	6382.2875
3072.93868	6376.4875
3075.32338	6351.7875
3077.70662	6329.5875
