Data from AgNP_FTO_APTES_UA_100uM_CRN_50uM_R6G_10uM_NaF_0.1M_Addition_RamanShift__20__17-31-10-545.txt Node

Date: Thu Mar 24 17:31:10 GMT 2022
User: TCL
Spectrometer: QEP01345
Trigger mode: 4
Integration Time (sec): 7.000000E0
Scans to average: 10
Electric dark correction enabled: true
Nonlinearity correction enabled: false
Boxcar width: 0
XAxis mode: Raman Shifts
Number of Pixels in Spectrum: 1044
>>>>>Begin Spectral Data<<<<<
46.04893	-2.3125
50.45542	-0.3125
54.85868	-0.1125
59.25871	-0.4125
63.6555	36.0875
68.04907	39.4875
72.43941	38.9875
76.82654	39.0875
81.21044	44.0875
85.59113	45.2875
89.96862	44.8875
94.34289	41.8875
98.71396	45.3875
103.08183	46.8875
107.4465	49.1875
111.80798	51.8875
116.16626	49.1875
120.52136	53.7875
124.87327	55.2875
129.222	53.8875
133.56755	63.1875
137.90993	65.4875
142.24913	78.6875
146.58517	81.0875
150.91804	94.3875
155.24774	116.2875
159.57429	146.1875
163.89768	184.3875
168.21792	244.9875
172.53501	335.0875
176.84895	479.0875
181.15975	677.5875
185.46741	939.0875
189.77193	1303.5875
194.07331	1743.2875
198.37157	2265.9875
202.6667	2799.4875
206.9587	3338.6875
211.24758	3865.9875
215.53334	4392.4875
219.81599	4999.0875
224.09553	5634.3875
228.37195	6366.0875
232.64527	7169.1875
236.91549	8016.3875
241.18261	8834.4875
245.44663	9561.2875
249.70755	10151.8875
253.96539	10662.1875
258.22014	11091.3875
262.4718	11466.8875
266.72039	11731.8875
270.96589	11882.5875
275.20832	11901.7875
279.44768	11855.9875
283.68397	11729.1875
287.91719	11624.2875
292.14735	11601.8875
296.37445	11657.5875
300.59849	11817.0875
304.81948	11985.7875
309.03742	12061.8875
313.25231	12017.5875
317.46415	11731.2875
321.67296	11360.9875
325.87872	10980.2875
330.08145	10808.2875
334.28114	10788.7875
338.47781	10897.6875
342.67145	11054.1875
346.86207	11275.3875
351.04966	11558.7875
355.23424	11830.6875
359.4158	12067.6875
363.59435	12193.4875
367.76989	12280.1875
371.94243	12315.7875
376.11196	12372.3875
380.27849	12352.9875
384.44203	12372.2875
388.60257	12391.4875
392.76012	12477.4875
396.91468	12605.4875
401.06626	12759.5875
405.21485	12915.6875
409.36047	12776.6875
413.50311	12445.3875
417.64277	12130.5875
421.77947	11992.9875
425.9132	11981.5875
430.04396	12006.3875
434.17176	12119.6875
438.2966	12218.6875
442.41849	12389.3875
446.53742	12679.1875
450.6534	12939.7875
454.76644	13126.4875
458.87653	13152.9875
462.98368	13103.7875
467.08789	13017.4875
471.18916	12875.2875
475.2875	12742.9875
479.38291	12611.5875
483.4754	12445.6875
487.56496	12313.5875
491.6516	12243.1875
495.73531	12166.2875
499.81612	12127.8875
503.89401	12205.2875
507.96899	12257.1875
512.04106	12278.0875
516.11023	12306.1875
520.1765	12278.8875
524.23987	12228.1875
528.30034	12174.8875
532.35792	12098.0875
536.41261	11972.2875
540.46441	11864.3875
544.51333	11840.3875
548.55936	11942.7875
552.60252	12182.1875
556.64279	12422.6875
560.6802	12558.0875
564.71473	12624.5875
568.7464	12761.9875
572.7752	13041.7875
576.80114	13208.8875
580.82422	13311.8875
584.84444	13464.2875
588.86181	13571.4875
592.87633	13744.1875
596.888	13883.8875
600.89682	13970.8875
604.9028	14577.1875
608.90594	16332.1875
612.90624	18507.8875
616.90371	17606.0875
620.89834	14127.8875
624.89015	12476.0875
628.87913	12214.1875
632.86528	12389.5875
636.84862	12590.5875
640.82913	12517.5875
644.80683	12112.7875
648.78172	11778.2875
652.75379	11708.2875
656.72306	11869.7875
660.68952	12147.2875
664.65319	12024.1875
668.61405	11709.2875
672.57211	11580.6875
676.52738	11630.9875
680.47986	11604.0875
684.42955	11521.6875
688.37646	11456.2875
692.32058	11496.2875
696.26192	11569.7875
700.20048	11688.6875
704.13626	11782.8875
708.06928	11778.6875
711.99952	11727.9875
715.927	11689.5875
719.85171	11715.1875
723.77365	11734.7875
727.69284	11705.3875
731.60928	11584.9875
735.52295	11615.6875
739.43388	11588.1875
743.34206	11610.5875
747.24749	11636.6875
751.15017	11695.7875
755.05012	11839.3875
758.94733	12173.5875
762.8418	13031.1875
766.73354	14463.3875
770.62254	15918.2875
774.50882	16403.0875
778.39237	15600.8875
782.27321	14100.8875
786.15132	12816.3875
790.02671	12020.7875
793.89938	11650.3875
797.76935	11433.1875
801.6366	11361.1875
805.50115	11302.1875
809.36299	11253.4875
813.22213	11225.7875
817.07857	11230.9875
820.93231	11176.2875
824.78336	11138.4875
828.63172	11113.9875
832.47738	11105.3875
836.32036	11075.2875
840.16066	11036.0875
843.99827	11045.2875
847.8332	11029.8875
851.66546	11028.7875
855.49504	11056.1875
859.32195	11065.6875
863.1462	11035.1875
866.96777	11030.7875
870.78668	11019.3875
874.60293	11041.1875
878.41652	11074.9875
882.22745	11098.0875
886.03573	11137.0875
889.84136	11154.7875
893.64433	11138.5875
897.44466	11077.0875
901.24235	11020.0875
905.0374	10949.5875
908.8298	10930.5875
912.61957	10895.3875
916.40671	10938.3875
920.19121	11018.6875
923.97308	11118.1875
927.75233	11125.8875
931.52895	11045.8875
935.30295	10941.6875
939.07433	10738.4875
942.84309	10597.2875
946.60924	10473.5875
950.37278	10451.2875
954.13371	10409.7875
957.89203	10399.7875
961.64774	10421.8875
965.40086	10385.1875
969.15137	10375.8875
972.89929	10320.2875
976.64461	10285.4875
980.38733	10257.2875
984.12747	10299.0875
987.86502	10327.9875
991.59999	10348.2875
995.33237	10437.5875
999.06217	10559.3875
1002.78939	10728.7875
1006.51404	10959.2875
1010.23611	11163.6875
1013.95561	11261.9875
1017.67255	11245.4875
1021.38692	11138.2875
1025.09872	10980.2875
1028.80796	10818.2875
1032.51465	10758.6875
1036.21877	10746.0875
1039.92035	10826.0875
1043.61937	10876.3875
1047.31584	10909.8875
1051.00976	10963.5875
1054.70114	11005.9875
1058.38998	11032.6875
1062.07627	11102.1875
1065.76003	11240.1875
1069.44126	11308.3875
1073.11995	11452.0875
1076.79611	11593.8875
1080.46974	11724.3875
1084.14085	11843.1875
1087.80943	11987.4875
1091.47549	12083.2875
1095.13903	12020.1875
1098.80005	11834.9875
1102.45857	11589.0875
1106.11456	11459.6875
1109.76805	11427.9875
1113.41903	11543.2875
1117.06751	11721.8875
1120.71348	12004.2875
1124.35696	12321.4875
1127.99793	12550.9875
1131.63641	12583.9875
1135.2724	12404.3875
1138.90589	12144.6875
1142.5369	11975.4875
1146.16542	11863.9875
1149.79145	11788.3875
1153.415	11795.5875
1157.03607	11876.1875
1160.65467	12064.3875
1164.27079	12424.4875
1167.88443	13013.2875
1171.49561	13848.6875
1175.10432	15027.9875
1178.71056	16534.1875
1182.31434	17834.8875
1185.91565	18376.0875
1189.51451	18130.9875
1193.11091	17528.2875
1196.70485	16746.5875
1200.29634	15897.8875
1203.88538	15247.4875
1207.47197	14577.7875
1211.05612	13943.5875
1214.63782	13513.3875
1218.21708	13273.5875
1221.79391	13131.4875
1225.36829	13096.1875
1228.94024	13038.3875
1232.50976	12849.2875
1236.07685	12747.0875
1239.6415	12638.0875
1243.20374	12603.9875
1246.76355	12662.5875
1250.32093	12773.8875
1253.8759	12938.8875
1257.42845	13194.1875
1260.97859	13577.5875
1264.52631	13929.1875
1268.07163	14315.3875
1271.61453	14643.5875
1275.15503	14973.3875
1278.69312	15178.6875
1282.22882	15391.4875
1285.76211	15726.9875
1289.29301	16202.3875
1292.82151	16721.5875
1296.34761	17391.0875
1299.87133	18306.1875
1303.39266	19468.6875
1306.9116	20856.0875
1310.42815	22288.3875
1313.94233	23004.6875
1317.45412	22728.5875
1320.96354	21968.3875
1324.47058	21080.0875
1327.97525	20243.5875
1331.47754	19637.2875
1334.97747	19275.1875
1338.47502	19266.6875
1341.97022	19512.5875
1345.46305	20029.4875
1348.95352	20705.7875
1352.44163	21446.8875
1355.92738	22549.1875
1359.41078	24295.1875
1362.89183	25921.8875
1366.37053	25581.0875
1369.84688	22803.4875
1373.32088	19707.5875
1376.79254	17698.4875
1380.26186	16637.9875
1383.72883	16161.7875
1387.19347	15827.6875
1390.65578	15465.0875
1394.11575	15182.8875
1397.57339	15055.9875
1401.0287	15016.5875
1404.48168	15019.1875
1407.93234	14957.3875
1411.38068	14780.2875
1414.82669	14523.2875
1418.27039	14189.1875
1421.71177	13807.7875
1425.15083	13392.3875
1428.58758	13170.3875
1432.02203	13187.4875
1435.45416	13358.8875
1438.88399	13560.1875
1442.31151	13755.9875
1445.73673	13895.5875
1449.15965	14012.1875
1452.58027	14130.7875
1455.9986	14158.9875
1459.41463	14278.5875
1462.82837	14517.5875
1466.23982	14896.8875
1469.64898	15303.1875
1473.05586	15606.0875
1476.46045	15841.8875
1479.86276	15974.1875
1483.26279	16081.3875
1486.66054	16232.6875
1490.05602	16565.4875
1493.44922	17073.6875
1496.84016	17855.8875
1500.22882	19102.7875
1503.61521	20781.4875
1506.99934	22474.7875
1510.38121	23559.0875
1513.76081	23439.5875
1517.13816	22067.2875
1520.51324	20145.6875
1523.88607	18552.1875
1527.25665	17560.9875
1530.62498	17066.8875
1533.99105	16737.7875
1537.35488	16392.0875
1540.71647	16024.6875
1544.07581	15607.8875
1547.4329	15247.0875
1550.78776	14964.3875
1554.14038	14787.8875
1557.49077	14805.5875
1560.83892	14961.6875
1564.18484	15256.2875
1567.52853	15621.4875
1570.86999	15918.3875
1574.20922	16205.6875
1577.54624	16156.5875
1580.88103	15691.9875
1584.2136	15004.8875
1587.54395	14693.7875
1590.87208	14878.5875
1594.19801	15505.8875
1597.52172	16314.9875
1600.84321	16591.3875
1604.16251	16161.1875
1607.47959	15327.5875
1610.79447	14419.3875
1614.10715	13526.0875
1617.41763	12714.5875
1620.7259	12081.4875
1624.03199	11722.4875
1627.33587	11656.2875
1630.63757	11837.3875
1633.93707	12360.8875
1637.23439	13284.3875
1640.52951	14841.5875
1643.82246	16835.7875
1647.11321	18845.1875
1650.40179	19852.8875
1653.68819	19049.3875
1656.97241	16814.3875
1660.25446	14369.0875
1663.53433	12514.3875
1666.81203	11366.4875
1670.08756	10668.3875
1673.36092	10209.8875
1676.63211	9909.5875
1679.90115	9741.5875
1683.16801	9524.9875
1686.43272	9445.5875
1689.69527	9328.3875
1692.95567	9244.7875
1696.2139	9200.2875
1699.46999	9161.3875
1702.72392	9085.8875
1705.97571	9081.2875
1709.22535	9044.7875
1712.47284	8990.3875
1715.71819	8993.0875
1718.96139	8921.5875
1722.20246	8870.2875
1725.44139	8834.1875
1728.67818	8770.8875
1731.91284	8716.7875
1735.14537	8643.9875
1738.37576	8617.6875
1741.60403	8581.4875
1744.83017	8542.5875
1748.05418	8556.6875
1751.27607	8502.6875
1754.49584	8471.7875
1757.71349	8477.0875
1760.92903	8438.4875
1764.14244	8445.2875
1767.35375	8411.0875
1770.56294	8394.7875
1773.77002	8355.9875
1776.97499	8322.3875
1780.17785	8314.6875
1783.37861	8303.6875
1786.57727	8295.3875
1789.77382	8260.9875
1792.96828	8248.3875
1796.16064	8223.5875
1799.3509	8199.5875
1802.53907	8191.0875
1805.72514	8140.2875
1808.90913	8118.0875
1812.09102	8103.2875
1815.27083	8078.7875
1818.44856	8057.3875
1821.6242	8047.8875
1824.79776	8022.2875
1827.96924	8014.4875
1831.13864	8004.3875
1834.30597	7992.7875
1837.47122	7936.1875
1840.6344	7961.8875
1843.7955	7936.8875
1846.95454	7940.4875
1850.11151	7906.0875
1853.26642	7942.4875
1856.41926	7906.1875
1859.57004	7896.8875
1862.71876	7879.1875
1865.86542	7868.8875
1869.01003	7854.5875
1872.15258	7855.8875
1875.29308	7852.6875
1878.43152	7827.1875
1881.56792	7831.5875
1884.70227	7812.2875
1887.83457	7824.9875
1890.96482	7798.2875
1894.09304	7772.5875
1897.21921	7765.4875
1900.34335	7765.7875
1903.46544	7741.7875
1906.58551	7744.1875
1909.70353	7756.8875
1912.81953	7729.8875
1915.93349	7709.5875
1919.04543	7694.7875
1922.15534	7669.6875
1925.26322	7648.1875
1928.36908	7634.4875
1931.47292	7610.0875
1934.57473	7590.4875
1937.67453	7578.4875
1940.77232	7563.9875
1943.86808	7528.8875
1946.96184	7507.4875
1950.05358	7459.8875
1953.14331	7435.6875
1956.23103	7411.8875
1959.31675	7380.9875
1962.40046	7373.9875
1965.48217	7359.8875
1968.56188	7335.9875
1971.63959	7321.5875
1974.7153	7305.8875
1977.78901	7281.9875
1980.86073	7254.8875
1983.93046	7222.7875
1986.99819	7194.8875
1990.06394	7173.6875
1993.1277	7166.4875
1996.18947	7144.3875
1999.24925	7117.8875
2002.30706	7084.3875
2005.36288	7044.0875
2008.41672	7008.1875
2011.46859	6992.4875
2014.51848	6987.9875
2017.56639	6967.3875
2020.61233	6941.6875
2023.6563	6920.1875
2026.6983	6891.3875
2029.73833	6873.1875
2032.7764	6855.7875
2035.8125	6822.0875
2038.84664	6804.3875
2041.87881	6798.8875
2044.90903	6770.6875
2047.93729	6753.1875
2050.96359	6752.8875
2053.98794	6745.0875
2057.01034	6728.5875
2060.03078	6719.9875
2063.04927	6709.6875
2066.06582	6702.3875
2069.08042	6693.9875
2072.09307	6679.3875
2075.10378	6696.7875
2078.11255	6672.6875
2081.11938	6707.7875
2084.12426	6686.2875
2087.12722	6671.0875
2090.12824	6669.5875
2093.12732	6659.7875
2096.12447	6671.0875
2099.11969	6690.2875
2102.11299	6671.8875
2105.10435	6672.0875
2108.09379	6660.9875
2111.08131	6671.7875
2114.0669	6686.1875
2117.05057	6675.7875
2120.03233	6672.6875
2123.01216	6680.7875
2125.99008	6677.6875
2128.96609	6673.6875
2131.94018	6672.4875
2134.91236	6673.5875
2137.88263	6674.5875
2140.851	6688.8875
2143.81746	6696.9875
2146.78201	6675.2875
2149.74466	6652.2875
2152.7054	6673.5875
2155.66425	6684.4875
2158.6212	6644.6875
2161.57625	6647.1875
2164.52941	6635.1875
2167.48067	6635.2875
2170.43004	6631.4875
2173.37752	6621.5875
2176.32311	6625.2875
2179.26681	6619.9875
2182.20863	6624.1875
2185.14856	6623.1875
2188.08661	6607.7875
2191.02278	6594.3875
2193.95707	6576.7875
2196.88948	6603.4875
2199.82001	6590.7875
2202.74867	6581.7875
2205.67545	6582.1875
2208.60037	6550.5875
2211.52341	6549.5875
2214.44458	6509.7875
2217.36388	6496.9875
2220.28132	6507.2875
2223.1969	6479.3875
2226.11061	6475.9875
2229.02246	6443.3875
2231.93245	6444.4875
2234.84058	6440.0875
2237.74686	6429.8875
2240.65128	6414.0875
2243.55385	6415.2875
2246.45456	6388.8875
2249.35343	6380.3875
2252.25044	6380.6875
2255.14561	6383.9875
2258.03893	6369.7875
2260.93041	6346.4875
2263.82004	6316.4875
2266.70783	6327.5875
2269.59378	6277.2875
2272.4779	6301.4875
2275.36017	6258.9875
2278.24061	6261.5875
2281.11922	6237.5875
2283.996	6238.8875
2286.87094	6224.3875
2289.74405	6180.2875
2292.61534	6195.4875
2295.4848	6178.9875
2298.35243	6178.6875
2301.21824	6160.3875
2304.08223	6152.0875
2306.94439	6159.6875
2309.80474	6141.8875
2312.66327	6149.4875
2315.51999	6128.0875
2318.37489	6119.7875
2321.22797	6118.0875
2324.07925	6105.1875
2326.92871	6090.2875
2329.77637	6119.5875
2332.62222	6063.9875
2335.46626	6053.5875
2338.3085	6048.8875
2341.14893	6045.0875
2343.98756	6044.9875
2346.8244	6059.6875
2349.65943	6060.8875
2352.49267	6054.3875
2355.32411	6062.1875
2358.15376	6069.5875
2360.98161	6054.3875
2363.80768	6047.1875
2366.63195	6061.3875
2369.45444	6076.8875
2372.27514	6068.2875
2375.09405	6033.1875
2377.91118	6019.1875
2380.72652	6025.4875
2383.54009	6025.4875
2386.35187	5992.0875
2389.16188	5980.6875
2391.97011	5928.4875
2394.77657	5912.3875
2397.58125	5897.3875
2400.38416	5884.5875
2403.18529	5875.1875
2405.98466	5885.3875
2408.78226	5840.9875
2411.57809	5842.7875
2414.37216	5820.1875
2417.16446	5814.7875
2419.955	5835.3875
2422.74378	5828.8875
2425.5308	5814.5875
2428.31606	5822.1875
2431.09956	5813.4875
2433.88131	5803.9875
2436.6613	5809.6875
2439.43954	5782.1875
2442.21603	5797.0875
2444.99077	5776.4875
2447.76377	5773.8875
2450.53501	5770.0875
2453.30451	5778.4875
2456.07226	5764.4875
2458.83827	5757.5875
2461.60254	5775.8875
2464.36507	5766.1875
2467.12586	5761.7875
2469.88492	5758.6875
2472.64224	5761.8875
2475.39782	5750.0875
2478.15167	5750.7875
2480.90379	5752.5875
2483.65417	5774.2875
2486.40283	5766.0875
2489.14976	5763.6875
2491.89497	5770.2875
2494.63845	5762.4875
2497.3802	5763.8875
2500.12024	5755.7875
2502.85855	5738.5875
2505.59514	5733.3875
2508.33002	5709.2875
2511.06318	5700.6875
2513.79462	5694.8875
2516.52435	5683.1875
2519.25237	5674.5875
2521.97867	5669.0875
2524.70327	5653.7875
2527.42616	5642.4875
2530.14734	5653.4875
2532.86681	5650.9875
2535.58458	5616.4875
2538.30065	5616.5875
2541.01501	5626.2875
2543.72768	5605.3875
2546.43864	5612.6875
2549.14791	5591.3875
2551.85548	5577.5875
2554.56136	5582.6875
2557.26554	5541.5875
2559.96803	5550.0875
2562.66883	5541.3875
2565.36794	5540.4875
2568.06536	5521.9875
2570.7611	5506.5875
2573.45514	5495.8875
2576.14751	5493.0875
2578.83819	5496.8875
2581.52719	5486.8875
2584.21451	5482.1875
2586.90015	5454.9875
2589.58411	5458.7875
2592.2664	5450.8875
2594.94701	5439.4875
2597.62594	5439.1875
2600.30321	5416.7875
2602.9788	5421.6875
2605.65273	5416.6875
2608.32498	5405.2875
2610.99557	5393.7875
2613.66449	5400.2875
2616.33175	5400.7875
2618.99734	5412.3875
2621.66128	5372.9875
2624.32355	5396.1875
2626.98416	5376.8875
2629.64311	5364.8875
2632.30041	5351.4875
2634.95605	5351.4875
2637.61004	5355.3875
2640.26238	5348.2875
2642.91306	5349.5875
2645.56209	5343.6875
2648.20948	5341.8875
2650.85521	5324.4875
2653.4993	5335.1875
2656.14175	5332.6875
2658.78255	5344.0875
2661.42171	5340.5875
2664.05923	5351.8875
2666.6951	5343.9875
2669.32934	5353.7875
2671.96194	5364.2875
2674.59291	5361.3875
2677.22224	5357.3875
2679.84993	5332.9875
2682.476	5323.6875
2685.10043	5331.3875
2687.72324	5314.6875
2690.34441	5324.4875
2692.96396	5316.3875
2695.58188	5324.7875
2698.19818	5330.5875
2700.81285	5328.2875
2703.4259	5334.6875
2706.03733	5330.5875
2708.64714	5323.5875
2711.25533	5337.4875
2713.86191	5337.4875
2716.46687	5344.9875
2719.07021	5341.7875
2721.67194	5359.3875
2724.27206	5342.2875
2726.87057	5340.6875
2729.46747	5344.2875
2732.06276	5355.4875
2734.65644	5339.9875
2737.24852	5329.5875
2739.83899	5308.8875
2742.42786	5317.1875
2745.01513	5299.9875
2747.60079	5280.9875
2750.18486	5281.8875
2752.76733	5282.6875
2755.3482	5269.8875
2757.92747	5274.1875
2760.50515	5252.1875
2763.08123	5263.8875
2765.65573	5245.9875
2768.22863	5260.2875
2770.79994	5249.4875
2773.36967	5241.3875
2775.9378	5239.8875
2778.50435	5222.4875
2781.06932	5223.4875
2783.6327	5255.5875
2786.1945	5224.9875
2788.75471	5242.8875
2791.31335	5219.0875
2793.87041	5212.8875
2796.42589	5192.5875
2798.97979	5200.9875
2801.53212	5178.9875
2804.08288	5174.2875
2806.63206	5153.5875
2809.17967	5162.2875
2811.72571	5163.5875
2814.27018	5163.0875
2816.81308	5140.4875
2819.35442	5122.7875
2821.89419	5134.5875
2824.43239	5136.8875
2826.96904	5110.6875
2829.50412	5110.1875
2832.03763	5091.9875
2834.56959	5095.6875
2837.1	5074.6875
2839.62884	5109.2875
2842.15613	5096.7875
2844.68186	5105.3875
2847.20604	5113.6875
2849.72867	5111.7875
2852.24974	5120.4875
2854.76927	5113.8875
2857.28724	5108.8875
2859.80367	5105.2875
2862.31855	5097.7875
2864.83189	5098.8875
2867.34368	5085.9875
2869.85393	5088.5875
2872.36264	5097.7875
2874.8698	5100.9875
2877.37543	5101.2875
2879.87952	5093.3875
2882.38207	5083.2875
2884.88308	5060.7875
2887.38256	5082.5875
2889.88051	5077.0875
2892.37692	5072.5875
2894.8718	5084.1875
2897.36515	5090.9875
2899.85698	5063.8875
2902.34727	5069.2875
2904.83604	5053.9875
2907.32328	5093.7875
2909.809	5111.8875
2912.29319	5102.5875
2914.77587	5098.9875
2917.25702	5077.8875
2919.73665	5077.1875
2922.21476	5098.2875
2924.69136	5091.8875
2927.16644	5092.5875
2929.64	5068.3875
2932.11205	5059.8875
2934.58258	5041.9875
2937.05161	5041.4875
2939.51912	5044.5875
2941.98513	5018.1875
2944.44962	5016.1875
2946.91261	4989.8875
2949.37409	4995.3875
2951.83407	4990.1875
2954.29254	4997.1875
2956.74951	4995.3875
2959.20498	4987.3875
2961.65895	4994.2875
2964.11142	4977.4875
2966.56239	4963.5875
2969.01186	4962.5875
2971.45984	4947.1875
2973.90632	4931.4875
2976.35131	4918.7875
2978.7948	4904.8875
2981.23681	4912.2875
2983.67732	4893.2875
2986.11635	4890.3875
2988.55388	4880.7875
2990.98993	4864.3875
2993.4245	4856.1875
2995.85758	4860.2875
2998.28917	4835.4875
3000.71928	4826.6875
3003.14791	4825.9875
3005.57506	4825.5875
3008.00073	4806.9875
3010.42493	4812.4875
3012.84764	4802.5875
3015.26888	4793.0875
3017.68865	4776.4875
3020.10694	4776.9875
3022.52376	4762.7875
3024.9391	4753.3875
3027.35298	4749.5875
3029.76539	4743.4875
3032.17632	4738.1875
3034.5858	4716.7875
3036.9938	4739.0875
3039.40034	4728.7875
3041.80542	4718.5875
3044.20903	4714.8875
3046.61118	4726.6875
3049.01187	4707.3875
3051.4111	4702.2875
3053.80888	4691.4875
3056.20519	4686.5875
3058.60005	4661.4875
3060.99345	4653.2875
3063.3854	4664.2875
3065.7759	4638.7875
3068.16494	4645.5875
3070.55254	4636.7875
3072.93868	4630.4875
3075.32338	4608.3875
3077.70662	4599.2875
3080.08842	4591.8875
