Data from AgNP_FTO_APTES_UA_100uM_CRN_20uM_R6G_10uM_NaF_0.1M_Addition_RamanShift__4__16-30-30-478.txt Node

Date: Thu Mar 24 16:30:30 GMT 2022
User: TCL
Spectrometer: QEP01345
Trigger mode: 4
Integration Time (sec): 7.000000E0
Scans to average: 10
Electric dark correction enabled: true
Nonlinearity correction enabled: false
Boxcar width: 0
XAxis mode: Raman Shifts
Number of Pixels in Spectrum: 1044
>>>>>Begin Spectral Data<<<<<
46.04893	-1.5875
50.45542	0.6125
54.85868	0.5125
59.25871	0.2125
63.6555	47.8125
68.04907	46.1125
72.43941	46.7125
76.82654	47.7125
81.21044	52.6125
85.59113	54.0125
89.96862	55.9125
94.34289	53.2125
98.71396	57.7125
103.08183	57.4125
107.4465	59.8125
111.80798	64.3125
116.16626	63.2125
120.52136	63.7125
124.87327	65.5125
129.222	74.3125
133.56755	81.3125
137.90993	82.9125
142.24913	97.8125
146.58517	105.1125
150.91804	130.7125
155.24774	153.0125
159.57429	190.4125
163.89768	249.0125
168.21792	337.7125
172.53501	464.5125
176.84895	651.3125
181.15975	927.5125
185.46741	1297.4125
189.77193	1788.6125
194.07331	2397.8125
198.37157	3104.6125
202.6667	3853.8125
206.9587	4580.2125
211.24758	5359.5125
215.53334	6125.9125
219.81599	6974.6125
224.09553	7941.9125
228.37195	9011.4125
232.64527	10149.4125
236.91549	11335.6125
241.18261	12393.5125
245.44663	13274.5125
249.70755	13957.8125
253.96539	14525.1125
258.22014	15015.3125
262.4718	15426.6125
266.72039	15734.8125
270.96589	15863.8125
275.20832	15773.9125
279.44768	15595.7125
283.68397	15339.4125
287.91719	15168.2125
292.14735	15193.7125
296.37445	15338.0125
300.59849	15730.9125
304.81948	16274.6125
309.03742	16676.7125
313.25231	16774.1125
317.46415	16384.6125
321.67296	15639.5125
325.87872	14963.4125
330.08145	14642.7125
334.28114	14601.6125
338.47781	14784.3125
342.67145	15094.6125
346.86207	15516.6125
351.04966	16099.4125
355.23424	16730.5125
359.4158	17153.0125
363.59435	17318.3125
367.76989	17361.8125
371.94243	17266.5125
376.11196	17190.3125
380.27849	17170.5125
384.44203	17137.0125
388.60257	17108.8125
392.76012	17096.1125
396.91468	17287.4125
401.06626	17585.1125
405.21485	17822.8125
409.36047	17478.7125
413.50311	16815.4125
417.64277	16209.6125
421.77947	15894.6125
425.9132	15805.8125
430.04396	15835.5125
434.17176	15943.5125
438.2966	16227.0125
442.41849	16677.0125
446.53742	17361.2125
450.6534	18022.8125
454.76644	18344.2125
458.87653	18366.8125
462.98368	18057.1125
467.08789	17669.3125
471.18916	17289.9125
475.2875	16856.6125
479.38291	16479.7125
483.4754	16168.6125
487.56496	15875.8125
491.6516	15680.6125
495.73531	15517.1125
499.81612	15467.2125
503.89401	15606.8125
507.96899	15697.6125
512.04106	15751.2125
516.11023	15818.3125
520.1765	15830.3125
524.23987	15911.3125
528.30034	15870.4125
532.35792	15773.6125
536.41261	15516.8125
540.46441	15226.2125
544.51333	15057.8125
548.55936	15160.2125
552.60252	15550.7125
556.64279	15999.9125
560.6802	16346.7125
564.71473	16599.2125
568.7464	17039.8125
572.7752	17559.7125
576.80114	17633.6125
580.82422	17687.2125
584.84444	18082.0125
588.86181	18949.2125
592.87633	20056.5125
596.888	20608.8125
600.89682	20027.0125
604.9028	20405.0125
608.90594	23810.0125
612.90624	28296.5125
616.90371	26333.7125
620.89834	19381.2125
624.89015	16187.0125
628.87913	15666.3125
632.86528	15932.1125
636.84862	16146.1125
640.82913	15799.8125
644.80683	15063.7125
648.78172	14554.8125
652.75379	14575.6125
656.72306	15069.0125
660.68952	15643.8125
664.65319	15426.5125
668.61405	14728.5125
672.57211	14471.3125
676.52738	14529.9125
680.47986	14516.7125
684.42955	14266.2125
688.37646	14165.6125
692.32058	14253.5125
696.26192	14455.6125
700.20048	14740.1125
704.13626	14890.3125
708.06928	14843.0125
711.99952	14757.3125
715.927	14768.4125
719.85171	14871.2125
723.77365	14871.4125
727.69284	14731.6125
731.60928	14625.6125
735.52295	14663.2125
739.43388	14717.7125
743.34206	14751.7125
747.24749	14773.5125
751.15017	14853.2125
755.05012	15153.0125
758.94733	15798.1125
762.8418	17373.1125
766.73354	19983.3125
770.62254	22467.6125
774.50882	23248.7125
778.39237	22019.3125
782.27321	19493.6125
786.15132	17081.0125
790.02671	15599.3125
793.89938	14869.3125
797.76935	14513.4125
801.6366	14368.1125
805.50115	14253.7125
809.36299	14182.7125
813.22213	14101.3125
817.07857	14052.5125
820.93231	14032.0125
824.78336	13987.7125
828.63172	14016.4125
832.47738	13981.9125
836.32036	13972.7125
840.16066	13930.9125
843.99827	13916.0125
847.8332	13893.3125
851.66546	13874.5125
855.49504	13878.4125
859.32195	13875.1125
863.1462	13837.5125
866.96777	13810.7125
870.78668	13811.4125
874.60293	13845.7125
878.41652	13889.5125
882.22745	14020.2125
886.03573	14095.0125
889.84136	14104.8125
893.64433	13977.2125
897.44466	13937.0125
901.24235	13870.8125
905.0374	13796.6125
908.8298	13708.7125
912.61957	13641.2125
916.40671	13690.2125
920.19121	13855.1125
923.97308	14036.9125
927.75233	14211.9125
931.52895	14218.7125
935.30295	13998.8125
939.07433	13592.8125
942.84309	13302.4125
946.60924	13130.2125
950.37278	13078.8125
954.13371	13079.4125
957.89203	13050.3125
961.64774	13022.8125
965.40086	12987.6125
969.15137	12985.0125
972.89929	12957.2125
976.64461	12914.3125
980.38733	12927.6125
984.12747	12954.2125
987.86502	13049.4125
991.59999	13193.4125
995.33237	13377.0125
999.06217	13708.5125
1002.78939	14162.8125
1006.51404	14615.2125
1010.23611	14975.8125
1013.95561	15158.4125
1017.67255	15089.8125
1021.38692	14766.3125
1025.09872	14314.5125
1028.80796	14047.0125
1032.51465	14014.0125
1036.21877	14119.7125
1039.92035	14206.6125
1043.61937	14262.1125
1047.31584	14290.9125
1051.00976	14251.3125
1054.70114	14191.6125
1058.38998	14190.0125
1062.07627	14226.9125
1065.76003	14372.9125
1069.44126	14532.2125
1073.11995	14895.0125
1076.79611	15228.5125
1080.46974	15510.0125
1084.14085	15848.9125
1087.80943	16230.6125
1091.47549	16411.8125
1095.13903	16218.3125
1098.80005	15765.6125
1102.45857	15352.3125
1106.11456	15102.7125
1109.76805	15144.6125
1113.41903	15375.5125
1117.06751	15771.5125
1120.71348	16300.3125
1124.35696	16939.6125
1127.99793	17398.9125
1131.63641	17318.2125
1135.2724	16766.0125
1138.90589	16283.6125
1142.5369	16006.0125
1146.16542	15880.9125
1149.79145	15839.0125
1153.415	15948.2125
1157.03607	16078.6125
1160.65467	16432.7125
1164.27079	17155.2125
1167.88443	18283.2125
1171.49561	19894.5125
1175.10432	22321.9125
1178.71056	25403.7125
1182.31434	28012.4125
1185.91565	28712.4125
1189.51451	27704.2125
1193.11091	26044.6125
1196.70485	24320.3125
1200.29634	22824.2125
1203.88538	21627.3125
1207.47197	20428.8125
1211.05612	19489.0125
1214.63782	18894.0125
1218.21708	18658.7125
1221.79391	18669.8125
1225.36829	18762.5125
1228.94024	18628.4125
1232.50976	18162.9125
1236.07685	17703.9125
1239.6415	17531.5125
1243.20374	17544.0125
1246.76355	17670.1125
1250.32093	17864.4125
1253.8759	18220.6125
1257.42845	18794.7125
1260.97859	19568.2125
1264.52631	20383.9125
1268.07163	21263.5125
1271.61453	21906.9125
1275.15503	22397.0125
1278.69312	22784.3125
1282.22882	23365.8125
1285.76211	24356.3125
1289.29301	25589.8125
1292.82151	26997.6125
1296.34761	28516.0125
1299.87133	30499.4125
1303.39266	33107.6125
1306.9116	36390.7125
1310.42815	39615.0125
1313.94233	41117.9125
1317.45412	39881.1125
1320.96354	37330.8125
1324.47058	34724.5125
1327.97525	32425.8125
1331.47754	30749.0125
1334.97747	29827.3125
1338.47502	29551.0125
1341.97022	29691.1125
1345.46305	30317.8125
1348.95352	31495.6125
1352.44163	33451.3125
1355.92738	36479.8125
1359.41078	41049.4125
1362.89183	45097.2125
1366.37053	44000.1125
1369.84688	37703.6125
1373.32088	31076.8125
1376.79254	27350.1125
1380.26186	25813.7125
1383.72883	25049.1125
1387.19347	24319.6125
1390.65578	23493.8125
1394.11575	22993.1125
1397.57339	22883.2125
1401.0287	22962.6125
1404.48168	23000.7125
1407.93234	22849.1125
1411.38068	22545.9125
1414.82669	22189.6125
1418.27039	21659.2125
1421.71177	20964.4125
1425.15083	20322.6125
1428.58758	20065.8125
1432.02203	20412.0125
1435.45416	20994.5125
1438.88399	21460.5125
1442.31151	21657.8125
1445.73673	21823.5125
1449.15965	21953.8125
1452.58027	21899.5125
1455.9986	21620.6125
1459.41463	21612.4125
1462.82837	21975.4125
1466.23982	22666.1125
1469.64898	23388.8125
1473.05586	24005.8125
1476.46045	24471.0125
1479.86276	24824.2125
1483.26279	25108.2125
1486.66054	25495.6125
1490.05602	26326.6125
1493.44922	27512.1125
1496.84016	28883.3125
1500.22882	30866.8125
1503.61521	33599.1125
1506.99934	36714.1125
1510.38121	38916.7125
1513.76081	38698.3125
1517.13816	35801.4125
1520.51324	31734.6125
1523.88607	28430.1125
1527.25665	26528.0125
1530.62498	25650.9125
1533.99105	25080.6125
1537.35488	24488.2125
1540.71647	23818.1125
1544.07581	23135.2125
1547.4329	22456.4125
1550.78776	21905.7125
1554.14038	21611.9125
1557.49077	21536.4125
1560.83892	21715.6125
1564.18484	22330.7125
1567.52853	23070.9125
1570.86999	23863.6125
1574.20922	24400.0125
1577.54624	24369.2125
1580.88103	23412.7125
1584.2136	22296.0125
1587.54395	22016.4125
1590.87208	22854.6125
1594.19801	24628.4125
1597.52172	26762.2125
1600.84321	27591.6125
1604.16251	26475.6125
1607.47959	24148.8125
1610.79447	21704.0125
1614.10715	19532.0125
1617.41763	17885.7125
1620.7259	16900.9125
1624.03199	16413.3125
1627.33587	16491.5125
1630.63757	17076.9125
1633.93707	18342.5125
1637.23439	20646.7125
1640.52951	24301.1125
1643.82246	29222.3125
1647.11321	33812.9125
1650.40179	35441.5125
1653.68819	32717.6125
1656.97241	27143.9125
1660.25446	21785.3125
1663.53433	18108.8125
1666.81203	15944.2125
1670.08756	14718.5125
1673.36092	13903.3125
1676.63211	13461.8125
1679.90115	13108.8125
1683.16801	12877.5125
1686.43272	12701.3125
1689.69527	12550.4125
1692.95567	12422.3125
1696.2139	12330.8125
1699.46999	12253.0125
1702.72392	12173.4125
1705.97571	12154.1125
1709.22535	12131.0125
1712.47284	12117.4125
1715.71819	12119.7125
1718.96139	12020.8125
1722.20246	11991.4125
1725.44139	11914.5125
1728.67818	11811.2125
1731.91284	11705.7125
1735.14537	11627.1125
1738.37576	11544.5125
1741.60403	11486.8125
1744.83017	11467.8125
1748.05418	11419.5125
1751.27607	11390.3125
1754.49584	11358.2125
1757.71349	11339.8125
1760.92903	11303.9125
1764.14244	11294.7125
1767.35375	11253.3125
1770.56294	11241.0125
1773.77002	11211.3125
1776.97499	11162.7125
1780.17785	11163.0125
1783.37861	11097.3125
1786.57727	11057.1125
1789.77382	11010.2125
1792.96828	10991.4125
1796.16064	10956.7125
1799.3509	10949.6125
1802.53907	10938.0125
1805.72514	10877.6125
1808.90913	10873.7125
1812.09102	10886.9125
1815.27083	10814.8125
1818.44856	10795.2125
1821.6242	10779.2125
1824.79776	10727.2125
1827.96924	10729.6125
1831.13864	10685.2125
1834.30597	10695.9125
1837.47122	10660.2125
1840.6344	10651.3125
1843.7955	10676.9125
1846.95454	10619.8125
1850.11151	10604.6125
1853.26642	10597.2125
1856.41926	10568.8125
1859.57004	10580.1125
1862.71876	10554.7125
1865.86542	10554.9125
1869.01003	10548.5125
1872.15258	10535.7125
1875.29308	10551.7125
1878.43152	10524.3125
1881.56792	10537.1125
1884.70227	10507.2125
1887.83457	10518.1125
1890.96482	10516.3125
1894.09304	10487.4125
1897.21921	10453.8125
1900.34335	10432.5125
1903.46544	10446.1125
1906.58551	10460.9125
1909.70353	10459.3125
1912.81953	10420.5125
1915.93349	10394.6125
1919.04543	10355.3125
1922.15534	10330.6125
1925.26322	10322.7125
1928.36908	10295.0125
1931.47292	10263.6125
1934.57473	10217.7125
1937.67453	10210.3125
1940.77232	10189.3125
1943.86808	10179.7125
1946.96184	10129.3125
1950.05358	10095.7125
1953.14331	10064.5125
1956.23103	10026.2125
1959.31675	10004.4125
1962.40046	9959.3125
1965.48217	9963.0125
1968.56188	9924.1125
1971.63959	9888.2125
1974.7153	9869.5125
1977.78901	9836.8125
1980.86073	9796.6125
1983.93046	9753.9125
1986.99819	9708.8125
1990.06394	9690.6125
1993.1277	9674.7125
1996.18947	9596.5125
1999.24925	9599.7125
2002.30706	9557.5125
2005.36288	9525.3125
2008.41672	9496.3125
2011.46859	9465.2125
2014.51848	9434.2125
2017.56639	9406.5125
2020.61233	9382.1125
2023.6563	9371.1125
2026.6983	9310.2125
2029.73833	9289.5125
2032.7764	9275.3125
2035.8125	9269.0125
2038.84664	9226.0125
2041.87881	9211.8125
2044.90903	9207.8125
2047.93729	9205.0125
2050.96359	9194.7125
2053.98794	9172.6125
2057.01034	9150.7125
2060.03078	9101.5125
2063.04927	9091.2125
2066.06582	9090.4125
2069.08042	9080.3125
2072.09307	9093.8125
2075.10378	9069.0125
2078.11255	9065.0125
2081.11938	9071.1125
2084.12426	9075.6125
2087.12722	9068.3125
2090.12824	9061.7125
2093.12732	9043.0125
2096.12447	9077.4125
2099.11969	9079.8125
2102.11299	9104.0125
2105.10435	9067.1125
2108.09379	9073.4125
2111.08131	9087.9125
2114.0669	9085.9125
2117.05057	9079.2125
2120.03233	9091.1125
2123.01216	9090.4125
2125.99008	9100.6125
2128.96609	9109.0125
2131.94018	9098.7125
2134.91236	9062.3125
2137.88263	9077.6125
2140.851	9063.1125
2143.81746	9076.1125
2146.78201	9066.4125
2149.74466	9049.8125
2152.7054	9051.9125
2155.66425	9062.9125
2158.6212	9024.5125
2161.57625	9033.8125
2164.52941	9012.6125
2167.48067	9035.1125
2170.43004	9012.6125
2173.37752	9022.9125
2176.32311	8998.0125
2179.26681	9004.0125
2182.20863	9001.0125
2185.14856	9002.4125
2188.08661	8989.5125
2191.02278	9026.9125
2193.95707	8991.6125
2196.88948	8980.1125
2199.82001	8997.6125
2202.74867	8957.1125
2205.67545	8933.1125
2208.60037	8924.4125
2211.52341	8912.9125
2214.44458	8904.3125
2217.36388	8897.3125
2220.28132	8875.0125
2223.1969	8849.8125
2226.11061	8819.5125
2229.02246	8825.4125
2231.93245	8784.4125
2234.84058	8784.7125
2237.74686	8756.5125
2240.65128	8767.5125
2243.55385	8765.2125
2246.45456	8744.4125
2249.35343	8736.4125
2252.25044	8739.8125
2255.14561	8721.9125
2258.03893	8711.3125
2260.93041	8695.5125
2263.82004	8667.6125
2266.70783	8642.9125
2269.59378	8627.9125
2272.4779	8618.3125
2275.36017	8595.1125
2278.24061	8574.3125
2281.11922	8559.1125
2283.996	8545.6125
2286.87094	8529.0125
2289.74405	8497.6125
2292.61534	8482.0125
2295.4848	8480.3125
2298.35243	8453.7125
2301.21824	8453.1125
2304.08223	8438.6125
2306.94439	8464.5125
2309.80474	8452.7125
2312.66327	8442.0125
2315.51999	8429.9125
2318.37489	8395.7125
2321.22797	8400.2125
2324.07925	8415.2125
2326.92871	8402.8125
2329.77637	8372.9125
2332.62222	8363.5125
2335.46626	8362.8125
2338.3085	8349.0125
2341.14893	8345.7125
2343.98756	8367.0125
2346.8244	8386.6125
2349.65943	8360.7125
2352.49267	8361.1125
2355.32411	8388.7125
2358.15376	8376.4125
2360.98161	8380.5125
2363.80768	8382.8125
2366.63195	8409.6125
2369.45444	8385.2125
2372.27514	8409.8125
2375.09405	8393.9125
2377.91118	8366.3125
2380.72652	8335.4125
2383.54009	8311.6125
2386.35187	8275.6125
2389.16188	8248.3125
2391.97011	8238.8125
2394.77657	8220.6125
2397.58125	8198.9125
2400.38416	8162.5125
2403.18529	8136.5125
2405.98466	8140.3125
2408.78226	8117.6125
2411.57809	8106.1125
2414.37216	8100.9125
2417.16446	8105.1125
2419.955	8074.4125
2422.74378	8093.3125
2425.5308	8087.1125
2428.31606	8070.4125
2431.09956	8065.3125
2433.88131	8064.0125
2436.6613	8081.2125
2439.43954	8086.5125
2442.21603	8087.7125
2444.99077	8069.7125
2447.76377	8088.7125
2450.53501	8070.6125
2453.30451	8073.0125
2456.07226	8074.8125
2458.83827	8094.2125
2461.60254	8065.0125
2464.36507	8055.1125
2467.12586	8054.4125
2469.88492	8059.7125
2472.64224	8060.3125
2475.39782	8085.8125
2478.15167	8112.3125
2480.90379	8095.4125
2483.65417	8105.1125
2486.40283	8107.6125
2489.14976	8148.2125
2491.89497	8117.0125
2494.63845	8123.7125
2497.3802	8130.3125
2500.12024	8127.9125
2502.85855	8092.6125
2505.59514	8079.1125
2508.33002	8040.7125
2511.06318	8015.2125
2513.79462	8027.2125
2516.52435	7995.2125
2519.25237	7967.9125
2521.97867	7971.7125
2524.70327	7934.4125
2527.42616	7947.4125
2530.14734	7950.5125
2532.86681	7936.8125
2535.58458	7928.1125
2538.30065	7901.9125
2541.01501	7920.1125
2543.72768	7919.3125
2546.43864	7907.2125
2549.14791	7901.0125
2551.85548	7895.0125
2554.56136	7893.1125
2557.26554	7887.6125
2559.96803	7882.0125
2562.66883	7867.2125
2565.36794	7875.8125
2568.06536	7855.5125
2570.7611	7862.2125
2573.45514	7838.5125
2576.14751	7833.3125
2578.83819	7810.4125
2581.52719	7817.4125
2584.21451	7782.5125
2586.90015	7782.2125
2589.58411	7757.2125
2592.2664	7771.9125
2594.94701	7783.2125
2597.62594	7768.0125
2600.30321	7751.9125
2602.9788	7764.0125
2605.65273	7764.5125
2608.32498	7754.3125
2610.99557	7759.3125
2613.66449	7752.5125
2616.33175	7737.6125
2618.99734	7748.3125
2621.66128	7738.8125
2624.32355	7726.6125
2626.98416	7722.6125
2629.64311	7725.2125
2632.30041	7711.7125
2634.95605	7690.3125
2637.61004	7678.9125
2640.26238	7690.3125
2642.91306	7678.9125
2645.56209	7680.3125
2648.20948	7680.0125
2650.85521	7670.1125
2653.4993	7675.5125
2656.14175	7687.4125
2658.78255	7682.5125
2661.42171	7715.4125
2664.05923	7707.6125
2666.6951	7726.7125
2669.32934	7740.3125
2671.96194	7733.4125
2674.59291	7743.1125
2677.22224	7731.5125
2679.84993	7734.4125
2682.476	7689.5125
2685.10043	7710.6125
2687.72324	7713.3125
2690.34441	7703.2125
2692.96396	7676.0125
2695.58188	7702.8125
2698.19818	7682.3125
2700.81285	7688.6125
2703.4259	7681.7125
2706.03733	7668.3125
2708.64714	7671.7125
2711.25533	7704.0125
2713.86191	7705.4125
2716.46687	7719.0125
2719.07021	7723.8125
2721.67194	7715.1125
2724.27206	7728.6125
2726.87057	7729.0125
2729.46747	7714.3125
2732.06276	7739.3125
2734.65644	7732.9125
2737.24852	7719.9125
2739.83899	7709.2125
2742.42786	7703.1125
2745.01513	7706.3125
2747.60079	7688.8125
2750.18486	7686.5125
2752.76733	7675.1125
2755.3482	7655.7125
2757.92747	7678.8125
2760.50515	7649.3125
2763.08123	7656.7125
2765.65573	7625.2125
2768.22863	7639.4125
2770.79994	7610.4125
2773.36967	7620.5125
2775.9378	7610.6125
2778.50435	7612.6125
2781.06932	7597.2125
2783.6327	7613.6125
2786.1945	7614.0125
2788.75471	7626.2125
2791.31335	7609.5125
2793.87041	7592.2125
2796.42589	7601.9125
2798.97979	7581.6125
2801.53212	7573.3125
2804.08288	7559.7125
2806.63206	7536.6125
2809.17967	7546.5125
2811.72571	7517.4125
2814.27018	7552.0125
2816.81308	7546.6125
2819.35442	7526.5125
2821.89419	7523.3125
2824.43239	7504.1125
2826.96904	7500.6125
2829.50412	7498.5125
2832.03763	7475.0125
2834.56959	7475.4125
2837.1	7476.9125
2839.62884	7488.1125
2842.15613	7481.1125
2844.68186	7477.8125
2847.20604	7517.9125
2849.72867	7513.0125
2852.24974	7512.9125
2854.76927	7495.6125
2857.28724	7462.8125
2859.80367	7479.9125
2862.31855	7473.9125
2864.83189	7480.3125
2867.34368	7472.5125
2869.85393	7468.8125
2872.36264	7478.8125
2874.8698	7453.1125
2877.37543	7473.9125
2879.87952	7453.1125
2882.38207	7465.0125
2884.88308	7449.3125
2887.38256	7451.6125
2889.88051	7444.7125
2892.37692	7430.7125
2894.8718	7452.9125
2897.36515	7454.1125
2899.85698	7451.0125
2902.34727	7453.0125
2904.83604	7453.0125
2907.32328	7475.9125
2909.809	7493.6125
2912.29319	7485.1125
2914.77587	7492.1125
2917.25702	7491.6125
2919.73665	7473.3125
2922.21476	7465.5125
2924.69136	7431.5125
2927.16644	7447.6125
2929.64	7425.9125
2932.11205	7410.1125
2934.58258	7395.5125
2937.05161	7367.2125
2939.51912	7367.3125
2941.98513	7359.6125
2944.44962	7343.2125
2946.91261	7333.6125
2949.37409	7345.7125
2951.83407	7331.2125
2954.29254	7322.6125
2956.74951	7340.0125
2959.20498	7324.5125
2961.65895	7306.2125
2964.11142	7298.3125
2966.56239	7290.5125
2969.01186	7279.4125
2971.45984	7257.1125
2973.90632	7230.6125
2976.35131	7221.3125
2978.7948	7220.6125
2981.23681	7182.0125
2983.67732	7168.1125
2986.11635	7155.8125
2988.55388	7150.4125
2990.98993	7119.4125
2993.4245	7104.0125
2995.85758	7112.1125
2998.28917	7088.9125
3000.71928	7062.2125
3003.14791	7068.2125
3005.57506	7071.9125
3008.00073	7045.9125
3010.42493	7031.2125
3012.84764	7012.4125
3015.26888	6993.5125
3017.68865	6978.6125
3020.10694	6980.7125
3022.52376	6949.4125
3024.9391	6940.5125
3027.35298	6939.7125
3029.76539	6946.9125
3032.17632	6915.4125
3034.5858	6898.3125
3036.9938	6880.7125
3039.40034	6888.2125
3041.80542	6888.5125
3044.20903	6870.7125
3046.61118	6854.5125
3049.01187	6832.0125
3051.4111	6844.3125
3053.80888	6825.7125
3056.20519	6814.4125
3058.60005	6766.0125
3060.99345	6769.5125
3063.3854	6761.2125
3065.7759	6732.3125
3068.16494	6725.8125
3070.55254	6708.7125
