Data from AgNP_FTO_APTES_UA_100uM_CRN_2uM_R6G_10uM_NaF_0.1M_Addition_RamanShift__29__14-18-40-327.txt Node

Date: Thu Mar 24 14:18:40 GMT 2022
User: TCL
Spectrometer: QEP01345
Trigger mode: 4
Integration Time (sec): 7.000000E0
Scans to average: 10
Electric dark correction enabled: true
Nonlinearity correction enabled: false
Boxcar width: 0
XAxis mode: Raman Shifts
Number of Pixels in Spectrum: 1044
>>>>>Begin Spectral Data<<<<<
46.04893	-1.0125
50.45542	-0.3125
54.85868	0.8875
59.25871	-1.6125
63.6555	41.8875
68.04907	45.9875
72.43941	45.1875
76.82654	47.7875
81.21044	50.7875
85.59113	49.0875
89.96862	53.9875
94.34289	51.1875
98.71396	59.9875
103.08183	54.5875
107.4465	58.0875
111.80798	61.0875
116.16626	59.2875
120.52136	60.3875
124.87327	65.3875
129.222	68.7875
133.56755	73.4875
137.90993	77.1875
142.24913	92.2875
146.58517	96.5875
150.91804	114.1875
155.24774	138.4875
159.57429	175.4875
163.89768	221.6875
168.21792	297.1875
172.53501	406.7875
176.84895	567.2875
181.15975	800.8875
185.46741	1127.5875
189.77193	1569.3875
194.07331	2111.2875
198.37157	2732.5875
202.6667	3426.9875
206.9587	4115.9875
211.24758	4870.1875
215.53334	5674.8875
219.81599	6600.5875
224.09553	7697.7875
228.37195	8933.0875
232.64527	10225.1875
236.91549	11418.1875
241.18261	12414.2875
245.44663	13072.5875
249.70755	13528.3875
253.96539	13874.1875
258.22014	14208.8875
262.4718	14411.1875
266.72039	14482.4875
270.96589	14289.6875
275.20832	13929.5875
279.44768	13450.5875
283.68397	13039.5875
287.91719	12862.1875
292.14735	13053.9875
296.37445	13761.8875
300.59849	14986.4875
304.81948	16477.5875
309.03742	17770.5875
313.25231	18159.7875
317.46415	17128.4875
321.67296	15015.0875
325.87872	13177.1875
330.08145	12211.1875
334.28114	12129.2875
338.47781	12501.6875
342.67145	13124.2875
346.86207	14071.8875
351.04966	15620.3875
355.23424	17356.8875
359.4158	18638.2875
363.59435	19056.3875
367.76989	18864.0875
371.94243	18402.0875
376.11196	17847.6875
380.27849	17367.8875
384.44203	16787.3875
388.60257	16205.3875
392.76012	15842.6875
396.91468	15903.4875
401.06626	16414.1875
405.21485	16804.5875
409.36047	16160.2875
413.50311	14608.0875
417.64277	13033.3875
421.77947	12084.8875
425.9132	11641.0875
430.04396	11483.0875
434.17176	11511.8875
438.2966	11751.2875
442.41849	12133.7875
446.53742	12629.2875
450.6534	13047.5875
454.76644	13195.7875
458.87653	13057.5875
462.98368	12746.4875
467.08789	12395.6875
471.18916	11938.3875
475.2875	11432.7875
479.38291	10992.4875
483.4754	10684.2875
487.56496	10465.7875
491.6516	10385.9875
495.73531	10361.1875
499.81612	10476.0875
503.89401	10751.9875
507.96899	11082.0875
512.04106	11522.3875
516.11023	12010.6875
520.1765	12344.7875
524.23987	12392.7875
528.30034	12119.2875
532.35792	11795.0875
536.41261	11418.7875
540.46441	10911.4875
544.51333	10575.1875
548.55936	10670.5875
552.60252	11098.9875
556.64279	11642.1875
560.6802	11935.1875
564.71473	12502.6875
568.7464	13732.0875
572.7752	14221.0875
576.80114	12961.6875
580.82422	11570.5875
584.84444	10958.2875
588.86181	10747.7875
592.87633	10747.9875
596.888	10963.2875
600.89682	11883.9875
604.9028	15187.7875
608.90594	23954.3875
612.90624	35529.5875
616.90371	34338.7875
620.89834	19914.3875
624.89015	12764.4875
628.87913	11475.2875
632.86528	11875.6875
636.84862	12435.8875
640.82913	11972.7875
644.80683	10711.3875
648.78172	9898.2875
652.75379	9988.0875
656.72306	10984.1875
660.68952	12190.6875
664.65319	11826.9875
668.61405	10454.5875
672.57211	9750.1875
676.52738	9704.4875
680.47986	9656.2875
684.42955	9438.1875
688.37646	9284.0875
692.32058	9311.2875
696.26192	9499.6875
700.20048	9764.7875
704.13626	9970.6875
708.06928	9924.9875
711.99952	9785.0875
715.927	9762.3875
719.85171	9921.9875
723.77365	10030.0875
727.69284	9906.3875
731.60928	9731.1875
735.52295	9678.8875
739.43388	9728.2875
743.34206	9831.8875
747.24749	9826.0875
751.15017	9881.3875
755.05012	10270.3875
758.94733	11554.1875
762.8418	14720.5875
766.73354	19740.7875
770.62254	24320.4875
774.50882	26572.7875
778.39237	25261.8875
782.27321	20343.2875
786.15132	15033.4875
790.02671	11903.8875
793.89938	10572.7875
797.76935	10015.0875
801.6366	9773.4875
805.50115	9648.3875
809.36299	9559.9875
813.22213	9526.9875
817.07857	9485.1875
820.93231	9485.1875
824.78336	9585.9875
828.63172	9760.3875
832.47738	9829.5875
836.32036	9698.8875
840.16066	9484.4875
843.99827	9343.2875
847.8332	9299.3875
851.66546	9281.7875
855.49504	9303.2875
859.32195	9269.5875
863.1462	9185.6875
866.96777	9139.6875
870.78668	9143.3875
874.60293	9209.0875
878.41652	9327.9875
882.22745	9489.4875
886.03573	9603.4875
889.84136	9569.2875
893.64433	9474.8875
897.44466	9487.3875
901.24235	9510.2875
905.0374	9417.1875
908.8298	9267.2875
912.61957	9143.1875
916.40671	9107.8875
920.19121	9219.2875
923.97308	9416.6875
927.75233	9796.5875
931.52895	10195.0875
935.30295	10045.5875
939.07433	9352.6875
942.84309	8828.6875
946.60924	8511.2875
950.37278	8395.1875
954.13371	8349.4875
957.89203	8303.6875
961.64774	8283.3875
965.40086	8271.6875
969.15137	8249.3875
972.89929	8220.0875
976.64461	8216.9875
980.38733	8216.4875
984.12747	8240.9875
987.86502	8289.2875
991.59999	8360.9875
995.33237	8480.7875
999.06217	8709.8875
1002.78939	9037.4875
1006.51404	9385.1875
1010.23611	9712.9875
1013.95561	9841.9875
1017.67255	9755.2875
1021.38692	9587.3875
1025.09872	9319.1875
1028.80796	9203.5875
1032.51465	9290.2875
1036.21877	9480.3875
1039.92035	9598.2875
1043.61937	9696.5875
1047.31584	9705.7875
1051.00976	9671.0875
1054.70114	9567.1875
1058.38998	9492.0875
1062.07627	9512.0875
1065.76003	9556.6875
1069.44126	9643.6875
1073.11995	9836.4875
1076.79611	10215.8875
1080.46974	10828.4875
1084.14085	11589.3875
1087.80943	12302.5875
1091.47549	12465.2875
1095.13903	11919.0875
1098.80005	11082.4875
1102.45857	10489.2875
1106.11456	10368.2875
1109.76805	10660.1875
1113.41903	11343.2875
1117.06751	12529.9875
1120.71348	14108.6875
1124.35696	15917.7875
1127.99793	16915.9875
1131.63641	15925.6875
1135.2724	13945.6875
1138.90589	12415.5875
1142.5369	11523.2875
1146.16542	10922.7875
1149.79145	10575.9875
1153.415	10503.4875
1157.03607	10660.3875
1160.65467	11032.0875
1164.27079	11746.3875
1167.88443	12914.5875
1171.49561	14766.1875
1175.10432	17943.5875
1178.71056	22129.2875
1182.31434	25194.7875
1185.91565	25670.3875
1189.51451	24275.5875
1193.11091	21794.5875
1196.70485	19146.2875
1200.29634	17287.0875
1203.88538	15942.7875
1207.47197	14184.1875
1211.05612	12613.6875
1214.63782	11698.4875
1218.21708	11287.5875
1221.79391	11135.1875
1225.36829	11099.5875
1228.94024	11100.3875
1232.50976	11068.7875
1236.07685	11097.0875
1239.6415	11197.6875
1243.20374	11357.2875
1246.76355	11574.1875
1250.32093	11843.7875
1253.8759	12193.6875
1257.42845	12857.6875
1260.97859	13637.5875
1264.52631	14497.3875
1268.07163	15278.4875
1271.61453	15826.7875
1275.15503	16059.5875
1278.69312	16079.9875
1282.22882	16309.6875
1285.76211	17053.2875
1289.29301	18003.6875
1292.82151	18898.1875
1296.34761	19899.4875
1299.87133	21711.9875
1303.39266	25292.0875
1306.9116	31024.6875
1310.42815	37043.5875
1313.94233	39029.6875
1317.45412	35556.7875
1320.96354	29870.9875
1324.47058	24658.4875
1327.97525	20760.8875
1331.47754	18568.2875
1334.97747	17897.7875
1338.47502	18376.6875
1341.97022	19980.2875
1345.46305	22746.2875
1348.95352	26331.8875
1352.44163	30620.7875
1355.92738	37022.8875
1359.41078	46889.7875
1362.89183	54475.5875
1366.37053	49704.1875
1369.84688	37515.5875
1373.32088	27922.0875
1376.79254	22404.4875
1380.26186	19330.0875
1383.72883	17366.0875
1387.19347	15941.1875
1390.65578	14610.2875
1394.11575	13578.3875
1397.57339	12988.7875
1401.0287	12750.6875
1404.48168	12678.2875
1407.93234	12707.8875
1411.38068	12927.3875
1414.82669	13290.8875
1418.27039	13502.7875
1421.71177	13430.2875
1425.15083	13182.4875
1428.58758	13256.3875
1432.02203	13631.7875
1435.45416	13828.6875
1438.88399	13690.3875
1442.31151	13530.7875
1445.73673	13600.4875
1449.15965	13707.9875
1452.58027	13570.6875
1455.9986	13300.2875
1459.41463	13180.3875
1462.82837	13436.3875
1466.23982	13992.0875
1469.64898	14477.5875
1473.05586	14760.3875
1476.46045	14902.7875
1479.86276	15307.8875
1483.26279	15999.8875
1486.66054	17063.7875
1490.05602	18565.9875
1493.44922	20823.8875
1496.84016	24513.4875
1500.22882	30268.7875
1503.61521	38268.9875
1506.99934	47216.2875
1510.38121	54210.5875
1513.76081	55043.5875
1517.13816	48243.7875
1520.51324	37875.9875
1523.88607	28968.1875
1527.25665	23495.9875
1530.62498	20444.8875
1533.99105	18637.3875
1537.35488	17531.2875
1540.71647	16889.1875
1544.07581	16656.6875
1547.4329	16742.2875
1550.78776	16931.1875
1554.14038	17189.6875
1557.49077	17676.4875
1560.83892	18480.7875
1564.18484	19830.5875
1567.52853	21348.1875
1570.86999	22423.6875
1574.20922	22944.6875
1577.54624	22448.0875
1580.88103	20100.8875
1584.2136	17096.4875
1587.54395	15211.8875
1590.87208	14865.5875
1594.19801	15910.2875
1597.52172	17651.8875
1600.84321	18471.8875
1604.16251	17763.5875
1607.47959	16477.4875
1610.79447	15042.1875
1614.10715	13559.8875
1617.41763	12341.9875
1620.7259	11603.9875
1624.03199	11341.9875
1627.33587	11437.7875
1630.63757	11904.0875
1633.93707	12878.8875
1637.23439	14623.8875
1640.52951	17505.4875
1643.82246	22230.7875
1647.11321	28235.4875
1650.40179	32400.9875
1653.68819	30917.5875
1656.97241	24718.1875
1660.25446	18362.1875
1663.53433	14117.3875
1666.81203	11766.1875
1670.08756	10460.2875
1673.36092	9738.4875
1676.63211	9267.0875
1679.90115	8948.7875
1683.16801	8752.2875
1686.43272	8589.7875
1689.69527	8471.1875
1692.95567	8396.3875
1696.2139	8344.0875
1699.46999	8293.1875
1702.72392	8308.0875
1705.97571	8275.8875
1709.22535	8263.6875
1712.47284	8261.7875
1715.71819	8286.4875
1718.96139	8284.3875
1722.20246	8227.6875
1725.44139	8138.1875
1728.67818	8029.7875
1731.91284	7922.1875
1735.14537	7805.3875
1738.37576	7760.9875
1741.60403	7706.2875
1744.83017	7642.1875
1748.05418	7624.9875
1751.27607	7584.2875
1754.49584	7575.8875
1757.71349	7545.9875
1760.92903	7488.2875
1764.14244	7480.8875
1767.35375	7440.7875
1770.56294	7392.0875
1773.77002	7321.4875
1776.97499	7273.6875
1780.17785	7236.5875
1783.37861	7194.4875
1786.57727	7190.2875
1789.77382	7158.2875
1792.96828	7146.9875
1796.16064	7136.9875
1799.3509	7120.5875
1802.53907	7093.4875
1805.72514	7056.4875
1808.90913	7028.8875
1812.09102	7016.1875
1815.27083	6991.0875
1818.44856	6965.4875
1821.6242	6957.8875
1824.79776	6922.0875
1827.96924	6901.0875
1831.13864	6881.9875
1834.30597	6857.1875
1837.47122	6828.4875
1840.6344	6819.4875
1843.7955	6815.7875
1846.95454	6801.3875
1850.11151	6792.2875
1853.26642	6782.2875
1856.41926	6774.5875
1859.57004	6786.7875
1862.71876	6783.4875
1865.86542	6775.4875
1869.01003	6786.2875
1872.15258	6773.5875
1875.29308	6789.2875
1878.43152	6778.6875
1881.56792	6785.6875
1884.70227	6777.5875
1887.83457	6773.5875
1890.96482	6743.6875
1894.09304	6763.5875
1897.21921	6751.2875
1900.34335	6741.7875
1903.46544	6730.5875
1906.58551	6733.7875
1909.70353	6740.0875
1912.81953	6731.6875
1915.93349	6736.6875
1919.04543	6698.5875
1922.15534	6709.7875
1925.26322	6667.5875
1928.36908	6656.2875
1931.47292	6615.3875
1934.57473	6580.6875
1937.67453	6546.5875
1940.77232	6523.2875
1943.86808	6501.1875
1946.96184	6483.2875
1950.05358	6471.4875
1953.14331	6464.9875
1956.23103	6452.2875
1959.31675	6442.4875
1962.40046	6429.1875
1965.48217	6436.5875
1968.56188	6434.2875
1971.63959	6432.9875
1974.7153	6443.1875
1977.78901	6410.0875
1980.86073	6359.0875
1983.93046	6316.5875
1986.99819	6276.7875
1990.06394	6267.1875
1993.1277	6227.1875
1996.18947	6176.0875
1999.24925	6157.1875
2002.30706	6125.7875
2005.36288	6118.7875
2008.41672	6066.0875
2011.46859	6059.3875
2014.51848	6046.7875
2017.56639	6038.5875
2020.61233	6015.8875
2023.6563	5972.2875
2026.6983	5965.3875
2029.73833	5941.9875
2032.7764	5914.7875
2035.8125	5908.8875
2038.84664	5901.9875
2041.87881	5897.2875
2044.90903	5901.9875
2047.93729	5889.3875
2050.96359	5852.9875
2053.98794	5840.2875
2057.01034	5829.0875
2060.03078	5818.5875
2063.04927	5791.5875
2066.06582	5771.4875
2069.08042	5774.8875
2072.09307	5766.2875
2075.10378	5760.2875
2078.11255	5764.4875
2081.11938	5760.7875
2084.12426	5767.7875
2087.12722	5762.0875
2090.12824	5766.3875
2093.12732	5766.5875
2096.12447	5773.3875
2099.11969	5756.1875
2102.11299	5766.9875
2105.10435	5753.6875
2108.09379	5764.8875
2111.08131	5785.1875
2114.0669	5788.7875
2117.05057	5802.3875
2120.03233	5828.1875
2123.01216	5832.6875
2125.99008	5836.7875
2128.96609	5847.6875
2131.94018	5857.2875
2134.91236	5850.1875
2137.88263	5816.9875
2140.851	5800.5875
2143.81746	5803.2875
2146.78201	5808.0875
2149.74466	5798.0875
2152.7054	5758.8875
2155.66425	5773.5875
2158.6212	5757.5875
2161.57625	5750.0875
2164.52941	5733.6875
2167.48067	5747.8875
2170.43004	5727.1875
2173.37752	5738.6875
2176.32311	5722.7875
2179.26681	5745.3875
2182.20863	5726.7875
2185.14856	5738.1875
2188.08661	5715.9875
2191.02278	5718.5875
2193.95707	5694.9875
2196.88948	5703.0875
2199.82001	5687.7875
2202.74867	5665.5875
2205.67545	5667.4875
2208.60037	5687.8875
2211.52341	5651.6875
2214.44458	5651.1875
2217.36388	5632.6875
2220.28132	5647.8875
2223.1969	5620.0875
2226.11061	5606.2875
2229.02246	5586.0875
2231.93245	5575.4875
2234.84058	5553.6875
2237.74686	5543.3875
2240.65128	5547.3875
2243.55385	5528.6875
2246.45456	5539.5875
2249.35343	5548.1875
2252.25044	5561.5875
2255.14561	5576.2875
2258.03893	5599.5875
2260.93041	5593.2875
2263.82004	5604.8875
2266.70783	5593.7875
2269.59378	5566.9875
2272.4779	5573.4875
2275.36017	5544.0875
2278.24061	5536.5875
2281.11922	5535.6875
2283.996	5492.0875
2286.87094	5482.5875
2289.74405	5440.1875
2292.61534	5433.8875
2295.4848	5421.8875
2298.35243	5415.6875
2301.21824	5395.8875
2304.08223	5396.2875
2306.94439	5398.1875
2309.80474	5397.9875
2312.66327	5407.7875
2315.51999	5389.3875
2318.37489	5363.6875
2321.22797	5380.1875
2324.07925	5374.3875
2326.92871	5386.3875
2329.77637	5362.8875
2332.62222	5370.1875
2335.46626	5361.1875
2338.3085	5368.9875
2341.14893	5390.0875
2343.98756	5382.4875
2346.8244	5374.0875
2349.65943	5402.9875
2352.49267	5420.7875
2355.32411	5423.9875
2358.15376	5462.2875
2360.98161	5469.0875
2363.80768	5511.2875
2366.63195	5516.1875
2369.45444	5511.6875
2372.27514	5520.2875
2375.09405	5502.8875
2377.91118	5483.7875
2380.72652	5448.7875
2383.54009	5431.2875
2386.35187	5389.5875
2389.16188	5353.4875
2391.97011	5321.0875
2394.77657	5294.7875
2397.58125	5267.0875
2400.38416	5259.0875
2403.18529	5227.9875
2405.98466	5213.9875
2408.78226	5198.9875
2411.57809	5186.7875
2414.37216	5167.3875
2417.16446	5173.3875
2419.955	5143.4875
2422.74378	5159.0875
2425.5308	5157.0875
2428.31606	5157.0875
2431.09956	5171.2875
2433.88131	5163.5875
2436.6613	5191.9875
2439.43954	5182.3875
2442.21603	5196.4875
2444.99077	5212.1875
2447.76377	5214.2875
2450.53501	5213.6875
2453.30451	5230.8875
2456.07226	5223.3875
2458.83827	5228.0875
2461.60254	5213.3875
2464.36507	5207.5875
2467.12586	5205.6875
2469.88492	5214.9875
2472.64224	5235.2875
2475.39782	5231.9875
2478.15167	5262.9875
2480.90379	5271.7875
2483.65417	5304.5875
2486.40283	5331.9875
2489.14976	5368.4875
2491.89497	5372.7875
2494.63845	5368.4875
2497.3802	5351.6875
2500.12024	5343.7875
2502.85855	5321.5875
2505.59514	5284.0875
2508.33002	5265.3875
2511.06318	5197.1875
2513.79462	5170.9875
2516.52435	5125.7875
2519.25237	5075.4875
2521.97867	5065.1875
2524.70327	5036.6875
2527.42616	5029.2875
2530.14734	5004.7875
2532.86681	5006.0875
2535.58458	4998.5875
2538.30065	5005.7875
2541.01501	5031.4875
2543.72768	5016.7875
2546.43864	5018.7875
2549.14791	5024.2875
2551.85548	5028.8875
2554.56136	5029.3875
2557.26554	5039.2875
2559.96803	5029.4875
2562.66883	5019.2875
2565.36794	5023.1875
2568.06536	5014.3875
2570.7611	5008.0875
2573.45514	4980.7875
2576.14751	4964.3875
2578.83819	4948.5875
2581.52719	4958.1875
2584.21451	4937.8875
2586.90015	4916.3875
2589.58411	4903.0875
2592.2664	4911.2875
2594.94701	4902.6875
2597.62594	4894.8875
2600.30321	4882.1875
2602.9788	4890.5875
2605.65273	4880.3875
2608.32498	4889.1875
2610.99557	4881.5875
2613.66449	4882.8875
2616.33175	4876.1875
2618.99734	4895.4875
2621.66128	4893.8875
2624.32355	4899.5875
2626.98416	4879.7875
2629.64311	4886.3875
2632.30041	4839.4875
2634.95605	4836.1875
2637.61004	4833.9875
2640.26238	4817.0875
2642.91306	4810.7875
2645.56209	4831.0875
2648.20948	4795.8875
2650.85521	4781.8875
2653.4993	4800.5875
2656.14175	4791.1875
2658.78255	4798.4875
2661.42171	4822.0875
2664.05923	4814.7875
2666.6951	4836.1875
2669.32934	4836.8875
2671.96194	4867.6875
2674.59291	4857.3875
2677.22224	4864.3875
2679.84993	4867.1875
2682.476	4864.8875
2685.10043	4852.4875
2687.72324	4851.5875
2690.34441	4842.7875
2692.96396	4852.8875
2695.58188	4853.3875
2698.19818	4838.9875
2700.81285	4854.5875
2703.4259	4847.9875
2706.03733	4838.2875
2708.64714	4840.1875
2711.25533	4856.0875
2713.86191	4848.5875
2716.46687	4868.2875
2719.07021	4860.4875
2721.67194	4865.0875
2724.27206	4858.6875
2726.87057	4844.5875
2729.46747	4830.8875
2732.06276	4831.7875
2734.65644	4822.8875
2737.24852	4804.9875
2739.83899	4793.1875
2742.42786	4794.9875
2745.01513	4770.6875
2747.60079	4770.3875
2750.18486	4750.3875
2752.76733	4743.4875
2755.3482	4720.6875
2757.92747	4719.5875
2760.50515	4710.7875
2763.08123	4698.3875
2765.65573	4689.0875
2768.22863	4695.9875
2770.79994	4696.2875
2773.36967	4697.4875
2775.9378	4684.3875
2778.50435	4689.9875
2781.06932	4691.9875
2783.6327	4687.3875
2786.1945	4705.9875
2788.75471	4682.0875
2791.31335	4683.2875
2793.87041	4695.8875
2796.42589	4687.1875
2798.97979	4709.3875
2801.53212	4704.9875
2804.08288	4713.3875
2806.63206	4722.8875
2809.17967	4726.0875
2811.72571	4750.4875
2814.27018	4759.2875
2816.81308	4778.8875
2819.35442	4792.0875
2821.89419	4802.9875
2824.43239	4820.0875
2826.96904	4813.2875
2829.50412	4829.9875
2832.03763	4813.7875
2834.56959	4801.4875
2837.1	4807.3875
2839.62884	4824.4875
2842.15613	4795.3875
2844.68186	4812.9875
2847.20604	4831.6875
2849.72867	4857.5875
2852.24974	4863.4875
2854.76927	4869.5875
2857.28724	4869.4875
2859.80367	4887.8875
2862.31855	4903.2875
2864.83189	4923.8875
2867.34368	4931.2875
2869.85393	4961.4875
2872.36264	4958.9875
2874.8698	4965.6875
2877.37543	4942.3875
2879.87952	4955.0875
2882.38207	4939.6875
2884.88308	4917.0875
2887.38256	4914.2875
2889.88051	4901.2875
2892.37692	4883.6875
2894.8718	4886.5875
2897.36515	4876.5875
2899.85698	4877.1875
2902.34727	4884.0875
2904.83604	4867.7875
2907.32328	4880.5875
2909.809	4856.8875
2912.29319	4849.0875
2914.77587	4826.1875
2917.25702	4817.2875
2919.73665	4787.8875
2922.21476	4793.9875
2924.69136	4770.5875
2927.16644	4762.3875
2929.64	4761.8875
2932.11205	4740.7875
2934.58258	4724.0875
2937.05161	4715.5875
2939.51912	4702.3875
2941.98513	4703.6875
2944.44962	4694.1875
2946.91261	4665.3875
2949.37409	4663.1875
2951.83407	4659.5875
2954.29254	4661.8875
2956.74951	4636.8875
2959.20498	4647.2875
2961.65895	4634.5875
2964.11142	4635.6875
2966.56239	4623.4875
2969.01186	4605.4875
2971.45984	4569.4875
2973.90632	4577.1875
2976.35131	4549.0875
2978.7948	4546.2875
2981.23681	4510.9875
2983.67732	4518.0875
2986.11635	4492.9875
2988.55388	4499.9875
2990.98993	4504.9875
2993.4245	4500.3875
2995.85758	4505.5875
2998.28917	4498.6875
3000.71928	4498.9875
3003.14791	4479.7875
3005.57506	4485.8875
3008.00073	4487.0875
3010.42493	4505.6875
3012.84764	4483.5875
3015.26888	4498.6875
3017.68865	4476.2875
3020.10694	4463.8875
3022.52376	4452.3875
3024.9391	4429.5875
3027.35298	4413.5875
3029.76539	4417.2875
3032.17632	4379.5875
3034.5858	4369.4875
3036.9938	4363.3875
3039.40034	4338.8875
3041.80542	4322.9875
3044.20903	4291.6875
3046.61118	4305.6875
3049.01187	4279.3875
3051.4111	4279.0875
3053.80888	4272.6875
3056.20519	4246.9875
3058.60005	4254.2875
3060.99345	4247.1875
3063.3854	4227.6875
3065.7759	4224.1875
3068.16494	4212.6875
3070.55254	4200.4875
3072.93868	4173.2875
3075.32338	4176.0875
3077.70662	4173.5875
3080.08842	4151.4875
3082.46878	4147.0875
3084.84769	4137.1875
3087.22515	4130.2875
3089.60118	4115.3875
3091.97576	4110.9875
