Data from AgNP_FTO_APTES_UA_100uM_CRN_100uM_R6G_10uM_NaF_0.1M_Addition_RamanShift__15__18-05-00-582.txt Node

Date: Thu Mar 24 18:05:00 GMT 2022
User: TCL
Spectrometer: QEP01345
Trigger mode: 4
Integration Time (sec): 7.000000E0
Scans to average: 10
Electric dark correction enabled: true
Nonlinearity correction enabled: false
Boxcar width: 0
XAxis mode: Raman Shifts
Number of Pixels in Spectrum: 1044
>>>>>Begin Spectral Data<<<<<
46.04893	-0.5375
50.45542	0.1625
54.85868	-1.9375
59.25871	0.5625
63.6555	31.0625
68.04907	35.2625
72.43941	33.1625
76.82654	33.6625
81.21044	39.3625
85.59113	40.8625
89.96862	44.7625
94.34289	42.3625
98.71396	41.5625
103.08183	45.0625
107.4465	47.3625
111.80798	45.3625
116.16626	46.0625
120.52136	49.3625
124.87327	46.1625
129.222	49.9625
133.56755	50.6625
137.90993	51.9625
142.24913	62.3625
146.58517	63.8625
150.91804	73.9625
155.24774	89.6625
159.57429	105.0625
163.89768	131.3625
168.21792	176.3625
172.53501	236.0625
176.84895	329.7625
181.15975	469.7625
185.46741	653.8625
189.77193	903.2625
194.07331	1204.7625
198.37157	1561.1625
202.6667	1934.8625
206.9587	2302.4625
211.24758	2685.1625
215.53334	3047.7625
219.81599	3467.2625
224.09553	3920.3625
228.37195	4407.2625
232.64527	4962.8625
236.91549	5520.9625
241.18261	6097.2625
245.44663	6557.5625
249.70755	6964.8625
253.96539	7322.1625
258.22014	7603.6625
262.4718	7822.6625
266.72039	8008.4625
270.96589	8105.0625
275.20832	8066.4625
279.44768	8009.9625
283.68397	7923.0625
287.91719	7862.3625
292.14735	7828.4625
296.37445	7883.1625
300.59849	7986.0625
304.81948	8139.1625
309.03742	8250.3625
313.25231	8255.3625
317.46415	8062.3625
321.67296	7767.4625
325.87872	7492.3625
330.08145	7340.9625
334.28114	7321.5625
338.47781	7401.8625
342.67145	7524.8625
346.86207	7680.0625
351.04966	7933.0625
355.23424	8122.5625
359.4158	8305.6625
363.59435	8390.2625
367.76989	8446.2625
371.94243	8460.5625
376.11196	8437.7625
380.27849	8454.5625
384.44203	8436.4625
388.60257	8451.3625
392.76012	8471.9625
396.91468	8572.3625
401.06626	8721.5625
405.21485	8793.1625
409.36047	8707.9625
413.50311	8500.2625
417.64277	8274.2625
421.77947	8128.3625
425.9132	8110.1625
430.04396	8118.2625
434.17176	8161.7625
438.2966	8191.7625
442.41849	8346.4625
446.53742	8492.4625
450.6534	8677.8625
454.76644	8758.1625
458.87653	8787.5625
462.98368	8747.6625
467.08789	8684.9625
471.18916	8603.8625
475.2875	8520.1625
479.38291	8429.6625
483.4754	8342.3625
487.56496	8261.9625
491.6516	8201.5625
495.73531	8173.2625
499.81612	8178.5625
503.89401	8225.3625
507.96899	8260.8625
512.04106	8285.7625
516.11023	8308.7625
520.1765	8315.7625
524.23987	8294.5625
528.30034	8225.0625
532.35792	8204.3625
536.41261	8133.0625
540.46441	8017.8625
544.51333	8000.4625
548.55936	8053.2625
552.60252	8162.5625
556.64279	8356.5625
560.6802	8413.2625
564.71473	8462.3625
568.7464	8589.5625
572.7752	8751.3625
576.80114	8872.2625
580.82422	8956.0625
584.84444	9095.7625
588.86181	9226.6625
592.87633	9347.5625
596.888	9420.0625
600.89682	9447.8625
604.9028	9837.2625
608.90594	11157.1625
612.90624	12839.8625
616.90371	12216.4625
620.89834	9647.7625
624.89015	8421.5625
628.87913	8241.9625
632.86528	8396.4625
636.84862	8553.7625
640.82913	8474.1625
644.80683	8223.9625
648.78172	7942.4625
652.75379	7879.7625
656.72306	8014.7625
660.68952	8228.7625
664.65319	8162.4625
668.61405	7937.2625
672.57211	7820.8625
676.52738	7805.9625
680.47986	7845.4625
684.42955	7757.3625
688.37646	7721.2625
692.32058	7717.6625
696.26192	7764.2625
700.20048	7863.4625
704.13626	7912.9625
708.06928	7940.5625
711.99952	7904.8625
715.927	7875.2625
719.85171	7927.6625
723.77365	7913.6625
727.69284	7882.1625
731.60928	7836.8625
735.52295	7822.5625
739.43388	7818.3625
743.34206	7812.8625
747.24749	7848.4625
751.15017	7888.3625
755.05012	7979.6625
758.94733	8237.5625
762.8418	8804.2625
766.73354	9850.2625
770.62254	10855.0625
774.50882	11164.0625
778.39237	10654.1625
782.27321	9626.6625
786.15132	8721.3625
790.02671	8109.8625
793.89938	7831.5625
797.76935	7704.8625
801.6366	7632.5625
805.50115	7600.1625
809.36299	7587.6625
813.22213	7566.4625
817.07857	7545.8625
820.93231	7521.8625
824.78336	7502.1625
828.63172	7496.9625
832.47738	7487.5625
836.32036	7454.7625
840.16066	7440.6625
843.99827	7441.8625
847.8332	7417.6625
851.66546	7437.0625
855.49504	7421.0625
859.32195	7412.7625
863.1462	7421.4625
866.96777	7424.0625
870.78668	7423.0625
874.60293	7408.5625
878.41652	7435.3625
882.22745	7469.3625
886.03573	7480.3625
889.84136	7500.4625
893.64433	7479.5625
897.44466	7426.5625
901.24235	7406.0625
905.0374	7373.1625
908.8298	7342.0625
912.61957	7303.5625
916.40671	7328.9625
920.19121	7382.4625
923.97308	7450.6625
927.75233	7478.6625
931.52895	7436.6625
935.30295	7364.1625
939.07433	7217.6625
942.84309	7081.1625
946.60924	7012.0625
950.37278	6969.8625
954.13371	6956.6625
957.89203	6948.0625
961.64774	6956.2625
965.40086	6934.4625
969.15137	6908.1625
972.89929	6881.8625
976.64461	6861.8625
980.38733	6870.1625
984.12747	6849.6625
987.86502	6875.7625
991.59999	6905.8625
995.33237	6946.5625
999.06217	7004.5625
1002.78939	7122.4625
1006.51404	7242.0625
1010.23611	7375.9625
1013.95561	7427.4625
1017.67255	7433.1625
1021.38692	7384.8625
1025.09872	7290.7625
1028.80796	7170.2625
1032.51465	7113.6625
1036.21877	7106.7625
1039.92035	7159.8625
1043.61937	7178.8625
1047.31584	7234.2625
1051.00976	7274.4625
1054.70114	7292.3625
1058.38998	7306.8625
1062.07627	7357.4625
1065.76003	7407.7625
1069.44126	7509.8625
1073.11995	7611.6625
1076.79611	7748.5625
1080.46974	7824.2625
1084.14085	7921.6625
1087.80943	8017.8625
1091.47549	8081.8625
1095.13903	8027.0625
1098.80005	7876.8625
1102.45857	7683.4625
1106.11456	7560.6625
1109.76805	7528.2625
1113.41903	7604.8625
1117.06751	7749.5625
1120.71348	7969.1625
1124.35696	8178.6625
1127.99793	8402.6625
1131.63641	8416.9625
1135.2724	8245.3625
1138.90589	8042.2625
1142.5369	7891.2625
1146.16542	7813.3625
1149.79145	7735.2625
1153.415	7714.9625
1157.03607	7766.4625
1160.65467	7889.5625
1164.27079	8120.5625
1167.88443	8496.1625
1171.49561	9031.2625
1175.10432	9860.9625
1178.71056	10890.1625
1182.31434	11785.2625
1185.91565	12072.9625
1189.51451	11887.0625
1193.11091	11440.0625
1196.70485	10855.0625
1200.29634	10304.3625
1203.88538	9843.7625
1207.47197	9356.6625
1211.05612	8941.8625
1214.63782	8657.5625
1218.21708	8501.7625
1221.79391	8436.0625
1225.36829	8392.0625
1228.94024	8370.2625
1232.50976	8318.6625
1236.07685	8233.0625
1239.6415	8192.0625
1243.20374	8167.3625
1246.76355	8199.1625
1250.32093	8268.5625
1253.8759	8367.9625
1257.42845	8553.1625
1260.97859	8778.2625
1264.52631	9036.5625
1268.07163	9314.4625
1271.61453	9530.9625
1275.15503	9724.0625
1278.69312	9869.8625
1282.22882	10057.8625
1285.76211	10326.1625
1289.29301	10662.8625
1292.82151	11007.8625
1296.34761	11442.7625
1299.87133	12027.6625
1303.39266	12810.0625
1306.9116	13864.1625
1310.42815	14842.8625
1313.94233	15349.0625
1317.45412	15038.4625
1320.96354	14342.6625
1324.47058	13640.1625
1327.97525	12976.0625
1331.47754	12501.7625
1334.97747	12255.4625
1338.47502	12211.6625
1341.97022	12368.6625
1345.46305	12623.2625
1348.95352	13081.1625
1352.44163	13692.5625
1355.92738	14589.6625
1359.41078	15891.3625
1362.89183	17254.8625
1366.37053	17071.2625
1369.84688	15114.0625
1373.32088	12897.0625
1376.79254	11468.3625
1380.26186	10709.1625
1383.72883	10324.1625
1387.19347	10013.7625
1390.65578	9722.4625
1394.11575	9493.1625
1397.57339	9371.4625
1401.0287	9317.8625
1404.48168	9304.1625
1407.93234	9248.6625
1411.38068	9173.3625
1414.82669	9018.4625
1418.27039	8856.1625
1421.71177	8640.3625
1425.15083	8427.4625
1428.58758	8326.6625
1432.02203	8325.8625
1435.45416	8404.3625
1438.88399	8509.1625
1442.31151	8561.2625
1445.73673	8633.2625
1449.15965	8726.0625
1452.58027	8784.2625
1455.9986	8789.7625
1459.41463	8828.1625
1462.82837	8944.5625
1466.23982	9208.1625
1469.64898	9431.1625
1473.05586	9656.3625
1476.46045	9806.7625
1479.86276	9936.8625
1483.26279	10075.9625
1486.66054	10262.1625
1490.05602	10566.8625
1493.44922	11045.7625
1496.84016	11737.7625
1500.22882	12756.8625
1503.61521	14105.6625
1506.99934	15459.5625
1510.38121	16340.1625
1513.76081	16294.6625
1517.13816	15171.8625
1520.51324	13634.5625
1523.88607	12281.0625
1527.25665	11450.8625
1530.62498	10960.5625
1533.99105	10662.8625
1537.35488	10395.4625
1540.71647	10090.9625
1544.07581	9850.4625
1547.4329	9653.5625
1550.78776	9454.3625
1554.14038	9381.0625
1557.49077	9387.0625
1560.83892	9488.0625
1564.18484	9708.5625
1567.52853	10012.0625
1570.86999	10309.2625
1574.20922	10512.7625
1577.54624	10482.8625
1580.88103	10068.6625
1584.2136	9551.2625
1587.54395	9298.3625
1590.87208	9342.2625
1594.19801	9717.4625
1597.52172	10243.9625
1600.84321	10437.9625
1604.16251	10101.9625
1607.47959	9570.7625
1610.79447	9005.5625
1614.10715	8483.1625
1617.41763	7999.4625
1620.7259	7646.3625
1624.03199	7444.9625
1627.33587	7399.7625
1630.63757	7491.9625
1633.93707	7826.5625
1637.23439	8425.3625
1640.52951	9414.9625
1643.82246	10775.5625
1647.11321	12265.2625
1650.40179	13111.6625
1653.68819	12714.7625
1656.97241	11195.1625
1660.25446	9458.8625
1663.53433	8151.1625
1666.81203	7361.8625
1670.08756	6865.3625
1673.36092	6577.1625
1676.63211	6389.6625
1679.90115	6258.3625
1683.16801	6153.7625
1686.43272	6065.6625
1689.69527	5992.3625
1692.95567	5966.2625
1696.2139	5901.5625
1699.46999	5870.6625
1702.72392	5839.0625
1705.97571	5833.5625
1709.22535	5779.9625
1712.47284	5778.4625
1715.71819	5754.8625
1718.96139	5711.4625
1722.20246	5684.0625
1725.44139	5656.9625
1728.67818	5616.5625
1731.91284	5571.9625
1735.14537	5523.2625
1738.37576	5494.3625
1741.60403	5471.8625
1744.83017	5432.3625
1748.05418	5433.3625
1751.27607	5404.7625
1754.49584	5402.0625
1757.71349	5385.5625
1760.92903	5353.4625
1764.14244	5364.8625
1767.35375	5352.3625
1770.56294	5324.3625
1773.77002	5297.0625
1776.97499	5280.8625
1780.17785	5265.9625
1783.37861	5260.0625
1786.57727	5244.4625
1789.77382	5242.6625
1792.96828	5233.1625
1796.16064	5212.8625
1799.3509	5192.0625
1802.53907	5198.0625
1805.72514	5158.6625
1808.90913	5129.4625
1812.09102	5105.2625
1815.27083	5113.4625
1818.44856	5106.6625
1821.6242	5090.8625
1824.79776	5072.8625
1827.96924	5067.8625
1831.13864	5048.1625
1834.30597	5043.7625
1837.47122	5040.1625
1840.6344	5006.8625
1843.7955	5023.9625
1846.95454	5008.6625
1850.11151	4999.4625
1853.26642	5007.4625
1856.41926	4986.2625
1859.57004	4969.3625
1862.71876	4967.3625
1865.86542	4963.7625
1869.01003	4964.3625
1872.15258	4956.4625
1875.29308	4944.2625
1878.43152	4931.7625
1881.56792	4925.1625
1884.70227	4924.6625
1887.83457	4917.5625
1890.96482	4903.8625
1894.09304	4895.1625
1897.21921	4882.3625
1900.34335	4871.7625
1903.46544	4863.6625
1906.58551	4876.3625
1909.70353	4861.7625
1912.81953	4830.0625
1915.93349	4835.5625
1919.04543	4841.1625
1922.15534	4818.8625
1925.26322	4785.6625
1928.36908	4782.5625
1931.47292	4758.4625
1934.57473	4746.1625
1937.67453	4753.7625
1940.77232	4727.8625
1943.86808	4714.6625
1946.96184	4707.0625
1950.05358	4695.8625
1953.14331	4671.3625
1956.23103	4654.7625
1959.31675	4626.8625
1962.40046	4603.4625
1965.48217	4594.7625
1968.56188	4590.4625
1971.63959	4579.7625
1974.7153	4573.2625
1977.78901	4552.0625
1980.86073	4535.2625
1983.93046	4522.8625
1986.99819	4502.6625
1990.06394	4474.8625
1993.1277	4455.7625
1996.18947	4458.7625
1999.24925	4455.3625
2002.30706	4418.2625
2005.36288	4398.4625
2008.41672	4374.8625
2011.46859	4364.1625
2014.51848	4352.5625
2017.56639	4330.7625
2020.61233	4325.7625
2023.6563	4303.6625
2026.6983	4287.7625
2029.73833	4285.7625
2032.7764	4253.6625
2035.8125	4243.4625
2038.84664	4230.5625
2041.87881	4230.3625
2044.90903	4218.0625
2047.93729	4203.3625
2050.96359	4208.8625
2053.98794	4196.6625
2057.01034	4188.7625
2060.03078	4162.5625
2063.04927	4164.6625
2066.06582	4138.0625
2069.08042	4154.3625
2072.09307	4145.5625
2075.10378	4147.8625
2078.11255	4154.4625
2081.11938	4149.4625
2084.12426	4138.0625
2087.12722	4145.8625
2090.12824	4133.9625
2093.12732	4131.2625
2096.12447	4135.3625
2099.11969	4136.9625
2102.11299	4130.9625
2105.10435	4127.2625
2108.09379	4118.2625
2111.08131	4135.9625
2114.0669	4126.2625
2117.05057	4139.0625
2120.03233	4146.0625
2123.01216	4133.5625
2125.99008	4132.3625
2128.96609	4135.9625
2131.94018	4128.1625
2134.91236	4121.5625
2137.88263	4143.7625
2140.851	4132.0625
2143.81746	4123.7625
2146.78201	4117.4625
2149.74466	4127.7625
2152.7054	4111.2625
2155.66425	4108.6625
2158.6212	4112.2625
2161.57625	4099.1625
2164.52941	4101.3625
2167.48067	4082.7625
2170.43004	4075.1625
2173.37752	4092.8625
2176.32311	4075.3625
2179.26681	4077.3625
2182.20863	4073.2625
2185.14856	4089.7625
2188.08661	4069.4625
2191.02278	4074.9625
2193.95707	4058.5625
2196.88948	4059.2625
2199.82001	4044.2625
2202.74867	4046.7625
2205.67545	4035.7625
2208.60037	4025.6625
2211.52341	4001.1625
2214.44458	4008.0625
2217.36388	3976.8625
2220.28132	3984.5625
2223.1969	3973.3625
2226.11061	3967.6625
2229.02246	3960.2625
2231.93245	3954.9625
2234.84058	3935.4625
2237.74686	3929.7625
2240.65128	3939.2625
2243.55385	3919.7625
2246.45456	3918.1625
2249.35343	3906.6625
2252.25044	3903.4625
2255.14561	3905.1625
2258.03893	3894.7625
2260.93041	3895.8625
2263.82004	3876.1625
2266.70783	3864.1625
2269.59378	3862.7625
2272.4779	3854.1625
2275.36017	3839.5625
2278.24061	3824.0625
2281.11922	3825.6625
2283.996	3795.6625
2286.87094	3784.2625
2289.74405	3793.8625
2292.61534	3782.6625
2295.4848	3774.0625
2298.35243	3785.6625
2301.21824	3767.2625
2304.08223	3755.9625
2306.94439	3766.0625
2309.80474	3769.3625
2312.66327	3765.2625
2315.51999	3740.6625
2318.37489	3736.3625
2321.22797	3726.6625
2324.07925	3736.8625
2326.92871	3711.0625
2329.77637	3721.6625
2332.62222	3708.9625
2335.46626	3695.1625
2338.3085	3692.3625
2341.14893	3693.8625
2343.98756	3689.1625
2346.8244	3689.4625
2349.65943	3686.0625
2352.49267	3683.9625
2355.32411	3689.6625
2358.15376	3688.4625
2360.98161	3689.6625
2363.80768	3698.9625
2366.63195	3683.5625
2369.45444	3706.9625
2372.27514	3696.4625
2375.09405	3676.4625
2377.91118	3671.7625
2380.72652	3662.9625
2383.54009	3640.0625
2386.35187	3642.0625
2389.16188	3621.0625
2391.97011	3611.4625
2394.77657	3604.6625
2397.58125	3588.8625
2400.38416	3587.2625
2403.18529	3566.6625
2405.98466	3574.7625
2408.78226	3548.3625
2411.57809	3551.7625
2414.37216	3529.1625
2417.16446	3532.3625
2419.955	3529.4625
2422.74378	3530.3625
2425.5308	3517.2625
2428.31606	3521.2625
2431.09956	3524.4625
2433.88131	3513.4625
2436.6613	3512.6625
2439.43954	3511.4625
2442.21603	3498.5625
2444.99077	3496.1625
2447.76377	3498.6625
2450.53501	3503.6625
2453.30451	3487.5625
2456.07226	3483.8625
2458.83827	3488.9625
2461.60254	3492.6625
2464.36507	3481.4625
2467.12586	3487.6625
2469.88492	3483.0625
2472.64224	3476.9625
2475.39782	3480.5625
2478.15167	3461.1625
2480.90379	3469.0625
2483.65417	3477.7625
2486.40283	3500.0625
2489.14976	3490.0625
2491.89497	3481.0625
2494.63845	3495.1625
2497.3802	3476.6625
2500.12024	3470.5625
2502.85855	3476.6625
2505.59514	3457.6625
2508.33002	3447.8625
2511.06318	3427.6625
2513.79462	3422.5625
2516.52435	3402.3625
2519.25237	3410.5625
2521.97867	3410.0625
2524.70327	3395.8625
2527.42616	3375.4625
2530.14734	3368.5625
2532.86681	3378.3625
2535.58458	3371.8625
2538.30065	3366.6625
2541.01501	3367.2625
2543.72768	3369.2625
2546.43864	3356.3625
2549.14791	3340.2625
2551.85548	3346.1625
2554.56136	3333.4625
2557.26554	3328.2625
2559.96803	3333.4625
2562.66883	3330.3625
2565.36794	3312.4625
2568.06536	3312.8625
2570.7611	3304.0625
2573.45514	3302.5625
2576.14751	3293.6625
2578.83819	3293.5625
2581.52719	3289.4625
2584.21451	3285.3625
2586.90015	3277.1625
2589.58411	3278.7625
2592.2664	3261.4625
2594.94701	3275.2625
2597.62594	3253.8625
2600.30321	3240.6625
2602.9788	3240.2625
2605.65273	3223.9625
2608.32498	3234.5625
2610.99557	3232.2625
2613.66449	3234.2625
2616.33175	3216.4625
2618.99734	3217.7625
2621.66128	3225.4625
2624.32355	3209.0625
2626.98416	3189.8625
2629.64311	3200.6625
2632.30041	3200.1625
2634.95605	3196.8625
2637.61004	3183.5625
2640.26238	3167.8625
2642.91306	3187.9625
2645.56209	3167.9625
2648.20948	3173.6625
2650.85521	3183.9625
2653.4993	3171.4625
2656.14175	3165.2625
2658.78255	3162.6625
2661.42171	3174.6625
2664.05923	3184.5625
2666.6951	3175.7625
2669.32934	3177.0625
2671.96194	3182.7625
2674.59291	3180.6625
2677.22224	3164.1625
2679.84993	3187.5625
2682.476	3151.5625
2685.10043	3158.4625
2687.72324	3159.5625
2690.34441	3165.1625
2692.96396	3156.9625
2695.58188	3160.1625
2698.19818	3144.8625
2700.81285	3160.9625
2703.4259	3160.3625
2706.03733	3157.2625
2708.64714	3158.2625
2711.25533	3148.6625
2713.86191	3148.7625
2716.46687	3164.7625
2719.07021	3169.9625
2721.67194	3164.5625
2724.27206	3159.4625
2726.87057	3158.0625
2729.46747	3161.1625
2732.06276	3149.9625
2734.65644	3152.0625
2737.24852	3141.1625
2739.83899	3139.8625
2742.42786	3135.4625
2745.01513	3128.8625
2747.60079	3123.2625
2750.18486	3115.7625
2752.76733	3112.3625
2755.3482	3108.1625
2757.92747	3106.4625
2760.50515	3106.2625
2763.08123	3091.7625
2765.65573	3080.8625
2768.22863	3096.6625
2770.79994	3081.4625
2773.36967	3085.4625
2775.9378	3086.6625
2778.50435	3059.9625
2781.06932	3079.3625
2783.6327	3073.3625
2786.1945	3069.3625
2788.75471	3058.1625
2791.31335	3061.3625
2793.87041	3062.4625
2796.42589	3053.2625
2798.97979	3059.4625
2801.53212	3039.2625
2804.08288	3035.4625
2806.63206	3028.6625
2809.17967	3030.6625
2811.72571	3026.8625
2814.27018	3021.1625
2816.81308	3022.0625
2819.35442	3006.4625
2821.89419	3000.4625
2824.43239	3023.3625
2826.96904	3006.7625
2829.50412	3020.6625
2832.03763	2997.2625
2834.56959	2999.5625
2837.1	2993.0625
2839.62884	2997.3625
2842.15613	3015.8625
2844.68186	3007.9625
2847.20604	3007.3625
2849.72867	3021.9625
2852.24974	3011.4625
2854.76927	3005.2625
2857.28724	3005.1625
2859.80367	3000.8625
2862.31855	3000.5625
2864.83189	2999.6625
2867.34368	3010.8625
2869.85393	2995.1625
2872.36264	2987.9625
2874.8698	2996.8625
2877.37543	2995.5625
2879.87952	2981.3625
2882.38207	2994.7625
2884.88308	2994.4625
2887.38256	2979.9625
2889.88051	2981.8625
2892.37692	2983.7625
2894.8718	2983.1625
2897.36515	2981.8625
2899.85698	2983.2625
2902.34727	2986.5625
2904.83604	2982.8625
2907.32328	2999.7625
2909.809	2997.0625
2912.29319	3001.4625
2914.77587	2999.3625
2917.25702	2995.7625
2919.73665	2985.9625
2922.21476	2996.7625
2924.69136	2979.5625
2927.16644	2987.2625
2929.64	2972.1625
2932.11205	2974.9625
2934.58258	2966.0625
2937.05161	2960.1625
2939.51912	2954.2625
2941.98513	2941.0625
2944.44962	2937.3625
2946.91261	2921.0625
2949.37409	2931.0625
2951.83407	2936.2625
2954.29254	2926.7625
2956.74951	2923.1625
2959.20498	2925.4625
2961.65895	2922.3625
2964.11142	2900.8625
2966.56239	2905.4625
2969.01186	2909.0625
2971.45984	2889.6625
2973.90632	2887.7625
2976.35131	2872.2625
2978.7948	2865.2625
2981.23681	2857.0625
2983.67732	2860.7625
2986.11635	2855.0625
2988.55388	2859.5625
2990.98993	2846.1625
2993.4245	2845.5625
2995.85758	2843.4625
2998.28917	2846.7625
3000.71928	2826.6625
3003.14791	2836.6625
3005.57506	2828.7625
3008.00073	2818.4625
3010.42493	2806.4625
3012.84764	2795.1625
3015.26888	2805.1625
3017.68865	2800.6625
3020.10694	2813.0625
3022.52376	2795.0625
3024.9391	2788.0625
3027.35298	2784.8625
3029.76539	2780.6625
3032.17632	2757.9625
3034.5858	2768.7625
3036.9938	2773.4625
3039.40034	2755.7625
3041.80542	2767.3625
3044.20903	2763.8625
3046.61118	2758.7625
3049.01187	2754.3625
3051.4111	2744.2625
3053.80888	2745.2625
3056.20519	2743.9625
3058.60005	2743.0625
3060.99345	2734.8625
3063.3854	2727.5625
3065.7759	2733.1625
3068.16494	2721.4625
3070.55254	2712.1625
3072.93868	2716.6625
3075.32338	2697.2625
3077.70662	2701.2625
3080.08842	2693.1625
3082.46878	2700.8625
3084.84769	2690.7625
3087.22515	2702.4625
3089.60118	2704.5625
3091.97576	2705.5625
3094.3489	2701.1625
3096.72061	2706.2625
3099.09087	2719.1625
3101.4597	2704.5625
3103.82709	2697.9625
3106.19305	2697.8625
3108.55757	2709.1625
3110.92066	2692.4625
3113.28232	2696.0625
3115.64255	2694.8625
