Data from AgNP_FTO_APTES_UA_100uM_CRN_5uM_R6G_10uM_NaF_0.1M_Addition_RamanShift__22__15-04-10-380.txt Node

Date: Thu Mar 24 15:04:10 GMT 2022
User: TCL
Spectrometer: QEP01345
Trigger mode: 4
Integration Time (sec): 7.000000E0
Scans to average: 10
Electric dark correction enabled: true
Nonlinearity correction enabled: false
Boxcar width: 0
XAxis mode: Raman Shifts
Number of Pixels in Spectrum: 1044
>>>>>Begin Spectral Data<<<<<
46.04893	-1.575
50.45542	0.225
54.85868	-0.775
59.25871	-0.275
63.6555	32.425
68.04907	34.525
72.43941	32.125
76.82654	33.725
81.21044	37.625
85.59113	38.125
89.96862	40.025
94.34289	39.625
98.71396	42.625
103.08183	41.325
107.4465	44.825
111.80798	46.925
116.16626	49.425
120.52136	47.825
124.87327	44.025
129.222	50.625
133.56755	57.225
137.90993	58.725
142.24913	63.525
146.58517	70.225
150.91804	84.625
155.24774	101.425
159.57429	123.325
163.89768	162.925
168.21792	210.825
172.53501	293.825
176.84895	406.925
181.15975	571.525
185.46741	801.825
189.77193	1110.125
194.07331	1488.025
198.37157	1937.225
202.6667	2409.225
206.9587	2886.125
211.24758	3402.525
215.53334	3954.725
219.81599	4579.925
224.09553	5294.525
228.37195	6118.425
232.64527	6959.525
236.91549	7793.725
241.18261	8464.025
245.44663	8961.825
249.70755	9301.125
253.96539	9574.125
258.22014	9871.825
262.4718	10130.325
266.72039	10310.425
270.96589	10328.925
275.20832	10138.325
279.44768	9821.325
283.68397	9514.825
287.91719	9328.725
292.14735	9391.125
296.37445	9715.325
300.59849	10360.525
304.81948	11156.825
309.03742	11793.425
313.25231	11953.825
317.46415	11397.725
321.67296	10300.225
325.87872	9332.025
330.08145	8852.025
334.28114	8770.325
338.47781	8970.725
342.67145	9318.125
346.86207	9786.825
351.04966	10517.725
355.23424	11409.625
359.4158	12074.425
363.59435	12353.925
367.76989	12331.125
371.94243	12137.525
376.11196	11913.825
380.27849	11726.425
384.44203	11494.525
388.60257	11200.725
392.76012	11081.225
396.91468	11135.425
401.06626	11466.025
405.21485	11708.825
409.36047	11346.325
413.50311	10443.425
417.64277	9613.125
421.77947	9120.425
425.9132	8883.425
430.04396	8814.825
434.17176	8858.525
438.2966	9010.825
442.41849	9330.625
446.53742	9714.725
450.6534	10070.325
454.76644	10242.825
458.87653	10165.325
462.98368	9911.425
467.08789	9684.125
471.18916	9372.625
475.2875	9054.825
479.38291	8769.625
483.4754	8552.525
487.56496	8396.325
491.6516	8303.625
495.73531	8255.825
499.81612	8325.225
503.89401	8444.525
507.96899	8646.525
512.04106	8836.925
516.11023	9077.125
520.1765	9248.525
524.23987	9232.425
528.30034	9153.625
532.35792	9005.925
536.41261	8863.125
540.46441	8538.225
544.51333	8339.925
548.55936	8383.425
552.60252	8649.425
556.64279	9036.025
560.6802	9218.425
564.71473	9483.925
568.7464	10038.125
572.7752	10337.525
576.80114	9835.025
580.82422	9324.325
584.84444	9200.325
588.86181	9380.625
592.87633	9693.025
596.888	9993.225
600.89682	10257.325
604.9028	11770.525
608.90594	16497.325
612.90624	22847.425
616.90371	22021.325
620.89834	13754.625
624.89015	9629.625
628.87913	8860.425
632.86528	9071.125
636.84862	9383.625
640.82913	9155.225
644.80683	8406.225
648.78172	7872.025
652.75379	7886.125
656.72306	8445.025
660.68952	9168.625
664.65319	8972.925
668.61405	8194.425
672.57211	7829.625
676.52738	7816.125
680.47986	7753.225
684.42955	7583.625
688.37646	7468.525
692.32058	7502.325
696.26192	7586.725
700.20048	7744.825
704.13626	7869.825
708.06928	7829.325
711.99952	7727.825
715.927	7729.925
719.85171	7824.625
723.77365	7891.125
727.69284	7858.125
731.60928	7757.225
735.52295	7769.825
739.43388	7814.525
743.34206	7846.725
747.24749	7853.525
751.15017	7863.325
755.05012	8033.725
758.94733	8713.125
762.8418	10452.025
766.73354	13447.325
770.62254	16340.225
774.50882	17659.325
778.39237	16718.125
782.27321	13789.825
786.15132	10808.725
790.02671	8973.925
793.89938	8133.325
797.76935	7809.425
801.6366	7664.725
805.50115	7595.525
809.36299	7556.525
813.22213	7497.925
817.07857	7438.825
820.93231	7414.825
824.78336	7446.225
828.63172	7496.425
832.47738	7541.525
836.32036	7491.525
840.16066	7401.225
843.99827	7352.725
847.8332	7320.425
851.66546	7326.325
855.49504	7323.025
859.32195	7296.825
863.1462	7268.025
866.96777	7229.425
870.78668	7257.025
874.60293	7261.725
878.41652	7320.725
882.22745	7432.825
886.03573	7497.825
889.84136	7498.625
893.64433	7418.925
897.44466	7398.925
901.24235	7364.125
905.0374	7309.925
908.8298	7211.925
912.61957	7127.625
916.40671	7130.525
920.19121	7212.725
923.97308	7357.725
927.75233	7592.125
931.52895	7808.925
935.30295	7703.525
939.07433	7334.725
942.84309	7046.225
946.60924	6889.325
950.37278	6800.125
954.13371	6742.925
957.89203	6650.825
961.64774	6640.125
965.40086	6600.625
969.15137	6584.325
972.89929	6566.425
976.64461	6567.225
980.38733	6578.725
984.12747	6583.925
987.86502	6623.425
991.59999	6704.925
995.33237	6848.825
999.06217	7088.325
1002.78939	7389.625
1006.51404	7701.025
1010.23611	7941.725
1013.95561	8029.625
1017.67255	8012.025
1021.38692	7832.025
1025.09872	7600.425
1028.80796	7463.325
1032.51465	7582.725
1036.21877	7754.525
1039.92035	7841.925
1043.61937	7844.225
1047.31584	7795.225
1051.00976	7664.925
1054.70114	7573.525
1058.38998	7498.525
1062.07627	7489.525
1065.76003	7515.825
1069.44126	7559.125
1073.11995	7730.825
1076.79611	7953.725
1080.46974	8287.025
1084.14085	8742.725
1087.80943	9173.925
1091.47549	9285.625
1095.13903	9020.125
1098.80005	8526.925
1102.45857	8170.125
1106.11456	8080.425
1109.76805	8279.525
1113.41903	8669.425
1117.06751	9342.225
1120.71348	10133.525
1124.35696	11018.125
1127.99793	11641.925
1131.63641	11312.825
1135.2724	10319.125
1138.90589	9460.225
1142.5369	8904.325
1146.16542	8578.125
1149.79145	8367.225
1153.415	8302.425
1157.03607	8436.025
1160.65467	8734.625
1164.27079	9287.725
1167.88443	10139.025
1171.49561	11439.425
1175.10432	13546.725
1178.71056	16390.925
1182.31434	18683.025
1185.91565	19241.425
1189.51451	18259.925
1193.11091	16514.225
1196.70485	14709.925
1200.29634	13331.625
1203.88538	12317.625
1207.47197	11159.125
1211.05612	10147.525
1214.63782	9564.725
1218.21708	9371.825
1221.79391	9405.025
1225.36829	9520.525
1228.94024	9485.325
1232.50976	9300.325
1236.07685	9119.425
1239.6415	9067.925
1243.20374	9086.625
1246.76355	9184.825
1250.32093	9341.325
1253.8759	9618.525
1257.42845	10053.725
1260.97859	10625.725
1264.52631	11282.125
1268.07163	11924.225
1271.61453	12454.725
1275.15503	12856.325
1278.69312	13034.425
1282.22882	13295.525
1285.76211	13835.625
1289.29301	14549.325
1292.82151	15307.425
1296.34761	16168.525
1299.87133	17585.325
1303.39266	19997.625
1306.9116	23697.625
1310.42815	27678.625
1313.94233	29251.625
1317.45412	27350.225
1320.96354	23862.725
1324.47058	20567.325
1327.97525	17911.025
1331.47754	16306.425
1334.97747	15681.525
1338.47502	15727.425
1341.97022	16357.325
1345.46305	17763.125
1348.95352	19819.825
1352.44163	22545.125
1355.92738	26417.525
1359.41078	32392.025
1362.89183	37536.225
1366.37053	35257.125
1369.84688	27297.025
1373.32088	20516.525
1376.79254	16797.625
1380.26186	14923.125
1383.72883	13732.625
1387.19347	12785.725
1390.65578	11951.425
1394.11575	11409.125
1397.57339	11232.825
1401.0287	11213.825
1404.48168	11281.325
1407.93234	11307.225
1411.38068	11378.525
1414.82669	11445.725
1418.27039	11440.425
1421.71177	11222.925
1425.15083	10899.425
1428.58758	10816.025
1432.02203	11101.025
1435.45416	11477.825
1438.88399	11573.225
1442.31151	11529.225
1445.73673	11576.125
1449.15965	11648.325
1452.58027	11601.425
1455.9986	11388.725
1459.41463	11358.225
1462.82837	11569.725
1466.23982	12042.325
1469.64898	12536.825
1473.05586	12843.325
1476.46045	12966.425
1479.86276	13206.225
1483.26279	13546.725
1486.66054	14139.125
1490.05602	15002.525
1493.44922	16281.625
1496.84016	18302.125
1500.22882	21558.425
1503.61521	26156.525
1506.99934	31512.925
1510.38121	35513.125
1513.76081	35751.025
1517.13816	31565.025
1520.51324	25371.125
1523.88607	20131.425
1527.25665	16930.725
1530.62498	15226.725
1533.99105	14228.225
1537.35488	13531.625
1540.71647	13099.725
1544.07581	12830.325
1547.4329	12720.925
1550.78776	12730.325
1554.14038	12849.825
1557.49077	13097.225
1560.83892	13503.525
1564.18484	14267.225
1567.52853	15217.525
1570.86999	15963.525
1574.20922	16334.525
1577.54624	16108.525
1580.88103	14755.425
1584.2136	12994.625
1587.54395	12015.225
1590.87208	12095.425
1594.19801	13144.425
1597.52172	14646.825
1600.84321	15383.325
1604.16251	14765.825
1607.47959	13508.025
1610.79447	12231.425
1614.10715	10984.125
1617.41763	9967.625
1620.7259	9303.125
1624.03199	9012.525
1627.33587	9051.625
1630.63757	9452.625
1633.93707	10306.525
1637.23439	11737.425
1640.52951	14135.325
1643.82246	17732.125
1647.11321	21947.725
1650.40179	24570.725
1653.68819	23219.325
1656.97241	18672.125
1660.25446	13999.925
1663.53433	10880.825
1666.81203	9173.025
1670.08756	8198.725
1673.36092	7639.525
1676.63211	7259.625
1679.90115	7022.925
1683.16801	6830.025
1686.43272	6692.925
1689.69527	6610.425
1692.95567	6550.425
1696.2139	6523.025
1699.46999	6483.925
1702.72392	6458.025
1705.97571	6420.125
1709.22535	6389.025
1712.47284	6389.625
1715.71819	6399.825
1718.96139	6380.825
1722.20246	6358.025
1725.44139	6274.625
1728.67818	6193.125
1731.91284	6106.925
1735.14537	6051.025
1738.37576	6021.325
1741.60403	6000.725
1744.83017	5967.025
1748.05418	5923.125
1751.27607	5903.425
1754.49584	5883.725
1757.71349	5895.625
1760.92903	5876.425
1764.14244	5846.125
1767.35375	5819.625
1770.56294	5798.425
1773.77002	5743.025
1776.97499	5711.925
1780.17785	5674.225
1783.37861	5659.025
1786.57727	5662.625
1789.77382	5615.925
1792.96828	5592.125
1796.16064	5580.525
1799.3509	5576.825
1802.53907	5565.225
1805.72514	5531.925
1808.90913	5519.825
1812.09102	5482.025
1815.27083	5464.225
1818.44856	5449.925
1821.6242	5444.225
1824.79776	5431.725
1827.96924	5421.525
1831.13864	5411.625
1834.30597	5402.225
1837.47122	5394.225
1840.6344	5392.625
1843.7955	5369.325
1846.95454	5373.125
1850.11151	5355.725
1853.26642	5338.325
1856.41926	5351.325
1859.57004	5331.925
1862.71876	5337.425
1865.86542	5330.925
1869.01003	5355.525
1872.15258	5314.925
1875.29308	5329.125
1878.43152	5329.525
1881.56792	5334.825
1884.70227	5334.325
1887.83457	5325.025
1890.96482	5329.225
1894.09304	5303.425
1897.21921	5306.425
1900.34335	5316.225
1903.46544	5308.325
1906.58551	5324.325
1909.70353	5323.325
1912.81953	5330.025
1915.93349	5280.225
1919.04543	5277.925
1922.15534	5271.325
1925.26322	5244.225
1928.36908	5216.225
1931.47292	5195.725
1934.57473	5171.325
1937.67453	5142.525
1940.77232	5146.125
1943.86808	5112.225
1946.96184	5100.825
1950.05358	5081.525
1953.14331	5063.525
1956.23103	5053.625
1959.31675	5070.725
1962.40046	5037.825
1965.48217	5045.825
1968.56188	5042.725
1971.63959	5017.725
1974.7153	5015.025
1977.78901	4989.725
1980.86073	4967.525
1983.93046	4964.725
1986.99819	4926.925
1990.06394	4898.325
1993.1277	4881.825
1996.18947	4843.925
1999.24925	4825.925
2002.30706	4805.525
2005.36288	4791.325
2008.41672	4777.825
2011.46859	4766.225
2014.51848	4761.025
2017.56639	4741.325
2020.61233	4727.825
2023.6563	4697.625
2026.6983	4709.025
2029.73833	4691.225
2032.7764	4677.425
2035.8125	4680.325
2038.84664	4659.425
2041.87881	4665.325
2044.90903	4662.025
2047.93729	4646.325
2050.96359	4640.925
2053.98794	4641.825
2057.01034	4624.525
2060.03078	4611.825
2063.04927	4617.225
2066.06582	4600.625
2069.08042	4602.425
2072.09307	4583.725
2075.10378	4575.325
2078.11255	4576.025
2081.11938	4577.025
2084.12426	4585.025
2087.12722	4576.625
2090.12824	4570.125
2093.12732	4588.725
2096.12447	4589.925
2099.11969	4565.725
2102.11299	4564.125
2105.10435	4576.525
2108.09379	4580.625
2111.08131	4596.025
2114.0669	4579.925
2117.05057	4600.625
2120.03233	4609.725
2123.01216	4621.125
2125.99008	4630.725
2128.96609	4629.125
2131.94018	4625.825
2134.91236	4618.325
2137.88263	4625.925
2140.851	4620.925
2143.81746	4613.625
2146.78201	4611.725
2149.74466	4614.525
2152.7054	4587.225
2155.66425	4569.625
2158.6212	4592.125
2161.57625	4569.325
2164.52941	4582.325
2167.48067	4561.125
2170.43004	4557.025
2173.37752	4576.925
2176.32311	4569.525
2179.26681	4576.425
2182.20863	4583.725
2185.14856	4574.025
2188.08661	4571.125
2191.02278	4564.425
2193.95707	4556.925
2196.88948	4547.925
2199.82001	4542.025
2202.74867	4540.325
2205.67545	4542.825
2208.60037	4532.025
2211.52341	4523.925
2214.44458	4541.825
2217.36388	4529.025
2220.28132	4532.125
2223.1969	4490.425
2226.11061	4509.625
2229.02246	4479.825
2231.93245	4484.925
2234.84058	4467.725
2237.74686	4467.425
2240.65128	4470.225
2243.55385	4453.625
2246.45456	4453.625
2249.35343	4449.025
2252.25044	4473.525
2255.14561	4476.625
2258.03893	4482.225
2260.93041	4494.025
2263.82004	4476.825
2266.70783	4466.325
2269.59378	4471.725
2272.4779	4437.725
2275.36017	4426.425
2278.24061	4428.225
2281.11922	4411.425
2283.996	4409.925
2286.87094	4395.625
2289.74405	4374.725
2292.61534	4357.125
2295.4848	4353.725
2298.35243	4361.825
2301.21824	4343.825
2304.08223	4348.625
2306.94439	4371.525
2309.80474	4347.825
2312.66327	4350.425
2315.51999	4354.925
2318.37489	4357.525
2321.22797	4371.425
2324.07925	4364.325
2326.92871	4357.125
2329.77637	4348.425
2332.62222	4349.125
2335.46626	4349.025
2338.3085	4348.325
2341.14893	4361.325
2343.98756	4369.925
2346.8244	4379.025
2349.65943	4367.725
2352.49267	4390.825
2355.32411	4410.325
2358.15376	4399.425
2360.98161	4419.225
2363.80768	4436.025
2366.63195	4446.225
2369.45444	4451.625
2372.27514	4449.825
2375.09405	4447.125
2377.91118	4415.625
2380.72652	4393.625
2383.54009	4382.625
2386.35187	4344.825
2389.16188	4319.625
2391.97011	4316.025
2394.77657	4302.025
2397.58125	4272.125
2400.38416	4264.425
2403.18529	4239.925
2405.98466	4248.925
2408.78226	4237.225
2411.57809	4220.925
2414.37216	4208.325
2417.16446	4197.725
2419.955	4197.425
2422.74378	4198.525
2425.5308	4197.725
2428.31606	4203.025
2431.09956	4208.425
2433.88131	4206.025
2436.6613	4231.425
2439.43954	4230.125
2442.21603	4234.825
2444.99077	4244.025
2447.76377	4252.325
2450.53501	4252.025
2453.30451	4245.925
2456.07226	4242.625
2458.83827	4254.625
2461.60254	4256.525
2464.36507	4253.225
2467.12586	4257.825
2469.88492	4253.125
2472.64224	4251.325
2475.39782	4248.025
2478.15167	4288.925
2480.90379	4299.925
2483.65417	4325.025
2486.40283	4336.425
2489.14976	4352.725
2491.89497	4369.225
2494.63845	4363.925
2497.3802	4368.225
2500.12024	4346.825
2502.85855	4328.425
2505.59514	4309.525
2508.33002	4280.225
2511.06318	4257.725
2513.79462	4240.525
2516.52435	4215.025
2519.25237	4173.125
2521.97867	4171.225
2524.70327	4160.225
2527.42616	4162.325
2530.14734	4149.725
2532.86681	4145.425
2535.58458	4147.225
2538.30065	4142.525
2541.01501	4148.725
2543.72768	4146.625
2546.43864	4154.225
2549.14791	4151.325
2551.85548	4144.225
2554.56136	4163.625
2557.26554	4172.225
2559.96803	4162.925
2562.66883	4157.825
2565.36794	4170.425
2568.06536	4154.325
2570.7611	4156.025
2573.45514	4142.825
2576.14751	4120.425
2578.83819	4118.025
2581.52719	4119.725
2584.21451	4127.925
2586.90015	4119.625
2589.58411	4103.525
2592.2664	4100.225
2594.94701	4099.725
2597.62594	4097.525
2600.30321	4096.325
2602.9788	4097.125
2605.65273	4090.125
2608.32498	4110.425
2610.99557	4100.925
2613.66449	4102.725
2616.33175	4109.225
2618.99734	4114.025
2621.66128	4114.225
2624.32355	4117.425
2626.98416	4115.025
2629.64311	4101.125
2632.30041	4093.425
2634.95605	4082.925
2637.61004	4080.025
2640.26238	4074.425
2642.91306	4061.025
2645.56209	4057.425
2648.20948	4046.825
2650.85521	4059.625
2653.4993	4055.125
2656.14175	4061.425
2658.78255	4060.625
2661.42171	4069.525
2664.05923	4074.025
2666.6951	4092.625
2669.32934	4100.725
2671.96194	4109.125
2674.59291	4113.525
2677.22224	4092.225
2679.84993	4108.725
2682.476	4095.625
2685.10043	4088.025
2687.72324	4090.925
2690.34441	4085.325
2692.96396	4070.325
2695.58188	4089.525
2698.19818	4077.625
2700.81285	4078.125
2703.4259	4065.925
2706.03733	4082.525
2708.64714	4094.025
2711.25533	4091.625
2713.86191	4079.525
2716.46687	4112.325
2719.07021	4105.025
2721.67194	4105.125
2724.27206	4100.925
2726.87057	4102.425
2729.46747	4094.325
2732.06276	4076.725
2734.65644	4078.425
2737.24852	4075.025
2739.83899	4055.225
2742.42786	4054.725
2745.01513	4041.225
2747.60079	4036.325
2750.18486	4039.125
2752.76733	4041.725
2755.3482	4041.625
2757.92747	4035.125
2760.50515	4012.325
2763.08123	4015.825
2765.65573	4003.525
2768.22863	4018.125
2770.79994	4005.025
2773.36967	4010.425
2775.9378	4010.425
2778.50435	4008.025
2781.06932	4011.725
2783.6327	4010.225
2786.1945	4007.725
2788.75471	3996.925
2791.31335	3998.625
2793.87041	4008.125
2796.42589	4016.525
2798.97979	4007.925
2801.53212	4002.625
2804.08288	4012.725
2806.63206	4017.525
2809.17967	4020.725
2811.72571	4019.425
2814.27018	4036.025
2816.81308	4047.025
2819.35442	4052.425
2821.89419	4051.025
2824.43239	4071.125
2826.96904	4066.125
2829.50412	4070.525
2832.03763	4042.125
2834.56959	4056.425
2837.1	4047.625
2839.62884	4028.525
2842.15613	4024.925
2844.68186	4046.425
2847.20604	4039.725
2849.72867	4038.425
2852.24974	4055.125
2854.76927	4062.125
2857.28724	4056.925
2859.80367	4061.425
2862.31855	4066.425
2864.83189	4102.425
2867.34368	4105.325
2869.85393	4114.625
2872.36264	4119.725
2874.8698	4129.925
2877.37543	4124.925
2879.87952	4120.425
2882.38207	4112.225
2884.88308	4125.125
2887.38256	4102.025
2889.88051	4096.525
2892.37692	4086.625
2894.8718	4091.625
2897.36515	4096.225
2899.85698	4085.025
2902.34727	4107.125
2904.83604	4086.225
2907.32328	4090.725
2909.809	4100.325
2912.29319	4099.325
2914.77587	4088.725
2917.25702	4082.025
2919.73665	4061.825
2922.21476	4055.525
2924.69136	4046.325
2927.16644	4022.025
2929.64	4028.725
2932.11205	4026.725
2934.58258	3999.825
2937.05161	4023.725
2939.51912	4000.425
2941.98513	4004.025
2944.44962	3997.125
2946.91261	3991.725
2949.37409	3991.225
2951.83407	3991.525
2954.29254	3992.925
2956.74951	3995.625
2959.20498	3988.125
2961.65895	3983.225
2964.11142	3982.925
2966.56239	3967.225
2969.01186	3968.825
2971.45984	3954.625
2973.90632	3928.425
2976.35131	3909.525
2978.7948	3916.125
2981.23681	3891.525
2983.67732	3879.325
2986.11635	3860.725
2988.55388	3856.125
2990.98993	3858.625
2993.4245	3857.525
2995.85758	3873.825
2998.28917	3863.625
3000.71928	3858.225
3003.14791	3864.525
3005.57506	3850.225
3008.00073	3853.425
3010.42493	3851.425
3012.84764	3860.625
3015.26888	3851.425
3017.68865	3841.625
3020.10694	3851.925
3022.52376	3824.725
3024.9391	3814.825
3027.35298	3805.225
3029.76539	3785.325
3032.17632	3790.325
3034.5858	3754.525
3036.9938	3746.625
3039.40034	3754.225
3041.80542	3742.825
3044.20903	3719.825
3046.61118	3733.025
3049.01187	3705.525
3051.4111	3711.325
3053.80888	3705.125
3056.20519	3696.425
3058.60005	3703.125
3060.99345	3699.325
3063.3854	3674.825
3065.7759	3664.925
3068.16494	3672.725
3070.55254	3652.125
3072.93868	3641.725
3075.32338	3625.925
3077.70662	3624.025
3080.08842	3615.125
3082.46878	3612.725
3084.84769	3611.725
3087.22515	3609.225
3089.60118	3624.625
3091.97576	3621.625
3094.3489	3601.825
3096.72061	3607.025
3099.09087	3599.025
3101.4597	3601.625
3103.82709	3603.525
3106.19305	3601.725
3108.55757	3609.325
3110.92066	3585.125
3113.28232	3579.825
3115.64255	3581.725
3118.00134	3574.525
3120.35871	3573.525
3122.71466	3569.125
3125.06917	3559.125
3127.42226	3561.425
3129.77393	3581.825
3132.12417	3585.825
3134.47299	3576.425
3136.82039	3591.025
3139.16636	3587.325
3141.51092	3592.325
3143.85406	3580.325
3146.19579	3594.425
3148.53609	3606.725
3150.87499	3604.125
3153.21246	3598.425
3155.54853	3603.525
3157.88318	3605.625
3160.21642	3622.225
3162.54826	3614.125
3164.87868	3621.025
3167.2077	3608.425
3169.5353	3606.825
3171.86151	3602.125
3174.18631	3615.225
3176.5097	3613.725
3178.83169	3607.525
3181.15228	3598.225
3183.47147	3609.925
3185.78926	3601.325
3188.10565	3617.025
3190.42065	3609.125
3192.73424	3626.425
3195.04645	3619.125
3197.35725	3613.925
3199.66667	3627.425
3201.97469	3638.425
3204.28132	3649.225
3206.58656	3653.525
3208.8904	3671.325
3211.19287	3671.725
3213.49394	3677.525
3215.79363	3693.325
