Data from AgNP_FTO_APTES_UA_100uM_CRN_5uM_R6G_10uM_NaF_0.1M_Addition_RamanShift__20__15-01-50-377.txt Node

Date: Thu Mar 24 15:01:50 GMT 2022
User: TCL
Spectrometer: QEP01345
Trigger mode: 4
Integration Time (sec): 7.000000E0
Scans to average: 10
Electric dark correction enabled: true
Nonlinearity correction enabled: false
Boxcar width: 0
XAxis mode: Raman Shifts
Number of Pixels in Spectrum: 1044
>>>>>Begin Spectral Data<<<<<
46.04893	-1.375
50.45542	0.025
54.85868	0.325
59.25871	-1.175
63.6555	28.025
68.04907	34.125
72.43941	33.325
76.82654	34.725
81.21044	39.425
85.59113	37.725
89.96862	40.125
94.34289	40.025
98.71396	41.525
103.08183	41.025
107.4465	43.625
111.80798	44.125
116.16626	45.125
120.52136	45.825
124.87327	46.425
129.222	49.325
133.56755	53.125
137.90993	53.225
142.24913	64.625
146.58517	69.725
150.91804	77.725
155.24774	95.325
159.57429	119.725
163.89768	157.425
168.21792	212.025
172.53501	286.625
176.84895	405.525
181.15975	566.325
185.46741	796.125
189.77193	1095.525
194.07331	1480.425
198.37157	1919.725
202.6667	2392.825
206.9587	2863.925
211.24758	3368.325
215.53334	3896.625
219.81599	4499.125
224.09553	5195.425
228.37195	5984.425
232.64527	6820.025
236.91549	7617.725
241.18261	8304.825
245.44663	8806.825
249.70755	9171.825
253.96539	9442.325
258.22014	9733.825
262.4718	9993.425
266.72039	10186.025
270.96589	10213.825
275.20832	10031.225
279.44768	9769.325
283.68397	9458.225
287.91719	9280.425
292.14735	9332.025
296.37445	9670.925
300.59849	10241.925
304.81948	10957.725
309.03742	11542.825
313.25231	11650.225
317.46415	11145.225
321.67296	10135.625
325.87872	9209.425
330.08145	8761.425
334.28114	8719.625
338.47781	8893.425
342.67145	9192.825
346.86207	9630.425
351.04966	10330.525
355.23424	11162.625
359.4158	11775.625
363.59435	12058.825
367.76989	12047.225
371.94243	11903.025
376.11196	11716.525
380.27849	11545.625
384.44203	11331.725
388.60257	11105.525
392.76012	10956.725
396.91468	11047.325
401.06626	11363.125
405.21485	11561.925
409.36047	11219.125
413.50311	10392.025
417.64277	9604.425
421.77947	9136.825
425.9132	8934.725
430.04396	8873.325
434.17176	8896.825
438.2966	9032.325
442.41849	9318.525
446.53742	9686.525
450.6534	10002.325
454.76644	10166.525
458.87653	10116.325
462.98368	9926.025
467.08789	9704.725
471.18916	9431.525
475.2875	9103.925
479.38291	8842.825
483.4754	8641.725
487.56496	8497.125
491.6516	8404.325
495.73531	8402.925
499.81612	8422.825
503.89401	8565.625
507.96899	8753.525
512.04106	8924.225
516.11023	9124.725
520.1765	9287.625
524.23987	9315.525
528.30034	9226.125
532.35792	9102.325
536.41261	8900.725
540.46441	8612.625
544.51333	8467.825
548.55936	8490.425
552.60252	8751.325
556.64279	9081.625
560.6802	9261.825
564.71473	9482.225
568.7464	9999.025
572.7752	10270.225
576.80114	9836.525
580.82422	9352.825
584.84444	9267.225
588.86181	9407.425
592.87633	9679.725
596.888	9925.925
600.89682	10205.025
604.9028	11663.725
608.90594	16131.225
612.90624	22134.625
616.90371	21324.625
620.89834	13509.225
624.89015	9674.425
628.87913	8952.525
632.86528	9161.325
636.84862	9459.225
640.82913	9236.925
644.80683	8546.225
648.78172	8042.025
652.75379	8031.825
656.72306	8558.925
660.68952	9246.825
664.65319	9060.025
668.61405	8333.025
672.57211	8004.625
676.52738	7982.525
680.47986	7961.725
684.42955	7771.225
688.37646	7664.325
692.32058	7664.025
696.26192	7769.825
700.20048	7937.525
704.13626	8044.325
708.06928	8004.225
711.99952	7906.225
715.927	7899.925
719.85171	8000.625
723.77365	8063.325
727.69284	8041.625
731.60928	7949.525
735.52295	7947.525
739.43388	7965.225
743.34206	8039.625
747.24749	8045.025
751.15017	8018.225
755.05012	8204.925
758.94733	8803.325
762.8418	10444.525
766.73354	13258.325
770.62254	16011.325
774.50882	17292.725
778.39237	16395.825
782.27321	13632.025
786.15132	10807.025
790.02671	9065.525
793.89938	8289.625
797.76935	7965.925
801.6366	7801.425
805.50115	7760.725
809.36299	7711.625
813.22213	7644.825
817.07857	7596.025
820.93231	7586.725
824.78336	7597.125
828.63172	7675.125
832.47738	7701.125
836.32036	7646.925
840.16066	7559.225
843.99827	7544.325
847.8332	7500.725
851.66546	7502.125
855.49504	7487.325
859.32195	7483.825
863.1462	7478.925
866.96777	7442.725
870.78668	7447.625
874.60293	7466.025
878.41652	7530.025
882.22745	7609.925
886.03573	7674.025
889.84136	7658.925
893.64433	7612.425
897.44466	7562.025
901.24235	7538.725
905.0374	7485.825
908.8298	7400.425
912.61957	7314.625
916.40671	7322.825
920.19121	7398.625
923.97308	7546.525
927.75233	7776.225
931.52895	7954.825
935.30295	7873.925
939.07433	7530.325
942.84309	7230.125
946.60924	7075.625
950.37278	6998.725
954.13371	6914.025
957.89203	6880.725
961.64774	6853.725
965.40086	6809.725
969.15137	6797.125
972.89929	6763.225
976.64461	6764.125
980.38733	6766.625
984.12747	6781.925
987.86502	6850.925
991.59999	6923.325
995.33237	7058.425
999.06217	7279.225
1002.78939	7581.025
1006.51404	7860.325
1010.23611	8076.825
1013.95561	8166.825
1017.67255	8149.625
1021.38692	7979.325
1025.09872	7781.725
1028.80796	7673.925
1032.51465	7780.525
1036.21877	7940.425
1039.92035	8023.925
1043.61937	8031.425
1047.31584	7971.925
1051.00976	7871.225
1054.70114	7760.525
1058.38998	7696.425
1062.07627	7704.725
1065.76003	7730.125
1069.44126	7802.725
1073.11995	7941.325
1076.79611	8167.725
1080.46974	8490.525
1084.14085	8923.225
1087.80943	9287.925
1091.47549	9413.425
1095.13903	9159.325
1098.80005	8719.125
1102.45857	8358.325
1106.11456	8279.925
1109.76805	8441.725
1113.41903	8838.425
1117.06751	9402.325
1120.71348	10157.825
1124.35696	10999.925
1127.99793	11554.325
1131.63641	11278.325
1135.2724	10340.825
1138.90589	9577.225
1142.5369	9072.225
1146.16542	8742.025
1149.79145	8510.825
1153.415	8446.125
1157.03607	8561.325
1160.65467	8867.025
1164.27079	9378.825
1167.88443	10179.025
1171.49561	11408.625
1175.10432	13394.825
1178.71056	16117.525
1182.31434	18268.125
1185.91565	18793.125
1189.51451	17959.325
1193.11091	16364.025
1196.70485	14625.925
1200.29634	13327.925
1203.88538	12329.625
1207.47197	11184.925
1211.05612	10219.325
1214.63782	9652.625
1218.21708	9467.925
1221.79391	9467.425
1225.36829	9567.825
1228.94024	9549.625
1232.50976	9384.625
1236.07685	9239.825
1239.6415	9165.225
1243.20374	9206.325
1246.76355	9273.025
1250.32093	9452.925
1253.8759	9706.225
1257.42845	10145.525
1260.97859	10677.725
1264.52631	11281.525
1268.07163	11914.825
1271.61453	12437.525
1275.15503	12819.325
1278.69312	13019.725
1282.22882	13257.325
1285.76211	13748.225
1289.29301	14413.725
1292.82151	15099.025
1296.34761	15901.725
1299.87133	17177.425
1303.39266	19421.325
1306.9116	22844.625
1310.42815	26505.525
1313.94233	28020.425
1317.45412	26294.925
1320.96354	23124.725
1324.47058	20078.525
1327.97525	17624.825
1331.47754	16114.825
1334.97747	15501.525
1338.47502	15510.425
1341.97022	16137.025
1345.46305	17445.325
1348.95352	19425.525
1352.44163	21955.625
1355.92738	25575.225
1359.41078	31028.125
1362.89183	35838.925
1366.37053	33804.825
1369.84688	26383.025
1373.32088	19998.225
1376.79254	16459.825
1380.26186	14657.325
1383.72883	13547.125
1387.19347	12619.825
1390.65578	11867.925
1394.11575	11321.125
1397.57339	11117.225
1401.0287	11099.525
1404.48168	11119.325
1407.93234	11122.025
1411.38068	11205.125
1414.82669	11305.825
1418.27039	11312.525
1421.71177	11113.525
1425.15083	10851.225
1428.58758	10759.825
1432.02203	11004.625
1435.45416	11322.125
1438.88399	11449.425
1442.31151	11383.825
1445.73673	11421.325
1449.15965	11518.225
1452.58027	11464.325
1455.9986	11305.025
1459.41463	11291.625
1462.82837	11503.225
1466.23982	11957.425
1469.64898	12377.625
1473.05586	12692.225
1476.46045	12813.125
1479.86276	13022.925
1483.26279	13375.625
1486.66054	13937.925
1490.05602	14747.525
1493.44922	16011.025
1496.84016	17932.925
1500.22882	21014.025
1503.61521	25403.125
1506.99934	30419.325
1510.38121	34125.125
1513.76081	34312.725
1517.13816	30403.625
1520.51324	24572.125
1523.88607	19659.925
1527.25665	16656.625
1530.62498	15037.825
1533.99105	14069.825
1537.35488	13425.625
1540.71647	12975.625
1544.07581	12750.225
1547.4329	12625.825
1550.78776	12655.225
1554.14038	12759.825
1557.49077	13016.825
1560.83892	13404.625
1564.18484	14110.525
1567.52853	14995.725
1570.86999	15714.825
1574.20922	16084.525
1577.54624	15854.625
1580.88103	14589.225
1584.2136	12911.125
1587.54395	11983.025
1590.87208	12006.525
1594.19801	12963.825
1597.52172	14339.425
1600.84321	15006.725
1604.16251	14385.525
1607.47959	13344.525
1610.79447	12167.125
1614.10715	11012.325
1617.41763	10029.725
1620.7259	9384.325
1624.03199	9096.225
1627.33587	9153.025
1630.63757	9502.325
1633.93707	10273.625
1637.23439	11626.725
1640.52951	13821.725
1643.82246	17123.125
1647.11321	21042.925
1650.40179	23487.525
1653.68819	22306.025
1656.97241	18092.225
1660.25446	13750.625
1663.53433	10849.825
1666.81203	9233.125
1670.08756	8308.025
1673.36092	7756.525
1676.63211	7416.825
1679.90115	7190.825
1683.16801	7016.325
1686.43272	6878.225
1689.69527	6804.625
1692.95567	6723.825
1696.2139	6701.225
1699.46999	6671.825
1702.72392	6634.125
1705.97571	6618.525
1709.22535	6607.425
1712.47284	6585.725
1715.71819	6606.525
1718.96139	6574.825
1722.20246	6538.925
1725.44139	6473.425
1728.67818	6395.925
1731.91284	6305.125
1735.14537	6251.625
1738.37576	6228.025
1741.60403	6198.625
1744.83017	6153.225
1748.05418	6139.125
1751.27607	6100.425
1754.49584	6096.025
1757.71349	6092.325
1760.92903	6079.625
1764.14244	6047.925
1767.35375	6027.025
1770.56294	6003.425
1773.77002	5959.125
1776.97499	5934.425
1780.17785	5903.125
1783.37861	5883.225
1786.57727	5865.725
1789.77382	5824.625
1792.96828	5833.825
1796.16064	5798.725
1799.3509	5791.025
1802.53907	5784.325
1805.72514	5753.525
1808.90913	5731.125
1812.09102	5719.025
1815.27083	5686.525
1818.44856	5679.425
1821.6242	5662.225
1824.79776	5647.925
1827.96924	5641.425
1831.13864	5625.125
1834.30597	5640.225
1837.47122	5609.525
1840.6344	5604.725
1843.7955	5598.925
1846.95454	5585.725
1850.11151	5581.225
1853.26642	5570.425
1856.41926	5586.925
1859.57004	5559.025
1862.71876	5565.225
1865.86542	5555.025
1869.01003	5566.825
1872.15258	5554.325
1875.29308	5555.325
1878.43152	5577.725
1881.56792	5565.225
1884.70227	5565.525
1887.83457	5550.825
1890.96482	5546.825
1894.09304	5534.425
1897.21921	5534.425
1900.34335	5542.425
1903.46544	5531.425
1906.58551	5544.625
1909.70353	5527.025
1912.81953	5527.725
1915.93349	5527.825
1919.04543	5512.925
1922.15534	5479.325
1925.26322	5470.625
1928.36908	5442.425
1931.47292	5404.025
1934.57473	5392.725
1937.67453	5353.325
1940.77232	5369.325
1943.86808	5331.825
1946.96184	5333.625
1950.05358	5299.225
1953.14331	5294.725
1956.23103	5279.125
1959.31675	5268.725
1962.40046	5262.225
1965.48217	5262.825
1968.56188	5261.325
1971.63959	5253.125
1974.7153	5247.025
1977.78901	5210.525
1980.86073	5205.325
1983.93046	5167.525
1986.99819	5146.125
1990.06394	5111.025
1993.1277	5100.925
1996.18947	5059.925
1999.24925	5056.725
2002.30706	5023.025
2005.36288	5016.525
2008.41672	4989.625
2011.46859	4994.625
2014.51848	4968.525
2017.56639	4961.925
2020.61233	4952.825
2023.6563	4922.625
2026.6983	4938.625
2029.73833	4910.725
2032.7764	4905.725
2035.8125	4884.725
2038.84664	4886.425
2041.87881	4890.425
2044.90903	4850.225
2047.93729	4860.825
2050.96359	4852.925
2053.98794	4841.625
2057.01034	4820.625
2060.03078	4828.525
2063.04927	4809.225
2066.06582	4821.025
2069.08042	4794.425
2072.09307	4794.525
2075.10378	4793.125
2078.11255	4789.925
2081.11938	4795.625
2084.12426	4798.125
2087.12722	4799.525
2090.12824	4802.325
2093.12732	4810.325
2096.12447	4801.725
2099.11969	4800.125
2102.11299	4801.225
2105.10435	4812.725
2108.09379	4803.625
2111.08131	4808.525
2114.0669	4812.225
2117.05057	4832.225
2120.03233	4838.525
2123.01216	4830.025
2125.99008	4839.025
2128.96609	4837.025
2131.94018	4843.625
2134.91236	4849.225
2137.88263	4847.825
2140.851	4832.425
2143.81746	4829.125
2146.78201	4821.825
2149.74466	4817.325
2152.7054	4824.025
2155.66425	4806.125
2158.6212	4801.725
2161.57625	4799.225
2164.52941	4794.825
2167.48067	4799.725
2170.43004	4788.625
2173.37752	4797.425
2176.32311	4807.025
2179.26681	4804.525
2182.20863	4802.025
2185.14856	4799.525
2188.08661	4802.025
2191.02278	4790.125
2193.95707	4779.625
2196.88948	4767.725
2199.82001	4767.625
2202.74867	4775.825
2205.67545	4772.125
2208.60037	4769.325
2211.52341	4751.525
2214.44458	4758.325
2217.36388	4752.425
2220.28132	4753.525
2223.1969	4726.225
2226.11061	4712.225
2229.02246	4725.225
2231.93245	4719.125
2234.84058	4687.225
2237.74686	4678.625
2240.65128	4679.525
2243.55385	4689.425
2246.45456	4661.225
2249.35343	4669.725
2252.25044	4684.625
2255.14561	4684.225
2258.03893	4687.925
2260.93041	4705.525
2263.82004	4691.325
2266.70783	4680.625
2269.59378	4675.425
2272.4779	4664.925
2275.36017	4662.225
2278.24061	4653.025
2281.11922	4636.225
2283.996	4623.225
2286.87094	4614.625
2289.74405	4582.725
2292.61534	4585.025
2295.4848	4571.125
2298.35243	4583.125
2301.21824	4563.825
2304.08223	4580.525
2306.94439	4579.825
2309.80474	4562.725
2312.66327	4560.025
2315.51999	4556.025
2318.37489	4571.325
2321.22797	4563.425
2324.07925	4573.925
2326.92871	4555.225
2329.77637	4557.725
2332.62222	4554.925
2335.46626	4560.825
2338.3085	4558.425
2341.14893	4561.725
2343.98756	4555.725
2346.8244	4582.125
2349.65943	4584.225
2352.49267	4589.525
2355.32411	4616.125
2358.15376	4635.425
2360.98161	4640.525
2363.80768	4648.425
2366.63195	4662.125
2369.45444	4642.825
2372.27514	4643.925
2375.09405	4630.625
2377.91118	4611.725
2380.72652	4609.925
2383.54009	4571.425
2386.35187	4545.625
2389.16188	4521.925
2391.97011	4504.025
2394.77657	4488.325
2397.58125	4483.425
2400.38416	4464.925
2403.18529	4450.225
2405.98466	4450.625
2408.78226	4430.225
2411.57809	4431.025
2414.37216	4422.325
2417.16446	4401.525
2419.955	4402.525
2422.74378	4394.625
2425.5308	4403.825
2428.31606	4409.525
2431.09956	4414.025
2433.88131	4409.725
2436.6613	4414.525
2439.43954	4437.325
2442.21603	4425.325
2444.99077	4426.225
2447.76377	4452.525
2450.53501	4446.925
2453.30451	4451.525
2456.07226	4445.225
2458.83827	4446.225
2461.60254	4443.825
2464.36507	4448.325
2467.12586	4453.225
2469.88492	4466.625
2472.64224	4451.925
2475.39782	4469.025
2478.15167	4473.525
2480.90379	4480.725
2483.65417	4491.025
2486.40283	4518.425
2489.14976	4550.925
2491.89497	4537.825
2494.63845	4546.225
2497.3802	4538.125
2500.12024	4546.025
2502.85855	4519.925
2505.59514	4500.125
2508.33002	4459.425
2511.06318	4459.525
2513.79462	4411.825
2516.52435	4406.025
2519.25237	4397.325
2521.97867	4380.125
2524.70327	4366.425
2527.42616	4367.025
2530.14734	4355.725
2532.86681	4341.725
2535.58458	4347.125
2538.30065	4332.225
2541.01501	4348.725
2543.72768	4340.625
2546.43864	4351.925
2549.14791	4341.925
2551.85548	4334.425
2554.56136	4342.325
2557.26554	4346.725
2559.96803	4352.225
2562.66883	4333.225
2565.36794	4341.725
2568.06536	4352.625
2570.7611	4339.525
2573.45514	4322.025
2576.14751	4308.125
2578.83819	4305.325
2581.52719	4299.525
2584.21451	4301.925
2586.90015	4298.425
2589.58411	4291.725
2592.2664	4281.525
2594.94701	4276.525
2597.62594	4281.025
2600.30321	4282.625
2602.9788	4270.825
2605.65273	4280.725
2608.32498	4286.225
2610.99557	4281.625
2613.66449	4260.725
2616.33175	4284.125
2618.99734	4287.825
2621.66128	4276.125
2624.32355	4288.925
2626.98416	4274.225
2629.64311	4277.525
2632.30041	4264.125
2634.95605	4277.325
2637.61004	4242.825
2640.26238	4241.025
2642.91306	4238.025
2645.56209	4245.825
2648.20948	4220.025
2650.85521	4234.425
2653.4993	4231.425
2656.14175	4242.525
2658.78255	4246.125
2661.42171	4238.025
2664.05923	4254.125
2666.6951	4250.925
2669.32934	4257.525
2671.96194	4272.525
2674.59291	4261.525
2677.22224	4263.025
2679.84993	4270.225
2682.476	4256.625
2685.10043	4265.725
2687.72324	4257.025
2690.34441	4256.425
2692.96396	4247.225
2695.58188	4230.925
2698.19818	4232.225
2700.81285	4245.025
2703.4259	4258.825
2706.03733	4256.425
2708.64714	4254.325
2711.25533	4255.525
2713.86191	4247.525
2716.46687	4266.725
2719.07021	4253.025
2721.67194	4262.125
2724.27206	4283.225
2726.87057	4274.725
2729.46747	4253.325
2732.06276	4263.825
2734.65644	4241.925
2737.24852	4244.025
2739.83899	4231.525
2742.42786	4243.925
2745.01513	4204.125
2747.60079	4212.225
2750.18486	4197.625
2752.76733	4219.125
2755.3482	4194.925
2757.92747	4199.225
2760.50515	4200.725
2763.08123	4170.925
2765.65573	4185.925
2768.22863	4181.325
2770.79994	4168.625
2773.36967	4180.325
2775.9378	4180.025
2778.50435	4192.625
2781.06932	4164.725
2783.6327	4182.225
2786.1945	4159.525
2788.75471	4171.825
2791.31335	4156.125
2793.87041	4156.025
2796.42589	4164.025
2798.97979	4165.625
2801.53212	4160.525
2804.08288	4163.925
2806.63206	4175.625
2809.17967	4175.925
2811.72571	4165.725
2814.27018	4205.725
2816.81308	4183.125
2819.35442	4195.625
2821.89419	4194.225
2824.43239	4221.625
2826.96904	4209.425
2829.50412	4205.925
2832.03763	4210.925
2834.56959	4204.825
2837.1	4186.025
2839.62884	4209.825
2842.15613	4175.025
2844.68186	4188.025
2847.20604	4192.425
2849.72867	4189.925
2852.24974	4201.425
2854.76927	4209.425
2857.28724	4208.325
2859.80367	4221.725
2862.31855	4222.525
2864.83189	4228.225
2867.34368	4244.525
2869.85393	4266.825
2872.36264	4255.925
2874.8698	4260.425
2877.37543	4267.425
2879.87952	4274.625
2882.38207	4267.925
2884.88308	4242.525
2887.38256	4235.725
2889.88051	4261.825
2892.37692	4241.025
2894.8718	4230.925
2897.36515	4229.125
2899.85698	4239.425
2902.34727	4235.925
2904.83604	4243.325
2907.32328	4232.225
2909.809	4231.125
2912.29319	4238.625
2914.77587	4236.725
2917.25702	4238.025
2919.73665	4214.425
2922.21476	4210.625
2924.69136	4192.525
2927.16644	4186.525
2929.64	4178.625
2932.11205	4174.425
2934.58258	4156.525
2937.05161	4150.025
2939.51912	4148.525
2941.98513	4163.125
2944.44962	4131.225
2946.91261	4132.825
2949.37409	4139.825
2951.83407	4142.525
2954.29254	4145.725
2956.74951	4133.125
2959.20498	4135.525
2961.65895	4110.825
2964.11142	4123.025
2966.56239	4121.225
2969.01186	4098.725
2971.45984	4086.425
2973.90632	4065.625
2976.35131	4070.725
2978.7948	4065.125
2981.23681	4045.125
2983.67732	4029.525
2986.11635	4011.825
2988.55388	4031.025
2990.98993	4023.625
2993.4245	4014.125
2995.85758	4022.025
2998.28917	4017.325
3000.71928	4029.725
3003.14791	4001.025
3005.57506	4006.125
3008.00073	4015.725
3010.42493	3999.625
3012.84764	3997.325
3015.26888	4002.425
3017.68865	3984.925
3020.10694	3995.725
3022.52376	3968.325
3024.9391	3959.625
3027.35298	3953.125
3029.76539	3949.625
3032.17632	3952.325
3034.5858	3923.925
3036.9938	3908.425
3039.40034	3901.325
3041.80542	3887.725
3044.20903	3877.325
3046.61118	3879.025
3049.01187	3862.525
3051.4111	3866.425
3053.80888	3871.725
3056.20519	3856.925
3058.60005	3848.025
3060.99345	3852.325
3063.3854	3819.525
3065.7759	3826.225
3068.16494	3821.425
3070.55254	3816.425
3072.93868	3794.625
3075.32338	3796.325
3077.70662	3787.725
3080.08842	3778.525
3082.46878	3777.125
3084.84769	3762.425
3087.22515	3754.925
3089.60118	3773.025
3091.97576	3754.125
3094.3489	3758.825
3096.72061	3765.725
3099.09087	3764.825
3101.4597	3760.425
3103.82709	3768.325
3106.19305	3745.225
3108.55757	3756.125
3110.92066	3741.525
3113.28232	3749.225
3115.64255	3749.625
3118.00134	3728.625
3120.35871	3733.325
3122.71466	3722.925
3125.06917	3727.925
3127.42226	3728.725
3129.77393	3738.625
3132.12417	3734.025
3134.47299	3738.025
3136.82039	3740.525
3139.16636	3738.625
3141.51092	3747.725
3143.85406	3753.425
3146.19579	3762.125
3148.53609	3774.025
3150.87499	3763.125
3153.21246	3776.425
3155.54853	3760.425
3157.88318	3774.725
3160.21642	3759.825
3162.54826	3779.025
3164.87868	3772.825
3167.2077	3769.525
3169.5353	3763.825
3171.86151	3766.525
3174.18631	3765.025
3176.5097	3758.525
3178.83169	3745.125
3181.15228	3769.925
3183.47147	3770.925
3185.78926	3762.325
3188.10565	3764.425
3190.42065	3773.525
3192.73424	3783.425
3195.04645	3787.525
3197.35725	3777.325
3199.66667	3792.125
3201.97469	3808.625
3204.28132	3797.625
3206.58656	3821.925
3208.8904	3815.225
3211.19287	3825.125
3213.49394	3838.625
3215.79363	3837.225
