Data from AgNP_FTO_APTES_UA_100uM_CRN_2uM_R6G_10uM_NaF_0.1M_Addition_RamanShift__8__13-54-10-298.txt Node

Date: Thu Mar 24 13:54:10 GMT 2022
User: TCL
Spectrometer: QEP01345
Trigger mode: 4
Integration Time (sec): 7.000000E0
Scans to average: 10
Electric dark correction enabled: true
Nonlinearity correction enabled: false
Boxcar width: 0
XAxis mode: Raman Shifts
Number of Pixels in Spectrum: 1044
>>>>>Begin Spectral Data<<<<<
46.04893	-1.975
50.45542	0.425
54.85868	0.125
59.25871	0.325
63.6555	40.425
68.04907	40.625
72.43941	44.525
76.82654	42.025
81.21044	50.025
85.59113	48.425
89.96862	50.225
94.34289	47.025
98.71396	51.525
103.08183	51.725
107.4465	55.625
111.80798	56.225
116.16626	58.625
120.52136	57.425
124.87327	60.625
129.222	64.325
133.56755	69.525
137.90993	72.825
142.24913	81.825
146.58517	90.425
150.91804	100.725
155.24774	127.525
159.57429	153.625
163.89768	201.225
168.21792	268.225
172.53501	364.725
176.84895	512.325
181.15975	721.625
185.46741	1006.925
189.77193	1390.125
194.07331	1867.325
198.37157	2424.925
202.6667	2987.025
206.9587	3573.325
211.24758	4164.825
215.53334	4749.225
219.81599	5386.225
224.09553	6111.525
228.37195	6891.625
232.64527	7782.325
236.91549	8672.725
241.18261	9507.825
245.44663	10223.425
249.70755	10809.925
253.96539	11249.525
258.22014	11652.825
262.4718	11987.025
266.72039	12202.325
270.96589	12320.525
275.20832	12326.525
279.44768	12236.825
283.68397	12173.025
287.91719	12125.225
292.14735	12129.425
296.37445	12268.925
300.59849	12460.325
304.81948	12779.925
309.03742	12982.225
313.25231	13047.025
317.46415	12795.125
321.67296	12254.125
325.87872	11751.125
330.08145	11468.125
334.28114	11400.825
338.47781	11511.325
342.67145	11718.125
346.86207	11991.025
351.04966	12366.925
355.23424	12685.725
359.4158	12892.025
363.59435	13033.825
367.76989	13030.025
371.94243	12965.125
376.11196	12890.425
380.27849	12843.925
384.44203	12814.225
388.60257	12839.825
392.76012	12925.625
396.91468	13084.825
401.06626	13326.125
405.21485	13504.425
409.36047	13337.025
413.50311	12876.425
417.64277	12481.325
421.77947	12303.425
425.9132	12273.925
430.04396	12334.525
434.17176	12408.725
438.2966	12484.025
442.41849	12692.125
446.53742	13026.225
450.6534	13385.325
454.76644	13611.025
458.87653	13664.825
462.98368	13562.225
467.08789	13461.325
471.18916	13274.825
475.2875	13043.225
479.38291	12856.125
483.4754	12705.225
487.56496	12551.925
491.6516	12418.625
495.73531	12318.325
499.81612	12242.225
503.89401	12327.325
507.96899	12376.025
512.04106	12420.125
516.11023	12400.525
520.1765	12361.025
524.23987	12314.525
528.30034	12261.225
532.35792	12124.825
536.41261	11951.625
540.46441	11719.925
544.51333	11687.925
548.55936	11850.825
552.60252	12123.425
556.64279	12504.625
560.6802	12745.225
564.71473	12894.025
568.7464	13253.025
572.7752	13782.925
576.80114	14150.525
580.82422	14397.425
584.84444	14651.725
588.86181	14957.325
592.87633	15306.325
596.888	15397.525
600.89682	15128.125
604.9028	15463.025
608.90594	17609.925
612.90624	20291.925
616.90371	19162.225
620.89834	14628.425
624.89015	12416.325
628.87913	12062.625
632.86528	12324.025
636.84862	12545.525
640.82913	12332.925
644.80683	11831.925
648.78172	11474.825
652.75379	11415.025
656.72306	11684.325
660.68952	12064.425
664.65319	11984.225
668.61405	11559.625
672.57211	11392.325
676.52738	11373.025
680.47986	11376.025
684.42955	11264.825
688.37646	11167.425
692.32058	11167.425
696.26192	11305.825
700.20048	11483.825
704.13626	11686.525
708.06928	11723.025
711.99952	11692.125
715.927	11651.925
719.85171	11648.025
723.77365	11610.825
727.69284	11469.825
731.60928	11339.625
735.52295	11258.025
739.43388	11284.125
743.34206	11365.325
747.24749	11429.725
751.15017	11541.325
755.05012	11820.625
758.94733	12372.125
762.8418	13549.525
766.73354	15583.125
770.62254	17476.225
774.50882	17793.825
778.39237	16586.825
782.27321	14781.425
786.15132	13190.325
790.02671	12151.725
793.89938	11606.425
797.76935	11379.525
801.6366	11219.725
805.50115	11140.325
809.36299	11063.125
813.22213	10998.125
817.07857	10977.225
820.93231	10955.425
824.78336	10920.625
828.63172	10912.225
832.47738	10897.825
836.32036	10873.825
840.16066	10829.925
843.99827	10805.825
847.8332	10801.425
851.66546	10839.625
855.49504	10827.825
859.32195	10862.825
863.1462	10800.425
866.96777	10771.525
870.78668	10757.325
874.60293	10763.725
878.41652	10795.125
882.22745	10843.225
886.03573	10919.825
889.84136	10914.325
893.64433	10891.625
897.44466	10837.625
901.24235	10813.525
905.0374	10770.125
908.8298	10718.625
912.61957	10707.425
916.40671	10795.725
920.19121	10939.225
923.97308	11106.425
927.75233	11145.425
931.52895	11061.325
935.30295	10851.225
939.07433	10555.225
942.84309	10316.825
946.60924	10191.225
950.37278	10108.225
954.13371	10095.225
957.89203	10087.825
961.64774	10078.925
965.40086	10078.125
969.15137	10056.425
972.89929	10012.125
976.64461	9993.925
980.38733	9963.125
984.12747	9980.825
987.86502	10019.325
991.59999	10082.625
995.33237	10148.225
999.06217	10317.825
1002.78939	10567.825
1006.51404	10833.925
1010.23611	11078.825
1013.95561	11240.425
1017.67255	11236.925
1021.38692	11076.925
1025.09872	10813.225
1028.80796	10565.825
1032.51465	10518.725
1036.21877	10537.725
1039.92035	10603.425
1043.61937	10715.925
1047.31584	10782.625
1051.00976	10851.625
1054.70114	10914.225
1058.38998	10980.025
1062.07627	11042.525
1065.76003	11202.425
1069.44126	11393.525
1073.11995	11639.525
1076.79611	11857.125
1080.46974	12061.225
1084.14085	12238.225
1087.80943	12469.025
1091.47549	12633.325
1095.13903	12574.325
1098.80005	12292.325
1102.45857	11887.825
1106.11456	11598.125
1109.76805	11500.625
1113.41903	11577.725
1117.06751	11769.925
1120.71348	12117.825
1124.35696	12508.125
1127.99793	12869.425
1131.63641	12901.725
1135.2724	12591.925
1138.90589	12292.625
1142.5369	12145.825
1146.16542	12076.825
1149.79145	12100.425
1153.415	12193.325
1157.03607	12322.825
1160.65467	12602.225
1164.27079	13111.125
1167.88443	13825.825
1171.49561	14897.125
1175.10432	16541.925
1178.71056	18591.525
1182.31434	20270.925
1185.91565	20814.525
1189.51451	20422.125
1193.11091	19664.125
1196.70485	18613.525
1200.29634	17556.025
1203.88538	16614.325
1207.47197	15732.125
1211.05612	15009.825
1214.63782	14469.225
1218.21708	14151.925
1221.79391	14030.725
1225.36829	14016.325
1228.94024	13954.025
1232.50976	13797.425
1236.07685	13471.025
1239.6415	13253.625
1243.20374	13214.625
1246.76355	13272.425
1250.32093	13396.725
1253.8759	13658.725
1257.42845	14082.025
1260.97859	14599.125
1264.52631	15152.525
1268.07163	15686.725
1271.61453	16147.525
1275.15503	16612.425
1278.69312	17003.125
1282.22882	17478.025
1285.76211	18156.225
1289.29301	18978.725
1292.82151	19912.625
1296.34761	20989.025
1299.87133	22272.225
1303.39266	23962.525
1306.9116	25846.925
1310.42815	27641.025
1313.94233	28460.525
1317.45412	27898.825
1320.96354	26562.825
1324.47058	25366.625
1327.97525	24289.325
1331.47754	23497.725
1334.97747	22987.425
1338.47502	22815.325
1341.97022	22975.625
1345.46305	23416.125
1348.95352	24076.025
1352.44163	25035.125
1355.92738	26347.825
1359.41078	28621.725
1362.89183	30981.625
1366.37053	30735.725
1369.84688	27259.525
1373.32088	23104.325
1376.79254	20352.725
1380.26186	19071.925
1383.72883	18458.025
1387.19347	18096.425
1390.65578	17686.925
1394.11575	17315.525
1397.57339	17109.025
1401.0287	16973.925
1404.48168	16790.425
1407.93234	16518.425
1411.38068	16155.825
1414.82669	15771.225
1418.27039	15303.825
1421.71177	14814.625
1425.15083	14361.725
1428.58758	14124.225
1432.02203	14180.025
1435.45416	14437.025
1438.88399	14689.025
1442.31151	14862.225
1445.73673	15092.925
1449.15965	15292.625
1452.58027	15374.925
1455.9986	15445.025
1459.41463	15624.625
1462.82837	15875.825
1466.23982	16317.725
1469.64898	16756.525
1473.05586	17083.725
1476.46045	17286.525
1479.86276	17459.925
1483.26279	17683.425
1486.66054	17979.325
1490.05602	18538.225
1493.44922	19375.525
1496.84016	20614.625
1500.22882	22399.225
1503.61521	24621.825
1506.99934	26880.825
1510.38121	28438.925
1513.76081	28372.825
1517.13816	26645.425
1520.51324	24148.325
1523.88607	22113.425
1527.25665	20898.425
1530.62498	20240.425
1533.99105	19779.125
1537.35488	19237.125
1540.71647	18606.325
1544.07581	17880.425
1547.4329	17215.325
1550.78776	16664.925
1554.14038	16392.825
1557.49077	16368.025
1560.83892	16566.725
1564.18484	16956.225
1567.52853	17524.325
1570.86999	17971.225
1574.20922	18340.825
1577.54624	18258.025
1580.88103	17582.925
1584.2136	16705.425
1587.54395	16351.625
1590.87208	16703.225
1594.19801	17603.125
1597.52172	18744.625
1600.84321	19038.725
1604.16251	18204.225
1607.47959	16922.025
1610.79447	15610.425
1614.10715	14399.925
1617.41763	13379.425
1620.7259	12602.025
1624.03199	12209.025
1627.33587	12127.025
1630.63757	12365.225
1633.93707	13163.225
1637.23439	14554.025
1640.52951	16776.025
1643.82246	19844.125
1647.11321	22940.625
1650.40179	24482.525
1653.68819	23308.725
1656.97241	20060.225
1660.25446	16461.625
1663.53433	13692.925
1666.81203	11979.525
1670.08756	10929.925
1673.36092	10344.925
1676.63211	9998.425
1679.90115	9709.125
1683.16801	9519.325
1686.43272	9370.125
1689.69527	9243.225
1692.95567	9167.025
1696.2139	9086.825
1699.46999	9042.225
1702.72392	9019.525
1705.97571	8969.225
1709.22535	8883.325
1712.47284	8890.625
1715.71819	8888.725
1718.96139	8832.225
1722.20246	8798.725
1725.44139	8756.125
1728.67818	8647.425
1731.91284	8587.925
1735.14537	8528.925
1738.37576	8469.325
1741.60403	8426.025
1744.83017	8380.925
1748.05418	8361.125
1751.27607	8355.225
1754.49584	8297.725
1757.71349	8283.225
1760.92903	8266.625
1764.14244	8261.125
1767.35375	8242.125
1770.56294	8199.325
1773.77002	8184.325
1776.97499	8165.025
1780.17785	8128.225
1783.37861	8120.325
1786.57727	8082.725
1789.77382	8052.825
1792.96828	8041.725
1796.16064	8001.525
1799.3509	8003.325
1802.53907	7972.425
1805.72514	7949.525
1808.90913	7916.225
1812.09102	7921.125
1815.27083	7846.725
1818.44856	7842.025
1821.6242	7836.525
1824.79776	7796.025
1827.96924	7794.225
1831.13864	7763.525
1834.30597	7753.425
1837.47122	7736.325
1840.6344	7728.325
1843.7955	7744.425
1846.95454	7720.725
1850.11151	7695.325
1853.26642	7696.325
1856.41926	7674.025
1859.57004	7703.625
1862.71876	7679.025
1865.86542	7646.925
1869.01003	7637.025
1872.15258	7629.525
1875.29308	7617.625
1878.43152	7583.325
1881.56792	7607.225
1884.70227	7585.425
1887.83457	7573.525
1890.96482	7574.225
1894.09304	7547.425
1897.21921	7558.725
1900.34335	7533.525
1903.46544	7538.925
1906.58551	7539.125
1909.70353	7527.025
1912.81953	7511.025
1915.93349	7489.625
1919.04543	7488.425
1922.15534	7452.225
1925.26322	7414.825
1928.36908	7414.725
1931.47292	7385.025
1934.57473	7355.325
1937.67453	7328.625
1940.77232	7323.025
1943.86808	7285.525
1946.96184	7298.625
1950.05358	7265.525
1953.14331	7216.625
1956.23103	7220.825
1959.31675	7203.925
1962.40046	7186.125
1965.48217	7160.725
1968.56188	7137.525
1971.63959	7140.225
1974.7153	7096.825
1977.78901	7075.825
1980.86073	7044.425
1983.93046	7010.625
1986.99819	6984.025
1990.06394	6939.725
1993.1277	6925.225
1996.18947	6891.625
1999.24925	6883.725
2002.30706	6838.125
2005.36288	6812.225
2008.41672	6804.425
2011.46859	6785.225
2014.51848	6769.325
2017.56639	6748.025
2020.61233	6698.925
2023.6563	6697.325
2026.6983	6655.325
2029.73833	6649.525
2032.7764	6614.225
2035.8125	6595.725
2038.84664	6588.325
2041.87881	6557.425
2044.90903	6589.725
2047.93729	6557.925
2050.96359	6529.325
2053.98794	6511.825
2057.01034	6505.225
2060.03078	6476.225
2063.04927	6475.925
2066.06582	6461.125
2069.08042	6475.025
2072.09307	6455.525
2075.10378	6442.725
2078.11255	6433.325
2081.11938	6437.625
2084.12426	6425.325
2087.12722	6426.325
2090.12824	6425.125
2093.12732	6438.025
2096.12447	6445.225
2099.11969	6435.725
2102.11299	6427.225
2105.10435	6447.325
2108.09379	6424.125
2111.08131	6431.025
2114.0669	6454.925
2117.05057	6458.625
2120.03233	6449.025
2123.01216	6428.125
2125.99008	6427.825
2128.96609	6454.025
2131.94018	6455.425
2134.91236	6460.225
2137.88263	6434.525
2140.851	6429.025
2143.81746	6438.425
2146.78201	6431.025
2149.74466	6443.025
2152.7054	6426.225
2155.66425	6420.025
2158.6212	6402.525
2161.57625	6420.325
2164.52941	6385.925
2167.48067	6391.525
2170.43004	6373.825
2173.37752	6377.725
2176.32311	6360.625
2179.26681	6365.825
2182.20863	6343.925
2185.14856	6324.525
2188.08661	6353.225
2191.02278	6326.325
2193.95707	6329.925
2196.88948	6308.625
2199.82001	6304.425
2202.74867	6302.625
2205.67545	6265.525
2208.60037	6254.525
2211.52341	6251.325
2214.44458	6236.725
2217.36388	6229.125
2220.28132	6230.225
2223.1969	6196.925
2226.11061	6216.825
2229.02246	6176.525
2231.93245	6174.725
2234.84058	6157.425
2237.74686	6129.025
2240.65128	6120.425
2243.55385	6120.825
2246.45456	6099.525
2249.35343	6100.225
2252.25044	6096.125
2255.14561	6090.225
2258.03893	6068.425
2260.93041	6054.025
2263.82004	6046.225
2266.70783	6055.925
2269.59378	6010.325
2272.4779	6016.225
2275.36017	5992.525
2278.24061	5981.725
2281.11922	5968.625
2283.996	5970.625
2286.87094	5929.225
2289.74405	5934.225
2292.61534	5918.225
2295.4848	5906.925
2298.35243	5897.725
2301.21824	5894.325
2304.08223	5866.325
2306.94439	5899.925
2309.80474	5856.725
2312.66327	5862.125
2315.51999	5841.025
2318.37489	5827.625
2321.22797	5829.525
2324.07925	5834.325
2326.92871	5813.025
2329.77637	5800.325
2332.62222	5786.225
2335.46626	5805.825
2338.3085	5786.025
2341.14893	5792.725
2343.98756	5775.525
2346.8244	5775.525
2349.65943	5784.825
2352.49267	5779.825
2355.32411	5761.725
2358.15376	5787.925
2360.98161	5798.425
2363.80768	5798.825
2366.63195	5786.225
2369.45444	5784.825
2372.27514	5802.125
2375.09405	5789.625
2377.91118	5757.025
2380.72652	5749.725
2383.54009	5738.825
2386.35187	5720.625
2389.16188	5694.925
2391.97011	5680.225
2394.77657	5675.125
2397.58125	5651.625
2400.38416	5629.025
2403.18529	5605.725
2405.98466	5608.625
2408.78226	5592.425
2411.57809	5602.625
2414.37216	5562.925
2417.16446	5566.825
2419.955	5549.925
2422.74378	5561.425
2425.5308	5547.025
2428.31606	5542.725
2431.09956	5560.625
2433.88131	5529.925
2436.6613	5534.125
2439.43954	5534.125
2442.21603	5526.425
2444.99077	5524.025
2447.76377	5530.025
2450.53501	5524.625
2453.30451	5535.125
2456.07226	5514.425
2458.83827	5507.125
2461.60254	5513.825
2464.36507	5512.325
2467.12586	5503.925
2469.88492	5512.625
2472.64224	5525.025
2475.39782	5535.625
2478.15167	5526.825
2480.90379	5511.725
2483.65417	5507.925
2486.40283	5523.425
2489.14976	5536.925
2491.89497	5528.625
2494.63845	5515.425
2497.3802	5512.725
2500.12024	5519.425
2502.85855	5514.825
2505.59514	5496.625
2508.33002	5493.125
2511.06318	5480.325
2513.79462	5464.425
2516.52435	5438.925
2519.25237	5421.725
2521.97867	5416.425
2524.70327	5419.225
2527.42616	5398.425
2530.14734	5386.925
2532.86681	5369.825
2535.58458	5361.425
2538.30065	5349.725
2541.01501	5343.725
2543.72768	5346.925
2546.43864	5340.625
2549.14791	5339.325
2551.85548	5331.725
2554.56136	5329.125
2557.26554	5312.425
2559.96803	5311.825
2562.66883	5307.325
2565.36794	5306.425
2568.06536	5318.225
2570.7611	5298.025
2573.45514	5268.925
2576.14751	5279.725
2578.83819	5265.725
2581.52719	5256.025
2584.21451	5246.125
2586.90015	5248.325
2589.58411	5227.125
2592.2664	5233.825
2594.94701	5221.425
2597.62594	5204.925
2600.30321	5176.925
2602.9788	5193.425
2605.65273	5182.525
2608.32498	5184.725
2610.99557	5171.525
2613.66449	5191.625
2616.33175	5163.625
2618.99734	5175.425
2621.66128	5168.625
2624.32355	5152.725
2626.98416	5140.625
2629.64311	5140.125
2632.30041	5115.925
2634.95605	5122.925
2637.61004	5125.825
2640.26238	5107.525
2642.91306	5104.725
2645.56209	5109.425
2648.20948	5087.025
2650.85521	5119.625
2653.4993	5110.425
2656.14175	5101.625
2658.78255	5108.625
2661.42171	5115.125
2664.05923	5116.125
2666.6951	5109.625
2669.32934	5131.325
2671.96194	5108.525
2674.59291	5121.925
2677.22224	5114.225
2679.84993	5120.825
2682.476	5085.925
2685.10043	5116.725
2687.72324	5087.725
2690.34441	5096.425
2692.96396	5099.525
2695.58188	5097.625
2698.19818	5081.625
2700.81285	5080.525
2703.4259	5084.325
2706.03733	5086.425
2708.64714	5088.625
2711.25533	5096.825
2713.86191	5093.725
2716.46687	5105.125
2719.07021	5104.425
2721.67194	5097.925
2724.27206	5093.525
2726.87057	5081.725
2729.46747	5096.025
2732.06276	5082.625
2734.65644	5087.425
2737.24852	5075.325
2739.83899	5082.525
2742.42786	5062.025
2745.01513	5044.525
2747.60079	5050.125
2750.18486	5027.925
2752.76733	5023.425
2755.3482	5018.325
2757.92747	5005.925
2760.50515	5009.025
2763.08123	5006.725
2765.65573	4995.125
2768.22863	5013.525
2770.79994	4990.525
2773.36967	4999.925
2775.9378	4991.925
2778.50435	4991.525
2781.06932	4984.125
2783.6327	4975.525
2786.1945	4993.525
2788.75471	4956.725
2791.31335	4943.825
2793.87041	4938.825
2796.42589	4945.425
2798.97979	4930.025
2801.53212	4911.625
2804.08288	4927.325
2806.63206	4918.925
2809.17967	4932.225
2811.72571	4930.625
2814.27018	4923.425
2816.81308	4902.325
2819.35442	4895.825
2821.89419	4909.125
2824.43239	4916.025
2826.96904	4896.625
2829.50412	4897.125
2832.03763	4883.325
2834.56959	4884.825
2837.1	4856.925
2839.62884	4867.525
2842.15613	4884.725
2844.68186	4889.425
2847.20604	4874.825
2849.72867	4890.025
2852.24974	4860.725
2854.76927	4877.925
2857.28724	4874.225
2859.80367	4876.425
2862.31855	4872.825
2864.83189	4875.725
2867.34368	4892.825
2869.85393	4892.925
2872.36264	4879.225
2874.8698	4874.325
2877.37543	4865.825
2879.87952	4885.825
2882.38207	4879.925
2884.88308	4858.425
2887.38256	4869.425
2889.88051	4887.525
2892.37692	4859.125
2894.8718	4856.025
2897.36515	4863.325
2899.85698	4870.625
2902.34727	4887.525
2904.83604	4889.025
2907.32328	4890.125
2909.809	4896.425
2912.29319	4901.425
2914.77587	4896.325
2917.25702	4885.025
2919.73665	4880.125
2922.21476	4871.025
2924.69136	4869.325
2927.16644	4875.025
2929.64	4868.125
2932.11205	4850.125
2934.58258	4828.425
2937.05161	4820.425
2939.51912	4817.825
2941.98513	4804.725
2944.44962	4791.225
2946.91261	4771.325
2949.37409	4763.125
2951.83407	4767.625
2954.29254	4757.625
2956.74951	4751.325
2959.20498	4722.525
2961.65895	4720.025
2964.11142	4709.425
2966.56239	4708.925
2969.01186	4692.225
2971.45984	4689.225
2973.90632	4673.325
2976.35131	4649.625
2978.7948	4649.525
2981.23681	4631.625
2983.67732	4624.325
2986.11635	4589.225
2988.55388	4604.625
2990.98993	4602.125
2993.4245	4610.225
2995.85758	4581.725
2998.28917	4567.025
3000.71928	4546.725
3003.14791	4545.125
3005.57506	4542.525
3008.00073	4527.025
3010.42493	4534.225
3012.84764	4527.525
3015.26888	4507.425
3017.68865	4490.025
3020.10694	4494.825
3022.52376	4479.725
3024.9391	4449.425
3027.35298	4451.025
3029.76539	4453.225
3032.17632	4443.025
3034.5858	4450.625
3036.9938	4428.425
3039.40034	4425.425
3041.80542	4415.825
3044.20903	4405.125
3046.61118	4392.325
3049.01187	4393.725
3051.4111	4368.825
3053.80888	4367.725
3056.20519	4368.925
3058.60005	4356.525
3060.99345	4347.025
3063.3854	4331.225
3065.7759	4334.225
3068.16494	4337.425
3070.55254	4310.925
3072.93868	4304.225
3075.32338	4291.825
3077.70662	4284.225
3080.08842	4273.025
3082.46878	4279.725
3084.84769	4262.625
3087.22515	4255.225
3089.60118	4244.425
3091.97576	4230.125
3094.3489	4225.925
3096.72061	4228.625
3099.09087	4247.425
3101.4597	4235.725
3103.82709	4227.225
3106.19305	4229.225
3108.55757	4235.525
3110.92066	4213.125
3113.28232	4198.025
3115.64255	4183.525
3118.00134	4183.625
3120.35871	4178.425
3122.71466	4170.625
3125.06917	4161.825
3127.42226	4179.925
3129.77393	4162.025
3132.12417	4168.325
3134.47299	4170.225
3136.82039	4167.825
3139.16636	4178.425
3141.51092	4178.825
3143.85406	4188.325
3146.19579	4177.725
3148.53609	4177.325
3150.87499	4177.025
3153.21246	4182.025
3155.54853	4177.725
3157.88318	4175.425
3160.21642	4170.425
3162.54826	4170.625
3164.87868	4169.625
3167.2077	4177.925
3169.5353	4170.725
3171.86151	4169.825
3174.18631	4179.725
3176.5097	4164.725
3178.83169	4174.525
3181.15228	4173.425
3183.47147	4160.325
3185.78926	4149.025
3188.10565	4148.825
3190.42065	4160.825
3192.73424	4167.025
