Data from AgNP_FTO_APTES_UA_100uM_CRN_2uM_R6G_10uM_NaF_0.1M_Addition_RamanShift__14__14-01-10-307.txt Node

Date: Thu Mar 24 14:01:10 GMT 2022
User: TCL
Spectrometer: QEP01345
Trigger mode: 4
Integration Time (sec): 7.000000E0
Scans to average: 10
Electric dark correction enabled: true
Nonlinearity correction enabled: false
Boxcar width: 0
XAxis mode: Raman Shifts
Number of Pixels in Spectrum: 1044
>>>>>Begin Spectral Data<<<<<
46.04893	-1.4875
50.45542	0.0125
54.85868	-0.3875
59.25871	-0.1875
63.6555	42.6125
68.04907	45.5125
72.43941	43.6125
76.82654	45.3125
81.21044	49.7125
85.59113	48.5125
89.96862	56.7125
94.34289	50.5125
98.71396	57.2125
103.08183	56.6125
107.4465	59.0125
111.80798	61.5125
116.16626	58.6125
120.52136	61.1125
124.87327	63.9125
129.222	65.6125
133.56755	71.9125
137.90993	73.9125
142.24913	84.1125
146.58517	92.4125
150.91804	105.6125
155.24774	130.1125
159.57429	161.0125
163.89768	208.2125
168.21792	277.2125
172.53501	377.3125
176.84895	522.9125
181.15975	733.4125
185.46741	1031.8125
189.77193	1427.6125
194.07331	1917.3125
198.37157	2475.4125
202.6667	3082.1125
206.9587	3661.9125
211.24758	4274.4125
215.53334	4893.1125
219.81599	5538.2125
224.09553	6272.1125
228.37195	7095.4125
232.64527	8026.8125
236.91549	8935.4125
241.18261	9850.0125
245.44663	10605.6125
249.70755	11252.0125
253.96539	11800.3125
258.22014	12254.3125
262.4718	12640.7125
266.72039	12948.7125
270.96589	13094.2125
275.20832	13078.7125
279.44768	12932.8125
283.68397	12764.5125
287.91719	12571.5125
292.14735	12551.2125
296.37445	12646.1125
300.59849	12904.2125
304.81948	13250.1125
309.03742	13506.0125
313.25231	13485.2125
317.46415	13136.9125
321.67296	12581.9125
325.87872	12019.4125
330.08145	11715.5125
334.28114	11694.0125
338.47781	11848.9125
342.67145	12092.6125
346.86207	12408.5125
351.04966	12825.4125
355.23424	13331.5125
359.4158	13703.5125
363.59435	13972.4125
367.76989	14086.6125
371.94243	14109.3125
376.11196	14101.9125
380.27849	14084.7125
384.44203	14035.5125
388.60257	14009.8125
392.76012	14040.2125
396.91468	14123.6125
401.06626	14374.2125
405.21485	14569.3125
409.36047	14392.2125
413.50311	13898.9125
417.64277	13417.7125
421.77947	13122.1125
425.9132	13002.7125
430.04396	12991.4125
434.17176	13029.4125
438.2966	13140.0125
442.41849	13309.9125
446.53742	13593.3125
450.6534	13872.5125
454.76644	14072.7125
458.87653	14151.4125
462.98368	14086.8125
467.08789	13976.5125
471.18916	13811.5125
475.2875	13615.7125
479.38291	13370.9125
483.4754	13209.4125
487.56496	13086.0125
491.6516	13048.1125
495.73531	13030.9125
499.81612	13065.5125
503.89401	13215.3125
507.96899	13293.0125
512.04106	13407.0125
516.11023	13499.3125
520.1765	13572.9125
524.23987	13509.1125
528.30034	13445.4125
532.35792	13339.8125
536.41261	13216.0125
540.46441	13039.0125
544.51333	12968.9125
548.55936	13027.2125
552.60252	13230.4125
556.64279	13501.6125
560.6802	13627.2125
564.71473	13725.6125
568.7464	13939.9125
572.7752	14119.4125
576.80114	14035.0125
580.82422	13987.9125
584.84444	14048.8125
588.86181	14099.3125
592.87633	14125.8125
596.888	14180.4125
600.89682	14449.3125
604.9028	15577.0125
608.90594	18563.7125
612.90624	22284.6125
616.90371	21470.3125
620.89834	16393.2125
624.89015	13843.9125
628.87913	13375.3125
632.86528	13555.2125
636.84862	13804.8125
640.82913	13690.9125
644.80683	13204.4125
648.78172	12838.9125
652.75379	12798.7125
656.72306	13149.9125
660.68952	13593.5125
664.65319	13561.6125
668.61405	13146.6125
672.57211	12968.8125
676.52738	13001.4125
680.47986	12950.1125
684.42955	12818.9125
688.37646	12706.5125
692.32058	12760.8125
696.26192	12845.4125
700.20048	13013.2125
704.13626	13140.8125
708.06928	13102.5125
711.99952	13003.5125
715.927	12969.5125
719.85171	13003.4125
723.77365	13031.5125
727.69284	12951.4125
731.60928	12867.2125
735.52295	12814.9125
739.43388	12820.1125
743.34206	12866.0125
747.24749	12880.7125
751.15017	12927.1125
755.05012	13046.6125
758.94733	13466.9125
762.8418	14548.1125
766.73354	16488.1125
770.62254	18485.7125
774.50882	19417.2125
778.39237	18648.9125
782.27321	16732.8125
786.15132	14879.4125
790.02671	13684.8125
793.89938	13122.0125
797.76935	12853.2125
801.6366	12712.4125
805.50115	12663.9125
809.36299	12573.6125
813.22213	12542.8125
817.07857	12495.8125
820.93231	12488.9125
824.78336	12451.4125
828.63172	12493.6125
832.47738	12478.5125
836.32036	12443.1125
840.16066	12404.2125
843.99827	12351.5125
847.8332	12357.6125
851.66546	12387.9125
855.49504	12381.8125
859.32195	12427.1125
863.1462	12416.3125
866.96777	12382.3125
870.78668	12388.6125
874.60293	12411.3125
878.41652	12443.9125
882.22745	12503.3125
886.03573	12567.4125
889.84136	12546.8125
893.64433	12511.6125
897.44466	12462.0125
901.24235	12425.9125
905.0374	12364.9125
908.8298	12294.1125
912.61957	12247.4125
916.40671	12291.5125
920.19121	12324.2125
923.97308	12452.8125
927.75233	12507.2125
931.52895	12596.5125
935.30295	12499.6125
939.07433	12252.2125
942.84309	12034.1125
946.60924	11916.4125
950.37278	11831.5125
954.13371	11816.6125
957.89203	11790.3125
961.64774	11779.0125
965.40086	11742.4125
969.15137	11735.7125
972.89929	11707.6125
976.64461	11701.0125
980.38733	11696.3125
984.12747	11738.3125
987.86502	11753.7125
991.59999	11820.4125
995.33237	11913.8125
999.06217	12064.1125
1002.78939	12237.4125
1006.51404	12459.8125
1010.23611	12651.5125
1013.95561	12798.5125
1017.67255	12811.6125
1021.38692	12729.6125
1025.09872	12558.8125
1028.80796	12418.6125
1032.51465	12386.3125
1036.21877	12435.7125
1039.92035	12502.0125
1043.61937	12570.8125
1047.31584	12598.6125
1051.00976	12581.5125
1054.70114	12614.2125
1058.38998	12612.3125
1062.07627	12707.9125
1065.76003	12780.6125
1069.44126	12864.9125
1073.11995	13068.6125
1076.79611	13286.5125
1080.46974	13502.9125
1084.14085	13711.1125
1087.80943	13896.6125
1091.47549	14062.9125
1095.13903	13941.3125
1098.80005	13679.9125
1102.45857	13438.2125
1106.11456	13314.0125
1109.76805	13322.2125
1113.41903	13433.9125
1117.06751	13715.0125
1120.71348	14091.1125
1124.35696	14472.8125
1127.99793	14856.2125
1131.63641	14858.5125
1135.2724	14438.9125
1138.90589	14015.5125
1142.5369	13723.8125
1146.16542	13489.1125
1149.79145	13348.1125
1153.415	13282.4125
1157.03607	13320.7125
1160.65467	13511.9125
1164.27079	13971.6125
1167.88443	14586.4125
1171.49561	15484.9125
1175.10432	16871.3125
1178.71056	18703.5125
1182.31434	20303.0125
1185.91565	20919.2125
1189.51451	20666.7125
1193.11091	19784.4125
1196.70485	18659.6125
1200.29634	17655.5125
1203.88538	16821.8125
1207.47197	15984.1125
1211.05612	15191.3125
1214.63782	14656.5125
1218.21708	14417.0125
1221.79391	14314.8125
1225.36829	14325.3125
1228.94024	14312.2125
1232.50976	14244.6125
1236.07685	14134.5125
1239.6415	14102.7125
1243.20374	14147.7125
1246.76355	14211.2125
1250.32093	14363.9125
1253.8759	14556.9125
1257.42845	14910.7125
1260.97859	15336.9125
1264.52631	15793.1125
1268.07163	16289.5125
1271.61453	16761.9125
1275.15503	17072.9125
1278.69312	17280.8125
1282.22882	17420.4125
1285.76211	17687.3125
1289.29301	18084.3125
1292.82151	18612.6125
1296.34761	19211.8125
1299.87133	20093.5125
1303.39266	21413.3125
1306.9116	23344.7125
1310.42815	25353.3125
1313.94233	26383.6125
1317.45412	25834.6125
1320.96354	24422.7125
1324.47058	22973.9125
1327.97525	21638.7125
1331.47754	20743.7125
1334.97747	20338.7125
1338.47502	20298.7125
1341.97022	20661.0125
1345.46305	21445.4125
1348.95352	22558.2125
1352.44163	24011.4125
1355.92738	25892.3125
1359.41078	28631.7125
1362.89183	31331.9125
1366.37053	30774.7125
1369.84688	26610.9125
1373.32088	22427.9125
1376.79254	19732.1125
1380.26186	18337.2125
1383.72883	17558.0125
1387.19347	17001.9125
1390.65578	16435.8125
1394.11575	15960.7125
1397.57339	15674.2125
1401.0287	15497.4125
1404.48168	15452.2125
1407.93234	15410.0125
1411.38068	15388.8125
1414.82669	15384.0125
1418.27039	15315.6125
1421.71177	15136.8125
1425.15083	14888.2125
1428.58758	14733.8125
1432.02203	14794.0125
1435.45416	15023.8125
1438.88399	15170.0125
1442.31151	15231.9125
1445.73673	15331.4125
1449.15965	15453.4125
1452.58027	15468.5125
1455.9986	15427.4125
1459.41463	15509.9125
1462.82837	15701.6125
1466.23982	16045.9125
1469.64898	16408.7125
1473.05586	16733.9125
1476.46045	16924.8125
1479.86276	17114.2125
1483.26279	17367.5125
1486.66054	17666.7125
1490.05602	18160.6125
1493.44922	18931.5125
1496.84016	20174.1125
1500.22882	22083.9125
1503.61521	24715.4125
1506.99934	27584.1125
1510.38121	29830.8125
1513.76081	29932.1125
1517.13816	27855.2125
1520.51324	24607.0125
1523.88607	21759.1125
1527.25665	19872.5125
1530.62498	18800.7125
1533.99105	18131.4125
1537.35488	17703.9125
1540.71647	17368.4125
1544.07581	17056.2125
1547.4329	16837.6125
1550.78776	16692.9125
1554.14038	16674.1125
1557.49077	16771.8125
1560.83892	17032.0125
1564.18484	17501.4125
1567.52853	18067.3125
1570.86999	18525.5125
1574.20922	18788.6125
1577.54624	18683.7125
1580.88103	17820.3125
1584.2136	16769.4125
1587.54395	16058.3125
1590.87208	16031.5125
1594.19801	16647.4125
1597.52172	17649.9125
1600.84321	18102.4125
1604.16251	17686.5125
1607.47959	16958.0125
1610.79447	16169.9125
1614.10715	15246.9125
1617.41763	14419.5125
1620.7259	13717.9125
1624.03199	13367.8125
1627.33587	13296.0125
1630.63757	13468.2125
1633.93707	13953.5125
1637.23439	14862.5125
1640.52951	16403.6125
1643.82246	18568.8125
1647.11321	21050.8125
1650.40179	22702.8125
1653.68819	22117.5125
1656.97241	19534.2125
1660.25446	16602.5125
1663.53433	14438.3125
1666.81203	13124.7125
1670.08756	12347.7125
1673.36092	11881.9125
1676.63211	11576.1125
1679.90115	11376.5125
1683.16801	11211.2125
1686.43272	11067.2125
1689.69527	10989.9125
1692.95567	10923.9125
1696.2139	10856.9125
1699.46999	10835.1125
1702.72392	10800.6125
1705.97571	10796.7125
1709.22535	10753.7125
1712.47284	10742.7125
1715.71819	10749.7125
1718.96139	10731.0125
1722.20246	10673.6125
1725.44139	10613.2125
1728.67818	10535.1125
1731.91284	10469.4125
1735.14537	10389.3125
1738.37576	10358.6125
1741.60403	10305.4125
1744.83017	10284.5125
1748.05418	10248.9125
1751.27607	10229.4125
1754.49584	10209.6125
1757.71349	10199.5125
1760.92903	10183.9125
1764.14244	10168.8125
1767.35375	10143.1125
1770.56294	10144.9125
1773.77002	10119.8125
1776.97499	10075.8125
1780.17785	10055.0125
1783.37861	10036.2125
1786.57727	10007.0125
1789.77382	9990.0125
1792.96828	9991.5125
1796.16064	9956.5125
1799.3509	9920.6125
1802.53907	9928.9125
1805.72514	9864.1125
1808.90913	9869.5125
1812.09102	9829.5125
1815.27083	9780.8125
1818.44856	9777.2125
1821.6242	9765.2125
1824.79776	9750.5125
1827.96924	9724.4125
1831.13864	9722.3125
1834.30597	9719.5125
1837.47122	9682.6125
1840.6344	9662.4125
1843.7955	9655.1125
1846.95454	9637.9125
1850.11151	9643.8125
1853.26642	9613.9125
1856.41926	9590.0125
1859.57004	9608.9125
1862.71876	9572.5125
1865.86542	9575.9125
1869.01003	9576.9125
1872.15258	9546.2125
1875.29308	9545.6125
1878.43152	9537.6125
1881.56792	9522.2125
1884.70227	9508.9125
1887.83457	9515.0125
1890.96482	9480.5125
1894.09304	9487.8125
1897.21921	9475.9125
1900.34335	9479.3125
1903.46544	9470.5125
1906.58551	9471.6125
1909.70353	9448.6125
1912.81953	9417.4125
1915.93349	9424.3125
1919.04543	9401.1125
1922.15534	9398.7125
1925.26322	9344.5125
1928.36908	9334.1125
1931.47292	9311.1125
1934.57473	9277.0125
1937.67453	9261.7125
1940.77232	9247.7125
1943.86808	9220.1125
1946.96184	9212.7125
1950.05358	9181.8125
1953.14331	9129.7125
1956.23103	9126.4125
1959.31675	9111.7125
1962.40046	9098.9125
1965.48217	9070.9125
1968.56188	9058.1125
1971.63959	9050.4125
1974.7153	8991.7125
1977.78901	8991.3125
1980.86073	8935.5125
1983.93046	8916.4125
1986.99819	8875.7125
1990.06394	8868.6125
1993.1277	8814.9125
1996.18947	8799.7125
1999.24925	8769.4125
2002.30706	8739.9125
2005.36288	8685.8125
2008.41672	8657.3125
2011.46859	8645.5125
2014.51848	8597.8125
2017.56639	8589.4125
2020.61233	8585.7125
2023.6563	8553.7125
2026.6983	8527.6125
2029.73833	8503.2125
2032.7764	8472.1125
2035.8125	8478.1125
2038.84664	8452.6125
2041.87881	8417.3125
2044.90903	8406.8125
2047.93729	8413.8125
2050.96359	8389.4125
2053.98794	8355.7125
2057.01034	8356.7125
2060.03078	8336.5125
2063.04927	8326.2125
2066.06582	8312.5125
2069.08042	8319.3125
2072.09307	8281.7125
2075.10378	8284.0125
2078.11255	8273.7125
2081.11938	8301.5125
2084.12426	8273.2125
2087.12722	8274.6125
2090.12824	8276.3125
2093.12732	8278.0125
2096.12447	8291.0125
2099.11969	8296.3125
2102.11299	8304.0125
2105.10435	8293.8125
2108.09379	8283.0125
2111.08131	8325.5125
2114.0669	8302.0125
2117.05057	8326.1125
2120.03233	8333.1125
2123.01216	8308.3125
2125.99008	8326.6125
2128.96609	8326.7125
2131.94018	8344.4125
2134.91236	8367.5125
2137.88263	8331.4125
2140.851	8338.6125
2143.81746	8356.8125
2146.78201	8346.0125
2149.74466	8354.9125
2152.7054	8340.0125
2155.66425	8333.9125
2158.6212	8345.7125
2161.57625	8334.2125
2164.52941	8335.8125
2167.48067	8326.2125
2170.43004	8323.9125
2173.37752	8310.4125
2176.32311	8307.6125
2179.26681	8289.3125
2182.20863	8291.3125
2185.14856	8297.3125
2188.08661	8265.7125
2191.02278	8295.5125
2193.95707	8266.4125
2196.88948	8240.2125
2199.82001	8243.8125
2202.74867	8233.8125
2205.67545	8231.3125
2208.60037	8212.6125
2211.52341	8178.1125
2214.44458	8185.7125
2217.36388	8165.5125
2220.28132	8168.7125
2223.1969	8166.6125
2226.11061	8146.1125
2229.02246	8103.1125
2231.93245	8109.2125
2234.84058	8091.7125
2237.74686	8054.6125
2240.65128	8052.7125
2243.55385	8022.7125
2246.45456	8037.3125
2249.35343	8016.1125
2252.25044	8034.9125
2255.14561	8013.1125
2258.03893	8021.8125
2260.93041	8001.4125
2263.82004	7994.9125
2266.70783	7973.1125
2269.59378	7946.2125
2272.4779	7951.2125
2275.36017	7904.9125
2278.24061	7891.4125
2281.11922	7895.7125
2283.996	7878.2125
2286.87094	7861.0125
2289.74405	7869.9125
2292.61534	7834.3125
2295.4848	7809.6125
2298.35243	7816.2125
2301.21824	7797.5125
2304.08223	7790.1125
2306.94439	7802.4125
2309.80474	7778.3125
2312.66327	7766.3125
2315.51999	7763.1125
2318.37489	7754.0125
2321.22797	7754.4125
2324.07925	7739.1125
2326.92871	7733.0125
2329.77637	7726.4125
2332.62222	7716.1125
2335.46626	7690.4125
2338.3085	7701.2125
2341.14893	7700.4125
2343.98756	7699.2125
2346.8244	7694.0125
2349.65943	7673.2125
2352.49267	7668.6125
2355.32411	7701.3125
2358.15376	7684.3125
2360.98161	7696.0125
2363.80768	7700.4125
2366.63195	7701.4125
2369.45444	7695.8125
2372.27514	7699.8125
2375.09405	7676.7125
2377.91118	7632.8125
2380.72652	7624.4125
2383.54009	7613.7125
2386.35187	7619.8125
2389.16188	7569.8125
2391.97011	7556.2125
2394.77657	7525.1125
2397.58125	7508.9125
2400.38416	7502.8125
2403.18529	7480.7125
2405.98466	7490.9125
2408.78226	7460.1125
2411.57809	7431.0125
2414.37216	7439.4125
2417.16446	7427.8125
2419.955	7415.9125
2422.74378	7397.6125
2425.5308	7409.8125
2428.31606	7416.9125
2431.09956	7396.0125
2433.88131	7392.6125
2436.6613	7378.6125
2439.43954	7384.7125
2442.21603	7381.6125
2444.99077	7372.3125
2447.76377	7368.8125
2450.53501	7366.5125
2453.30451	7368.6125
2456.07226	7386.3125
2458.83827	7366.2125
2461.60254	7363.1125
2464.36507	7344.1125
2467.12586	7357.0125
2469.88492	7357.7125
2472.64224	7386.9125
2475.39782	7336.7125
2478.15167	7349.1125
2480.90379	7341.7125
2483.65417	7339.5125
2486.40283	7357.1125
2489.14976	7358.0125
2491.89497	7375.1125
2494.63845	7366.5125
2497.3802	7341.1125
2500.12024	7360.2125
2502.85855	7341.5125
2505.59514	7338.9125
2508.33002	7310.2125
2511.06318	7295.3125
2513.79462	7281.0125
2516.52435	7239.4125
2519.25237	7227.4125
2521.97867	7226.6125
2524.70327	7221.4125
2527.42616	7208.7125
2530.14734	7191.0125
2532.86681	7175.9125
2535.58458	7167.7125
2538.30065	7169.5125
2541.01501	7157.6125
2543.72768	7144.9125
2546.43864	7109.8125
2549.14791	7128.2125
2551.85548	7120.5125
2554.56136	7124.5125
2557.26554	7099.2125
2559.96803	7094.0125
2562.66883	7095.4125
2565.36794	7083.8125
2568.06536	7089.1125
2570.7611	7071.6125
2573.45514	7057.4125
2576.14751	7026.8125
2578.83819	7032.6125
2581.52719	7032.4125
2584.21451	7017.7125
2586.90015	6992.1125
2589.58411	6991.5125
2592.2664	6968.3125
2594.94701	6979.6125
2597.62594	6947.2125
2600.30321	6924.4125
2602.9788	6918.1125
2605.65273	6919.0125
2608.32498	6907.6125
2610.99557	6888.2125
2613.66449	6898.0125
2616.33175	6891.8125
2618.99734	6889.0125
2621.66128	6881.4125
2624.32355	6887.1125
2626.98416	6850.5125
2629.64311	6840.5125
2632.30041	6840.7125
2634.95605	6846.7125
2637.61004	6835.6125
2640.26238	6822.5125
2642.91306	6805.0125
2645.56209	6805.5125
2648.20948	6808.5125
2650.85521	6801.9125
2653.4993	6800.1125
2656.14175	6808.0125
2658.78255	6813.9125
2661.42171	6788.3125
2664.05923	6793.1125
2666.6951	6790.6125
2669.32934	6819.0125
2671.96194	6815.3125
2674.59291	6801.3125
2677.22224	6788.0125
2679.84993	6807.9125
2682.476	6787.5125
2685.10043	6798.0125
2687.72324	6811.2125
2690.34441	6779.9125
2692.96396	6798.4125
2695.58188	6803.0125
2698.19818	6790.7125
2700.81285	6802.4125
2703.4259	6781.1125
2706.03733	6790.1125
2708.64714	6784.9125
2711.25533	6789.9125
2713.86191	6769.8125
2716.46687	6808.9125
2719.07021	6798.5125
2721.67194	6793.5125
2724.27206	6765.3125
2726.87057	6785.5125
2729.46747	6773.1125
2732.06276	6749.2125
2734.65644	6757.7125
2737.24852	6771.4125
2739.83899	6774.5125
2742.42786	6758.6125
2745.01513	6733.9125
2747.60079	6726.7125
2750.18486	6713.5125
2752.76733	6699.5125
2755.3482	6696.8125
2757.92747	6696.3125
2760.50515	6692.5125
2763.08123	6681.1125
2765.65573	6684.4125
2768.22863	6662.5125
2770.79994	6667.2125
2773.36967	6677.2125
2775.9378	6639.9125
2778.50435	6644.8125
2781.06932	6637.0125
2783.6327	6621.8125
2786.1945	6619.9125
2788.75471	6619.0125
2791.31335	6596.6125
2793.87041	6588.4125
2796.42589	6575.8125
2798.97979	6563.2125
2801.53212	6552.4125
2804.08288	6563.9125
2806.63206	6543.7125
2809.17967	6533.9125
2811.72571	6543.2125
2814.27018	6549.5125
2816.81308	6526.7125
2819.35442	6526.1125
2821.89419	6530.7125
2824.43239	6512.9125
2826.96904	6509.4125
2829.50412	6508.3125
2832.03763	6510.1125
2834.56959	6482.7125
2837.1	6482.2125
2839.62884	6470.9125
2842.15613	6454.8125
2844.68186	6479.5125
2847.20604	6471.2125
2849.72867	6452.1125
2852.24974	6453.7125
2854.76927	6460.0125
2857.28724	6464.0125
2859.80367	6424.1125
2862.31855	6433.4125
2864.83189	6450.1125
2867.34368	6454.6125
2869.85393	6443.5125
2872.36264	6438.4125
2874.8698	6448.7125
2877.37543	6454.6125
2879.87952	6454.2125
2882.38207	6449.0125
2884.88308	6441.0125
2887.38256	6455.0125
2889.88051	6435.9125
2892.37692	6421.5125
2894.8718	6427.8125
2897.36515	6421.6125
2899.85698	6436.6125
2902.34727	6448.6125
2904.83604	6441.7125
2907.32328	6454.9125
2909.809	6443.6125
2912.29319	6459.3125
2914.77587	6445.8125
2917.25702	6436.9125
2919.73665	6425.1125
2922.21476	6433.7125
2924.69136	6423.2125
2927.16644	6421.6125
2929.64	6402.5125
2932.11205	6415.0125
2934.58258	6382.9125
2937.05161	6385.4125
2939.51912	6368.4125
2941.98513	6361.2125
2944.44962	6367.4125
2946.91261	6347.2125
2949.37409	6344.3125
2951.83407	6329.3125
2954.29254	6341.3125
2956.74951	6324.5125
2959.20498	6319.3125
2961.65895	6301.8125
2964.11142	6299.4125
2966.56239	6285.1125
2969.01186	6285.2125
2971.45984	6277.2125
2973.90632	6250.4125
2976.35131	6243.4125
2978.7948	6240.3125
2981.23681	6226.3125
2983.67732	6241.4125
2986.11635	6185.2125
2988.55388	6196.5125
2990.98993	6198.5125
2993.4245	6172.6125
2995.85758	6162.7125
2998.28917	6163.7125
3000.71928	6169.7125
3003.14791	6149.9125
3005.57506	6144.9125
3008.00073	6142.7125
3010.42493	6141.5125
3012.84764	6135.3125
3015.26888	6129.8125
3017.68865	6122.4125
3020.10694	6095.3125
3022.52376	6083.9125
3024.9391	6062.6125
3027.35298	6048.0125
3029.76539	6044.3125
3032.17632	6042.1125
3034.5858	6034.9125
3036.9938	6041.9125
3039.40034	6019.8125
3041.80542	6007.8125
3044.20903	5995.4125
3046.61118	5981.2125
3049.01187	5963.2125
3051.4111	5961.9125
3053.80888	5936.1125
3056.20519	5931.2125
3058.60005	5928.2125
3060.99345	5917.1125
3063.3854	5911.9125
3065.7759	5881.2125
3068.16494	5891.1125
3070.55254	5878.5125
3072.93868	5866.3125
3075.32338	5845.7125
3077.70662	5850.0125
