Data from AgNP_FTO_APTES_UA_100uM_CRN_2uM_R6G_10uM_NaF_0.1M_Addition_RamanShift__26__14-15-10-323.txt Node

Date: Thu Mar 24 14:15:10 GMT 2022
User: TCL
Spectrometer: QEP01345
Trigger mode: 4
Integration Time (sec): 7.000000E0
Scans to average: 10
Electric dark correction enabled: true
Nonlinearity correction enabled: false
Boxcar width: 0
XAxis mode: Raman Shifts
Number of Pixels in Spectrum: 1044
>>>>>Begin Spectral Data<<<<<
46.04893	-1.375
50.45542	-0.175
54.85868	-0.375
59.25871	-0.375
63.6555	41.225
68.04907	45.325
72.43941	45.325
76.82654	49.125
81.21044	55.025
85.59113	54.625
89.96862	56.225
94.34289	54.025
98.71396	55.925
103.08183	59.925
107.4465	60.325
111.80798	61.225
116.16626	64.425
120.52136	65.025
124.87327	69.725
129.222	75.925
133.56755	79.625
137.90993	85.225
142.24913	94.325
146.58517	102.025
150.91804	120.025
155.24774	142.325
159.57429	182.025
163.89768	225.725
168.21792	315.125
172.53501	425.625
176.84895	602.725
181.15975	843.725
185.46741	1186.625
189.77193	1639.225
194.07331	2209.125
198.37157	2864.125
202.6667	3557.025
206.9587	4283.425
211.24758	5049.125
215.53334	5845.825
219.81599	6767.125
224.09553	7843.825
228.37195	9010.925
232.64527	10278.525
236.91549	11470.025
241.18261	12518.725
245.44663	13260.925
249.70755	13768.725
253.96539	14256.425
258.22014	14682.225
262.4718	15076.825
266.72039	15283.925
270.96589	15306.525
275.20832	15019.125
279.44768	14604.725
283.68397	14200.025
287.91719	13981.925
292.14735	14107.825
296.37445	14641.325
300.59849	15584.725
304.81948	16744.125
309.03742	17694.525
313.25231	17841.625
317.46415	16995.825
321.67296	15330.825
325.87872	13776.825
330.08145	13042.825
334.28114	12953.525
338.47781	13263.225
342.67145	13774.425
346.86207	14541.525
351.04966	15695.125
355.23424	17089.425
359.4158	18134.725
363.59435	18563.825
367.76989	18558.225
371.94243	18308.225
376.11196	18032.425
380.27849	17719.325
384.44203	17340.125
388.60257	16905.625
392.76012	16658.225
396.91468	16713.625
401.06626	17154.625
405.21485	17523.025
409.36047	17005.925
413.50311	15669.325
417.64277	14400.425
421.77947	13603.325
425.9132	13257.425
430.04396	13148.325
434.17176	13214.825
438.2966	13430.325
442.41849	13822.925
446.53742	14333.725
450.6534	14825.925
454.76644	15067.025
458.87653	14974.125
462.98368	14724.725
467.08789	14378.325
471.18916	13980.325
475.2875	13521.325
479.38291	13080.125
483.4754	12730.925
487.56496	12509.125
491.6516	12378.625
495.73531	12321.925
499.81612	12421.825
503.89401	12633.125
507.96899	12926.725
512.04106	13238.325
516.11023	13629.425
520.1765	13885.625
524.23987	13922.525
528.30034	13704.525
532.35792	13464.425
536.41261	13160.825
540.46441	12716.325
544.51333	12464.525
548.55936	12602.425
552.60252	13012.125
556.64279	13557.625
560.6802	13824.925
564.71473	14188.125
568.7464	15041.025
572.7752	15484.825
576.80114	14600.825
580.82422	13679.425
584.84444	13295.025
588.86181	13296.425
592.87633	13459.125
596.888	13755.925
600.89682	14378.025
604.9028	17064.825
608.90594	24357.025
612.90624	33960.425
616.90371	32713.725
620.89834	20557.825
624.89015	14491.625
628.87913	13370.825
632.86528	13667.425
636.84862	14075.325
640.82913	13739.325
644.80683	12641.525
648.78172	11891.825
652.75379	11880.825
656.72306	12704.625
660.68952	13733.725
664.65319	13495.525
668.61405	12400.725
672.57211	11834.925
676.52738	11765.825
680.47986	11711.725
684.42955	11518.625
688.37646	11363.025
692.32058	11411.325
696.26192	11591.425
700.20048	11817.825
704.13626	12005.525
708.06928	11930.625
711.99952	11819.125
715.927	11781.325
719.85171	11920.225
723.77365	12006.625
727.69284	11898.525
731.60928	11753.225
735.52295	11686.925
739.43388	11760.025
743.34206	11858.925
747.24749	11900.925
751.15017	11935.025
755.05012	12258.125
758.94733	13296.825
762.8418	15909.225
766.73354	20270.025
770.62254	24512.125
774.50882	26492.425
778.39237	25004.025
782.27321	20638.025
786.15132	16187.125
790.02671	13575.025
793.89938	12412.825
797.76935	11937.125
801.6366	11714.225
805.50115	11637.025
809.36299	11545.325
813.22213	11515.525
817.07857	11490.625
820.93231	11459.525
824.78336	11505.825
828.63172	11608.225
832.47738	11655.625
836.32036	11557.525
840.16066	11424.525
843.99827	11354.725
847.8332	11321.325
851.66546	11281.925
855.49504	11283.325
859.32195	11289.725
863.1462	11215.525
866.96777	11143.825
870.78668	11146.625
874.60293	11195.125
878.41652	11275.025
882.22745	11427.325
886.03573	11487.825
889.84136	11500.625
893.64433	11411.125
897.44466	11371.525
901.24235	11352.025
905.0374	11272.425
908.8298	11169.325
912.61957	11089.725
916.40671	11091.225
920.19121	11224.925
923.97308	11427.425
927.75233	11713.225
931.52895	12020.325
935.30295	11889.225
939.07433	11362.325
942.84309	10935.425
946.60924	10679.525
950.37278	10531.525
954.13371	10443.125
957.89203	10373.625
961.64774	10330.525
965.40086	10289.525
969.15137	10245.925
972.89929	10205.625
976.64461	10228.625
980.38733	10216.325
984.12747	10266.125
987.86502	10321.925
991.59999	10447.525
995.33237	10660.125
999.06217	10973.625
1002.78939	11413.425
1006.51404	11863.325
1010.23611	12142.225
1013.95561	12250.325
1017.67255	12230.125
1021.38692	12053.125
1025.09872	11834.725
1028.80796	11759.025
1032.51465	11978.125
1036.21877	12212.625
1039.92035	12331.025
1043.61937	12320.425
1047.31584	12165.625
1051.00976	11958.925
1054.70114	11786.025
1058.38998	11695.525
1062.07627	11714.925
1065.76003	11745.025
1069.44126	11837.325
1073.11995	11977.825
1076.79611	12283.025
1080.46974	12764.925
1084.14085	13430.525
1087.80943	14045.925
1091.47549	14242.025
1095.13903	13826.725
1098.80005	13094.925
1102.45857	12605.825
1106.11456	12495.625
1109.76805	12730.925
1113.41903	13376.225
1117.06751	14343.925
1120.71348	15570.725
1124.35696	16902.125
1127.99793	17751.725
1131.63641	17162.725
1135.2724	15611.525
1138.90589	14375.125
1142.5369	13620.525
1146.16542	13125.225
1149.79145	12824.325
1153.415	12767.425
1157.03607	12942.825
1160.65467	13315.725
1164.27079	14035.725
1167.88443	15185.125
1171.49561	16970.025
1175.10432	19868.525
1178.71056	23835.825
1182.31434	27059.125
1185.91565	27918.825
1189.51451	26680.925
1193.11091	24280.225
1196.70485	21710.625
1200.29634	19827.825
1203.88538	18463.325
1207.47197	16855.725
1211.05612	15421.025
1214.63782	14541.125
1218.21708	14256.125
1221.79391	14197.625
1225.36829	14270.025
1228.94024	14210.925
1232.50976	14039.625
1236.07685	13897.925
1239.6415	13917.625
1243.20374	14027.825
1246.76355	14216.625
1250.32093	14476.425
1253.8759	14853.825
1257.42845	15542.025
1260.97859	16299.625
1264.52631	17141.525
1268.07163	17948.825
1271.61453	18618.725
1275.15503	19060.025
1278.69312	19274.625
1282.22882	19545.025
1285.76211	20278.825
1289.29301	21174.425
1292.82151	22172.425
1296.34761	23297.025
1299.87133	25155.125
1303.39266	28543.025
1306.9116	33784.325
1310.42815	39308.925
1313.94233	41332.725
1317.45412	38570.225
1320.96354	33666.925
1324.47058	29055.325
1327.97525	25514.625
1331.47754	23412.025
1334.97747	22645.525
1338.47502	22967.225
1341.97022	24232.525
1345.46305	26405.325
1348.95352	29403.025
1352.44163	33072.625
1355.92738	38501.725
1359.41078	47001.525
1362.89183	54344.125
1366.37053	50965.325
1369.84688	39645.725
1373.32088	30240.925
1376.79254	24919.125
1380.26186	22097.225
1383.72883	20436.025
1387.19347	19209.725
1390.65578	18137.425
1394.11575	17285.625
1397.57339	16878.725
1401.0287	16811.425
1404.48168	16879.825
1407.93234	16937.025
1411.38068	17179.525
1414.82669	17363.625
1418.27039	17391.725
1421.71177	17084.025
1425.15083	16594.925
1428.58758	16478.525
1432.02203	16761.225
1435.45416	17139.025
1438.88399	17200.825
1442.31151	17145.525
1445.73673	17230.625
1449.15965	17393.125
1452.58027	17332.925
1455.9986	17083.725
1459.41463	16976.925
1462.82837	17246.025
1466.23982	17878.925
1469.64898	18507.625
1473.05586	18913.925
1476.46045	19100.025
1479.86276	19406.125
1483.26279	19960.825
1486.66054	20818.625
1490.05602	22059.425
1493.44922	23924.525
1496.84016	26866.025
1500.22882	31680.125
1503.61521	38511.625
1506.99934	46471.725
1510.38121	52452.325
1513.76081	52813.325
1517.13816	46739.525
1520.51324	37816.725
1523.88607	30283.325
1527.25665	25630.325
1530.62498	23108.425
1533.99105	21679.025
1537.35488	20699.025
1540.71647	20126.325
1544.07581	19838.925
1547.4329	19790.125
1550.78776	19866.625
1554.14038	20084.125
1557.49077	20476.925
1560.83892	21114.525
1564.18484	22169.525
1567.52853	23404.125
1570.86999	24339.225
1574.20922	24792.525
1577.54624	24474.125
1580.88103	22493.825
1584.2136	19966.225
1587.54395	18465.225
1590.87208	18447.325
1594.19801	19785.025
1597.52172	21785.125
1600.84321	22794.525
1604.16251	22001.125
1607.47959	20456.825
1610.79447	18767.525
1614.10715	17020.125
1617.41763	15563.825
1620.7259	14601.125
1624.03199	14184.925
1627.33587	14244.925
1630.63757	14757.725
1633.93707	15838.725
1637.23439	17632.625
1640.52951	20582.625
1643.82246	25096.725
1647.11321	30671.225
1650.40179	34437.125
1653.68819	32857.725
1656.97241	26884.025
1660.25446	20641.925
1663.53433	16479.625
1666.81203	14164.025
1670.08756	12847.025
1673.36092	12026.725
1676.63211	11539.625
1679.90115	11206.225
1683.16801	10964.325
1686.43272	10804.825
1689.69527	10650.125
1692.95567	10565.125
1696.2139	10490.625
1699.46999	10439.225
1702.72392	10420.025
1705.97571	10391.825
1709.22535	10345.225
1712.47284	10367.025
1715.71819	10375.825
1718.96139	10346.925
1722.20246	10295.625
1725.44139	10199.525
1728.67818	10078.725
1731.91284	9963.425
1735.14537	9890.025
1738.37576	9810.425
1741.60403	9780.625
1744.83017	9732.125
1748.05418	9700.325
1751.27607	9666.625
1754.49584	9628.325
1757.71349	9626.725
1760.92903	9578.125
1764.14244	9559.225
1767.35375	9551.125
1770.56294	9499.625
1773.77002	9465.225
1776.97499	9413.025
1780.17785	9389.825
1783.37861	9346.625
1786.57727	9317.525
1789.77382	9300.425
1792.96828	9275.725
1796.16064	9259.225
1799.3509	9213.325
1802.53907	9239.125
1805.72514	9177.425
1808.90913	9144.925
1812.09102	9119.825
1815.27083	9101.525
1818.44856	9082.025
1821.6242	9048.525
1824.79776	9031.725
1827.96924	9010.225
1831.13864	8998.925
1834.30597	8986.525
1837.47122	8941.125
1840.6344	8951.625
1843.7955	8919.825
1846.95454	8918.225
1850.11151	8914.325
1853.26642	8906.825
1856.41926	8897.325
1859.57004	8890.925
1862.71876	8882.025
1865.86542	8895.525
1869.01003	8901.625
1872.15258	8888.925
1875.29308	8907.125
1878.43152	8893.825
1881.56792	8905.125
1884.70227	8888.525
1887.83457	8902.125
1890.96482	8887.025
1894.09304	8870.525
1897.21921	8879.025
1900.34335	8844.225
1903.46544	8838.725
1906.58551	8875.325
1909.70353	8861.825
1912.81953	8852.725
1915.93349	8836.025
1919.04543	8831.925
1922.15534	8825.525
1925.26322	8784.925
1928.36908	8738.725
1931.47292	8738.625
1934.57473	8696.725
1937.67453	8665.225
1940.77232	8635.225
1943.86808	8619.725
1946.96184	8591.025
1950.05358	8556.025
1953.14331	8544.425
1956.23103	8550.425
1959.31675	8547.025
1962.40046	8508.125
1965.48217	8518.525
1968.56188	8513.025
1971.63959	8487.525
1974.7153	8484.925
1977.78901	8436.925
1980.86073	8426.925
1983.93046	8387.625
1986.99819	8325.925
1990.06394	8285.225
1993.1277	8273.325
1996.18947	8207.925
1999.24925	8197.425
2002.30706	8159.525
2005.36288	8129.225
2008.41672	8108.825
2011.46859	8061.225
2014.51848	8073.725
2017.56639	8042.125
2020.61233	8006.025
2023.6563	7990.525
2026.6983	7983.125
2029.73833	7966.525
2032.7764	7951.025
2035.8125	7943.225
2038.84664	7934.525
2041.87881	7910.625
2044.90903	7893.225
2047.93729	7893.525
2050.96359	7848.325
2053.98794	7841.625
2057.01034	7828.225
2060.03078	7805.625
2063.04927	7807.125
2066.06582	7793.325
2069.08042	7755.025
2072.09307	7747.825
2075.10378	7777.525
2078.11255	7750.025
2081.11938	7754.625
2084.12426	7739.225
2087.12722	7754.825
2090.12824	7758.425
2093.12732	7766.225
2096.12447	7751.725
2099.11969	7782.525
2102.11299	7748.325
2105.10435	7768.525
2108.09379	7760.925
2111.08131	7778.525
2114.0669	7802.525
2117.05057	7802.325
2120.03233	7826.325
2123.01216	7842.025
2125.99008	7840.825
2128.96609	7850.025
2131.94018	7859.325
2134.91236	7860.225
2137.88263	7836.825
2140.851	7834.925
2143.81746	7842.625
2146.78201	7811.525
2149.74466	7817.425
2152.7054	7798.525
2155.66425	7808.325
2158.6212	7801.725
2161.57625	7789.525
2164.52941	7778.525
2167.48067	7772.325
2170.43004	7773.425
2173.37752	7763.725
2176.32311	7786.225
2179.26681	7781.225
2182.20863	7799.325
2185.14856	7781.625
2188.08661	7777.725
2191.02278	7779.025
2193.95707	7774.625
2196.88948	7749.225
2199.82001	7758.325
2202.74867	7741.825
2205.67545	7746.625
2208.60037	7746.425
2211.52341	7718.425
2214.44458	7716.625
2217.36388	7692.825
2220.28132	7716.825
2223.1969	7685.525
2226.11061	7700.625
2229.02246	7646.125
2231.93245	7646.425
2234.84058	7601.425
2237.74686	7594.925
2240.65128	7593.125
2243.55385	7581.025
2246.45456	7588.925
2249.35343	7579.025
2252.25044	7596.325
2255.14561	7605.325
2258.03893	7612.925
2260.93041	7642.325
2263.82004	7647.725
2266.70783	7616.025
2269.59378	7582.925
2272.4779	7553.325
2275.36017	7552.525
2278.24061	7523.125
2281.11922	7506.725
2283.996	7494.425
2286.87094	7490.925
2289.74405	7468.025
2292.61534	7440.325
2295.4848	7453.825
2298.35243	7420.825
2301.21824	7403.125
2304.08223	7421.425
2306.94439	7433.125
2309.80474	7415.925
2312.66327	7418.725
2315.51999	7424.925
2318.37489	7440.925
2321.22797	7420.825
2324.07925	7419.225
2326.92871	7433.925
2329.77637	7426.925
2332.62222	7389.825
2335.46626	7424.925
2338.3085	7417.025
2341.14893	7425.025
2343.98756	7436.125
2346.8244	7450.825
2349.65943	7468.225
2352.49267	7478.325
2355.32411	7507.625
2358.15376	7500.525
2360.98161	7510.125
2363.80768	7534.225
2366.63195	7559.025
2369.45444	7542.125
2372.27514	7538.025
2375.09405	7519.125
2377.91118	7474.725
2380.72652	7477.925
2383.54009	7439.025
2386.35187	7388.625
2389.16188	7349.125
2391.97011	7318.725
2394.77657	7331.625
2397.58125	7298.725
2400.38416	7266.525
2403.18529	7235.925
2405.98466	7234.925
2408.78226	7205.425
2411.57809	7188.025
2414.37216	7175.525
2417.16446	7153.925
2419.955	7162.825
2422.74378	7161.725
2425.5308	7150.225
2428.31606	7156.325
2431.09956	7187.825
2433.88131	7170.525
2436.6613	7162.225
2439.43954	7178.225
2442.21603	7186.625
2444.99077	7192.425
2447.76377	7207.025
2450.53501	7185.525
2453.30451	7198.325
2456.07226	7218.025
2458.83827	7210.625
2461.60254	7230.125
2464.36507	7196.425
2467.12586	7197.625
2469.88492	7215.325
2472.64224	7227.725
2475.39782	7207.325
2478.15167	7241.925
2480.90379	7257.125
2483.65417	7287.225
2486.40283	7324.825
2489.14976	7364.925
2491.89497	7356.625
2494.63845	7373.425
2497.3802	7339.425
2500.12024	7354.525
2502.85855	7326.025
2505.59514	7288.025
2508.33002	7265.225
2511.06318	7236.125
2513.79462	7183.025
2516.52435	7137.625
2519.25237	7127.425
2521.97867	7115.525
2524.70327	7097.225
2527.42616	7056.925
2530.14734	7067.425
2532.86681	7061.625
2535.58458	7068.625
2538.30065	7043.825
2541.01501	7059.125
2543.72768	7056.625
2546.43864	7076.225
2549.14791	7060.825
2551.85548	7066.725
2554.56136	7070.925
2557.26554	7049.525
2559.96803	7047.025
2562.66883	7041.125
2565.36794	7036.025
2568.06536	7043.425
2570.7611	7043.825
2573.45514	7027.025
2576.14751	7008.725
2578.83819	7006.825
2581.52719	6981.225
2584.21451	6967.925
2586.90015	6967.625
2589.58411	6944.025
2592.2664	6950.625
2594.94701	6953.425
2597.62594	6940.325
2600.30321	6912.525
2602.9788	6942.025
2605.65273	6929.825
2608.32498	6939.025
2610.99557	6952.525
2613.66449	6927.425
2616.33175	6932.025
2618.99734	6947.925
2621.66128	6948.425
2624.32355	6953.825
2626.98416	6943.625
2629.64311	6943.225
2632.30041	6927.325
2634.95605	6918.325
2637.61004	6893.925
2640.26238	6876.425
2642.91306	6879.725
2645.56209	6877.825
2648.20948	6860.225
2650.85521	6846.725
2653.4993	6844.025
2656.14175	6855.225
2658.78255	6893.225
2661.42171	6855.825
2664.05923	6907.025
2666.6951	6914.825
2669.32934	6908.225
2671.96194	6921.625
2674.59291	6942.525
2677.22224	6936.925
2679.84993	6916.925
2682.476	6917.625
2685.10043	6920.125
2687.72324	6924.925
2690.34441	6928.125
2692.96396	6903.225
2695.58188	6909.425
2698.19818	6898.125
2700.81285	6900.625
2703.4259	6902.025
2706.03733	6905.425
2708.64714	6908.625
2711.25533	6915.625
2713.86191	6910.725
2716.46687	6941.525
2719.07021	6915.825
2721.67194	6925.025
2724.27206	6905.225
2726.87057	6919.625
2729.46747	6909.225
2732.06276	6911.225
2734.65644	6892.225
2737.24852	6900.025
2739.83899	6898.325
2742.42786	6877.725
2745.01513	6851.425
2747.60079	6833.525
2750.18486	6849.625
2752.76733	6840.125
2755.3482	6820.725
2757.92747	6815.625
2760.50515	6806.025
2763.08123	6806.625
2765.65573	6805.225
2768.22863	6801.825
2770.79994	6787.625
2773.36967	6795.925
2775.9378	6796.225
2778.50435	6808.025
2781.06932	6791.825
2783.6327	6795.625
2786.1945	6789.625
2788.75471	6779.625
2791.31335	6773.325
2793.87041	6764.625
2796.42589	6758.625
2798.97979	6770.225
2801.53212	6779.025
2804.08288	6777.225
2806.63206	6789.525
2809.17967	6787.725
2811.72571	6806.825
2814.27018	6794.325
2816.81308	6808.125
2819.35442	6820.025
2821.89419	6831.325
2824.43239	6832.825
2826.96904	6838.725
2829.50412	6854.225
2832.03763	6827.425
2834.56959	6825.925
2837.1	6820.425
2839.62884	6814.725
2842.15613	6781.825
2844.68186	6811.625
2847.20604	6832.425
2849.72867	6806.625
2852.24974	6819.925
2854.76927	6808.625
2857.28724	6817.425
2859.80367	6847.025
2862.31855	6858.025
2864.83189	6868.825
2867.34368	6892.125
2869.85393	6913.125
2872.36264	6902.825
2874.8698	6912.925
2877.37543	6912.425
2879.87952	6907.425
2882.38207	6921.325
2884.88308	6920.625
2887.38256	6886.225
2889.88051	6874.825
2892.37692	6867.425
2894.8718	6861.125
2897.36515	6860.925
2899.85698	6856.625
2902.34727	6862.125
2904.83604	6865.925
2907.32328	6866.725
2909.809	6866.925
2912.29319	6858.425
2914.77587	6833.525
2917.25702	6837.325
2919.73665	6818.225
2922.21476	6809.325
2924.69136	6778.425
2927.16644	6770.925
2929.64	6771.125
2932.11205	6764.925
2934.58258	6702.425
2937.05161	6723.225
2939.51912	6736.725
2941.98513	6729.525
2944.44962	6703.125
2946.91261	6698.425
2949.37409	6708.125
2951.83407	6705.325
2954.29254	6702.025
2956.74951	6677.725
2959.20498	6671.125
2961.65895	6670.425
2964.11142	6660.125
2966.56239	6659.825
2969.01186	6640.625
2971.45984	6611.325
2973.90632	6609.525
2976.35131	6571.225
2978.7948	6553.725
2981.23681	6550.225
2983.67732	6532.525
2986.11635	6536.325
2988.55388	6507.125
2990.98993	6509.325
2993.4245	6508.725
2995.85758	6503.925
2998.28917	6506.325
3000.71928	6482.325
3003.14791	6483.825
3005.57506	6473.825
3008.00073	6479.425
3010.42493	6488.325
3012.84764	6483.225
3015.26888	6480.325
3017.68865	6455.725
3020.10694	6460.325
3022.52376	6419.925
3024.9391	6405.225
3027.35298	6394.325
3029.76539	6384.725
3032.17632	6374.525
3034.5858	6355.025
3036.9938	6321.925
3039.40034	6313.225
3041.80542	6301.025
3044.20903	6280.725
3046.61118	6255.725
3049.01187	6263.225
3051.4111	6239.125
3053.80888	6212.925
3056.20519	6212.425
3058.60005	6200.625
3060.99345	6203.525
3063.3854	6161.425
3065.7759	6174.325
3068.16494	6150.825
3070.55254	6129.125
3072.93868	6125.825
3075.32338	6099.825
3077.70662	6092.025
3080.08842	6058.625
3082.46878	6073.025
3084.84769	6065.125
3087.22515	6041.025
3089.60118	6054.225
3091.97576	6035.225
3094.3489	6028.925
3096.72061	6034.625
3099.09087	6039.125
3101.4597	6030.825
3103.82709	6025.425
3106.19305	6015.725
3108.55757	6032.725
3110.92066	5978.725
3113.28232	5984.025
3115.64255	5964.325
3118.00134	5940.825
3120.35871	5937.525
3122.71466	5945.725
3125.06917	5929.025
3127.42226	5932.525
3129.77393	5961.125
3132.12417	5942.025
3134.47299	5934.225
3136.82039	5952.625
3139.16636	5960.125
3141.51092	5947.725
3143.85406	5964.625
3146.19579	5965.725
3148.53609	5971.525
3150.87499	5956.725
3153.21246	5980.325
3155.54853	5989.625
3157.88318	5979.025
3160.21642	5974.525
3162.54826	5955.925
3164.87868	5955.025
3167.2077	5964.425
3169.5353	5968.825
3171.86151	5960.625
3174.18631	5928.025
3176.5097	5946.725
3178.83169	5943.425
3181.15228	5929.725
3183.47147	5942.825
3185.78926	5937.125
3188.10565	5952.125
