Data from AgNP_FTO_APTES_UA_100uM_CRN_50uM_R6G_10uM_NaF_0.1M_Addition_RamanShift__3__17-11-20-523.txt Node

Date: Thu Mar 24 17:11:20 GMT 2022
User: TCL
Spectrometer: QEP01345
Trigger mode: 4
Integration Time (sec): 7.000000E0
Scans to average: 10
Electric dark correction enabled: true
Nonlinearity correction enabled: false
Boxcar width: 0
XAxis mode: Raman Shifts
Number of Pixels in Spectrum: 1044
>>>>>Begin Spectral Data<<<<<
46.04893	-0.6875
50.45542	0.7125
54.85868	0.2125
59.25871	0.3125
63.6555	44.4125
68.04907	46.8125
72.43941	45.7125
76.82654	49.4125
81.21044	48.7125
85.59113	49.5125
89.96862	51.5125
94.34289	54.3125
98.71396	58.3125
103.08183	56.7125
107.4465	58.8125
111.80798	62.4125
116.16626	61.5125
120.52136	63.4125
124.87327	65.1125
129.222	67.7125
133.56755	77.7125
137.90993	79.1125
142.24913	92.7125
146.58517	99.4125
150.91804	119.1125
155.24774	144.4125
159.57429	183.9125
163.89768	235.7125
168.21792	314.4125
172.53501	437.4125
176.84895	618.4125
181.15975	866.3125
185.46741	1209.2125
189.77193	1668.9125
194.07331	2233.3125
198.37157	2887.4125
202.6667	3575.6125
206.9587	4267.3125
211.24758	4964.5125
215.53334	5680.2125
219.81599	6441.5125
224.09553	7330.2125
228.37195	8278.4125
232.64527	9367.7125
236.91549	10457.8125
241.18261	11464.9125
245.44663	12352.9125
249.70755	13036.1125
253.96539	13650.5125
258.22014	14142.4125
262.4718	14562.2125
266.72039	14864.2125
270.96589	15012.8125
275.20832	14995.9125
279.44768	14846.3125
283.68397	14598.2125
287.91719	14389.6125
292.14735	14364.5125
296.37445	14492.4125
300.59849	14772.9125
304.81948	15132.0125
309.03742	15403.4125
313.25231	15453.9125
317.46415	15137.4125
321.67296	14610.2125
325.87872	14160.2125
330.08145	13923.5125
334.28114	13937.2125
338.47781	14091.3125
342.67145	14342.5125
346.86207	14699.8125
351.04966	15118.4125
355.23424	15599.4125
359.4158	15944.0125
363.59435	16081.6125
367.76989	16098.5125
371.94243	16097.6125
376.11196	16088.7125
380.27849	16111.6125
384.44203	16071.6125
388.60257	16125.7125
392.76012	16152.1125
396.91468	16275.4125
401.06626	16529.1125
405.21485	16694.1125
409.36047	16467.4125
413.50311	15934.3125
417.64277	15449.2125
421.77947	15245.5125
425.9132	15240.9125
430.04396	15346.5125
434.17176	15541.0125
438.2966	15778.2125
442.41849	16288.7125
446.53742	16927.6125
450.6534	17559.6125
454.76644	17934.7125
458.87653	17910.2125
462.98368	17596.7125
467.08789	17243.2125
471.18916	16873.2125
475.2875	16539.3125
479.38291	16224.1125
483.4754	15954.2125
487.56496	15643.5125
491.6516	15393.9125
495.73531	15233.3125
499.81612	15131.9125
503.89401	15205.8125
507.96899	15258.9125
512.04106	15373.2125
516.11023	15356.2125
520.1765	15334.1125
524.23987	15348.4125
528.30034	15370.3125
532.35792	15257.9125
536.41261	15079.0125
540.46441	14821.0125
544.51333	14716.7125
548.55936	14793.0125
552.60252	15164.9125
556.64279	15607.7125
560.6802	15983.8125
564.71473	16183.8125
568.7464	16530.6125
572.7752	16996.4125
576.80114	17214.7125
580.82422	17342.9125
584.84444	17723.5125
588.86181	18581.8125
592.87633	19884.6125
596.888	20711.2125
600.89682	20361.5125
604.9028	20317.8125
608.90594	22417.4125
612.90624	25459.3125
616.90371	23854.8125
620.89834	18307.8125
624.89015	15695.6125
628.87913	15268.5125
632.86528	15478.6125
636.84862	15687.8125
640.82913	15442.0125
644.80683	14809.6125
648.78172	14397.2125
652.75379	14329.6125
656.72306	14636.7125
660.68952	15070.3125
664.65319	14905.1125
668.61405	14313.4125
672.57211	14103.4125
676.52738	14173.0125
680.47986	14136.6125
684.42955	13983.4125
688.37646	13880.6125
692.32058	13933.1125
696.26192	14124.1125
700.20048	14298.4125
704.13626	14444.2125
708.06928	14451.0125
711.99952	14364.6125
715.927	14356.2125
719.85171	14433.4125
723.77365	14465.7125
727.69284	14362.5125
731.60928	14258.2125
735.52295	14297.2125
739.43388	14379.5125
743.34206	14464.4125
747.24749	14468.1125
751.15017	14516.3125
755.05012	14727.2125
758.94733	15265.2125
762.8418	16565.0125
766.73354	18810.2125
770.62254	20881.9125
774.50882	21549.9125
778.39237	20448.9125
782.27321	18254.5125
786.15132	16234.8125
790.02671	14975.2125
793.89938	14331.7125
797.76935	14041.5125
801.6366	13890.1125
805.50115	13825.9125
809.36299	13761.2125
813.22213	13674.6125
817.07857	13675.7125
820.93231	13647.0125
824.78336	13613.9125
828.63172	13607.7125
832.47738	13575.2125
836.32036	13592.9125
840.16066	13543.5125
843.99827	13507.1125
847.8332	13508.4125
851.66546	13494.7125
855.49504	13494.9125
859.32195	13478.4125
863.1462	13458.6125
866.96777	13426.8125
870.78668	13390.7125
874.60293	13437.9125
878.41652	13474.5125
882.22745	13572.3125
886.03573	13649.7125
889.84136	13661.2125
893.64433	13542.3125
897.44466	13510.5125
901.24235	13438.6125
905.0374	13361.1125
908.8298	13288.9125
912.61957	13275.3125
916.40671	13317.6125
920.19121	13468.1125
923.97308	13637.1125
927.75233	13695.2125
931.52895	13603.8125
935.30295	13394.6125
939.07433	13092.5125
942.84309	12829.1125
946.60924	12686.4125
950.37278	12658.5125
954.13371	12668.6125
957.89203	12650.4125
961.64774	12641.6125
965.40086	12635.2125
969.15137	12587.4125
972.89929	12529.2125
976.64461	12500.1125
980.38733	12467.6125
984.12747	12484.5125
987.86502	12567.2125
991.59999	12679.8125
995.33237	12826.2125
999.06217	13122.4125
1002.78939	13518.4125
1006.51404	13978.2125
1010.23611	14309.1125
1013.95561	14519.5125
1017.67255	14428.1125
1021.38692	14093.3125
1025.09872	13664.9125
1028.80796	13319.7125
1032.51465	13194.9125
1036.21877	13209.1125
1039.92035	13312.0125
1043.61937	13366.2125
1047.31584	13410.8125
1051.00976	13458.3125
1054.70114	13468.1125
1058.38998	13493.1125
1062.07627	13556.5125
1065.76003	13669.8125
1069.44126	13833.1125
1073.11995	14059.5125
1076.79611	14320.5125
1080.46974	14564.0125
1084.14085	14863.8125
1087.80943	15151.6125
1091.47549	15302.9125
1095.13903	15163.4125
1098.80005	14846.6125
1102.45857	14469.5125
1106.11456	14316.5125
1109.76805	14298.1125
1113.41903	14543.7125
1117.06751	14881.3125
1120.71348	15379.4125
1124.35696	15845.7125
1127.99793	16228.1125
1131.63641	16221.6125
1135.2724	15827.3125
1138.90589	15437.3125
1142.5369	15217.4125
1146.16542	15186.6125
1149.79145	15218.4125
1153.415	15289.5125
1157.03607	15462.4125
1160.65467	15777.1125
1164.27079	16489.6125
1167.88443	17538.2125
1171.49561	19063.4125
1175.10432	21274.0125
1178.71056	24044.9125
1182.31434	26408.9125
1185.91565	26920.5125
1189.51451	25900.9125
1193.11091	24430.2125
1196.70485	22900.9125
1200.29634	21570.5125
1203.88538	20519.2125
1207.47197	19538.2125
1211.05612	18749.1125
1214.63782	18274.7125
1218.21708	18125.4125
1221.79391	18137.2125
1225.36829	18276.9125
1228.94024	18105.7125
1232.50976	17656.7125
1236.07685	17142.9125
1239.6415	16820.3125
1243.20374	16784.3125
1246.76355	16822.5125
1250.32093	16934.2125
1253.8759	17260.7125
1257.42845	17750.2125
1260.97859	18336.0125
1264.52631	19001.1125
1268.07163	19665.1125
1271.61453	20236.9125
1275.15503	20720.3125
1278.69312	21116.1125
1282.22882	21708.7125
1285.76211	22649.1125
1289.29301	23857.5125
1292.82151	25195.7125
1296.34761	26814.1125
1299.87133	28752.3125
1303.39266	31149.2125
1306.9116	34027.6125
1310.42815	36897.7125
1313.94233	38412.5125
1317.45412	37778.5125
1320.96354	35908.5125
1324.47058	33763.6125
1327.97525	31706.1125
1331.47754	30106.2125
1334.97747	29131.3125
1338.47502	28784.3125
1341.97022	28807.9125
1345.46305	29210.6125
1348.95352	30038.2125
1352.44163	31444.8125
1355.92738	33977.2125
1359.41078	37694.9125
1362.89183	41030.5125
1366.37053	40207.5125
1369.84688	34946.7125
1373.32088	29314.4125
1376.79254	25953.0125
1380.26186	24624.8125
1383.72883	24060.5125
1387.19347	23543.1125
1390.65578	22973.5125
1394.11575	22732.0125
1397.57339	22897.5125
1401.0287	23236.8125
1404.48168	23551.3125
1407.93234	23456.4125
1411.38068	23048.1125
1414.82669	22437.8125
1418.27039	21632.1125
1421.71177	20643.9125
1425.15083	19833.3125
1428.58758	19453.7125
1432.02203	19677.1125
1435.45416	20236.1125
1438.88399	20760.5125
1442.31151	21175.5125
1445.73673	21388.6125
1449.15965	21579.8125
1452.58027	21554.1125
1455.9986	21350.0125
1459.41463	21301.3125
1462.82837	21661.6125
1466.23982	22374.4125
1469.64898	23157.8125
1473.05586	23801.3125
1476.46045	24344.5125
1479.86276	24575.8125
1483.26279	24686.4125
1486.66054	24851.0125
1490.05602	25336.1125
1493.44922	26031.0125
1496.84016	26885.5125
1500.22882	28159.0125
1503.61521	30148.3125
1506.99934	32323.7125
1510.38121	33825.4125
1513.76081	33605.2125
1517.13816	31344.1125
1520.51324	28419.8125
1523.88607	26058.3125
1527.25665	24797.6125
1530.62498	24249.0125
1533.99105	23909.3125
1537.35488	23452.2125
1540.71647	22882.0125
1544.07581	22137.9125
1547.4329	21484.8125
1550.78776	20851.8125
1554.14038	20409.8125
1557.49077	20216.6125
1560.83892	20329.1125
1564.18484	20759.3125
1567.52853	21379.1125
1570.86999	22035.1125
1574.20922	22581.3125
1577.54624	22676.4125
1580.88103	22010.6125
1584.2136	21177.0125
1587.54395	21094.9125
1590.87208	22046.6125
1594.19801	23815.7125
1597.52172	25875.0125
1600.84321	26798.8125
1604.16251	25788.8125
1607.47959	23545.2125
1610.79447	21063.3125
1614.10715	18848.0125
1617.41763	17224.5125
1620.7259	16185.0125
1624.03199	15673.6125
1627.33587	15693.8125
1630.63757	16220.4125
1633.93707	17440.3125
1637.23439	19663.1125
1640.52951	23273.0125
1643.82246	27973.1125
1647.11321	32148.9125
1650.40179	33538.9125
1653.68819	30851.0125
1656.97241	25662.2125
1660.25446	20671.6125
1663.53433	17194.0125
1666.81203	15155.5125
1670.08756	13932.9125
1673.36092	13186.6125
1676.63211	12692.5125
1679.90115	12386.8125
1683.16801	12131.7125
1686.43272	11927.2125
1689.69527	11769.2125
1692.95567	11670.0125
1696.2139	11585.9125
1699.46999	11507.0125
1702.72392	11438.0125
1705.97571	11419.2125
1709.22535	11376.5125
1712.47284	11347.3125
1715.71819	11301.8125
1718.96139	11220.2125
1722.20246	11201.6125
1725.44139	11119.8125
1728.67818	11010.0125
1731.91284	10937.8125
1735.14537	10846.2125
1738.37576	10789.0125
1741.60403	10719.1125
1744.83017	10679.5125
1748.05418	10634.8125
1751.27607	10600.0125
1754.49584	10575.7125
1757.71349	10542.8125
1760.92903	10526.5125
1764.14244	10544.5125
1767.35375	10510.1125
1770.56294	10482.6125
1773.77002	10433.9125
1776.97499	10387.1125
1780.17785	10345.9125
1783.37861	10330.2125
1786.57727	10308.6125
1789.77382	10285.9125
1792.96828	10263.5125
1796.16064	10221.3125
1799.3509	10177.5125
1802.53907	10162.6125
1805.72514	10126.5125
1808.90913	10096.9125
1812.09102	10050.7125
1815.27083	10032.8125
1818.44856	10001.9125
1821.6242	10006.6125
1824.79776	9950.7125
1827.96924	9931.1125
1831.13864	9894.6125
1834.30597	9896.3125
1837.47122	9869.8125
1840.6344	9857.3125
1843.7955	9804.0125
1846.95454	9825.0125
1850.11151	9802.8125
1853.26642	9794.8125
1856.41926	9800.3125
1859.57004	9806.7125
1862.71876	9760.7125
1865.86542	9778.9125
1869.01003	9739.5125
1872.15258	9733.1125
1875.29308	9722.5125
1878.43152	9725.7125
1881.56792	9714.7125
1884.70227	9719.1125
1887.83457	9739.4125
1890.96482	9711.6125
1894.09304	9699.9125
1897.21921	9702.9125
1900.34335	9661.0125
1903.46544	9661.9125
1906.58551	9656.9125
1909.70353	9652.6125
1912.81953	9625.2125
1915.93349	9604.9125
1919.04543	9582.0125
1922.15534	9565.8125
1925.26322	9543.7125
1928.36908	9497.0125
1931.47292	9468.7125
1934.57473	9443.1125
1937.67453	9426.5125
1940.77232	9401.6125
1943.86808	9348.4125
1946.96184	9319.3125
1950.05358	9278.7125
1953.14331	9253.6125
1956.23103	9227.4125
1959.31675	9193.3125
1962.40046	9161.5125
1965.48217	9149.0125
1968.56188	9117.9125
1971.63959	9095.8125
1974.7153	9069.9125
1977.78901	9047.8125
1980.86073	9016.8125
1983.93046	8956.2125
1986.99819	8929.0125
1990.06394	8911.5125
1993.1277	8869.9125
1996.18947	8823.1125
1999.24925	8824.2125
2002.30706	8789.4125
2005.36288	8736.2125
2008.41672	8709.6125
2011.46859	8685.5125
2014.51848	8653.0125
2017.56639	8625.0125
2020.61233	8609.6125
2023.6563	8593.6125
2026.6983	8546.9125
2029.73833	8528.8125
2032.7764	8509.6125
2035.8125	8461.2125
2038.84664	8452.6125
2041.87881	8435.1125
2044.90903	8414.0125
2047.93729	8390.3125
2050.96359	8384.6125
2053.98794	8367.0125
2057.01034	8350.6125
2060.03078	8350.1125
2063.04927	8322.2125
2066.06582	8309.9125
2069.08042	8310.3125
2072.09307	8300.4125
2075.10378	8305.6125
2078.11255	8284.9125
2081.11938	8315.0125
2084.12426	8280.5125
2087.12722	8287.8125
2090.12824	8274.6125
2093.12732	8262.0125
2096.12447	8274.8125
2099.11969	8260.1125
2102.11299	8272.4125
2105.10435	8260.9125
2108.09379	8245.0125
2111.08131	8264.9125
2114.0669	8242.0125
2117.05057	8255.3125
2120.03233	8265.9125
2123.01216	8261.1125
2125.99008	8259.0125
2128.96609	8260.1125
2131.94018	8237.9125
2134.91236	8250.2125
2137.88263	8226.9125
2140.851	8254.4125
2143.81746	8238.9125
2146.78201	8225.4125
2149.74466	8213.5125
2152.7054	8209.6125
2155.66425	8170.0125
2158.6212	8190.6125
2161.57625	8170.9125
2164.52941	8176.6125
2167.48067	8164.3125
2170.43004	8152.4125
2173.37752	8170.6125
2176.32311	8153.4125
2179.26681	8133.4125
2182.20863	8140.4125
2185.14856	8164.9125
2188.08661	8133.2125
2191.02278	8145.4125
2193.95707	8123.9125
2196.88948	8099.0125
2199.82001	8115.0125
2202.74867	8110.4125
2205.67545	8095.4125
2208.60037	8078.7125
2211.52341	8079.7125
2214.44458	8034.0125
2217.36388	8008.8125
2220.28132	8006.8125
2223.1969	8008.9125
2226.11061	7961.6125
2229.02246	7949.9125
2231.93245	7934.4125
2234.84058	7928.6125
2237.74686	7930.0125
2240.65128	7930.4125
2243.55385	7891.2125
2246.45456	7896.0125
2249.35343	7863.3125
2252.25044	7868.9125
2255.14561	7851.6125
2258.03893	7843.9125
2260.93041	7794.1125
2263.82004	7753.6125
2266.70783	7738.5125
2269.59378	7727.7125
2272.4779	7711.9125
2275.36017	7703.7125
2278.24061	7672.6125
2281.11922	7649.2125
2283.996	7650.2125
2286.87094	7640.3125
2289.74405	7609.7125
2292.61534	7594.3125
2295.4848	7572.4125
2298.35243	7581.6125
2301.21824	7572.6125
2304.08223	7550.2125
2306.94439	7541.7125
2309.80474	7545.5125
2312.66327	7549.5125
2315.51999	7539.1125
2318.37489	7511.6125
2321.22797	7497.0125
2324.07925	7484.1125
2326.92871	7491.9125
2329.77637	7496.2125
2332.62222	7468.5125
2335.46626	7450.8125
2338.3085	7451.2125
2341.14893	7447.7125
2343.98756	7459.7125
2346.8244	7443.2125
2349.65943	7440.4125
2352.49267	7442.8125
2355.32411	7452.9125
2358.15376	7451.6125
2360.98161	7466.9125
2363.80768	7450.5125
2366.63195	7482.9125
2369.45444	7474.5125
2372.27514	7443.2125
2375.09405	7431.4125
2377.91118	7412.4125
2380.72652	7400.5125
2383.54009	7366.4125
2386.35187	7348.3125
2389.16188	7339.5125
2391.97011	7322.5125
2394.77657	7272.7125
2397.58125	7240.5125
2400.38416	7241.3125
2403.18529	7242.8125
2405.98466	7227.0125
2408.78226	7204.9125
2411.57809	7186.8125
2414.37216	7169.2125
2417.16446	7202.0125
2419.955	7178.8125
2422.74378	7182.4125
2425.5308	7150.9125
2428.31606	7154.9125
2431.09956	7151.4125
2433.88131	7128.4125
2436.6613	7141.6125
2439.43954	7134.2125
2442.21603	7118.2125
2444.99077	7104.9125
2447.76377	7137.2125
2450.53501	7121.1125
2453.30451	7116.2125
2456.07226	7127.1125
2458.83827	7122.8125
2461.60254	7133.4125
2464.36507	7106.6125
2467.12586	7116.0125
2469.88492	7118.2125
2472.64224	7131.5125
2475.39782	7135.7125
2478.15167	7152.3125
2480.90379	7151.2125
2483.65417	7150.9125
2486.40283	7170.8125
2489.14976	7175.1125
2491.89497	7182.5125
2494.63845	7157.2125
2497.3802	7162.4125
2500.12024	7135.9125
2502.85855	7145.2125
2505.59514	7122.0125
2508.33002	7091.8125
2511.06318	7065.6125
2513.79462	7070.7125
2516.52435	7044.0125
2519.25237	7022.7125
2521.97867	7016.1125
2524.70327	7009.5125
2527.42616	7001.9125
2530.14734	7023.9125
2532.86681	6986.4125
2535.58458	6991.5125
2538.30065	6964.7125
2541.01501	6980.0125
2543.72768	6961.9125
2546.43864	6971.6125
2549.14791	6975.0125
2551.85548	6950.5125
2554.56136	6941.5125
2557.26554	6916.2125
2559.96803	6903.2125
2562.66883	6908.5125
2565.36794	6892.2125
2568.06536	6907.4125
2570.7611	6888.9125
2573.45514	6876.5125
2576.14751	6872.6125
2578.83819	6856.6125
2581.52719	6879.2125
2584.21451	6856.6125
2586.90015	6859.0125
2589.58411	6836.4125
2592.2664	6853.3125
2594.94701	6838.3125
2597.62594	6829.2125
2600.30321	6805.0125
2602.9788	6803.1125
2605.65273	6805.2125
2608.32498	6813.2125
2610.99557	6807.7125
2613.66449	6794.7125
2616.33175	6814.3125
2618.99734	6813.0125
2621.66128	6797.0125
2624.32355	6781.2125
2626.98416	6782.1125
2629.64311	6793.7125
2632.30041	6765.6125
2634.95605	6756.8125
2637.61004	6765.9125
2640.26238	6761.4125
2642.91306	6755.9125
2645.56209	6738.0125
2648.20948	6740.8125
2650.85521	6751.1125
2653.4993	6758.2125
2656.14175	6782.0125
2658.78255	6782.7125
2661.42171	6761.5125
2664.05923	6799.3125
2666.6951	6789.9125
2669.32934	6805.7125
2671.96194	6819.7125
2674.59291	6813.2125
2677.22224	6791.9125
2679.84993	6789.2125
2682.476	6774.2125
2685.10043	6761.6125
2687.72324	6768.5125
2690.34441	6736.3125
2692.96396	6752.0125
2695.58188	6770.2125
2698.19818	6750.3125
2700.81285	6739.3125
2703.4259	6738.1125
2706.03733	6754.4125
2708.64714	6766.4125
2711.25533	6766.1125
2713.86191	6753.9125
2716.46687	6799.2125
2719.07021	6792.8125
2721.67194	6768.4125
2724.27206	6800.7125
2726.87057	6783.1125
2729.46747	6782.1125
2732.06276	6802.3125
2734.65644	6790.2125
2737.24852	6784.2125
2739.83899	6758.7125
2742.42786	6747.1125
2745.01513	6755.5125
2747.60079	6734.8125
2750.18486	6719.3125
2752.76733	6726.4125
2755.3482	6712.3125
2757.92747	6716.9125
2760.50515	6703.8125
2763.08123	6701.4125
2765.65573	6700.6125
2768.22863	6704.5125
2770.79994	6710.6125
2773.36967	6715.3125
2775.9378	6709.2125
2778.50435	6688.5125
2781.06932	6692.8125
2783.6327	6706.5125
2786.1945	6710.7125
2788.75471	6717.7125
2791.31335	6706.6125
2793.87041	6661.5125
2796.42589	6680.6125
2798.97979	6674.4125
2801.53212	6653.6125
2804.08288	6645.4125
2806.63206	6632.4125
2809.17967	6611.4125
2811.72571	6639.4125
2814.27018	6621.4125
2816.81308	6602.5125
2819.35442	6594.9125
2821.89419	6598.5125
2824.43239	6605.3125
2826.96904	6572.7125
2829.50412	6582.4125
2832.03763	6565.7125
2834.56959	6549.5125
2837.1	6527.8125
2839.62884	6567.3125
2842.15613	6550.8125
2844.68186	6551.1125
2847.20604	6553.9125
2849.72867	6572.2125
2852.24974	6570.2125
2854.76927	6545.7125
2857.28724	6562.2125
2859.80367	6545.8125
2862.31855	6536.8125
2864.83189	6545.4125
2867.34368	6529.3125
2869.85393	6542.2125
2872.36264	6521.9125
2874.8698	6515.7125
2877.37543	6530.8125
2879.87952	6497.7125
2882.38207	6519.9125
2884.88308	6472.4125
2887.38256	6504.2125
2889.88051	6503.3125
2892.37692	6494.1125
2894.8718	6511.6125
2897.36515	6500.5125
2899.85698	6506.6125
2902.34727	6503.0125
2904.83604	6512.5125
2907.32328	6517.8125
2909.809	6519.1125
2912.29319	6546.6125
2914.77587	6525.7125
2917.25702	6529.8125
2919.73665	6520.0125
2922.21476	6500.5125
2924.69136	6494.5125
2927.16644	6491.8125
2929.64	6497.1125
2932.11205	6471.8125
2934.58258	6433.9125
2937.05161	6447.4125
2939.51912	6435.3125
2941.98513	6432.6125
2944.44962	6399.2125
2946.91261	6390.3125
2949.37409	6387.3125
2951.83407	6384.9125
2954.29254	6379.1125
2956.74951	6397.5125
2959.20498	6395.0125
2961.65895	6390.8125
2964.11142	6390.0125
2966.56239	6350.6125
2969.01186	6336.0125
2971.45984	6321.1125
2973.90632	6320.0125
2976.35131	6286.5125
2978.7948	6263.9125
2981.23681	6227.2125
2983.67732	6245.3125
2986.11635	6215.5125
2988.55388	6188.2125
2990.98993	6195.6125
2993.4245	6175.8125
2995.85758	6157.1125
2998.28917	6132.2125
3000.71928	6144.3125
3003.14791	6114.4125
3005.57506	6105.8125
3008.00073	6083.1125
3010.42493	6113.9125
3012.84764	6085.3125
3015.26888	6075.5125
3017.68865	6053.3125
3020.10694	6069.6125
3022.52376	6031.6125
3024.9391	6014.9125
3027.35298	5999.3125
3029.76539	6017.1125
3032.17632	5974.2125
3034.5858	5966.7125
3036.9938	5965.1125
3039.40034	5963.8125
3041.80542	5961.3125
3044.20903	5939.2125
3046.61118	5938.4125
3049.01187	5931.9125
3051.4111	5926.5125
3053.80888	5907.3125
3056.20519	5879.5125
3058.60005	5863.4125
3060.99345	5865.5125
3063.3854	5854.5125
3065.7759	5809.5125
3068.16494	5832.7125
3070.55254	5791.0125
3072.93868	5778.0125
3075.32338	5766.7125
