Data from AgNP_FTO_APTES_UA_100uM_CRN_20uM_R6G_10uM_NaF_0.1M_Addition_RamanShift__18__16-46-50-496.txt Node

Date: Thu Mar 24 16:46:50 GMT 2022
User: TCL
Spectrometer: QEP01345
Trigger mode: 4
Integration Time (sec): 7.000000E0
Scans to average: 10
Electric dark correction enabled: true
Nonlinearity correction enabled: false
Boxcar width: 0
XAxis mode: Raman Shifts
Number of Pixels in Spectrum: 1044
>>>>>Begin Spectral Data<<<<<
46.04893	-0.275
50.45542	-1.675
54.85868	-0.075
59.25871	-0.575
63.6555	42.625
68.04907	47.225
72.43941	43.025
76.82654	43.825
81.21044	52.125
85.59113	50.825
89.96862	56.025
94.34289	53.225
98.71396	55.925
103.08183	54.625
107.4465	59.225
111.80798	63.725
116.16626	61.525
120.52136	65.125
124.87327	63.925
129.222	66.625
133.56755	77.125
137.90993	79.525
142.24913	92.625
146.58517	100.425
150.91804	119.625
155.24774	144.225
159.57429	180.925
163.89768	236.125
168.21792	311.925
172.53501	433.925
176.84895	609.325
181.15975	858.225
185.46741	1213.525
189.77193	1673.325
194.07331	2242.025
198.37157	2915.825
202.6667	3605.725
206.9587	4311.925
211.24758	4998.925
215.53334	5726.325
219.81599	6483.025
224.09553	7332.725
228.37195	8316.625
232.64527	9367.925
236.91549	10445.125
241.18261	11474.925
245.44663	12372.325
249.70755	13121.925
253.96539	13733.325
258.22014	14245.525
262.4718	14694.325
266.72039	15011.725
270.96589	15163.725
275.20832	15179.825
279.44768	15042.325
283.68397	14821.825
287.91719	14656.025
292.14735	14610.625
296.37445	14760.125
300.59849	15051.725
304.81948	15429.725
309.03742	15672.025
313.25231	15621.825
317.46415	15264.825
321.67296	14657.125
325.87872	14097.825
330.08145	13801.125
334.28114	13754.025
338.47781	13910.525
342.67145	14165.425
346.86207	14501.725
351.04966	14915.925
355.23424	15436.325
359.4158	15753.225
363.59435	15979.125
367.76989	16107.525
371.94243	16100.825
376.11196	16122.725
380.27849	16072.825
384.44203	16064.525
388.60257	16072.025
392.76012	16156.425
396.91468	16300.325
401.06626	16539.125
405.21485	16705.625
409.36047	16495.825
413.50311	15983.525
417.64277	15468.925
421.77947	15201.425
425.9132	15103.525
430.04396	15167.025
434.17176	15283.725
438.2966	15422.225
442.41849	15689.725
446.53742	16135.125
450.6534	16553.025
454.76644	16792.825
458.87653	16809.325
462.98368	16677.925
467.08789	16472.425
471.18916	16278.025
475.2875	15978.125
479.38291	15750.125
483.4754	15558.725
487.56496	15375.025
491.6516	15233.125
495.73531	15171.425
499.81612	15126.325
503.89401	15269.725
507.96899	15326.825
512.04106	15368.025
516.11023	15456.625
520.1765	15471.225
524.23987	15477.225
528.30034	15406.625
532.35792	15318.125
536.41261	15116.325
540.46441	14925.125
544.51333	14856.425
548.55936	14990.225
552.60252	15257.525
556.64279	15603.725
560.6802	15833.225
564.71473	15882.825
568.7464	16169.925
572.7752	16523.025
576.80114	16645.425
580.82422	16626.625
584.84444	16800.925
588.86181	17056.725
592.87633	17393.925
596.888	17552.625
600.89682	17586.225
604.9028	18470.225
608.90594	21456.225
612.90624	25175.125
616.90371	23788.725
620.89834	18344.125
624.89015	15743.325
628.87913	15352.025
632.86528	15600.925
636.84862	15854.525
640.82913	15643.625
644.80683	15064.325
648.78172	14623.725
652.75379	14597.425
656.72306	14915.625
660.68952	15395.525
664.65319	15245.925
668.61405	14747.125
672.57211	14586.825
676.52738	14642.925
680.47986	14614.225
684.42955	14455.025
688.37646	14358.025
692.32058	14374.225
696.26192	14526.325
700.20048	14711.325
704.13626	14830.725
708.06928	14799.425
711.99952	14713.525
715.927	14664.725
719.85171	14738.325
723.77365	14776.225
727.69284	14709.525
731.60928	14526.425
735.52295	14570.925
739.43388	14568.725
743.34206	14626.925
747.24749	14670.325
751.15017	14695.425
755.05012	14884.825
758.94733	15405.125
762.8418	16659.125
766.73354	18838.625
770.62254	20932.925
774.50882	21666.625
778.39237	20656.525
782.27321	18533.325
786.15132	16575.025
790.02671	15387.725
793.89938	14756.425
797.76935	14470.825
801.6366	14338.525
805.50115	14220.425
809.36299	14190.925
813.22213	14125.525
817.07857	14062.525
820.93231	14053.525
824.78336	14023.425
828.63172	14022.325
832.47738	14051.225
836.32036	13987.525
840.16066	13951.025
843.99827	13950.025
847.8332	13922.825
851.66546	13927.425
855.49504	13927.825
859.32195	13955.525
863.1462	13930.325
866.96777	13905.425
870.78668	13926.325
874.60293	13946.125
878.41652	13990.925
882.22745	14074.225
886.03573	14144.225
889.84136	14149.125
893.64433	14036.725
897.44466	13954.425
901.24235	13939.325
905.0374	13888.125
908.8298	13820.225
912.61957	13785.725
916.40671	13812.225
920.19121	13906.325
923.97308	14067.925
927.75233	14102.025
931.52895	14110.125
935.30295	13930.925
939.07433	13648.325
942.84309	13439.725
946.60924	13289.625
950.37278	13230.525
954.13371	13193.025
957.89203	13193.925
961.64774	13177.025
965.40086	13165.425
969.15137	13120.625
972.89929	13076.525
976.64461	13067.425
980.38733	13045.825
984.12747	13084.125
987.86502	13149.825
991.59999	13218.825
995.33237	13331.525
999.06217	13527.425
1002.78939	13799.425
1006.51404	14116.825
1010.23611	14379.725
1013.95561	14524.825
1017.67255	14503.325
1021.38692	14356.725
1025.09872	14085.225
1028.80796	13899.025
1032.51465	13867.125
1036.21877	13900.125
1039.92035	13982.625
1043.61937	14022.325
1047.31584	14069.725
1051.00976	14111.125
1054.70114	14086.025
1058.38998	14127.125
1062.07627	14192.425
1065.76003	14299.725
1069.44126	14445.525
1073.11995	14670.725
1076.79611	14914.025
1080.46974	15128.925
1084.14085	15356.825
1087.80943	15587.925
1091.47549	15703.525
1095.13903	15578.025
1098.80005	15307.725
1102.45857	15008.725
1106.11456	14800.825
1109.76805	14834.325
1113.41903	15005.225
1117.06751	15279.125
1120.71348	15702.825
1124.35696	16132.125
1127.99793	16476.725
1131.63641	16495.325
1135.2724	16088.925
1138.90589	15697.025
1142.5369	15437.425
1146.16542	15272.125
1149.79145	15129.625
1153.415	15106.125
1157.03607	15215.425
1160.65467	15530.725
1164.27079	16087.425
1167.88443	16882.825
1171.49561	18067.725
1175.10432	19785.125
1178.71056	21957.525
1182.31434	23900.025
1185.91565	24532.825
1189.51451	24106.925
1193.11091	23058.625
1196.70485	21824.125
1200.29634	20676.325
1203.88538	19700.325
1207.47197	18727.525
1211.05612	17848.525
1214.63782	17304.825
1218.21708	16981.125
1221.79391	16897.525
1225.36829	16893.025
1228.94024	16815.225
1232.50976	16587.125
1236.07685	16370.625
1239.6415	16240.725
1243.20374	16291.325
1246.76355	16361.225
1250.32093	16557.525
1253.8759	16768.325
1257.42845	17192.925
1260.97859	17657.325
1264.52631	18259.625
1268.07163	18846.425
1271.61453	19394.525
1275.15503	19738.225
1278.69312	20046.225
1282.22882	20368.225
1285.76211	20850.525
1289.29301	21506.925
1292.82151	22322.525
1296.34761	23249.625
1299.87133	24496.225
1303.39266	26257.225
1306.9116	28508.625
1310.42815	30777.625
1313.94233	31799.825
1317.45412	31121.025
1320.96354	29596.925
1324.47058	27976.425
1327.97525	26519.025
1331.47754	25469.425
1334.97747	24930.525
1338.47502	24914.525
1341.97022	25302.925
1345.46305	26052.525
1348.95352	27200.025
1352.44163	28618.425
1355.92738	30655.825
1359.41078	33554.025
1362.89183	36306.325
1366.37053	35346.725
1369.84688	30776.125
1373.32088	26094.925
1376.79254	23185.125
1380.26186	21748.125
1383.72883	21074.525
1387.19347	20531.425
1390.65578	19954.125
1394.11575	19559.925
1397.57339	19334.125
1401.0287	19248.225
1404.48168	19286.025
1407.93234	19234.725
1411.38068	19085.625
1414.82669	18868.325
1418.27039	18508.825
1421.71177	18051.825
1425.15083	17622.425
1428.58758	17395.325
1432.02203	17517.925
1435.45416	17811.625
1438.88399	18061.225
1442.31151	18253.725
1445.73673	18408.625
1449.15965	18527.425
1452.58027	18604.925
1455.9986	18559.925
1459.41463	18640.125
1462.82837	18940.425
1466.23982	19434.325
1469.64898	19956.225
1473.05586	20341.625
1476.46045	20680.325
1479.86276	20874.725
1483.26279	21027.625
1486.66054	21338.025
1490.05602	21881.225
1493.44922	22781.125
1496.84016	24080.425
1500.22882	26012.925
1503.61521	28684.925
1506.99934	31380.825
1510.38121	33184.025
1513.76081	32950.925
1517.13816	30566.625
1520.51324	27320.025
1523.88607	24587.025
1527.25665	22961.125
1530.62498	22159.525
1533.99105	21642.525
1537.35488	21199.425
1540.71647	20734.325
1544.07581	20230.225
1547.4329	19826.625
1550.78776	19512.125
1554.14038	19359.525
1557.49077	19393.525
1560.83892	19674.925
1564.18484	20132.125
1567.52853	20720.625
1570.86999	21269.225
1574.20922	21600.325
1577.54624	21470.025
1580.88103	20628.725
1584.2136	19551.125
1587.54395	19103.525
1590.87208	19334.425
1594.19801	20318.925
1597.52172	21553.125
1600.84321	22082.625
1604.16251	21446.425
1607.47959	20294.125
1610.79447	19014.725
1614.10715	17753.125
1617.41763	16562.525
1620.7259	15745.925
1624.03199	15277.625
1627.33587	15210.225
1630.63757	15499.425
1633.93707	16284.125
1637.23439	17663.325
1640.52951	19875.425
1643.82246	22915.825
1647.11321	25848.625
1650.40179	27286.925
1653.68819	25954.125
1656.97241	22520.625
1660.25446	18928.125
1663.53433	16360.825
1666.81203	14848.625
1670.08756	13907.625
1673.36092	13292.125
1676.63211	12877.725
1679.90115	12653.025
1683.16801	12442.725
1686.43272	12303.325
1689.69527	12184.325
1692.95567	12092.225
1696.2139	12029.825
1699.46999	11965.825
1702.72392	11888.825
1705.97571	11861.425
1709.22535	11836.125
1712.47284	11827.525
1715.71819	11807.925
1718.96139	11778.325
1722.20246	11729.625
1725.44139	11661.725
1728.67818	11591.925
1731.91284	11503.825
1735.14537	11429.425
1738.37576	11360.625
1741.60403	11337.925
1744.83017	11278.825
1748.05418	11247.725
1751.27607	11204.925
1754.49584	11175.425
1757.71349	11154.925
1760.92903	11144.625
1764.14244	11161.425
1767.35375	11126.925
1770.56294	11063.325
1773.77002	11030.825
1776.97499	11012.025
1780.17785	10973.725
1783.37861	10976.825
1786.57727	10905.625
1789.77382	10910.325
1792.96828	10894.625
1796.16064	10866.825
1799.3509	10828.125
1802.53907	10825.325
1805.72514	10773.925
1808.90913	10730.625
1812.09102	10750.725
1815.27083	10682.725
1818.44856	10657.125
1821.6242	10654.425
1824.79776	10599.425
1827.96924	10603.925
1831.13864	10585.625
1834.30597	10592.825
1837.47122	10534.525
1840.6344	10531.725
1843.7955	10540.925
1846.95454	10497.025
1850.11151	10469.625
1853.26642	10485.225
1856.41926	10469.125
1859.57004	10457.525
1862.71876	10431.325
1865.86542	10408.825
1869.01003	10432.325
1872.15258	10412.725
1875.29308	10389.225
1878.43152	10390.125
1881.56792	10375.825
1884.70227	10352.425
1887.83457	10384.625
1890.96482	10378.925
1894.09304	10332.525
1897.21921	10332.525
1900.34335	10278.325
1903.46544	10295.325
1906.58551	10283.125
1909.70353	10294.725
1912.81953	10270.025
1915.93349	10257.525
1919.04543	10215.025
1922.15534	10179.425
1925.26322	10173.725
1928.36908	10150.125
1931.47292	10110.725
1934.57473	10087.325
1937.67453	10063.325
1940.77232	10078.225
1943.86808	10022.025
1946.96184	9986.525
1950.05358	9958.525
1953.14331	9923.725
1956.23103	9884.425
1959.31675	9850.625
1962.40046	9826.225
1965.48217	9796.625
1968.56188	9800.425
1971.63959	9769.425
1974.7153	9742.725
1977.78901	9721.225
1980.86073	9687.425
1983.93046	9638.325
1986.99819	9588.525
1990.06394	9582.425
1993.1277	9543.025
1996.18947	9496.325
1999.24925	9475.425
2002.30706	9450.725
2005.36288	9410.725
2008.41672	9370.725
2011.46859	9325.425
2014.51848	9320.025
2017.56639	9294.625
2020.61233	9265.725
2023.6563	9244.325
2026.6983	9219.725
2029.73833	9182.725
2032.7764	9157.825
2035.8125	9139.725
2038.84664	9104.825
2041.87881	9104.125
2044.90903	9085.325
2047.93729	9062.125
2050.96359	9072.025
2053.98794	9027.225
2057.01034	9000.225
2060.03078	9006.325
2063.04927	8979.225
2066.06582	8952.225
2069.08042	8987.425
2072.09307	8961.925
2075.10378	8959.125
2078.11255	8953.825
2081.11938	8987.825
2084.12426	8935.025
2087.12722	8955.125
2090.12824	8951.225
2093.12732	8934.225
2096.12447	8934.725
2099.11969	8976.625
2102.11299	8947.825
2105.10435	8950.525
2108.09379	8959.025
2111.08131	8968.325
2114.0669	8954.725
2117.05057	8959.025
2120.03233	8962.325
2123.01216	8976.025
2125.99008	8985.425
2128.96609	8976.125
2131.94018	8979.925
2134.91236	8989.325
2137.88263	8994.025
2140.851	8998.325
2143.81746	9006.325
2146.78201	8993.025
2149.74466	8987.825
2152.7054	8967.525
2155.66425	8941.425
2158.6212	8941.825
2161.57625	8962.625
2164.52941	8927.625
2167.48067	8925.625
2170.43004	8917.125
2173.37752	8928.825
2176.32311	8957.525
2179.26681	8900.525
2182.20863	8918.225
2185.14856	8923.925
2188.08661	8910.825
2191.02278	8913.525
2193.95707	8883.425
2196.88948	8873.125
2199.82001	8888.625
2202.74867	8876.125
2205.67545	8850.325
2208.60037	8846.525
2211.52341	8833.425
2214.44458	8840.425
2217.36388	8819.025
2220.28132	8785.825
2223.1969	8740.825
2226.11061	8731.225
2229.02246	8718.725
2231.93245	8715.725
2234.84058	8683.225
2237.74686	8711.225
2240.65128	8677.825
2243.55385	8664.125
2246.45456	8636.325
2249.35343	8631.125
2252.25044	8627.125
2255.14561	8610.725
2258.03893	8642.625
2260.93041	8611.125
2263.82004	8573.525
2266.70783	8551.025
2269.59378	8531.225
2272.4779	8502.025
2275.36017	8504.725
2278.24061	8486.725
2281.11922	8482.125
2283.996	8445.125
2286.87094	8443.425
2289.74405	8429.425
2292.61534	8408.325
2295.4848	8394.425
2298.35243	8387.025
2301.21824	8374.325
2304.08223	8353.525
2306.94439	8362.525
2309.80474	8375.625
2312.66327	8350.225
2315.51999	8331.825
2318.37489	8341.925
2321.22797	8319.725
2324.07925	8297.825
2326.92871	8276.425
2329.77637	8308.625
2332.62222	8273.125
2335.46626	8252.825
2338.3085	8227.625
2341.14893	8248.325
2343.98756	8269.425
2346.8244	8249.725
2349.65943	8246.325
2352.49267	8257.225
2355.32411	8270.325
2358.15376	8255.625
2360.98161	8251.325
2363.80768	8268.025
2366.63195	8258.825
2369.45444	8274.825
2372.27514	8242.225
2375.09405	8216.825
2377.91118	8226.025
2380.72652	8208.025
2383.54009	8176.625
2386.35187	8159.325
2389.16188	8129.625
2391.97011	8122.625
2394.77657	8097.225
2397.58125	8062.525
2400.38416	8054.325
2403.18529	8020.725
2405.98466	8013.825
2408.78226	7996.925
2411.57809	7990.825
2414.37216	7991.225
2417.16446	7980.825
2419.955	7975.925
2422.74378	7967.725
2425.5308	7952.525
2428.31606	7932.925
2431.09956	7940.925
2433.88131	7954.825
2436.6613	7947.325
2439.43954	7932.025
2442.21603	7894.925
2444.99077	7897.625
2447.76377	7907.325
2450.53501	7901.125
2453.30451	7928.425
2456.07226	7910.525
2458.83827	7902.025
2461.60254	7904.625
2464.36507	7900.325
2467.12586	7892.925
2469.88492	7887.925
2472.64224	7901.225
2475.39782	7904.725
2478.15167	7918.225
2480.90379	7910.625
2483.65417	7930.525
2486.40283	7906.025
2489.14976	7935.525
2491.89497	7951.925
2494.63845	7950.425
2497.3802	7921.425
2500.12024	7905.225
2502.85855	7897.825
2505.59514	7882.925
2508.33002	7859.325
2511.06318	7830.625
2513.79462	7824.825
2516.52435	7797.025
2519.25237	7793.725
2521.97867	7791.025
2524.70327	7776.925
2527.42616	7772.325
2530.14734	7759.525
2532.86681	7733.725
2535.58458	7744.425
2538.30065	7712.025
2541.01501	7725.125
2543.72768	7707.525
2546.43864	7721.425
2549.14791	7705.225
2551.85548	7685.725
2554.56136	7671.425
2557.26554	7651.625
2559.96803	7649.125
2562.66883	7632.825
2565.36794	7635.225
2568.06536	7626.625
2570.7611	7596.125
2573.45514	7591.925
2576.14751	7593.725
2578.83819	7559.025
2581.52719	7554.325
2584.21451	7557.525
2586.90015	7545.825
2589.58411	7523.925
2592.2664	7520.425
2594.94701	7533.025
2597.62594	7501.725
2600.30321	7488.725
2602.9788	7507.725
2605.65273	7481.025
2608.32498	7490.325
2610.99557	7458.225
2613.66449	7467.325
2616.33175	7478.425
2618.99734	7465.225
2621.66128	7442.225
2624.32355	7437.025
2626.98416	7430.325
2629.64311	7423.125
2632.30041	7410.025
2634.95605	7374.025
2637.61004	7423.625
2640.26238	7400.825
2642.91306	7400.225
2645.56209	7404.025
2648.20948	7371.625
2650.85521	7395.225
2653.4993	7384.625
2656.14175	7376.725
2658.78255	7380.625
2661.42171	7390.725
2664.05923	7408.825
2666.6951	7418.825
2669.32934	7427.725
2671.96194	7435.425
2674.59291	7394.225
2677.22224	7405.025
2679.84993	7411.925
2682.476	7374.525
2685.10043	7379.525
2687.72324	7371.525
2690.34441	7383.625
2692.96396	7378.825
2695.58188	7380.125
2698.19818	7362.025
2700.81285	7370.325
2703.4259	7380.825
2706.03733	7353.425
2708.64714	7375.225
2711.25533	7374.225
2713.86191	7365.225
2716.46687	7401.025
2719.07021	7399.525
2721.67194	7396.025
2724.27206	7394.925
2726.87057	7413.125
2729.46747	7376.325
2732.06276	7393.525
2734.65644	7384.125
2737.24852	7355.425
2739.83899	7348.325
2742.42786	7350.925
2745.01513	7348.725
2747.60079	7343.925
2750.18486	7332.425
2752.76733	7326.625
2755.3482	7317.125
2757.92747	7299.625
2760.50515	7284.525
2763.08123	7297.825
2765.65573	7261.325
2768.22863	7282.925
2770.79994	7274.525
2773.36967	7274.025
2775.9378	7263.025
2778.50435	7251.725
2781.06932	7245.525
2783.6327	7252.725
2786.1945	7256.825
2788.75471	7257.925
2791.31335	7243.625
2793.87041	7219.325
2796.42589	7223.325
2798.97979	7215.425
2801.53212	7183.025
2804.08288	7173.825
2806.63206	7151.525
2809.17967	7149.925
2811.72571	7158.625
2814.27018	7154.425
2816.81308	7123.625
2819.35442	7114.925
2821.89419	7143.825
2824.43239	7123.225
2826.96904	7128.025
2829.50412	7116.325
2832.03763	7071.425
2834.56959	7097.225
2837.1	7079.025
2839.62884	7105.025
2842.15613	7095.425
2844.68186	7091.425
2847.20604	7096.725
2849.72867	7110.525
2852.24974	7105.825
2854.76927	7103.125
2857.28724	7090.025
2859.80367	7089.725
2862.31855	7067.025
2864.83189	7106.725
2867.34368	7081.525
2869.85393	7067.425
2872.36264	7070.025
2874.8698	7056.025
2877.37543	7083.225
2879.87952	7070.225
2882.38207	7061.425
2884.88308	7049.125
2887.38256	7052.425
2889.88051	7052.025
2892.37692	7043.225
2894.8718	7048.825
2897.36515	7056.125
2899.85698	7050.925
2902.34727	7068.825
2904.83604	7047.925
2907.32328	7074.425
2909.809	7055.925
2912.29319	7076.825
2914.77587	7092.225
2917.25702	7084.625
2919.73665	7065.925
2922.21476	7086.325
2924.69136	7043.425
2927.16644	7064.625
2929.64	7033.725
2932.11205	7018.025
2934.58258	7002.825
2937.05161	6987.525
2939.51912	6995.125
2941.98513	6964.725
2944.44962	6944.525
2946.91261	6928.925
2949.37409	6938.825
2951.83407	6921.425
2954.29254	6946.525
2956.74951	6952.625
2959.20498	6964.125
2961.65895	6930.925
2964.11142	6923.125
2966.56239	6907.125
2969.01186	6901.925
2971.45984	6898.025
2973.90632	6883.225
2976.35131	6863.625
2978.7948	6845.925
2981.23681	6831.025
2983.67732	6824.525
2986.11635	6814.525
2988.55388	6804.525
2990.98993	6798.925
2993.4245	6775.525
2995.85758	6754.425
2998.28917	6748.825
3000.71928	6729.325
3003.14791	6718.825
3005.57506	6747.425
3008.00073	6698.225
3010.42493	6712.525
3012.84764	6694.125
3015.26888	6698.725
3017.68865	6662.325
3020.10694	6661.625
3022.52376	6665.325
3024.9391	6631.025
3027.35298	6627.125
3029.76539	6615.525
3032.17632	6599.025
3034.5858	6593.725
3036.9938	6593.225
3039.40034	6591.025
3041.80542	6586.525
3044.20903	6582.025
3046.61118	6555.125
3049.01187	6547.325
3051.4111	6542.625
3053.80888	6516.625
3056.20519	6519.725
3058.60005	6494.725
3060.99345	6482.425
3063.3854	6457.925
3065.7759	6461.225
3068.16494	6454.125
3070.55254	6429.625
3072.93868	6439.925
3075.32338	6417.425
3077.70662	6412.025
3080.08842	6385.925
3082.46878	6369.925
3084.84769	6369.825
3087.22515	6381.325
3089.60118	6389.425
3091.97576	6369.025
3094.3489	6367.925
3096.72061	6360.525
3099.09087	6361.925
3101.4597	6356.325
3103.82709	6369.325
3106.19305	6357.325
3108.55757	6356.625
3110.92066	6340.625
3113.28232	6335.525
3115.64255	6323.325
3118.00134	6322.125
3120.35871	6297.025
3122.71466	6297.525
3125.06917	6279.225
3127.42226	6274.025
3129.77393	6273.325
3132.12417	6265.625
3134.47299	6252.725
3136.82039	6250.125
3139.16636	6246.025
3141.51092	6254.625
3143.85406	6263.225
3146.19579	6259.425
3148.53609	6272.225
3150.87499	6260.725
3153.21246	6278.225
3155.54853	6296.625
3157.88318	6289.825
3160.21642	6261.425
3162.54826	6284.225
3164.87868	6295.925
3167.2077	6243.625
3169.5353	6267.825
3171.86151	6274.025
3174.18631	6260.525
3176.5097	6260.725
3178.83169	6242.525
3181.15228	6243.725
