Data from AgNP_FTO_APTES_UA_100uM_CRN_100uM_R6G_10uM_NaF_0.1M_Addition_RamanShift__11__18-00-20-577.txt Node

Date: Thu Mar 24 18:00:20 GMT 2022
User: TCL
Spectrometer: QEP01345
Trigger mode: 4
Integration Time (sec): 7.000000E0
Scans to average: 10
Electric dark correction enabled: true
Nonlinearity correction enabled: false
Boxcar width: 0
XAxis mode: Raman Shifts
Number of Pixels in Spectrum: 1044
>>>>>Begin Spectral Data<<<<<
46.04893	-0.625
50.45542	-1.325
54.85868	0.475
59.25871	1.275
63.6555	32.275
68.04907	36.975
72.43941	34.675
76.82654	35.375
81.21044	41.075
85.59113	39.675
89.96862	42.875
94.34289	41.275
98.71396	44.975
103.08183	45.475
107.4465	43.975
111.80798	50.075
116.16626	46.575
120.52136	49.175
124.87327	50.075
129.222	52.875
133.56755	55.175
137.90993	57.175
142.24913	64.075
146.58517	67.275
150.91804	75.675
155.24774	92.275
159.57429	109.075
163.89768	142.275
168.21792	186.275
172.53501	246.375
176.84895	349.675
181.15975	491.875
185.46741	680.075
189.77193	946.275
194.07331	1266.475
198.37157	1640.575
202.6667	2028.075
206.9587	2418.675
211.24758	2813.975
215.53334	3210.375
219.81599	3661.775
224.09553	4122.475
228.37195	4662.875
232.64527	5242.475
236.91549	5852.575
241.18261	6402.175
245.44663	6933.075
249.70755	7359.375
253.96539	7696.975
258.22014	7964.375
262.4718	8223.975
266.72039	8401.275
270.96589	8504.575
275.20832	8466.175
279.44768	8398.975
283.68397	8281.375
287.91719	8217.775
292.14735	8184.275
296.37445	8256.875
300.59849	8405.875
304.81948	8587.775
309.03742	8707.575
313.25231	8690.875
317.46415	8512.575
321.67296	8168.975
325.87872	7884.075
330.08145	7717.675
334.28114	7697.575
338.47781	7796.975
342.67145	7907.775
346.86207	8070.875
351.04966	8316.575
355.23424	8566.875
359.4158	8756.775
363.59435	8888.375
367.76989	8894.875
371.94243	8894.075
376.11196	8891.675
380.27849	8870.075
384.44203	8871.575
388.60257	8865.875
392.76012	8914.775
396.91468	8995.875
401.06626	9152.675
405.21485	9272.175
409.36047	9179.875
413.50311	8879.575
417.64277	8636.775
421.77947	8502.675
425.9132	8446.275
430.04396	8471.575
434.17176	8494.975
438.2966	8583.375
442.41849	8716.475
446.53742	8909.575
450.6534	9105.175
454.76644	9220.475
458.87653	9235.775
462.98368	9186.775
467.08789	9128.775
471.18916	9004.075
475.2875	8888.675
479.38291	8796.875
483.4754	8710.775
487.56496	8615.275
491.6516	8540.475
495.73531	8536.375
499.81612	8521.675
503.89401	8653.575
507.96899	8776.475
512.04106	8667.575
516.11023	8655.775
520.1765	8651.575
524.23987	8660.275
528.30034	8591.675
532.35792	8542.875
536.41261	8452.775
540.46441	8346.575
544.51333	8286.375
548.55936	8349.375
552.60252	8483.275
556.64279	8662.775
560.6802	8783.975
564.71473	8835.275
568.7464	8994.175
572.7752	9187.875
576.80114	9295.775
580.82422	9361.075
584.84444	9534.475
588.86181	9731.375
592.87633	9872.375
596.888	9982.675
600.89682	9975.075
604.9028	10375.775
608.90594	11838.675
612.90624	13720.575
616.90371	13039.875
620.89834	10149.675
624.89015	8770.075
628.87913	8566.675
632.86528	8732.175
636.84862	8927.375
640.82913	8802.575
644.80683	8521.775
648.78172	8227.475
652.75379	8163.975
656.72306	8314.075
660.68952	8557.975
664.65319	8494.675
668.61405	8210.375
672.57211	8104.875
676.52738	8100.075
680.47986	8094.975
684.42955	8024.875
688.37646	7971.275
692.32058	7985.375
696.26192	8025.475
700.20048	8124.975
704.13626	8197.675
708.06928	8210.575
711.99952	8196.675
715.927	8168.175
719.85171	8201.075
723.77365	8206.775
727.69284	8157.575
731.60928	8108.875
735.52295	8099.575
739.43388	8098.175
743.34206	8128.075
747.24749	8120.875
751.15017	8163.475
755.05012	8287.075
758.94733	8515.975
762.8418	9229.275
766.73354	10380.775
770.62254	11483.675
774.50882	11811.875
778.39237	11271.575
782.27321	10145.875
786.15132	9088.475
790.02671	8421.875
793.89938	8100.475
797.76935	7952.375
801.6366	7905.575
805.50115	7865.175
809.36299	7857.475
813.22213	7818.675
817.07857	7792.875
820.93231	7783.975
824.78336	7751.575
828.63172	7737.775
832.47738	7735.375
836.32036	7731.075
840.16066	7695.675
843.99827	7677.475
847.8332	7662.975
851.66546	7679.575
855.49504	7686.775
859.32195	7673.675
863.1462	7635.175
866.96777	7640.075
870.78668	7651.075
874.60293	7667.075
878.41652	7681.875
882.22745	7745.575
886.03573	7735.875
889.84136	7750.875
893.64433	7715.775
897.44466	7696.875
901.24235	7648.675
905.0374	7622.675
908.8298	7573.875
912.61957	7548.475
916.40671	7582.975
920.19121	7644.675
923.97308	7687.975
927.75233	7738.575
931.52895	7728.875
935.30295	7618.875
939.07433	7479.075
942.84309	7321.875
946.60924	7229.675
950.37278	7205.475
954.13371	7175.975
957.89203	7167.275
961.64774	7188.575
965.40086	7158.675
969.15137	7147.975
972.89929	7117.175
976.64461	7084.375
980.38733	7083.675
984.12747	7073.475
987.86502	7093.475
991.59999	7124.675
995.33237	7184.475
999.06217	7271.975
1002.78939	7411.075
1006.51404	7538.075
1010.23611	7701.675
1013.95561	7776.375
1017.67255	7759.675
1021.38692	7673.475
1025.09872	7530.275
1028.80796	7418.875
1032.51465	7388.775
1036.21877	7386.475
1039.92035	7402.975
1043.61937	7467.375
1047.31584	7496.375
1051.00976	7535.275
1054.70114	7559.275
1058.38998	7588.275
1062.07627	7629.075
1065.76003	7705.775
1069.44126	7793.975
1073.11995	7954.275
1076.79611	8068.775
1080.46974	8168.175
1084.14085	8265.575
1087.80943	8381.575
1091.47549	8456.475
1095.13903	8382.875
1098.80005	8189.575
1102.45857	8007.975
1106.11456	7871.275
1109.76805	7851.075
1113.41903	7918.675
1117.06751	8100.275
1120.71348	8306.375
1124.35696	8570.775
1127.99793	8793.575
1131.63641	8830.275
1135.2724	8622.975
1138.90589	8371.775
1142.5369	8246.575
1146.16542	8136.075
1149.79145	8074.075
1153.415	8049.075
1157.03607	8113.875
1160.65467	8241.775
1164.27079	8519.975
1167.88443	8930.675
1171.49561	9580.175
1175.10432	10507.975
1178.71056	11682.475
1182.31434	12627.175
1185.91565	12949.475
1189.51451	12701.675
1193.11091	12168.075
1196.70485	11493.375
1200.29634	10890.975
1203.88538	10368.775
1207.47197	9876.175
1211.05612	9411.775
1214.63782	9120.075
1218.21708	8934.375
1221.79391	8893.175
1225.36829	8879.375
1228.94024	8822.475
1232.50976	8751.875
1236.07685	8663.475
1239.6415	8591.175
1243.20374	8575.275
1246.76355	8612.375
1250.32093	8654.675
1253.8759	8795.075
1257.42845	9004.575
1260.97859	9265.875
1264.52631	9558.375
1268.07163	9831.075
1271.61453	10102.275
1275.15503	10316.775
1278.69312	10498.675
1282.22882	10686.975
1285.76211	11014.875
1289.29301	11408.175
1292.82151	11847.175
1296.34761	12337.575
1299.87133	13040.475
1303.39266	13950.775
1306.9116	15115.775
1310.42815	16298.475
1313.94233	16824.075
1317.45412	16435.075
1320.96354	15636.175
1324.47058	14804.575
1327.97525	14076.975
1331.47754	13504.275
1334.97747	13191.875
1338.47502	13089.575
1341.97022	13198.475
1345.46305	13541.675
1348.95352	14060.175
1352.44163	14755.175
1355.92738	15781.675
1359.41078	17343.975
1362.89183	18854.175
1366.37053	18606.075
1369.84688	16331.375
1373.32088	13896.575
1376.79254	12304.475
1380.26186	11487.675
1383.72883	11044.275
1387.19347	10714.775
1390.65578	10407.775
1394.11575	10178.775
1397.57339	10060.075
1401.0287	10049.975
1404.48168	10044.875
1407.93234	9999.975
1411.38068	9875.175
1414.82669	9736.975
1418.27039	9512.275
1421.71177	9261.175
1425.15083	9008.375
1428.58758	8885.875
1432.02203	8887.275
1435.45416	9020.875
1438.88399	9161.875
1442.31151	9229.475
1445.73673	9328.675
1449.15965	9407.975
1452.58027	9462.075
1455.9986	9456.475
1459.41463	9489.975
1462.82837	9661.575
1466.23982	9915.375
1469.64898	10196.475
1473.05586	10414.275
1476.46045	10614.275
1479.86276	10725.375
1483.26279	10882.275
1486.66054	11101.375
1490.05602	11423.075
1493.44922	11945.475
1496.84016	12695.975
1500.22882	13797.775
1503.61521	15277.375
1506.99934	16763.175
1510.38121	17755.475
1513.76081	17623.775
1517.13816	16383.775
1520.51324	14622.075
1523.88607	13143.375
1527.25665	12209.175
1530.62498	11696.675
1533.99105	11366.875
1537.35488	11085.875
1540.71647	10806.675
1544.07581	10487.775
1547.4329	10237.075
1550.78776	10050.275
1554.14038	9954.975
1557.49077	9969.175
1560.83892	10098.675
1564.18484	10343.875
1567.52853	10693.275
1570.86999	11003.375
1574.20922	11222.975
1577.54624	11196.775
1580.88103	10780.975
1584.2136	10218.275
1587.54395	9951.775
1590.87208	10075.975
1594.19801	10512.775
1597.52172	11109.075
1600.84321	11312.675
1604.16251	10925.375
1607.47959	10285.475
1610.79447	9647.475
1614.10715	9003.175
1617.41763	8459.075
1620.7259	8073.375
1624.03199	7850.075
1627.33587	7806.475
1630.63757	7932.675
1633.93707	8324.975
1637.23439	9022.175
1640.52951	10202.275
1643.82246	11800.375
1647.11321	13496.275
1650.40179	14435.275
1653.68819	13883.775
1656.97241	12153.275
1660.25446	10148.575
1663.53433	8700.275
1666.81203	7770.575
1670.08756	7233.775
1673.36092	6898.875
1676.63211	6694.275
1679.90115	6553.375
1683.16801	6449.775
1686.43272	6338.875
1689.69527	6257.475
1692.95567	6217.675
1696.2139	6185.575
1699.46999	6122.975
1702.72392	6108.075
1705.97571	6062.175
1709.22535	6046.575
1712.47284	6023.175
1715.71819	5990.275
1718.96139	5968.175
1722.20246	5936.975
1725.44139	5902.375
1728.67818	5860.875
1731.91284	5804.075
1735.14537	5767.275
1738.37576	5746.475
1741.60403	5711.175
1744.83017	5686.375
1748.05418	5665.075
1751.27607	5645.375
1754.49584	5629.475
1757.71349	5611.375
1760.92903	5619.775
1764.14244	5605.475
1767.35375	5579.975
1770.56294	5561.175
1773.77002	5524.575
1776.97499	5500.375
1780.17785	5506.375
1783.37861	5496.075
1786.57727	5469.475
1789.77382	5455.275
1792.96828	5457.075
1796.16064	5426.075
1799.3509	5416.975
1802.53907	5417.875
1805.72514	5373.175
1808.90913	5362.975
1812.09102	5341.375
1815.27083	5325.375
1818.44856	5322.375
1821.6242	5298.575
1824.79776	5275.175
1827.96924	5267.175
1831.13864	5271.475
1834.30597	5269.775
1837.47122	5221.675
1840.6344	5243.775
1843.7955	5221.075
1846.95454	5238.675
1850.11151	5222.675
1853.26642	5217.975
1856.41926	5214.475
1859.57004	5206.275
1862.71876	5177.275
1865.86542	5196.175
1869.01003	5187.475
1872.15258	5167.275
1875.29308	5148.675
1878.43152	5154.075
1881.56792	5136.875
1884.70227	5155.875
1887.83457	5127.775
1890.96482	5121.475
1894.09304	5118.975
1897.21921	5113.375
1900.34335	5093.775
1903.46544	5074.975
1906.58551	5079.375
1909.70353	5090.575
1912.81953	5075.175
1915.93349	5052.075
1919.04543	5033.075
1922.15534	5026.475
1925.26322	5016.175
1928.36908	4990.075
1931.47292	4968.975
1934.57473	4965.275
1937.67453	4959.775
1940.77232	4938.775
1943.86808	4923.275
1946.96184	4904.775
1950.05358	4883.075
1953.14331	4856.075
1956.23103	4857.075
1959.31675	4836.775
1962.40046	4830.775
1965.48217	4813.375
1968.56188	4802.775
1971.63959	4786.475
1974.7153	4780.375
1977.78901	4744.075
1980.86073	4733.675
1983.93046	4729.275
1986.99819	4706.175
1990.06394	4667.175
1993.1277	4651.175
1996.18947	4651.675
1999.24925	4628.275
2002.30706	4611.575
2005.36288	4580.475
2008.41672	4569.175
2011.46859	4551.175
2014.51848	4550.875
2017.56639	4534.775
2020.61233	4516.975
2023.6563	4503.075
2026.6983	4482.975
2029.73833	4481.475
2032.7764	4468.975
2035.8125	4431.575
2038.84664	4433.275
2041.87881	4416.975
2044.90903	4407.775
2047.93729	4410.675
2050.96359	4399.475
2053.98794	4384.075
2057.01034	4365.975
2060.03078	4376.575
2063.04927	4371.275
2066.06582	4364.175
2069.08042	4342.075
2072.09307	4332.275
2075.10378	4341.375
2078.11255	4334.975
2081.11938	4342.475
2084.12426	4340.175
2087.12722	4327.575
2090.12824	4327.275
2093.12732	4312.475
2096.12447	4325.575
2099.11969	4335.175
2102.11299	4322.275
2105.10435	4323.275
2108.09379	4325.075
2111.08131	4326.475
2114.0669	4317.475
2117.05057	4320.975
2120.03233	4329.475
2123.01216	4326.775
2125.99008	4326.675
2128.96609	4333.375
2131.94018	4339.575
2134.91236	4322.675
2137.88263	4330.975
2140.851	4337.575
2143.81746	4325.075
2146.78201	4317.975
2149.74466	4313.875
2152.7054	4306.375
2155.66425	4304.975
2158.6212	4298.875
2161.57625	4295.075
2164.52941	4293.575
2167.48067	4282.375
2170.43004	4275.775
2173.37752	4282.775
2176.32311	4275.175
2179.26681	4274.375
2182.20863	4268.875
2185.14856	4269.275
2188.08661	4259.575
2191.02278	4262.075
2193.95707	4266.275
2196.88948	4248.975
2199.82001	4252.375
2202.74867	4237.975
2205.67545	4234.075
2208.60037	4214.275
2211.52341	4217.175
2214.44458	4212.675
2217.36388	4182.475
2220.28132	4178.275
2223.1969	4156.875
2226.11061	4151.875
2229.02246	4147.075
2231.93245	4145.175
2234.84058	4126.175
2237.74686	4129.575
2240.65128	4119.275
2243.55385	4113.475
2246.45456	4115.075
2249.35343	4103.775
2252.25044	4112.175
2255.14561	4095.475
2258.03893	4098.575
2260.93041	4084.675
2263.82004	4059.075
2266.70783	4054.275
2269.59378	4047.075
2272.4779	4039.075
2275.36017	4033.275
2278.24061	4021.475
2281.11922	4021.075
2283.996	4001.175
2286.87094	3988.875
2289.74405	3981.975
2292.61534	3981.875
2295.4848	3950.675
2298.35243	3952.775
2301.21824	3959.275
2304.08223	3934.575
2306.94439	3951.475
2309.80474	3938.375
2312.66327	3941.375
2315.51999	3910.075
2318.37489	3912.075
2321.22797	3922.975
2324.07925	3914.875
2326.92871	3907.775
2329.77637	3917.275
2332.62222	3879.275
2335.46626	3870.775
2338.3085	3873.575
2341.14893	3872.975
2343.98756	3869.875
2346.8244	3867.475
2349.65943	3874.575
2352.49267	3868.875
2355.32411	3882.375
2358.15376	3886.275
2360.98161	3875.475
2363.80768	3872.475
2366.63195	3884.675
2369.45444	3899.175
2372.27514	3879.175
2375.09405	3879.875
2377.91118	3870.775
2380.72652	3846.375
2383.54009	3834.875
2386.35187	3832.875
2389.16188	3811.075
2391.97011	3796.775
2394.77657	3786.175
2397.58125	3765.675
2400.38416	3759.175
2403.18529	3751.075
2405.98466	3755.375
2408.78226	3725.975
2411.57809	3721.475
2414.37216	3716.375
2417.16446	3710.475
2419.955	3710.975
2422.74378	3712.275
2425.5308	3695.975
2428.31606	3691.875
2431.09956	3705.875
2433.88131	3695.275
2436.6613	3696.675
2439.43954	3695.075
2442.21603	3684.475
2444.99077	3671.175
2447.76377	3684.175
2450.53501	3690.675
2453.30451	3691.575
2456.07226	3676.775
2458.83827	3674.075
2461.60254	3673.575
2464.36507	3684.575
2467.12586	3671.275
2469.88492	3679.575
2472.64224	3656.375
2475.39782	3663.175
2478.15167	3671.375
2480.90379	3661.475
2483.65417	3667.475
2486.40283	3675.275
2489.14976	3679.775
2491.89497	3682.075
2494.63845	3686.775
2497.3802	3677.975
2500.12024	3657.475
2502.85855	3652.075
2505.59514	3641.375
2508.33002	3628.875
2511.06318	3621.875
2513.79462	3611.175
2516.52435	3615.675
2519.25237	3589.275
2521.97867	3580.175
2524.70327	3590.075
2527.42616	3588.975
2530.14734	3555.375
2532.86681	3560.875
2535.58458	3565.675
2538.30065	3537.675
2541.01501	3551.875
2543.72768	3546.675
2546.43864	3552.975
2549.14791	3536.275
2551.85548	3527.175
2554.56136	3531.775
2557.26554	3519.375
2559.96803	3513.975
2562.66883	3514.575
2565.36794	3520.475
2568.06536	3500.475
2570.7611	3501.675
2573.45514	3488.475
2576.14751	3472.975
2578.83819	3478.375
2581.52719	3462.175
2584.21451	3464.475
2586.90015	3450.175
2589.58411	3453.075
2592.2664	3457.375
2594.94701	3449.375
2597.62594	3435.675
2600.30321	3429.075
2602.9788	3432.775
2605.65273	3427.375
2608.32498	3421.075
2610.99557	3399.775
2613.66449	3418.175
2616.33175	3407.375
2618.99734	3413.275
2621.66128	3408.475
2624.32355	3403.075
2626.98416	3391.775
2629.64311	3385.375
2632.30041	3387.875
2634.95605	3375.075
2637.61004	3389.375
2640.26238	3381.075
2642.91306	3374.375
2645.56209	3360.375
2648.20948	3372.675
2650.85521	3356.275
2653.4993	3354.775
2656.14175	3360.075
2658.78255	3368.575
2661.42171	3362.275
2664.05923	3360.475
2666.6951	3368.275
2669.32934	3370.975
2671.96194	3373.375
2674.59291	3385.975
2677.22224	3361.675
2679.84993	3362.475
2682.476	3365.175
2685.10043	3343.675
2687.72324	3341.075
2690.34441	3346.375
2692.96396	3362.075
2695.58188	3354.975
2698.19818	3347.075
2700.81285	3344.175
2703.4259	3342.875
2706.03733	3337.075
2708.64714	3345.175
2711.25533	3349.075
2713.86191	3340.975
2716.46687	3362.175
2719.07021	3358.975
2721.67194	3362.075
2724.27206	3339.475
2726.87057	3359.875
2729.46747	3356.775
2732.06276	3341.175
2734.65644	3347.175
2737.24852	3341.375
2739.83899	3337.675
2742.42786	3329.775
2745.01513	3320.875
2747.60079	3319.475
2750.18486	3313.275
2752.76733	3302.375
2755.3482	3293.075
2757.92747	3301.275
2760.50515	3287.475
2763.08123	3278.375
2765.65573	3285.475
2768.22863	3282.875
2770.79994	3286.775
2773.36967	3273.675
2775.9378	3278.975
2778.50435	3267.375
2781.06932	3265.675
2783.6327	3275.375
2786.1945	3264.075
2788.75471	3257.275
2791.31335	3265.875
2793.87041	3251.275
2796.42589	3251.675
2798.97979	3250.375
2801.53212	3241.875
2804.08288	3240.275
2806.63206	3221.775
2809.17967	3218.875
2811.72571	3232.975
2814.27018	3241.875
2816.81308	3211.775
2819.35442	3211.575
2821.89419	3208.575
2824.43239	3210.575
2826.96904	3204.175
2829.50412	3201.675
2832.03763	3195.175
2834.56959	3192.175
2837.1	3188.775
2839.62884	3205.375
2842.15613	3203.775
2844.68186	3206.675
2847.20604	3201.375
2849.72867	3218.375
2852.24974	3200.975
2854.76927	3214.375
2857.28724	3206.175
2859.80367	3200.475
2862.31855	3195.275
2864.83189	3211.175
2867.34368	3198.575
2869.85393	3203.375
2872.36264	3192.175
2874.8698	3202.975
2877.37543	3199.775
2879.87952	3200.475
2882.38207	3195.975
2884.88308	3181.575
2887.38256	3183.975
2889.88051	3190.375
2892.37692	3176.675
2894.8718	3188.675
2897.36515	3182.175
2899.85698	3179.675
2902.34727	3178.275
2904.83604	3173.575
2907.32328	3201.675
2909.809	3191.475
2912.29319	3200.875
2914.77587	3208.975
2917.25702	3194.275
2919.73665	3183.975
2922.21476	3193.175
2924.69136	3180.675
2927.16644	3180.975
2929.64	3180.275
2932.11205	3166.275
2934.58258	3162.075
2937.05161	3160.875
2939.51912	3155.475
2941.98513	3154.675
2944.44962	3138.375
2946.91261	3120.875
2949.37409	3129.775
2951.83407	3123.675
2954.29254	3119.975
2956.74951	3116.275
2959.20498	3122.375
2961.65895	3108.675
2964.11142	3120.775
2966.56239	3116.675
2969.01186	3089.975
2971.45984	3076.775
2973.90632	3086.375
2976.35131	3066.075
2978.7948	3066.875
2981.23681	3053.775
2983.67732	3069.975
2986.11635	3047.675
2988.55388	3048.375
2990.98993	3029.075
2993.4245	3033.175
2995.85758	3024.175
2998.28917	3018.375
3000.71928	3020.475
3003.14791	3011.275
3005.57506	3007.175
3008.00073	3023.875
3010.42493	3003.275
3012.84764	2997.875
3015.26888	2993.275
3017.68865	2991.275
3020.10694	2999.775
3022.52376	2976.075
3024.9391	2966.375
3027.35298	2973.275
3029.76539	2960.275
3032.17632	2950.775
3034.5858	2953.675
3036.9938	2952.975
3039.40034	2942.975
3041.80542	2941.875
3044.20903	2945.075
3046.61118	2949.075
3049.01187	2936.375
3051.4111	2933.375
3053.80888	2937.675
3056.20519	2918.975
3058.60005	2901.975
3060.99345	2916.275
3063.3854	2900.775
3065.7759	2899.475
3068.16494	2892.575
3070.55254	2890.775
3072.93868	2899.575
3075.32338	2891.475
3077.70662	2886.675
3080.08842	2863.975
3082.46878	2871.075
3084.84769	2869.975
3087.22515	2865.875
3089.60118	2874.375
3091.97576	2879.275
3094.3489	2880.075
3096.72061	2866.175
3099.09087	2877.975
3101.4597	2878.975
3103.82709	2890.975
3106.19305	2868.975
3108.55757	2875.575
3110.92066	2877.875
3113.28232	2881.675
3115.64255	2877.875
3118.00134	2872.875
3120.35871	2856.875
3122.71466	2864.475
3125.06917	2849.775
3127.42226	2866.875
3129.77393	2854.675
3132.12417	2858.475
3134.47299	2858.475
3136.82039	2864.675
3139.16636	2854.475
3141.51092	2856.475
3143.85406	2864.875
3146.19579	2870.575
3148.53609	2878.475
3150.87499	2881.075
3153.21246	2887.975
3155.54853	2902.975
3157.88318	2889.575
3160.21642	2907.375
3162.54826	2897.975
3164.87868	2904.975
3167.2077	2911.175
3169.5353	2905.975
3171.86151	2922.875
3174.18631	2908.975
3176.5097	2917.875
3178.83169	2899.975
3181.15228	2906.775
3183.47147	2887.875
3185.78926	2911.375
3188.10565	2916.575
3190.42065	2906.375
3192.73424	2906.075
3195.04645	2910.375
3197.35725	2900.075
3199.66667	2906.975
3201.97469	2924.975
3204.28132	2920.375
3206.58656	2916.875
3208.8904	2917.575
3211.19287	2920.875
3213.49394	2920.675
3215.79363	2934.575
3218.09193	2951.375
3220.38884	2933.475
3222.68438	2938.275
