Data from AgNP_FTO_APTES_UA_100uM_CRN_50uM_R6G_10uM_NaF_0.1M_Addition_RamanShift__4__17-12-30-524.txt Node

Date: Thu Mar 24 17:12:30 GMT 2022
User: TCL
Spectrometer: QEP01345
Trigger mode: 4
Integration Time (sec): 7.000000E0
Scans to average: 10
Electric dark correction enabled: true
Nonlinearity correction enabled: false
Boxcar width: 0
XAxis mode: Raman Shifts
Number of Pixels in Spectrum: 1044
>>>>>Begin Spectral Data<<<<<
46.04893	-0.975
50.45542	0.425
54.85868	0.025
59.25871	-0.775
63.6555	40.425
68.04907	44.825
72.43941	47.125
76.82654	44.725
81.21044	48.025
85.59113	48.125
89.96862	54.325
94.34289	51.625
98.71396	52.425
103.08183	57.525
107.4465	59.625
111.80798	59.025
116.16626	62.125
120.52136	63.625
124.87327	65.725
129.222	68.025
133.56755	74.825
137.90993	76.625
142.24913	91.725
146.58517	99.825
150.91804	115.425
155.24774	141.325
159.57429	179.725
163.89768	225.825
168.21792	304.025
172.53501	423.525
176.84895	594.825
181.15975	845.225
185.46741	1175.525
189.77193	1626.325
194.07331	2179.925
198.37157	2818.825
202.6667	3477.325
206.9587	4158.425
211.24758	4836.225
215.53334	5548.425
219.81599	6279.025
224.09553	7135.225
228.37195	8079.825
232.64527	9137.425
236.91549	10169.925
241.18261	11161.625
245.44663	12068.325
249.70755	12705.225
253.96539	13291.025
258.22014	13798.625
262.4718	14226.025
266.72039	14516.525
270.96589	14638.125
275.20832	14643.025
279.44768	14474.225
283.68397	14254.025
287.91719	14082.725
292.14735	14098.825
296.37445	14205.525
300.59849	14450.725
304.81948	14746.725
309.03742	14989.125
313.25231	15040.925
317.46415	14771.025
321.67296	14248.325
325.87872	13812.125
330.08145	13586.825
334.28114	13590.625
338.47781	13747.325
342.67145	13982.425
346.86207	14311.625
351.04966	14713.625
355.23424	15180.525
359.4158	15528.225
363.59435	15634.125
367.76989	15691.125
371.94243	15671.325
376.11196	15637.025
380.27849	15651.125
384.44203	15674.825
388.60257	15681.125
392.76012	15730.825
396.91468	15849.825
401.06626	16093.525
405.21485	16276.725
409.36047	16059.525
413.50311	15535.525
417.64277	15105.925
421.77947	14899.825
425.9132	14852.225
430.04396	14992.125
434.17176	15142.825
438.2966	15377.325
442.41849	15841.725
446.53742	16423.325
450.6534	17025.625
454.76644	17372.025
458.87653	17365.525
462.98368	17092.125
467.08789	16787.725
471.18916	16416.625
475.2875	16099.125
479.38291	15819.025
483.4754	15574.625
487.56496	15306.225
491.6516	15095.825
495.73531	14914.925
499.81612	14823.925
503.89401	14895.825
507.96899	14987.625
512.04106	15013.625
516.11023	15064.525
520.1765	15025.225
524.23987	14999.025
528.30034	15000.225
532.35792	14919.225
536.41261	14739.325
540.46441	14527.725
544.51333	14372.125
548.55936	14499.625
552.60252	14826.925
556.64279	15309.225
560.6802	15659.325
564.71473	15817.925
568.7464	16145.925
572.7752	16574.225
576.80114	16779.725
580.82422	16908.525
584.84444	17271.725
588.86181	18078.325
592.87633	19216.725
596.888	19923.325
600.89682	19634.925
604.9028	19641.325
608.90594	21689.025
612.90624	24628.025
616.90371	23092.025
620.89834	17831.925
624.89015	15353.825
628.87913	14971.325
632.86528	15180.425
636.84862	15378.125
640.82913	15163.825
644.80683	14570.425
648.78172	14156.725
652.75379	14046.325
656.72306	14371.525
660.68952	14802.425
664.65319	14657.825
668.61405	14104.625
672.57211	13885.725
676.52738	13950.425
680.47986	13889.525
684.42955	13784.925
688.37646	13661.525
692.32058	13689.225
696.26192	13863.525
700.20048	14082.725
704.13626	14184.125
708.06928	14211.725
711.99952	14127.925
715.927	14138.725
719.85171	14182.025
723.77365	14196.325
727.69284	14110.825
731.60928	14016.425
735.52295	14043.025
739.43388	14119.725
743.34206	14209.325
747.24749	14211.925
751.15017	14264.325
755.05012	14460.425
758.94733	14996.825
762.8418	16241.325
766.73354	18393.425
770.62254	20366.425
774.50882	20986.825
778.39237	19872.525
782.27321	17831.925
786.15132	15888.425
790.02671	14681.825
793.89938	14110.125
797.76935	13787.925
801.6366	13670.625
805.50115	13606.225
809.36299	13538.425
813.22213	13489.325
817.07857	13468.925
820.93231	13423.125
824.78336	13375.925
828.63172	13384.625
832.47738	13366.825
836.32036	13331.225
840.16066	13340.425
843.99827	13325.025
847.8332	13286.225
851.66546	13305.525
855.49504	13276.825
859.32195	13278.925
863.1462	13259.025
866.96777	13211.925
870.78668	13203.025
874.60293	13248.225
878.41652	13268.625
882.22745	13337.225
886.03573	13418.925
889.84136	13419.625
893.64433	13343.025
897.44466	13287.525
901.24235	13214.225
905.0374	13169.525
908.8298	13121.725
912.61957	13064.025
916.40671	13133.225
920.19121	13276.225
923.97308	13430.925
927.75233	13489.025
931.52895	13393.025
935.30295	13173.025
939.07433	12835.825
942.84309	12634.225
946.60924	12476.425
950.37278	12484.225
954.13371	12442.825
957.89203	12439.425
961.64774	12449.425
965.40086	12446.025
969.15137	12444.925
972.89929	12323.425
976.64461	12301.625
980.38733	12299.225
984.12747	12296.725
987.86502	12358.825
991.59999	12461.725
995.33237	12613.325
999.06217	12873.025
1002.78939	13286.025
1006.51404	13691.425
1010.23611	14001.825
1013.95561	14192.125
1017.67255	14139.825
1021.38692	13845.625
1025.09872	13415.325
1028.80796	13125.725
1032.51465	12980.125
1036.21877	12989.425
1039.92035	13066.925
1043.61937	13113.925
1047.31584	13191.325
1051.00976	13250.025
1054.70114	13256.625
1058.38998	13290.225
1062.07627	13388.025
1065.76003	13492.325
1069.44126	13628.325
1073.11995	13859.325
1076.79611	14103.425
1080.46974	14320.125
1084.14085	14587.725
1087.80943	14861.425
1091.47549	14998.125
1095.13903	14913.825
1098.80005	14573.725
1102.45857	14239.325
1106.11456	14028.025
1109.76805	14063.025
1113.41903	14289.025
1117.06751	14618.125
1120.71348	15062.525
1124.35696	15492.425
1127.99793	15855.625
1131.63641	15877.925
1135.2724	15479.025
1138.90589	15134.825
1142.5369	14906.325
1146.16542	14881.625
1149.79145	14870.625
1153.415	14968.225
1157.03607	15093.525
1160.65467	15479.725
1164.27079	16082.325
1167.88443	17067.025
1171.49561	18512.525
1175.10432	20603.825
1178.71056	23220.525
1182.31434	25406.825
1185.91565	25932.525
1189.51451	25003.425
1193.11091	23612.525
1196.70485	22246.025
1200.29634	20979.125
1203.88538	19985.225
1207.47197	19053.725
1211.05612	18258.225
1214.63782	17789.925
1218.21708	17663.125
1221.79391	17658.425
1225.36829	17734.025
1228.94024	17616.525
1232.50976	17168.525
1236.07685	16699.725
1239.6415	16390.625
1243.20374	16347.325
1246.76355	16407.725
1250.32093	16553.525
1253.8759	16826.225
1257.42845	17273.625
1260.97859	17834.825
1264.52631	18442.525
1268.07163	19050.325
1271.61453	19612.125
1275.15503	20096.625
1278.69312	20533.825
1282.22882	21064.425
1285.76211	21916.625
1289.29301	23032.825
1292.82151	24308.125
1296.34761	25832.525
1299.87133	27663.825
1303.39266	29899.625
1306.9116	32582.825
1310.42815	35249.325
1313.94233	36625.725
1317.45412	36001.825
1320.96354	34270.425
1324.47058	32298.625
1327.97525	30358.225
1331.47754	28934.525
1334.97747	28019.825
1338.47502	27671.125
1341.97022	27798.725
1345.46305	28213.825
1348.95352	29016.025
1352.44163	30331.425
1355.92738	32664.625
1359.41078	36062.525
1362.89183	39226.525
1366.37053	38395.125
1369.84688	33488.125
1373.32088	28163.725
1376.79254	25002.825
1380.26186	23687.725
1383.72883	23168.925
1387.19347	22720.325
1390.65578	22186.425
1394.11575	21918.625
1397.57339	22012.325
1401.0287	22322.025
1404.48168	22572.825
1407.93234	22472.025
1411.38068	22070.125
1414.82669	21524.725
1418.27039	20739.025
1421.71177	19867.425
1425.15083	19096.625
1428.58758	18717.425
1432.02203	18930.425
1435.45416	19431.325
1438.88399	19957.525
1442.31151	20266.225
1445.73673	20472.925
1449.15965	20661.625
1452.58027	20667.325
1455.9986	20528.025
1459.41463	20483.425
1462.82837	20854.725
1466.23982	21515.325
1469.64898	22224.125
1473.05586	22783.025
1476.46045	23267.925
1479.86276	23494.725
1483.26279	23579.325
1486.66054	23781.825
1490.05602	24192.025
1493.44922	24907.725
1496.84016	25765.925
1500.22882	27038.325
1503.61521	29044.425
1506.99934	31186.425
1510.38121	32653.725
1513.76081	32415.225
1517.13816	30324.225
1520.51324	27501.925
1523.88607	25266.425
1527.25665	24022.725
1530.62498	23511.725
1533.99105	23179.325
1537.35488	22745.925
1540.71647	22135.925
1544.07581	21438.625
1547.4329	20779.725
1550.78776	20183.025
1554.14038	19801.425
1557.49077	19634.425
1560.83892	19785.925
1564.18484	20167.425
1567.52853	20765.625
1570.86999	21334.425
1574.20922	21910.525
1577.54624	21976.725
1580.88103	21354.225
1584.2136	20535.025
1587.54395	20456.325
1590.87208	21305.725
1594.19801	22897.325
1597.52172	24784.425
1600.84321	25607.125
1604.16251	24587.425
1607.47959	22539.925
1610.79447	20260.425
1614.10715	18295.625
1617.41763	16743.825
1620.7259	15753.225
1624.03199	15265.525
1627.33587	15295.225
1630.63757	15766.525
1633.93707	16908.925
1637.23439	19012.225
1640.52951	22367.825
1643.82246	26673.225
1647.11321	30599.825
1650.40179	31844.525
1653.68819	29390.625
1656.97241	24558.725
1660.25446	19939.525
1663.53433	16698.125
1666.81203	14754.525
1670.08756	13626.525
1673.36092	12908.925
1676.63211	12419.925
1679.90115	12152.025
1683.16801	11890.525
1686.43272	11733.425
1689.69527	11563.725
1692.95567	11466.825
1696.2139	11373.325
1699.46999	11312.125
1702.72392	11218.525
1705.97571	11194.525
1709.22535	11145.725
1712.47284	11131.225
1715.71819	11096.425
1718.96139	11026.925
1722.20246	10964.925
1725.44139	10905.325
1728.67818	10830.725
1731.91284	10734.925
1735.14537	10655.525
1738.37576	10604.125
1741.60403	10541.725
1744.83017	10486.625
1748.05418	10472.625
1751.27607	10430.425
1754.49584	10421.525
1757.71349	10393.325
1760.92903	10361.525
1764.14244	10384.925
1767.35375	10327.225
1770.56294	10266.025
1773.77002	10256.725
1776.97499	10210.625
1780.17785	10186.225
1783.37861	10180.625
1786.57727	10141.425
1789.77382	10098.825
1792.96828	10103.125
1796.16064	10026.725
1799.3509	10017.825
1802.53907	10022.025
1805.72514	9952.525
1808.90913	9930.225
1812.09102	9890.625
1815.27083	9847.125
1818.44856	9832.825
1821.6242	9837.025
1824.79776	9791.425
1827.96924	9751.525
1831.13864	9727.625
1834.30597	9737.925
1837.47122	9711.725
1840.6344	9675.725
1843.7955	9666.125
1846.95454	9665.025
1850.11151	9644.825
1853.26642	9656.325
1856.41926	9650.925
1859.57004	9625.725
1862.71876	9614.925
1865.86542	9595.825
1869.01003	9600.225
1872.15258	9582.025
1875.29308	9574.125
1878.43152	9559.225
1881.56792	9573.225
1884.70227	9565.025
1887.83457	9571.925
1890.96482	9559.725
1894.09304	9540.525
1897.21921	9537.325
1900.34335	9497.025
1903.46544	9499.025
1906.58551	9519.425
1909.70353	9489.925
1912.81953	9470.325
1915.93349	9436.325
1919.04543	9433.525
1922.15534	9399.125
1925.26322	9373.225
1928.36908	9348.125
1931.47292	9308.125
1934.57473	9294.725
1937.67453	9250.725
1940.77232	9249.825
1943.86808	9200.625
1946.96184	9161.025
1950.05358	9128.725
1953.14331	9095.625
1956.23103	9073.425
1959.31675	9057.425
1962.40046	9020.525
1965.48217	9000.625
1968.56188	8972.225
1971.63959	8940.725
1974.7153	8906.325
1977.78901	8880.425
1980.86073	8854.125
1983.93046	8842.925
1986.99819	8783.225
1990.06394	8763.825
1993.1277	8758.625
1996.18947	8707.525
1999.24925	8665.325
2002.30706	8622.425
2005.36288	8597.025
2008.41672	8542.925
2011.46859	8550.925
2014.51848	8515.725
2017.56639	8482.925
2020.61233	8459.825
2023.6563	8443.825
2026.6983	8395.025
2029.73833	8360.225
2032.7764	8346.925
2035.8125	8335.025
2038.84664	8317.825
2041.87881	8286.125
2044.90903	8293.025
2047.93729	8241.925
2050.96359	8236.025
2053.98794	8222.625
2057.01034	8210.225
2060.03078	8194.125
2063.04927	8172.725
2066.06582	8179.925
2069.08042	8166.225
2072.09307	8156.225
2075.10378	8159.325
2078.11255	8160.225
2081.11938	8160.525
2084.12426	8145.625
2087.12722	8158.925
2090.12824	8130.925
2093.12732	8135.025
2096.12447	8128.725
2099.11969	8140.025
2102.11299	8135.625
2105.10435	8133.125
2108.09379	8117.825
2111.08131	8124.225
2114.0669	8121.125
2117.05057	8130.925
2120.03233	8136.625
2123.01216	8113.225
2125.99008	8110.925
2128.96609	8123.125
2131.94018	8118.225
2134.91236	8096.625
2137.88263	8113.625
2140.851	8124.225
2143.81746	8132.325
2146.78201	8104.925
2149.74466	8090.225
2152.7054	8074.225
2155.66425	8063.725
2158.6212	8081.225
2161.57625	8060.125
2164.52941	8038.925
2167.48067	8043.025
2170.43004	8034.825
2173.37752	8044.525
2176.32311	8029.725
2179.26681	8006.125
2182.20863	8017.325
2185.14856	8017.625
2188.08661	8025.125
2191.02278	7980.925
2193.95707	8001.725
2196.88948	8003.125
2199.82001	7983.525
2202.74867	7971.925
2205.67545	7952.925
2208.60037	7959.825
2211.52341	7922.725
2214.44458	7917.325
2217.36388	7883.025
2220.28132	7872.425
2223.1969	7867.925
2226.11061	7845.525
2229.02246	7807.025
2231.93245	7795.925
2234.84058	7801.625
2237.74686	7807.825
2240.65128	7797.625
2243.55385	7772.925
2246.45456	7783.825
2249.35343	7766.125
2252.25044	7744.125
2255.14561	7733.825
2258.03893	7704.625
2260.93041	7697.325
2263.82004	7647.125
2266.70783	7639.025
2269.59378	7606.225
2272.4779	7594.725
2275.36017	7569.525
2278.24061	7577.225
2281.11922	7552.825
2283.996	7532.925
2286.87094	7518.525
2289.74405	7485.325
2292.61534	7490.725
2295.4848	7455.625
2298.35243	7477.625
2301.21824	7444.125
2304.08223	7439.125
2306.94439	7444.825
2309.80474	7431.925
2312.66327	7444.925
2315.51999	7407.625
2318.37489	7400.225
2321.22797	7386.725
2324.07925	7382.925
2326.92871	7370.925
2329.77637	7364.025
2332.62222	7357.325
2335.46626	7331.625
2338.3085	7331.625
2341.14893	7328.025
2343.98756	7329.425
2346.8244	7332.525
2349.65943	7324.025
2352.49267	7329.425
2355.32411	7333.725
2358.15376	7325.325
2360.98161	7347.625
2363.80768	7366.725
2366.63195	7359.825
2369.45444	7366.125
2372.27514	7341.425
2375.09405	7321.225
2377.91118	7319.825
2380.72652	7272.125
2383.54009	7251.525
2386.35187	7256.425
2389.16188	7221.125
2391.97011	7193.525
2394.77657	7176.825
2397.58125	7128.925
2400.38416	7133.425
2403.18529	7137.425
2405.98466	7127.125
2408.78226	7092.225
2411.57809	7090.825
2414.37216	7072.325
2417.16446	7085.725
2419.955	7064.525
2422.74378	7081.525
2425.5308	7037.225
2428.31606	7034.725
2431.09956	7029.425
2433.88131	7024.425
2436.6613	7039.725
2439.43954	7023.625
2442.21603	7005.725
2444.99077	7009.425
2447.76377	7017.825
2450.53501	7008.025
2453.30451	7032.625
2456.07226	7001.825
2458.83827	7006.325
2461.60254	7007.525
2464.36507	7039.525
2467.12586	6997.725
2469.88492	6980.025
2472.64224	6996.925
2475.39782	7011.325
2478.15167	7035.425
2480.90379	7024.525
2483.65417	7040.925
2486.40283	7045.325
2489.14976	7073.825
2491.89497	7049.125
2494.63845	7057.625
2497.3802	7023.925
2500.12024	7030.625
2502.85855	7014.325
2505.59514	7014.925
2508.33002	6965.025
2511.06318	6957.525
2513.79462	6944.725
2516.52435	6915.625
2519.25237	6929.125
2521.97867	6894.725
2524.70327	6891.325
2527.42616	6896.525
2530.14734	6880.725
2532.86681	6869.425
2535.58458	6859.925
2538.30065	6859.225
2541.01501	6899.125
2543.72768	6867.225
2546.43864	6857.425
2549.14791	6840.925
2551.85548	6833.525
2554.56136	6826.025
2557.26554	6808.025
2559.96803	6794.325
2562.66883	6802.425
2565.36794	6806.425
2568.06536	6793.825
2570.7611	6772.925
2573.45514	6753.025
2576.14751	6753.325
2578.83819	6740.525
2581.52719	6755.625
2584.21451	6722.725
2586.90015	6729.825
2589.58411	6712.225
2592.2664	6728.825
2594.94701	6720.425
2597.62594	6698.725
2600.30321	6674.125
2602.9788	6688.725
2605.65273	6686.125
2608.32498	6685.525
2610.99557	6657.825
2613.66449	6662.825
2616.33175	6691.525
2618.99734	6678.125
2621.66128	6680.725
2624.32355	6676.025
2626.98416	6662.125
2629.64311	6660.425
2632.30041	6641.125
2634.95605	6635.425
2637.61004	6635.425
2640.26238	6613.325
2642.91306	6618.925
2645.56209	6619.325
2648.20948	6622.425
2650.85521	6614.525
2653.4993	6630.425
2656.14175	6624.925
2658.78255	6634.825
2661.42171	6636.025
2664.05923	6651.425
2666.6951	6645.025
2669.32934	6671.125
2671.96194	6662.925
2674.59291	6681.525
2677.22224	6650.925
2679.84993	6659.725
2682.476	6639.525
2685.10043	6636.625
2687.72324	6620.825
2690.34441	6611.225
2692.96396	6620.625
2695.58188	6613.025
2698.19818	6611.425
2700.81285	6644.325
2703.4259	6620.925
2706.03733	6611.925
2708.64714	6624.225
2711.25533	6643.925
2713.86191	6635.725
2716.46687	6649.625
2719.07021	6639.025
2721.67194	6634.425
2724.27206	6652.525
2726.87057	6649.125
2729.46747	6638.225
2732.06276	6652.325
2734.65644	6639.325
2737.24852	6642.425
2739.83899	6603.725
2742.42786	6616.725
2745.01513	6611.225
2747.60079	6580.125
2750.18486	6585.825
2752.76733	6566.125
2755.3482	6577.525
2757.92747	6589.225
2760.50515	6568.125
2763.08123	6551.525
2765.65573	6546.925
2768.22863	6566.425
2770.79994	6564.525
2773.36967	6569.925
2775.9378	6560.325
2778.50435	6539.025
2781.06932	6533.725
2783.6327	6561.125
2786.1945	6558.325
2788.75471	6561.225
2791.31335	6562.125
2793.87041	6552.525
2796.42589	6526.725
2798.97979	6518.225
2801.53212	6522.825
2804.08288	6490.025
2806.63206	6465.625
2809.17967	6477.925
2811.72571	6476.325
2814.27018	6480.725
2816.81308	6472.625
2819.35442	6446.325
2821.89419	6445.125
2824.43239	6440.025
2826.96904	6423.225
2829.50412	6410.325
2832.03763	6399.725
2834.56959	6409.525
2837.1	6400.525
2839.62884	6422.925
2842.15613	6411.825
2844.68186	6424.925
2847.20604	6423.725
2849.72867	6429.725
2852.24974	6426.325
2854.76927	6407.925
2857.28724	6386.825
2859.80367	6388.825
2862.31855	6395.825
2864.83189	6401.325
2867.34368	6381.125
2869.85393	6395.925
2872.36264	6384.025
2874.8698	6373.725
2877.37543	6387.125
2879.87952	6378.325
2882.38207	6377.825
2884.88308	6366.025
2887.38256	6364.825
2889.88051	6365.125
2892.37692	6366.525
2894.8718	6370.125
2897.36515	6372.925
2899.85698	6358.225
2902.34727	6358.125
2904.83604	6372.225
2907.32328	6379.325
2909.809	6379.225
2912.29319	6396.525
2914.77587	6379.525
2917.25702	6364.725
2919.73665	6366.625
2922.21476	6355.125
2924.69136	6354.825
2927.16644	6351.225
2929.64	6337.925
2932.11205	6340.025
2934.58258	6301.625
2937.05161	6295.025
2939.51912	6303.825
2941.98513	6269.725
2944.44962	6251.325
2946.91261	6234.425
2949.37409	6245.725
2951.83407	6249.725
2954.29254	6242.025
2956.74951	6254.025
2959.20498	6250.225
2961.65895	6245.425
2964.11142	6234.925
2966.56239	6215.525
2969.01186	6190.725
2971.45984	6189.625
2973.90632	6162.225
2976.35131	6150.125
2978.7948	6125.625
2981.23681	6111.525
2983.67732	6095.425
2986.11635	6067.425
2988.55388	6055.625
2990.98993	6048.625
2993.4245	6022.925
2995.85758	6009.625
2998.28917	6005.025
3000.71928	6002.425
3003.14791	5994.125
3005.57506	5976.425
3008.00073	5963.525
3010.42493	5964.925
3012.84764	5962.325
3015.26888	5946.625
3017.68865	5925.625
3020.10694	5931.525
3022.52376	5908.325
3024.9391	5880.625
3027.35298	5880.325
3029.76539	5870.425
3032.17632	5858.425
3034.5858	5844.225
3036.9938	5848.725
3039.40034	5828.425
3041.80542	5837.625
3044.20903	5813.825
3046.61118	5817.725
3049.01187	5792.425
3051.4111	5789.325
3053.80888	5779.625
3056.20519	5767.125
3058.60005	5738.625
3060.99345	5723.225
3063.3854	5725.025
3065.7759	5688.825
3068.16494	5700.625
3070.55254	5670.425
3072.93868	5669.625
3075.32338	5653.425
3077.70662	5629.025
3080.08842	5615.625
3082.46878	5618.425
3084.84769	5605.325
3087.22515	5614.425
3089.60118	5613.925
3091.97576	5597.825
3094.3489	5610.125
3096.72061	5592.225
3099.09087	5603.425
3101.4597	5598.725
3103.82709	5593.425
3106.19305	5581.425
3108.55757	5587.425
3110.92066	5554.925
3113.28232	5551.325
3115.64255	5529.125
3118.00134	5512.625
3120.35871	5498.425
3122.71466	5493.725
3125.06917	5481.125
3127.42226	5486.825
3129.77393	5463.825
3132.12417	5476.725
3134.47299	5476.725
3136.82039	5469.325
3139.16636	5469.425
3141.51092	5450.425
3143.85406	5458.025
3146.19579	5450.225
3148.53609	5465.625
3150.87499	5460.925
3153.21246	5454.125
3155.54853	5473.625
3157.88318	5468.825
3160.21642	5475.625
3162.54826	5461.225
3164.87868	5456.025
3167.2077	5452.625
3169.5353	5474.325
3171.86151	5458.425
3174.18631	5445.425
3176.5097	5464.025
3178.83169	5442.825
3181.15228	5429.925
3183.47147	5414.525
3185.78926	5414.925
