Data from AgNP_FTO_APTES_UA_100uM_CRN_1uM_R6G_10uM_NaF_0.1M_Addition_RamanShift__22__12-13-50-182.txt Node

Date: Thu Mar 24 12:13:50 GMT 2022
User: TCL
Spectrometer: QEP01345
Trigger mode: 4
Integration Time (sec): 7.000000E0
Scans to average: 10
Electric dark correction enabled: true
Nonlinearity correction enabled: false
Boxcar width: 0
XAxis mode: Raman Shifts
Number of Pixels in Spectrum: 1044
>>>>>Begin Spectral Data<<<<<
46.04893	-1.7375
50.45542	1.0625
54.85868	0.5625
59.25871	0.2625
63.6555	54.8625
68.04907	55.3625
72.43941	55.8625
76.82654	55.1625
81.21044	58.0625
85.59113	61.7625
89.96862	65.8625
94.34289	65.6625
98.71396	68.2625
103.08183	67.9625
107.4465	70.3625
111.80798	73.8625
116.16626	76.0625
120.52136	76.5625
124.87327	81.3625
129.222	85.1625
133.56755	92.2625
137.90993	97.5625
142.24913	111.1625
146.58517	123.3625
150.91804	143.3625
155.24774	176.9625
159.57429	224.8625
163.89768	281.7625
168.21792	384.5625
172.53501	523.8625
176.84895	732.8625
181.15975	1030.5625
185.46741	1436.1625
189.77193	1985.6625
194.07331	2656.9625
198.37157	3425.9625
202.6667	4243.4625
206.9587	5067.6625
211.24758	5934.7625
215.53334	6820.7625
219.81599	7838.9625
224.09553	8946.8625
228.37195	10196.5625
232.64527	11559.9625
236.91549	12905.2625
241.18261	14179.6625
245.44663	15179.9625
249.70755	15948.0625
253.96539	16587.2625
258.22014	17198.5625
262.4718	17745.7625
266.72039	18088.8625
270.96589	18183.0625
275.20832	17997.8625
279.44768	17811.3625
283.68397	17583.2625
287.91719	17480.9625
292.14735	17535.5625
296.37445	17798.5625
300.59849	18328.3625
304.81948	18926.3625
309.03742	19409.9625
313.25231	19402.0625
317.46415	18774.3625
321.67296	17683.2625
325.87872	16674.3625
330.08145	16160.8625
334.28114	16099.5625
338.47781	16284.5625
342.67145	16671.5625
346.86207	17203.5625
351.04966	17994.7625
355.23424	18830.9625
359.4158	19483.6625
363.59435	19808.4625
367.76989	19823.7625
371.94243	19767.6625
376.11196	19662.0625
380.27849	19584.0625
384.44203	19456.1625
388.60257	19349.0625
392.76012	19296.7625
396.91468	19450.2625
401.06626	19828.2625
405.21485	20112.3625
409.36047	19786.8625
413.50311	18914.4625
417.64277	18166.2625
421.77947	17830.0625
425.9132	17751.9625
430.04396	17851.7625
434.17176	18043.6625
438.2966	18359.3625
442.41849	18977.1625
446.53742	19916.8625
450.6534	20786.2625
454.76644	21262.7625
458.87653	21210.8625
462.98368	20702.5625
467.08789	20177.2625
471.18916	19657.2625
475.2875	19129.9625
479.38291	18768.5625
483.4754	18464.2625
487.56496	18142.5625
491.6516	17706.6625
495.73531	17380.0625
499.81612	17253.6625
503.89401	17380.2625
507.96899	17524.6625
512.04106	17567.0625
516.11023	17575.5625
520.1765	17498.8625
524.23987	17430.6625
528.30034	17334.9625
532.35792	17189.1625
536.41261	16850.9625
540.46441	16428.9625
544.51333	16241.2625
548.55936	16467.5625
552.60252	17104.9625
556.64279	17947.4625
560.6802	18604.4625
564.71473	19027.5625
568.7464	19931.7625
572.7752	20837.8625
576.80114	20827.1625
580.82422	20482.6625
584.84444	20568.0625
588.86181	21297.7625
592.87633	22395.5625
596.888	22741.7625
600.89682	22074.8625
604.9028	22996.9625
608.90594	27851.4625
612.90624	33968.3625
616.90371	31764.1625
620.89834	22362.7625
624.89015	17802.4625
628.87913	17025.1625
632.86528	17254.1625
636.84862	17443.3625
640.82913	17034.5625
644.80683	16068.8625
648.78172	15318.8625
652.75379	15281.0625
656.72306	15906.9625
660.68952	16724.7625
664.65319	16545.4625
668.61405	15658.8625
672.57211	15371.5625
676.52738	15393.7625
680.47986	15316.9625
684.42955	15090.7625
688.37646	14939.1625
692.32058	15000.3625
696.26192	15293.6625
700.20048	15644.5625
704.13626	15872.8625
708.06928	15841.7625
711.99952	15702.4625
715.927	15654.3625
719.85171	15754.5625
723.77365	15740.4625
727.69284	15561.5625
731.60928	15313.7625
735.52295	15315.9625
739.43388	15435.5625
743.34206	15556.6625
747.24749	15670.3625
751.15017	15817.9625
755.05012	16231.0625
758.94733	17230.9625
762.8418	19541.1625
766.73354	23365.9625
770.62254	26978.8625
774.50882	28030.3625
778.39237	26194.5625
782.27321	22468.8625
786.15132	19031.8625
790.02671	16885.4625
793.89938	15873.6625
797.76935	15382.8625
801.6366	15222.5625
805.50115	15126.0625
809.36299	14950.0625
813.22213	14794.4625
817.07857	14748.1625
820.93231	14675.2625
824.78336	14654.8625
828.63172	14642.7625
832.47738	14695.3625
836.32036	14654.1625
840.16066	14603.0625
843.99827	14595.8625
847.8332	14529.1625
851.66546	14512.6625
855.49504	14540.4625
859.32195	14512.3625
863.1462	14426.9625
866.96777	14375.8625
870.78668	14300.7625
874.60293	14334.5625
878.41652	14414.5625
882.22745	14533.6625
886.03573	14655.9625
889.84136	14642.8625
893.64433	14542.0625
897.44466	14484.2625
901.24235	14401.4625
905.0374	14279.9625
908.8298	14144.0625
912.61957	14105.3625
916.40671	14216.4625
920.19121	14524.2625
923.97308	14812.9625
927.75233	14973.8625
931.52895	14966.8625
935.30295	14632.6625
939.07433	14122.7625
942.84309	13676.2625
946.60924	13502.9625
950.37278	13440.6625
954.13371	13416.8625
957.89203	13370.3625
961.64774	13311.0625
965.40086	13307.9625
969.15137	13267.7625
972.89929	13161.0625
976.64461	13129.8625
980.38733	13117.9625
984.12747	13185.6625
987.86502	13297.8625
991.59999	13506.6625
995.33237	13871.8625
999.06217	14497.2625
1002.78939	15279.1625
1006.51404	15943.7625
1010.23611	16391.7625
1013.95561	16669.5625
1017.67255	16614.4625
1021.38692	16174.8625
1025.09872	15579.6625
1028.80796	15301.2625
1032.51465	15453.2625
1036.21877	15750.6625
1039.92035	15933.3625
1043.61937	15860.6625
1047.31584	15682.7625
1051.00976	15450.1625
1054.70114	15266.6625
1058.38998	15226.4625
1062.07627	15325.1625
1065.76003	15469.9625
1069.44126	15687.2625
1073.11995	15998.0625
1076.79611	16346.0625
1080.46974	16726.0625
1084.14085	17267.1625
1087.80943	17780.1625
1091.47549	18055.2625
1095.13903	17786.2625
1098.80005	17173.0625
1102.45857	16557.2625
1106.11456	16243.0625
1109.76805	16351.8625
1113.41903	16710.9625
1117.06751	17339.3625
1120.71348	18131.2625
1124.35696	19015.2625
1127.99793	19661.0625
1131.63641	19413.9625
1135.2724	18615.6625
1138.90589	17954.0625
1142.5369	17549.1625
1146.16542	17367.7625
1149.79145	17300.8625
1153.415	17432.2625
1157.03607	17726.0625
1160.65467	18416.5625
1164.27079	19503.9625
1167.88443	21186.6625
1171.49561	23689.7625
1175.10432	27251.0625
1178.71056	31861.4625
1182.31434	35843.4625
1185.91565	37047.1625
1189.51451	35953.8625
1193.11091	33729.2625
1196.70485	31150.1625
1200.29634	28830.5625
1203.88538	26835.1625
1207.47197	25043.0625
1211.05612	23500.7625
1214.63782	22684.7625
1218.21708	22623.6625
1221.79391	22918.5625
1225.36829	22984.7625
1228.94024	22515.3625
1232.50976	21615.4625
1236.07685	20829.3625
1239.6415	20448.8625
1243.20374	20366.4625
1246.76355	20471.6625
1250.32093	20815.3625
1253.8759	21448.7625
1257.42845	22314.2625
1260.97859	23394.6625
1264.52631	24547.1625
1268.07163	25697.2625
1271.61453	26704.6625
1275.15503	27773.4625
1278.69312	28579.4625
1282.22882	29494.0625
1285.76211	30712.2625
1289.29301	32218.3625
1292.82151	34113.6625
1296.34761	36333.3625
1299.87133	39413.8625
1303.39266	43442.9625
1306.9116	48639.6625
1310.42815	53975.5625
1313.94233	56715.6625
1317.45412	55483.7625
1320.96354	52117.2625
1324.47058	48427.2625
1327.97525	45344.2625
1331.47754	43334.1625
1334.97747	42366.9625
1338.47502	42333.3625
1341.97022	42600.8625
1345.46305	43104.7625
1348.95352	44036.6625
1352.44163	45831.2625
1355.92738	49392.4625
1359.41078	55340.2625
1362.89183	60494.1625
1366.37053	58303.2625
1369.84688	49427.5625
1373.32088	40704.0625
1376.79254	35535.3625
1380.26186	33174.1625
1383.72883	32101.4625
1387.19347	31428.8625
1390.65578	30928.6625
1394.11575	30896.4625
1397.57339	31434.0625
1401.0287	32258.8625
1404.48168	32813.4625
1407.93234	32942.4625
1411.38068	32443.8625
1414.82669	31429.8625
1418.27039	29979.8625
1421.71177	28315.6625
1425.15083	26907.6625
1428.58758	26352.9625
1432.02203	26703.0625
1435.45416	27500.2625
1438.88399	28154.2625
1442.31151	28611.6625
1445.73673	29071.1625
1449.15965	29469.0625
1452.58027	29635.5625
1455.9986	29701.0625
1459.41463	29990.6625
1462.82837	30674.8625
1466.23982	31636.2625
1469.64898	32409.7625
1473.05586	32712.1625
1476.46045	32715.9625
1479.86276	32533.4625
1483.26279	32446.3625
1486.66054	32800.9625
1490.05602	33560.0625
1493.44922	34695.7625
1496.84016	36294.5625
1500.22882	38980.3625
1503.61521	43025.7625
1506.99934	47620.9625
1510.38121	50892.6625
1513.76081	51020.7625
1517.13816	47199.2625
1520.51324	41672.9625
1523.88607	37163.8625
1527.25665	34583.5625
1530.62498	33448.3625
1533.99105	32943.2625
1537.35488	32406.4625
1540.71647	31716.5625
1544.07581	30886.7625
1547.4329	29979.3625
1550.78776	29187.7625
1554.14038	28691.1625
1557.49077	28483.7625
1560.83892	28762.7625
1564.18484	29358.7625
1567.52853	30137.3625
1570.86999	30870.1625
1574.20922	31433.9625
1577.54624	31425.1625
1580.88103	30229.4625
1584.2136	28842.9625
1587.54395	28756.5625
1590.87208	30311.3625
1594.19801	33256.1625
1597.52172	36624.1625
1600.84321	38071.4625
1604.16251	36410.2625
1607.47959	32880.4625
1610.79447	28859.7625
1614.10715	25301.2625
1617.41763	22572.8625
1620.7259	20792.6625
1624.03199	19958.7625
1627.33587	19966.3625
1630.63757	20900.5625
1633.93707	22870.7625
1637.23439	26312.8625
1640.52951	31608.7625
1643.82246	38327.9625
1647.11321	44414.2625
1650.40179	46492.9625
1653.68819	42573.5625
1656.97241	34697.2625
1660.25446	27100.5625
1663.53433	21739.1625
1666.81203	18537.2625
1670.08756	16740.3625
1673.36092	15597.8625
1676.63211	14897.1625
1679.90115	14392.9625
1683.16801	14020.6625
1686.43272	13797.4625
1689.69527	13613.2625
1692.95567	13454.2625
1696.2139	13340.2625
1699.46999	13251.9625
1702.72392	13192.1625
1705.97571	13164.8625
1709.22535	13095.4625
1712.47284	13102.5625
1715.71819	13061.7625
1718.96139	13003.7625
1722.20246	12946.7625
1725.44139	12834.2625
1728.67818	12689.0625
1731.91284	12570.2625
1735.14537	12442.0625
1738.37576	12345.4625
1741.60403	12280.3625
1744.83017	12255.2625
1748.05418	12212.0625
1751.27607	12128.0625
1754.49584	12099.2625
1757.71349	12065.5625
1760.92903	12051.6625
1764.14244	12025.2625
1767.35375	12008.6625
1770.56294	11994.5625
1773.77002	11942.2625
1776.97499	11892.6625
1780.17785	11866.0625
1783.37861	11843.3625
1786.57727	11798.3625
1789.77382	11779.4625
1792.96828	11765.0625
1796.16064	11725.5625
1799.3509	11705.6625
1802.53907	11665.0625
1805.72514	11616.6625
1808.90913	11566.4625
1812.09102	11566.0625
1815.27083	11523.7625
1818.44856	11473.4625
1821.6242	11458.3625
1824.79776	11408.5625
1827.96924	11432.0625
1831.13864	11401.3625
1834.30597	11405.1625
1837.47122	11379.9625
1840.6344	11354.7625
1843.7955	11384.3625
1846.95454	11340.6625
1850.11151	11365.0625
1853.26642	11352.8625
1856.41926	11379.5625
1859.57004	11354.5625
1862.71876	11334.9625
1865.86542	11353.1625
1869.01003	11339.6625
1872.15258	11322.9625
1875.29308	11344.3625
1878.43152	11359.7625
1881.56792	11333.3625
1884.70227	11352.7625
1887.83457	11359.7625
1890.96482	11355.4625
1894.09304	11332.0625
1897.21921	11351.0625
1900.34335	11341.8625
1903.46544	11367.5625
1906.58551	11346.6625
1909.70353	11327.2625
1912.81953	11314.7625
1915.93349	11262.0625
1919.04543	11239.4625
1922.15534	11213.9625
1925.26322	11147.0625
1928.36908	11098.1625
1931.47292	11066.3625
1934.57473	11047.4625
1937.67453	11015.9625
1940.77232	10953.3625
1943.86808	10908.8625
1946.96184	10865.7625
1950.05358	10852.4625
1953.14331	10850.9625
1956.23103	10804.0625
1959.31675	10789.3625
1962.40046	10740.4625
1965.48217	10730.3625
1968.56188	10725.2625
1971.63959	10727.2625
1974.7153	10678.8625
1977.78901	10641.0625
1980.86073	10596.0625
1983.93046	10542.8625
1986.99819	10499.7625
1990.06394	10459.3625
1993.1277	10428.7625
1996.18947	10401.7625
1999.24925	10338.1625
2002.30706	10329.7625
2005.36288	10264.7625
2008.41672	10241.7625
2011.46859	10208.4625
2014.51848	10191.1625
2017.56639	10124.4625
2020.61233	10123.9625
2023.6563	10079.1625
2026.6983	10080.1625
2029.73833	10056.8625
2032.7764	10040.4625
2035.8125	10020.0625
2038.84664	9995.8625
2041.87881	9991.7625
2044.90903	9984.7625
2047.93729	9953.3625
2050.96359	9913.3625
2053.98794	9907.6625
2057.01034	9893.9625
2060.03078	9871.3625
2063.04927	9853.7625
2066.06582	9832.8625
2069.08042	9827.0625
2072.09307	9821.2625
2075.10378	9807.5625
2078.11255	9807.5625
2081.11938	9811.2625
2084.12426	9804.7625
2087.12722	9799.9625
2090.12824	9802.3625
2093.12732	9798.2625
2096.12447	9789.9625
2099.11969	9814.4625
2102.11299	9826.0625
2105.10435	9810.5625
2108.09379	9796.8625
2111.08131	9819.9625
2114.0669	9830.4625
2117.05057	9820.8625
2120.03233	9818.0625
2123.01216	9837.8625
2125.99008	9834.6625
2128.96609	9821.9625
2131.94018	9828.4625
2134.91236	9834.8625
2137.88263	9812.2625
2140.851	9813.4625
2143.81746	9839.3625
2146.78201	9845.4625
2149.74466	9841.3625
2152.7054	9822.1625
2155.66425	9804.3625
2158.6212	9784.3625
2161.57625	9751.5625
2164.52941	9746.9625
2167.48067	9759.1625
2170.43004	9750.1625
2173.37752	9767.3625
2176.32311	9758.1625
2179.26681	9792.6625
2182.20863	9777.7625
2185.14856	9756.1625
2188.08661	9754.0625
2191.02278	9762.6625
2193.95707	9738.2625
2196.88948	9724.0625
2199.82001	9714.5625
2202.74867	9706.9625
2205.67545	9701.6625
2208.60037	9678.7625
2211.52341	9682.4625
2214.44458	9682.1625
2217.36388	9641.3625
2220.28132	9636.3625
2223.1969	9617.7625
2226.11061	9586.2625
2229.02246	9596.4625
2231.93245	9564.2625
2234.84058	9551.7625
2237.74686	9524.0625
2240.65128	9523.0625
2243.55385	9513.9625
2246.45456	9497.6625
2249.35343	9487.4625
2252.25044	9462.4625
2255.14561	9473.3625
2258.03893	9474.9625
2260.93041	9466.4625
2263.82004	9453.9625
2266.70783	9384.6625
2269.59378	9384.1625
2272.4779	9333.3625
2275.36017	9327.0625
2278.24061	9301.7625
2281.11922	9303.1625
2283.996	9285.9625
2286.87094	9275.3625
2289.74405	9240.9625
2292.61534	9228.7625
2295.4848	9235.6625
2298.35243	9206.0625
2301.21824	9204.5625
2304.08223	9224.7625
2306.94439	9208.7625
2309.80474	9204.7625
2312.66327	9228.8625
2315.51999	9232.3625
2318.37489	9232.8625
2321.22797	9228.6625
2324.07925	9192.5625
2326.92871	9213.7625
2329.77637	9220.5625
2332.62222	9204.0625
2335.46626	9194.6625
2338.3085	9203.2625
2341.14893	9211.6625
2343.98756	9254.4625
2346.8244	9260.0625
2349.65943	9262.2625
2352.49267	9255.3625
2355.32411	9276.7625
2358.15376	9294.4625
2360.98161	9274.7625
2363.80768	9281.4625
2366.63195	9290.7625
2369.45444	9288.9625
2372.27514	9269.6625
2375.09405	9269.0625
2377.91118	9242.8625
2380.72652	9206.0625
2383.54009	9146.8625
2386.35187	9123.5625
2389.16188	9104.9625
2391.97011	9082.4625
2394.77657	9052.8625
2397.58125	9032.2625
2400.38416	8995.1625
2403.18529	8963.7625
2405.98466	8977.6625
2408.78226	8961.2625
2411.57809	8924.5625
2414.37216	8917.8625
2417.16446	8923.0625
2419.955	8915.6625
2422.74378	8910.9625
2425.5308	8889.9625
2428.31606	8885.5625
2431.09956	8884.3625
2433.88131	8877.5625
2436.6613	8886.8625
2439.43954	8894.8625
2442.21603	8892.4625
2444.99077	8926.0625
2447.76377	8932.8625
2450.53501	8927.3625
2453.30451	8927.6625
2456.07226	8916.1625
2458.83827	8935.3625
2461.60254	8932.5625
2464.36507	8954.9625
2467.12586	8934.6625
2469.88492	8925.3625
2472.64224	8955.1625
2475.39782	8963.7625
2478.15167	8972.8625
2480.90379	8970.0625
2483.65417	9015.1625
2486.40283	9047.1625
2489.14976	9045.7625
2491.89497	9078.6625
2494.63845	9069.5625
2497.3802	9066.5625
2500.12024	9084.0625
2502.85855	9082.5625
2505.59514	9055.2625
2508.33002	9029.4625
2511.06318	8977.2625
2513.79462	8960.2625
2516.52435	8951.6625
2519.25237	8941.0625
2521.97867	8916.5625
2524.70327	8902.8625
2527.42616	8898.0625
2530.14734	8906.5625
2532.86681	8877.9625
2535.58458	8874.7625
2538.30065	8890.8625
2541.01501	8892.9625
2543.72768	8884.5625
2546.43864	8879.1625
2549.14791	8864.6625
2551.85548	8872.0625
2554.56136	8891.1625
2557.26554	8839.1625
2559.96803	8871.3625
2562.66883	8871.6625
2565.36794	8873.7625
2568.06536	8859.8625
2570.7611	8860.3625
2573.45514	8841.4625
2576.14751	8828.9625
2578.83819	8839.2625
2581.52719	8854.6625
2584.21451	8858.5625
2586.90015	8840.5625
2589.58411	8809.7625
2592.2664	8821.3625
2594.94701	8827.7625
2597.62594	8811.0625
2600.30321	8796.9625
2602.9788	8800.7625
2605.65273	8813.5625
2608.32498	8809.5625
2610.99557	8823.1625
2613.66449	8866.7625
2616.33175	8833.0625
2618.99734	8873.4625
2621.66128	8884.4625
2624.32355	8885.7625
2626.98416	8878.4625
2629.64311	8900.8625
2632.30041	8870.3625
2634.95605	8879.5625
2637.61004	8854.8625
2640.26238	8836.3625
2642.91306	8862.1625
2645.56209	8850.3625
2648.20948	8851.4625
2650.85521	8837.2625
2653.4993	8824.1625
2656.14175	8846.1625
2658.78255	8882.7625
2661.42171	8858.3625
2664.05923	8889.5625
2666.6951	8900.8625
2669.32934	8902.7625
2671.96194	8904.1625
2674.59291	8922.9625
2677.22224	8921.7625
2679.84993	8917.9625
2682.476	8885.9625
2685.10043	8919.9625
2687.72324	8897.4625
2690.34441	8886.3625
2692.96396	8884.3625
2695.58188	8859.3625
2698.19818	8891.0625
2700.81285	8873.3625
2703.4259	8879.4625
2706.03733	8868.7625
2708.64714	8892.4625
2711.25533	8878.6625
2713.86191	8895.1625
2716.46687	8909.2625
2719.07021	8921.4625
2721.67194	8927.5625
2724.27206	8912.5625
2726.87057	8915.6625
2729.46747	8925.0625
2732.06276	8944.3625
2734.65644	8922.0625
2737.24852	8924.3625
2739.83899	8917.7625
2742.42786	8914.0625
2745.01513	8911.8625
2747.60079	8882.4625
2750.18486	8897.5625
2752.76733	8902.2625
2755.3482	8895.3625
2757.92747	8902.4625
2760.50515	8884.5625
2763.08123	8911.2625
2765.65573	8895.7625
2768.22863	8911.3625
2770.79994	8899.6625
2773.36967	8910.8625
2775.9378	8895.0625
2778.50435	8913.6625
2781.06932	8905.6625
2783.6327	8895.0625
2786.1945	8894.7625
2788.75471	8866.1625
2791.31335	8894.9625
2793.87041	8902.1625
2796.42589	8864.1625
2798.97979	8869.0625
2801.53212	8851.6625
2804.08288	8875.1625
2806.63206	8876.5625
2809.17967	8862.3625
2811.72571	8857.2625
2814.27018	8867.3625
2816.81308	8860.7625
2819.35442	8860.9625
2821.89419	8839.6625
2824.43239	8859.3625
2826.96904	8850.6625
2829.50412	8852.5625
2832.03763	8848.7625
2834.56959	8835.3625
2837.1	8848.5625
2839.62884	8811.7625
2842.15613	8820.1625
2844.68186	8833.0625
2847.20604	8825.6625
2849.72867	8819.3625
2852.24974	8835.4625
2854.76927	8821.8625
2857.28724	8815.5625
2859.80367	8851.9625
2862.31855	8836.0625
2864.83189	8830.4625
2867.34368	8852.0625
2869.85393	8857.3625
2872.36264	8872.1625
2874.8698	8887.9625
2877.37543	8867.3625
2879.87952	8883.3625
2882.38207	8869.4625
2884.88308	8872.7625
2887.38256	8865.4625
2889.88051	8856.6625
2892.37692	8868.4625
2894.8718	8859.4625
2897.36515	8898.9625
2899.85698	8876.6625
2902.34727	8889.1625
2904.83604	8910.8625
2907.32328	8906.3625
2909.809	8897.6625
2912.29319	8900.0625
2914.77587	8884.0625
2917.25702	8882.7625
2919.73665	8861.9625
2922.21476	8854.7625
2924.69136	8847.2625
2927.16644	8841.6625
2929.64	8798.5625
2932.11205	8797.8625
2934.58258	8752.8625
2937.05161	8755.6625
2939.51912	8759.5625
2941.98513	8750.9625
2944.44962	8721.1625
2946.91261	8701.9625
2949.37409	8717.6625
2951.83407	8712.7625
2954.29254	8718.9625
2956.74951	8688.9625
2959.20498	8658.9625
2961.65895	8627.9625
2964.11142	8625.5625
2966.56239	8601.1625
2969.01186	8582.0625
2971.45984	8557.1625
2973.90632	8541.9625
2976.35131	8516.9625
2978.7948	8484.1625
2981.23681	8443.9625
2983.67732	8430.8625
2986.11635	8419.6625
2988.55388	8398.3625
2990.98993	8375.4625
2993.4245	8347.2625
2995.85758	8349.7625
2998.28917	8339.4625
3000.71928	8319.7625
3003.14791	8319.4625
3005.57506	8298.7625
3008.00073	8273.0625
3010.42493	8299.5625
3012.84764	8251.1625
3015.26888	8252.9625
3017.68865	8209.9625
3020.10694	8212.3625
3022.52376	8176.2625
3024.9391	8153.4625
3027.35298	8154.6625
3029.76539	8137.0625
3032.17632	8121.9625
3034.5858	8094.3625
3036.9938	8098.4625
3039.40034	8101.0625
3041.80542	8104.6625
3044.20903	8060.9625
3046.61118	8055.6625
3049.01187	8028.8625
3051.4111	8026.6625
3053.80888	7985.7625
3056.20519	7954.8625
3058.60005	7914.0625
3060.99345	7913.8625
3063.3854	7906.9625
3065.7759	7874.1625
3068.16494	7870.6625
