Data from AgNP_FTO_APTES_UA_100uM_CRN_100uM_R6G_10uM_NaF_0.1M_Addition_RamanShift__13__18-02-40-580.txt Node

Date: Thu Mar 24 18:02:40 GMT 2022
User: TCL
Spectrometer: QEP01345
Trigger mode: 4
Integration Time (sec): 7.000000E0
Scans to average: 10
Electric dark correction enabled: true
Nonlinearity correction enabled: false
Boxcar width: 0
XAxis mode: Raman Shifts
Number of Pixels in Spectrum: 1044
>>>>>Begin Spectral Data<<<<<
46.04893	-1.825
50.45542	0.175
54.85868	-0.625
59.25871	1.075
63.6555	30.375
68.04907	33.975
72.43941	33.075
76.82654	34.375
81.21044	39.875
85.59113	38.375
89.96862	42.175
94.34289	39.675
98.71396	44.475
103.08183	43.775
107.4465	45.275
111.80798	50.775
116.16626	45.775
120.52136	49.175
124.87327	46.175
129.222	51.775
133.56755	50.275
137.90993	56.875
142.24913	62.675
146.58517	68.575
150.91804	78.375
155.24774	90.275
159.57429	108.475
163.89768	134.175
168.21792	180.475
172.53501	240.475
176.84895	341.975
181.15975	472.075
185.46741	656.775
189.77193	910.375
194.07331	1219.875
198.37157	1584.675
202.6667	1960.175
206.9587	2330.875
211.24758	2717.775
215.53334	3093.575
219.81599	3508.875
224.09553	3970.175
228.37195	4486.375
232.64527	5039.775
236.91549	5616.875
241.18261	6169.475
245.44663	6643.975
249.70755	7055.275
253.96539	7403.475
258.22014	7682.175
262.4718	7935.175
266.72039	8099.475
270.96589	8169.075
275.20832	8184.875
279.44768	8096.075
283.68397	7998.075
287.91719	7943.875
292.14735	7915.475
296.37445	7978.675
300.59849	8081.175
304.81948	8272.375
309.03742	8359.975
313.25231	8361.375
317.46415	8191.575
321.67296	7874.275
325.87872	7590.775
330.08145	7435.075
334.28114	7417.975
338.47781	7508.075
342.67145	7620.375
346.86207	7773.275
351.04966	8019.675
355.23424	8248.775
359.4158	8412.075
363.59435	8507.975
367.76989	8572.675
371.94243	8547.475
376.11196	8568.075
380.27849	8560.275
384.44203	8517.675
388.60257	8521.175
392.76012	8576.075
396.91468	8682.575
401.06626	8829.275
405.21485	8919.775
409.36047	8830.575
413.50311	8576.875
417.64277	8369.175
421.77947	8226.475
425.9132	8196.075
430.04396	8197.875
434.17176	8232.475
438.2966	8289.875
442.41849	8418.475
446.53742	8603.275
450.6534	8768.675
454.76644	8898.175
458.87653	8910.175
462.98368	8867.475
467.08789	8785.675
471.18916	8708.175
475.2875	8610.975
479.38291	8517.775
483.4754	8410.175
487.56496	8344.275
491.6516	8295.575
495.73531	8250.975
499.81612	8243.875
503.89401	8291.475
507.96899	8322.075
512.04106	8351.675
516.11023	8384.975
520.1765	8374.075
524.23987	8355.775
528.30034	8317.075
532.35792	8255.375
536.41261	8186.175
540.46441	8089.875
544.51333	8029.175
548.55936	8082.475
552.60252	8248.275
556.64279	8421.075
560.6802	8502.375
564.71473	8543.275
568.7464	8683.075
572.7752	8869.675
576.80114	8975.975
580.82422	9063.275
584.84444	9205.975
588.86181	9348.175
592.87633	9508.275
596.888	9581.075
600.89682	9595.775
604.9028	9998.375
608.90594	11350.475
612.90624	13106.575
616.90371	12455.375
620.89834	9780.475
624.89015	8483.475
628.87913	8286.775
632.86528	8469.175
636.84862	8638.375
640.82913	8560.775
644.80683	8266.275
648.78172	8002.375
652.75379	7926.975
656.72306	8080.775
660.68952	8298.775
664.65319	8261.275
668.61405	7979.475
672.57211	7883.875
676.52738	7886.375
680.47986	7877.175
684.42955	7798.275
688.37646	7770.975
692.32058	7770.375
696.26192	7825.475
700.20048	7908.575
704.13626	7962.575
708.06928	8005.875
711.99952	7978.175
715.927	7949.575
719.85171	7955.475
723.77365	7974.275
727.69284	7948.275
731.60928	7872.275
735.52295	7903.075
739.43388	7857.275
743.34206	7885.875
747.24749	7904.475
751.15017	7957.575
755.05012	8050.175
758.94733	8284.475
762.8418	8914.475
766.73354	9983.675
770.62254	11020.275
774.50882	11333.575
778.39237	10813.975
782.27321	9774.775
786.15132	8800.175
790.02671	8188.575
793.89938	7877.675
797.76935	7765.775
801.6366	7672.875
805.50115	7654.775
809.36299	7634.675
813.22213	7591.575
817.07857	7608.575
820.93231	7596.975
824.78336	7553.275
828.63172	7550.275
832.47738	7522.075
836.32036	7505.175
840.16066	7493.575
843.99827	7476.075
847.8332	7458.775
851.66546	7466.275
855.49504	7459.875
859.32195	7463.175
863.1462	7439.775
866.96777	7444.875
870.78668	7436.475
874.60293	7469.075
878.41652	7483.975
882.22745	7503.875
886.03573	7544.975
889.84136	7543.675
893.64433	7531.775
897.44466	7490.075
901.24235	7463.175
905.0374	7412.775
908.8298	7391.475
912.61957	7357.775
916.40671	7389.075
920.19121	7423.875
923.97308	7492.775
927.75233	7521.175
931.52895	7495.675
935.30295	7434.675
939.07433	7271.975
942.84309	7116.375
946.60924	7051.575
950.37278	7006.275
954.13371	7016.675
957.89203	6978.475
961.64774	6986.075
965.40086	6984.875
969.15137	6956.275
972.89929	6933.075
976.64461	6911.575
980.38733	6899.475
984.12747	6896.575
987.86502	6909.975
991.59999	6953.875
995.33237	7013.375
999.06217	7066.875
1002.78939	7184.675
1006.51404	7314.075
1010.23611	7470.075
1013.95561	7523.675
1017.67255	7509.675
1021.38692	7447.575
1025.09872	7334.775
1028.80796	7226.575
1032.51465	7168.775
1036.21877	7168.475
1039.92035	7221.875
1043.61937	7233.075
1047.31584	7297.475
1051.00976	7346.775
1054.70114	7359.275
1058.38998	7368.575
1062.07627	7398.075
1065.76003	7491.175
1069.44126	7563.675
1073.11995	7676.975
1076.79611	7803.275
1080.46974	7918.175
1084.14085	8013.675
1087.80943	8116.575
1091.47549	8172.775
1095.13903	8116.075
1098.80005	7954.975
1102.45857	7762.275
1106.11456	7634.475
1109.76805	7618.675
1113.41903	7692.375
1117.06751	7830.175
1120.71348	8052.475
1124.35696	8294.375
1127.99793	8509.475
1131.63641	8496.875
1135.2724	8318.675
1138.90589	8127.475
1142.5369	7987.975
1146.16542	7866.775
1149.79145	7831.775
1153.415	7802.875
1157.03607	7862.875
1160.65467	7969.875
1164.27079	8237.375
1167.88443	8618.475
1171.49561	9207.775
1175.10432	10030.075
1178.71056	11123.275
1182.31434	12043.475
1185.91565	12343.375
1189.51451	12130.075
1193.11091	11650.075
1196.70485	11009.875
1200.29634	10449.275
1203.88538	9992.075
1207.47197	9525.975
1211.05612	9074.875
1214.63782	8777.875
1218.21708	8625.875
1221.79391	8583.875
1225.36829	8536.775
1228.94024	8509.075
1232.50976	8439.575
1236.07685	8362.575
1239.6415	8315.775
1243.20374	8285.875
1246.76355	8304.075
1250.32093	8374.875
1253.8759	8488.075
1257.42845	8677.975
1260.97859	8923.575
1264.52631	9181.775
1268.07163	9468.975
1271.61453	9692.075
1275.15503	9882.675
1278.69312	10070.475
1282.22882	10259.275
1285.76211	10534.575
1289.29301	10886.575
1292.82151	11280.975
1296.34761	11707.975
1299.87133	12345.175
1303.39266	13187.175
1306.9116	14252.275
1310.42815	15345.275
1313.94233	15844.875
1317.45412	15504.875
1320.96354	14748.575
1324.47058	14014.475
1327.97525	13328.875
1331.47754	12819.475
1334.97747	12550.075
1338.47502	12487.275
1341.97022	12610.375
1345.46305	12921.275
1348.95352	13385.075
1352.44163	14026.975
1355.92738	14953.775
1359.41078	16317.175
1362.89183	17770.675
1366.37053	17554.275
1369.84688	15469.475
1373.32088	13199.175
1376.79254	11727.175
1380.26186	10961.475
1383.72883	10530.275
1387.19347	10235.275
1390.65578	9919.475
1394.11575	9717.575
1397.57339	9605.375
1401.0287	9581.975
1404.48168	9565.575
1407.93234	9497.975
1411.38068	9371.975
1414.82669	9262.075
1418.27039	9054.175
1421.71177	8847.175
1425.15083	8617.275
1428.58758	8493.675
1432.02203	8494.575
1435.45416	8602.875
1438.88399	8720.275
1442.31151	8777.175
1445.73673	8867.575
1449.15965	8940.975
1452.58027	8987.575
1455.9986	9007.475
1459.41463	9047.875
1462.82837	9180.475
1466.23982	9441.675
1469.64898	9699.475
1473.05586	9913.275
1476.46045	10072.975
1479.86276	10180.475
1483.26279	10360.675
1486.66054	10529.475
1490.05602	10872.775
1493.44922	11315.375
1496.84016	12038.875
1500.22882	13102.575
1503.61521	14473.675
1506.99934	15855.375
1510.38121	16764.775
1513.76081	16695.275
1517.13816	15533.975
1520.51324	13896.675
1523.88607	12557.175
1527.25665	11678.775
1530.62498	11181.475
1533.99105	10877.875
1537.35488	10589.775
1540.71647	10336.975
1544.07581	10036.875
1547.4329	9817.775
1550.78776	9625.375
1554.14038	9539.175
1557.49077	9561.475
1560.83892	9670.375
1564.18484	9869.575
1567.52853	10226.075
1570.86999	10516.375
1574.20922	10728.975
1577.54624	10702.275
1580.88103	10302.475
1584.2136	9780.375
1587.54395	9517.675
1590.87208	9599.775
1594.19801	9986.175
1597.52172	10516.375
1600.84321	10732.075
1604.16251	10366.375
1607.47959	9799.875
1610.79447	9217.675
1614.10715	8644.675
1617.41763	8139.675
1620.7259	7756.775
1624.03199	7558.075
1627.33587	7506.375
1630.63757	7616.275
1633.93707	7961.275
1637.23439	8606.775
1640.52951	9676.575
1643.82246	11140.575
1647.11321	12665.975
1650.40179	13557.775
1653.68819	13114.275
1656.97241	11500.675
1660.25446	9689.275
1663.53433	8308.575
1666.81203	7462.975
1670.08756	6965.075
1673.36092	6669.075
1676.63211	6470.675
1679.90115	6346.275
1683.16801	6227.275
1686.43272	6134.175
1689.69527	6075.875
1692.95567	6006.175
1696.2139	5964.575
1699.46999	5940.175
1702.72392	5913.675
1705.97571	5869.975
1709.22535	5865.575
1712.47284	5830.875
1715.71819	5804.675
1718.96139	5779.675
1722.20246	5765.775
1725.44139	5719.775
1728.67818	5674.775
1731.91284	5628.275
1735.14537	5593.075
1738.37576	5570.975
1741.60403	5541.575
1744.83017	5499.375
1748.05418	5482.775
1751.27607	5478.575
1754.49584	5445.675
1757.71349	5426.175
1760.92903	5418.975
1764.14244	5419.675
1767.35375	5408.675
1770.56294	5381.675
1773.77002	5354.175
1776.97499	5351.475
1780.17785	5322.175
1783.37861	5318.475
1786.57727	5298.675
1789.77382	5282.375
1792.96828	5291.175
1796.16064	5266.975
1799.3509	5256.175
1802.53907	5244.175
1805.72514	5212.875
1808.90913	5223.275
1812.09102	5178.275
1815.27083	5181.075
1818.44856	5175.275
1821.6242	5138.075
1824.79776	5122.175
1827.96924	5112.475
1831.13864	5102.775
1834.30597	5094.375
1837.47122	5089.875
1840.6344	5082.075
1843.7955	5084.675
1846.95454	5062.775
1850.11151	5066.975
1853.26642	5041.775
1856.41926	5042.675
1859.57004	5032.575
1862.71876	5045.775
1865.86542	5008.375
1869.01003	5022.675
1872.15258	5006.875
1875.29308	5001.875
1878.43152	5014.175
1881.56792	4971.575
1884.70227	4966.275
1887.83457	4970.775
1890.96482	4975.275
1894.09304	4956.875
1897.21921	4951.175
1900.34335	4932.175
1903.46544	4932.975
1906.58551	4919.775
1909.70353	4911.775
1912.81953	4910.375
1915.93349	4910.775
1919.04543	4876.675
1922.15534	4871.975
1925.26322	4854.675
1928.36908	4824.675
1931.47292	4835.275
1934.57473	4803.075
1937.67453	4803.475
1940.77232	4785.575
1943.86808	4773.375
1946.96184	4757.375
1950.05358	4728.475
1953.14331	4723.975
1956.23103	4700.775
1959.31675	4674.175
1962.40046	4670.475
1965.48217	4655.375
1968.56188	4640.575
1971.63959	4634.075
1974.7153	4615.475
1977.78901	4597.175
1980.86073	4586.075
1983.93046	4567.775
1986.99819	4548.775
1990.06394	4541.175
1993.1277	4514.975
1996.18947	4499.175
1999.24925	4500.575
2002.30706	4461.875
2005.36288	4439.675
2008.41672	4414.275
2011.46859	4418.175
2014.51848	4398.975
2017.56639	4376.875
2020.61233	4370.875
2023.6563	4347.875
2026.6983	4330.375
2029.73833	4318.075
2032.7764	4308.175
2035.8125	4293.775
2038.84664	4280.875
2041.87881	4271.075
2044.90903	4271.575
2047.93729	4250.175
2050.96359	4258.675
2053.98794	4246.275
2057.01034	4230.675
2060.03078	4222.875
2063.04927	4200.475
2066.06582	4214.675
2069.08042	4199.475
2072.09307	4200.775
2075.10378	4198.375
2078.11255	4200.775
2081.11938	4211.575
2084.12426	4187.375
2087.12722	4184.875
2090.12824	4180.675
2093.12732	4157.775
2096.12447	4176.375
2099.11969	4169.075
2102.11299	4184.775
2105.10435	4171.675
2108.09379	4172.575
2111.08131	4180.375
2114.0669	4182.275
2117.05057	4186.175
2120.03233	4185.975
2123.01216	4186.375
2125.99008	4182.075
2128.96609	4198.475
2131.94018	4174.675
2134.91236	4190.475
2137.88263	4190.175
2140.851	4177.075
2143.81746	4194.475
2146.78201	4175.075
2149.74466	4162.875
2152.7054	4161.075
2155.66425	4160.375
2158.6212	4155.375
2161.57625	4150.975
2164.52941	4146.675
2167.48067	4137.175
2170.43004	4139.475
2173.37752	4138.575
2176.32311	4129.275
2179.26681	4131.375
2182.20863	4124.175
2185.14856	4123.375
2188.08661	4122.675
2191.02278	4122.675
2193.95707	4097.075
2196.88948	4099.075
2199.82001	4095.275
2202.74867	4106.275
2205.67545	4076.175
2208.60037	4076.075
2211.52341	4058.375
2214.44458	4046.575
2217.36388	4042.575
2220.28132	4036.875
2223.1969	4023.575
2226.11061	4019.075
2229.02246	3995.875
2231.93245	4001.175
2234.84058	3983.175
2237.74686	3979.575
2240.65128	3976.575
2243.55385	3953.875
2246.45456	3970.875
2249.35343	3962.175
2252.25044	3964.675
2255.14561	3960.575
2258.03893	3958.275
2260.93041	3923.275
2263.82004	3927.075
2266.70783	3929.775
2269.59378	3908.075
2272.4779	3905.075
2275.36017	3881.075
2278.24061	3890.075
2281.11922	3858.375
2283.996	3860.275
2286.87094	3852.475
2289.74405	3844.775
2292.61534	3825.375
2295.4848	3829.975
2298.35243	3832.375
2301.21824	3804.175
2304.08223	3808.975
2306.94439	3807.975
2309.80474	3797.675
2312.66327	3798.775
2315.51999	3782.475
2318.37489	3774.675
2321.22797	3778.675
2324.07925	3776.675
2326.92871	3766.575
2329.77637	3773.875
2332.62222	3768.975
2335.46626	3753.675
2338.3085	3732.475
2341.14893	3738.275
2343.98756	3741.175
2346.8244	3740.075
2349.65943	3731.575
2352.49267	3743.075
2355.32411	3746.275
2358.15376	3738.475
2360.98161	3746.575
2363.80768	3736.775
2366.63195	3746.675
2369.45444	3732.875
2372.27514	3748.275
2375.09405	3736.475
2377.91118	3737.275
2380.72652	3713.375
2383.54009	3698.175
2386.35187	3684.275
2389.16188	3669.675
2391.97011	3651.375
2394.77657	3640.575
2397.58125	3637.275
2400.38416	3622.775
2403.18529	3602.575
2405.98466	3605.575
2408.78226	3602.075
2411.57809	3585.875
2414.37216	3601.875
2417.16446	3568.575
2419.955	3574.475
2422.74378	3584.275
2425.5308	3574.275
2428.31606	3563.875
2431.09956	3558.675
2433.88131	3563.175
2436.6613	3550.975
2439.43954	3544.875
2442.21603	3555.975
2444.99077	3547.275
2447.76377	3550.175
2450.53501	3552.075
2453.30451	3557.975
2456.07226	3529.875
2458.83827	3549.175
2461.60254	3537.775
2464.36507	3537.575
2467.12586	3530.475
2469.88492	3535.775
2472.64224	3531.875
2475.39782	3524.375
2478.15167	3526.375
2480.90379	3529.975
2483.65417	3535.775
2486.40283	3543.075
2489.14976	3532.075
2491.89497	3539.175
2494.63845	3544.675
2497.3802	3523.675
2500.12024	3519.175
2502.85855	3507.675
2505.59514	3513.475
2508.33002	3492.575
2511.06318	3497.575
2513.79462	3468.575
2516.52435	3450.475
2519.25237	3459.575
2521.97867	3453.575
2524.70327	3434.075
2527.42616	3436.775
2530.14734	3428.175
2532.86681	3428.475
2535.58458	3420.775
2538.30065	3416.275
2541.01501	3427.575
2543.72768	3412.875
2546.43864	3412.175
2549.14791	3408.075
2551.85548	3399.775
2554.56136	3404.075
2557.26554	3381.375
2559.96803	3375.975
2562.66883	3381.175
2565.36794	3379.475
2568.06536	3356.175
2570.7611	3342.875
2573.45514	3346.175
2576.14751	3335.875
2578.83819	3346.075
2581.52719	3344.775
2584.21451	3315.075
2586.90015	3319.475
2589.58411	3315.375
2592.2664	3324.375
2594.94701	3297.675
2597.62594	3305.275
2600.30321	3290.075
2602.9788	3294.775
2605.65273	3286.275
2608.32498	3278.975
2610.99557	3287.175
2613.66449	3269.275
2616.33175	3274.275
2618.99734	3274.375
2621.66128	3270.275
2624.32355	3265.275
2626.98416	3267.075
2629.64311	3249.175
2632.30041	3247.575
2634.95605	3240.375
2637.61004	3253.575
2640.26238	3230.375
2642.91306	3227.075
2645.56209	3235.175
2648.20948	3232.275
2650.85521	3221.275
2653.4993	3217.375
2656.14175	3213.175
2658.78255	3224.875
2661.42171	3230.475
2664.05923	3224.475
2666.6951	3225.875
2669.32934	3235.575
2671.96194	3230.375
2674.59291	3237.075
2677.22224	3227.975
2679.84993	3220.575
2682.476	3213.675
2685.10043	3224.875
2687.72324	3213.775
2690.34441	3208.675
2692.96396	3210.375
2695.58188	3214.875
2698.19818	3202.675
2700.81285	3206.975
2703.4259	3194.375
2706.03733	3211.175
2708.64714	3195.975
2711.25533	3216.275
2713.86191	3204.275
2716.46687	3219.775
2719.07021	3223.375
2721.67194	3216.375
2724.27206	3205.475
2726.87057	3213.375
2729.46747	3215.075
2732.06276	3231.675
2734.65644	3197.475
2737.24852	3209.975
2739.83899	3191.475
2742.42786	3184.775
2745.01513	3187.575
2747.60079	3172.875
2750.18486	3170.875
2752.76733	3166.875
2755.3482	3155.075
2757.92747	3161.075
2760.50515	3152.475
2763.08123	3129.675
2765.65573	3134.875
2768.22863	3145.075
2770.79994	3146.375
2773.36967	3132.675
2775.9378	3135.875
2778.50435	3121.975
2781.06932	3113.075
2783.6327	3143.675
2786.1945	3129.775
2788.75471	3115.375
2791.31335	3111.775
2793.87041	3112.275
2796.42589	3107.775
2798.97979	3112.675
2801.53212	3111.775
2804.08288	3092.775
2806.63206	3091.675
2809.17967	3086.275
2811.72571	3100.475
2814.27018	3094.975
2816.81308	3070.475
2819.35442	3074.675
2821.89419	3067.575
2824.43239	3062.475
2826.96904	3057.275
2829.50412	3061.075
2832.03763	3046.775
2834.56959	3046.675
2837.1	3047.375
2839.62884	3054.775
2842.15613	3063.375
2844.68186	3069.575
2847.20604	3065.875
2849.72867	3066.775
2852.24974	3071.975
2854.76927	3059.375
2857.28724	3056.175
2859.80367	3050.475
2862.31855	3063.975
2864.83189	3055.775
2867.34368	3059.875
2869.85393	3059.575
2872.36264	3059.075
2874.8698	3047.875
2877.37543	3059.375
2879.87952	3050.375
2882.38207	3052.375
2884.88308	3054.475
2887.38256	3042.375
2889.88051	3041.675
2892.37692	3046.475
2894.8718	3048.175
2897.36515	3057.275
2899.85698	3053.475
2902.34727	3042.175
2904.83604	3039.775
2907.32328	3038.775
2909.809	3039.675
2912.29319	3051.875
2914.77587	3049.075
2917.25702	3052.475
2919.73665	3047.275
2922.21476	3048.475
2924.69136	3041.175
2927.16644	3043.175
2929.64	3029.975
2932.11205	3011.575
2934.58258	3016.275
2937.05161	3025.475
2939.51912	3010.675
2941.98513	3004.975
2944.44962	2994.075
2946.91261	2972.875
2949.37409	2980.675
2951.83407	2990.575
2954.29254	2980.275
2956.74951	2973.475
2959.20498	2976.075
2961.65895	2975.775
2964.11142	2977.275
2966.56239	2961.575
2969.01186	2961.475
2971.45984	2949.375
2973.90632	2942.275
2976.35131	2934.375
2978.7948	2927.275
2981.23681	2914.275
2983.67732	2917.075
2986.11635	2908.575
2988.55388	2902.175
2990.98993	2895.875
2993.4245	2905.275
2995.85758	2897.075
2998.28917	2891.175
3000.71928	2873.975
3003.14791	2880.875
3005.57506	2879.375
3008.00073	2872.975
3010.42493	2870.675
3012.84764	2870.475
3015.26888	2853.675
3017.68865	2851.175
3020.10694	2866.675
3022.52376	2843.075
3024.9391	2839.575
3027.35298	2827.875
3029.76539	2833.475
3032.17632	2831.975
3034.5858	2823.275
3036.9938	2827.075
3039.40034	2806.975
3041.80542	2818.375
3044.20903	2807.675
3046.61118	2805.775
3049.01187	2811.975
3051.4111	2802.975
3053.80888	2794.575
3056.20519	2791.175
3058.60005	2768.975
3060.99345	2787.175
3063.3854	2778.975
3065.7759	2757.875
3068.16494	2766.075
3070.55254	2762.875
3072.93868	2761.575
3075.32338	2757.075
3077.70662	2761.175
3080.08842	2741.975
3082.46878	2746.675
3084.84769	2744.675
3087.22515	2747.875
3089.60118	2742.075
3091.97576	2743.875
3094.3489	2748.575
3096.72061	2754.675
3099.09087	2753.675
3101.4597	2750.675
3103.82709	2753.975
3106.19305	2755.475
3108.55757	2749.975
3110.92066	2750.575
3113.28232	2749.675
3115.64255	2748.675
3118.00134	2742.875
3120.35871	2735.675
3122.71466	2734.275
3125.06917	2717.975
3127.42226	2729.175
3129.77393	2735.175
3132.12417	2737.075
3134.47299	2746.275
3136.82039	2733.575
3139.16636	2737.775
3141.51092	2731.175
3143.85406	2736.275
3146.19579	2744.775
3148.53609	2755.675
3150.87499	2764.875
3153.21246	2771.775
3155.54853	2777.175
3157.88318	2783.875
3160.21642	2770.775
3162.54826	2775.475
3164.87868	2778.475
3167.2077	2786.875
3169.5353	2792.175
3171.86151	2800.775
3174.18631	2777.575
3176.5097	2788.375
3178.83169	2776.075
3181.15228	2790.075
3183.47147	2777.875
3185.78926	2791.575
3188.10565	2792.175
3190.42065	2795.275
3192.73424	2785.375
3195.04645	2790.175
3197.35725	2784.975
3199.66667	2791.675
3201.97469	2805.275
3204.28132	2801.775
3206.58656	2803.775
3208.8904	2801.875
3211.19287	2795.175
3213.49394	2801.175
3215.79363	2815.175
3218.09193	2817.475
3220.38884	2818.175
3222.68438	2808.775
3224.97853	2820.275
3227.2713	2814.275
