Data from AgNP_FTO_APTES_UA_100uM_CRN_10uM_R6G_10uM_NaF_0.1M_Addition_RamanShift__43__16-07-10-451.txt Node

Date: Thu Mar 24 16:07:10 GMT 2022
User: TCL
Spectrometer: QEP01345
Trigger mode: 4
Integration Time (sec): 7.000000E0
Scans to average: 10
Electric dark correction enabled: true
Nonlinearity correction enabled: false
Boxcar width: 0
XAxis mode: Raman Shifts
Number of Pixels in Spectrum: 1044
>>>>>Begin Spectral Data<<<<<
46.04893	-1.5375
50.45542	0.0625
54.85868	-0.7375
59.25871	-0.0375
63.6555	30.9625
68.04907	38.1625
72.43941	34.8625
76.82654	31.8625
81.21044	36.1625
85.59113	40.2625
89.96862	42.2625
94.34289	37.3625
98.71396	42.3625
103.08183	42.4625
107.4465	44.1625
111.80798	46.1625
116.16626	45.4625
120.52136	46.0625
124.87327	46.5625
129.222	49.7625
133.56755	53.8625
137.90993	56.2625
142.24913	65.4625
146.58517	72.0625
150.91804	82.6625
155.24774	98.4625
159.57429	123.8625
163.89768	155.7625
168.21792	211.1625
172.53501	286.3625
176.84895	404.2625
181.15975	568.2625
185.46741	798.9625
189.77193	1102.0625
194.07331	1488.0625
198.37157	1929.2625
202.6667	2400.7625
206.9587	2871.2625
211.24758	3364.8625
215.53334	3923.9625
219.81599	4510.6625
224.09553	5223.7625
228.37195	5995.4625
232.64527	6804.7625
236.91549	7592.9625
241.18261	8296.2625
245.44663	8788.5625
249.70755	9146.7625
253.96539	9438.8625
258.22014	9698.1625
262.4718	9956.9625
266.72039	10134.8625
270.96589	10190.1625
275.20832	10025.8625
279.44768	9757.3625
283.68397	9507.3625
287.91719	9376.9625
292.14735	9412.8625
296.37445	9725.1625
300.59849	10277.6625
304.81948	10976.9625
309.03742	11499.3625
313.25231	11570.0625
317.46415	11095.8625
321.67296	10152.8625
325.87872	9261.9625
330.08145	8840.9625
334.28114	8775.5625
338.47781	8930.3625
342.67145	9184.3625
346.86207	9641.6625
351.04966	10297.1625
355.23424	11074.0625
359.4158	11637.3625
363.59435	11882.4625
367.76989	11900.8625
371.94243	11769.0625
376.11196	11610.8625
380.27849	11438.7625
384.44203	11249.8625
388.60257	11024.3625
392.76012	10909.3625
396.91468	10981.8625
401.06626	11306.2625
405.21485	11503.1625
409.36047	11151.9625
413.50311	10333.3625
417.64277	9574.0625
421.77947	9140.7625
425.9132	8983.3625
430.04396	8917.7625
434.17176	8980.7625
438.2966	9105.9625
442.41849	9360.3625
446.53742	9729.1625
450.6534	10041.4625
454.76644	10206.7625
458.87653	10141.6625
462.98368	9960.1625
467.08789	9722.7625
471.18916	9475.3625
475.2875	9172.9625
479.38291	8918.3625
483.4754	8741.0625
487.56496	8568.7625
491.6516	8481.3625
495.73531	8459.3625
499.81612	8502.4625
503.89401	8612.7625
507.96899	8752.5625
512.04106	8949.3625
516.11023	9145.4625
520.1765	9263.2625
524.23987	9310.4625
528.30034	9199.3625
532.35792	9085.6625
536.41261	8921.0625
540.46441	8606.1625
544.51333	8447.1625
548.55936	8501.1625
552.60252	8754.1625
556.64279	9096.9625
560.6802	9250.8625
564.71473	9439.7625
568.7464	9927.4625
572.7752	10239.5625
576.80114	9822.5625
580.82422	9417.1625
584.84444	9339.6625
588.86181	9465.7625
592.87633	9733.1625
596.888	9947.0625
600.89682	10205.8625
604.9028	11581.9625
608.90594	15860.1625
612.90624	21713.5625
616.90371	20553.2625
620.89834	13071.6625
624.89015	9502.3625
628.87913	8866.2625
632.86528	9088.4625
636.84862	9388.7625
640.82913	9143.2625
644.80683	8488.9625
648.78172	7973.0625
652.75379	7984.6625
656.72306	8506.5625
660.68952	9130.0625
664.65319	8931.9625
668.61405	8250.6625
672.57211	7915.1625
676.52738	7931.8625
680.47986	7902.4625
684.42955	7730.8625
688.37646	7624.2625
692.32058	7632.0625
696.26192	7720.3625
700.20048	7888.7625
704.13626	7993.8625
708.06928	7963.1625
711.99952	7879.6625
715.927	7876.4625
719.85171	7961.7625
723.77365	8017.7625
727.69284	7954.5625
731.60928	7879.4625
735.52295	7859.7625
739.43388	7901.5625
743.34206	7956.2625
747.24749	7963.5625
751.15017	7975.4625
755.05012	8144.0625
758.94733	8735.4625
762.8418	10328.8625
766.73354	13057.8625
770.62254	15703.4625
774.50882	16826.1625
778.39237	15853.0625
782.27321	13177.6625
786.15132	10502.9625
790.02671	8912.6625
793.89938	8198.7625
797.76935	7890.1625
801.6366	7735.2625
805.50115	7660.2625
809.36299	7609.0625
813.22213	7566.6625
817.07857	7508.2625
820.93231	7505.9625
824.78336	7529.8625
828.63172	7575.9625
832.47738	7594.9625
836.32036	7545.8625
840.16066	7483.3625
843.99827	7430.0625
847.8332	7409.4625
851.66546	7412.0625
855.49504	7404.4625
859.32195	7407.9625
863.1462	7359.4625
866.96777	7332.3625
870.78668	7353.5625
874.60293	7369.0625
878.41652	7420.4625
882.22745	7533.0625
886.03573	7579.2625
889.84136	7585.7625
893.64433	7489.9625
897.44466	7471.3625
901.24235	7439.5625
905.0374	7382.2625
908.8298	7291.8625
912.61957	7219.4625
916.40671	7229.4625
920.19121	7311.9625
923.97308	7450.9625
927.75233	7637.4625
931.52895	7789.9625
935.30295	7709.5625
939.07433	7355.7625
942.84309	7077.9625
946.60924	6938.3625
950.37278	6845.0625
954.13371	6797.9625
957.89203	6775.6625
961.64774	6741.4625
965.40086	6700.7625
969.15137	6708.6625
972.89929	6672.2625
976.64461	6676.3625
980.38733	6665.6625
984.12747	6676.0625
987.86502	6730.0625
991.59999	6795.8625
995.33237	6948.3625
999.06217	7127.2625
1002.78939	7387.7625
1006.51404	7668.5625
1010.23611	7890.8625
1013.95561	7956.5625
1017.67255	7930.5625
1021.38692	7776.8625
1025.09872	7575.3625
1028.80796	7450.5625
1032.51465	7508.2625
1036.21877	7646.4625
1039.92035	7747.1625
1043.61937	7770.3625
1047.31584	7731.6625
1051.00976	7665.3625
1054.70114	7597.1625
1058.38998	7527.1625
1062.07627	7554.3625
1065.76003	7589.7625
1069.44126	7649.5625
1073.11995	7792.3625
1076.79611	7999.9625
1080.46974	8302.9625
1084.14085	8653.6625
1087.80943	9048.5625
1091.47549	9175.0625
1095.13903	8913.7625
1098.80005	8506.4625
1102.45857	8170.0625
1106.11456	8092.1625
1109.76805	8238.5625
1113.41903	8607.8625
1117.06751	9148.2625
1120.71348	9833.3625
1124.35696	10585.6625
1127.99793	11121.6625
1131.63641	10800.6625
1135.2724	10019.0625
1138.90589	9267.8625
1142.5369	8830.5625
1146.16542	8507.0625
1149.79145	8357.0625
1153.415	8302.1625
1157.03607	8420.3625
1160.65467	8687.1625
1164.27079	9205.4625
1167.88443	9980.2625
1171.49561	11165.4625
1175.10432	13027.0625
1178.71056	15593.1625
1182.31434	17715.6625
1185.91565	18199.8625
1189.51451	17355.1625
1193.11091	15846.8625
1196.70485	14213.3625
1200.29634	12995.3625
1203.88538	12028.6625
1207.47197	10948.7625
1211.05612	10018.0625
1214.63782	9478.3625
1218.21708	9261.5625
1221.79391	9279.8625
1225.36829	9339.3625
1228.94024	9281.5625
1232.50976	9111.6625
1236.07685	8995.7625
1239.6415	8931.2625
1243.20374	8986.0625
1246.76355	9072.7625
1250.32093	9201.1625
1253.8759	9447.6625
1257.42845	9867.1625
1260.97859	10347.7625
1264.52631	10943.6625
1268.07163	11473.6625
1271.61453	12008.3625
1275.15503	12329.8625
1278.69312	12527.6625
1282.22882	12758.1625
1285.76211	13269.1625
1289.29301	13919.2625
1292.82151	14576.0625
1296.34761	15401.8625
1299.87133	16682.2625
1303.39266	18834.8625
1306.9116	22048.3625
1310.42815	25385.6625
1313.94233	26661.2625
1317.45412	25032.9625
1320.96354	22146.5625
1324.47058	19342.5625
1327.97525	17040.6625
1331.47754	15644.2625
1334.97747	15090.6625
1338.47502	15100.5625
1341.97022	15685.9625
1345.46305	16924.6625
1348.95352	18746.3625
1352.44163	21188.5625
1355.92738	24542.7625
1359.41078	29670.4625
1362.89183	34133.9625
1366.37053	32081.4625
1369.84688	25105.8625
1373.32088	19162.0625
1376.79254	15881.4625
1380.26186	14195.8625
1383.72883	13164.2625
1387.19347	12357.2625
1390.65578	11663.8625
1394.11575	11189.1625
1397.57339	10961.0625
1401.0287	10927.4625
1404.48168	10953.5625
1407.93234	10943.0625
1411.38068	10943.7625
1414.82669	11003.4625
1418.27039	10922.3625
1421.71177	10705.4625
1425.15083	10422.4625
1428.58758	10346.6625
1432.02203	10548.0625
1435.45416	10832.6625
1438.88399	10884.9625
1442.31151	10864.9625
1445.73673	10955.7625
1449.15965	11057.0625
1452.58027	11002.6625
1455.9986	10872.0625
1459.41463	10899.6625
1462.82837	11117.7625
1466.23982	11508.5625
1469.64898	11986.7625
1473.05586	12224.2625
1476.46045	12382.1625
1479.86276	12572.1625
1483.26279	12877.0625
1486.66054	13409.2625
1490.05602	14200.6625
1493.44922	15415.8625
1496.84016	17263.9625
1500.22882	20251.8625
1503.61521	24374.0625
1506.99934	29007.0625
1510.38121	32353.3625
1513.76081	32306.1625
1517.13816	28470.5625
1520.51324	23087.3625
1523.88607	18642.6625
1527.25665	15949.7625
1530.62498	14514.3625
1533.99105	13680.6625
1537.35488	13087.0625
1540.71647	12648.3625
1544.07581	12343.7625
1547.4329	12205.3625
1550.78776	12169.7625
1554.14038	12275.8625
1557.49077	12531.4625
1560.83892	12927.9625
1564.18484	13611.4625
1567.52853	14448.7625
1570.86999	15056.4625
1574.20922	15444.2625
1577.54624	15209.8625
1580.88103	14019.7625
1584.2136	12449.4625
1587.54395	11573.7625
1590.87208	11653.3625
1594.19801	12522.7625
1597.52172	13743.4625
1600.84321	14327.5625
1604.16251	13711.2625
1607.47959	12707.5625
1610.79447	11589.4625
1614.10715	10514.9625
1617.41763	9598.1625
1620.7259	8998.5625
1624.03199	8745.2625
1627.33587	8769.6625
1630.63757	9129.5625
1633.93707	9839.6625
1637.23439	11104.5625
1640.52951	13255.8625
1643.82246	16369.8625
1647.11321	20000.1625
1650.40179	22240.1625
1653.68819	21027.1625
1656.97241	17032.4625
1660.25446	12982.6625
1663.53433	10342.2625
1666.81203	8787.7625
1670.08756	7930.2625
1673.36092	7429.4625
1676.63211	7090.7625
1679.90115	6871.8625
1683.16801	6709.3625
1686.43272	6586.7625
1689.69527	6489.8625
1692.95567	6456.8625
1696.2139	6432.0625
1699.46999	6400.0625
1702.72392	6364.5625
1705.97571	6339.7625
1709.22535	6293.6625
1712.47284	6296.6625
1715.71819	6289.9625
1718.96139	6251.5625
1722.20246	6215.6625
1725.44139	6181.2625
1728.67818	6111.6625
1731.91284	6026.4625
1735.14537	5971.3625
1738.37576	5942.2625
1741.60403	5901.5625
1744.83017	5874.0625
1748.05418	5836.5625
1751.27607	5833.1625
1754.49584	5814.8625
1757.71349	5800.7625
1760.92903	5787.1625
1764.14244	5778.3625
1767.35375	5760.2625
1770.56294	5739.4625
1773.77002	5699.8625
1776.97499	5656.2625
1780.17785	5618.0625
1783.37861	5600.7625
1786.57727	5588.2625
1789.77382	5566.7625
1792.96828	5553.3625
1796.16064	5538.4625
1799.3509	5515.9625
1802.53907	5500.3625
1805.72514	5486.8625
1808.90913	5474.4625
1812.09102	5435.3625
1815.27083	5412.1625
1818.44856	5405.9625
1821.6242	5388.2625
1824.79776	5353.2625
1827.96924	5356.4625
1831.13864	5337.2625
1834.30597	5340.2625
1837.47122	5324.4625
1840.6344	5328.4625
1843.7955	5302.5625
1846.95454	5301.4625
1850.11151	5287.2625
1853.26642	5278.7625
1856.41926	5278.4625
1859.57004	5274.0625
1862.71876	5269.7625
1865.86542	5276.5625
1869.01003	5282.4625
1872.15258	5281.9625
1875.29308	5270.5625
1878.43152	5265.6625
1881.56792	5270.6625
1884.70227	5253.7625
1887.83457	5261.0625
1890.96482	5255.7625
1894.09304	5231.0625
1897.21921	5223.4625
1900.34335	5238.6625
1903.46544	5215.5625
1906.58551	5236.5625
1909.70353	5240.6625
1912.81953	5211.8625
1915.93349	5203.2625
1919.04543	5191.2625
1922.15534	5177.2625
1925.26322	5175.4625
1928.36908	5139.4625
1931.47292	5112.5625
1934.57473	5104.5625
1937.67453	5079.5625
1940.77232	5066.9625
1943.86808	5049.8625
1946.96184	5032.4625
1950.05358	5017.4625
1953.14331	5008.8625
1956.23103	4996.2625
1959.31675	4965.5625
1962.40046	4968.1625
1965.48217	4963.0625
1968.56188	4960.9625
1971.63959	4968.3625
1974.7153	4940.1625
1977.78901	4932.9625
1980.86073	4902.9625
1983.93046	4889.0625
1986.99819	4849.0625
1990.06394	4797.1625
1993.1277	4799.5625
1996.18947	4775.6625
1999.24925	4764.1625
2002.30706	4744.7625
2005.36288	4722.5625
2008.41672	4717.6625
2011.46859	4709.7625
2014.51848	4672.7625
2017.56639	4669.1625
2020.61233	4638.6625
2023.6563	4640.9625
2026.6983	4625.8625
2029.73833	4624.7625
2032.7764	4621.7625
2035.8125	4606.3625
2038.84664	4586.9625
2041.87881	4598.9625
2044.90903	4585.6625
2047.93729	4570.4625
2050.96359	4577.4625
2053.98794	4562.4625
2057.01034	4542.2625
2060.03078	4539.4625
2063.04927	4532.3625
2066.06582	4527.1625
2069.08042	4519.7625
2072.09307	4518.9625
2075.10378	4515.6625
2078.11255	4510.7625
2081.11938	4507.1625
2084.12426	4498.2625
2087.12722	4494.4625
2090.12824	4503.4625
2093.12732	4495.0625
2096.12447	4504.8625
2099.11969	4502.0625
2102.11299	4501.8625
2105.10435	4498.9625
2108.09379	4518.0625
2111.08131	4501.2625
2114.0669	4526.3625
2117.05057	4518.5625
2120.03233	4543.3625
2123.01216	4530.1625
2125.99008	4540.7625
2128.96609	4562.0625
2131.94018	4567.1625
2134.91236	4538.4625
2137.88263	4538.5625
2140.851	4526.8625
2143.81746	4519.7625
2146.78201	4536.7625
2149.74466	4512.3625
2152.7054	4517.3625
2155.66425	4505.4625
2158.6212	4504.1625
2161.57625	4505.3625
2164.52941	4490.4625
2167.48067	4485.3625
2170.43004	4481.6625
2173.37752	4497.7625
2176.32311	4492.4625
2179.26681	4490.7625
2182.20863	4499.0625
2185.14856	4490.2625
2188.08661	4488.4625
2191.02278	4482.7625
2193.95707	4489.6625
2196.88948	4482.0625
2199.82001	4463.4625
2202.74867	4447.0625
2205.67545	4452.6625
2208.60037	4443.5625
2211.52341	4442.0625
2214.44458	4438.5625
2217.36388	4430.3625
2220.28132	4438.6625
2223.1969	4398.1625
2226.11061	4409.1625
2229.02246	4399.4625
2231.93245	4377.3625
2234.84058	4386.4625
2237.74686	4371.7625
2240.65128	4372.4625
2243.55385	4364.4625
2246.45456	4361.6625
2249.35343	4371.2625
2252.25044	4367.0625
2255.14561	4369.1625
2258.03893	4368.4625
2260.93041	4383.1625
2263.82004	4390.8625
2266.70783	4369.5625
2269.59378	4351.6625
2272.4779	4335.8625
2275.36017	4326.2625
2278.24061	4311.1625
2281.11922	4310.2625
2283.996	4293.2625
2286.87094	4290.6625
2289.74405	4268.5625
2292.61534	4256.3625
2295.4848	4246.1625
2298.35243	4241.6625
2301.21824	4250.0625
2304.08223	4240.8625
2306.94439	4246.7625
2309.80474	4243.6625
2312.66327	4238.7625
2315.51999	4239.1625
2318.37489	4250.9625
2321.22797	4242.5625
2324.07925	4234.1625
2326.92871	4232.6625
2329.77637	4244.7625
2332.62222	4231.6625
2335.46626	4218.9625
2338.3085	4215.8625
2341.14893	4235.1625
2343.98756	4236.4625
2346.8244	4253.5625
2349.65943	4255.1625
2352.49267	4254.8625
2355.32411	4272.1625
2358.15376	4288.9625
2360.98161	4299.7625
2363.80768	4301.9625
2366.63195	4321.7625
2369.45444	4323.3625
2372.27514	4308.3625
2375.09405	4297.3625
2377.91118	4271.8625
2380.72652	4256.7625
2383.54009	4232.4625
2386.35187	4216.2625
2389.16188	4199.8625
2391.97011	4173.5625
2394.77657	4148.3625
2397.58125	4134.6625
2400.38416	4129.6625
2403.18529	4128.4625
2405.98466	4108.7625
2408.78226	4106.8625
2411.57809	4082.2625
2414.37216	4089.6625
2417.16446	4099.5625
2419.955	4071.9625
2422.74378	4090.9625
2425.5308	4062.5625
2428.31606	4084.2625
2431.09956	4095.7625
2433.88131	4079.9625
2436.6613	4089.3625
2439.43954	4090.2625
2442.21603	4110.2625
2444.99077	4103.5625
2447.76377	4120.1625
2450.53501	4098.6625
2453.30451	4124.2625
2456.07226	4113.6625
2458.83827	4113.1625
2461.60254	4120.0625
2464.36507	4101.2625
2467.12586	4089.5625
2469.88492	4102.8625
2472.64224	4105.2625
2475.39782	4127.3625
2478.15167	4129.0625
2480.90379	4164.1625
2483.65417	4182.6625
2486.40283	4188.5625
2489.14976	4190.2625
2491.89497	4200.6625
2494.63845	4219.3625
2497.3802	4213.3625
2500.12024	4193.4625
2502.85855	4175.9625
2505.59514	4138.4625
2508.33002	4120.4625
2511.06318	4095.7625
2513.79462	4077.8625
2516.52435	4045.6625
2519.25237	4047.9625
2521.97867	4021.5625
2524.70327	4021.2625
2527.42616	4015.0625
2530.14734	4013.8625
2532.86681	4001.1625
2535.58458	3996.2625
2538.30065	4003.5625
2541.01501	3998.0625
2543.72768	4014.9625
2546.43864	4011.8625
2549.14791	4012.8625
2551.85548	3996.5625
2554.56136	4016.1625
2557.26554	3993.4625
2559.96803	3988.3625
2562.66883	3991.8625
2565.36794	4008.4625
2568.06536	3983.4625
2570.7611	3995.0625
2573.45514	3978.3625
2576.14751	3967.9625
2578.83819	3964.6625
2581.52719	3958.3625
2584.21451	3966.3625
2586.90015	3957.2625
2589.58411	3948.1625
2592.2664	3958.1625
2594.94701	3955.2625
2597.62594	3953.9625
2600.30321	3937.4625
2602.9788	3938.4625
2605.65273	3934.9625
2608.32498	3946.1625
2610.99557	3944.1625
2613.66449	3923.7625
2616.33175	3936.8625
2618.99734	3949.0625
2621.66128	3938.1625
2624.32355	3940.5625
2626.98416	3930.1625
2629.64311	3938.6625
2632.30041	3926.7625
2634.95605	3916.1625
2637.61004	3905.8625
2640.26238	3896.7625
2642.91306	3901.1625
2645.56209	3897.4625
2648.20948	3893.1625
2650.85521	3878.8625
2653.4993	3888.9625
2656.14175	3905.2625
2658.78255	3916.8625
2661.42171	3914.2625
2664.05923	3909.1625
2666.6951	3939.7625
2669.32934	3939.9625
2671.96194	3945.2625
2674.59291	3943.8625
2677.22224	3929.4625
2679.84993	3930.3625
2682.476	3917.6625
2685.10043	3914.9625
2687.72324	3916.3625
2690.34441	3929.0625
2692.96396	3923.4625
2695.58188	3901.8625
2698.19818	3907.7625
2700.81285	3906.1625
2703.4259	3912.4625
2706.03733	3937.1625
2708.64714	3905.3625
2711.25533	3910.3625
2713.86191	3929.7625
2716.46687	3927.6625
2719.07021	3929.4625
2721.67194	3916.9625
2724.27206	3919.1625
2726.87057	3929.9625
2729.46747	3915.1625
2732.06276	3950.3625
2734.65644	3919.8625
2737.24852	3899.0625
2739.83899	3880.9625
2742.42786	3897.4625
2745.01513	3881.9625
2747.60079	3867.4625
2750.18486	3881.6625
2752.76733	3867.4625
2755.3482	3859.3625
2757.92747	3850.8625
2760.50515	3854.7625
2763.08123	3839.8625
2765.65573	3843.7625
2768.22863	3838.9625
2770.79994	3829.1625
2773.36967	3834.5625
2775.9378	3820.3625
2778.50435	3833.2625
2781.06932	3819.7625
2783.6327	3834.9625
2786.1945	3843.1625
2788.75471	3840.9625
2791.31335	3838.7625
2793.87041	3833.1625
2796.42589	3841.5625
2798.97979	3821.6625
2801.53212	3814.2625
2804.08288	3822.1625
2806.63206	3837.3625
2809.17967	3835.0625
2811.72571	3830.0625
2814.27018	3854.4625
2816.81308	3865.0625
2819.35442	3861.0625
2821.89419	3871.2625
2824.43239	3860.1625
2826.96904	3864.0625
2829.50412	3873.6625
2832.03763	3866.0625
2834.56959	3865.4625
2837.1	3864.0625
2839.62884	3863.7625
2842.15613	3860.0625
2844.68186	3867.5625
2847.20604	3858.6625
2849.72867	3868.0625
2852.24974	3886.1625
2854.76927	3890.2625
2857.28724	3895.3625
2859.80367	3900.5625
2862.31855	3895.5625
2864.83189	3907.7625
2867.34368	3912.2625
2869.85393	3928.2625
2872.36264	3917.3625
2874.8698	3920.8625
2877.37543	3923.7625
2879.87952	3905.4625
2882.38207	3900.6625
2884.88308	3897.7625
2887.38256	3907.4625
2889.88051	3895.2625
2892.37692	3883.5625
2894.8718	3902.5625
2897.36515	3899.0625
2899.85698	3900.6625
2902.34727	3888.1625
2904.83604	3893.3625
2907.32328	3894.8625
2909.809	3909.4625
2912.29319	3904.3625
2914.77587	3905.7625
2917.25702	3885.4625
2919.73665	3872.5625
2922.21476	3871.5625
2924.69136	3877.4625
2927.16644	3852.9625
2929.64	3846.1625
2932.11205	3833.4625
2934.58258	3801.7625
2937.05161	3816.5625
2939.51912	3805.0625
2941.98513	3822.0625
2944.44962	3800.6625
2946.91261	3803.1625
2949.37409	3804.4625
2951.83407	3801.0625
2954.29254	3801.6625
2956.74951	3795.7625
2959.20498	3800.6625
2961.65895	3792.6625
2964.11142	3795.1625
2966.56239	3788.6625
2969.01186	3777.9625
2971.45984	3773.9625
2973.90632	3758.1625
2976.35131	3738.6625
2978.7948	3736.5625
2981.23681	3719.9625
2983.67732	3723.4625
2986.11635	3693.9625
2988.55388	3686.1625
2990.98993	3697.0625
2993.4245	3706.8625
2995.85758	3697.0625
2998.28917	3693.7625
3000.71928	3673.6625
3003.14791	3680.7625
3005.57506	3675.6625
3008.00073	3676.5625
3010.42493	3667.9625
3012.84764	3678.7625
3015.26888	3679.1625
3017.68865	3667.1625
3020.10694	3667.5625
3022.52376	3650.8625
3024.9391	3653.6625
3027.35298	3620.4625
3029.76539	3630.4625
3032.17632	3622.2625
3034.5858	3583.6625
3036.9938	3602.1625
3039.40034	3588.5625
3041.80542	3586.7625
3044.20903	3581.3625
3046.61118	3574.6625
3049.01187	3562.0625
3051.4111	3564.3625
3053.80888	3554.4625
3056.20519	3539.5625
3058.60005	3550.0625
3060.99345	3562.1625
3063.3854	3545.2625
3065.7759	3520.6625
3068.16494	3527.4625
3070.55254	3511.7625
3072.93868	3497.9625
3075.32338	3484.1625
3077.70662	3487.3625
3080.08842	3472.4625
3082.46878	3470.7625
3084.84769	3464.9625
3087.22515	3471.4625
3089.60118	3466.2625
3091.97576	3473.8625
3094.3489	3473.6625
3096.72061	3458.3625
3099.09087	3470.0625
3101.4597	3468.6625
3103.82709	3478.2625
3106.19305	3472.0625
