Data from AgNP_FTO_APTES_UA_100uM_CRN_100uM_R6G_10uM_NaF_0.1M_Addition_RamanShift__28__18-20-10-599.txt Node

Date: Thu Mar 24 18:20:10 GMT 2022
User: TCL
Spectrometer: QEP01345
Trigger mode: 4
Integration Time (sec): 7.000000E0
Scans to average: 10
Electric dark correction enabled: true
Nonlinearity correction enabled: false
Boxcar width: 0
XAxis mode: Raman Shifts
Number of Pixels in Spectrum: 1044
>>>>>Begin Spectral Data<<<<<
46.04893	-0.525
50.45542	0.075
54.85868	-0.025
59.25871	-0.025
63.6555	30.375
68.04907	36.175
72.43941	35.575
76.82654	35.375
81.21044	38.975
85.59113	41.175
89.96862	41.875
94.34289	41.175
98.71396	44.275
103.08183	46.675
107.4465	47.275
111.80798	49.375
116.16626	48.375
120.52136	50.175
124.87327	50.675
129.222	50.475
133.56755	53.175
137.90993	55.875
142.24913	62.675
146.58517	65.775
150.91804	76.875
155.24774	90.575
159.57429	109.675
163.89768	137.575
168.21792	184.775
172.53501	250.475
176.84895	352.475
181.15975	489.275
185.46741	680.275
189.77193	935.275
194.07331	1252.775
198.37157	1628.575
202.6667	2009.375
206.9587	2395.175
211.24758	2771.375
215.53334	3170.075
219.81599	3611.975
224.09553	4090.075
228.37195	4609.275
232.64527	5212.475
236.91549	5802.075
241.18261	6380.875
245.44663	6897.575
249.70755	7281.875
253.96539	7657.175
258.22014	7912.475
262.4718	8160.375
266.72039	8338.875
270.96589	8428.175
275.20832	8414.075
279.44768	8333.875
283.68397	8217.075
287.91719	8154.075
292.14735	8126.275
296.37445	8203.775
300.59849	8344.075
304.81948	8526.875
309.03742	8649.275
313.25231	8641.175
317.46415	8466.275
321.67296	8105.175
325.87872	7790.175
330.08145	7605.875
334.28114	7575.675
338.47781	7650.375
342.67145	7765.575
346.86207	7951.875
351.04966	8203.675
355.23424	8443.575
359.4158	8648.675
363.59435	8736.575
367.76989	8788.475
371.94243	8769.575
376.11196	8783.175
380.27849	8744.475
384.44203	8738.875
388.60257	8744.675
392.76012	8788.275
396.91468	8876.875
401.06626	9008.575
405.21485	9140.875
409.36047	9007.075
413.50311	8722.975
417.64277	8442.475
421.77947	8319.475
425.9132	8281.675
430.04396	8327.475
434.17176	8368.275
438.2966	8454.175
442.41849	8607.375
446.53742	8846.075
450.6534	9082.775
454.76644	9235.775
458.87653	9245.875
462.98368	9169.575
467.08789	9051.775
471.18916	8943.575
475.2875	8768.275
479.38291	8670.275
483.4754	8532.075
487.56496	8434.775
491.6516	8361.975
495.73531	8292.475
499.81612	8286.175
503.89401	8320.475
507.96899	8350.175
512.04106	8375.875
516.11023	8400.775
520.1765	8362.175
524.23987	8372.375
528.30034	8316.875
532.35792	8279.375
536.41261	8197.375
540.46441	8076.075
544.51333	8009.175
548.55936	8092.375
552.60252	8232.575
556.64279	8427.375
560.6802	8558.975
564.71473	8617.275
568.7464	8798.575
572.7752	9008.075
576.80114	9143.775
580.82422	9230.375
584.84444	9381.275
588.86181	9579.475
592.87633	9827.775
596.888	9939.275
600.89682	9914.875
604.9028	10247.475
608.90594	11734.775
612.90624	13663.075
616.90371	12923.675
620.89834	9905.175
624.89015	8496.375
628.87913	8282.975
632.86528	8424.675
636.84862	8562.575
640.82913	8465.375
644.80683	8121.675
648.78172	7853.975
652.75379	7767.075
656.72306	7924.375
660.68952	8166.575
664.65319	8089.875
668.61405	7804.475
672.57211	7691.275
676.52738	7699.775
680.47986	7715.875
684.42955	7620.275
688.37646	7577.675
692.32058	7601.175
696.26192	7642.775
700.20048	7730.075
704.13626	7824.775
708.06928	7825.775
711.99952	7793.875
715.927	7745.475
719.85171	7797.775
723.77365	7812.575
727.69284	7765.175
731.60928	7726.375
735.52295	7705.575
739.43388	7721.775
743.34206	7756.575
747.24749	7730.475
751.15017	7794.175
755.05012	7891.575
758.94733	8197.275
762.8418	8893.075
766.73354	10112.275
770.62254	11259.875
774.50882	11639.375
778.39237	11048.575
782.27321	9827.775
786.15132	8728.775
790.02671	8036.775
793.89938	7700.175
797.76935	7552.575
801.6366	7490.675
805.50115	7457.275
809.36299	7415.775
813.22213	7388.975
817.07857	7355.275
820.93231	7330.975
824.78336	7315.575
828.63172	7312.075
832.47738	7294.575
836.32036	7264.575
840.16066	7258.475
843.99827	7218.075
847.8332	7226.575
851.66546	7210.575
855.49504	7227.075
859.32195	7205.075
863.1462	7203.275
866.96777	7183.875
870.78668	7195.375
874.60293	7224.475
878.41652	7218.275
882.22745	7284.075
886.03573	7313.175
889.84136	7317.975
893.64433	7286.275
897.44466	7251.875
901.24235	7205.975
905.0374	7154.875
908.8298	7119.375
912.61957	7107.075
916.40671	7117.475
920.19121	7202.675
923.97308	7282.775
927.75233	7297.275
931.52895	7287.575
935.30295	7178.375
939.07433	6993.175
942.84309	6868.175
946.60924	6790.475
950.37278	6742.875
954.13371	6726.575
957.89203	6708.375
961.64774	6708.875
965.40086	6700.575
969.15137	6670.075
972.89929	6642.675
976.64461	6635.875
980.38733	6637.475
984.12747	6606.175
987.86502	6642.675
991.59999	6688.075
995.33237	6752.575
999.06217	6878.875
1002.78939	7066.575
1006.51404	7227.775
1010.23611	7403.775
1013.95561	7470.375
1017.67255	7452.775
1021.38692	7344.375
1025.09872	7189.075
1028.80796	7076.975
1032.51465	7059.275
1036.21877	7064.975
1039.92035	7114.875
1043.61937	7131.775
1047.31584	7149.675
1051.00976	7163.075
1054.70114	7156.975
1058.38998	7191.375
1062.07627	7243.975
1065.76003	7308.075
1069.44126	7392.475
1073.11995	7482.575
1076.79611	7610.875
1080.46974	7718.275
1084.14085	7833.675
1087.80943	7967.375
1091.47549	8021.375
1095.13903	7984.675
1098.80005	7801.775
1102.45857	7576.675
1106.11456	7466.275
1109.76805	7456.675
1113.41903	7555.075
1117.06751	7750.075
1120.71348	7981.975
1124.35696	8241.375
1127.99793	8460.875
1131.63641	8499.275
1135.2724	8310.475
1138.90589	8072.875
1142.5369	7943.475
1146.16542	7827.375
1149.79145	7775.475
1153.415	7770.975
1157.03607	7838.075
1160.65467	8014.475
1164.27079	8351.375
1167.88443	8842.675
1171.49561	9540.875
1175.10432	10555.875
1178.71056	11847.775
1182.31434	12970.375
1185.91565	13323.475
1189.51451	13008.775
1193.11091	12377.375
1196.70485	11622.275
1200.29634	10937.775
1203.88538	10379.475
1207.47197	9826.175
1211.05612	9337.775
1214.63782	9020.975
1218.21708	8905.075
1221.79391	8858.575
1225.36829	8849.175
1228.94024	8764.375
1232.50976	8635.975
1236.07685	8500.675
1239.6415	8421.075
1243.20374	8400.475
1246.76355	8439.675
1250.32093	8516.475
1253.8759	8646.775
1257.42845	8883.675
1260.97859	9182.075
1264.52631	9518.575
1268.07163	9834.775
1271.61453	10126.575
1275.15503	10385.775
1278.69312	10588.975
1282.22882	10822.875
1285.76211	11165.175
1289.29301	11598.475
1292.82151	12073.375
1296.34761	12695.975
1299.87133	13465.275
1303.39266	14502.475
1306.9116	15864.175
1310.42815	17199.175
1313.94233	17793.775
1317.45412	17456.675
1320.96354	16558.175
1324.47058	15647.775
1327.97525	14809.875
1331.47754	14212.575
1334.97747	13868.475
1338.47502	13763.375
1341.97022	13912.775
1345.46305	14156.875
1348.95352	14677.675
1352.44163	15354.875
1355.92738	16494.275
1359.41078	18136.875
1362.89183	19747.375
1366.37053	19435.675
1369.84688	17002.275
1373.32088	14308.975
1376.79254	12655.775
1380.26186	11806.475
1383.72883	11353.675
1387.19347	11022.275
1390.65578	10689.875
1394.11575	10505.575
1397.57339	10465.975
1401.0287	10502.175
1404.48168	10559.375
1407.93234	10508.675
1411.38068	10405.475
1414.82669	10227.875
1418.27039	9953.675
1421.71177	9609.575
1425.15083	9288.275
1428.58758	9155.575
1432.02203	9212.775
1435.45416	9389.775
1438.88399	9533.175
1442.31151	9654.075
1445.73673	9758.775
1449.15965	9869.275
1452.58027	9919.675
1455.9986	9902.375
1459.41463	9965.875
1462.82837	10170.475
1466.23982	10466.775
1469.64898	10831.875
1473.05586	11101.775
1476.46045	11284.375
1479.86276	11446.275
1483.26279	11567.475
1486.66054	11767.275
1490.05602	12076.875
1493.44922	12567.075
1496.84016	13255.675
1500.22882	14253.175
1503.61521	15620.875
1506.99934	17101.975
1510.38121	18009.075
1513.76081	17835.375
1517.13816	16592.175
1520.51324	14835.175
1523.88607	13369.775
1527.25665	12461.475
1530.62498	11973.575
1533.99105	11666.175
1537.35488	11365.675
1540.71647	11081.875
1544.07581	10784.375
1547.4329	10497.875
1550.78776	10297.175
1554.14038	10196.175
1557.49077	10225.175
1560.83892	10320.275
1564.18484	10581.775
1567.52853	10915.175
1570.86999	11233.975
1574.20922	11449.575
1577.54624	11432.675
1580.88103	10976.075
1584.2136	10427.775
1587.54395	10233.075
1590.87208	10431.875
1594.19801	11029.575
1597.52172	11739.275
1600.84321	12051.175
1604.16251	11614.475
1607.47959	10836.875
1610.79447	10005.075
1614.10715	9203.375
1617.41763	8532.375
1620.7259	8084.875
1624.03199	7851.675
1627.33587	7816.475
1630.63757	7995.475
1633.93707	8477.675
1637.23439	9323.175
1640.52951	10724.875
1643.82246	12545.975
1647.11321	14392.275
1650.40179	15280.275
1653.68819	14519.975
1656.97241	12491.775
1660.25446	10306.375
1663.53433	8696.775
1666.81203	7699.375
1670.08756	7112.175
1673.36092	6752.475
1676.63211	6523.675
1679.90115	6336.275
1683.16801	6226.675
1686.43272	6120.875
1689.69527	6022.075
1692.95567	5974.575
1696.2139	5937.675
1699.46999	5879.875
1702.72392	5852.375
1705.97571	5815.875
1709.22535	5801.675
1712.47284	5779.375
1715.71819	5756.675
1718.96139	5700.375
1722.20246	5702.675
1725.44139	5667.075
1728.67818	5595.975
1731.91284	5547.175
1735.14537	5514.975
1738.37576	5504.975
1741.60403	5455.775
1744.83017	5425.675
1748.05418	5414.375
1751.27607	5385.475
1754.49584	5381.675
1757.71349	5373.175
1760.92903	5348.575
1764.14244	5359.575
1767.35375	5340.575
1770.56294	5312.475
1773.77002	5300.475
1776.97499	5268.775
1780.17785	5257.975
1783.37861	5252.775
1786.57727	5238.675
1789.77382	5209.175
1792.96828	5221.975
1796.16064	5186.875
1799.3509	5208.075
1802.53907	5156.475
1805.72514	5131.075
1808.90913	5124.875
1812.09102	5117.675
1815.27083	5102.075
1818.44856	5082.575
1821.6242	5069.475
1824.79776	5053.975
1827.96924	5043.675
1831.13864	5024.475
1834.30597	5040.875
1837.47122	5012.275
1840.6344	4998.375
1843.7955	5014.575
1846.95454	5009.375
1850.11151	4994.375
1853.26642	4981.575
1856.41926	4975.075
1859.57004	4976.775
1862.71876	4972.775
1865.86542	4958.175
1869.01003	4961.475
1872.15258	4944.675
1875.29308	4940.975
1878.43152	4924.775
1881.56792	4943.775
1884.70227	4938.275
1887.83457	4922.375
1890.96482	4917.575
1894.09304	4906.775
1897.21921	4893.175
1900.34335	4903.775
1903.46544	4897.375
1906.58551	4889.375
1909.70353	4858.075
1912.81953	4878.675
1915.93349	4850.075
1919.04543	4859.975
1922.15534	4819.275
1925.26322	4819.475
1928.36908	4793.775
1931.47292	4790.775
1934.57473	4785.975
1937.67453	4765.875
1940.77232	4750.475
1943.86808	4736.875
1946.96184	4715.675
1950.05358	4684.575
1953.14331	4694.775
1956.23103	4662.075
1959.31675	4651.975
1962.40046	4629.075
1965.48217	4628.375
1968.56188	4630.575
1971.63959	4601.075
1974.7153	4588.475
1977.78901	4560.675
1980.86073	4562.375
1983.93046	4544.975
1986.99819	4528.975
1990.06394	4497.375
1993.1277	4494.575
1996.18947	4467.075
1999.24925	4454.675
2002.30706	4441.375
2005.36288	4437.975
2008.41672	4414.075
2011.46859	4393.275
2014.51848	4380.075
2017.56639	4363.875
2020.61233	4355.175
2023.6563	4342.075
2026.6983	4332.275
2029.73833	4315.975
2032.7764	4309.075
2035.8125	4278.975
2038.84664	4278.375
2041.87881	4264.475
2044.90903	4270.275
2047.93729	4243.275
2050.96359	4238.675
2053.98794	4247.675
2057.01034	4225.475
2060.03078	4226.875
2063.04927	4206.175
2066.06582	4199.075
2069.08042	4210.275
2072.09307	4189.675
2075.10378	4185.375
2078.11255	4187.175
2081.11938	4197.975
2084.12426	4194.975
2087.12722	4189.975
2090.12824	4186.975
2093.12732	4177.575
2096.12447	4191.475
2099.11969	4182.875
2102.11299	4174.375
2105.10435	4185.075
2108.09379	4195.175
2111.08131	4177.375
2114.0669	4195.575
2117.05057	4194.675
2120.03233	4188.775
2123.01216	4195.475
2125.99008	4193.475
2128.96609	4190.975
2131.94018	4199.175
2134.91236	4191.275
2137.88263	4189.775
2140.851	4185.275
2143.81746	4204.875
2146.78201	4183.375
2149.74466	4175.775
2152.7054	4176.175
2155.66425	4178.675
2158.6212	4175.275
2161.57625	4168.275
2164.52941	4161.175
2167.48067	4153.675
2170.43004	4145.175
2173.37752	4164.875
2176.32311	4145.075
2179.26681	4159.875
2182.20863	4152.175
2185.14856	4149.275
2188.08661	4138.975
2191.02278	4140.275
2193.95707	4133.275
2196.88948	4127.275
2199.82001	4133.875
2202.74867	4127.375
2205.67545	4108.575
2208.60037	4104.175
2211.52341	4097.875
2214.44458	4090.475
2217.36388	4068.475
2220.28132	4060.975
2223.1969	4055.875
2226.11061	4047.475
2229.02246	4025.775
2231.93245	4025.975
2234.84058	4027.775
2237.74686	4036.575
2240.65128	4009.175
2243.55385	4013.375
2246.45456	3999.775
2249.35343	4006.375
2252.25044	3993.375
2255.14561	3992.775
2258.03893	3995.475
2260.93041	3973.875
2263.82004	3968.275
2266.70783	3949.675
2269.59378	3946.275
2272.4779	3935.975
2275.36017	3942.775
2278.24061	3942.075
2281.11922	3908.575
2283.996	3898.375
2286.87094	3898.275
2289.74405	3872.775
2292.61534	3875.475
2295.4848	3878.575
2298.35243	3871.175
2301.21824	3874.075
2304.08223	3866.475
2306.94439	3862.375
2309.80474	3843.975
2312.66327	3858.975
2315.51999	3844.975
2318.37489	3846.875
2321.22797	3850.375
2324.07925	3842.275
2326.92871	3842.675
2329.77637	3844.075
2332.62222	3829.375
2335.46626	3810.475
2338.3085	3809.375
2341.14893	3807.675
2343.98756	3802.475
2346.8244	3825.175
2349.65943	3804.075
2352.49267	3820.675
2355.32411	3818.775
2358.15376	3821.675
2360.98161	3835.475
2363.80768	3831.375
2366.63195	3844.175
2369.45444	3829.775
2372.27514	3820.175
2375.09405	3824.075
2377.91118	3805.675
2380.72652	3787.775
2383.54009	3785.575
2386.35187	3787.075
2389.16188	3742.075
2391.97011	3746.375
2394.77657	3730.075
2397.58125	3719.275
2400.38416	3719.775
2403.18529	3712.475
2405.98466	3714.175
2408.78226	3685.475
2411.57809	3677.475
2414.37216	3670.175
2417.16446	3677.475
2419.955	3673.275
2422.74378	3668.575
2425.5308	3674.875
2428.31606	3646.375
2431.09956	3662.575
2433.88131	3661.175
2436.6613	3655.875
2439.43954	3655.375
2442.21603	3664.275
2444.99077	3657.375
2447.76377	3664.375
2450.53501	3653.375
2453.30451	3655.175
2456.07226	3634.775
2458.83827	3644.275
2461.60254	3654.875
2464.36507	3653.375
2467.12586	3653.975
2469.88492	3650.975
2472.64224	3657.975
2475.39782	3657.875
2478.15167	3658.475
2480.90379	3653.975
2483.65417	3676.675
2486.40283	3659.975
2489.14976	3670.575
2491.89497	3670.775
2494.63845	3672.975
2497.3802	3674.175
2500.12024	3660.675
2502.85855	3658.275
2505.59514	3653.775
2508.33002	3634.375
2511.06318	3626.775
2513.79462	3613.675
2516.52435	3588.275
2519.25237	3596.475
2521.97867	3590.675
2524.70327	3585.875
2527.42616	3582.475
2530.14734	3570.775
2532.86681	3581.575
2535.58458	3578.375
2538.30065	3559.575
2541.01501	3566.275
2543.72768	3565.575
2546.43864	3566.575
2549.14791	3557.475
2551.85548	3562.375
2554.56136	3551.775
2557.26554	3532.275
2559.96803	3547.875
2562.66883	3527.875
2565.36794	3530.175
2568.06536	3519.475
2570.7611	3512.875
2573.45514	3493.075
2576.14751	3507.875
2578.83819	3491.575
2581.52719	3486.775
2584.21451	3507.675
2586.90015	3496.775
2589.58411	3484.175
2592.2664	3488.975
2594.94701	3477.575
2597.62594	3476.875
2600.30321	3469.775
2602.9788	3472.775
2605.65273	3470.275
2608.32498	3466.375
2610.99557	3455.875
2613.66449	3457.775
2616.33175	3462.475
2618.99734	3459.775
2621.66128	3448.975
2624.32355	3464.675
2626.98416	3450.875
2629.64311	3446.375
2632.30041	3437.575
2634.95605	3435.675
2637.61004	3434.675
2640.26238	3426.575
2642.91306	3434.275
2645.56209	3439.875
2648.20948	3422.975
2650.85521	3438.775
2653.4993	3434.175
2656.14175	3437.175
2658.78255	3434.775
2661.42171	3438.675
2664.05923	3447.175
2666.6951	3445.075
2669.32934	3449.475
2671.96194	3441.575
2674.59291	3446.075
2677.22224	3448.475
2679.84993	3433.575
2682.476	3430.275
2685.10043	3425.575
2687.72324	3420.175
2690.34441	3423.275
2692.96396	3430.775
2695.58188	3439.275
2698.19818	3428.875
2700.81285	3428.175
2703.4259	3424.375
2706.03733	3424.675
2708.64714	3435.775
2711.25533	3431.775
2713.86191	3433.475
2716.46687	3446.175
2719.07021	3445.375
2721.67194	3443.275
2724.27206	3442.975
2726.87057	3439.175
2729.46747	3445.175
2732.06276	3446.975
2734.65644	3439.375
2737.24852	3430.175
2739.83899	3426.675
2742.42786	3435.875
2745.01513	3411.475
2747.60079	3405.675
2750.18486	3413.875
2752.76733	3408.375
2755.3482	3408.275
2757.92747	3405.775
2760.50515	3393.575
2763.08123	3402.775
2765.65573	3389.575
2768.22863	3399.775
2770.79994	3394.075
2773.36967	3400.575
2775.9378	3384.875
2778.50435	3381.675
2781.06932	3392.975
2783.6327	3388.675
2786.1945	3393.275
2788.75471	3392.075
2791.31335	3371.675
2793.87041	3373.875
2796.42589	3378.675
2798.97979	3366.975
2801.53212	3363.675
2804.08288	3359.075
2806.63206	3344.375
2809.17967	3347.775
2811.72571	3361.875
2814.27018	3354.575
2816.81308	3357.775
2819.35442	3349.075
2821.89419	3335.775
2824.43239	3341.875
2826.96904	3334.175
2829.50412	3341.475
2832.03763	3325.475
2834.56959	3328.675
2837.1	3310.875
2839.62884	3336.975
2842.15613	3314.175
2844.68186	3330.275
2847.20604	3338.175
2849.72867	3341.475
2852.24974	3338.175
2854.76927	3336.175
2857.28724	3338.575
2859.80367	3327.475
2862.31855	3336.375
2864.83189	3342.675
2867.34368	3341.175
2869.85393	3326.875
2872.36264	3338.575
2874.8698	3340.475
2877.37543	3336.675
2879.87952	3340.875
2882.38207	3331.075
2884.88308	3322.375
2887.38256	3312.375
2889.88051	3332.375
2892.37692	3322.275
2894.8718	3325.975
2897.36515	3334.975
2899.85698	3326.275
2902.34727	3346.775
2904.83604	3326.675
2907.32328	3355.875
2909.809	3331.075
2912.29319	3337.775
2914.77587	3335.475
2917.25702	3334.075
2919.73665	3322.875
2922.21476	3332.275
2924.69136	3340.375
2927.16644	3340.275
2929.64	3317.175
2932.11205	3317.975
2934.58258	3311.475
2937.05161	3305.475
2939.51912	3315.375
2941.98513	3315.175
2944.44962	3290.775
2946.91261	3277.675
2949.37409	3271.575
2951.83407	3289.675
2954.29254	3270.775
2956.74951	3271.175
2959.20498	3282.175
2961.65895	3271.475
2964.11142	3265.375
2966.56239	3270.275
2969.01186	3254.775
2971.45984	3245.075
2973.90632	3232.275
2976.35131	3227.175
2978.7948	3220.775
2981.23681	3214.475
2983.67732	3219.475
2986.11635	3202.975
2988.55388	3187.375
2990.98993	3193.175
2993.4245	3192.175
2995.85758	3181.475
2998.28917	3176.475
3000.71928	3173.075
3003.14791	3180.475
3005.57506	3166.575
3008.00073	3164.275
3010.42493	3163.975
3012.84764	3156.175
3015.26888	3153.375
3017.68865	3151.775
3020.10694	3154.775
3022.52376	3135.475
3024.9391	3142.775
3027.35298	3129.075
3029.76539	3128.475
3032.17632	3110.175
3034.5858	3108.175
3036.9938	3105.275
3039.40034	3101.875
3041.80542	3116.375
3044.20903	3101.275
3046.61118	3119.575
3049.01187	3109.075
3051.4111	3091.275
3053.80888	3093.975
3056.20519	3077.575
3058.60005	3076.875
3060.99345	3084.575
3063.3854	3064.975
3065.7759	3066.975
3068.16494	3071.475
3070.55254	3047.075
3072.93868	3055.775
3075.32338	3049.075
3077.70662	3033.775
3080.08842	3039.475
3082.46878	3042.175
3084.84769	3046.075
3087.22515	3043.075
3089.60118	3051.075
3091.97576	3041.875
3094.3489	3044.175
3096.72061	3043.275
3099.09087	3049.175
3101.4597	3046.875
3103.82709	3047.575
3106.19305	3037.675
3108.55757	3031.375
3110.92066	3041.675
3113.28232	3043.975
3115.64255	3036.875
3118.00134	3031.975
3120.35871	3027.575
3122.71466	3027.575
3125.06917	3017.475
3127.42226	3018.975
3129.77393	3006.175
3132.12417	3021.075
3134.47299	3019.475
3136.82039	3021.675
3139.16636	3007.375
3141.51092	3022.275
3143.85406	3028.775
3146.19579	3033.675
3148.53609	3027.175
3150.87499	3044.175
3153.21246	3048.475
3155.54853	3070.175
3157.88318	3068.975
3160.21642	3065.175
3162.54826	3065.075
3164.87868	3059.075
3167.2077	3070.575
3169.5353	3079.975
3171.86151	3083.175
3174.18631	3067.775
3176.5097	3075.475
3178.83169	3077.675
3181.15228	3061.375
3183.47147	3075.375
3185.78926	3077.475
3188.10565	3078.975
3190.42065	3077.475
3192.73424	3080.475
3195.04645	3069.975
3197.35725	3082.075
3199.66667	3073.375
3201.97469	3095.075
3204.28132	3099.275
3206.58656	3100.575
3208.8904	3087.575
3211.19287	3096.075
3213.49394	3103.875
3215.79363	3094.575
3218.09193	3115.575
3220.38884	3103.775
3222.68438	3105.475
