Data from AgNP_FTO_APTES_UA_100uM_CRN_1uM_R6G_10uM_NaF_0.1M_Addition_RamanShift__3__11-51-40-156.txt Node

Date: Thu Mar 24 11:51:40 GMT 2022
User: TCL
Spectrometer: QEP01345
Trigger mode: 4
Integration Time (sec): 7.000000E0
Scans to average: 10
Electric dark correction enabled: true
Nonlinearity correction enabled: false
Boxcar width: 0
XAxis mode: Raman Shifts
Number of Pixels in Spectrum: 1044
>>>>>Begin Spectral Data<<<<<
46.04893	-2.2875
50.45542	-0.6875
54.85868	-0.8875
59.25871	-0.2875
63.6555	50.6125
68.04907	53.7125
72.43941	53.0125
76.82654	54.2125
81.21044	58.5125
85.59113	57.8125
89.96862	63.9125
94.34289	63.7125
98.71396	66.2125
103.08183	68.1125
107.4465	67.4125
111.80798	69.8125
116.16626	73.1125
120.52136	74.6125
124.87327	76.8125
129.222	82.7125
133.56755	85.9125
137.90993	92.3125
142.24913	106.4125
146.58517	117.4125
150.91804	137.3125
155.24774	165.1125
159.57429	210.1125
163.89768	270.9125
168.21792	366.0125
172.53501	495.5125
176.84895	696.1125
181.15975	982.8125
185.46741	1371.0125
189.77193	1882.5125
194.07331	2521.7125
198.37157	3261.8125
202.6667	4039.4125
206.9587	4819.2125
211.24758	5618.6125
215.53334	6389.6125
219.81599	7254.5125
224.09553	8234.6125
228.37195	9356.2125
232.64527	10535.0125
236.91549	11763.5125
241.18261	12920.9125
245.44663	13893.7125
249.70755	14637.6125
253.96539	15244.0125
258.22014	15735.5125
262.4718	16168.1125
266.72039	16435.8125
270.96589	16555.9125
275.20832	16503.0125
279.44768	16313.9125
283.68397	16103.0125
287.91719	16005.4125
292.14735	15875.8125
296.37445	15962.1125
300.59849	16198.9125
304.81948	16565.3125
309.03742	16905.2125
313.25231	16987.5125
317.46415	16764.2125
321.67296	16346.7125
325.87872	15904.9125
330.08145	15708.3125
334.28114	15652.1125
338.47781	15747.1125
342.67145	15954.0125
346.86207	16375.7125
351.04966	16831.4125
355.23424	17285.8125
359.4158	17660.2125
363.59435	17778.4125
367.76989	17772.5125
371.94243	17747.2125
376.11196	17713.9125
380.27849	17723.8125
384.44203	17764.4125
388.60257	17840.0125
392.76012	17973.0125
396.91468	18117.9125
401.06626	18376.8125
405.21485	18538.9125
409.36047	18294.9125
413.50311	17736.1125
417.64277	17320.9125
421.77947	17204.8125
425.9132	17242.3125
430.04396	17328.7125
434.17176	17487.1125
438.2966	17768.9125
442.41849	18383.9125
446.53742	19301.9125
450.6534	20218.8125
454.76644	20691.1125
458.87653	20626.6125
462.98368	20199.6125
467.08789	19711.0125
471.18916	19169.9125
475.2875	18616.7125
479.38291	18132.9125
483.4754	17776.2125
487.56496	17464.5125
491.6516	17149.6125
495.73531	16854.9125
499.81612	16777.9125
503.89401	16843.3125
507.96899	16925.6125
512.04106	16881.5125
516.11023	16763.5125
520.1765	16666.0125
524.23987	16707.6125
528.30034	16783.8125
532.35792	16727.5125
536.41261	16383.7125
540.46441	15951.0125
544.51333	15709.8125
548.55936	15826.7125
552.60252	16336.6125
556.64279	17106.2125
560.6802	17733.1125
564.71473	18014.5125
568.7464	18510.5125
572.7752	19374.6125
576.80114	20040.4125
580.82422	20466.6125
584.84444	21377.2125
588.86181	23166.2125
592.87633	25612.8125
596.888	26635.6125
600.89682	24826.8125
604.9028	23263.0125
608.90594	24974.5125
612.90624	27986.9125
616.90371	26033.6125
620.89834	19929.7125
624.89015	16956.7125
628.87913	16520.1125
632.86528	16719.7125
636.84862	16781.6125
640.82913	16295.3125
644.80683	15543.9125
648.78172	15031.7125
652.75379	15037.6125
656.72306	15475.3125
660.68952	16007.0125
664.65319	15860.7125
668.61405	15198.2125
672.57211	15059.9125
676.52738	15162.2125
680.47986	15111.6125
684.42955	14900.3125
688.37646	14731.3125
692.32058	14832.9125
696.26192	15197.6125
700.20048	15576.7125
704.13626	15806.1125
708.06928	15793.3125
711.99952	15697.8125
715.927	15764.7125
719.85171	15851.9125
723.77365	15777.4125
727.69284	15458.0125
731.60928	15235.8125
735.52295	15261.5125
739.43388	15405.3125
743.34206	15543.7125
747.24749	15679.4125
751.15017	15834.5125
755.05012	16170.0125
758.94733	16852.0125
762.8418	18381.7125
766.73354	20904.8125
770.62254	23287.7125
774.50882	23808.7125
778.39237	22364.2125
782.27321	20009.6125
786.15132	17862.3125
790.02671	16466.6125
793.89938	15718.5125
797.76935	15384.7125
801.6366	15167.5125
805.50115	15067.3125
809.36299	14927.3125
813.22213	14811.3125
817.07857	14703.5125
820.93231	14656.1125
824.78336	14529.3125
828.63172	14515.3125
832.47738	14511.0125
836.32036	14521.2125
840.16066	14524.3125
843.99827	14501.0125
847.8332	14487.9125
851.66546	14510.7125
855.49504	14525.8125
859.32195	14479.8125
863.1462	14396.5125
866.96777	14340.2125
870.78668	14316.3125
874.60293	14316.3125
878.41652	14379.7125
882.22745	14508.7125
886.03573	14641.8125
889.84136	14615.5125
893.64433	14527.7125
897.44466	14467.4125
901.24235	14398.9125
905.0374	14313.3125
908.8298	14159.0125
912.61957	14152.4125
916.40671	14280.1125
920.19121	14537.1125
923.97308	14860.2125
927.75233	15026.6125
931.52895	14889.3125
935.30295	14499.0125
939.07433	14014.3125
942.84309	13715.5125
946.60924	13545.8125
950.37278	13482.5125
954.13371	13501.5125
957.89203	13515.8125
961.64774	13511.5125
965.40086	13523.6125
969.15137	13518.8125
972.89929	13486.4125
976.64461	13447.3125
980.38733	13432.4125
984.12747	13450.5125
987.86502	13526.7125
991.59999	13702.3125
995.33237	13975.7125
999.06217	14397.0125
1002.78939	15054.7125
1006.51404	15647.0125
1010.23611	16172.8125
1013.95561	16496.1125
1017.67255	16519.0125
1021.38692	16083.3125
1025.09872	15410.1125
1028.80796	14943.8125
1032.51465	14867.1125
1036.21877	14996.3125
1039.92035	15119.9125
1043.61937	15165.4125
1047.31584	15118.6125
1051.00976	15029.7125
1054.70114	14990.3125
1058.38998	15012.5125
1062.07627	15087.7125
1065.76003	15232.5125
1069.44126	15524.4125
1073.11995	15939.0125
1076.79611	16294.0125
1080.46974	16623.0125
1084.14085	17039.5125
1087.80943	17431.4125
1091.47549	17683.7125
1095.13903	17533.6125
1098.80005	17031.1125
1102.45857	16426.1125
1106.11456	16084.1125
1109.76805	16057.6125
1113.41903	16252.6125
1117.06751	16568.4125
1120.71348	17043.8125
1124.35696	17513.2125
1127.99793	17922.0125
1131.63641	17972.0125
1135.2724	17667.0125
1138.90589	17407.0125
1142.5369	17290.4125
1146.16542	17399.3125
1149.79145	17664.4125
1153.415	17937.4125
1157.03607	18147.8125
1160.65467	18670.4125
1164.27079	19676.2125
1167.88443	21146.0125
1171.49561	23290.9125
1175.10432	26333.0125
1178.71056	30177.3125
1182.31434	33495.0125
1185.91565	34426.1125
1189.51451	33110.4125
1193.11091	31056.6125
1196.70485	28868.4125
1200.29634	26903.3125
1203.88538	25374.3125
1207.47197	24095.1125
1211.05612	23267.7125
1214.63782	22747.2125
1218.21708	22563.1125
1221.79391	22691.8125
1225.36829	23041.7125
1228.94024	23061.4125
1232.50976	22295.0125
1236.07685	21234.3125
1239.6415	20501.1125
1243.20374	20256.0125
1246.76355	20271.0125
1250.32093	20535.2125
1253.8759	21056.3125
1257.42845	21797.0125
1260.97859	22809.7125
1264.52631	23894.8125
1268.07163	24986.0125
1271.61453	25911.9125
1275.15503	26845.7125
1278.69312	27795.3125
1282.22882	28988.2125
1285.76211	30693.0125
1289.29301	32731.1125
1292.82151	35061.2125
1296.34761	37673.6125
1299.87133	40645.7125
1303.39266	44078.8125
1306.9116	47820.5125
1310.42815	51242.5125
1313.94233	52957.6125
1317.45412	51861.2125
1320.96354	48832.2125
1324.47058	45685.2125
1327.97525	43016.9125
1331.47754	41057.4125
1334.97747	39750.5125
1338.47502	38929.1125
1341.97022	38376.9125
1345.46305	38186.3125
1348.95352	38635.7125
1352.44163	40180.4125
1355.92738	43362.8125
1359.41078	48135.7125
1362.89183	52375.6125
1366.37053	52132.8125
1369.84688	46219.3125
1373.32088	38748.0125
1376.79254	34035.8125
1380.26186	32140.1125
1383.72883	31553.5125
1387.19347	31052.5125
1390.65578	30443.5125
1394.11575	30208.5125
1397.57339	30482.4125
1401.0287	30818.3125
1404.48168	30912.8125
1407.93234	30575.9125
1411.38068	29760.7125
1414.82669	28805.0125
1418.27039	27758.2125
1421.71177	26610.7125
1425.15083	25656.1125
1428.58758	25232.6125
1432.02203	25707.9125
1435.45416	26536.3125
1438.88399	27175.8125
1442.31151	27517.7125
1445.73673	27722.0125
1449.15965	27904.1125
1452.58027	27769.1125
1455.9986	27526.0125
1459.41463	27569.1125
1462.82837	28119.1125
1466.23982	29016.2125
1469.64898	29891.7125
1473.05586	30492.5125
1476.46045	30847.7125
1479.86276	31081.6125
1483.26279	31228.1125
1486.66054	31513.7125
1490.05602	32245.0125
1493.44922	33229.7125
1496.84016	34185.2125
1500.22882	35378.1125
1503.61521	36974.2125
1506.99934	38972.0125
1510.38121	40373.8125
1513.76081	40226.5125
1517.13816	38301.7125
1520.51324	35599.9125
1523.88607	33513.0125
1527.25665	32639.8125
1530.62498	32390.1125
1533.99105	32154.1125
1537.35488	31451.4125
1540.71647	30319.7125
1544.07581	29013.1125
1547.4329	27742.0125
1550.78776	26712.7125
1554.14038	25987.1125
1557.49077	25722.6125
1560.83892	25700.9125
1564.18484	26097.2125
1567.52853	26748.2125
1570.86999	27492.2125
1574.20922	28141.5125
1577.54624	28438.7125
1580.88103	27910.1125
1584.2136	27410.1125
1587.54395	27893.8125
1590.87208	29724.4125
1594.19801	32523.3125
1597.52172	35541.0125
1600.84321	36584.5125
1604.16251	34647.5125
1607.47959	30846.5125
1610.79447	26799.7125
1614.10715	23440.6125
1617.41763	20993.6125
1620.7259	19571.8125
1624.03199	18957.3125
1627.33587	19098.4125
1630.63757	20006.9125
1633.93707	22002.4125
1637.23439	25594.1125
1640.52951	31310.5125
1643.82246	38566.2125
1647.11321	44669.3125
1650.40179	45920.6125
1653.68819	41220.9125
1656.97241	33306.1125
1660.25446	26043.9125
1663.53433	21129.3125
1666.81203	18127.5125
1670.08756	16454.5125
1673.36092	15454.8125
1676.63211	14775.8125
1679.90115	14332.0125
1683.16801	14027.3125
1686.43272	13786.5125
1689.69527	13644.9125
1692.95567	13469.5125
1696.2139	13375.3125
1699.46999	13269.7125
1702.72392	13185.4125
1705.97571	13144.6125
1709.22535	13117.3125
1712.47284	13135.5125
1715.71819	13082.8125
1718.96139	13035.2125
1722.20246	12980.2125
1725.44139	12875.7125
1728.67818	12781.8125
1731.91284	12663.8125
1735.14537	12536.5125
1738.37576	12429.1125
1741.60403	12381.5125
1744.83017	12320.2125
1748.05418	12285.8125
1751.27607	12224.0125
1754.49584	12155.6125
1757.71349	12170.3125
1760.92903	12128.4125
1764.14244	12115.4125
1767.35375	12126.8125
1770.56294	12081.5125
1773.77002	12042.3125
1776.97499	12034.6125
1780.17785	11991.3125
1783.37861	11923.7125
1786.57727	11916.4125
1789.77382	11905.2125
1792.96828	11887.7125
1796.16064	11850.8125
1799.3509	11826.1125
1802.53907	11774.5125
1805.72514	11707.8125
1808.90913	11688.8125
1812.09102	11647.0125
1815.27083	11606.8125
1818.44856	11615.7125
1821.6242	11575.0125
1824.79776	11560.4125
1827.96924	11574.7125
1831.13864	11549.5125
1834.30597	11543.5125
1837.47122	11561.6125
1840.6344	11531.4125
1843.7955	11525.6125
1846.95454	11513.2125
1850.11151	11504.5125
1853.26642	11516.3125
1856.41926	11532.7125
1859.57004	11496.6125
1862.71876	11474.5125
1865.86542	11456.9125
1869.01003	11456.1125
1872.15258	11440.0125
1875.29308	11472.2125
1878.43152	11438.0125
1881.56792	11441.6125
1884.70227	11452.9125
1887.83457	11459.9125
1890.96482	11447.4125
1894.09304	11406.0125
1897.21921	11420.9125
1900.34335	11420.1125
1903.46544	11413.7125
1906.58551	11410.4125
1909.70353	11389.9125
1912.81953	11348.2125
1915.93349	11334.5125
1919.04543	11308.4125
1922.15534	11261.4125
1925.26322	11227.1125
1928.36908	11211.6125
1931.47292	11143.0125
1934.57473	11118.7125
1937.67453	11073.8125
1940.77232	11057.0125
1943.86808	11060.9125
1946.96184	11115.7125
1950.05358	11026.4125
1953.14331	10963.6125
1956.23103	10919.2125
1959.31675	10911.8125
1962.40046	10874.9125
1965.48217	10847.8125
1968.56188	10796.7125
1971.63959	10768.3125
1974.7153	10736.4125
1977.78901	10701.2125
1980.86073	10681.4125
1983.93046	10649.9125
1986.99819	10603.0125
1990.06394	10550.9125
1993.1277	10497.5125
1996.18947	10479.8125
1999.24925	10447.3125
2002.30706	10406.0125
2005.36288	10352.2125
2008.41672	10345.7125
2011.46859	10325.0125
2014.51848	10280.6125
2017.56639	10226.2125
2020.61233	10188.6125
2023.6563	10191.1125
2026.6983	10163.6125
2029.73833	10151.4125
2032.7764	10127.5125
2035.8125	10084.5125
2038.84664	10065.8125
2041.87881	10066.7125
2044.90903	10028.8125
2047.93729	10029.8125
2050.96359	9986.0125
2053.98794	9996.0125
2057.01034	9989.0125
2060.03078	9957.7125
2063.04927	9936.5125
2066.06582	9933.9125
2069.08042	9934.1125
2072.09307	9941.8125
2075.10378	9925.3125
2078.11255	9918.5125
2081.11938	9931.5125
2084.12426	9922.5125
2087.12722	9941.4125
2090.12824	9927.8125
2093.12732	9952.0125
2096.12447	9935.7125
2099.11969	9979.9125
2102.11299	9968.0125
2105.10435	9940.7125
2108.09379	9945.2125
2111.08131	9968.6125
2114.0669	9942.1125
2117.05057	9969.3125
2120.03233	9939.9125
2123.01216	9982.4125
2125.99008	9961.8125
2128.96609	9952.0125
2131.94018	9959.4125
2134.91236	9972.6125
2137.88263	9932.1125
2140.851	9934.6125
2143.81746	9936.0125
2146.78201	9929.7125
2149.74466	9923.5125
2152.7054	9908.2125
2155.66425	9899.7125
2158.6212	9885.6125
2161.57625	9842.0125
2164.52941	9861.4125
2167.48067	9855.7125
2170.43004	9836.9125
2173.37752	9854.9125
2176.32311	9848.7125
2179.26681	9845.7125
2182.20863	9838.7125
2185.14856	9842.7125
2188.08661	9860.5125
2191.02278	9822.2125
2193.95707	9813.3125
2196.88948	9796.1125
2199.82001	9784.4125
2202.74867	9759.5125
2205.67545	9753.5125
2208.60037	9718.8125
2211.52341	9705.2125
2214.44458	9712.4125
2217.36388	9711.2125
2220.28132	9676.8125
2223.1969	9645.2125
2226.11061	9642.9125
2229.02246	9625.6125
2231.93245	9629.4125
2234.84058	9597.5125
2237.74686	9595.5125
2240.65128	9608.8125
2243.55385	9589.1125
2246.45456	9582.2125
2249.35343	9536.3125
2252.25044	9530.4125
2255.14561	9484.9125
2258.03893	9503.2125
2260.93041	9485.7125
2263.82004	9449.5125
2266.70783	9409.6125
2269.59378	9402.8125
2272.4779	9360.2125
2275.36017	9363.8125
2278.24061	9338.4125
2281.11922	9351.6125
2283.996	9307.1125
2286.87094	9269.6125
2289.74405	9289.0125
2292.61534	9240.8125
2295.4848	9243.3125
2298.35243	9258.6125
2301.21824	9247.5125
2304.08223	9224.3125
2306.94439	9232.9125
2309.80474	9258.1125
2312.66327	9226.0125
2315.51999	9232.7125
2318.37489	9219.9125
2321.22797	9229.3125
2324.07925	9191.3125
2326.92871	9185.4125
2329.77637	9176.9125
2332.62222	9171.4125
2335.46626	9176.3125
2338.3085	9149.2125
2341.14893	9165.4125
2343.98756	9179.8125
2346.8244	9186.9125
2349.65943	9172.4125
2352.49267	9200.6125
2355.32411	9219.3125
2358.15376	9184.2125
2360.98161	9182.9125
2363.80768	9204.5125
2366.63195	9185.0125
2369.45444	9170.7125
2372.27514	9189.6125
2375.09405	9150.6125
2377.91118	9151.6125
2380.72652	9123.8125
2383.54009	9106.8125
2386.35187	9074.9125
2389.16188	9018.4125
2391.97011	9023.2125
2394.77657	8999.6125
2397.58125	8989.5125
2400.38416	8971.4125
2403.18529	8966.3125
2405.98466	8953.3125
2408.78226	8927.4125
2411.57809	8933.9125
2414.37216	8887.7125
2417.16446	8906.3125
2419.955	8859.8125
2422.74378	8868.0125
2425.5308	8897.0125
2428.31606	8867.7125
2431.09956	8862.1125
2433.88131	8844.5125
2436.6613	8841.3125
2439.43954	8857.8125
2442.21603	8853.6125
2444.99077	8881.6125
2447.76377	8883.6125
2450.53501	8890.2125
2453.30451	8892.4125
2456.07226	8909.4125
2458.83827	8926.9125
2461.60254	8910.5125
2464.36507	8924.9125
2467.12586	8891.2125
2469.88492	8881.5125
2472.64224	8890.1125
2475.39782	8889.9125
2478.15167	8938.8125
2480.90379	8918.7125
2483.65417	8915.2125
2486.40283	8898.7125
2489.14976	8939.7125
2491.89497	8938.6125
2494.63845	8949.6125
2497.3802	8951.1125
2500.12024	8941.3125
2502.85855	8956.6125
2505.59514	8938.3125
2508.33002	8911.0125
2511.06318	8904.8125
2513.79462	8879.3125
2516.52435	8874.8125
2519.25237	8831.9125
2521.97867	8838.4125
2524.70327	8844.2125
2527.42616	8827.1125
2530.14734	8819.2125
2532.86681	8798.9125
2535.58458	8801.7125
2538.30065	8812.6125
2541.01501	8824.7125
2543.72768	8806.6125
2546.43864	8804.3125
2549.14791	8793.7125
2551.85548	8794.5125
2554.56136	8790.9125
2557.26554	8781.1125
2559.96803	8780.6125
2562.66883	8771.7125
2565.36794	8800.2125
2568.06536	8807.7125
2570.7611	8777.9125
2573.45514	8766.0125
2576.14751	8761.6125
2578.83819	8756.9125
2581.52719	8763.4125
2584.21451	8748.1125
2586.90015	8753.1125
2589.58411	8722.8125
2592.2664	8700.8125
2594.94701	8692.8125
2597.62594	8708.6125
2600.30321	8688.0125
2602.9788	8691.7125
2605.65273	8683.1125
2608.32498	8714.4125
2610.99557	8685.7125
2613.66449	8690.6125
2616.33175	8721.0125
2618.99734	8708.9125
2621.66128	8713.3125
2624.32355	8710.8125
2626.98416	8699.4125
2629.64311	8700.8125
2632.30041	8688.2125
2634.95605	8668.4125
2637.61004	8664.5125
2640.26238	8662.8125
2642.91306	8662.7125
2645.56209	8656.6125
2648.20948	8669.3125
2650.85521	8679.8125
2653.4993	8675.5125
2656.14175	8693.7125
2658.78255	8731.3125
2661.42171	8701.9125
2664.05923	8712.6125
2666.6951	8722.2125
2669.32934	8747.7125
2671.96194	8735.4125
2674.59291	8756.7125
2677.22224	8757.3125
2679.84993	8736.8125
2682.476	8722.3125
2685.10043	8726.4125
2687.72324	8727.7125
2690.34441	8723.8125
2692.96396	8727.7125
2695.58188	8731.9125
2698.19818	8709.9125
2700.81285	8737.8125
2703.4259	8713.4125
2706.03733	8720.6125
2708.64714	8734.4125
2711.25533	8734.9125
2713.86191	8726.1125
2716.46687	8745.1125
2719.07021	8765.6125
2721.67194	8753.4125
2724.27206	8792.0125
2726.87057	8785.0125
2729.46747	8779.6125
2732.06276	8791.4125
2734.65644	8798.0125
2737.24852	8781.0125
2739.83899	8753.9125
2742.42786	8762.9125
2745.01513	8767.2125
2747.60079	8759.5125
2750.18486	8745.6125
2752.76733	8763.7125
2755.3482	8747.6125
2757.92747	8763.3125
2760.50515	8744.4125
2763.08123	8769.0125
2765.65573	8751.5125
2768.22863	8763.6125
2770.79994	8724.5125
2773.36967	8740.8125
2775.9378	8736.4125
2778.50435	8740.5125
2781.06932	8733.6125
2783.6327	8729.4125
2786.1945	8729.8125
2788.75471	8713.0125
2791.31335	8681.5125
2793.87041	8679.3125
2796.42589	8686.2125
2798.97979	8697.8125
2801.53212	8677.0125
2804.08288	8692.3125
2806.63206	8674.1125
2809.17967	8671.3125
2811.72571	8659.7125
2814.27018	8644.9125
2816.81308	8644.8125
2819.35442	8624.6125
2821.89419	8633.9125
2824.43239	8634.1125
2826.96904	8617.9125
2829.50412	8646.9125
2832.03763	8612.2125
2834.56959	8622.3125
2837.1	8592.5125
2839.62884	8595.1125
2842.15613	8604.7125
2844.68186	8598.5125
2847.20604	8597.1125
2849.72867	8583.0125
2852.24974	8608.8125
2854.76927	8589.1125
2857.28724	8597.4125
2859.80367	8601.9125
2862.31855	8599.2125
2864.83189	8599.3125
2867.34368	8591.1125
2869.85393	8580.6125
2872.36264	8588.5125
2874.8698	8602.6125
2877.37543	8609.1125
2879.87952	8606.2125
2882.38207	8605.7125
2884.88308	8589.5125
2887.38256	8610.0125
2889.88051	8591.6125
2892.37692	8573.9125
2894.8718	8591.1125
2897.36515	8602.5125
2899.85698	8620.9125
2902.34727	8628.6125
2904.83604	8640.8125
2907.32328	8637.8125
2909.809	8631.0125
2912.29319	8638.4125
2914.77587	8620.9125
2917.25702	8631.0125
2919.73665	8620.0125
2922.21476	8624.9125
2924.69136	8606.0125
2927.16644	8606.3125
2929.64	8596.8125
2932.11205	8568.1125
2934.58258	8540.8125
2937.05161	8542.3125
2939.51912	8559.4125
2941.98513	8550.5125
2944.44962	8517.2125
2946.91261	8478.8125
2949.37409	8499.9125
2951.83407	8488.0125
2954.29254	8482.5125
2956.74951	8471.8125
2959.20498	8461.4125
2961.65895	8424.2125
2964.11142	8422.9125
2966.56239	8386.4125
2969.01186	8387.2125
2971.45984	8367.7125
2973.90632	8327.8125
2976.35131	8322.5125
2978.7948	8277.1125
2981.23681	8251.1125
2983.67732	8235.0125
2986.11635	8211.3125
2988.55388	8175.7125
2990.98993	8161.5125
2993.4245	8126.0125
2995.85758	8113.8125
2998.28917	8098.6125
3000.71928	8094.3125
3003.14791	8087.3125
3005.57506	8086.4125
3008.00073	8077.0125
3010.42493	8071.5125
3012.84764	8024.1125
3015.26888	8007.9125
3017.68865	7998.3125
3020.10694	7982.6125
3022.52376	7962.1125
3024.9391	7962.0125
3027.35298	7952.2125
3029.76539	7938.7125
3032.17632	7916.6125
3034.5858	7903.8125
3036.9938	7893.9125
3039.40034	7889.0125
3041.80542	7854.8125
3044.20903	7851.2125
3046.61118	7843.1125
3049.01187	7800.1125
3051.4111	7806.9125
3053.80888	7797.6125
3056.20519	7774.1125
3058.60005	7758.6125
3060.99345	7760.6125
3063.3854	7718.8125
3065.7759	7714.2125
3068.16494	7724.5125
