Data from AgNP_FTO_APTES_UA_100uM_CRN_20uM_R6G_10uM_NaF_0.1M_Addition_RamanShift__19__16-48-00-497.txt Node

Date: Thu Mar 24 16:48:00 GMT 2022
User: TCL
Spectrometer: QEP01345
Trigger mode: 4
Integration Time (sec): 7.000000E0
Scans to average: 10
Electric dark correction enabled: true
Nonlinearity correction enabled: false
Boxcar width: 0
XAxis mode: Raman Shifts
Number of Pixels in Spectrum: 1044
>>>>>Begin Spectral Data<<<<<
46.04893	-1.0125
50.45542	0.9875
54.85868	-0.0125
59.25871	-0.3125
63.6555	42.1875
68.04907	45.2875
72.43941	45.2875
76.82654	45.9875
81.21044	49.9875
85.59113	48.9875
89.96862	51.3875
94.34289	51.0875
98.71396	56.1875
103.08183	56.3875
107.4465	57.4875
111.80798	60.9875
116.16626	60.6875
120.52136	67.1875
124.87327	65.2875
129.222	70.1875
133.56755	78.7875
137.90993	76.7875
142.24913	90.4875
146.58517	99.8875
150.91804	118.7875
155.24774	140.9875
159.57429	178.6875
163.89768	232.5875
168.21792	308.5875
172.53501	429.9875
176.84895	605.9875
181.15975	849.7875
185.46741	1196.1875
189.77193	1659.1875
194.07331	2216.9875
198.37157	2878.7875
202.6667	3548.6875
206.9587	4228.0875
211.24758	4938.5875
215.53334	5646.1875
219.81599	6406.0875
224.09553	7240.1875
228.37195	8197.4875
232.64527	9236.2875
236.91549	10343.6875
241.18261	11337.3875
245.44663	12223.1875
249.70755	12956.9875
253.96539	13557.7875
258.22014	14065.4875
262.4718	14492.1875
266.72039	14824.5875
270.96589	14984.3875
275.20832	14975.2875
279.44768	14846.2875
283.68397	14622.9875
287.91719	14483.1875
292.14735	14425.2875
296.37445	14582.6875
300.59849	14855.3875
304.81948	15211.5875
309.03742	15442.1875
313.25231	15465.6875
317.46415	15076.4875
321.67296	14476.1875
325.87872	13929.8875
330.08145	13631.3875
334.28114	13619.9875
338.47781	13751.0875
342.67145	13983.4875
346.86207	14294.8875
351.04966	14771.7875
355.23424	15213.3875
359.4158	15557.4875
363.59435	15767.2875
367.76989	15861.6875
371.94243	15872.8875
376.11196	15869.6875
380.27849	15833.6875
384.44203	15803.4875
388.60257	15844.5875
392.76012	15913.4875
396.91468	16050.4875
401.06626	16310.9875
405.21485	16454.2875
409.36047	16241.4875
413.50311	15745.8875
417.64277	15254.3875
421.77947	14987.8875
425.9132	14926.6875
430.04396	14956.9875
434.17176	15094.6875
438.2966	15224.4875
442.41849	15528.3875
446.53742	15962.8875
450.6534	16397.2875
454.76644	16657.0875
458.87653	16698.0875
462.98368	16544.4875
467.08789	16378.2875
471.18916	16075.4875
475.2875	15846.9875
479.38291	15563.8875
483.4754	15372.6875
487.56496	15191.4875
491.6516	15035.8875
495.73531	14936.4875
499.81612	14929.2875
503.89401	15010.4875
507.96899	15091.4875
512.04106	15125.1875
516.11023	15213.8875
520.1765	15213.3875
524.23987	15192.9875
528.30034	15158.7875
532.35792	15024.5875
536.41261	14870.6875
540.46441	14666.3875
544.51333	14580.9875
548.55936	14696.2875
552.60252	15020.4875
556.64279	15344.3875
560.6802	15563.7875
564.71473	15683.5875
568.7464	15980.5875
572.7752	16324.5875
576.80114	16450.8875
580.82422	16485.0875
584.84444	16661.4875
588.86181	16989.6875
592.87633	17364.0875
596.888	17577.4875
600.89682	17535.5875
604.9028	18310.1875
608.90594	21153.9875
612.90624	24796.1875
616.90371	23437.7875
620.89834	18040.0875
624.89015	15467.8875
628.87913	15059.5875
632.86528	15285.2875
636.84862	15524.2875
640.82913	15319.6875
644.80683	14724.8875
648.78172	14322.6875
652.75379	14272.4875
656.72306	14590.8875
660.68952	15043.3875
664.65319	14921.9875
668.61405	14396.6875
672.57211	14210.9875
676.52738	14290.1875
680.47986	14311.6875
684.42955	14102.8875
688.37646	14023.9875
692.32058	14061.3875
696.26192	14206.8875
700.20048	14372.6875
704.13626	14504.8875
708.06928	14452.0875
711.99952	14371.7875
715.927	14337.5875
719.85171	14416.1875
723.77365	14421.2875
727.69284	14343.9875
731.60928	14234.7875
735.52295	14222.8875
739.43388	14228.5875
743.34206	14307.4875
747.24749	14316.8875
751.15017	14373.8875
755.05012	14588.4875
758.94733	15091.1875
762.8418	16336.5875
766.73354	18529.5875
770.62254	20614.1875
774.50882	21321.3875
778.39237	20287.8875
782.27321	18169.4875
786.15132	16202.7875
790.02671	14985.0875
793.89938	14402.2875
797.76935	14122.4875
801.6366	14000.4875
805.50115	13860.2875
809.36299	13798.6875
813.22213	13745.4875
817.07857	13743.4875
820.93231	13703.0875
824.78336	13685.4875
828.63172	13648.5875
832.47738	13652.7875
836.32036	13640.0875
840.16066	13575.9875
843.99827	13570.0875
847.8332	13571.5875
851.66546	13556.5875
855.49504	13565.0875
859.32195	13575.3875
863.1462	13544.0875
866.96777	13516.2875
870.78668	13521.0875
874.60293	13545.0875
878.41652	13561.0875
882.22745	13669.2875
886.03573	13723.9875
889.84136	13709.9875
893.64433	13648.8875
897.44466	13609.8875
901.24235	13518.0875
905.0374	13464.6875
908.8298	13435.2875
912.61957	13385.3875
916.40671	13419.4875
920.19121	13560.4875
923.97308	13662.9875
927.75233	13753.7875
931.52895	13715.9875
935.30295	13545.1875
939.07433	13267.4875
942.84309	13031.0875
946.60924	12890.0875
950.37278	12865.0875
954.13371	12836.9875
957.89203	12780.0875
961.64774	12789.3875
965.40086	12758.5875
969.15137	12729.0875
972.89929	12707.2875
976.64461	12662.3875
980.38733	12675.2875
984.12747	12707.6875
987.86502	12738.8875
991.59999	12834.3875
995.33237	12946.8875
999.06217	13153.1875
1002.78939	13460.9875
1006.51404	13789.3875
1010.23611	14017.1875
1013.95561	14192.2875
1017.67255	14166.3875
1021.38692	13981.4875
1025.09872	13729.0875
1028.80796	13508.3875
1032.51465	13463.2875
1036.21877	13536.3875
1039.92035	13595.7875
1043.61937	13664.1875
1047.31584	13683.9875
1051.00976	13695.4875
1054.70114	13678.0875
1058.38998	13710.9875
1062.07627	13790.8875
1065.76003	13884.8875
1069.44126	14030.5875
1073.11995	14249.7875
1076.79611	14494.0875
1080.46974	14721.2875
1084.14085	14942.3875
1087.80943	15171.1875
1091.47549	15300.5875
1095.13903	15209.6875
1098.80005	14887.0875
1102.45857	14563.6875
1106.11456	14403.6875
1109.76805	14389.9875
1113.41903	14589.6875
1117.06751	14861.5875
1120.71348	15299.1875
1124.35696	15744.1875
1127.99793	16113.1875
1131.63641	16093.8875
1135.2724	15697.3875
1138.90589	15285.9875
1142.5369	15030.1875
1146.16542	14905.2875
1149.79145	14785.6875
1153.415	14766.0875
1157.03607	14898.3875
1160.65467	15208.2875
1164.27079	15787.2875
1167.88443	16606.7875
1171.49561	17826.7875
1175.10432	19537.5875
1178.71056	21821.8875
1182.31434	23788.7875
1185.91565	24432.7875
1189.51451	23888.4875
1193.11091	22912.5875
1196.70485	21607.2875
1200.29634	20450.4875
1203.88538	19414.7875
1207.47197	18486.2875
1211.05612	17637.2875
1214.63782	17055.7875
1218.21708	16794.3875
1221.79391	16718.6875
1225.36829	16692.8875
1228.94024	16619.8875
1232.50976	16381.4875
1236.07685	16106.7875
1239.6415	16022.5875
1243.20374	15998.7875
1246.76355	16082.8875
1250.32093	16232.9875
1253.8759	16488.6875
1257.42845	16910.5875
1260.97859	17415.8875
1264.52631	17990.4875
1268.07163	18574.6875
1271.61453	19105.6875
1275.15503	19511.9875
1278.69312	19839.6875
1282.22882	20180.1875
1285.76211	20693.4875
1289.29301	21431.8875
1292.82151	22242.1875
1296.34761	23227.9875
1299.87133	24590.9875
1303.39266	26393.6875
1306.9116	28655.6875
1310.42815	30998.2875
1313.94233	32140.0875
1317.45412	31441.8875
1320.96354	29834.2875
1324.47058	28223.8875
1327.97525	26714.3875
1331.47754	25620.5875
1334.97747	25115.4875
1338.47502	25041.9875
1341.97022	25377.4875
1345.46305	26083.5875
1348.95352	27161.3875
1352.44163	28554.8875
1355.92738	30580.8875
1359.41078	33550.4875
1362.89183	36256.0875
1366.37053	35292.5875
1369.84688	30720.9875
1373.32088	25979.3875
1376.79254	23076.6875
1380.26186	21716.4875
1383.72883	21012.1875
1387.19347	20526.4875
1390.65578	19969.6875
1394.11575	19567.7875
1397.57339	19381.6875
1401.0287	19428.9875
1404.48168	19440.2875
1407.93234	19330.8875
1411.38068	19170.9875
1414.82669	18920.9875
1418.27039	18538.0875
1421.71177	18014.8875
1425.15083	17539.7875
1428.58758	17279.4875
1432.02203	17448.8875
1435.45416	17717.1875
1438.88399	18032.7875
1442.31151	18192.8875
1445.73673	18417.0875
1449.15965	18527.9875
1452.58027	18571.5875
1455.9986	18538.8875
1459.41463	18646.0875
1462.82837	18970.5875
1466.23982	19438.3875
1469.64898	19997.1875
1473.05586	20387.2875
1476.46045	20708.4875
1479.86276	20899.1875
1483.26279	21058.4875
1486.66054	21305.6875
1490.05602	21871.4875
1493.44922	22733.5875
1496.84016	23974.1875
1500.22882	25847.6875
1503.61521	28396.7875
1506.99934	31044.2875
1510.38121	32778.7875
1513.76081	32535.2875
1517.13816	30196.5875
1520.51324	27038.0875
1523.88607	24411.6875
1527.25665	22799.0875
1530.62498	21991.3875
1533.99105	21564.0875
1537.35488	21134.5875
1540.71647	20628.1875
1544.07581	20124.8875
1547.4329	19673.0875
1550.78776	19337.8875
1554.14038	19141.4875
1557.49077	19191.9875
1560.83892	19436.0875
1564.18484	19855.9875
1567.52853	20471.6875
1570.86999	21017.3875
1574.20922	21352.9875
1577.54624	21282.3875
1580.88103	20452.5875
1584.2136	19467.1875
1587.54395	19022.4875
1590.87208	19347.4875
1594.19801	20407.8875
1597.52172	21640.4875
1600.84321	22196.5875
1604.16251	21516.1875
1607.47959	20259.2875
1610.79447	18890.1875
1614.10715	17520.1875
1617.41763	16319.6875
1620.7259	15473.2875
1624.03199	14992.2875
1627.33587	14957.0875
1630.63757	15271.1875
1633.93707	16093.3875
1637.23439	17563.3875
1640.52951	19882.1875
1643.82246	23074.2875
1647.11321	26130.1875
1650.40179	27442.4875
1653.68819	25987.9875
1656.97241	22392.9875
1660.25446	18705.0875
1663.53433	16121.8875
1666.81203	14522.0875
1670.08756	13563.9875
1673.36092	12934.2875
1676.63211	12564.5875
1679.90115	12287.9875
1683.16801	12099.4875
1686.43272	11926.4875
1689.69527	11806.9875
1692.95567	11713.2875
1696.2139	11660.3875
1699.46999	11567.3875
1702.72392	11527.1875
1705.97571	11478.0875
1709.22535	11449.9875
1712.47284	11464.5875
1715.71819	11420.2875
1718.96139	11395.5875
1722.20246	11352.5875
1725.44139	11285.5875
1728.67818	11205.9875
1731.91284	11090.2875
1735.14537	11029.7875
1738.37576	10977.0875
1741.60403	10937.4875
1744.83017	10891.5875
1748.05418	10865.6875
1751.27607	10836.4875
1754.49584	10791.5875
1757.71349	10776.4875
1760.92903	10759.9875
1764.14244	10755.8875
1767.35375	10726.8875
1770.56294	10691.7875
1773.77002	10662.6875
1776.97499	10626.2875
1780.17785	10606.1875
1783.37861	10564.2875
1786.57727	10550.9875
1789.77382	10525.6875
1792.96828	10520.9875
1796.16064	10462.9875
1799.3509	10441.6875
1802.53907	10413.6875
1805.72514	10399.5875
1808.90913	10355.0875
1812.09102	10324.4875
1815.27083	10297.6875
1818.44856	10306.0875
1821.6242	10274.5875
1824.79776	10242.6875
1827.96924	10194.9875
1831.13864	10199.3875
1834.30597	10196.6875
1837.47122	10166.4875
1840.6344	10149.8875
1843.7955	10138.9875
1846.95454	10114.0875
1850.11151	10104.7875
1853.26642	10110.3875
1856.41926	10072.6875
1859.57004	10084.2875
1862.71876	10066.6875
1865.86542	10037.3875
1869.01003	10074.3875
1872.15258	10022.6875
1875.29308	10019.4875
1878.43152	9997.7875
1881.56792	10027.5875
1884.70227	10009.3875
1887.83457	10013.9875
1890.96482	10013.6875
1894.09304	9964.5875
1897.21921	9935.2875
1900.34335	9942.6875
1903.46544	9928.6875
1906.58551	9923.1875
1909.70353	9912.3875
1912.81953	9900.1875
1915.93349	9875.5875
1919.04543	9836.9875
1922.15534	9819.7875
1925.26322	9787.8875
1928.36908	9789.1875
1931.47292	9753.5875
1934.57473	9724.8875
1937.67453	9717.6875
1940.77232	9692.8875
1943.86808	9666.9875
1946.96184	9613.3875
1950.05358	9595.0875
1953.14331	9557.3875
1956.23103	9530.9875
1959.31675	9510.5875
1962.40046	9453.2875
1965.48217	9441.6875
1968.56188	9437.3875
1971.63959	9393.5875
1974.7153	9389.4875
1977.78901	9352.2875
1980.86073	9322.5875
1983.93046	9274.0875
1986.99819	9222.4875
1990.06394	9236.9875
1993.1277	9180.9875
1996.18947	9167.7875
1999.24925	9117.1875
2002.30706	9087.0875
2005.36288	9058.8875
2008.41672	9021.6875
2011.46859	8979.0875
2014.51848	8963.7875
2017.56639	8937.8875
2020.61233	8928.5875
2023.6563	8883.1875
2026.6983	8876.6875
2029.73833	8824.6875
2032.7764	8809.8875
2035.8125	8802.8875
2038.84664	8795.8875
2041.87881	8763.2875
2044.90903	8741.5875
2047.93729	8732.1875
2050.96359	8703.8875
2053.98794	8706.1875
2057.01034	8682.8875
2060.03078	8656.1875
2063.04927	8632.3875
2066.06582	8636.0875
2069.08042	8642.1875
2072.09307	8632.0875
2075.10378	8620.3875
2078.11255	8611.9875
2081.11938	8615.3875
2084.12426	8618.7875
2087.12722	8632.1875
2090.12824	8608.0875
2093.12732	8632.5875
2096.12447	8626.4875
2099.11969	8621.4875
2102.11299	8621.6875
2105.10435	8608.8875
2108.09379	8617.8875
2111.08131	8621.9875
2114.0669	8598.4875
2117.05057	8622.4875
2120.03233	8627.6875
2123.01216	8634.6875
2125.99008	8649.2875
2128.96609	8662.0875
2131.94018	8626.6875
2134.91236	8627.8875
2137.88263	8622.4875
2140.851	8656.0875
2143.81746	8652.5875
2146.78201	8642.5875
2149.74466	8643.6875
2152.7054	8608.8875
2155.66425	8616.0875
2158.6212	8604.6875
2161.57625	8595.0875
2164.52941	8607.2875
2167.48067	8600.8875
2170.43004	8588.5875
2173.37752	8595.2875
2176.32311	8556.8875
2179.26681	8548.9875
2182.20863	8563.9875
2185.14856	8586.4875
2188.08661	8556.7875
2191.02278	8555.1875
2193.95707	8537.2875
2196.88948	8554.2875
2199.82001	8526.9875
2202.74867	8526.3875
2205.67545	8554.4875
2208.60037	8520.7875
2211.52341	8491.5875
2214.44458	8487.9875
2217.36388	8466.4875
2220.28132	8441.9875
2223.1969	8419.7875
2226.11061	8427.4875
2229.02246	8374.9875
2231.93245	8357.5875
2234.84058	8346.4875
2237.74686	8349.0875
2240.65128	8326.5875
2243.55385	8343.6875
2246.45456	8319.4875
2249.35343	8303.6875
2252.25044	8296.0875
2255.14561	8315.4875
2258.03893	8277.4875
2260.93041	8262.4875
2263.82004	8246.9875
2266.70783	8222.2875
2269.59378	8214.6875
2272.4779	8201.3875
2275.36017	8178.4875
2278.24061	8151.5875
2281.11922	8117.4875
2283.996	8113.4875
2286.87094	8137.5875
2289.74405	8093.1875
2292.61534	8085.7875
2295.4848	8046.8875
2298.35243	8059.0875
2301.21824	8041.5875
2304.08223	8034.6875
2306.94439	8033.4875
2309.80474	8013.8875
2312.66327	8027.6875
2315.51999	8027.3875
2318.37489	7974.2875
2321.22797	7993.8875
2324.07925	7969.1875
2326.92871	7968.5875
2329.77637	7962.4875
2332.62222	7943.3875
2335.46626	7943.2875
2338.3085	7924.0875
2341.14893	7929.1875
2343.98756	7935.4875
2346.8244	7941.7875
2349.65943	7936.7875
2352.49267	7938.2875
2355.32411	7945.2875
2358.15376	7939.4875
2360.98161	7923.2875
2363.80768	7944.1875
2366.63195	7954.2875
2369.45444	7950.4875
2372.27514	7940.6875
2375.09405	7923.7875
2377.91118	7906.7875
2380.72652	7878.5875
2383.54009	7862.2875
2386.35187	7854.5875
2389.16188	7824.7875
2391.97011	7786.4875
2394.77657	7767.5875
2397.58125	7750.3875
2400.38416	7732.9875
2403.18529	7728.3875
2405.98466	7717.7875
2408.78226	7687.8875
2411.57809	7674.4875
2414.37216	7667.4875
2417.16446	7698.4875
2419.955	7688.1875
2422.74378	7664.7875
2425.5308	7633.2875
2428.31606	7656.0875
2431.09956	7636.4875
2433.88131	7637.7875
2436.6613	7630.2875
2439.43954	7616.7875
2442.21603	7609.0875
2444.99077	7608.5875
2447.76377	7617.4875
2450.53501	7599.7875
2453.30451	7631.1875
2456.07226	7602.0875
2458.83827	7609.2875
2461.60254	7615.2875
2464.36507	7604.2875
2467.12586	7595.9875
2469.88492	7587.2875
2472.64224	7582.6875
2475.39782	7598.7875
2478.15167	7598.6875
2480.90379	7614.3875
2483.65417	7636.9875
2486.40283	7624.7875
2489.14976	7647.8875
2491.89497	7640.0875
2494.63845	7653.7875
2497.3802	7624.8875
2500.12024	7620.1875
2502.85855	7611.4875
2505.59514	7597.8875
2508.33002	7564.4875
2511.06318	7557.6875
2513.79462	7538.1875
2516.52435	7506.5875
2519.25237	7514.7875
2521.97867	7497.0875
2524.70327	7484.7875
2527.42616	7476.3875
2530.14734	7482.0875
2532.86681	7465.3875
2535.58458	7476.5875
2538.30065	7441.3875
2541.01501	7441.0875
2543.72768	7426.4875
2546.43864	7407.0875
2549.14791	7422.3875
2551.85548	7424.8875
2554.56136	7399.2875
2557.26554	7366.2875
2559.96803	7370.5875
2562.66883	7362.7875
2565.36794	7363.2875
2568.06536	7342.4875
2570.7611	7328.1875
2573.45514	7321.9875
2576.14751	7301.9875
2578.83819	7316.1875
2581.52719	7269.5875
2584.21451	7290.9875
2586.90015	7287.4875
2589.58411	7264.7875
2592.2664	7277.2875
2594.94701	7258.1875
2597.62594	7245.9875
2600.30321	7226.0875
2602.9788	7227.3875
2605.65273	7228.8875
2608.32498	7205.7875
2610.99557	7212.5875
2613.66449	7213.6875
2616.33175	7204.4875
2618.99734	7209.2875
2621.66128	7200.5875
2624.32355	7199.6875
2626.98416	7179.7875
2629.64311	7150.0875
2632.30041	7166.4875
2634.95605	7145.7875
2637.61004	7141.4875
2640.26238	7157.5875
2642.91306	7149.5875
2645.56209	7147.8875
2648.20948	7129.8875
2650.85521	7141.8875
2653.4993	7136.9875
2656.14175	7140.6875
2658.78255	7121.2875
2661.42171	7130.2875
2664.05923	7164.1875
2666.6951	7154.8875
2669.32934	7155.6875
2671.96194	7170.8875
2674.59291	7182.3875
2677.22224	7154.3875
2679.84993	7163.6875
2682.476	7139.4875
2685.10043	7126.4875
2687.72324	7106.1875
2690.34441	7129.1875
2692.96396	7131.7875
2695.58188	7133.8875
2698.19818	7124.7875
2700.81285	7123.6875
2703.4259	7120.6875
2706.03733	7125.0875
2708.64714	7142.4875
2711.25533	7122.0875
2713.86191	7125.6875
2716.46687	7178.2875
2719.07021	7137.2875
2721.67194	7159.9875
2724.27206	7137.9875
2726.87057	7163.3875
2729.46747	7135.6875
2732.06276	7137.5875
2734.65644	7138.3875
2737.24852	7114.1875
2739.83899	7106.1875
2742.42786	7128.8875
2745.01513	7098.3875
2747.60079	7096.1875
2750.18486	7070.9875
2752.76733	7066.1875
2755.3482	7080.9875
2757.92747	7089.1875
2760.50515	7064.4875
2763.08123	7064.4875
2765.65573	7060.6875
2768.22863	7044.5875
2770.79994	7049.6875
2773.36967	7032.2875
2775.9378	7038.0875
2778.50435	7020.3875
2781.06932	6996.4875
2783.6327	7018.8875
2786.1945	7043.1875
2788.75471	7032.3875
2791.31335	7008.1875
2793.87041	7003.6875
2796.42589	6974.6875
2798.97979	6976.8875
2801.53212	6955.6875
2804.08288	6957.2875
2806.63206	6930.9875
2809.17967	6935.3875
2811.72571	6930.9875
2814.27018	6931.9875
2816.81308	6927.4875
2819.35442	6926.9875
2821.89419	6910.4875
2824.43239	6892.4875
2826.96904	6883.6875
2829.50412	6894.1875
2832.03763	6840.9875
2834.56959	6864.9875
2837.1	6850.6875
2839.62884	6878.0875
2842.15613	6883.5875
2844.68186	6882.2875
2847.20604	6873.5875
2849.72867	6881.7875
2852.24974	6885.3875
2854.76927	6881.8875
2857.28724	6876.2875
2859.80367	6875.2875
2862.31855	6852.5875
2864.83189	6862.3875
2867.34368	6846.1875
2869.85393	6853.2875
2872.36264	6857.3875
2874.8698	6836.3875
2877.37543	6859.7875
2879.87952	6849.3875
2882.38207	6845.0875
2884.88308	6850.3875
2887.38256	6845.1875
2889.88051	6840.8875
2892.37692	6839.4875
2894.8718	6834.7875
2897.36515	6856.8875
2899.85698	6819.6875
2902.34727	6852.7875
2904.83604	6858.7875
2907.32328	6860.3875
2909.809	6867.1875
2912.29319	6863.3875
2914.77587	6871.5875
2917.25702	6867.0875
2919.73665	6860.6875
2922.21476	6846.7875
2924.69136	6829.1875
2927.16644	6831.2875
2929.64	6826.0875
2932.11205	6819.6875
2934.58258	6787.3875
2937.05161	6791.8875
2939.51912	6782.8875
2941.98513	6752.5875
2944.44962	6745.5875
2946.91261	6717.6875
2949.37409	6736.3875
2951.83407	6723.6875
2954.29254	6727.3875
2956.74951	6713.6875
2959.20498	6749.0875
2961.65895	6724.2875
2964.11142	6720.8875
2966.56239	6692.4875
2969.01186	6686.6875
2971.45984	6679.3875
2973.90632	6667.8875
2976.35131	6667.8875
2978.7948	6650.0875
2981.23681	6625.9875
2983.67732	6624.2875
2986.11635	6605.2875
2988.55388	6583.1875
2990.98993	6565.1875
2993.4245	6557.7875
2995.85758	6555.3875
2998.28917	6555.5875
3000.71928	6529.3875
3003.14791	6510.4875
3005.57506	6503.4875
3008.00073	6505.0875
3010.42493	6505.3875
3012.84764	6492.6875
3015.26888	6481.9875
3017.68865	6457.0875
3020.10694	6478.7875
3022.52376	6433.0875
3024.9391	6436.4875
3027.35298	6411.9875
3029.76539	6406.2875
3032.17632	6385.6875
3034.5858	6391.7875
3036.9938	6382.5875
3039.40034	6387.1875
3041.80542	6364.1875
3044.20903	6367.4875
3046.61118	6380.8875
3049.01187	6340.0875
3051.4111	6330.2875
3053.80888	6307.2875
3056.20519	6316.0875
3058.60005	6299.9875
3060.99345	6269.5875
3063.3854	6279.3875
3065.7759	6242.1875
3068.16494	6262.1875
3070.55254	6234.5875
3072.93868	6223.7875
