Data from AgNP_FTO_APTES_UA_100uM_CRN_10uM_R6G_10uM_NaF_0.1M_Addition_RamanShift__38__16-01-20-445.txt Node

Date: Thu Mar 24 16:01:20 GMT 2022
User: TCL
Spectrometer: QEP01345
Trigger mode: 4
Integration Time (sec): 7.000000E0
Scans to average: 10
Electric dark correction enabled: true
Nonlinearity correction enabled: false
Boxcar width: 0
XAxis mode: Raman Shifts
Number of Pixels in Spectrum: 1044
>>>>>Begin Spectral Data<<<<<
46.04893	-1.7625
50.45542	-0.4625
54.85868	0.8375
59.25871	-0.4625
63.6555	26.9375
68.04907	29.6375
72.43941	26.8375
76.82654	27.7375
81.21044	34.2375
85.59113	31.8375
89.96862	34.9375
94.34289	33.2375
98.71396	39.2375
103.08183	37.1375
107.4465	39.6375
111.80798	35.6375
116.16626	39.9375
120.52136	40.8375
124.87327	40.9375
129.222	42.8375
133.56755	45.4375
137.90993	48.5375
142.24913	55.2375
146.58517	56.0375
150.91804	69.3375
155.24774	86.6375
159.57429	99.5375
163.89768	128.1375
168.21792	173.7375
172.53501	234.2375
176.84895	334.0375
181.15975	461.0375
185.46741	648.7375
189.77193	901.3375
194.07331	1202.0375
198.37157	1563.6375
202.6667	1932.1375
206.9587	2347.8375
211.24758	2706.1375
215.53334	3103.6375
219.81599	3543.1375
224.09553	4017.3375
228.37195	4562.2375
232.64527	5144.4375
236.91549	5731.7375
241.18261	6310.0375
245.44663	6762.7375
249.70755	7136.9375
253.96539	7448.4375
258.22014	7696.4375
262.4718	7929.3375
266.72039	8083.2375
270.96589	8165.9375
275.20832	8123.8375
279.44768	8039.0375
283.68397	7886.7375
287.91719	7800.6375
292.14735	7788.4375
296.37445	7868.8375
300.59849	8082.9375
304.81948	8379.9375
309.03742	8586.0375
313.25231	8598.9375
317.46415	8374.3375
321.67296	7956.4375
325.87872	7548.8375
330.08145	7349.7375
334.28114	7303.9375
338.47781	7375.7375
342.67145	7522.7375
346.86207	7768.4375
351.04966	8057.7375
355.23424	8418.9375
359.4158	8657.9375
363.59435	8833.0375
367.76989	8859.3375
371.94243	8850.8375
376.11196	8853.1375
380.27849	8802.7375
384.44203	8752.8375
388.60257	8692.0375
392.76012	8731.8375
396.91468	8787.8375
401.06626	8976.7375
405.21485	9100.8375
409.36047	8947.1375
413.50311	8553.9375
417.64277	8203.5375
421.77947	8004.8375
425.9132	7905.2375
430.04396	7946.8375
434.17176	7951.4375
438.2966	8013.0375
442.41849	8135.3375
446.53742	8308.9375
450.6534	8502.0375
454.76644	8621.5375
458.87653	8625.9375
462.98368	8590.4375
467.08789	8508.2375
471.18916	8396.9375
475.2875	8246.4375
479.38291	8093.2375
483.4754	7978.4375
487.56496	7894.2375
491.6516	7849.3375
495.73531	7850.9375
499.81612	7841.1375
503.89401	7941.0375
507.96899	7993.3375
512.04106	8090.0375
516.11023	8164.8375
520.1765	8209.3375
524.23987	8206.1375
528.30034	8161.2375
532.35792	8102.9375
536.41261	8015.7375
540.46441	7860.4375
544.51333	7771.1375
548.55936	7823.0375
552.60252	7931.1375
556.64279	8116.7375
560.6802	8164.1375
564.71473	8230.3375
568.7464	8399.3375
572.7752	8577.0375
576.80114	8500.9375
580.82422	8465.5375
584.84444	8531.8375
588.86181	8652.3375
592.87633	8742.2375
596.888	8863.1375
600.89682	8966.8375
604.9028	9639.6375
608.90594	11733.4375
612.90624	14500.1375
616.90371	13868.3375
620.89834	10145.3375
624.89015	8306.7375
628.87913	7968.1375
632.86528	8122.7375
636.84862	8329.9375
640.82913	8257.7375
644.80683	7910.6375
648.78172	7615.4375
652.75379	7622.5375
656.72306	7847.4375
660.68952	8170.2375
664.65319	8089.8375
668.61405	7748.5375
672.57211	7610.9375
676.52738	7625.2375
680.47986	7624.2375
684.42955	7507.3375
688.37646	7446.0375
692.32058	7448.0375
696.26192	7497.7375
700.20048	7607.0375
704.13626	7659.8375
708.06928	7669.0375
711.99952	7613.8375
715.927	7588.7375
719.85171	7605.6375
723.77365	7647.5375
727.69284	7617.3375
731.60928	7587.7375
735.52295	7576.8375
739.43388	7588.1375
743.34206	7592.2375
747.24749	7598.4375
751.15017	7599.3375
755.05012	7679.6375
758.94733	7975.7375
762.8418	8750.1375
766.73354	10150.6375
770.62254	11567.4375
774.50882	12219.7375
778.39237	11667.7375
782.27321	10303.4375
786.15132	8977.1375
790.02671	8121.8375
793.89938	7723.8375
797.76935	7516.9375
801.6366	7413.4375
805.50115	7396.2375
809.36299	7315.5375
813.22213	7299.7375
817.07857	7240.4375
820.93231	7248.0375
824.78336	7256.2375
828.63172	7251.6375
832.47738	7261.5375
836.32036	7236.5375
840.16066	7199.6375
843.99827	7186.8375
847.8332	7183.9375
851.66546	7186.7375
855.49504	7179.3375
859.32195	7198.4375
863.1462	7165.9375
866.96777	7173.2375
870.78668	7182.9375
874.60293	7218.2375
878.41652	7244.9375
882.22745	7261.7375
886.03573	7313.2375
889.84136	7303.6375
893.64433	7269.3375
897.44466	7229.4375
901.24235	7202.2375
905.0374	7150.4375
908.8298	7130.4375
912.61957	7066.0375
916.40671	7069.9375
920.19121	7126.9375
923.97308	7213.8375
927.75233	7276.5375
931.52895	7310.4375
935.30295	7229.1375
939.07433	7035.2375
942.84309	6928.9375
946.60924	6808.5375
950.37278	6783.5375
954.13371	6775.9375
957.89203	6741.5375
961.64774	6733.0375
965.40086	6731.5375
969.15137	6697.7375
972.89929	6676.9375
976.64461	6673.2375
980.38733	6684.7375
984.12747	6677.7375
987.86502	6682.8375
991.59999	6729.1375
995.33237	6797.2375
999.06217	6866.4375
1002.78939	7006.4375
1006.51404	7152.2375
1010.23611	7288.0375
1013.95561	7405.0375
1017.67255	7401.4375
1021.38692	7314.9375
1025.09872	7182.3375
1028.80796	7056.7375
1032.51465	7015.7375
1036.21877	7035.1375
1039.92035	7098.2375
1043.61937	7138.7375
1047.31584	7162.7375
1051.00976	7207.8375
1054.70114	7206.8375
1058.38998	7203.2375
1062.07627	7234.4375
1065.76003	7276.3375
1069.44126	7346.5375
1073.11995	7468.1375
1076.79611	7632.1375
1080.46974	7762.4375
1084.14085	7938.3375
1087.80943	8103.6375
1091.47549	8163.0375
1095.13903	8065.3375
1098.80005	7858.4375
1102.45857	7670.4375
1106.11456	7593.8375
1109.76805	7600.9375
1113.41903	7722.1375
1117.06751	7927.5375
1120.71348	8200.7375
1124.35696	8527.9375
1127.99793	8816.5375
1131.63641	8754.5375
1135.2724	8447.9375
1138.90589	8183.4375
1142.5369	7938.0375
1146.16542	7795.5375
1149.79145	7691.7375
1153.415	7651.2375
1157.03607	7692.8375
1160.65467	7830.2375
1164.27079	8116.3375
1167.88443	8550.8375
1171.49561	9203.5375
1175.10432	10192.6375
1178.71056	11490.0375
1182.31434	12635.2375
1185.91565	12998.2375
1189.51451	12741.8375
1193.11091	12078.1375
1196.70485	11294.3375
1200.29634	10593.7375
1203.88538	9979.1375
1207.47197	9378.1375
1211.05612	8822.2375
1214.63782	8454.9375
1218.21708	8322.4375
1221.79391	8249.6375
1225.36829	8263.8375
1228.94024	8230.4375
1232.50976	8158.0375
1236.07685	8120.7375
1239.6415	8107.9375
1243.20374	8132.0375
1246.76355	8136.4375
1250.32093	8213.4375
1253.8759	8334.2375
1257.42845	8590.6375
1260.97859	8867.2375
1264.52631	9203.8375
1268.07163	9534.1375
1271.61453	9817.9375
1275.15503	10069.1375
1278.69312	10215.8375
1282.22882	10327.5375
1285.76211	10589.7375
1289.29301	10921.4375
1292.82151	11298.7375
1296.34761	11722.3375
1299.87133	12332.1375
1303.39266	13324.6375
1306.9116	14704.3375
1310.42815	16138.1375
1313.94233	16743.2375
1317.45412	16177.9375
1320.96354	15049.4375
1324.47058	13881.2375
1327.97525	12880.1375
1331.47754	12240.7375
1334.97747	11970.2375
1338.47502	11950.4375
1341.97022	12197.6375
1345.46305	12825.0375
1348.95352	13705.7375
1352.44163	14810.3375
1355.92738	16306.2375
1359.41078	18413.1375
1362.89183	20385.0375
1366.37053	19782.1375
1369.84688	16691.3375
1373.32088	13674.5375
1376.79254	11807.8375
1380.26186	10872.6375
1383.72883	10326.5375
1387.19347	9882.2375
1390.65578	9474.9375
1394.11575	9145.5375
1397.57339	8933.9375
1401.0287	8876.5375
1404.48168	8829.8375
1407.93234	8802.6375
1411.38068	8801.8375
1414.82669	8772.1375
1418.27039	8729.8375
1421.71177	8668.2375
1425.15083	8478.5375
1428.58758	8430.0375
1432.02203	8447.6375
1435.45416	8583.4375
1438.88399	8669.5375
1442.31151	8701.0375
1445.73673	8785.4375
1449.15965	8836.5375
1452.58027	8865.9375
1455.9986	8812.0375
1459.41463	8867.4375
1462.82837	9015.5375
1466.23982	9250.4375
1469.64898	9523.1375
1473.05586	9768.0375
1476.46045	9899.8375
1479.86276	10093.1375
1483.26279	10244.7375
1486.66054	10545.5375
1490.05602	10952.8375
1493.44922	11615.3375
1496.84016	12587.0375
1500.22882	14046.4375
1503.61521	16025.9375
1506.99934	18097.2375
1510.38121	19522.4375
1513.76081	19353.0375
1517.13816	17642.7375
1520.51324	15184.8375
1523.88607	13153.2375
1527.25665	11830.0375
1530.62498	11114.1375
1533.99105	10698.2375
1537.35488	10369.0375
1540.71647	10086.1375
1544.07581	9845.8375
1547.4329	9708.4375
1550.78776	9600.1375
1554.14038	9599.9375
1557.49077	9731.8375
1560.83892	9915.9375
1564.18484	10271.6375
1567.52853	10704.8375
1570.86999	11076.1375
1574.20922	11305.7375
1577.54624	11173.2375
1580.88103	10548.7375
1584.2136	9738.6375
1587.54395	9261.9375
1590.87208	9250.1375
1594.19801	9662.8375
1597.52172	10291.6375
1600.84321	10556.7375
1604.16251	10250.6375
1607.47959	9735.3375
1610.79447	9237.8375
1614.10715	8655.9375
1617.41763	8114.5375
1620.7259	7737.8375
1624.03199	7532.7375
1627.33587	7500.6375
1630.63757	7644.0375
1633.93707	7989.4375
1637.23439	8641.0375
1640.52951	9751.6375
1643.82246	11358.3375
1647.11321	13172.3375
1650.40179	14339.0375
1653.68819	13818.4375
1656.97241	11892.7375
1660.25446	9835.1375
1663.53433	8383.4375
1666.81203	7485.3375
1670.08756	6992.4375
1673.36092	6661.0375
1676.63211	6480.6375
1679.90115	6339.9375
1683.16801	6235.8375
1686.43272	6158.2375
1689.69527	6104.1375
1692.95567	6054.5375
1696.2139	6031.1375
1699.46999	6023.3375
1702.72392	5997.3375
1705.97571	5962.2375
1709.22535	5943.5375
1712.47284	5911.5375
1715.71819	5897.5375
1718.96139	5885.5375
1722.20246	5856.6375
1725.44139	5832.2375
1728.67818	5782.6375
1731.91284	5724.7375
1735.14537	5693.8375
1738.37576	5671.4375
1741.60403	5628.7375
1744.83017	5616.7375
1748.05418	5589.9375
1751.27607	5585.4375
1754.49584	5556.4375
1757.71349	5570.8375
1760.92903	5568.5375
1764.14244	5536.8375
1767.35375	5551.1375
1770.56294	5527.1375
1773.77002	5482.2375
1776.97499	5460.6375
1780.17785	5441.4375
1783.37861	5418.7375
1786.57727	5397.9375
1789.77382	5386.1375
1792.96828	5391.9375
1796.16064	5361.8375
1799.3509	5347.2375
1802.53907	5347.5375
1805.72514	5317.0375
1808.90913	5294.4375
1812.09102	5277.5375
1815.27083	5268.5375
1818.44856	5256.3375
1821.6242	5239.6375
1824.79776	5230.3375
1827.96924	5243.5375
1831.13864	5226.1375
1834.30597	5219.1375
1837.47122	5205.2375
1840.6344	5182.7375
1843.7955	5193.5375
1846.95454	5172.3375
1850.11151	5167.7375
1853.26642	5160.4375
1856.41926	5172.7375
1859.57004	5161.8375
1862.71876	5149.7375
1865.86542	5159.8375
1869.01003	5162.8375
1872.15258	5129.3375
1875.29308	5141.1375
1878.43152	5126.8375
1881.56792	5128.6375
1884.70227	5103.4375
1887.83457	5102.7375
1890.96482	5104.8375
1894.09304	5073.6375
1897.21921	5078.9375
1900.34335	5056.6375
1903.46544	5073.0375
1906.58551	5052.9375
1909.70353	5043.9375
1912.81953	5025.2375
1915.93349	5019.4375
1919.04543	5017.3375
1922.15534	4985.8375
1925.26322	4992.1375
1928.36908	4977.3375
1931.47292	4975.5375
1934.57473	4965.7375
1937.67453	4949.6375
1940.77232	4940.4375
1943.86808	4916.6375
1946.96184	4890.3375
1950.05358	4878.5375
1953.14331	4858.5375
1956.23103	4838.7375
1959.31675	4844.1375
1962.40046	4824.7375
1965.48217	4810.4375
1968.56188	4789.7375
1971.63959	4789.9375
1974.7153	4782.1375
1977.78901	4752.2375
1980.86073	4739.7375
1983.93046	4727.8375
1986.99819	4694.3375
1990.06394	4682.9375
1993.1277	4659.9375
1996.18947	4642.2375
1999.24925	4631.6375
2002.30706	4607.8375
2005.36288	4593.0375
2008.41672	4564.9375
2011.46859	4568.8375
2014.51848	4557.1375
2017.56639	4545.5375
2020.61233	4521.9375
2023.6563	4514.4375
2026.6983	4486.1375
2029.73833	4499.9375
2032.7764	4463.4375
2035.8125	4461.0375
2038.84664	4453.8375
2041.87881	4448.7375
2044.90903	4434.1375
2047.93729	4429.8375
2050.96359	4413.0375
2053.98794	4416.0375
2057.01034	4407.8375
2060.03078	4392.6375
2063.04927	4389.8375
2066.06582	4399.1375
2069.08042	4390.2375
2072.09307	4392.1375
2075.10378	4380.4375
2078.11255	4392.6375
2081.11938	4370.3375
2084.12426	4379.1375
2087.12722	4376.0375
2090.12824	4376.5375
2093.12732	4368.6375
2096.12447	4379.2375
2099.11969	4366.7375
2102.11299	4362.6375
2105.10435	4371.4375
2108.09379	4366.3375
2111.08131	4367.6375
2114.0669	4368.6375
2117.05057	4372.2375
2120.03233	4361.7375
2123.01216	4390.0375
2125.99008	4386.4375
2128.96609	4403.2375
2131.94018	4392.0375
2134.91236	4388.8375
2137.88263	4384.9375
2140.851	4400.0375
2143.81746	4395.5375
2146.78201	4384.6375
2149.74466	4383.9375
2152.7054	4385.2375
2155.66425	4357.8375
2158.6212	4354.6375
2161.57625	4363.4375
2164.52941	4354.8375
2167.48067	4337.0375
2170.43004	4337.9375
2173.37752	4366.6375
2176.32311	4359.0375
2179.26681	4347.3375
2182.20863	4345.7375
2185.14856	4341.1375
2188.08661	4335.8375
2191.02278	4328.7375
2193.95707	4328.0375
2196.88948	4325.3375
2199.82001	4314.5375
2202.74867	4308.5375
2205.67545	4307.1375
2208.60037	4286.8375
2211.52341	4274.6375
2214.44458	4289.0375
2217.36388	4262.1375
2220.28132	4242.6375
2223.1969	4247.8375
2226.11061	4234.2375
2229.02246	4233.6375
2231.93245	4245.0375
2234.84058	4222.9375
2237.74686	4216.3375
2240.65128	4204.6375
2243.55385	4198.8375
2246.45456	4206.4375
2249.35343	4192.2375
2252.25044	4204.3375
2255.14561	4188.0375
2258.03893	4184.3375
2260.93041	4192.4375
2263.82004	4179.6375
2266.70783	4163.0375
2269.59378	4166.7375
2272.4779	4151.8375
2275.36017	4134.2375
2278.24061	4122.8375
2281.11922	4105.4375
2283.996	4108.2375
2286.87094	4114.6375
2289.74405	4080.2375
2292.61534	4088.9375
2295.4848	4061.2375
2298.35243	4064.9375
2301.21824	4057.5375
2304.08223	4053.6375
2306.94439	4053.5375
2309.80474	4040.3375
2312.66327	4043.7375
2315.51999	4025.5375
2318.37489	4029.2375
2321.22797	4036.1375
2324.07925	4021.6375
2326.92871	4019.3375
2329.77637	4020.9375
2332.62222	4010.9375
2335.46626	3999.6375
2338.3085	3989.7375
2341.14893	3989.0375
2343.98756	4005.8375
2346.8244	3998.2375
2349.65943	4007.1375
2352.49267	3994.2375
2355.32411	4009.9375
2358.15376	4012.0375
2360.98161	4021.1375
2363.80768	4025.1375
2366.63195	4028.5375
2369.45444	4024.8375
2372.27514	4006.6375
2375.09405	4009.5375
2377.91118	4002.1375
2380.72652	3984.3375
2383.54009	3963.7375
2386.35187	3957.1375
2389.16188	3930.0375
2391.97011	3915.3375
2394.77657	3901.7375
2397.58125	3902.4375
2400.38416	3897.4375
2403.18529	3871.3375
2405.98466	3871.3375
2408.78226	3847.3375
2411.57809	3845.1375
2414.37216	3857.6375
2417.16446	3848.9375
2419.955	3846.4375
2422.74378	3853.1375
2425.5308	3838.5375
2428.31606	3847.0375
2431.09956	3825.5375
2433.88131	3837.2375
2436.6613	3843.0375
2439.43954	3834.7375
2442.21603	3840.7375
2444.99077	3834.5375
2447.76377	3830.0375
2450.53501	3837.7375
2453.30451	3834.3375
2456.07226	3848.2375
2458.83827	3826.0375
2461.60254	3820.2375
2464.36507	3818.3375
2467.12586	3818.1375
2469.88492	3819.1375
2472.64224	3825.9375
2475.39782	3815.7375
2478.15167	3840.0375
2480.90379	3834.2375
2483.65417	3837.4375
2486.40283	3850.3375
2489.14976	3848.9375
2491.89497	3840.9375
2494.63845	3843.4375
2497.3802	3840.8375
2500.12024	3837.6375
2502.85855	3820.9375
2505.59514	3811.7375
2508.33002	3798.8375
2511.06318	3781.5375
2513.79462	3764.9375
2516.52435	3759.6375
2519.25237	3749.3375
2521.97867	3730.1375
2524.70327	3725.1375
2527.42616	3717.1375
2530.14734	3726.3375
2532.86681	3724.2375
2535.58458	3715.7375
2538.30065	3696.9375
2541.01501	3693.4375
2543.72768	3701.2375
2546.43864	3695.8375
2549.14791	3702.8375
2551.85548	3699.9375
2554.56136	3679.1375
2557.26554	3676.2375
2559.96803	3672.1375
2562.66883	3671.1375
2565.36794	3671.9375
2568.06536	3667.1375
2570.7611	3637.5375
2573.45514	3655.3375
2576.14751	3642.9375
2578.83819	3631.4375
2581.52719	3635.2375
2584.21451	3618.6375
2586.90015	3623.1375
2589.58411	3623.8375
2592.2664	3615.1375
2594.94701	3621.5375
2597.62594	3581.1375
2600.30321	3592.0375
2602.9788	3583.5375
2605.65273	3581.1375
2608.32498	3580.4375
2610.99557	3578.4375
2613.66449	3567.0375
2616.33175	3567.2375
2618.99734	3570.5375
2621.66128	3553.1375
2624.32355	3547.1375
2626.98416	3546.5375
2629.64311	3541.8375
2632.30041	3526.5375
2634.95605	3532.1375
2637.61004	3525.8375
2640.26238	3521.9375
2642.91306	3519.8375
2645.56209	3512.1375
2648.20948	3517.0375
2650.85521	3522.4375
2653.4993	3507.2375
2656.14175	3518.9375
2658.78255	3517.0375
2661.42171	3520.1375
2664.05923	3521.0375
2666.6951	3529.5375
2669.32934	3533.5375
2671.96194	3530.3375
2674.59291	3538.9375
2677.22224	3532.3375
2679.84993	3533.0375
2682.476	3514.7375
2685.10043	3510.9375
2687.72324	3510.6375
2690.34441	3510.7375
2692.96396	3514.3375
2695.58188	3512.3375
2698.19818	3495.2375
2700.81285	3508.8375
2703.4259	3517.8375
2706.03733	3529.6375
2708.64714	3507.1375
2711.25533	3524.6375
2713.86191	3532.4375
2716.46687	3517.1375
2719.07021	3502.3375
2721.67194	3524.2375
2724.27206	3510.4375
2726.87057	3519.3375
2729.46747	3516.1375
2732.06276	3522.1375
2734.65644	3502.7375
2737.24852	3508.0375
2739.83899	3493.1375
2742.42786	3490.2375
2745.01513	3485.2375
2747.60079	3477.6375
2750.18486	3465.3375
2752.76733	3458.7375
2755.3482	3469.2375
2757.92747	3456.2375
2760.50515	3454.3375
2763.08123	3448.2375
2765.65573	3442.7375
2768.22863	3445.0375
2770.79994	3425.2375
2773.36967	3431.5375
2775.9378	3430.4375
2778.50435	3424.0375
2781.06932	3419.5375
2783.6327	3420.1375
2786.1945	3418.2375
2788.75471	3406.4375
2791.31335	3405.7375
2793.87041	3416.1375
2796.42589	3396.6375
2798.97979	3412.6375
2801.53212	3406.0375
2804.08288	3393.8375
2806.63206	3385.8375
2809.17967	3391.2375
2811.72571	3379.3375
2814.27018	3391.8375
2816.81308	3386.0375
2819.35442	3381.9375
2821.89419	3372.4375
2824.43239	3389.0375
2826.96904	3376.0375
2829.50412	3374.9375
2832.03763	3378.3375
2834.56959	3380.6375
2837.1	3368.5375
2839.62884	3359.1375
2842.15613	3358.6375
2844.68186	3383.8375
2847.20604	3376.3375
2849.72867	3383.4375
2852.24974	3383.4375
2854.76927	3391.5375
2857.28724	3387.8375
2859.80367	3387.4375
2862.31855	3381.3375
2864.83189	3379.3375
2867.34368	3380.6375
2869.85393	3384.5375
2872.36264	3379.3375
2874.8698	3378.8375
2877.37543	3381.4375
2879.87952	3370.8375
2882.38207	3361.0375
2884.88308	3355.8375
2887.38256	3356.9375
2889.88051	3356.9375
2892.37692	3359.3375
2894.8718	3345.0375
2897.36515	3365.3375
2899.85698	3354.0375
2902.34727	3363.1375
2904.83604	3365.9375
2907.32328	3371.0375
2909.809	3391.3375
2912.29319	3379.6375
2914.77587	3379.8375
2917.25702	3384.9375
2919.73665	3368.5375
2922.21476	3363.8375
2924.69136	3370.9375
2927.16644	3371.9375
2929.64	3354.2375
2932.11205	3350.4375
2934.58258	3325.6375
2937.05161	3323.6375
2939.51912	3328.0375
2941.98513	3318.5375
2944.44962	3311.6375
2946.91261	3304.2375
2949.37409	3303.3375
2951.83407	3301.4375
2954.29254	3302.9375
2956.74951	3298.0375
2959.20498	3295.1375
2961.65895	3288.4375
2964.11142	3285.0375
2966.56239	3289.6375
2969.01186	3288.7375
2971.45984	3296.7375
2973.90632	3267.6375
2976.35131	3261.0375
2978.7948	3249.1375
2981.23681	3235.7375
2983.67732	3231.1375
2986.11635	3232.4375
2988.55388	3233.0375
2990.98993	3221.8375
2993.4245	3210.1375
2995.85758	3206.2375
2998.28917	3201.6375
3000.71928	3197.9375
3003.14791	3200.7375
3005.57506	3200.9375
3008.00073	3181.9375
3010.42493	3197.8375
3012.84764	3185.0375
3015.26888	3180.4375
3017.68865	3171.2375
3020.10694	3169.6375
3022.52376	3166.6375
3024.9391	3170.4375
3027.35298	3157.3375
3029.76539	3159.3375
3032.17632	3158.1375
3034.5858	3145.7375
3036.9938	3140.6375
3039.40034	3131.2375
3041.80542	3123.9375
3044.20903	3126.1375
3046.61118	3133.2375
3049.01187	3117.7375
3051.4111	3124.2375
3053.80888	3127.0375
3056.20519	3120.7375
3058.60005	3098.9375
3060.99345	3112.2375
3063.3854	3109.7375
3065.7759	3091.8375
3068.16494	3094.2375
3070.55254	3093.4375
3072.93868	3089.1375
3075.32338	3072.4375
3077.70662	3066.8375
3080.08842	3049.6375
3082.46878	3066.8375
3084.84769	3044.2375
3087.22515	3065.8375
3089.60118	3069.2375
3091.97576	3060.1375
3094.3489	3050.4375
3096.72061	3059.2375
3099.09087	3067.2375
3101.4597	3065.6375
3103.82709	3059.6375
3106.19305	3056.6375
3108.55757	3067.8375
3110.92066	3062.8375
3113.28232	3061.4375
3115.64255	3052.6375
