Data from AgNP_FTO_APTES_UA_100uM_CRN_0uM_R6G_10uM_NaF_0.1M_Addition_RamanShift__40__11-31-50-134.txt Node

Date: Thu Mar 24 11:31:50 GMT 2022
User: TCL
Spectrometer: QEP01345
Trigger mode: 4
Integration Time (sec): 7.000000E0
Scans to average: 10
Electric dark correction enabled: true
Nonlinearity correction enabled: false
Boxcar width: 0
XAxis mode: Raman Shifts
Number of Pixels in Spectrum: 1044
>>>>>Begin Spectral Data<<<<<
46.04893	-1.825
50.45542	-0.725
54.85868	0.475
59.25871	-0.725
63.6555	40.875
68.04907	46.775
72.43941	48.675
76.82654	48.675
81.21044	52.475
85.59113	52.575
89.96862	54.175
94.34289	56.575
98.71396	56.575
103.08183	59.475
107.4465	59.375
111.80798	67.775
116.16626	64.875
120.52136	68.375
124.87327	68.575
129.222	74.175
133.56755	79.675
137.90993	83.175
142.24913	97.175
146.58517	104.975
150.91804	125.475
155.24774	145.975
159.57429	188.075
163.89768	237.075
168.21792	325.275
172.53501	440.375
176.84895	619.775
181.15975	872.975
185.46741	1226.875
189.77193	1686.775
194.07331	2283.975
198.37157	2967.875
202.6667	3688.375
206.9587	4430.775
211.24758	5211.675
215.53334	6052.675
219.81599	7006.575
224.09553	8127.275
228.37195	9362.475
232.64527	10687.075
236.91549	11929.075
241.18261	13028.175
245.44663	13789.975
249.70755	14357.875
253.96539	14809.575
258.22014	15226.875
262.4718	15541.675
266.72039	15628.775
270.96589	15429.375
275.20832	15068.875
279.44768	14668.875
283.68397	14282.775
287.91719	14110.875
292.14735	14225.275
296.37445	14801.075
300.59849	15742.975
304.81948	16985.175
309.03742	18044.275
313.25231	18403.175
317.46415	17494.275
321.67296	15743.775
325.87872	14171.275
330.08145	13345.375
334.28114	13277.075
338.47781	13591.875
342.67145	14108.975
346.86207	14911.075
351.04966	16138.975
355.23424	17663.075
359.4158	18776.675
363.59435	19167.975
367.76989	19028.875
371.94243	18666.175
376.11196	18236.375
380.27849	17836.975
384.44203	17389.275
388.60257	16932.575
392.76012	16664.775
396.91468	16762.775
401.06626	17249.875
405.21485	17662.975
409.36047	17160.375
413.50311	15828.875
417.64277	14528.875
421.77947	13765.575
425.9132	13477.775
430.04396	13421.375
434.17176	13517.775
438.2966	13801.075
442.41849	14361.475
446.53742	15078.875
450.6534	15712.075
454.76644	15920.075
458.87653	15718.675
462.98368	15255.375
467.08789	14759.075
471.18916	14240.275
475.2875	13680.475
479.38291	13193.775
483.4754	12858.675
487.56496	12617.575
491.6516	12447.275
495.73531	12342.375
499.81612	12392.875
503.89401	12573.175
507.96899	12853.375
512.04106	13113.575
516.11023	13415.475
520.1765	13610.275
524.23987	13630.175
528.30034	13469.375
532.35792	13246.975
536.41261	12872.775
540.46441	12339.675
544.51333	12004.775
548.55936	12090.175
552.60252	12586.175
556.64279	13268.775
560.6802	13706.175
564.71473	14245.575
568.7464	15471.475
572.7752	16192.375
576.80114	15307.775
580.82422	14216.575
584.84444	13864.575
588.86181	14059.975
592.87633	14530.275
596.888	14850.375
600.89682	15041.275
604.9028	17396.275
608.90594	24904.675
612.90624	34804.675
616.90371	33533.675
620.89834	20631.575
624.89015	14052.675
628.87913	12871.875
632.86528	13188.275
636.84862	13639.375
640.82913	13148.475
644.80683	11935.975
648.78172	11121.075
652.75379	11149.475
656.72306	12053.075
660.68952	13200.675
664.65319	12938.575
668.61405	11751.175
672.57211	11144.475
676.52738	11085.075
680.47986	11010.075
684.42955	10745.275
688.37646	10589.675
692.32058	10632.175
696.26192	10867.375
700.20048	11220.775
704.13626	11436.775
708.06928	11440.275
711.99952	11320.975
715.927	11234.775
719.85171	11331.775
723.77365	11424.275
727.69284	11227.775
731.60928	10993.375
735.52295	10984.275
739.43388	11072.575
743.34206	11191.775
747.24749	11233.975
751.15017	11352.475
755.05012	11736.775
758.94733	12947.875
762.8418	15961.575
766.73354	20713.875
770.62254	25012.375
774.50882	26846.575
778.39237	25479.275
782.27321	20965.975
786.15132	16085.375
790.02671	13131.475
793.89938	11817.375
797.76935	11251.875
801.6366	11053.475
805.50115	10882.675
809.36299	10805.575
813.22213	10680.175
817.07857	10642.675
820.93231	10639.675
824.78336	10725.175
828.63172	10836.975
832.47738	10861.975
836.32036	10798.575
840.16066	10677.475
843.99827	10605.775
847.8332	10518.375
851.66546	10485.275
855.49504	10488.275
859.32195	10459.975
863.1462	10378.575
866.96777	10294.175
870.78668	10268.675
874.60293	10300.175
878.41652	10391.475
882.22745	10547.975
886.03573	10678.775
889.84136	10667.375
893.64433	10595.275
897.44466	10572.175
901.24235	10583.375
905.0374	10479.975
908.8298	10301.975
912.61957	10191.975
916.40671	10226.475
920.19121	10372.875
923.97308	10668.875
927.75233	11046.375
931.52895	11300.675
935.30295	11076.375
939.07433	10382.175
942.84309	9851.575
946.60924	9594.675
950.37278	9475.275
954.13371	9431.975
957.89203	9340.275
961.64774	9301.075
965.40086	9273.275
969.15137	9230.175
972.89929	9191.275
976.64461	9181.975
980.38733	9161.675
984.12747	9222.475
987.86502	9288.775
991.59999	9404.975
995.33237	9654.175
999.06217	10060.575
1002.78939	10606.275
1006.51404	11135.375
1010.23611	11485.475
1013.95561	11662.375
1017.67255	11548.275
1021.38692	11235.075
1025.09872	10897.475
1028.80796	10712.175
1032.51465	10829.675
1036.21877	11058.475
1039.92035	11185.075
1043.61937	11223.475
1047.31584	11161.375
1051.00976	11023.475
1054.70114	10880.375
1058.38998	10821.975
1062.07627	10828.075
1065.76003	10889.175
1069.44126	11069.775
1073.11995	11374.375
1076.79611	11761.975
1080.46974	12276.475
1084.14085	13016.575
1087.80943	13668.175
1091.47549	13808.775
1095.13903	13345.675
1098.80005	12526.475
1102.45857	11850.475
1106.11456	11633.975
1109.76805	11856.975
1113.41903	12412.575
1117.06751	13382.975
1120.71348	14735.175
1124.35696	16352.375
1127.99793	17270.775
1131.63641	16514.475
1135.2724	14869.875
1138.90589	13571.975
1142.5369	12835.975
1146.16542	12373.075
1149.79145	12155.975
1153.415	12145.675
1157.03607	12296.575
1160.65467	12720.575
1164.27079	13572.475
1167.88443	14946.075
1171.49561	17153.175
1175.10432	20676.775
1178.71056	25229.275
1182.31434	28661.475
1185.91565	29431.375
1189.51451	28175.675
1193.11091	25859.175
1196.70485	23288.275
1200.29634	21160.675
1203.88538	19301.775
1207.47197	17302.175
1211.05612	15648.975
1214.63782	14802.375
1218.21708	14655.675
1221.79391	14771.475
1225.36829	14778.375
1228.94024	14540.975
1232.50976	14092.675
1236.07685	13865.075
1239.6415	13803.375
1243.20374	13896.575
1246.76355	13987.675
1250.32093	14234.975
1253.8759	14679.975
1257.42845	15453.975
1260.97859	16427.075
1264.52631	17435.975
1268.07163	18421.975
1271.61453	19187.075
1275.15503	19690.075
1278.69312	20036.575
1282.22882	20580.475
1285.76211	21549.575
1289.29301	22779.975
1292.82151	24060.775
1296.34761	25533.375
1299.87133	27823.875
1303.39266	31679.775
1306.9116	37464.775
1310.42815	43544.175
1313.94233	46092.275
1317.45412	43248.075
1320.96354	37976.675
1324.47058	32798.975
1327.97525	28870.475
1331.47754	26689.275
1334.97747	25946.075
1338.47502	26355.575
1341.97022	27543.575
1345.46305	29547.875
1348.95352	32308.375
1352.44163	35901.875
1355.92738	41603.175
1359.41078	50269.775
1362.89183	56946.075
1366.37053	52958.875
1369.84688	41877.275
1373.32088	32493.875
1376.79254	27128.275
1380.26186	24139.175
1383.72883	22209.275
1387.19347	20777.075
1390.65578	19695.075
1394.11575	19008.375
1397.57339	18917.575
1401.0287	19081.075
1404.48168	19358.675
1407.93234	19511.775
1411.38068	19563.275
1414.82669	19466.175
1418.27039	19047.675
1421.71177	18321.475
1425.15083	17667.275
1428.58758	17561.875
1432.02203	17936.375
1435.45416	18247.575
1438.88399	18280.175
1442.31151	18171.775
1445.73673	18295.775
1449.15965	18518.475
1452.58027	18470.075
1455.9986	18304.275
1459.41463	18326.475
1462.82837	18805.475
1466.23982	19610.675
1469.64898	20256.975
1473.05586	20601.675
1476.46045	20663.275
1479.86276	20904.875
1483.26279	21423.875
1486.66054	22361.475
1490.05602	23708.575
1493.44922	25686.475
1496.84016	28697.875
1500.22882	33430.175
1503.61521	40084.075
1506.99934	47428.175
1510.38121	53031.775
1513.76081	53594.375
1517.13816	47891.875
1520.51324	39065.075
1523.88607	31614.375
1527.25665	27078.275
1530.62498	24747.775
1533.99105	23367.875
1537.35488	22442.975
1540.71647	21760.975
1544.07581	21349.975
1547.4329	21030.975
1550.78776	20862.975
1554.14038	20817.075
1557.49077	20992.775
1560.83892	21523.575
1564.18484	22546.675
1567.52853	23898.575
1570.86999	24935.375
1574.20922	25434.275
1577.54624	24992.275
1580.88103	22938.675
1584.2136	20368.675
1587.54395	19030.975
1590.87208	19468.775
1594.19801	21386.075
1597.52172	24043.775
1600.84321	25388.175
1604.16251	24365.075
1607.47959	22043.275
1610.79447	19372.475
1614.10715	16923.375
1617.41763	15086.175
1620.7259	14032.175
1624.03199	13565.775
1627.33587	13626.775
1630.63757	14278.875
1633.93707	15605.475
1637.23439	17943.075
1640.52951	21739.175
1643.82246	27279.275
1647.11321	33433.275
1650.40179	36915.175
1653.68819	34450.675
1656.97241	27616.375
1660.25446	20644.675
1663.53433	15940.675
1666.81203	13239.775
1670.08756	11778.375
1673.36092	10885.875
1676.63211	10361.475
1679.90115	10005.175
1683.16801	9758.075
1686.43272	9590.275
1689.69527	9445.175
1692.95567	9359.075
1696.2139	9293.075
1699.46999	9249.775
1702.72392	9192.575
1705.97571	9168.675
1709.22535	9185.875
1712.47284	9174.675
1715.71819	9197.475
1718.96139	9150.775
1722.20246	9102.675
1725.44139	9000.075
1728.67818	8879.775
1731.91284	8782.375
1735.14537	8695.975
1738.37576	8611.375
1741.60403	8570.775
1744.83017	8513.775
1748.05418	8489.275
1751.27607	8445.975
1754.49584	8394.475
1757.71349	8363.075
1760.92903	8345.575
1764.14244	8317.575
1767.35375	8295.575
1770.56294	8243.175
1773.77002	8219.375
1776.97499	8166.075
1780.17785	8110.875
1783.37861	8081.475
1786.57727	8061.375
1789.77382	8035.975
1792.96828	8026.575
1796.16064	7997.275
1799.3509	7992.075
1802.53907	7978.075
1805.72514	7938.675
1808.90913	7905.775
1812.09102	7892.275
1815.27083	7862.075
1818.44856	7842.475
1821.6242	7802.375
1824.79776	7789.775
1827.96924	7771.275
1831.13864	7763.475
1834.30597	7759.575
1837.47122	7723.575
1840.6344	7713.675
1843.7955	7715.375
1846.95454	7713.275
1850.11151	7709.075
1853.26642	7709.375
1856.41926	7737.475
1859.57004	7711.875
1862.71876	7726.375
1865.86542	7727.475
1869.01003	7742.975
1872.15258	7745.575
1875.29308	7749.175
1878.43152	7759.675
1881.56792	7771.275
1884.70227	7778.875
1887.83457	7767.075
1890.96482	7740.575
1894.09304	7759.775
1897.21921	7775.275
1900.34335	7775.175
1903.46544	7757.275
1906.58551	7784.775
1909.70353	7767.275
1912.81953	7746.075
1915.93349	7732.275
1919.04543	7716.375
1922.15534	7680.775
1925.26322	7643.475
1928.36908	7617.475
1931.47292	7584.075
1934.57473	7561.175
1937.67453	7496.475
1940.77232	7464.175
1943.86808	7446.975
1946.96184	7427.975
1950.05358	7395.175
1953.14331	7386.075
1956.23103	7373.775
1959.31675	7333.575
1962.40046	7330.575
1965.48217	7338.275
1968.56188	7347.375
1971.63959	7343.675
1974.7153	7322.575
1977.78901	7302.675
1980.86073	7247.475
1983.93046	7208.775
1986.99819	7143.375
1990.06394	7134.475
1993.1277	7098.075
1996.18947	7064.875
1999.24925	7028.075
2002.30706	6986.775
2005.36288	6975.875
2008.41672	6937.075
2011.46859	6917.775
2014.51848	6880.975
2017.56639	6885.575
2020.61233	6843.175
2023.6563	6810.175
2026.6983	6777.075
2029.73833	6790.875
2032.7764	6770.675
2035.8125	6747.875
2038.84664	6757.175
2041.87881	6742.475
2044.90903	6739.175
2047.93729	6705.375
2050.96359	6723.075
2053.98794	6693.675
2057.01034	6677.275
2060.03078	6675.575
2063.04927	6681.975
2066.06582	6651.575
2069.08042	6633.175
2072.09307	6641.975
2075.10378	6629.975
2078.11255	6646.275
2081.11938	6630.675
2084.12426	6632.675
2087.12722	6605.575
2090.12824	6627.975
2093.12732	6634.675
2096.12447	6625.875
2099.11969	6629.675
2102.11299	6621.375
2105.10435	6621.675
2108.09379	6619.475
2111.08131	6611.975
2114.0669	6627.475
2117.05057	6620.675
2120.03233	6641.775
2123.01216	6652.075
2125.99008	6648.575
2128.96609	6659.775
2131.94018	6658.775
2134.91236	6657.575
2137.88263	6648.475
2140.851	6612.875
2143.81746	6616.475
2146.78201	6603.875
2149.74466	6578.475
2152.7054	6580.375
2155.66425	6557.975
2158.6212	6533.475
2161.57625	6533.475
2164.52941	6521.175
2167.48067	6505.675
2170.43004	6481.675
2173.37752	6491.475
2176.32311	6480.175
2179.26681	6518.475
2182.20863	6506.675
2185.14856	6531.675
2188.08661	6508.475
2191.02278	6478.475
2193.95707	6470.175
2196.88948	6480.075
2199.82001	6460.175
2202.74867	6470.075
2205.67545	6449.575
2208.60037	6450.275
2211.52341	6432.275
2214.44458	6429.375
2217.36388	6390.175
2220.28132	6389.575
2223.1969	6385.275
2226.11061	6351.475
2229.02246	6336.975
2231.93245	6340.375
2234.84058	6311.175
2237.74686	6304.775
2240.65128	6301.675
2243.55385	6306.275
2246.45456	6284.875
2249.35343	6293.575
2252.25044	6290.075
2255.14561	6294.175
2258.03893	6320.775
2260.93041	6321.475
2263.82004	6310.775
2266.70783	6312.475
2269.59378	6286.075
2272.4779	6276.975
2275.36017	6244.375
2278.24061	6247.075
2281.11922	6231.175
2283.996	6212.275
2286.87094	6176.875
2289.74405	6176.075
2292.61534	6142.075
2295.4848	6129.975
2298.35243	6109.275
2301.21824	6111.375
2304.08223	6117.875
2306.94439	6122.975
2309.80474	6114.075
2312.66327	6123.675
2315.51999	6118.575
2318.37489	6132.475
2321.22797	6126.875
2324.07925	6115.975
2326.92871	6094.675
2329.77637	6104.475
2332.62222	6096.875
2335.46626	6089.775
2338.3085	6111.975
2341.14893	6123.375
2343.98756	6114.175
2346.8244	6143.775
2349.65943	6135.675
2352.49267	6149.175
2355.32411	6184.275
2358.15376	6216.275
2360.98161	6229.575
2363.80768	6211.075
2366.63195	6257.975
2369.45444	6245.175
2372.27514	6234.475
2375.09405	6226.875
2377.91118	6196.075
2380.72652	6170.475
2383.54009	6150.175
2386.35187	6105.875
2389.16188	6065.175
2391.97011	6048.575
2394.77657	6039.475
2397.58125	6003.875
2400.38416	6000.675
2403.18529	5972.975
2405.98466	5941.475
2408.78226	5921.375
2411.57809	5916.875
2414.37216	5895.475
2417.16446	5884.775
2419.955	5893.475
2422.74378	5908.175
2425.5308	5889.475
2428.31606	5890.575
2431.09956	5899.175
2433.88131	5889.175
2436.6613	5906.275
2439.43954	5911.575
2442.21603	5916.775
2444.99077	5920.975
2447.76377	5936.675
2450.53501	5948.675
2453.30451	5964.475
2456.07226	5950.175
2458.83827	5935.775
2461.60254	5955.575
2464.36507	5936.175
2467.12586	5952.175
2469.88492	5958.075
2472.64224	5978.775
2475.39782	5988.075
2478.15167	5995.375
2480.90379	6008.075
2483.65417	6052.675
2486.40283	6064.075
2489.14976	6105.375
2491.89497	6091.275
2494.63845	6108.375
2497.3802	6111.475
2500.12024	6087.175
2502.85855	6071.475
2505.59514	6053.675
2508.33002	6014.275
2511.06318	5965.375
2513.79462	5931.575
2516.52435	5902.275
2519.25237	5863.375
2521.97867	5853.575
2524.70327	5834.275
2527.42616	5811.275
2530.14734	5801.275
2532.86681	5799.975
2535.58458	5805.375
2538.30065	5817.675
2541.01501	5821.375
2543.72768	5820.575
2546.43864	5833.275
2549.14791	5816.675
2551.85548	5840.875
2554.56136	5838.575
2557.26554	5873.175
2559.96803	5820.575
2562.66883	5808.075
2565.36794	5794.975
2568.06536	5826.075
2570.7611	5799.975
2573.45514	5810.875
2576.14751	5786.575
2578.83819	5768.575
2581.52719	5761.375
2584.21451	5761.475
2586.90015	5753.175
2589.58411	5743.775
2592.2664	5760.975
2594.94701	5726.075
2597.62594	5740.475
2600.30321	5734.175
2602.9788	5749.275
2605.65273	5718.075
2608.32498	5758.575
2610.99557	5751.675
2613.66449	5764.875
2616.33175	5771.675
2618.99734	5762.075
2621.66128	5761.475
2624.32355	5772.075
2626.98416	5769.675
2629.64311	5758.875
2632.30041	5748.875
2634.95605	5748.475
2637.61004	5717.875
2640.26238	5699.975
2642.91306	5711.975
2645.56209	5705.775
2648.20948	5690.775
2650.85521	5689.775
2653.4993	5684.875
2656.14175	5704.175
2658.78255	5687.675
2661.42171	5716.875
2664.05923	5732.475
2666.6951	5756.475
2669.32934	5767.675
2671.96194	5752.375
2674.59291	5781.475
2677.22224	5755.775
2679.84993	5778.275
2682.476	5768.375
2685.10043	5762.775
2687.72324	5750.475
2690.34441	5748.075
2692.96396	5745.075
2695.58188	5750.775
2698.19818	5724.375
2700.81285	5729.775
2703.4259	5734.075
2706.03733	5743.875
2708.64714	5728.675
2711.25533	5740.675
2713.86191	5748.475
2716.46687	5765.175
2719.07021	5763.275
2721.67194	5772.175
2724.27206	5771.875
2726.87057	5773.175
2729.46747	5797.975
2732.06276	5777.275
2734.65644	5750.675
2737.24852	5751.375
2739.83899	5709.975
2742.42786	5715.975
2745.01513	5701.675
2747.60079	5692.875
2750.18486	5683.375
2752.76733	5686.475
2755.3482	5669.175
2757.92747	5688.275
2760.50515	5675.275
2763.08123	5671.175
2765.65573	5678.975
2768.22863	5687.075
2770.79994	5668.875
2773.36967	5676.775
2775.9378	5681.075
2778.50435	5673.275
2781.06932	5672.775
2783.6327	5671.875
2786.1945	5712.475
2788.75471	5694.775
2791.31335	5688.075
2793.87041	5691.075
2796.42589	5678.475
2798.97979	5703.675
2801.53212	5690.775
2804.08288	5715.775
2806.63206	5718.875
2809.17967	5727.875
2811.72571	5728.275
2814.27018	5772.275
2816.81308	5765.075
2819.35442	5791.575
2821.89419	5791.475
2824.43239	5809.275
2826.96904	5816.875
2829.50412	5821.775
2832.03763	5809.775
2834.56959	5797.775
2837.1	5788.775
2839.62884	5797.375
2842.15613	5807.275
2844.68186	5829.275
2847.20604	5826.375
2849.72867	5881.375
2852.24974	5881.875
2854.76927	5910.875
2857.28724	5888.575
2859.80367	5925.075
2862.31855	5938.975
2864.83189	5949.775
2867.34368	5945.675
2869.85393	5979.475
2872.36264	5973.475
2874.8698	5979.875
2877.37543	5974.475
2879.87952	5957.575
2882.38207	5956.075
2884.88308	5937.575
2887.38256	5935.875
2889.88051	5914.375
2892.37692	5917.575
2894.8718	5907.675
2897.36515	5922.475
2899.85698	5883.375
2902.34727	5905.275
2904.83604	5900.575
2907.32328	5903.675
2909.809	5886.175
2912.29319	5893.375
2914.77587	5854.975
2917.25702	5840.675
2919.73665	5824.975
2922.21476	5807.975
2924.69136	5788.675
2927.16644	5790.175
2929.64	5775.675
2932.11205	5737.275
2934.58258	5703.275
2937.05161	5734.575
2939.51912	5716.675
2941.98513	5692.875
2944.44962	5679.475
2946.91261	5640.575
2949.37409	5651.475
2951.83407	5639.475
2954.29254	5641.275
2956.74951	5621.475
2959.20498	5617.875
2961.65895	5576.675
2964.11142	5581.675
2966.56239	5551.775
2969.01186	5520.075
2971.45984	5519.975
2973.90632	5471.975
2976.35131	5461.475
2978.7948	5442.275
2981.23681	5408.875
2983.67732	5415.975
2986.11635	5398.575
2988.55388	5377.675
2990.98993	5386.975
2993.4245	5370.275
2995.85758	5380.375
2998.28917	5377.275
3000.71928	5370.275
3003.14791	5355.275
3005.57506	5369.875
3008.00073	5350.675
3010.42493	5349.075
3012.84764	5330.075
3015.26888	5349.075
3017.68865	5344.975
3020.10694	5311.275
3022.52376	5283.475
3024.9391	5271.575
3027.35298	5255.575
3029.76539	5245.775
3032.17632	5217.375
3034.5858	5194.475
3036.9938	5189.675
3039.40034	5178.775
3041.80542	5165.375
3044.20903	5167.375
3046.61118	5133.475
3049.01187	5124.275
3051.4111	5122.575
3053.80888	5099.575
3056.20519	5080.975
3058.60005	5075.975
3060.99345	5068.375
3063.3854	5055.575
3065.7759	5019.875
3068.16494	5011.375
3070.55254	4992.875
3072.93868	4990.675
3075.32338	4970.575
3077.70662	4967.475
3080.08842	4938.075
3082.46878	4932.175
3084.84769	4924.475
3087.22515	4930.275
3089.60118	4918.275
3091.97576	4909.175
3094.3489	4903.375
3096.72061	4888.975
3099.09087	4889.075
3101.4597	4874.075
3103.82709	4868.875
3106.19305	4860.075
3108.55757	4858.575
3110.92066	4830.175
3113.28232	4826.975
3115.64255	4821.875
3118.00134	4802.275
3120.35871	4806.375
3122.71466	4801.175
3125.06917	4798.075
3127.42226	4808.175
3129.77393	4802.675
3132.12417	4785.375
3134.47299	4802.575
3136.82039	4820.675
3139.16636	4828.775
3141.51092	4817.075
3143.85406	4804.175
3146.19579	4800.175
3148.53609	4816.675
3150.87499	4819.775
3153.21246	4838.175
3155.54853	4830.075
3157.88318	4849.675
3160.21642	4834.275
3162.54826	4832.575
3164.87868	4815.175
3167.2077	4810.075
3169.5353	4814.675
3171.86151	4817.575
3174.18631	4821.775
3176.5097	4802.675
3178.83169	4824.875
3181.15228	4818.275
3183.47147	4804.275
3185.78926	4804.375
3188.10565	4816.775
3190.42065	4820.875
3192.73424	4832.775
