Data from AgNP_FTO_APTES_UA_100uM_CRN_20uM_R6G_10uM_NaF_0.1M_Addition_RamanShift__31__17-02-00-513.txt Node

Date: Thu Mar 24 17:02:00 GMT 2022
User: TCL
Spectrometer: QEP01345
Trigger mode: 4
Integration Time (sec): 7.000000E0
Scans to average: 10
Electric dark correction enabled: true
Nonlinearity correction enabled: false
Boxcar width: 0
XAxis mode: Raman Shifts
Number of Pixels in Spectrum: 1044
>>>>>Begin Spectral Data<<<<<
46.04893	-1.4375
50.45542	0.7625
54.85868	-0.4375
59.25871	-0.4375
63.6555	47.6625
68.04907	48.8625
72.43941	47.7625
76.82654	48.8625
81.21044	55.1625
85.59113	52.7625
89.96862	57.4625
94.34289	53.7625
98.71396	60.5625
103.08183	58.9625
107.4465	64.1625
111.80798	61.8625
116.16626	65.8625
120.52136	67.4625
124.87327	69.9625
129.222	73.3625
133.56755	82.6625
137.90993	83.4625
142.24913	100.2625
146.58517	113.5625
150.91804	130.4625
155.24774	158.7625
159.57429	203.0625
163.89768	264.4625
168.21792	362.2625
172.53501	493.0625
176.84895	697.9625
181.15975	979.1625
185.46741	1381.4625
189.77193	1912.8625
194.07331	2563.6625
198.37157	3332.5625
202.6667	4144.2625
206.9587	4988.8625
211.24758	5840.7625
215.53334	6782.8625
219.81599	7861.2625
224.09553	9090.7625
228.37195	10421.9625
232.64527	11912.3625
236.91549	13312.7625
241.18261	14487.2625
245.44663	15345.6625
249.70755	15943.1625
253.96539	16493.1625
258.22014	16986.7625
262.4718	17443.3625
266.72039	17732.1625
270.96589	17730.8625
275.20832	17454.2625
279.44768	16994.9625
283.68397	16507.2625
287.91719	16313.3625
292.14735	16473.5625
296.37445	17101.2625
300.59849	18177.7625
304.81948	19559.8625
309.03742	20538.4625
313.25231	20716.2625
317.46415	19697.8625
321.67296	17797.7625
325.87872	16080.1625
330.08145	15193.9625
334.28114	15081.0625
338.47781	15402.1625
342.67145	15960.3625
346.86207	16846.9625
351.04966	18143.3625
355.23424	19647.7625
359.4158	20775.7625
363.59435	21211.2625
367.76989	21172.5625
371.94243	20962.8625
376.11196	20642.7625
380.27849	20229.6625
384.44203	19802.8625
388.60257	19377.3625
392.76012	19115.4625
396.91468	19241.1625
401.06626	19751.0625
405.21485	20118.4625
409.36047	19487.9625
413.50311	17972.5625
417.64277	16488.6625
421.77947	15656.5625
425.9132	15266.9625
430.04396	15195.2625
434.17176	15270.5625
438.2966	15557.6625
442.41849	16008.6625
446.53742	16640.7625
450.6534	17205.9625
454.76644	17480.7625
458.87653	17343.1625
462.98368	17010.3625
467.08789	16636.5625
471.18916	16118.6625
475.2875	15594.3625
479.38291	15105.3625
483.4754	14768.9625
487.56496	14458.1625
491.6516	14298.7625
495.73531	14255.6625
499.81612	14324.2625
503.89401	14551.5625
507.96899	14834.7625
512.04106	15184.7625
516.11023	15563.6625
520.1765	15863.7625
524.23987	15895.6625
528.30034	15902.4625
532.35792	15523.1625
536.41261	15118.0625
540.46441	14606.4625
544.51333	14368.8625
548.55936	14557.1625
552.60252	15120.6625
556.64279	15712.1625
560.6802	15964.6625
564.71473	16309.2625
568.7464	17295.8625
572.7752	17770.7625
576.80114	16806.1625
580.82422	15747.5625
584.84444	15362.5625
588.86181	15355.1625
592.87633	15597.5625
596.888	15925.4625
600.89682	16629.0625
604.9028	19591.8625
608.90594	27993.2625
612.90624	38938.1625
616.90371	36900.6625
620.89834	22992.1625
624.89015	16388.2625
628.87913	15231.5625
632.86528	15586.1625
636.84862	16064.4625
640.82913	15581.4625
644.80683	14366.9625
648.78172	13558.5625
652.75379	13577.0625
656.72306	14521.5625
660.68952	15650.4625
664.65319	15274.3625
668.61405	13972.3625
672.57211	13338.1625
676.52738	13337.8625
680.47986	13276.6625
684.42955	13086.2625
688.37646	12916.2625
692.32058	12970.4625
696.26192	13197.5625
700.20048	13462.8625
704.13626	13647.5625
708.06928	13592.7625
711.99952	13431.3625
715.927	13424.7625
719.85171	13586.1625
723.77365	13690.7625
727.69284	13602.4625
731.60928	13378.0625
735.52295	13370.0625
739.43388	13403.1625
743.34206	13505.9625
747.24749	13512.1625
751.15017	13592.1625
755.05012	13963.0625
758.94733	15171.9625
762.8418	18191.2625
766.73354	23259.1625
770.62254	28002.3625
774.50882	29957.8625
778.39237	27992.7625
782.27321	22902.0625
786.15132	17997.0625
790.02671	15204.8625
793.89938	14002.3625
797.76935	13502.6625
801.6366	13249.6625
805.50115	13124.7625
809.36299	13079.9625
813.22213	13019.0625
817.07857	12973.3625
820.93231	12958.1625
824.78336	13019.5625
828.63172	13137.3625
832.47738	13140.7625
836.32036	13078.9625
840.16066	12923.7625
843.99827	12834.0625
847.8332	12779.7625
851.66546	12749.3625
855.49504	12742.9625
859.32195	12717.4625
863.1462	12643.4625
866.96777	12587.5625
870.78668	12598.7625
874.60293	12637.1625
878.41652	12732.6625
882.22745	12918.2625
886.03573	13037.2625
889.84136	13018.4625
893.64433	12886.0625
897.44466	12875.8625
901.24235	12868.0625
905.0374	12809.4625
908.8298	12649.5625
912.61957	12538.9625
916.40671	12588.5625
920.19121	12740.7625
923.97308	12945.4625
927.75233	13268.1625
931.52895	13557.3625
935.30295	13342.7625
939.07433	12723.6625
942.84309	12238.7625
946.60924	11932.8625
950.37278	11798.2625
954.13371	11764.7625
957.89203	11714.5625
961.64774	11666.6625
965.40086	11651.1625
969.15137	11572.5625
972.89929	11532.9625
976.64461	11504.5625
980.38733	11521.0625
984.12747	11560.0625
987.86502	11622.1625
991.59999	11772.5625
995.33237	11982.8625
999.06217	12322.3625
1002.78939	12792.7625
1006.51404	13283.5625
1010.23611	13621.3625
1013.95561	13757.0625
1017.67255	13680.3625
1021.38692	13408.1625
1025.09872	13170.4625
1028.80796	13061.5625
1032.51465	13223.4625
1036.21877	13486.8625
1039.92035	13623.5625
1043.61937	13622.5625
1047.31584	13556.0625
1051.00976	13415.8625
1054.70114	13245.1625
1058.38998	13173.2625
1062.07627	13189.0625
1065.76003	13242.1625
1069.44126	13302.5625
1073.11995	13500.4625
1076.79611	13874.4625
1080.46974	14389.4625
1084.14085	15092.6625
1087.80943	15822.7625
1091.47549	15994.5625
1095.13903	15546.5625
1098.80005	14744.5625
1102.45857	14136.8625
1106.11456	14029.3625
1109.76805	14304.9625
1113.41903	14979.2625
1117.06751	16095.5625
1120.71348	17475.8625
1124.35696	18946.8625
1127.99793	19766.4625
1131.63641	19045.1625
1135.2724	17369.9625
1138.90589	16050.8625
1142.5369	15237.4625
1146.16542	14744.1625
1149.79145	14411.4625
1153.415	14346.2625
1157.03607	14544.3625
1160.65467	15004.3625
1164.27079	15867.8625
1167.88443	17164.7625
1171.49561	19284.5625
1175.10432	22650.8625
1178.71056	27164.9625
1182.31434	30744.0625
1185.91565	31654.8625
1189.51451	30265.1625
1193.11091	27640.6625
1196.70485	24609.9625
1200.29634	22400.2625
1203.88538	20835.0625
1207.47197	19031.0625
1211.05612	17400.7625
1214.63782	16440.9625
1218.21708	16059.6625
1221.79391	15951.7625
1225.36829	15981.6625
1228.94024	15874.8625
1232.50976	15645.4625
1236.07685	15546.6625
1239.6415	15575.2625
1243.20374	15734.9625
1246.76355	15920.7625
1250.32093	16226.7625
1253.8759	16665.5625
1257.42845	17406.3625
1260.97859	18308.5625
1264.52631	19211.8625
1268.07163	20094.2625
1271.61453	20823.9625
1275.15503	21213.4625
1278.69312	21385.7625
1282.22882	21717.6625
1285.76211	22518.2625
1289.29301	23630.3625
1292.82151	24720.6625
1296.34761	25982.9625
1299.87133	28123.1625
1303.39266	31928.6625
1306.9116	37844.7625
1310.42815	44001.2625
1313.94233	46319.0625
1317.45412	43367.7625
1320.96354	38094.1625
1324.47058	32972.7625
1327.97525	28855.0625
1331.47754	26339.2625
1334.97747	25487.8625
1338.47502	25795.5625
1341.97022	27205.2625
1345.46305	29694.5625
1348.95352	33069.3625
1352.44163	37257.7625
1355.92738	43551.3625
1359.41078	53131.3625
1362.89183	60995.4625
1366.37053	56841.3625
1369.84688	44311.2625
1373.32088	33780.6625
1376.79254	27832.3625
1380.26186	24688.8625
1383.72883	22899.4625
1387.19347	21664.3625
1390.65578	20499.8625
1394.11575	19536.3625
1397.57339	19041.7625
1401.0287	18906.8625
1404.48168	18979.7625
1407.93234	19038.5625
1411.38068	19219.1625
1414.82669	19332.6625
1418.27039	19315.1625
1421.71177	18964.1625
1425.15083	18413.7625
1428.58758	18248.0625
1432.02203	18683.9625
1435.45416	19034.9625
1438.88399	19091.2625
1442.31151	19057.7625
1445.73673	19181.5625
1449.15965	19404.1625
1452.58027	19277.2625
1455.9986	18995.7625
1459.41463	18858.9625
1462.82837	19181.9625
1466.23982	19864.7625
1469.64898	20599.2625
1473.05586	21006.4625
1476.46045	21262.3625
1479.86276	21558.5625
1483.26279	22169.4625
1486.66054	23188.1625
1490.05602	24622.0625
1493.44922	26757.7625
1496.84016	30097.7625
1500.22882	35522.0625
1503.61521	43265.4625
1506.99934	52096.7625
1510.38121	58600.1625
1513.76081	58960.6625
1517.13816	52150.4625
1520.51324	42106.9625
1523.88607	33730.7625
1527.25665	28703.8625
1530.62498	26021.6625
1533.99105	24426.3625
1537.35488	23341.7625
1540.71647	22670.5625
1544.07581	22199.6625
1547.4329	22003.8625
1550.78776	22023.3625
1554.14038	22210.0625
1557.49077	22696.1625
1560.83892	23503.8625
1564.18484	24760.5625
1567.52853	26106.8625
1570.86999	26976.5625
1574.20922	27467.1625
1577.54624	27120.4625
1580.88103	24998.5625
1584.2136	22253.0625
1587.54395	20686.2625
1590.87208	20694.3625
1594.19801	22196.6625
1597.52172	24429.3625
1600.84321	25420.7625
1604.16251	24538.1625
1607.47959	22845.9625
1610.79447	20947.5625
1614.10715	18982.7625
1617.41763	17279.5625
1620.7259	16185.2625
1624.03199	15716.4625
1627.33587	15793.0625
1630.63757	16406.7625
1633.93707	17633.7625
1637.23439	19732.4625
1640.52951	23210.2625
1643.82246	28549.1625
1647.11321	34884.4625
1650.40179	38941.3625
1653.68819	36828.9625
1656.97241	29761.8625
1660.25446	22759.4625
1663.53433	18153.8625
1666.81203	15581.7625
1670.08756	14137.5625
1673.36092	13250.6625
1676.63211	12690.5625
1679.90115	12319.6625
1683.16801	12060.4625
1686.43272	11842.5625
1689.69527	11720.5625
1692.95567	11604.2625
1696.2139	11538.1625
1699.46999	11492.0625
1702.72392	11445.5625
1705.97571	11422.2625
1709.22535	11411.6625
1712.47284	11409.8625
1715.71819	11419.8625
1718.96139	11366.4625
1722.20246	11335.3625
1725.44139	11209.7625
1728.67818	11083.6625
1731.91284	10981.2625
1735.14537	10886.5625
1738.37576	10818.6625
1741.60403	10738.4625
1744.83017	10738.6625
1748.05418	10739.9625
1751.27607	10633.0625
1754.49584	10597.8625
1757.71349	10542.2625
1760.92903	10509.2625
1764.14244	10508.7625
1767.35375	10458.0625
1770.56294	10423.3625
1773.77002	10343.9625
1776.97499	10304.5625
1780.17785	10253.6625
1783.37861	10222.6625
1786.57727	10195.8625
1789.77382	10177.5625
1792.96828	10155.8625
1796.16064	10145.6625
1799.3509	10131.2625
1802.53907	10124.3625
1805.72514	10066.1625
1808.90913	10013.5625
1812.09102	9978.1625
1815.27083	9951.0625
1818.44856	9918.7625
1821.6242	9892.9625
1824.79776	9875.9625
1827.96924	9845.8625
1831.13864	9822.6625
1834.30597	9806.2625
1837.47122	9789.4625
1840.6344	9765.8625
1843.7955	9772.3625
1846.95454	9730.3625
1850.11151	9732.0625
1853.26642	9729.0625
1856.41926	9740.4625
1859.57004	9720.5625
1862.71876	9730.6625
1865.86542	9731.6625
1869.01003	9732.2625
1872.15258	9716.4625
1875.29308	9714.7625
1878.43152	9725.1625
1881.56792	9708.5625
1884.70227	9721.8625
1887.83457	9732.4625
1890.96482	9717.8625
1894.09304	9681.3625
1897.21921	9678.3625
1900.34335	9648.8625
1903.46544	9677.2625
1906.58551	9682.5625
1909.70353	9669.1625
1912.81953	9655.4625
1915.93349	9639.3625
1919.04543	9576.3625
1922.15534	9585.9625
1925.26322	9556.6625
1928.36908	9540.6625
1931.47292	9511.3625
1934.57473	9478.5625
1937.67453	9442.7625
1940.77232	9429.6625
1943.86808	9385.4625
1946.96184	9346.1625
1950.05358	9331.9625
1953.14331	9288.4625
1956.23103	9283.8625
1959.31675	9229.5625
1962.40046	9232.4625
1965.48217	9230.0625
1968.56188	9206.0625
1971.63959	9203.4625
1974.7153	9182.2625
1977.78901	9134.4625
1980.86073	9137.6625
1983.93046	9073.4625
1986.99819	9006.3625
1990.06394	8973.6625
1993.1277	8950.4625
1996.18947	8909.3625
1999.24925	8887.6625
2002.30706	8850.6625
2005.36288	8787.0625
2008.41672	8775.1625
2011.46859	8753.5625
2014.51848	8739.9625
2017.56639	8704.0625
2020.61233	8670.3625
2023.6563	8630.1625
2026.6983	8612.1625
2029.73833	8634.7625
2032.7764	8592.8625
2035.8125	8572.2625
2038.84664	8566.9625
2041.87881	8542.6625
2044.90903	8520.4625
2047.93729	8491.4625
2050.96359	8518.9625
2053.98794	8501.0625
2057.01034	8476.4625
2060.03078	8442.2625
2063.04927	8434.3625
2066.06582	8394.8625
2069.08042	8431.9625
2072.09307	8412.9625
2075.10378	8384.5625
2078.11255	8386.9625
2081.11938	8425.4625
2084.12426	8386.2625
2087.12722	8400.7625
2090.12824	8413.3625
2093.12732	8402.7625
2096.12447	8409.5625
2099.11969	8389.9625
2102.11299	8391.4625
2105.10435	8414.7625
2108.09379	8427.0625
2111.08131	8424.3625
2114.0669	8421.9625
2117.05057	8457.2625
2120.03233	8447.5625
2123.01216	8470.2625
2125.99008	8487.3625
2128.96609	8497.3625
2131.94018	8497.6625
2134.91236	8471.7625
2137.88263	8472.2625
2140.851	8479.4625
2143.81746	8493.7625
2146.78201	8457.6625
2149.74466	8446.0625
2152.7054	8430.9625
2155.66425	8413.4625
2158.6212	8402.6625
2161.57625	8392.8625
2164.52941	8385.1625
2167.48067	8372.7625
2170.43004	8364.0625
2173.37752	8400.7625
2176.32311	8424.1625
2179.26681	8395.0625
2182.20863	8395.4625
2185.14856	8398.7625
2188.08661	8383.4625
2191.02278	8396.1625
2193.95707	8387.7625
2196.88948	8385.0625
2199.82001	8377.5625
2202.74867	8374.8625
2205.67545	8384.1625
2208.60037	8354.9625
2211.52341	8364.4625
2214.44458	8339.1625
2217.36388	8334.7625
2220.28132	8317.7625
2223.1969	8287.2625
2226.11061	8289.9625
2229.02246	8238.5625
2231.93245	8240.8625
2234.84058	8210.8625
2237.74686	8219.9625
2240.65128	8206.2625
2243.55385	8176.3625
2246.45456	8190.0625
2249.35343	8201.9625
2252.25044	8195.7625
2255.14561	8209.4625
2258.03893	8227.1625
2260.93041	8236.1625
2263.82004	8232.9625
2266.70783	8209.9625
2269.59378	8197.9625
2272.4779	8152.0625
2275.36017	8152.9625
2278.24061	8146.4625
2281.11922	8110.2625
2283.996	8089.0625
2286.87094	8070.0625
2289.74405	8047.5625
2292.61534	8027.5625
2295.4848	8005.8625
2298.35243	8012.2625
2301.21824	8003.0625
2304.08223	7997.2625
2306.94439	7993.7625
2309.80474	8014.8625
2312.66327	8007.1625
2315.51999	8001.7625
2318.37489	8017.3625
2321.22797	7997.8625
2324.07925	7997.8625
2326.92871	7969.9625
2329.77637	7978.3625
2332.62222	7973.4625
2335.46626	7973.8625
2338.3085	7977.2625
2341.14893	7976.0625
2343.98756	7990.8625
2346.8244	8027.3625
2349.65943	8049.4625
2352.49267	8050.7625
2355.32411	8065.0625
2358.15376	8088.2625
2360.98161	8105.2625
2363.80768	8109.6625
2366.63195	8149.4625
2369.45444	8144.6625
2372.27514	8123.6625
2375.09405	8119.8625
2377.91118	8085.6625
2380.72652	8023.6625
2383.54009	7980.6625
2386.35187	7964.5625
2389.16188	7900.0625
2391.97011	7883.5625
2394.77657	7853.6625
2397.58125	7821.8625
2400.38416	7820.1625
2403.18529	7795.0625
2405.98466	7773.3625
2408.78226	7753.1625
2411.57809	7719.2625
2414.37216	7716.3625
2417.16446	7731.1625
2419.955	7729.1625
2422.74378	7723.8625
2425.5308	7703.6625
2428.31606	7702.5625
2431.09956	7723.3625
2433.88131	7728.0625
2436.6613	7743.6625
2439.43954	7735.1625
2442.21603	7731.6625
2444.99077	7728.1625
2447.76377	7753.5625
2450.53501	7745.1625
2453.30451	7763.2625
2456.07226	7743.8625
2458.83827	7762.7625
2461.60254	7770.0625
2464.36507	7758.3625
2467.12586	7752.1625
2469.88492	7746.7625
2472.64224	7771.3625
2475.39782	7773.0625
2478.15167	7822.0625
2480.90379	7845.3625
2483.65417	7860.1625
2486.40283	7872.0625
2489.14976	7910.1625
2491.89497	7942.7625
2494.63845	7937.0625
2497.3802	7911.0625
2500.12024	7893.4625
2502.85855	7876.9625
2505.59514	7845.2625
2508.33002	7797.5625
2511.06318	7758.6625
2513.79462	7715.1625
2516.52435	7686.6625
2519.25237	7633.4625
2521.97867	7592.8625
2524.70327	7610.8625
2527.42616	7596.2625
2530.14734	7596.0625
2532.86681	7593.2625
2535.58458	7586.4625
2538.30065	7561.2625
2541.01501	7597.0625
2543.72768	7605.2625
2546.43864	7596.0625
2549.14791	7591.6625
2551.85548	7602.0625
2554.56136	7597.5625
2557.26554	7575.6625
2559.96803	7563.2625
2562.66883	7562.7625
2565.36794	7546.9625
2568.06536	7546.7625
2570.7611	7526.4625
2573.45514	7502.0625
2576.14751	7518.1625
2578.83819	7498.9625
2581.52719	7475.5625
2584.21451	7476.1625
2586.90015	7473.1625
2589.58411	7455.7625
2592.2664	7467.7625
2594.94701	7471.1625
2597.62594	7468.9625
2600.30321	7439.2625
2602.9788	7445.6625
2605.65273	7437.2625
2608.32498	7438.8625
2610.99557	7435.6625
2613.66449	7460.1625
2616.33175	7457.1625
2618.99734	7488.8625
2621.66128	7461.8625
2624.32355	7459.6625
2626.98416	7448.0625
2629.64311	7436.4625
2632.30041	7429.0625
2634.95605	7427.4625
2637.61004	7407.1625
2640.26238	7395.9625
2642.91306	7385.8625
2645.56209	7391.6625
2648.20948	7352.8625
2650.85521	7350.6625
2653.4993	7378.7625
2656.14175	7370.7625
2658.78255	7397.0625
2661.42171	7393.1625
2664.05923	7429.9625
2666.6951	7435.9625
2669.32934	7452.0625
2671.96194	7470.2625
2674.59291	7453.8625
2677.22224	7457.2625
2679.84993	7450.8625
2682.476	7436.2625
2685.10043	7438.1625
2687.72324	7414.6625
2690.34441	7424.4625
2692.96396	7415.0625
2695.58188	7418.9625
2698.19818	7391.0625
2700.81285	7398.6625
2703.4259	7388.8625
2706.03733	7383.8625
2708.64714	7417.4625
2711.25533	7407.5625
2713.86191	7432.3625
2716.46687	7439.8625
2719.07021	7434.5625
2721.67194	7435.7625
2724.27206	7453.8625
2726.87057	7451.6625
2729.46747	7454.2625
2732.06276	7443.5625
2734.65644	7413.3625
2737.24852	7395.7625
2739.83899	7360.7625
2742.42786	7383.5625
2745.01513	7352.7625
2747.60079	7340.2625
2750.18486	7338.5625
2752.76733	7321.4625
2755.3482	7323.9625
2757.92747	7326.2625
2760.50515	7290.5625
2763.08123	7285.0625
2765.65573	7296.6625
2768.22863	7300.6625
2770.79994	7286.5625
2773.36967	7307.4625
2775.9378	7308.5625
2778.50435	7300.0625
2781.06932	7284.4625
2783.6327	7294.2625
2786.1945	7298.9625
2788.75471	7313.5625
2791.31335	7289.0625
2793.87041	7302.3625
2796.42589	7297.6625
2798.97979	7280.6625
2801.53212	7277.9625
2804.08288	7279.9625
2806.63206	7267.7625
2809.17967	7272.9625
2811.72571	7295.5625
2814.27018	7302.4625
2816.81308	7313.4625
2819.35442	7305.9625
2821.89419	7317.4625
2824.43239	7340.7625
2826.96904	7321.9625
2829.50412	7320.4625
2832.03763	7306.3625
2834.56959	7304.6625
2837.1	7295.3625
2839.62884	7308.2625
2842.15613	7296.5625
2844.68186	7316.5625
2847.20604	7316.2625
2849.72867	7339.1625
2852.24974	7332.9625
2854.76927	7334.9625
2857.28724	7345.0625
2859.80367	7363.5625
2862.31855	7380.7625
2864.83189	7386.7625
2867.34368	7414.4625
2869.85393	7398.2625
2872.36264	7414.5625
2874.8698	7425.6625
2877.37543	7437.6625
2879.87952	7417.0625
2882.38207	7410.8625
2884.88308	7383.3625
2887.38256	7378.9625
2889.88051	7374.9625
2892.37692	7375.3625
2894.8718	7356.7625
2897.36515	7376.4625
2899.85698	7372.6625
2902.34727	7348.2625
2904.83604	7353.5625
2907.32328	7369.5625
2909.809	7369.6625
2912.29319	7351.9625
2914.77587	7354.2625
2917.25702	7331.8625
2919.73665	7314.9625
2922.21476	7304.1625
2924.69136	7275.6625
2927.16644	7292.0625
2929.64	7255.5625
2932.11205	7277.9625
2934.58258	7225.1625
2937.05161	7232.6625
2939.51912	7234.0625
2941.98513	7207.4625
2944.44962	7178.1625
2946.91261	7158.5625
2949.37409	7178.9625
2951.83407	7167.9625
2954.29254	7176.3625
2956.74951	7201.2625
2959.20498	7192.5625
2961.65895	7161.9625
2964.11142	7179.7625
2966.56239	7168.2625
2969.01186	7121.6625
2971.45984	7115.5625
2973.90632	7120.8625
2976.35131	7070.9625
2978.7948	7068.4625
2981.23681	7042.9625
2983.67732	7025.1625
2986.11635	7012.0625
2988.55388	7012.3625
2990.98993	7007.7625
2993.4245	6999.9625
2995.85758	6992.5625
2998.28917	6990.1625
3000.71928	6972.7625
3003.14791	6975.7625
3005.57506	6978.3625
3008.00073	6975.5625
3010.42493	6980.7625
3012.84764	6953.0625
3015.26888	6968.7625
3017.68865	6932.1625
3020.10694	6969.2625
3022.52376	6922.7625
3024.9391	6921.9625
3027.35298	6878.6625
3029.76539	6869.3625
3032.17632	6837.6625
3034.5858	6822.8625
3036.9938	6798.7625
3039.40034	6788.4625
3041.80542	6791.6625
3044.20903	6767.6625
3046.61118	6758.5625
3049.01187	6751.8625
3051.4111	6726.6625
3053.80888	6709.6625
3056.20519	6710.4625
3058.60005	6678.8625
3060.99345	6670.5625
3063.3854	6663.1625
3065.7759	6630.2625
3068.16494	6615.3625
3070.55254	6593.8625
3072.93868	6584.9625
3075.32338	6588.4625
