Data from AgNP_FTO_APTES_UA_100uM_CRN_50uM_R6G_10uM_NaF_0.1M_Addition_RamanShift__15__17-25-20-539.txt Node

Date: Thu Mar 24 17:25:20 GMT 2022
User: TCL
Spectrometer: QEP01345
Trigger mode: 4
Integration Time (sec): 7.000000E0
Scans to average: 10
Electric dark correction enabled: true
Nonlinearity correction enabled: false
Boxcar width: 0
XAxis mode: Raman Shifts
Number of Pixels in Spectrum: 1044
>>>>>Begin Spectral Data<<<<<
46.04893	-2.1625
50.45542	-0.5625
54.85868	0.4375
59.25871	0.7375
63.6555	37.1375
68.04907	40.5375
72.43941	36.2375
76.82654	41.1375
81.21044	41.9375
85.59113	40.9375
89.96862	47.2375
94.34289	70.2375
98.71396	49.1375
103.08183	49.7375
107.4465	49.1375
111.80798	53.8375
116.16626	54.2375
120.52136	56.4375
124.87327	55.5375
129.222	60.6375
133.56755	65.4375
137.90993	65.5375
142.24913	77.4375
146.58517	82.7375
150.91804	101.8375
155.24774	122.2375
159.57429	147.7375
163.89768	195.2375
168.21792	258.9375
172.53501	353.3375
176.84895	495.9375
181.15975	703.5375
185.46741	987.8375
189.77193	1372.7375
194.07331	1838.5375
198.37157	2388.3375
202.6667	2950.1375
206.9587	3516.8375
211.24758	4072.6375
215.53334	4637.4375
219.81599	5208.2375
224.09553	5882.7375
228.37195	6613.6375
232.64527	7424.1375
236.91549	8291.1375
241.18261	9128.5375
245.44663	9902.8375
249.70755	10582.3375
253.96539	11155.4375
258.22014	11657.1375
262.4718	12079.2375
266.72039	12359.0375
270.96589	12532.2375
275.20832	12578.7375
279.44768	12516.9375
283.68397	12409.9375
287.91719	12294.6375
292.14735	12245.7375
296.37445	12253.9375
300.59849	12350.0375
304.81948	12511.3375
309.03742	12553.6375
313.25231	12495.1375
317.46415	12273.3375
321.67296	11940.4375
325.87872	11640.1375
330.08145	11496.2375
334.28114	11544.5375
338.47781	11655.0375
342.67145	11790.6375
346.86207	12002.8375
351.04966	12258.2375
355.23424	12548.5375
359.4158	12760.9375
363.59435	12881.3375
367.76989	13015.7375
371.94243	13067.4375
376.11196	13138.6375
380.27849	13143.0375
384.44203	13164.7375
388.60257	13207.0375
392.76012	13320.3375
396.91468	13444.3375
401.06626	13602.9375
405.21485	13740.4375
409.36047	13662.9375
413.50311	13431.2375
417.64277	13131.4375
421.77947	12999.8375
425.9132	12974.8375
430.04396	13040.8375
434.17176	13132.1375
438.2966	13196.5375
442.41849	13362.1375
446.53742	13567.6375
450.6534	13797.5375
454.76644	14003.9375
458.87653	14028.5375
462.98368	14039.8375
467.08789	13968.9375
471.18916	13871.7375
475.2875	13740.4375
479.38291	13636.3375
483.4754	13491.3375
487.56496	13402.5375
491.6516	13354.3375
495.73531	13307.4375
499.81612	13292.4375
503.89401	13395.2375
507.96899	13419.5375
512.04106	13464.8375
516.11023	13490.1375
520.1765	13489.4375
524.23987	13464.5375
528.30034	13419.8375
532.35792	13357.3375
536.41261	13286.2375
540.46441	13163.8375
544.51333	13153.4375
548.55936	13261.0375
552.60252	13432.9375
556.64279	13648.1375
560.6802	13780.0375
564.71473	13797.5375
568.7464	13910.4375
572.7752	14070.2375
576.80114	14214.2375
580.82422	14316.0375
584.84444	14461.3375
588.86181	14559.5375
592.87633	14657.9375
596.888	14782.2375
600.89682	14924.2375
604.9028	15450.3375
608.90594	17052.6375
612.90624	19017.8375
616.90371	18281.1375
620.89834	15251.2375
624.89015	13792.4375
628.87913	13575.9375
632.86528	13737.1375
636.84862	13955.4375
640.82913	13880.4375
644.80683	13592.3375
648.78172	13292.5375
652.75379	13195.7375
656.72306	13371.1375
660.68952	13603.8375
664.65319	13570.7375
668.61405	13285.4375
672.57211	13193.4375
676.52738	13217.8375
680.47986	13207.3375
684.42955	13153.5375
688.37646	13105.3375
692.32058	13128.3375
696.26192	13183.4375
700.20048	13324.9375
704.13626	13404.4375
708.06928	13422.3375
711.99952	13350.3375
715.927	13331.9375
719.85171	13351.5375
723.77365	13349.4375
727.69284	13335.7375
731.60928	13236.1375
735.52295	13203.1375
739.43388	13213.4375
743.34206	13222.0375
747.24749	13275.0375
751.15017	13302.2375
755.05012	13430.5375
758.94733	13725.3375
762.8418	14442.0375
766.73354	15688.7375
770.62254	16940.3375
774.50882	17366.7375
778.39237	16701.1375
782.27321	15451.2375
786.15132	14368.7375
790.02671	13662.1375
793.89938	13297.8375
797.76935	13144.4375
801.6366	13051.3375
805.50115	12967.9375
809.36299	12945.5375
813.22213	12932.2375
817.07857	12952.7375
820.93231	12900.4375
824.78336	12896.8375
828.63172	12886.2375
832.47738	12837.7375
836.32036	12801.3375
840.16066	12785.0375
843.99827	12794.6375
847.8332	12803.9375
851.66546	12809.5375
855.49504	12834.1375
859.32195	12819.3375
863.1462	12805.5375
866.96777	12825.8375
870.78668	12795.1375
874.60293	12823.9375
878.41652	12831.8375
882.22745	12906.3375
886.03573	12935.0375
889.84136	12931.3375
893.64433	12908.0375
897.44466	12864.7375
901.24235	12784.1375
905.0374	12783.6375
908.8298	12761.2375
912.61957	12695.8375
916.40671	12721.0375
920.19121	12809.4375
923.97308	12856.6375
927.75233	12878.4375
931.52895	12815.6375
935.30295	12709.2375
939.07433	12555.8375
942.84309	12399.0375
946.60924	12314.3375
950.37278	12249.1375
954.13371	12238.6375
957.89203	12219.8375
961.64774	12232.1375
965.40086	12192.3375
969.15137	12204.8375
972.89929	12135.3375
976.64461	12102.4375
980.38733	12093.8375
984.12747	12124.3375
987.86502	12138.0375
991.59999	12191.4375
995.33237	12245.2375
999.06217	12336.6375
1002.78939	12449.5375
1006.51404	12628.9375
1010.23611	12794.0375
1013.95561	12864.1375
1017.67255	12898.4375
1021.38692	12821.8375
1025.09872	12717.0375
1028.80796	12597.3375
1032.51465	12512.2375
1036.21877	12487.4375
1039.92035	12537.8375
1043.61937	12610.6375
1047.31584	12667.8375
1051.00976	12722.4375
1054.70114	12774.8375
1058.38998	12780.6375
1062.07627	12868.4375
1065.76003	12967.5375
1069.44126	13104.3375
1073.11995	13227.0375
1076.79611	13382.0375
1080.46974	13508.4375
1084.14085	13570.9375
1087.80943	13692.9375
1091.47549	13797.6375
1095.13903	13776.1375
1098.80005	13608.5375
1102.45857	13402.7375
1106.11456	13279.7375
1109.76805	13210.2375
1113.41903	13274.4375
1117.06751	13418.2375
1120.71348	13629.4375
1124.35696	13846.9375
1127.99793	14113.2375
1131.63641	14144.2375
1135.2724	13975.6375
1138.90589	13782.9375
1142.5369	13589.4375
1146.16542	13509.0375
1149.79145	13405.7375
1153.415	13404.5375
1157.03607	13429.7375
1160.65467	13585.0375
1164.27079	13874.1375
1167.88443	14350.0375
1171.49561	15008.4375
1175.10432	15920.3375
1178.71056	17177.8375
1182.31434	18265.1375
1185.91565	18794.0375
1189.51451	18676.2375
1193.11091	18287.0375
1196.70485	17630.8375
1200.29634	16972.2375
1203.88538	16421.4375
1207.47197	15806.3375
1211.05612	15243.4375
1214.63782	14863.2375
1218.21708	14564.0375
1221.79391	14434.7375
1225.36829	14332.4375
1228.94024	14287.2375
1232.50976	14209.4375
1236.07685	14131.8375
1239.6415	14067.3375
1243.20374	14114.4375
1246.76355	14131.1375
1250.32093	14169.1375
1253.8759	14330.0375
1257.42845	14573.8375
1260.97859	14912.9375
1264.52631	15188.3375
1268.07163	15520.6375
1271.61453	15796.7375
1275.15503	16004.5375
1278.69312	16213.9375
1282.22882	16352.8375
1285.76211	16608.6375
1289.29301	16962.7375
1292.82151	17359.4375
1296.34761	17857.1375
1299.87133	18533.8375
1303.39266	19423.5375
1306.9116	20549.6375
1310.42815	21689.6375
1313.94233	22261.6375
1317.45412	21987.3375
1320.96354	21369.9375
1324.47058	20655.3375
1327.97525	19919.4375
1331.47754	19419.9375
1334.97747	19175.0375
1338.47502	19240.1375
1341.97022	19528.2375
1345.46305	20114.3375
1348.95352	20844.0375
1352.44163	21540.1375
1355.92738	22417.8375
1359.41078	23790.5375
1362.89183	25140.1375
1366.37053	24958.1375
1369.84688	22632.6375
1373.32088	19937.6375
1376.79254	18117.8375
1380.26186	17164.5375
1383.72883	16666.8375
1387.19347	16327.6375
1390.65578	15944.1375
1394.11575	15676.9375
1397.57339	15417.7375
1401.0287	15277.7375
1404.48168	15218.4375
1407.93234	15158.6375
1411.38068	15038.0375
1414.82669	14898.2375
1418.27039	14630.9375
1421.71177	14363.2375
1425.15083	14092.9375
1428.58758	13925.9375
1432.02203	13893.4375
1435.45416	14002.8375
1438.88399	14118.6375
1442.31151	14213.5375
1445.73673	14312.6375
1449.15965	14418.9375
1452.58027	14471.4375
1455.9986	14480.5375
1459.41463	14537.4375
1462.82837	14759.6375
1466.23982	15043.6375
1469.64898	15393.5375
1473.05586	15649.1375
1476.46045	15830.0375
1479.86276	15973.9375
1483.26279	16114.9375
1486.66054	16300.7375
1490.05602	16654.4375
1493.44922	17142.9375
1496.84016	17944.5375
1500.22882	19143.5375
1503.61521	20724.2375
1506.99934	22310.7375
1510.38121	23333.2375
1513.76081	23262.3375
1517.13816	22006.9375
1520.51324	20370.0375
1523.88607	18987.4375
1527.25665	18080.1375
1530.62498	17607.7375
1533.99105	17295.9375
1537.35488	16963.7375
1540.71647	16649.8375
1544.07581	16274.5375
1547.4329	15956.2375
1550.78776	15722.0375
1554.14038	15568.1375
1557.49077	15549.6375
1560.83892	15677.8375
1564.18484	15927.9375
1567.52853	16251.8375
1570.86999	16553.6375
1574.20922	16776.7375
1577.54624	16738.4375
1580.88103	16258.2375
1584.2136	15669.2375
1587.54395	15337.7375
1590.87208	15371.5375
1594.19801	15825.6375
1597.52172	16473.1375
1600.84321	16676.4375
1604.16251	16295.3375
1607.47959	15733.6375
1610.79447	15094.9375
1614.10715	14398.2375
1617.41763	13757.2375
1620.7259	13220.2375
1624.03199	12906.0375
1627.33587	12779.1375
1630.63757	12902.7375
1633.93707	13243.8375
1637.23439	13908.4375
1640.52951	15067.3375
1643.82246	16634.8375
1647.11321	18199.6375
1650.40179	19091.2375
1653.68819	18583.1375
1656.97241	16881.2375
1660.25446	14945.7375
1663.53433	13467.8375
1666.81203	12508.3375
1670.08756	11913.9375
1673.36092	11551.8375
1676.63211	11299.0375
1679.90115	11115.4375
1683.16801	10986.7375
1686.43272	10876.8375
1689.69527	10800.7375
1692.95567	10743.9375
1696.2139	10676.4375
1699.46999	10639.2375
1702.72392	10577.4375
1705.97571	10577.2375
1709.22535	10536.5375
1712.47284	10504.1375
1715.71819	10474.9375
1718.96139	10409.3375
1722.20246	10386.2375
1725.44139	10355.5375
1728.67818	10244.4375
1731.91284	10208.9375
1735.14537	10145.8375
1738.37576	10143.8375
1741.60403	10083.4375
1744.83017	10045.8375
1748.05418	10028.7375
1751.27607	9988.9375
1754.49584	10000.0375
1757.71349	9946.8375
1760.92903	9959.9375
1764.14244	9958.6375
1767.35375	9939.1375
1770.56294	9886.1375
1773.77002	9863.1375
1776.97499	9825.4375
1780.17785	9810.3375
1783.37861	9789.1375
1786.57727	9765.5375
1789.77382	9752.0375
1792.96828	9718.0375
1796.16064	9700.6375
1799.3509	9697.4375
1802.53907	9667.6375
1805.72514	9631.4375
1808.90913	9597.5375
1812.09102	9586.9375
1815.27083	9534.2375
1818.44856	9551.6375
1821.6242	9511.3375
1824.79776	9503.5375
1827.96924	9464.8375
1831.13864	9437.5375
1834.30597	9443.4375
1837.47122	9406.4375
1840.6344	9408.9375
1843.7955	9427.5375
1846.95454	9371.5375
1850.11151	9388.8375
1853.26642	9399.5375
1856.41926	9363.0375
1859.57004	9363.4375
1862.71876	9329.2375
1865.86542	9309.2375
1869.01003	9304.6375
1872.15258	9286.5375
1875.29308	9271.1375
1878.43152	9245.8375
1881.56792	9265.5375
1884.70227	9263.7375
1887.83457	9218.4375
1890.96482	9231.9375
1894.09304	9196.4375
1897.21921	9196.7375
1900.34335	9167.1375
1903.46544	9166.3375
1906.58551	9162.7375
1909.70353	9152.2375
1912.81953	9135.5375
1915.93349	9114.0375
1919.04543	9103.5375
1922.15534	9059.0375
1925.26322	9034.8375
1928.36908	9010.1375
1931.47292	9018.1375
1934.57473	8974.4375
1937.67453	8959.0375
1940.77232	8947.3375
1943.86808	8908.4375
1946.96184	8878.3375
1950.05358	8843.4375
1953.14331	8800.7375
1956.23103	8789.7375
1959.31675	8762.8375
1962.40046	8714.1375
1965.48217	8693.9375
1968.56188	8671.2375
1971.63959	8663.9375
1974.7153	8642.5375
1977.78901	8619.0375
1980.86073	8582.1375
1983.93046	8542.3375
1986.99819	8508.5375
1990.06394	8474.5375
1993.1277	8432.5375
1996.18947	8431.4375
1999.24925	8414.6375
2002.30706	8360.5375
2005.36288	8322.4375
2008.41672	8295.9375
2011.46859	8264.4375
2014.51848	8252.1375
2017.56639	8220.1375
2020.61233	8205.6375
2023.6563	8180.8375
2026.6983	8118.7375
2029.73833	8130.9375
2032.7764	8082.7375
2035.8125	8081.5375
2038.84664	8051.1375
2041.87881	8028.2375
2044.90903	7984.1375
2047.93729	7975.2375
2050.96359	7992.0375
2053.98794	7983.3375
2057.01034	7937.9375
2060.03078	7943.2375
2063.04927	7920.4375
2066.06582	7912.4375
2069.08042	7904.1375
2072.09307	7905.9375
2075.10378	7903.5375
2078.11255	7890.7375
2081.11938	7892.1375
2084.12426	7888.6375
2087.12722	7881.3375
2090.12824	7882.7375
2093.12732	7872.8375
2096.12447	7871.3375
2099.11969	7876.3375
2102.11299	7877.5375
2105.10435	7868.7375
2108.09379	7858.8375
2111.08131	7866.3375
2114.0669	7880.5375
2117.05057	7876.7375
2120.03233	7878.2375
2123.01216	7883.6375
2125.99008	7884.2375
2128.96609	7889.1375
2131.94018	7888.8375
2134.91236	7870.0375
2137.88263	7875.5375
2140.851	7878.7375
2143.81746	7899.3375
2146.78201	7864.0375
2149.74466	7880.3375
2152.7054	7878.5375
2155.66425	7844.0375
2158.6212	7854.3375
2161.57625	7858.7375
2164.52941	7843.2375
2167.48067	7828.1375
2170.43004	7828.7375
2173.37752	7832.5375
2176.32311	7823.1375
2179.26681	7809.3375
2182.20863	7810.2375
2185.14856	7797.2375
2188.08661	7791.4375
2191.02278	7781.1375
2193.95707	7783.0375
2196.88948	7755.0375
2199.82001	7763.6375
2202.74867	7749.1375
2205.67545	7760.2375
2208.60037	7716.7375
2211.52341	7707.1375
2214.44458	7717.0375
2217.36388	7685.2375
2220.28132	7674.6375
2223.1969	7654.3375
2226.11061	7632.3375
2229.02246	7609.2375
2231.93245	7592.9375
2234.84058	7611.5375
2237.74686	7566.8375
2240.65128	7558.8375
2243.55385	7556.0375
2246.45456	7530.9375
2249.35343	7553.1375
2252.25044	7506.1375
2255.14561	7510.8375
2258.03893	7493.7375
2260.93041	7489.3375
2263.82004	7450.9375
2266.70783	7428.6375
2269.59378	7429.2375
2272.4779	7405.2375
2275.36017	7399.7375
2278.24061	7362.2375
2281.11922	7355.5375
2283.996	7346.9375
2286.87094	7337.2375
2289.74405	7311.8375
2292.61534	7297.8375
2295.4848	7289.4375
2298.35243	7255.9375
2301.21824	7261.4375
2304.08223	7257.9375
2306.94439	7257.3375
2309.80474	7255.7375
2312.66327	7235.2375
2315.51999	7226.1375
2318.37489	7197.9375
2321.22797	7201.8375
2324.07925	7200.4375
2326.92871	7174.4375
2329.77637	7165.7375
2332.62222	7141.5375
2335.46626	7143.5375
2338.3085	7109.6375
2341.14893	7097.2375
2343.98756	7116.5375
2346.8244	7111.5375
2349.65943	7106.8375
2352.49267	7098.5375
2355.32411	7117.3375
2358.15376	7084.5375
2360.98161	7093.3375
2363.80768	7103.2375
2366.63195	7108.0375
2369.45444	7096.8375
2372.27514	7081.3375
2375.09405	7054.7375
2377.91118	7047.0375
2380.72652	7045.2375
2383.54009	7008.8375
2386.35187	6992.7375
2389.16188	6974.8375
2391.97011	6956.2375
2394.77657	6938.5375
2397.58125	6921.4375
2400.38416	6896.8375
2403.18529	6887.8375
2405.98466	6889.6375
2408.78226	6868.2375
2411.57809	6844.3375
2414.37216	6830.2375
2417.16446	6835.1375
2419.955	6828.0375
2422.74378	6840.9375
2425.5308	6815.5375
2428.31606	6805.0375
2431.09956	6809.1375
2433.88131	6776.2375
2436.6613	6785.0375
2439.43954	6766.0375
2442.21603	6768.8375
2444.99077	6733.9375
2447.76377	6761.0375
2450.53501	6757.9375
2453.30451	6746.8375
2456.07226	6749.2375
2458.83827	6736.2375
2461.60254	6743.4375
2464.36507	6724.6375
2467.12586	6711.6375
2469.88492	6719.3375
2472.64224	6716.7375
2475.39782	6699.8375
2478.15167	6714.8375
2480.90379	6701.8375
2483.65417	6706.1375
2486.40283	6723.0375
2489.14976	6698.2375
2491.89497	6699.1375
2494.63845	6708.3375
2497.3802	6697.7375
2500.12024	6661.3375
2502.85855	6673.7375
2505.59514	6663.7375
2508.33002	6637.0375
2511.06318	6603.3375
2513.79462	6621.7375
2516.52435	6602.2375
2519.25237	6589.2375
2521.97867	6591.0375
2524.70327	6577.4375
2527.42616	6561.1375
2530.14734	6548.8375
2532.86681	6527.8375
2535.58458	6538.9375
2538.30065	6504.2375
2541.01501	6520.7375
2543.72768	6514.5375
2546.43864	6490.0375
2549.14791	6478.7375
2551.85548	6471.4375
2554.56136	6451.3375
2557.26554	6412.0375
2559.96803	6420.5375
2562.66883	6408.5375
2565.36794	6404.3375
2568.06536	6388.0375
2570.7611	6356.6375
2573.45514	6347.0375
2576.14751	6326.7375
2578.83819	6341.4375
2581.52719	6325.3375
2584.21451	6327.6375
2586.90015	6306.3375
2589.58411	6306.4375
2592.2664	6299.5375
2594.94701	6289.9375
2597.62594	6266.7375
2600.30321	6242.6375
2602.9788	6252.6375
2605.65273	6236.3375
2608.32498	6240.9375
2610.99557	6225.0375
2613.66449	6214.0375
2616.33175	6201.3375
2618.99734	6217.3375
2621.66128	6186.0375
2624.32355	6177.7375
2626.98416	6156.7375
2629.64311	6151.9375
2632.30041	6156.6375
2634.95605	6154.0375
2637.61004	6142.5375
2640.26238	6133.0375
2642.91306	6109.4375
2645.56209	6117.0375
2648.20948	6106.5375
2650.85521	6104.7375
2653.4993	6100.7375
2656.14175	6089.7375
2658.78255	6099.7375
2661.42171	6116.8375
2664.05923	6127.5375
2666.6951	6102.8375
2669.32934	6110.4375
2671.96194	6124.1375
2674.59291	6114.6375
2677.22224	6102.8375
2679.84993	6100.9375
2682.476	6082.2375
2685.10043	6077.5375
2687.72324	6066.0375
2690.34441	6078.9375
2692.96396	6067.7375
2695.58188	6105.9375
2698.19818	6041.7375
2700.81285	6069.5375
2703.4259	6056.1375
2706.03733	6058.2375
2708.64714	6055.7375
2711.25533	6081.8375
2713.86191	6082.4375
2716.46687	6089.8375
2719.07021	6078.5375
2721.67194	6071.8375
2724.27206	6079.2375
2726.87057	6079.3375
2729.46747	6068.3375
2732.06276	6064.2375
2734.65644	6060.5375
2737.24852	6066.9375
2739.83899	6032.0375
2742.42786	6038.1375
2745.01513	6012.3375
2747.60079	6014.6375
2750.18486	5996.7375
2752.76733	5978.8375
2755.3482	5974.0375
2757.92747	5960.3375
2760.50515	5960.7375
2763.08123	5934.5375
2765.65573	5945.6375
2768.22863	5956.0375
2770.79994	5923.5375
2773.36967	5930.1375
2775.9378	5922.6375
2778.50435	5913.6375
2781.06932	5900.8375
2783.6327	5915.9375
2786.1945	5898.6375
2788.75471	5890.1375
2791.31335	5865.3375
2793.87041	5873.1375
2796.42589	5846.4375
2798.97979	5848.8375
2801.53212	5831.2375
2804.08288	5818.7375
2806.63206	5798.4375
2809.17967	5793.8375
2811.72571	5804.9375
2814.27018	5781.6375
2816.81308	5751.5375
2819.35442	5754.0375
2821.89419	5744.0375
2824.43239	5768.0375
2826.96904	5717.3375
2829.50412	5737.8375
2832.03763	5698.4375
2834.56959	5717.8375
2837.1	5691.9375
2839.62884	5725.8375
2842.15613	5720.9375
2844.68186	5721.3375
2847.20604	5716.7375
2849.72867	5727.9375
2852.24974	5714.3375
2854.76927	5715.1375
2857.28724	5705.1375
2859.80367	5709.1375
2862.31855	5689.0375
2864.83189	5691.2375
2867.34368	5692.3375
2869.85393	5699.5375
2872.36264	5656.7375
2874.8698	5661.4375
2877.37543	5663.8375
2879.87952	5663.2375
2882.38207	5676.2375
2884.88308	5637.3375
2887.38256	5650.1375
2889.88051	5672.3375
2892.37692	5642.8375
2894.8718	5647.2375
2897.36515	5659.9375
2899.85698	5656.4375
2902.34727	5614.6375
2904.83604	5651.3375
2907.32328	5651.4375
2909.809	5646.8375
2912.29319	5649.6375
2914.77587	5673.4375
2917.25702	5671.4375
2919.73665	5647.4375
2922.21476	5647.7375
2924.69136	5638.7375
2927.16644	5644.8375
2929.64	5654.8375
2932.11205	5608.9375
2934.58258	5588.5375
2937.05161	5609.7375
2939.51912	5597.4375
2941.98513	5577.3375
2944.44962	5565.5375
2946.91261	5551.8375
2949.37409	5553.0375
2951.83407	5530.2375
2954.29254	5533.9375
2956.74951	5537.4375
2959.20498	5558.1375
2961.65895	5528.6375
2964.11142	5542.2375
2966.56239	5509.5375
2969.01186	5509.6375
2971.45984	5498.9375
2973.90632	5504.0375
2976.35131	5473.9375
2978.7948	5462.3375
2981.23681	5457.0375
2983.67732	5459.5375
2986.11635	5422.8375
2988.55388	5413.3375
2990.98993	5415.8375
2993.4245	5381.3375
2995.85758	5409.2375
2998.28917	5399.3375
3000.71928	5365.6375
3003.14791	5365.4375
3005.57506	5358.4375
3008.00073	5358.2375
3010.42493	5347.9375
3012.84764	5330.6375
3015.26888	5333.2375
3017.68865	5327.2375
3020.10694	5332.8375
3022.52376	5309.6375
3024.9391	5309.7375
3027.35298	5281.7375
3029.76539	5268.7375
3032.17632	5258.0375
3034.5858	5255.5375
3036.9938	5261.2375
3039.40034	5249.4375
3041.80542	5255.7375
3044.20903	5237.1375
3046.61118	5261.9375
3049.01187	5220.8375
3051.4111	5227.1375
3053.80888	5215.9375
3056.20519	5187.2375
3058.60005	5190.0375
3060.99345	5171.4375
3063.3854	5163.1375
3065.7759	5142.0375
3068.16494	5143.9375
3070.55254	5127.9375
3072.93868	5135.2375
3075.32338	5126.6375
3077.70662	5113.8375
