Data from AgNP_FTO_APTES_UA_100uM_CRN_10uM_R6G_10uM_NaF_0.1M_Addition_RamanShift__34__15-56-40-440.txt Node

Date: Thu Mar 24 15:56:40 GMT 2022
User: TCL
Spectrometer: QEP01345
Trigger mode: 4
Integration Time (sec): 7.000000E0
Scans to average: 10
Electric dark correction enabled: true
Nonlinearity correction enabled: false
Boxcar width: 0
XAxis mode: Raman Shifts
Number of Pixels in Spectrum: 1044
>>>>>Begin Spectral Data<<<<<
46.04893	-1.175
50.45542	0.425
54.85868	-0.775
59.25871	0.125
63.6555	29.125
68.04907	31.025
72.43941	27.925
76.82654	31.225
81.21044	32.825
85.59113	34.225
89.96862	38.525
94.34289	33.825
98.71396	37.125
103.08183	37.625
107.4465	38.525
111.80798	42.525
116.16626	42.525
120.52136	41.125
124.87327	40.625
129.222	45.225
133.56755	48.025
137.90993	48.525
142.24913	57.725
146.58517	58.525
150.91804	70.825
155.24774	81.925
159.57429	106.125
163.89768	132.025
168.21792	176.825
172.53501	233.825
176.84895	335.725
181.15975	467.325
185.46741	661.625
189.77193	910.725
194.07331	1234.225
198.37157	1579.525
202.6667	1964.825
206.9587	2351.625
211.24758	2721.525
215.53334	3092.925
219.81599	3495.325
224.09553	3951.125
228.37195	4446.225
232.64527	5012.825
236.91549	5583.625
241.18261	6158.025
245.44663	6635.225
249.70755	7070.725
253.96539	7424.825
258.22014	7725.925
262.4718	7957.525
266.72039	8163.025
270.96589	8254.225
275.20832	8187.125
279.44768	8104.925
283.68397	8004.125
287.91719	7886.925
292.14735	7838.325
296.37445	7860.125
300.59849	7981.925
304.81948	8136.225
309.03742	8256.525
313.25231	8286.625
317.46415	8154.225
321.67296	7943.825
325.87872	7681.625
330.08145	7558.425
334.28114	7560.425
338.47781	7658.625
342.67145	7761.925
346.86207	7933.425
351.04966	8183.125
355.23424	8421.725
359.4158	8608.925
363.59435	8701.825
367.76989	8760.225
371.94243	8761.225
376.11196	8769.625
380.27849	8783.625
384.44203	8739.525
388.60257	8763.425
392.76012	8821.125
396.91468	8903.525
401.06626	9039.325
405.21485	9137.625
409.36047	9041.025
413.50311	8784.625
417.64277	8538.625
421.77947	8408.725
425.9132	8397.825
430.04396	8422.625
434.17176	8460.325
438.2966	8549.325
442.41849	8652.225
446.53742	8863.125
450.6534	9073.125
454.76644	9187.625
458.87653	9189.825
462.98368	9157.525
467.08789	9058.025
471.18916	8945.125
475.2875	8802.625
479.38291	8684.425
483.4754	8570.725
487.56496	8505.225
491.6516	8452.125
495.73531	8414.925
499.81612	8423.725
503.89401	8479.725
507.96899	8547.325
512.04106	8592.325
516.11023	8650.925
520.1765	8667.525
524.23987	8683.225
528.30034	8659.625
532.35792	8607.425
536.41261	8544.325
540.46441	8400.925
544.51333	8346.625
548.55936	8361.625
552.60252	8512.825
556.64279	8661.325
560.6802	8772.225
564.71473	8774.325
568.7464	8861.925
572.7752	9015.125
576.80114	9055.825
580.82422	9130.525
584.84444	9280.525
588.86181	9561.825
592.87633	9967.825
596.888	10242.325
600.89682	10194.325
604.9028	10342.125
608.90594	11513.025
612.90624	13319.525
616.90371	12795.025
620.89834	10140.625
624.89015	8844.325
628.87913	8622.625
632.86528	8735.325
636.84862	8856.225
640.82913	8796.525
644.80683	8526.025
648.78172	8333.925
652.75379	8299.725
656.72306	8465.425
660.68952	8718.425
664.65319	8677.225
668.61405	8412.025
672.57211	8286.625
676.52738	8298.525
680.47986	8287.925
684.42955	8225.425
688.37646	8174.925
692.32058	8193.625
696.26192	8259.525
700.20048	8349.725
704.13626	8444.425
708.06928	8445.025
711.99952	8386.025
715.927	8365.125
719.85171	8420.525
723.77365	8421.525
727.69284	8359.925
731.60928	8302.825
735.52295	8295.425
739.43388	8330.425
743.34206	8364.225
747.24749	8380.925
751.15017	8401.425
755.05012	8447.925
758.94733	8692.225
762.8418	9275.825
766.73354	10282.325
770.62254	11323.525
774.50882	11720.425
778.39237	11260.725
782.27321	10258.225
786.15132	9346.625
790.02671	8739.125
793.89938	8418.325
797.76935	8305.625
801.6366	8204.125
805.50115	8156.725
809.36299	8129.525
813.22213	8105.525
817.07857	8064.425
820.93231	8030.625
824.78336	8045.725
828.63172	8071.925
832.47738	8056.825
836.32036	8053.625
840.16066	8038.925
843.99827	8045.125
847.8332	8016.625
851.66546	8028.825
855.49504	8053.325
859.32195	8053.125
863.1462	8030.725
866.96777	8018.625
870.78668	8012.025
874.60293	8024.925
878.41652	8043.225
882.22745	8069.125
886.03573	8123.225
889.84136	8100.725
893.64433	8080.225
897.44466	8044.625
901.24235	8036.625
905.0374	8002.225
908.8298	7975.525
912.61957	7940.525
916.40671	7943.625
920.19121	7980.925
923.97308	8061.425
927.75233	8137.625
931.52895	8121.025
935.30295	8031.625
939.07433	7882.225
942.84309	7751.825
946.60924	7673.125
950.37278	7647.225
954.13371	7643.425
957.89203	7603.025
961.64774	7642.125
965.40086	7605.625
969.15137	7596.925
972.89929	7553.125
976.64461	7573.525
980.38733	7562.525
984.12747	7556.825
987.86502	7584.425
991.59999	7612.125
995.33237	7662.225
999.06217	7741.725
1002.78939	7873.725
1006.51404	8006.925
1010.23611	8127.025
1013.95561	8232.225
1017.67255	8232.025
1021.38692	8148.425
1025.09872	8019.325
1028.80796	7901.425
1032.51465	7814.125
1036.21877	7834.725
1039.92035	7861.225
1043.61937	7906.625
1047.31584	7939.425
1051.00976	7964.625
1054.70114	7984.225
1058.38998	8004.725
1062.07627	8018.325
1065.76003	8096.225
1069.44126	8152.425
1073.11995	8289.125
1076.79611	8408.925
1080.46974	8535.425
1084.14085	8626.525
1087.80943	8778.725
1091.47549	8830.025
1095.13903	8793.925
1098.80005	8632.525
1102.45857	8455.925
1106.11456	8372.425
1109.76805	8357.925
1113.41903	8430.025
1117.06751	8553.325
1120.71348	8721.325
1124.35696	8932.225
1127.99793	9138.225
1131.63641	9159.125
1135.2724	8984.525
1138.90589	8774.925
1142.5369	8623.825
1146.16542	8562.925
1149.79145	8530.725
1153.415	8532.425
1157.03607	8570.025
1160.65467	8677.625
1164.27079	8884.125
1167.88443	9242.425
1171.49561	9752.025
1175.10432	10553.625
1178.71056	11598.025
1182.31434	12488.125
1185.91565	12830.625
1189.51451	12629.725
1193.11091	12140.325
1196.70485	11548.825
1200.29634	11030.525
1203.88538	10516.425
1207.47197	10033.825
1211.05612	9628.125
1214.63782	9361.625
1218.21708	9258.925
1221.79391	9232.025
1225.36829	9273.025
1228.94024	9249.525
1232.50976	9153.525
1236.07685	9043.925
1239.6415	8981.225
1243.20374	8972.825
1246.76355	9005.025
1250.32093	9048.125
1253.8759	9130.125
1257.42845	9304.725
1260.97859	9546.325
1264.52631	9824.825
1268.07163	10101.325
1271.61453	10325.425
1275.15503	10531.125
1278.69312	10703.125
1282.22882	10838.125
1285.76211	11118.025
1289.29301	11478.425
1292.82151	11865.525
1296.34761	12304.125
1299.87133	12889.325
1303.39266	13676.325
1306.9116	14697.425
1310.42815	15784.825
1313.94233	16289.225
1317.45412	15916.425
1320.96354	15084.825
1324.47058	14227.225
1327.97525	13442.225
1331.47754	12898.625
1334.97747	12596.725
1338.47502	12572.525
1341.97022	12736.925
1345.46305	13086.325
1348.95352	13719.525
1352.44163	14452.725
1355.92738	15449.625
1359.41078	16919.925
1362.89183	18375.225
1366.37053	18215.825
1369.84688	16095.225
1373.32088	13687.825
1376.79254	12096.725
1380.26186	11326.125
1383.72883	10954.825
1387.19347	10626.625
1390.65578	10268.425
1394.11575	10061.525
1397.57339	9937.125
1401.0287	9897.325
1404.48168	9873.225
1407.93234	9828.825
1411.38068	9754.425
1414.82669	9653.925
1418.27039	9554.425
1421.71177	9462.125
1425.15083	9281.725
1428.58758	9172.725
1432.02203	9192.325
1435.45416	9273.425
1438.88399	9364.425
1442.31151	9396.825
1445.73673	9458.225
1449.15965	9494.325
1452.58027	9474.925
1455.9986	9445.225
1459.41463	9485.025
1462.82837	9588.925
1466.23982	9825.425
1469.64898	10095.325
1473.05586	10298.725
1476.46045	10447.725
1479.86276	10618.825
1483.26279	10792.125
1486.66054	10988.425
1490.05602	11335.225
1493.44922	11817.025
1496.84016	12475.825
1500.22882	13458.225
1503.61521	14726.525
1506.99934	16033.825
1510.38121	16902.825
1513.76081	16869.925
1517.13816	15776.725
1520.51324	14193.425
1523.88607	12901.125
1527.25665	12042.525
1530.62498	11569.625
1533.99105	11245.225
1537.35488	10954.825
1540.71647	10677.025
1544.07581	10426.625
1547.4329	10206.225
1550.78776	10076.125
1554.14038	10009.725
1557.49077	10056.525
1560.83892	10157.025
1564.18484	10348.325
1567.52853	10660.525
1570.86999	10934.925
1574.20922	11148.125
1577.54624	11100.825
1580.88103	10697.325
1584.2136	10133.625
1587.54395	9871.225
1590.87208	9981.825
1594.19801	10434.425
1597.52172	11015.425
1600.84321	11297.725
1604.16251	11002.125
1607.47959	10448.425
1610.79447	9873.725
1614.10715	9293.125
1617.41763	8782.725
1620.7259	8411.425
1624.03199	8209.325
1627.33587	8164.025
1630.63757	8285.725
1633.93707	8632.725
1637.23439	9273.125
1640.52951	10306.425
1643.82246	11793.125
1647.11321	13302.225
1650.40179	14103.125
1653.68819	13549.825
1656.97241	11877.125
1660.25446	10124.125
1663.53433	8856.925
1666.81203	8091.025
1670.08756	7634.325
1673.36092	7354.525
1676.63211	7198.725
1679.90115	7057.325
1683.16801	6961.025
1686.43272	6876.525
1689.69527	6818.725
1692.95567	6777.225
1696.2139	6750.325
1699.46999	6744.025
1702.72392	6705.825
1705.97571	6700.025
1709.22535	6658.325
1712.47284	6635.225
1715.71819	6609.425
1718.96139	6597.125
1722.20246	6567.925
1725.44139	6566.825
1728.67818	6521.125
1731.91284	6468.525
1735.14537	6441.525
1738.37576	6386.325
1741.60403	6370.225
1744.83017	6326.325
1748.05418	6312.525
1751.27607	6292.225
1754.49584	6300.525
1757.71349	6289.125
1760.92903	6288.425
1764.14244	6268.725
1767.35375	6269.325
1770.56294	6241.525
1773.77002	6238.925
1776.97499	6205.025
1780.17785	6180.025
1783.37861	6151.625
1786.57727	6142.525
1789.77382	6105.025
1792.96828	6108.925
1796.16064	6109.325
1799.3509	6071.325
1802.53907	6063.725
1805.72514	6052.825
1808.90913	6021.925
1812.09102	6016.925
1815.27083	5977.325
1818.44856	5970.825
1821.6242	5954.625
1824.79776	5977.025
1827.96924	5948.625
1831.13864	5929.825
1834.30597	5911.725
1837.47122	5923.325
1840.6344	5893.125
1843.7955	5875.625
1846.95454	5880.625
1850.11151	5882.425
1853.26642	5868.225
1856.41926	5876.525
1859.57004	5871.325
1862.71876	5868.125
1865.86542	5842.925
1869.01003	5852.725
1872.15258	5841.425
1875.29308	5824.625
1878.43152	5822.325
1881.56792	5826.125
1884.70227	5810.825
1887.83457	5800.725
1890.96482	5792.825
1894.09304	5763.225
1897.21921	5771.325
1900.34335	5756.925
1903.46544	5743.925
1906.58551	5762.525
1909.70353	5746.925
1912.81953	5711.925
1915.93349	5708.325
1919.04543	5696.925
1922.15534	5697.425
1925.26322	5675.425
1928.36908	5639.225
1931.47292	5651.625
1934.57473	5623.525
1937.67453	5617.725
1940.77232	5588.025
1943.86808	5571.125
1946.96184	5548.525
1950.05358	5544.725
1953.14331	5517.225
1956.23103	5490.425
1959.31675	5500.425
1962.40046	5466.525
1965.48217	5469.225
1968.56188	5447.925
1971.63959	5421.625
1974.7153	5407.925
1977.78901	5395.525
1980.86073	5359.025
1983.93046	5372.825
1986.99819	5310.425
1990.06394	5299.825
1993.1277	5282.525
1996.18947	5253.025
1999.24925	5276.225
2002.30706	5232.625
2005.36288	5222.825
2008.41672	5185.125
2011.46859	5196.125
2014.51848	5168.525
2017.56639	5153.725
2020.61233	5114.625
2023.6563	5120.425
2026.6983	5111.925
2029.73833	5081.725
2032.7764	5087.025
2035.8125	5060.125
2038.84664	5056.725
2041.87881	5038.225
2044.90903	5026.625
2047.93729	5024.225
2050.96359	5012.425
2053.98794	5013.825
2057.01034	4989.625
2060.03078	4989.425
2063.04927	4968.925
2066.06582	4974.825
2069.08042	4950.625
2072.09307	4966.725
2075.10378	4945.825
2078.11255	4966.225
2081.11938	4954.025
2084.12426	4955.125
2087.12722	4936.225
2090.12824	4944.025
2093.12732	4954.125
2096.12447	4927.625
2099.11969	4946.425
2102.11299	4928.125
2105.10435	4941.025
2108.09379	4944.925
2111.08131	4938.325
2114.0669	4942.325
2117.05057	4928.925
2120.03233	4942.725
2123.01216	4951.225
2125.99008	4951.225
2128.96609	4960.325
2131.94018	4956.025
2134.91236	4963.225
2137.88263	4951.025
2140.851	4937.225
2143.81746	4938.925
2146.78201	4948.125
2149.74466	4938.325
2152.7054	4925.925
2155.66425	4914.725
2158.6212	4934.125
2161.57625	4919.425
2164.52941	4892.125
2167.48067	4903.025
2170.43004	4912.025
2173.37752	4927.525
2176.32311	4895.025
2179.26681	4894.525
2182.20863	4892.625
2185.14856	4875.925
2188.08661	4859.925
2191.02278	4871.925
2193.95707	4878.425
2196.88948	4862.725
2199.82001	4859.525
2202.74867	4864.025
2205.67545	4858.725
2208.60037	4833.825
2211.52341	4832.925
2214.44458	4809.525
2217.36388	4810.325
2220.28132	4809.925
2223.1969	4785.425
2226.11061	4782.725
2229.02246	4768.525
2231.93245	4759.225
2234.84058	4758.825
2237.74686	4729.725
2240.65128	4756.225
2243.55385	4744.325
2246.45456	4735.025
2249.35343	4726.425
2252.25044	4716.625
2255.14561	4711.025
2258.03893	4705.625
2260.93041	4722.825
2263.82004	4681.225
2266.70783	4670.325
2269.59378	4670.425
2272.4779	4662.325
2275.36017	4644.425
2278.24061	4628.925
2281.11922	4601.125
2283.996	4610.525
2286.87094	4593.625
2289.74405	4573.425
2292.61534	4570.325
2295.4848	4557.525
2298.35243	4553.925
2301.21824	4559.025
2304.08223	4540.525
2306.94439	4539.725
2309.80474	4540.325
2312.66327	4516.725
2315.51999	4523.325
2318.37489	4506.025
2321.22797	4502.525
2324.07925	4508.325
2326.92871	4511.625
2329.77637	4501.525
2332.62222	4470.225
2335.46626	4474.025
2338.3085	4450.825
2341.14893	4463.025
2343.98756	4453.325
2346.8244	4447.325
2349.65943	4451.225
2352.49267	4454.825
2355.32411	4459.625
2358.15376	4453.425
2360.98161	4451.125
2363.80768	4451.025
2366.63195	4470.525
2369.45444	4451.025
2372.27514	4440.925
2375.09405	4450.625
2377.91118	4442.625
2380.72652	4404.325
2383.54009	4408.825
2386.35187	4399.025
2389.16188	4362.525
2391.97011	4368.325
2394.77657	4359.225
2397.58125	4336.725
2400.38416	4350.725
2403.18529	4315.725
2405.98466	4309.425
2408.78226	4291.125
2411.57809	4296.225
2414.37216	4304.425
2417.16446	4279.125
2419.955	4277.425
2422.74378	4278.125
2425.5308	4271.925
2428.31606	4258.925
2431.09956	4256.925
2433.88131	4258.425
2436.6613	4254.625
2439.43954	4267.525
2442.21603	4266.325
2444.99077	4253.825
2447.76377	4254.025
2450.53501	4240.225
2453.30451	4256.325
2456.07226	4259.325
2458.83827	4233.825
2461.60254	4248.425
2464.36507	4240.825
2467.12586	4225.225
2469.88492	4229.725
2472.64224	4217.125
2475.39782	4212.825
2478.15167	4218.525
2480.90379	4229.325
2483.65417	4233.625
2486.40283	4222.325
2489.14976	4231.025
2491.89497	4223.125
2494.63845	4217.425
2497.3802	4215.225
2500.12024	4202.925
2502.85855	4203.925
2505.59514	4195.125
2508.33002	4177.025
2511.06318	4161.525
2513.79462	4157.325
2516.52435	4145.425
2519.25237	4134.525
2521.97867	4137.825
2524.70327	4119.825
2527.42616	4097.825
2530.14734	4120.725
2532.86681	4098.925
2535.58458	4117.225
2538.30065	4079.825
2541.01501	4077.825
2543.72768	4101.125
2546.43864	4091.225
2549.14791	4087.325
2551.85548	4084.625
2554.56136	4058.425
2557.26554	4051.225
2559.96803	4050.325
2562.66883	4041.425
2565.36794	4052.125
2568.06536	4035.825
2570.7611	4037.625
2573.45514	4017.425
2576.14751	4022.325
2578.83819	4007.525
2581.52719	3992.825
2584.21451	3984.625
2586.90015	3980.925
2589.58411	3979.025
2592.2664	3963.225
2594.94701	3971.325
2597.62594	3950.025
2600.30321	3950.825
2602.9788	3947.625
2605.65273	3947.125
2608.32498	3936.825
2610.99557	3950.725
2613.66449	3929.225
2616.33175	3924.925
2618.99734	3920.025
2621.66128	3911.825
2624.32355	3906.525
2626.98416	3882.225
2629.64311	3885.525
2632.30041	3873.525
2634.95605	3867.425
2637.61004	3869.825
2640.26238	3852.525
2642.91306	3873.025
2645.56209	3866.025
2648.20948	3851.825
2650.85521	3850.625
2653.4993	3861.125
2656.14175	3857.925
2658.78255	3866.525
2661.42171	3854.225
2664.05923	3864.325
2666.6951	3861.025
2669.32934	3879.125
2671.96194	3860.025
2674.59291	3858.525
2677.22224	3866.925
2679.84993	3870.925
2682.476	3842.925
2685.10043	3846.825
2687.72324	3849.325
2690.34441	3852.725
2692.96396	3836.725
2695.58188	3843.225
2698.19818	3841.125
2700.81285	3832.725
2703.4259	3853.925
2706.03733	3850.925
2708.64714	3843.525
2711.25533	3849.925
2713.86191	3826.925
2716.46687	3847.625
2719.07021	3829.525
2721.67194	3843.725
2724.27206	3844.625
2726.87057	3830.925
2729.46747	3838.925
2732.06276	3828.325
2734.65644	3825.025
2737.24852	3838.125
2739.83899	3820.225
2742.42786	3808.225
2745.01513	3796.125
2747.60079	3798.525
2750.18486	3779.625
2752.76733	3783.825
2755.3482	3781.125
2757.92747	3788.325
2760.50515	3769.625
2763.08123	3757.825
2765.65573	3772.025
2768.22863	3764.825
2770.79994	3758.325
2773.36967	3739.325
2775.9378	3743.025
2778.50435	3743.625
2781.06932	3723.525
2783.6327	3718.125
2786.1945	3718.425
2788.75471	3729.025
2791.31335	3706.525
2793.87041	3729.425
2796.42589	3709.825
2798.97979	3710.425
2801.53212	3695.525
2804.08288	3696.425
2806.63206	3681.225
2809.17967	3683.225
2811.72571	3682.625
2814.27018	3671.725
2816.81308	3663.525
2819.35442	3662.325
2821.89419	3644.825
2824.43239	3656.225
2826.96904	3622.525
2829.50412	3649.425
2832.03763	3646.425
2834.56959	3640.525
2837.1	3629.925
2839.62884	3639.925
2842.15613	3630.525
2844.68186	3630.025
2847.20604	3650.025
2849.72867	3646.225
2852.24974	3644.025
2854.76927	3645.225
2857.28724	3650.225
2859.80367	3626.525
2862.31855	3624.025
2864.83189	3617.625
2867.34368	3622.025
2869.85393	3624.725
2872.36264	3611.225
2874.8698	3603.025
2877.37543	3606.325
2879.87952	3606.325
2882.38207	3601.825
2884.88308	3596.425
2887.38256	3590.325
2889.88051	3613.825
2892.37692	3599.425
2894.8718	3584.725
2897.36515	3597.125
2899.85698	3602.525
2902.34727	3594.625
2904.83604	3596.325
2907.32328	3601.225
2909.809	3613.325
2912.29319	3604.225
2914.77587	3605.625
2917.25702	3619.325
2919.73665	3616.825
2922.21476	3611.625
2924.69136	3606.325
2927.16644	3598.625
2929.64	3593.825
2932.11205	3586.825
2934.58258	3566.825
2937.05161	3567.525
2939.51912	3567.725
2941.98513	3547.425
2944.44962	3549.625
2946.91261	3540.725
2949.37409	3535.125
2951.83407	3537.725
2954.29254	3525.925
2956.74951	3536.025
2959.20498	3539.925
2961.65895	3530.425
2964.11142	3529.725
2966.56239	3517.925
2969.01186	3521.525
2971.45984	3517.425
2973.90632	3508.625
2976.35131	3495.125
2978.7948	3483.925
2981.23681	3469.625
2983.67732	3494.925
2986.11635	3462.525
2988.55388	3460.925
2990.98993	3454.325
2993.4245	3447.225
2995.85758	3432.025
2998.28917	3442.825
3000.71928	3434.325
3003.14791	3446.025
3005.57506	3414.225
3008.00073	3401.225
3010.42493	3398.425
3012.84764	3398.425
3015.26888	3405.725
3017.68865	3400.025
3020.10694	3395.625
3022.52376	3386.725
3024.9391	3387.625
3027.35298	3372.925
3029.76539	3357.525
3032.17632	3352.725
3034.5858	3366.525
3036.9938	3343.625
3039.40034	3342.025
3041.80542	3337.125
3044.20903	3351.625
3046.61118	3340.325
3049.01187	3332.825
3051.4111	3319.825
3053.80888	3336.825
3056.20519	3315.625
3058.60005	3315.125
3060.99345	3318.725
3063.3854	3303.925
3065.7759	3297.225
3068.16494	3300.825
3070.55254	3292.025
3072.93868	3295.725
3075.32338	3281.025
3077.70662	3272.825
3080.08842	3270.225
3082.46878	3274.225
3084.84769	3257.625
3087.22515	3251.525
3089.60118	3276.725
3091.97576	3274.425
3094.3489	3258.825
3096.72061	3265.425
3099.09087	3267.525
3101.4597	3286.425
3103.82709	3269.725
3106.19305	3256.925
3108.55757	3263.925
3110.92066	3265.625
3113.28232	3260.825
3115.64255	3248.925
3118.00134	3239.825
3120.35871	3237.425
3122.71466	3237.225
3125.06917	3244.725
3127.42226	3229.525
3129.77393	3240.625
3132.12417	3233.225
3134.47299	3230.825
3136.82039	3233.125
3139.16636	3238.925
3141.51092	3244.125
3143.85406	3240.925
3146.19579	3246.925
3148.53609	3257.925
3150.87499	3262.525
3153.21246	3256.625
3155.54853	3275.925
3157.88318	3265.625
3160.21642	3288.625
3162.54826	3277.325
3164.87868	3275.325
3167.2077	3276.425
3169.5353	3269.025
3171.86151	3285.825
3174.18631	3276.625
3176.5097	3276.425
3178.83169	3267.725
3181.15228	3283.525
3183.47147	3273.725
3185.78926	3260.225
3188.10565	3260.925
3190.42065	3268.825
3192.73424	3274.125
3195.04645	3267.525
3197.35725	3265.725
3199.66667	3271.725
3201.97469	3260.725
3204.28132	3266.825
3206.58656	3284.425
3208.8904	3291.625
3211.19287	3288.825
3213.49394	3290.825
3215.79363	3290.425
3218.09193	3293.225
3220.38884	3308.925
3222.68438	3295.625
