Data from AgNP_FTO_APTES_UA_100uM_CRN_0uM_R6G_10uM_NaF_0.1M_Addition_RamanShift__2__10-47-30-082.txt Node

Date: Thu Mar 24 10:47:30 GMT 2022
User: TCL
Spectrometer: QEP01345
Trigger mode: 4
Integration Time (sec): 7.000000E0
Scans to average: 10
Electric dark correction enabled: true
Nonlinearity correction enabled: false
Boxcar width: 0
XAxis mode: Raman Shifts
Number of Pixels in Spectrum: 1044
>>>>>Begin Spectral Data<<<<<
46.04893	-1.325
50.45542	0.175
54.85868	-1.025
59.25871	-0.025
63.6555	40.475
68.04907	41.875
72.43941	43.075
76.82654	39.575
81.21044	48.975
85.59113	45.475
89.96862	50.975
94.34289	51.475
98.71396	53.775
103.08183	54.875
107.4465	57.575
111.80798	55.375
116.16626	58.075
120.52136	60.675
124.87327	63.375
129.222	66.375
133.56755	72.675
137.90993	76.575
142.24913	86.975
146.58517	93.275
150.91804	108.575
155.24774	132.475
159.57429	167.675
163.89768	215.675
168.21792	299.675
172.53501	407.475
176.84895	575.975
181.15975	800.575
185.46741	1129.975
189.77193	1550.875
194.07331	2062.875
198.37157	2677.775
202.6667	3298.875
206.9587	3934.175
211.24758	4551.675
215.53334	5244.275
219.81599	6001.875
224.09553	6894.475
228.37195	7864.975
232.64527	8958.875
236.91549	9983.975
241.18261	10923.675
245.44663	11615.775
249.70755	12058.475
253.96539	12362.675
258.22014	12588.475
262.4718	12840.175
266.72039	12997.775
270.96589	13047.375
275.20832	12916.775
279.44768	12630.575
283.68397	12375.375
287.91719	12168.275
292.14735	12205.575
296.37445	12541.175
300.59849	13211.575
304.81948	14010.675
309.03742	14785.175
313.25231	15159.175
317.46415	14838.175
321.67296	13878.675
325.87872	12968.075
330.08145	12447.175
334.28114	12365.275
338.47781	12548.475
342.67145	12841.975
346.86207	13302.175
351.04966	13980.275
355.23424	14836.675
359.4158	15365.075
363.59435	15544.975
367.76989	15559.175
371.94243	15371.275
376.11196	15245.975
380.27849	15064.975
384.44203	14860.875
388.60257	14656.075
392.76012	14540.675
396.91468	14639.475
401.06626	14991.975
405.21485	15275.575
409.36047	14936.475
413.50311	13974.275
417.64277	13109.275
421.77947	12593.375
425.9132	12448.175
430.04396	12450.975
434.17176	12576.975
438.2966	12936.475
442.41849	13599.775
446.53742	14550.675
450.6534	15482.775
454.76644	15853.475
458.87653	15394.975
462.98368	14515.075
467.08789	13656.575
471.18916	12924.575
475.2875	12255.675
479.38291	11729.875
483.4754	11391.875
487.56496	11180.575
491.6516	11083.475
495.73531	11076.475
499.81612	11179.275
503.89401	11381.275
507.96899	11579.775
512.04106	11747.175
516.11023	11930.475
520.1765	12119.375
524.23987	12284.475
528.30034	12369.775
532.35792	12285.575
536.41261	11891.875
540.46441	11334.275
544.51333	10951.875
548.55936	10944.375
552.60252	11365.375
556.64279	12005.975
560.6802	12486.675
564.71473	12612.775
568.7464	12915.075
572.7752	13309.475
576.80114	12995.675
580.82422	12659.175
584.84444	13183.075
588.86181	14597.375
592.87633	16654.875
596.888	17756.675
600.89682	16427.875
604.9028	15968.875
608.90594	19993.675
612.90624	26478.975
616.90371	26127.475
620.89834	17148.075
624.89015	12202.975
628.87913	11241.775
632.86528	11369.975
636.84862	11580.275
640.82913	11277.475
644.80683	10560.775
648.78172	10006.275
652.75379	9981.975
656.72306	10493.175
660.68952	11267.375
664.65319	11180.075
668.61405	10350.575
672.57211	9975.475
676.52738	10009.575
680.47986	10017.775
684.42955	9776.575
688.37646	9563.275
692.32058	9508.375
696.26192	9661.875
700.20048	9947.175
704.13626	10167.275
708.06928	10149.675
711.99952	10073.875
715.927	10030.175
719.85171	10148.075
723.77365	10182.975
727.69284	10005.675
731.60928	9851.575
735.52295	9896.475
739.43388	10001.175
743.34206	10102.775
747.24749	10145.575
751.15017	10184.475
755.05012	10401.875
758.94733	11108.775
762.8418	12876.275
766.73354	16177.475
770.62254	19684.375
774.50882	21301.675
778.39237	20173.475
782.27321	17031.875
786.15132	13701.875
790.02671	11561.275
793.89938	10523.075
797.76935	10071.875
801.6366	9880.675
805.50115	9727.575
809.36299	9615.075
813.22213	9488.475
817.07857	9402.375
820.93231	9332.575
824.78336	9370.875
828.63172	9441.175
832.47738	9457.975
836.32036	9419.375
840.16066	9385.775
843.99827	9335.475
847.8332	9315.175
851.66546	9330.175
855.49504	9354.775
859.32195	9324.775
863.1462	9260.775
866.96777	9241.075
870.78668	9229.075
874.60293	9228.475
878.41652	9263.075
882.22745	9354.375
886.03573	9449.675
889.84136	9454.775
893.64433	9400.175
897.44466	9382.275
901.24235	9353.675
905.0374	9247.875
908.8298	9148.675
912.61957	9045.375
916.40671	9081.375
920.19121	9195.775
923.97308	9461.475
927.75233	9753.075
931.52895	9939.175
935.30295	9713.875
939.07433	9218.875
942.84309	8790.375
946.60924	8523.575
950.37278	8404.175
954.13371	8339.875
957.89203	8285.175
961.64774	8215.275
965.40086	8162.675
969.15137	8110.375
972.89929	8042.875
976.64461	8035.575
980.38733	8017.275
984.12747	8037.275
987.86502	8105.975
991.59999	8210.575
995.33237	8431.375
999.06217	8856.475
1002.78939	9331.275
1006.51404	9633.675
1010.23611	9885.575
1013.95561	10080.175
1017.67255	10166.175
1021.38692	9863.875
1025.09872	9351.275
1028.80796	9015.675
1032.51465	8987.875
1036.21877	9078.675
1039.92035	9169.575
1043.61937	9150.775
1047.31584	9149.175
1051.00976	9129.775
1054.70114	9111.875
1058.38998	9062.375
1062.07627	9055.675
1065.76003	9029.775
1069.44126	9081.175
1073.11995	9342.075
1076.79611	9689.175
1080.46974	10029.575
1084.14085	10534.275
1087.80943	11098.275
1091.47549	11299.275
1095.13903	10974.975
1098.80005	10325.375
1102.45857	9796.775
1106.11456	9593.675
1109.76805	9678.775
1113.41903	9991.275
1117.06751	10505.975
1120.71348	11185.875
1124.35696	12042.775
1127.99793	12789.275
1131.63641	12797.375
1135.2724	11973.475
1138.90589	11132.375
1142.5369	10621.275
1146.16542	10370.075
1149.79145	10242.975
1153.415	10205.775
1157.03607	10244.675
1160.65467	10491.875
1164.27079	11134.675
1167.88443	12329.475
1171.49561	14247.875
1175.10432	17187.475
1178.71056	21016.275
1182.31434	24109.075
1185.91565	24764.775
1189.51451	23329.275
1193.11091	21020.775
1196.70485	18801.975
1200.29634	16980.075
1203.88538	15318.475
1207.47197	13730.975
1211.05612	12534.875
1214.63782	12048.575
1218.21708	12218.375
1221.79391	12810.375
1225.36829	13232.175
1228.94024	12956.075
1232.50976	12152.775
1236.07685	11510.875
1239.6415	11177.675
1243.20374	11075.775
1246.76355	11102.375
1250.32093	11268.975
1253.8759	11645.475
1257.42845	12219.275
1260.97859	12929.975
1264.52631	13787.675
1268.07163	14573.375
1271.61453	15251.875
1275.15503	15798.875
1278.69312	16225.075
1282.22882	16727.875
1285.76211	17643.575
1289.29301	18973.775
1292.82151	20394.175
1296.34761	21929.075
1299.87133	23849.075
1303.39266	26522.775
1306.9116	30469.175
1310.42815	35193.175
1313.94233	38511.975
1317.45412	37726.375
1320.96354	33787.675
1324.47058	28991.175
1327.97525	25018.375
1331.47754	22573.775
1334.97747	21514.875
1338.47502	21207.575
1341.97022	21214.875
1345.46305	21813.675
1348.95352	23609.575
1352.44163	26799.075
1355.92738	31503.775
1359.41078	37851.275
1362.89183	43710.175
1366.37053	43321.375
1369.84688	35905.075
1373.32088	27242.975
1376.79254	21746.075
1380.26186	19289.875
1383.72883	18105.775
1387.19347	17099.875
1390.65578	16068.375
1394.11575	15562.375
1397.57339	15638.275
1401.0287	16038.975
1404.48168	16407.475
1407.93234	16426.975
1411.38068	16180.275
1414.82669	15773.175
1418.27039	15313.375
1421.71177	14733.675
1425.15083	14197.875
1428.58758	14015.675
1432.02203	14346.475
1435.45416	14893.875
1438.88399	15216.675
1442.31151	15252.275
1445.73673	15296.675
1449.15965	15393.075
1452.58027	15239.675
1455.9986	14835.975
1459.41463	14691.875
1462.82837	14919.875
1466.23982	15625.275
1469.64898	16310.775
1473.05586	16769.275
1476.46045	17030.375
1479.86276	17308.575
1483.26279	17533.675
1486.66054	17895.175
1490.05602	18607.875
1493.44922	19574.975
1496.84016	20951.475
1500.22882	23243.775
1503.61521	26654.675
1506.99934	30802.875
1510.38121	34975.575
1513.76081	36861.875
1517.13816	34611.575
1520.51324	29270.475
1523.88607	24108.875
1527.25665	20930.875
1530.62498	19397.075
1533.99105	18539.775
1537.35488	17810.575
1540.71647	17040.775
1544.07581	16349.375
1547.4329	15759.675
1550.78776	15248.375
1554.14038	14946.475
1557.49077	14865.175
1560.83892	15128.375
1564.18484	15775.775
1567.52853	16633.375
1570.86999	17502.275
1574.20922	18044.675
1577.54624	17977.975
1580.88103	16895.775
1584.2136	15117.875
1587.54395	14222.875
1590.87208	14686.375
1594.19801	16536.875
1597.52172	19317.075
1600.84321	21172.275
1604.16251	20654.975
1607.47959	18244.775
1610.79447	15314.375
1614.10715	12849.375
1617.41763	11187.375
1620.7259	10255.275
1624.03199	9838.075
1627.33587	9863.275
1630.63757	10339.875
1633.93707	11383.375
1637.23439	13283.675
1640.52951	16625.675
1643.82246	21474.075
1647.11321	26607.475
1650.40179	29349.875
1653.68819	27419.875
1656.97241	21893.075
1660.25446	16125.075
1663.53433	12194.375
1666.81203	9983.275
1670.08756	8732.375
1673.36092	8078.475
1676.63211	7648.575
1679.90115	7341.775
1683.16801	7149.875
1686.43272	7027.375
1689.69527	6923.275
1692.95567	6845.775
1696.2139	6806.175
1699.46999	6786.275
1702.72392	6746.575
1705.97571	6722.175
1709.22535	6700.775
1712.47284	6672.075
1715.71819	6684.875
1718.96139	6653.675
1722.20246	6630.175
1725.44139	6559.775
1728.67818	6455.475
1731.91284	6389.175
1735.14537	6325.675
1738.37576	6245.975
1741.60403	6231.875
1744.83017	6187.175
1748.05418	6159.275
1751.27607	6095.775
1754.49584	6082.675
1757.71349	6067.775
1760.92903	6049.275
1764.14244	6046.675
1767.35375	6023.275
1770.56294	5993.175
1773.77002	5959.675
1776.97499	5929.075
1780.17785	5872.075
1783.37861	5857.375
1786.57727	5820.975
1789.77382	5791.275
1792.96828	5782.775
1796.16064	5768.275
1799.3509	5762.575
1802.53907	5748.575
1805.72514	5702.575
1808.90913	5687.575
1812.09102	5656.775
1815.27083	5621.975
1818.44856	5595.175
1821.6242	5590.775
1824.79776	5565.675
1827.96924	5543.875
1831.13864	5536.775
1834.30597	5527.175
1837.47122	5491.975
1840.6344	5484.275
1843.7955	5493.875
1846.95454	5480.975
1850.11151	5453.575
1853.26642	5461.575
1856.41926	5447.375
1859.57004	5444.675
1862.71876	5446.975
1865.86542	5437.875
1869.01003	5433.575
1872.15258	5431.075
1875.29308	5439.275
1878.43152	5435.975
1881.56792	5406.275
1884.70227	5421.875
1887.83457	5438.175
1890.96482	5437.175
1894.09304	5447.675
1897.21921	5428.375
1900.34335	5417.075
1903.46544	5428.675
1906.58551	5433.275
1909.70353	5449.175
1912.81953	5436.175
1915.93349	5410.675
1919.04543	5376.175
1922.15534	5331.275
1925.26322	5337.975
1928.36908	5296.075
1931.47292	5271.275
1934.57473	5242.275
1937.67453	5207.275
1940.77232	5184.275
1943.86808	5161.775
1946.96184	5137.975
1950.05358	5126.775
1953.14331	5114.375
1956.23103	5099.175
1959.31675	5073.275
1962.40046	5054.975
1965.48217	5037.675
1968.56188	5042.875
1971.63959	5031.175
1974.7153	5045.075
1977.78901	5006.275
1980.86073	4981.475
1983.93046	4963.175
1986.99819	4913.175
1990.06394	4910.375
1993.1277	4886.075
1996.18947	4856.975
1999.24925	4848.575
2002.30706	4815.175
2005.36288	4804.875
2008.41672	4795.675
2011.46859	4785.975
2014.51848	4760.975
2017.56639	4734.675
2020.61233	4723.175
2023.6563	4719.275
2026.6983	4709.275
2029.73833	4686.675
2032.7764	4680.875
2035.8125	4672.675
2038.84664	4646.675
2041.87881	4656.575
2044.90903	4631.075
2047.93729	4638.575
2050.96359	4633.275
2053.98794	4618.775
2057.01034	4601.475
2060.03078	4603.375
2063.04927	4615.875
2066.06582	4587.475
2069.08042	4591.675
2072.09307	4571.475
2075.10378	4570.675
2078.11255	4582.175
2081.11938	4595.975
2084.12426	4579.175
2087.12722	4589.575
2090.12824	4594.775
2093.12732	4596.875
2096.12447	4603.675
2099.11969	4603.575
2102.11299	4619.275
2105.10435	4619.775
2108.09379	4628.775
2111.08131	4610.675
2114.0669	4612.275
2117.05057	4615.875
2120.03233	4581.375
2123.01216	4563.275
2125.99008	4558.675
2128.96609	4560.775
2131.94018	4535.875
2134.91236	4534.975
2137.88263	4524.575
2140.851	4499.675
2143.81746	4500.475
2146.78201	4500.175
2149.74466	4495.375
2152.7054	4476.575
2155.66425	4466.575
2158.6212	4458.975
2161.57625	4448.075
2164.52941	4429.975
2167.48067	4451.275
2170.43004	4424.875
2173.37752	4422.375
2176.32311	4429.975
2179.26681	4434.575
2182.20863	4422.275
2185.14856	4427.275
2188.08661	4426.775
2191.02278	4434.575
2193.95707	4423.675
2196.88948	4405.875
2199.82001	4408.775
2202.74867	4386.075
2205.67545	4392.775
2208.60037	4380.275
2211.52341	4371.175
2214.44458	4370.075
2217.36388	4334.075
2220.28132	4352.575
2223.1969	4319.075
2226.11061	4319.375
2229.02246	4290.675
2231.93245	4299.475
2234.84058	4305.075
2237.74686	4284.775
2240.65128	4293.475
2243.55385	4277.975
2246.45456	4272.975
2249.35343	4291.575
2252.25044	4267.175
2255.14561	4253.375
2258.03893	4269.675
2260.93041	4255.475
2263.82004	4247.475
2266.70783	4243.475
2269.59378	4234.775
2272.4779	4222.575
2275.36017	4205.075
2278.24061	4201.075
2281.11922	4195.375
2283.996	4165.875
2286.87094	4167.975
2289.74405	4161.675
2292.61534	4126.475
2295.4848	4121.775
2298.35243	4107.175
2301.21824	4109.875
2304.08223	4114.575
2306.94439	4104.775
2309.80474	4100.175
2312.66327	4112.075
2315.51999	4094.275
2318.37489	4104.875
2321.22797	4094.575
2324.07925	4087.375
2326.92871	4090.275
2329.77637	4090.675
2332.62222	4078.575
2335.46626	4093.375
2338.3085	4062.375
2341.14893	4073.175
2343.98756	4092.775
2346.8244	4107.175
2349.65943	4099.675
2352.49267	4108.675
2355.32411	4135.075
2358.15376	4142.175
2360.98161	4159.375
2363.80768	4163.275
2366.63195	4175.975
2369.45444	4171.175
2372.27514	4167.775
2375.09405	4171.675
2377.91118	4162.975
2380.72652	4145.575
2383.54009	4112.975
2386.35187	4075.075
2389.16188	4050.575
2391.97011	4042.075
2394.77657	4025.875
2397.58125	4007.075
2400.38416	3985.975
2403.18529	3976.275
2405.98466	3954.175
2408.78226	3942.575
2411.57809	3956.075
2414.37216	3940.575
2417.16446	3936.575
2419.955	3911.675
2422.74378	3927.975
2425.5308	3920.275
2428.31606	3913.075
2431.09956	3919.875
2433.88131	3922.275
2436.6613	3920.475
2439.43954	3924.375
2442.21603	3929.875
2444.99077	3945.475
2447.76377	3951.375
2450.53501	3949.375
2453.30451	3974.075
2456.07226	3964.175
2458.83827	3955.375
2461.60254	3979.575
2464.36507	3983.975
2467.12586	3969.475
2469.88492	3973.175
2472.64224	3971.575
2475.39782	3975.675
2478.15167	3999.275
2480.90379	4007.975
2483.65417	4023.475
2486.40283	4043.175
2489.14976	4054.575
2491.89497	4056.475
2494.63845	4067.475
2497.3802	4061.375
2500.12024	4051.875
2502.85855	4046.475
2505.59514	4022.375
2508.33002	3992.475
2511.06318	3959.275
2513.79462	3923.375
2516.52435	3900.875
2519.25237	3895.275
2521.97867	3856.175
2524.70327	3843.675
2527.42616	3842.275
2530.14734	3835.575
2532.86681	3816.375
2535.58458	3817.175
2538.30065	3820.475
2541.01501	3826.275
2543.72768	3836.075
2546.43864	3825.775
2549.14791	3825.075
2551.85548	3834.975
2554.56136	3840.975
2557.26554	3831.375
2559.96803	3836.875
2562.66883	3841.075
2565.36794	3831.275
2568.06536	3827.975
2570.7611	3823.175
2573.45514	3815.475
2576.14751	3806.075
2578.83819	3802.575
2581.52719	3808.675
2584.21451	3787.075
2586.90015	3794.575
2589.58411	3798.475
2592.2664	3783.175
2594.94701	3768.675
2597.62594	3776.375
2600.30321	3769.875
2602.9788	3766.275
2605.65273	3760.575
2608.32498	3760.375
2610.99557	3763.175
2613.66449	3766.075
2616.33175	3784.475
2618.99734	3771.375
2621.66128	3762.875
2624.32355	3767.675
2626.98416	3762.375
2629.64311	3755.675
2632.30041	3751.875
2634.95605	3753.575
2637.61004	3728.575
2640.26238	3724.075
2642.91306	3715.475
2645.56209	3707.575
2648.20948	3707.475
2650.85521	3696.175
2653.4993	3707.975
2656.14175	3720.375
2658.78255	3718.175
2661.42171	3726.475
2664.05923	3735.975
2666.6951	3746.675
2669.32934	3775.375
2671.96194	3756.875
2674.59291	3762.175
2677.22224	3754.575
2679.84993	3762.575
2682.476	3757.575
2685.10043	3752.875
2687.72324	3746.275
2690.34441	3717.275
2692.96396	3721.975
2695.58188	3721.675
2698.19818	3697.775
2700.81285	3708.475
2703.4259	3722.675
2706.03733	3730.175
2708.64714	3730.875
2711.25533	3736.775
2713.86191	3742.475
2716.46687	3747.075
2719.07021	3748.075
2721.67194	3754.675
2724.27206	3746.375
2726.87057	3753.775
2729.46747	3749.775
2732.06276	3748.375
2734.65644	3728.175
2737.24852	3724.875
2739.83899	3720.475
2742.42786	3715.875
2745.01513	3698.775
2747.60079	3700.475
2750.18486	3670.375
2752.76733	3698.975
2755.3482	3700.875
2757.92747	3705.875
2760.50515	3685.275
2763.08123	3690.075
2765.65573	3686.275
2768.22863	3688.475
2770.79994	3680.175
2773.36967	3695.575
2775.9378	3695.275
2778.50435	3688.075
2781.06932	3685.875
2783.6327	3686.775
2786.1945	3690.575
2788.75471	3704.975
2791.31335	3692.575
2793.87041	3701.175
2796.42589	3705.575
2798.97979	3710.075
2801.53212	3703.775
2804.08288	3702.875
2806.63206	3706.775
2809.17967	3710.575
2811.72571	3710.975
2814.27018	3720.175
2816.81308	3728.775
2819.35442	3736.875
2821.89419	3740.675
2824.43239	3754.775
2826.96904	3769.375
2829.50412	3771.375
2832.03763	3788.975
2834.56959	3775.075
2837.1	3786.575
2839.62884	3786.675
2842.15613	3806.675
2844.68186	3838.475
2847.20604	3870.675
2849.72867	3899.475
2852.24974	3923.475
2854.76927	3940.475
2857.28724	3965.875
2859.80367	3952.475
2862.31855	3963.875
2864.83189	3971.075
2867.34368	3987.675
2869.85393	3994.075
2872.36264	4009.275
2874.8698	3999.675
2877.37543	4020.775
2879.87952	4017.375
2882.38207	4014.675
2884.88308	4002.275
2887.38256	4003.075
2889.88051	4001.575
2892.37692	4006.875
2894.8718	3996.775
2897.36515	4007.075
2899.85698	3982.475
2902.34727	3996.875
2904.83604	4006.975
2907.32328	4022.275
2909.809	4026.375
2912.29319	4021.675
2914.77587	4032.475
2917.25702	4029.375
2919.73665	4016.275
2922.21476	4021.875
2924.69136	3993.775
2927.16644	3984.275
2929.64	3980.375
2932.11205	3952.975
2934.58258	3931.175
2937.05161	3912.275
2939.51912	3894.775
2941.98513	3862.975
2944.44962	3833.975
2946.91261	3797.775
2949.37409	3795.275
2951.83407	3774.275
2954.29254	3772.775
2956.74951	3744.775
2959.20498	3731.975
2961.65895	3715.475
2964.11142	3704.975
2966.56239	3680.975
2969.01186	3656.575
2971.45984	3633.375
2973.90632	3602.475
2976.35131	3587.275
2978.7948	3579.375
2981.23681	3561.775
2983.67732	3542.375
2986.11635	3531.475
2988.55388	3509.975
2990.98993	3493.475
2993.4245	3494.575
2995.85758	3490.875
2998.28917	3497.275
3000.71928	3480.475
3003.14791	3481.475
3005.57506	3485.675
3008.00073	3476.075
3010.42493	3488.275
3012.84764	3485.175
3015.26888	3468.375
3017.68865	3443.475
3020.10694	3436.375
3022.52376	3416.775
3024.9391	3427.075
3027.35298	3408.275
3029.76539	3404.375
3032.17632	3377.675
3034.5858	3377.275
3036.9938	3378.775
3039.40034	3353.675
3041.80542	3357.975
3044.20903	3335.175
3046.61118	3335.975
3049.01187	3326.475
3051.4111	3320.575
3053.80888	3320.075
3056.20519	3325.875
3058.60005	3309.975
3060.99345	3313.175
3063.3854	3296.975
3065.7759	3300.575
3068.16494	3278.175
3070.55254	3272.775
3072.93868	3264.875
3075.32338	3259.975
3077.70662	3243.475
3080.08842	3235.275
3082.46878	3243.475
3084.84769	3237.775
3087.22515	3227.175
3089.60118	3227.975
3091.97576	3230.175
3094.3489	3225.175
3096.72061	3221.675
3099.09087	3213.775
3101.4597	3215.475
3103.82709	3201.175
3106.19305	3201.775
3108.55757	3190.175
3110.92066	3189.775
3113.28232	3192.775
3115.64255	3185.975
3118.00134	3179.675
3120.35871	3171.875
3122.71466	3174.975
3125.06917	3174.575
3127.42226	3167.175
3129.77393	3175.675
3132.12417	3178.475
3134.47299	3194.475
3136.82039	3200.775
3139.16636	3191.375
3141.51092	3195.475
3143.85406	3194.775
3146.19579	3187.475
3148.53609	3199.775
3150.87499	3194.175
3153.21246	3201.375
3155.54853	3194.475
3157.88318	3203.175
3160.21642	3189.175
3162.54826	3208.375
3164.87868	3193.275
3167.2077	3208.075
3169.5353	3209.575
3171.86151	3202.275
3174.18631	3200.275
3176.5097	3211.875
3178.83169	3209.075
3181.15228	3209.675
3183.47147	3215.475
3185.78926	3201.975
3188.10565	3215.975
3190.42065	3219.975
3192.73424	3214.775
3195.04645	3227.475
3197.35725	3226.175
3199.66667	3240.075
3201.97469	3245.475
