Data from AgNP_FTO_APTES_UA_100uM_CRN_5uM_R6G_10uM_NaF_0.1M_Addition_RamanShift__18__14-59-30-374.txt Node

Date: Thu Mar 24 14:59:30 GMT 2022
User: TCL
Spectrometer: QEP01345
Trigger mode: 4
Integration Time (sec): 7.000000E0
Scans to average: 10
Electric dark correction enabled: true
Nonlinearity correction enabled: false
Boxcar width: 0
XAxis mode: Raman Shifts
Number of Pixels in Spectrum: 1044
>>>>>Begin Spectral Data<<<<<
46.04893	-1.7625
50.45542	0.7375
54.85868	-0.6625
59.25871	1.1375
63.6555	27.8375
68.04907	31.3375
72.43941	29.9375
76.82654	30.3375
81.21044	31.1375
85.59113	34.4375
89.96862	38.0375
94.34289	33.5375
98.71396	39.0375
103.08183	37.9375
107.4465	39.0375
111.80798	40.7375
116.16626	43.8375
120.52136	43.7375
124.87327	40.9375
129.222	47.4375
133.56755	48.8375
137.90993	53.3375
142.24913	60.7375
146.58517	62.0375
150.91804	74.4375
155.24774	86.3375
159.57429	111.0375
163.89768	139.2375
168.21792	185.7375
172.53501	248.3375
176.84895	356.9375
181.15975	504.3375
185.46741	706.7375
189.77193	969.2375
194.07331	1295.6375
198.37157	1678.1375
202.6667	2093.5375
206.9587	2507.9375
211.24758	2939.2375
215.53334	3384.7375
219.81599	3877.5375
224.09553	4465.5375
228.37195	5133.7375
232.64527	5822.3375
236.91549	6511.7375
241.18261	7104.5375
245.44663	7570.1375
249.70755	7897.0375
253.96539	8147.3375
258.22014	8404.6375
262.4718	8655.9375
266.72039	8827.9375
270.96589	8866.3375
275.20832	8773.6375
279.44768	8547.3375
283.68397	8331.6375
287.91719	8180.6375
292.14735	8182.8375
296.37445	8407.8375
300.59849	8812.2375
304.81948	9346.4375
309.03742	9734.9375
313.25231	9828.3375
317.46415	9440.0375
321.67296	8711.9375
325.87872	8048.5375
330.08145	7723.5375
334.28114	7687.4375
338.47781	7804.7375
342.67145	8051.5375
346.86207	8394.9375
351.04966	8892.3375
355.23424	9446.9375
359.4158	9908.9375
363.59435	10111.8375
367.76989	10124.2375
371.94243	10025.7375
376.11196	9916.0375
380.27849	9797.5375
384.44203	9680.5375
388.60257	9549.0375
392.76012	9506.4375
396.91468	9568.5375
401.06626	9797.4375
405.21485	9977.4375
409.36047	9701.5375
413.50311	9117.0375
417.64277	8516.7375
421.77947	8190.5375
425.9132	8013.4375
430.04396	7997.6375
434.17176	8026.9375
438.2966	8130.9375
442.41849	8358.5375
446.53742	8627.6375
450.6534	8916.6375
454.76644	9081.0375
458.87653	9045.0375
462.98368	8909.3375
467.08789	8711.1375
471.18916	8492.6375
475.2875	8261.9375
479.38291	8048.3375
483.4754	7869.7375
487.56496	7771.0375
491.6516	7696.6375
495.73531	7658.2375
499.81612	7717.5375
503.89401	7840.4375
507.96899	7931.0375
512.04106	8052.7375
516.11023	8195.5375
520.1765	8292.4375
524.23987	8303.8375
528.30034	8251.1375
532.35792	8173.7375
536.41261	8023.6375
540.46441	7810.1375
544.51333	7675.1375
548.55936	7676.5375
552.60252	7887.8375
556.64279	8141.8375
560.6802	8298.2375
564.71473	8438.6375
568.7464	8794.5375
572.7752	9001.4375
576.80114	8784.9375
580.82422	8520.3375
584.84444	8568.0375
588.86181	8735.9375
592.87633	8991.4375
596.888	9235.1375
600.89682	9387.5375
604.9028	10412.7375
608.90594	13648.7375
612.90624	18053.7375
616.90371	17362.0375
620.89834	11497.2375
624.89015	8567.7375
628.87913	8053.5375
632.86528	8233.7375
636.84862	8446.8375
640.82913	8283.2375
644.80683	7765.5375
648.78172	7388.0375
652.75379	7356.0375
656.72306	7760.6375
660.68952	8277.8375
664.65319	8129.1375
668.61405	7585.4375
672.57211	7328.9375
676.52738	7329.0375
680.47986	7298.0375
684.42955	7183.2375
688.37646	7073.9375
692.32058	7074.6375
696.26192	7156.3375
700.20048	7273.5375
704.13626	7376.0375
708.06928	7350.5375
711.99952	7275.6375
715.927	7246.4375
719.85171	7315.3375
723.77365	7390.0375
727.69284	7337.9375
731.60928	7268.8375
735.52295	7255.5375
739.43388	7292.8375
743.34206	7331.3375
747.24749	7341.3375
751.15017	7349.1375
755.05012	7460.0375
758.94733	7917.9375
762.8418	9122.8375
766.73354	11269.1375
770.62254	13411.0375
774.50882	14374.0375
778.39237	13686.8375
782.27321	11604.8375
786.15132	9462.9375
790.02671	8145.4375
793.89938	7537.5375
797.76935	7248.0375
801.6366	7138.3375
805.50115	7098.7375
809.36299	7018.0375
813.22213	6968.6375
817.07857	6924.2375
820.93231	6899.7375
824.78336	6908.9375
828.63172	6960.6375
832.47738	6982.8375
836.32036	6931.8375
840.16066	6887.7375
843.99827	6866.0375
847.8332	6846.7375
851.66546	6838.1375
855.49504	6829.5375
859.32195	6835.4375
863.1462	6817.5375
866.96777	6806.0375
870.78668	6813.3375
874.60293	6830.7375
878.41652	6835.3375
882.22745	6931.2375
886.03573	6984.6375
889.84136	6990.2375
893.64433	6933.5375
897.44466	6907.7375
901.24235	6849.1375
905.0374	6805.9375
908.8298	6760.8375
912.61957	6662.9375
916.40671	6681.4375
920.19121	6750.2375
923.97308	6883.4375
927.75233	7031.7375
931.52895	7145.7375
935.30295	7081.8375
939.07433	6804.1375
942.84309	6571.5375
946.60924	6443.8375
950.37278	6387.7375
954.13371	6343.4375
957.89203	6312.0375
961.64774	6296.1375
965.40086	6265.3375
969.15137	6250.9375
972.89929	6210.2375
976.64461	6222.4375
980.38733	6212.9375
984.12747	6227.3375
987.86502	6271.8375
991.59999	6341.9375
995.33237	6455.8375
999.06217	6641.9375
1002.78939	6842.3375
1006.51404	7081.3375
1010.23611	7277.5375
1013.95561	7399.2375
1017.67255	7354.0375
1021.38692	7235.1375
1025.09872	7053.5375
1028.80796	6934.6375
1032.51465	6952.3375
1036.21877	7074.8375
1039.92035	7136.9375
1043.61937	7142.7375
1047.31584	7104.6375
1051.00976	7077.6375
1054.70114	7010.6375
1058.38998	6987.8375
1062.07627	6978.9375
1065.76003	7021.6375
1069.44126	7087.3375
1073.11995	7225.2375
1076.79611	7409.1375
1080.46974	7652.0375
1084.14085	7945.3375
1087.80943	8242.3375
1091.47549	8346.2375
1095.13903	8173.7375
1098.80005	7831.5375
1102.45857	7543.4375
1106.11456	7478.5375
1109.76805	7543.7375
1113.41903	7805.4375
1117.06751	8220.4375
1120.71348	8703.4375
1124.35696	9271.8375
1127.99793	9743.6375
1131.63641	9600.2375
1135.2724	9001.4375
1138.90589	8425.0375
1142.5369	8095.6375
1146.16542	7819.6375
1149.79145	7679.7375
1153.415	7612.6375
1157.03607	7709.1375
1160.65467	7935.8375
1164.27079	8370.2375
1167.88443	9012.8375
1171.49561	10021.7375
1175.10432	11602.1375
1178.71056	13710.8375
1182.31434	15468.1375
1185.91565	15954.0375
1189.51451	15277.1375
1193.11091	14015.4375
1196.70485	12651.3375
1200.29634	11615.4375
1203.88538	10805.0375
1207.47197	9886.2375
1211.05612	9142.8375
1214.63782	8690.5375
1218.21708	8527.2375
1221.79391	8548.0375
1225.36829	8633.6375
1228.94024	8617.9375
1232.50976	8453.7375
1236.07685	8319.7375
1239.6415	8261.2375
1243.20374	8264.7375
1246.76355	8327.6375
1250.32093	8443.3375
1253.8759	8643.3375
1257.42845	8998.4375
1260.97859	9425.6375
1264.52631	9934.6375
1268.07163	10465.7375
1271.61453	10918.5375
1275.15503	11248.2375
1278.69312	11454.5375
1282.22882	11639.1375
1285.76211	12032.2375
1289.29301	12581.3375
1292.82151	13149.8375
1296.34761	13833.6375
1299.87133	14842.5375
1303.39266	16549.8375
1306.9116	19099.9375
1310.42815	21811.4375
1313.94233	23010.0375
1317.45412	21879.7375
1320.96354	19603.5375
1324.47058	17364.4375
1327.97525	15581.3375
1331.47754	14384.8375
1334.97747	13817.9375
1338.47502	13726.2375
1341.97022	14093.7375
1345.46305	14961.1375
1348.95352	16418.4375
1352.44163	18278.7375
1355.92738	20922.6375
1359.41078	24878.2375
1362.89183	28423.4375
1366.37053	27219.6375
1369.84688	21818.3375
1373.32088	16923.6375
1376.79254	14125.3375
1380.26186	12727.4375
1383.72883	11847.2375
1387.19347	11133.1375
1390.65578	10517.8375
1394.11575	10094.4375
1397.57339	9928.7375
1401.0287	9910.9375
1404.48168	9943.2375
1407.93234	9936.9375
1411.38068	9903.8375
1414.82669	9920.1375
1418.27039	9884.9375
1421.71177	9760.2375
1425.15083	9528.4375
1428.58758	9439.0375
1432.02203	9611.6375
1435.45416	9891.4375
1438.88399	10022.9375
1442.31151	10035.8375
1445.73673	10077.2375
1449.15965	10168.8375
1452.58027	10120.2375
1455.9986	10051.4375
1459.41463	10035.1375
1462.82837	10251.5375
1466.23982	10610.7375
1469.64898	10979.3375
1473.05586	11248.1375
1476.46045	11410.5375
1479.86276	11613.7375
1483.26279	11872.1375
1486.66054	12277.9375
1490.05602	12875.2375
1493.44922	13795.5375
1496.84016	15220.3375
1500.22882	17433.4375
1503.61521	20585.6375
1506.99934	24116.7375
1510.38121	26746.9375
1513.76081	26868.6375
1517.13816	24130.7375
1520.51324	19903.0375
1523.88607	16350.4375
1527.25665	14077.4375
1530.62498	12890.7375
1533.99105	12153.9375
1537.35488	11669.1375
1540.71647	11267.3375
1544.07581	11031.8375
1547.4329	10919.6375
1550.78776	10862.8375
1554.14038	10906.2375
1557.49077	11036.1375
1560.83892	11353.7375
1564.18484	11866.1375
1567.52853	12594.6375
1570.86999	13196.0375
1574.20922	13517.9375
1577.54624	13381.7375
1580.88103	12376.7375
1584.2136	11092.9375
1587.54395	10380.3375
1590.87208	10445.1375
1594.19801	11228.4375
1597.52172	12354.6375
1600.84321	12884.1375
1604.16251	12376.4375
1607.47959	11435.1375
1610.79447	10477.1375
1614.10715	9555.2375
1617.41763	8727.9375
1620.7259	8214.9375
1624.03199	7961.4375
1627.33587	7986.7375
1630.63757	8258.8375
1633.93707	8899.4375
1637.23439	10030.8375
1640.52951	11852.1375
1643.82246	14549.4375
1647.11321	17563.6375
1650.40179	19394.9375
1653.68819	18448.7375
1656.97241	15164.8375
1660.25446	11739.3375
1663.53433	9396.7375
1666.81203	8043.6375
1670.08756	7291.9375
1673.36092	6851.9375
1676.63211	6558.7375
1679.90115	6372.5375
1683.16801	6232.2375
1686.43272	6102.2375
1689.69527	6034.7375
1692.95567	5977.0375
1696.2139	5954.1375
1699.46999	5926.7375
1702.72392	5899.5375
1705.97571	5892.3375
1709.22535	5857.2375
1712.47284	5840.2375
1715.71819	5839.9375
1718.96139	5829.9375
1722.20246	5786.3375
1725.44139	5753.9375
1728.67818	5683.8375
1731.91284	5628.1375
1735.14537	5548.8375
1738.37576	5530.6375
1741.60403	5509.0375
1744.83017	5476.1375
1748.05418	5462.6375
1751.27607	5446.4375
1754.49584	5424.1375
1757.71349	5416.2375
1760.92903	5406.5375
1764.14244	5386.1375
1767.35375	5381.3375
1770.56294	5345.7375
1773.77002	5318.7375
1776.97499	5288.1375
1780.17785	5269.4375
1783.37861	5235.5375
1786.57727	5232.6375
1789.77382	5223.3375
1792.96828	5194.7375
1796.16064	5183.6375
1799.3509	5171.3375
1802.53907	5157.9375
1805.72514	5120.3375
1808.90913	5119.8375
1812.09102	5098.6375
1815.27083	5086.4375
1818.44856	5048.6375
1821.6242	5048.8375
1824.79776	5027.9375
1827.96924	5027.4375
1831.13864	5026.3375
1834.30597	5030.5375
1837.47122	5000.9375
1840.6344	4994.4375
1843.7955	4998.3375
1846.95454	4990.5375
1850.11151	4982.5375
1853.26642	4982.7375
1856.41926	4963.6375
1859.57004	4954.4375
1862.71876	4970.5375
1865.86542	4944.8375
1869.01003	4950.0375
1872.15258	4944.6375
1875.29308	4941.6375
1878.43152	4940.9375
1881.56792	4941.0375
1884.70227	4947.1375
1887.83457	4936.9375
1890.96482	4937.8375
1894.09304	4906.7375
1897.21921	4917.7375
1900.34335	4915.6375
1903.46544	4919.2375
1906.58551	4918.2375
1909.70353	4910.4375
1912.81953	4899.9375
1915.93349	4895.9375
1919.04543	4894.6375
1922.15534	4886.9375
1925.26322	4846.9375
1928.36908	4829.0375
1931.47292	4815.3375
1934.57473	4791.4375
1937.67453	4783.2375
1940.77232	4773.4375
1943.86808	4744.9375
1946.96184	4733.5375
1950.05358	4713.5375
1953.14331	4710.1375
1956.23103	4686.6375
1959.31675	4696.0375
1962.40046	4675.6375
1965.48217	4671.5375
1968.56188	4662.7375
1971.63959	4654.9375
1974.7153	4640.4375
1977.78901	4620.4375
1980.86073	4606.0375
1983.93046	4600.3375
1986.99819	4567.0375
1990.06394	4520.9375
1993.1277	4517.5375
1996.18947	4498.7375
1999.24925	4483.0375
2002.30706	4471.9375
2005.36288	4451.5375
2008.41672	4440.2375
2011.46859	4428.0375
2014.51848	4437.3375
2017.56639	4399.6375
2020.61233	4387.6375
2023.6563	4369.6375
2026.6983	4366.9375
2029.73833	4354.8375
2032.7764	4354.6375
2035.8125	4342.8375
2038.84664	4337.2375
2041.87881	4323.5375
2044.90903	4314.1375
2047.93729	4320.6375
2050.96359	4315.9375
2053.98794	4304.9375
2057.01034	4282.3375
2060.03078	4293.6375
2063.04927	4271.3375
2066.06582	4273.5375
2069.08042	4259.2375
2072.09307	4256.5375
2075.10378	4257.9375
2078.11255	4251.0375
2081.11938	4272.9375
2084.12426	4253.9375
2087.12722	4259.1375
2090.12824	4259.9375
2093.12732	4255.0375
2096.12447	4258.8375
2099.11969	4257.0375
2102.11299	4256.3375
2105.10435	4264.0375
2108.09379	4257.3375
2111.08131	4256.6375
2114.0669	4254.7375
2117.05057	4264.1375
2120.03233	4270.7375
2123.01216	4298.4375
2125.99008	4283.2375
2128.96609	4291.0375
2131.94018	4291.1375
2134.91236	4299.2375
2137.88263	4276.3375
2140.851	4277.9375
2143.81746	4287.9375
2146.78201	4277.2375
2149.74466	4270.3375
2152.7054	4261.3375
2155.66425	4267.6375
2158.6212	4270.5375
2161.57625	4272.8375
2164.52941	4250.7375
2167.48067	4244.3375
2170.43004	4252.2375
2173.37752	4244.9375
2176.32311	4243.4375
2179.26681	4248.8375
2182.20863	4245.4375
2185.14856	4242.9375
2188.08661	4243.8375
2191.02278	4232.1375
2193.95707	4211.9375
2196.88948	4245.9375
2199.82001	4229.8375
2202.74867	4225.1375
2205.67545	4226.0375
2208.60037	4215.5375
2211.52341	4204.4375
2214.44458	4214.7375
2217.36388	4204.6375
2220.28132	4197.4375
2223.1969	4177.2375
2226.11061	4183.6375
2229.02246	4177.2375
2231.93245	4158.5375
2234.84058	4145.2375
2237.74686	4145.9375
2240.65128	4139.7375
2243.55385	4140.3375
2246.45456	4133.3375
2249.35343	4123.0375
2252.25044	4133.3375
2255.14561	4111.7375
2258.03893	4127.3375
2260.93041	4142.5375
2263.82004	4122.8375
2266.70783	4111.9375
2269.59378	4108.5375
2272.4779	4106.8375
2275.36017	4106.0375
2278.24061	4075.8375
2281.11922	4076.6375
2283.996	4071.7375
2286.87094	4052.9375
2289.74405	4045.2375
2292.61534	4035.9375
2295.4848	4013.0375
2298.35243	4008.7375
2301.21824	4016.0375
2304.08223	4016.8375
2306.94439	4000.0375
2309.80474	4011.1375
2312.66327	4012.6375
2315.51999	4007.7375
2318.37489	4012.6375
2321.22797	4007.9375
2324.07925	3996.0375
2326.92871	3997.0375
2329.77637	4019.6375
2332.62222	4007.8375
2335.46626	3990.7375
2338.3085	3990.3375
2341.14893	3997.5375
2343.98756	4006.6375
2346.8244	4016.1375
2349.65943	4018.8375
2352.49267	4027.9375
2355.32411	4025.5375
2358.15376	4039.9375
2360.98161	4059.9375
2363.80768	4050.0375
2366.63195	4071.8375
2369.45444	4064.9375
2372.27514	4072.1375
2375.09405	4067.7375
2377.91118	4046.7375
2380.72652	4017.6375
2383.54009	4010.8375
2386.35187	3990.9375
2389.16188	3957.6375
2391.97011	3952.0375
2394.77657	3939.1375
2397.58125	3914.9375
2400.38416	3918.5375
2403.18529	3902.0375
2405.98466	3897.3375
2408.78226	3889.3375
2411.57809	3881.9375
2414.37216	3866.0375
2417.16446	3874.2375
2419.955	3867.0375
2422.74378	3852.5375
2425.5308	3858.1375
2428.31606	3843.7375
2431.09956	3863.1375
2433.88131	3865.5375
2436.6613	3856.6375
2439.43954	3863.5375
2442.21603	3862.9375
2444.99077	3866.2375
2447.76377	3874.4375
2450.53501	3889.1375
2453.30451	3886.2375
2456.07226	3882.5375
2458.83827	3884.4375
2461.60254	3880.7375
2464.36507	3881.7375
2467.12586	3881.5375
2469.88492	3894.9375
2472.64224	3910.1375
2475.39782	3907.4375
2478.15167	3904.9375
2480.90379	3919.0375
2483.65417	3925.7375
2486.40283	3940.2375
2489.14976	3964.8375
2491.89497	3968.1375
2494.63845	3941.8375
2497.3802	3948.8375
2500.12024	3933.5375
2502.85855	3943.9375
2505.59514	3913.7375
2508.33002	3886.8375
2511.06318	3879.6375
2513.79462	3858.8375
2516.52435	3851.1375
2519.25237	3828.2375
2521.97867	3822.7375
2524.70327	3809.9375
2527.42616	3811.5375
2530.14734	3805.6375
2532.86681	3790.8375
2535.58458	3777.9375
2538.30065	3803.3375
2541.01501	3790.6375
2543.72768	3795.8375
2546.43864	3785.6375
2549.14791	3785.5375
2551.85548	3778.5375
2554.56136	3787.5375
2557.26554	3795.1375
2559.96803	3794.8375
2562.66883	3789.5375
2565.36794	3778.2375
2568.06536	3785.2375
2570.7611	3775.1375
2573.45514	3778.5375
2576.14751	3771.9375
2578.83819	3755.1375
2581.52719	3747.8375
2584.21451	3746.5375
2586.90015	3744.1375
2589.58411	3731.4375
2592.2664	3738.8375
2594.94701	3715.1375
2597.62594	3725.2375
2600.30321	3710.2375
2602.9788	3711.1375
2605.65273	3719.1375
2608.32498	3713.1375
2610.99557	3718.0375
2613.66449	3717.6375
2616.33175	3726.1375
2618.99734	3723.2375
2621.66128	3719.1375
2624.32355	3725.7375
2626.98416	3710.5375
2629.64311	3699.7375
2632.30041	3701.0375
2634.95605	3695.4375
2637.61004	3686.4375
2640.26238	3681.2375
2642.91306	3680.1375
2645.56209	3676.6375
2648.20948	3686.3375
2650.85521	3677.2375
2653.4993	3680.3375
2656.14175	3677.2375
2658.78255	3690.5375
2661.42171	3677.5375
2664.05923	3687.1375
2666.6951	3704.2375
2669.32934	3700.3375
2671.96194	3693.6375
2674.59291	3680.2375
2677.22224	3704.8375
2679.84993	3699.1375
2682.476	3684.4375
2685.10043	3698.0375
2687.72324	3680.1375
2690.34441	3688.9375
2692.96396	3670.5375
2695.58188	3696.7375
2698.19818	3693.4375
2700.81285	3682.8375
2703.4259	3686.7375
2706.03733	3685.5375
2708.64714	3686.9375
2711.25533	3687.4375
2713.86191	3697.6375
2716.46687	3706.9375
2719.07021	3688.2375
2721.67194	3708.4375
2724.27206	3697.7375
2726.87057	3702.6375
2729.46747	3691.8375
2732.06276	3700.3375
2734.65644	3682.0375
2737.24852	3669.7375
2739.83899	3659.1375
2742.42786	3672.8375
2745.01513	3653.6375
2747.60079	3648.3375
2750.18486	3651.1375
2752.76733	3644.4375
2755.3482	3661.2375
2757.92747	3645.2375
2760.50515	3636.9375
2763.08123	3626.3375
2765.65573	3642.8375
2768.22863	3634.1375
2770.79994	3617.0375
2773.36967	3626.5375
2775.9378	3621.9375
2778.50435	3609.4375
2781.06932	3618.3375
2783.6327	3622.2375
2786.1945	3610.7375
2788.75471	3615.4375
2791.31335	3597.1375
2793.87041	3601.7375
2796.42589	3590.4375
2798.97979	3611.5375
2801.53212	3614.4375
2804.08288	3616.6375
2806.63206	3605.3375
2809.17967	3606.6375
2811.72571	3598.2375
2814.27018	3611.2375
2816.81308	3605.1375
2819.35442	3630.2375
2821.89419	3619.0375
2824.43239	3633.9375
2826.96904	3629.6375
2829.50412	3627.7375
2832.03763	3616.2375
2834.56959	3617.1375
2837.1	3614.7375
2839.62884	3609.6375
2842.15613	3609.0375
2844.68186	3608.0375
2847.20604	3613.9375
2849.72867	3622.4375
2852.24974	3620.3375
2854.76927	3633.3375
2857.28724	3622.1375
2859.80367	3633.2375
2862.31855	3628.4375
2864.83189	3641.5375
2867.34368	3651.2375
2869.85393	3659.3375
2872.36264	3658.6375
2874.8698	3645.3375
2877.37543	3655.3375
2879.87952	3662.9375
2882.38207	3655.0375
2884.88308	3654.0375
2887.38256	3654.8375
2889.88051	3637.3375
2892.37692	3624.6375
2894.8718	3641.7375
2897.36515	3636.9375
2899.85698	3642.2375
2902.34727	3645.2375
2904.83604	3651.9375
2907.32328	3648.8375
2909.809	3646.8375
2912.29319	3641.0375
2914.77587	3655.4375
2917.25702	3650.9375
2919.73665	3624.6375
2922.21476	3630.9375
2924.69136	3629.8375
2927.16644	3609.5375
2929.64	3610.8375
2932.11205	3603.9375
2934.58258	3593.9375
2937.05161	3600.0375
2939.51912	3579.7375
2941.98513	3580.5375
2944.44962	3582.8375
2946.91261	3567.1375
2949.37409	3568.4375
2951.83407	3565.1375
2954.29254	3566.8375
2956.74951	3560.2375
2959.20498	3570.3375
2961.65895	3548.2375
2964.11142	3543.8375
2966.56239	3532.0375
2969.01186	3526.4375
2971.45984	3532.6375
2973.90632	3513.7375
2976.35131	3499.3375
2978.7948	3506.2375
2981.23681	3485.0375
2983.67732	3485.5375
2986.11635	3472.6375
2988.55388	3470.3375
2990.98993	3467.7375
2993.4245	3441.6375
2995.85758	3458.4375
2998.28917	3452.1375
3000.71928	3454.7375
3003.14791	3441.8375
3005.57506	3443.4375
3008.00073	3446.2375
3010.42493	3455.6375
3012.84764	3434.5375
3015.26888	3433.2375
3017.68865	3426.0375
3020.10694	3425.4375
3022.52376	3415.4375
3024.9391	3405.6375
3027.35298	3395.1375
3029.76539	3402.0375
3032.17632	3381.0375
3034.5858	3376.3375
3036.9938	3375.4375
3039.40034	3363.5375
3041.80542	3358.6375
3044.20903	3354.8375
3046.61118	3353.5375
3049.01187	3332.6375
3051.4111	3334.0375
3053.80888	3342.0375
3056.20519	3326.2375
3058.60005	3320.4375
3060.99345	3325.0375
3063.3854	3314.8375
3065.7759	3312.5375
3068.16494	3313.2375
3070.55254	3306.3375
3072.93868	3292.1375
3075.32338	3280.1375
3077.70662	3285.8375
3080.08842	3275.7375
3082.46878	3271.7375
3084.84769	3261.1375
3087.22515	3267.3375
3089.60118	3264.3375
3091.97576	3279.8375
3094.3489	3264.0375
3096.72061	3253.0375
3099.09087	3273.0375
3101.4597	3271.5375
3103.82709	3279.2375
3106.19305	3258.2375
3108.55757	3265.4375
3110.92066	3259.8375
