Data from AgNP_FTO_APTES_UA_100uM_CRN_2uM_R6G_10uM_NaF_0.1M_Addition_RamanShift__18__14-05-50-312.txt Node

Date: Thu Mar 24 14:05:50 GMT 2022
User: TCL
Spectrometer: QEP01345
Trigger mode: 4
Integration Time (sec): 7.000000E0
Scans to average: 10
Electric dark correction enabled: true
Nonlinearity correction enabled: false
Boxcar width: 0
XAxis mode: Raman Shifts
Number of Pixels in Spectrum: 1044
>>>>>Begin Spectral Data<<<<<
46.04893	-2.3125
50.45542	-0.1125
54.85868	-0.0125
59.25871	-0.8125
63.6555	42.3875
68.04907	47.0875
72.43941	43.0875
76.82654	45.6875
81.21044	51.6875
85.59113	51.8875
89.96862	55.4875
94.34289	56.1875
98.71396	56.7875
103.08183	54.4875
107.4465	59.0875
111.80798	58.8875
116.16626	62.0875
120.52136	60.4875
124.87327	65.0875
129.222	70.1875
133.56755	74.6875
137.90993	76.2875
142.24913	85.6875
146.58517	91.4875
150.91804	106.7875
155.24774	128.5875
159.57429	166.4875
163.89768	210.0875
168.21792	281.1875
172.53501	384.5875
176.84895	542.8875
181.15975	753.9875
185.46741	1056.3875
189.77193	1465.4875
194.07331	1943.7875
198.37157	2541.5875
202.6667	3143.8875
206.9587	3757.3875
211.24758	4376.5875
215.53334	5028.0875
219.81599	5725.2875
224.09553	6530.6875
228.37195	7421.6875
232.64527	8413.4875
236.91549	9403.0875
241.18261	10329.2875
245.44663	11092.5875
249.70755	11707.2875
253.96539	12207.7875
258.22014	12664.7875
262.4718	13079.8875
266.72039	13339.8875
270.96589	13491.9875
275.20832	13387.1875
279.44768	13206.0875
283.68397	12937.0875
287.91719	12797.2875
292.14735	12792.7875
296.37445	13004.9875
300.59849	13373.0875
304.81948	13869.7875
309.03742	14229.7875
313.25231	14241.7875
317.46415	13812.2875
321.67296	13012.2875
325.87872	12272.7875
330.08145	11903.7875
334.28114	11860.2875
338.47781	12026.1875
342.67145	12353.0875
346.86207	12715.0875
351.04966	13301.7875
355.23424	13930.3875
359.4158	14414.4875
363.59435	14734.1875
367.76989	14804.7875
371.94243	14804.6875
376.11196	14753.8875
380.27849	14724.4875
384.44203	14603.2875
388.60257	14518.7875
392.76012	14473.4875
396.91468	14560.2875
401.06626	14827.5875
405.21485	15081.4875
409.36047	14827.0875
413.50311	14177.4875
417.64277	13553.6875
421.77947	13153.5875
425.9132	13014.9875
430.04396	12999.4875
434.17176	13068.6875
438.2966	13213.7875
442.41849	13486.0875
446.53742	13875.8875
450.6534	14234.6875
454.76644	14485.1875
458.87653	14534.8875
462.98368	14404.3875
467.08789	14150.1875
471.18916	13897.7875
475.2875	13590.7875
479.38291	13338.2875
483.4754	13112.7875
487.56496	12956.7875
491.6516	12840.2875
495.73531	12825.4875
499.81612	12850.3875
503.89401	12987.6875
507.96899	13120.8875
512.04106	13256.6875
516.11023	13382.2875
520.1765	13473.2875
524.23987	13476.7875
528.30034	13368.5875
532.35792	13279.5875
536.41261	13056.6875
540.46441	12835.5875
544.51333	12703.3875
548.55936	12783.0875
552.60252	13074.8875
556.64279	13425.0875
560.6802	13611.1875
564.71473	13708.5875
568.7464	14054.6875
572.7752	14333.8875
576.80114	14138.4875
580.82422	13947.0875
584.84444	14027.9875
588.86181	14179.8875
592.87633	14425.9875
596.888	14624.6875
600.89682	14787.6875
604.9028	16083.5875
608.90594	19844.5875
612.90624	24606.3875
616.90371	23652.5875
620.89834	17097.4875
624.89015	13835.3875
628.87913	13286.2875
632.86528	13427.7875
636.84862	13684.1875
640.82913	13462.4875
644.80683	12852.8875
648.78172	12410.8875
652.75379	12342.2875
656.72306	12808.7875
660.68952	13372.0875
664.65319	13255.2875
668.61405	12695.9875
672.57211	12458.6875
676.52738	12485.4875
680.47986	12424.2875
684.42955	12266.6875
688.37646	12170.6875
692.32058	12185.9875
696.26192	12304.2875
700.20048	12493.5875
704.13626	12610.7875
708.06928	12585.9875
711.99952	12457.5875
715.927	12417.2875
719.85171	12478.8875
723.77365	12543.1875
727.69284	12470.0875
731.60928	12373.5875
735.52295	12329.5875
739.43388	12339.9875
743.34206	12419.6875
747.24749	12459.7875
751.15017	12468.4875
755.05012	12636.5875
758.94733	13202.0875
762.8418	14600.7875
766.73354	17026.1875
770.62254	19601.9875
774.50882	20760.0875
778.39237	19775.2875
782.27321	17278.1875
786.15132	14845.8875
790.02671	13337.4875
793.89938	12609.5875
797.76935	12314.5875
801.6366	12167.2875
805.50115	12119.7875
809.36299	12030.6875
813.22213	11974.0875
817.07857	11920.6875
820.93231	11890.2875
824.78336	11881.3875
828.63172	11921.1875
832.47738	11906.8875
836.32036	11911.9875
840.16066	11834.9875
843.99827	11838.6875
847.8332	11808.7875
851.66546	11797.8875
855.49504	11786.9875
859.32195	11845.9875
863.1462	11809.3875
866.96777	11767.0875
870.78668	11760.1875
874.60293	11772.4875
878.41652	11820.5875
882.22745	11899.0875
886.03573	11959.0875
889.84136	11934.6875
893.64433	11881.2875
897.44466	11840.1875
901.24235	11800.3875
905.0374	11697.2875
908.8298	11635.8875
912.61957	11569.3875
916.40671	11614.8875
920.19121	11746.6875
923.97308	11846.9875
927.75233	11966.7875
931.52895	12076.9875
935.30295	11960.4875
939.07433	11639.0875
942.84309	11386.9875
946.60924	11242.8875
950.37278	11153.2875
954.13371	11093.3875
957.89203	11109.1875
961.64774	11023.0875
965.40086	10995.9875
969.15137	10956.7875
972.89929	10945.4875
976.64461	10938.6875
980.38733	10943.2875
984.12747	10932.0875
987.86502	11022.5875
991.59999	11134.5875
995.33237	11294.3875
999.06217	11548.6875
1002.78939	11870.8875
1006.51404	12142.6875
1010.23611	12381.1875
1013.95561	12516.1875
1017.67255	12531.6875
1021.38692	12382.6875
1025.09872	12156.3875
1028.80796	12044.8875
1032.51465	12126.3875
1036.21877	12292.4875
1039.92035	12391.9875
1043.61937	12394.1875
1047.31584	12331.6875
1051.00976	12203.7875
1054.70114	12131.3875
1058.38998	12112.8875
1062.07627	12157.5875
1065.76003	12224.7875
1069.44126	12319.8875
1073.11995	12477.9875
1076.79611	12702.6875
1080.46974	12956.2875
1084.14085	13261.8875
1087.80943	13586.6875
1091.47549	13712.7875
1095.13903	13555.3875
1098.80005	13139.3875
1102.45857	12820.8875
1106.11456	12703.2875
1109.76805	12795.3875
1113.41903	13098.5875
1117.06751	13505.7875
1120.71348	14077.2875
1124.35696	14631.6875
1127.99793	15094.5875
1131.63641	15044.0875
1135.2724	14440.8875
1138.90589	13832.2875
1142.5369	13456.4875
1146.16542	13174.6875
1149.79145	12987.7875
1153.415	12956.8875
1157.03607	13032.4875
1160.65467	13359.1875
1164.27079	13893.6875
1167.88443	14734.2875
1171.49561	15931.6875
1175.10432	17801.1875
1178.71056	20252.4875
1182.31434	22447.5875
1185.91565	23164.3875
1189.51451	22593.8875
1193.11091	21228.8875
1196.70485	19637.9875
1200.29634	18351.5875
1203.88538	17325.9875
1207.47197	16275.9875
1211.05612	15333.0875
1214.63782	14762.3875
1218.21708	14549.3875
1221.79391	14527.1875
1225.36829	14573.3875
1228.94024	14555.0875
1232.50976	14395.5875
1236.07685	14131.9875
1239.6415	14055.7875
1243.20374	14085.0875
1246.76355	14190.4875
1250.32093	14385.0875
1253.8759	14686.6875
1257.42845	15097.3875
1260.97859	15643.5875
1264.52631	16208.4875
1268.07163	16839.4875
1271.61453	17386.4875
1275.15503	17867.7875
1278.69312	18220.4875
1282.22882	18515.3875
1285.76211	18926.2875
1289.29301	19525.6875
1292.82151	20239.3875
1296.34761	21089.0875
1299.87133	22359.8875
1303.39266	24358.6875
1306.9116	27221.0875
1310.42815	30147.3875
1313.94233	31538.5875
1317.45412	30559.9875
1320.96354	28354.6875
1324.47058	26033.1875
1327.97525	24140.9875
1331.47754	22856.9875
1334.97747	22285.7875
1338.47502	22278.4875
1341.97022	22709.5875
1345.46305	23652.1875
1348.95352	25005.9875
1352.44163	26885.9875
1355.92738	29607.3875
1359.41078	33773.3875
1362.89183	37561.1875
1366.37053	36401.1875
1369.84688	30638.1875
1373.32088	24989.5875
1376.79254	21595.9875
1380.26186	19854.9875
1383.72883	18928.0875
1387.19347	18253.7875
1390.65578	17593.1875
1394.11575	17081.5875
1397.57339	16844.6875
1401.0287	16841.1875
1404.48168	16874.8875
1407.93234	16897.2875
1411.38068	16876.4875
1414.82669	16787.0875
1418.27039	16652.5875
1421.71177	16285.7875
1425.15083	15868.9875
1428.58758	15670.5875
1432.02203	15819.9875
1435.45416	16127.7875
1438.88399	16369.8875
1442.31151	16463.7875
1445.73673	16593.5875
1449.15965	16730.2875
1452.58027	16726.3875
1455.9986	16649.6875
1459.41463	16717.2875
1462.82837	16947.2875
1466.23982	17413.5875
1469.64898	17942.6875
1473.05586	18263.7875
1476.46045	18475.3875
1479.86276	18640.1875
1483.26279	18913.7875
1486.66054	19235.2875
1490.05602	19837.1875
1493.44922	20777.4875
1496.84016	22295.7875
1500.22882	24691.3875
1503.61521	28063.4875
1506.99934	31837.1875
1510.38121	34663.5875
1513.76081	34774.0875
1517.13816	31950.2875
1520.51324	27673.6875
1523.88607	23971.1875
1527.25665	21616.7875
1530.62498	20343.6875
1533.99105	19619.3875
1537.35488	19056.8875
1540.71647	18682.0875
1544.07581	18337.9875
1547.4329	18099.6875
1550.78776	17914.1875
1554.14038	17905.1875
1557.49077	18021.8875
1560.83892	18313.8875
1564.18484	18842.8875
1567.52853	19540.5875
1570.86999	20116.0875
1574.20922	20478.1875
1577.54624	20337.7875
1580.88103	19274.3875
1584.2136	17930.4875
1587.54395	17208.7875
1590.87208	17408.7875
1594.19801	18423.0875
1597.52172	19847.5875
1600.84321	20564.5875
1604.16251	19966.1875
1607.47959	18745.6875
1610.79447	17433.5875
1614.10715	16110.7875
1617.41763	14930.8875
1620.7259	14083.5875
1624.03199	13676.6875
1627.33587	13637.8875
1630.63757	13940.5875
1633.93707	14700.6875
1637.23439	16052.2875
1640.52951	18171.6875
1643.82246	21204.6875
1647.11321	24480.4875
1650.40179	26425.8875
1653.68819	25308.9875
1656.97241	21592.2875
1660.25446	17725.1875
1663.53433	14931.8875
1666.81203	13304.9875
1670.08756	12312.9875
1673.36092	11745.4875
1676.63211	11357.0875
1679.90115	11092.8875
1683.16801	10892.0875
1686.43272	10749.8875
1689.69527	10645.3875
1692.95567	10552.6875
1696.2139	10492.3875
1699.46999	10440.9875
1702.72392	10417.4875
1705.97571	10396.2875
1709.22535	10356.8875
1712.47284	10330.7875
1715.71819	10326.6875
1718.96139	10292.4875
1722.20246	10267.3875
1725.44139	10198.7875
1728.67818	10104.4875
1731.91284	10013.2875
1735.14537	9946.8875
1738.37576	9907.8875
1741.60403	9854.2875
1744.83017	9791.0875
1748.05418	9789.8875
1751.27607	9770.0875
1754.49584	9748.0875
1757.71349	9734.5875
1760.92903	9688.7875
1764.14244	9686.3875
1767.35375	9690.0875
1770.56294	9657.0875
1773.77002	9612.6875
1776.97499	9594.8875
1780.17785	9565.6875
1783.37861	9548.6875
1786.57727	9531.2875
1789.77382	9492.7875
1792.96828	9506.6875
1796.16064	9462.5875
1799.3509	9454.2875
1802.53907	9417.5875
1805.72514	9383.5875
1808.90913	9380.4875
1812.09102	9357.2875
1815.27083	9315.3875
1818.44856	9310.8875
1821.6242	9303.6875
1824.79776	9268.7875
1827.96924	9257.7875
1831.13864	9224.7875
1834.30597	9222.1875
1837.47122	9204.5875
1840.6344	9182.6875
1843.7955	9178.9875
1846.95454	9155.5875
1850.11151	9149.0875
1853.26642	9142.5875
1856.41926	9132.5875
1859.57004	9125.5875
1862.71876	9108.9875
1865.86542	9105.5875
1869.01003	9088.5875
1872.15258	9087.8875
1875.29308	9085.1875
1878.43152	9066.6875
1881.56792	9092.6875
1884.70227	9080.0875
1887.83457	9065.2875
1890.96482	9058.9875
1894.09304	9055.2875
1897.21921	9050.3875
1900.34335	9042.6875
1903.46544	9032.1875
1906.58551	9034.4875
1909.70353	9009.5875
1912.81953	9006.4875
1915.93349	9003.2875
1919.04543	8981.3875
1922.15534	8980.4875
1925.26322	8950.1875
1928.36908	8916.5875
1931.47292	8903.4875
1934.57473	8848.2875
1937.67453	8851.1875
1940.77232	8842.8875
1943.86808	8813.1875
1946.96184	8804.7875
1950.05358	8779.5875
1953.14331	8743.5875
1956.23103	8738.6875
1959.31675	8729.9875
1962.40046	8701.2875
1965.48217	8680.0875
1968.56188	8684.8875
1971.63959	8667.7875
1974.7153	8644.1875
1977.78901	8584.2875
1980.86073	8581.8875
1983.93046	8563.7875
1986.99819	8510.2875
1990.06394	8482.9875
1993.1277	8454.2875
1996.18947	8401.6875
1999.24925	8372.7875
2002.30706	8345.1875
2005.36288	8334.3875
2008.41672	8298.6875
2011.46859	8274.6875
2014.51848	8258.9875
2017.56639	8242.8875
2020.61233	8210.1875
2023.6563	8182.1875
2026.6983	8183.1875
2029.73833	8134.2875
2032.7764	8135.5875
2035.8125	8135.4875
2038.84664	8088.9875
2041.87881	8095.5875
2044.90903	8078.4875
2047.93729	8074.0875
2050.96359	8047.3875
2053.98794	8025.5875
2057.01034	8000.6875
2060.03078	8006.4875
2063.04927	7976.0875
2066.06582	7976.7875
2069.08042	8004.0875
2072.09307	7959.9875
2075.10378	7965.6875
2078.11255	7961.2875
2081.11938	7961.1875
2084.12426	7952.1875
2087.12722	7950.5875
2090.12824	7960.0875
2093.12732	7978.9875
2096.12447	7960.7875
2099.11969	7978.0875
2102.11299	7967.5875
2105.10435	7948.3875
2108.09379	7967.3875
2111.08131	7963.9875
2114.0669	7985.8875
2117.05057	7993.3875
2120.03233	7973.7875
2123.01216	8007.4875
2125.99008	7996.9875
2128.96609	8027.7875
2131.94018	8026.3875
2134.91236	8022.9875
2137.88263	8024.4875
2140.851	8022.1875
2143.81746	8031.7875
2146.78201	8025.0875
2149.74466	8007.2875
2152.7054	8015.1875
2155.66425	8021.6875
2158.6212	8003.3875
2161.57625	8016.2875
2164.52941	7997.7875
2167.48067	7985.1875
2170.43004	7981.4875
2173.37752	8010.8875
2176.32311	7969.0875
2179.26681	7994.5875
2182.20863	7969.2875
2185.14856	7985.2875
2188.08661	7958.6875
2191.02278	7953.2875
2193.95707	7974.8875
2196.88948	7960.3875
2199.82001	7959.4875
2202.74867	7942.3875
2205.67545	7946.5875
2208.60037	7925.5875
2211.52341	7895.3875
2214.44458	7916.7875
2217.36388	7900.9875
2220.28132	7901.9875
2223.1969	7884.5875
2226.11061	7876.2875
2229.02246	7853.3875
2231.93245	7815.8875
2234.84058	7810.2875
2237.74686	7787.2875
2240.65128	7791.4875
2243.55385	7772.1875
2246.45456	7778.0875
2249.35343	7772.3875
2252.25044	7773.8875
2255.14561	7745.1875
2258.03893	7747.4875
2260.93041	7757.6875
2263.82004	7722.6875
2266.70783	7717.7875
2269.59378	7692.8875
2272.4779	7694.7875
2275.36017	7657.5875
2278.24061	7660.5875
2281.11922	7643.7875
2283.996	7651.3875
2286.87094	7623.0875
2289.74405	7604.3875
2292.61534	7604.7875
2295.4848	7582.8875
2298.35243	7572.3875
2301.21824	7591.2875
2304.08223	7558.0875
2306.94439	7556.0875
2309.80474	7567.8875
2312.66327	7573.1875
2315.51999	7543.4875
2318.37489	7555.1875
2321.22797	7534.8875
2324.07925	7533.6875
2326.92871	7514.7875
2329.77637	7527.3875
2332.62222	7515.6875
2335.46626	7524.4875
2338.3085	7523.9875
2341.14893	7537.9875
2343.98756	7530.0875
2346.8244	7525.6875
2349.65943	7540.0875
2352.49267	7520.0875
2355.32411	7530.8875
2358.15376	7537.7875
2360.98161	7550.1875
2363.80768	7551.6875
2366.63195	7561.5875
2369.45444	7563.8875
2372.27514	7562.9875
2375.09405	7530.4875
2377.91118	7492.8875
2380.72652	7497.5875
2383.54009	7458.8875
2386.35187	7444.7875
2389.16188	7421.8875
2391.97011	7403.4875
2394.77657	7412.3875
2397.58125	7380.5875
2400.38416	7363.1875
2403.18529	7337.6875
2405.98466	7324.2875
2408.78226	7306.4875
2411.57809	7285.3875
2414.37216	7267.1875
2417.16446	7270.5875
2419.955	7262.1875
2422.74378	7249.4875
2425.5308	7242.3875
2428.31606	7270.9875
2431.09956	7256.8875
2433.88131	7238.9875
2436.6613	7233.6875
2439.43954	7247.8875
2442.21603	7246.9875
2444.99077	7254.5875
2447.76377	7247.3875
2450.53501	7264.6875
2453.30451	7263.5875
2456.07226	7240.8875
2458.83827	7260.5875
2461.60254	7257.8875
2464.36507	7246.3875
2467.12586	7252.9875
2469.88492	7254.5875
2472.64224	7251.9875
2475.39782	7246.6875
2478.15167	7260.8875
2480.90379	7274.6875
2483.65417	7270.6875
2486.40283	7303.3875
2489.14976	7319.0875
2491.89497	7322.0875
2494.63845	7323.6875
2497.3802	7322.5875
2500.12024	7321.8875
2502.85855	7301.1875
2505.59514	7301.3875
2508.33002	7262.6875
2511.06318	7238.4875
2513.79462	7210.2875
2516.52435	7190.2875
2519.25237	7182.9875
2521.97867	7175.1875
2524.70327	7158.2875
2527.42616	7149.1875
2530.14734	7143.5875
2532.86681	7116.2875
2535.58458	7129.2875
2538.30065	7104.5875
2541.01501	7123.7875
2543.72768	7112.2875
2546.43864	7097.1875
2549.14791	7084.9875
2551.85548	7092.7875
2554.56136	7103.9875
2557.26554	7072.2875
2559.96803	7074.7875
2562.66883	7094.8875
2565.36794	7064.2875
2568.06536	7087.3875
2570.7611	7064.0875
2573.45514	7051.1875
2576.14751	7045.6875
2578.83819	7035.8875
2581.52719	7023.5875
2584.21451	6998.7875
2586.90015	7017.2875
2589.58411	6981.3875
2592.2664	6973.4875
2594.94701	7003.5875
2597.62594	6977.8875
2600.30321	6964.6875
2602.9788	6964.2875
2605.65273	6963.4875
2608.32498	6956.5875
2610.99557	6958.2875
2613.66449	6953.9875
2616.33175	6956.0875
2618.99734	6971.4875
2621.66128	6945.7875
2624.32355	6940.0875
2626.98416	6949.3875
2629.64311	6932.4875
2632.30041	6931.5875
2634.95605	6922.2875
2637.61004	6918.3875
2640.26238	6905.2875
2642.91306	6889.8875
2645.56209	6885.2875
2648.20948	6885.1875
2650.85521	6895.0875
2653.4993	6880.4875
2656.14175	6884.1875
2658.78255	6894.6875
2661.42171	6899.4875
2664.05923	6895.9875
2666.6951	6891.5875
2669.32934	6901.6875
2671.96194	6912.7875
2674.59291	6906.3875
2677.22224	6900.9875
2679.84993	6913.1875
2682.476	6906.2875
2685.10043	6910.2875
2687.72324	6899.0875
2690.34441	6904.3875
2692.96396	6913.0875
2695.58188	6907.9875
2698.19818	6897.0875
2700.81285	6895.5875
2703.4259	6904.9875
2706.03733	6876.8875
2708.64714	6912.6875
2711.25533	6915.4875
2713.86191	6886.5875
2716.46687	6922.5875
2719.07021	6905.2875
2721.67194	6918.7875
2724.27206	6912.2875
2726.87057	6913.3875
2729.46747	6903.1875
2732.06276	6903.3875
2734.65644	6885.3875
2737.24852	6905.5875
2739.83899	6879.4875
2742.42786	6883.4875
2745.01513	6851.6875
2747.60079	6856.2875
2750.18486	6842.0875
2752.76733	6859.6875
2755.3482	6861.9875
2757.92747	6846.4875
2760.50515	6842.5875
2763.08123	6835.9875
2765.65573	6822.3875
2768.22863	6832.4875
2770.79994	6830.2875
2773.36967	6848.5875
2775.9378	6827.0875
2778.50435	6812.9875
2781.06932	6804.5875
2783.6327	6812.1875
2786.1945	6797.1875
2788.75471	6790.3875
2791.31335	6764.0875
2793.87041	6772.1875
2796.42589	6760.7875
2798.97979	6759.5875
2801.53212	6726.4875
2804.08288	6756.6875
2806.63206	6747.1875
2809.17967	6752.8875
2811.72571	6740.2875
2814.27018	6746.2875
2816.81308	6744.4875
2819.35442	6748.7875
2821.89419	6745.9875
2824.43239	6727.0875
2826.96904	6736.5875
2829.50412	6736.0875
2832.03763	6706.3875
2834.56959	6725.9875
2837.1	6707.8875
2839.62884	6707.7875
2842.15613	6690.9875
2844.68186	6707.8875
2847.20604	6704.7875
2849.72867	6710.6875
2852.24974	6706.1875
2854.76927	6682.0875
2857.28724	6694.3875
2859.80367	6698.1875
2862.31855	6673.7875
2864.83189	6697.2875
2867.34368	6704.8875
2869.85393	6741.7875
2872.36264	6726.3875
2874.8698	6725.2875
2877.37543	6733.5875
2879.87952	6738.2875
2882.38207	6746.2875
2884.88308	6734.5875
2887.38256	6726.3875
2889.88051	6713.0875
2892.37692	6706.8875
2894.8718	6703.7875
2897.36515	6695.2875
2899.85698	6719.0875
2902.34727	6735.3875
2904.83604	6700.8875
2907.32328	6730.7875
2909.809	6738.3875
2912.29319	6731.8875
2914.77587	6720.0875
2917.25702	6727.2875
2919.73665	6716.5875
2922.21476	6703.0875
2924.69136	6699.2875
2927.16644	6695.8875
2929.64	6662.9875
2932.11205	6664.8875
2934.58258	6668.9875
2937.05161	6667.0875
2939.51912	6661.0875
2941.98513	6638.1875
2944.44962	6626.3875
2946.91261	6615.5875
2949.37409	6614.1875
2951.83407	6625.7875
2954.29254	6593.4875
2956.74951	6602.7875
2959.20498	6608.8875
2961.65895	6589.0875
2964.11142	6577.0875
2966.56239	6562.0875
2969.01186	6566.4875
2971.45984	6543.3875
2973.90632	6531.7875
2976.35131	6523.1875
2978.7948	6510.4875
2981.23681	6503.9875
2983.67732	6476.6875
2986.11635	6471.9875
2988.55388	6464.8875
2990.98993	6463.2875
2993.4245	6435.8875
2995.85758	6450.2875
2998.28917	6425.0875
3000.71928	6427.7875
3003.14791	6409.6875
3005.57506	6409.1875
3008.00073	6388.8875
3010.42493	6418.8875
3012.84764	6409.3875
3015.26888	6394.0875
3017.68865	6379.3875
3020.10694	6350.4875
3022.52376	6339.8875
3024.9391	6331.1875
3027.35298	6308.8875
3029.76539	6316.2875
3032.17632	6307.7875
3034.5858	6300.2875
3036.9938	6301.9875
3039.40034	6277.6875
3041.80542	6261.2875
3044.20903	6240.0875
3046.61118	6254.2875
3049.01187	6246.2875
3051.4111	6211.8875
3053.80888	6200.3875
3056.20519	6197.7875
3058.60005	6181.8875
3060.99345	6201.5875
3063.3854	6173.9875
3065.7759	6144.5875
3068.16494	6155.2875
3070.55254	6124.6875
3072.93868	6119.6875
3075.32338	6101.9875
3077.70662	6100.7875
