Data from AgNP_FTO_APTES_UA_100uM_CRN_20uM_R6G_10uM_NaF_0.1M_Addition_RamanShift__22__16-51-30-501.txt Node

Date: Thu Mar 24 16:51:30 GMT 2022
User: TCL
Spectrometer: QEP01345
Trigger mode: 4
Integration Time (sec): 7.000000E0
Scans to average: 10
Electric dark correction enabled: true
Nonlinearity correction enabled: false
Boxcar width: 0
XAxis mode: Raman Shifts
Number of Pixels in Spectrum: 1044
>>>>>Begin Spectral Data<<<<<
46.04893	-1.525
50.45542	-0.525
54.85868	-0.725
59.25871	-0.925
63.6555	42.975
68.04907	46.875
72.43941	48.275
76.82654	46.475
81.21044	52.175
85.59113	49.275
89.96862	54.675
94.34289	53.675
98.71396	55.875
103.08183	58.375
107.4465	60.775
111.80798	61.875
116.16626	59.175
120.52136	65.275
124.87327	65.675
129.222	70.875
133.56755	77.075
137.90993	79.275
142.24913	95.575
146.58517	99.175
150.91804	124.775
155.24774	148.175
159.57429	186.475
163.89768	243.775
168.21792	328.175
172.53501	450.875
176.84895	632.775
181.15975	891.175
185.46741	1250.975
189.77193	1730.075
194.07331	2328.775
198.37157	3010.075
202.6667	3740.475
206.9587	4436.975
211.24758	5182.875
215.53334	5962.275
219.81599	6836.275
224.09553	7816.575
228.37195	8901.175
232.64527	10091.275
236.91549	11279.475
241.18261	12367.175
245.44663	13228.775
249.70755	13895.675
253.96539	14453.175
258.22014	14953.775
262.4718	15387.175
266.72039	15712.575
270.96589	15857.975
275.20832	15731.575
279.44768	15504.775
283.68397	15218.275
287.91719	15051.575
292.14735	15047.175
296.37445	15369.375
300.59849	15905.075
304.81948	16583.375
309.03742	17056.075
313.25231	17065.775
317.46415	16466.675
321.67296	15471.775
325.87872	14533.975
330.08145	14065.575
334.28114	13985.975
338.47781	14212.075
342.67145	14512.375
346.86207	15000.575
351.04966	15730.975
355.23424	16476.975
359.4158	17079.775
363.59435	17361.775
367.76989	17445.775
371.94243	17385.075
376.11196	17278.475
380.27849	17202.875
384.44203	17039.275
388.60257	16913.775
392.76012	16855.275
396.91468	16993.575
401.06626	17346.575
405.21485	17562.375
409.36047	17225.275
413.50311	16391.675
417.64277	15568.975
421.77947	15112.575
425.9132	15013.475
430.04396	15014.475
434.17176	15113.775
438.2966	15311.775
442.41849	15702.675
446.53742	16254.475
450.6534	16793.975
454.76644	17064.675
458.87653	17048.075
462.98368	16799.775
467.08789	16502.575
471.18916	16115.275
475.2875	15737.575
479.38291	15443.375
483.4754	15166.275
487.56496	14918.275
491.6516	14734.875
495.73531	14609.175
499.81612	14613.975
503.89401	14747.475
507.96899	14874.775
512.04106	14992.275
516.11023	15129.175
520.1765	15230.475
524.23987	15256.475
528.30034	15134.975
532.35792	14986.175
536.41261	14764.275
540.46441	14433.975
544.51333	14304.075
548.55936	14499.575
552.60252	14894.375
556.64279	15343.875
560.6802	15613.375
564.71473	15786.475
568.7464	16291.975
572.7752	16705.975
576.80114	16525.075
580.82422	16228.675
584.84444	16254.375
588.86181	16572.675
592.87633	17025.075
596.888	17279.275
600.89682	17373.175
604.9028	18842.475
608.90594	23533.275
612.90624	29511.475
616.90371	27810.575
620.89834	19575.575
624.89015	15629.675
628.87913	14990.375
632.86528	15226.375
636.84862	15543.675
640.82913	15232.575
644.80683	14399.475
648.78172	13800.375
652.75379	13775.175
656.72306	14351.075
660.68952	15028.475
664.65319	14805.875
668.61405	14010.575
672.57211	13693.475
676.52738	13700.975
680.47986	13705.075
684.42955	13502.775
688.37646	13391.875
692.32058	13463.275
696.26192	13598.675
700.20048	13788.475
704.13626	13979.775
708.06928	13915.575
711.99952	13771.975
715.927	13773.275
719.85171	13867.775
723.77365	13919.175
727.69284	13824.475
731.60928	13713.575
735.52295	13711.275
739.43388	13752.875
743.34206	13794.675
747.24749	13813.775
751.15017	13905.675
755.05012	14161.875
758.94733	14909.375
762.8418	16790.975
766.73354	19920.075
770.62254	22988.975
774.50882	24172.475
778.39237	22743.775
782.27321	19573.975
786.15132	16588.675
790.02671	14828.775
793.89938	13990.375
797.76935	13605.375
801.6366	13461.375
805.50115	13407.675
809.36299	13264.075
813.22213	13216.775
817.07857	13179.375
820.93231	13140.075
824.78336	13097.775
828.63172	13143.575
832.47738	13181.875
836.32036	13117.275
840.16066	13092.675
843.99827	13037.075
847.8332	13027.275
851.66546	13005.375
855.49504	13001.075
859.32195	12997.475
863.1462	12978.275
866.96777	12928.075
870.78668	12875.175
874.60293	12947.375
878.41652	12992.575
882.22745	13104.075
886.03573	13186.975
889.84136	13188.575
893.64433	13093.375
897.44466	13028.075
901.24235	12977.075
905.0374	12884.375
908.8298	12820.575
912.61957	12774.975
916.40671	12821.575
920.19121	12950.675
923.97308	13149.675
927.75233	13285.975
931.52895	13365.275
935.30295	13175.375
939.07433	12781.775
942.84309	12479.075
946.60924	12291.575
950.37278	12204.775
954.13371	12167.275
957.89203	12118.675
961.64774	12104.075
965.40086	12074.475
969.15137	12025.375
972.89929	11962.275
976.64461	11979.275
980.38733	11925.675
984.12747	12003.975
987.86502	12098.375
991.59999	12237.475
995.33237	12412.375
999.06217	12746.975
1002.78939	13166.775
1006.51404	13561.475
1010.23611	13841.275
1013.95561	14006.975
1017.67255	13983.875
1021.38692	13740.575
1025.09872	13452.275
1028.80796	13317.675
1032.51465	13415.275
1036.21877	13634.475
1039.92035	13758.775
1043.61937	13731.675
1047.31584	13654.275
1051.00976	13515.175
1054.70114	13383.775
1058.38998	13387.575
1062.07627	13445.975
1065.76003	13530.975
1069.44126	13632.375
1073.11995	13823.975
1076.79611	14104.875
1080.46974	14401.675
1084.14085	14814.075
1087.80943	15246.175
1091.47549	15376.175
1095.13903	15153.875
1098.80005	14656.375
1102.45857	14269.775
1106.11456	14124.575
1109.76805	14209.575
1113.41903	14621.775
1117.06751	15184.675
1120.71348	15921.975
1124.35696	16695.575
1127.99793	17218.675
1131.63641	17003.075
1135.2724	16212.375
1138.90589	15502.175
1142.5369	15055.375
1146.16542	14810.675
1149.79145	14572.975
1153.415	14589.875
1157.03607	14753.775
1160.65467	15187.175
1164.27079	15938.875
1167.88443	17009.775
1171.49561	18679.675
1175.10432	21063.475
1178.71056	24326.575
1182.31434	27076.675
1185.91565	27878.975
1189.51451	26995.375
1193.11091	25272.575
1196.70485	23286.875
1200.29634	21625.475
1203.88538	20350.575
1207.47197	18994.175
1211.05612	17831.875
1214.63782	17097.975
1218.21708	16808.675
1221.79391	16856.475
1225.36829	16889.675
1228.94024	16750.675
1232.50976	16419.775
1236.07685	16114.075
1239.6415	16026.075
1243.20374	16052.675
1246.76355	16149.975
1250.32093	16401.775
1253.8759	16740.075
1257.42845	17284.875
1260.97859	17966.575
1264.52631	18634.275
1268.07163	19407.175
1271.61453	20104.475
1275.15503	20655.075
1278.69312	21051.575
1282.22882	21459.975
1285.76211	22146.875
1289.29301	23004.975
1292.82151	24068.575
1296.34761	25311.175
1299.87133	27171.175
1303.39266	29856.275
1306.9116	33551.375
1310.42815	37337.675
1313.94233	38959.475
1317.45412	37565.375
1320.96354	34721.675
1324.47058	31828.875
1327.97525	29362.375
1331.47754	27738.375
1334.97747	27052.675
1338.47502	27033.475
1341.97022	27600.675
1345.46305	28746.475
1348.95352	30456.075
1352.44163	32759.075
1355.92738	36329.675
1359.41078	41606.975
1362.89183	46235.675
1366.37053	44291.375
1369.84688	36699.975
1373.32088	29703.775
1376.79254	25680.675
1380.26186	23706.075
1383.72883	22614.275
1387.19347	21809.275
1390.65578	21064.175
1394.11575	20610.675
1397.57339	20450.875
1401.0287	20532.575
1404.48168	20691.575
1407.93234	20665.975
1411.38068	20501.275
1414.82669	20247.575
1418.27039	19827.175
1421.71177	19204.975
1425.15083	18572.575
1428.58758	18312.675
1432.02203	18520.575
1435.45416	18988.175
1438.88399	19298.775
1442.31151	19432.875
1445.73673	19649.675
1449.15965	19769.875
1452.58027	19785.275
1455.9986	19709.475
1459.41463	19812.675
1462.82837	20125.675
1466.23982	20753.775
1469.64898	21358.175
1473.05586	21781.275
1476.46045	22052.475
1479.86276	22229.275
1483.26279	22488.875
1486.66054	22966.075
1490.05602	23733.175
1493.44922	24982.075
1496.84016	26896.375
1500.22882	29908.375
1503.61521	34140.775
1506.99934	38781.775
1510.38121	41997.575
1513.76081	41734.675
1517.13816	37893.875
1520.51324	32521.575
1523.88607	28089.675
1527.25665	25482.775
1530.62498	24184.075
1533.99105	23406.275
1537.35488	22833.275
1540.71647	22289.175
1544.07581	21766.575
1547.4329	21299.075
1550.78776	20977.475
1554.14038	20853.275
1557.49077	21021.075
1560.83892	21389.175
1564.18484	22063.575
1567.52853	22943.675
1570.86999	23623.975
1574.20922	24066.875
1577.54624	23871.175
1580.88103	22636.375
1584.2136	21082.875
1587.54395	20364.875
1590.87208	20776.775
1594.19801	22208.275
1597.52172	24075.975
1600.84321	24849.575
1604.16251	23952.975
1607.47959	22253.175
1610.79447	20373.075
1614.10715	18607.675
1617.41763	17103.375
1620.7259	16100.375
1624.03199	15558.675
1627.33587	15587.075
1630.63757	16081.575
1633.93707	17152.375
1637.23439	19071.175
1640.52951	22051.875
1643.82246	26145.775
1647.11321	30302.375
1650.40179	32350.175
1653.68819	30448.575
1656.97241	25473.475
1660.25446	20432.075
1663.53433	17011.175
1666.81203	14972.875
1670.08756	13825.175
1673.36092	13063.575
1676.63211	12573.975
1679.90115	12259.075
1683.16801	12002.075
1686.43272	11872.175
1689.69527	11700.275
1692.95567	11581.875
1696.2139	11516.075
1699.46999	11452.175
1702.72392	11421.475
1705.97571	11391.175
1709.22535	11362.975
1712.47284	11343.775
1715.71819	11328.775
1718.96139	11293.675
1722.20246	11235.375
1725.44139	11167.175
1728.67818	11053.875
1731.91284	10957.875
1735.14537	10880.175
1738.37576	10802.675
1741.60403	10747.275
1744.83017	10731.075
1748.05418	10708.475
1751.27607	10647.575
1754.49584	10611.775
1757.71349	10624.675
1760.92903	10587.075
1764.14244	10570.675
1767.35375	10568.575
1770.56294	10491.775
1773.77002	10452.975
1776.97499	10428.775
1780.17785	10404.975
1783.37861	10357.975
1786.57727	10338.075
1789.77382	10308.475
1792.96828	10316.175
1796.16064	10283.075
1799.3509	10251.675
1802.53907	10232.875
1805.72514	10194.075
1808.90913	10139.675
1812.09102	10117.875
1815.27083	10090.775
1818.44856	10084.775
1821.6242	10067.175
1824.79776	10028.775
1827.96924	10020.475
1831.13864	10002.075
1834.30597	9973.175
1837.47122	9975.775
1840.6344	9945.775
1843.7955	9926.875
1846.95454	9904.275
1850.11151	9897.575
1853.26642	9902.975
1856.41926	9901.975
1859.57004	9907.475
1862.71876	9887.375
1865.86542	9891.675
1869.01003	9877.775
1872.15258	9863.775
1875.29308	9846.475
1878.43152	9858.475
1881.56792	9879.475
1884.70227	9887.875
1887.83457	9853.075
1890.96482	9847.075
1894.09304	9827.275
1897.21921	9816.675
1900.34335	9806.175
1903.46544	9815.475
1906.58551	9809.075
1909.70353	9801.875
1912.81953	9767.575
1915.93349	9757.175
1919.04543	9738.175
1922.15534	9721.875
1925.26322	9702.375
1928.36908	9666.375
1931.47292	9641.575
1934.57473	9598.875
1937.67453	9605.175
1940.77232	9576.675
1943.86808	9536.775
1946.96184	9513.575
1950.05358	9464.175
1953.14331	9430.075
1956.23103	9432.175
1959.31675	9404.875
1962.40046	9366.075
1965.48217	9372.675
1968.56188	9336.575
1971.63959	9336.175
1974.7153	9312.075
1977.78901	9286.875
1980.86073	9227.475
1983.93046	9214.375
1986.99819	9162.675
1990.06394	9142.975
1993.1277	9089.775
1996.18947	9080.575
1999.24925	9041.175
2002.30706	8992.275
2005.36288	8982.475
2008.41672	8935.075
2011.46859	8898.475
2014.51848	8884.175
2017.56639	8862.175
2020.61233	8846.675
2023.6563	8820.475
2026.6983	8802.275
2029.73833	8775.075
2032.7764	8740.675
2035.8125	8732.575
2038.84664	8719.375
2041.87881	8717.075
2044.90903	8675.675
2047.93729	8669.475
2050.96359	8665.775
2053.98794	8645.675
2057.01034	8632.475
2060.03078	8615.275
2063.04927	8603.675
2066.06582	8589.875
2069.08042	8588.775
2072.09307	8585.875
2075.10378	8575.775
2078.11255	8572.575
2081.11938	8591.275
2084.12426	8564.975
2087.12722	8562.175
2090.12824	8576.375
2093.12732	8563.375
2096.12447	8559.775
2099.11969	8573.175
2102.11299	8568.275
2105.10435	8577.175
2108.09379	8586.775
2111.08131	8595.475
2114.0669	8598.475
2117.05057	8603.875
2120.03233	8618.375
2123.01216	8620.075
2125.99008	8630.875
2128.96609	8622.675
2131.94018	8637.875
2134.91236	8631.675
2137.88263	8646.175
2140.851	8636.475
2143.81746	8647.675
2146.78201	8632.775
2149.74466	8613.075
2152.7054	8594.475
2155.66425	8607.675
2158.6212	8599.775
2161.57625	8587.375
2164.52941	8577.875
2167.48067	8585.975
2170.43004	8561.375
2173.37752	8563.475
2176.32311	8586.475
2179.26681	8582.675
2182.20863	8577.975
2185.14856	8580.575
2188.08661	8585.675
2191.02278	8564.975
2193.95707	8581.075
2196.88948	8566.175
2199.82001	8576.275
2202.74867	8566.475
2205.67545	8578.075
2208.60037	8537.775
2211.52341	8543.575
2214.44458	8536.675
2217.36388	8504.675
2220.28132	8504.975
2223.1969	8485.175
2226.11061	8465.175
2229.02246	8448.775
2231.93245	8429.875
2234.84058	8409.775
2237.74686	8402.475
2240.65128	8416.175
2243.55385	8378.175
2246.45456	8365.575
2249.35343	8364.875
2252.25044	8369.275
2255.14561	8366.275
2258.03893	8365.575
2260.93041	8356.275
2263.82004	8328.375
2266.70783	8311.275
2269.59378	8282.875
2272.4779	8283.875
2275.36017	8276.675
2278.24061	8272.075
2281.11922	8244.775
2283.996	8204.175
2286.87094	8213.875
2289.74405	8192.975
2292.61534	8175.275
2295.4848	8142.975
2298.35243	8149.975
2301.21824	8138.875
2304.08223	8135.875
2306.94439	8159.475
2309.80474	8157.175
2312.66327	8142.175
2315.51999	8142.375
2318.37489	8144.275
2321.22797	8141.075
2324.07925	8121.275
2326.92871	8121.975
2329.77637	8120.975
2332.62222	8119.975
2335.46626	8086.775
2338.3085	8076.675
2341.14893	8101.875
2343.98756	8121.075
2346.8244	8118.775
2349.65943	8133.675
2352.49267	8144.075
2355.32411	8160.575
2358.15376	8140.175
2360.98161	8171.475
2363.80768	8170.675
2366.63195	8177.875
2369.45444	8168.275
2372.27514	8168.575
2375.09405	8131.575
2377.91118	8136.175
2380.72652	8078.175
2383.54009	8068.075
2386.35187	8056.075
2389.16188	8015.875
2391.97011	7995.875
2394.77657	7973.275
2397.58125	7929.675
2400.38416	7918.475
2403.18529	7921.975
2405.98466	7904.475
2408.78226	7875.475
2411.57809	7873.775
2414.37216	7864.975
2417.16446	7860.175
2419.955	7844.275
2422.74378	7855.475
2425.5308	7843.775
2428.31606	7843.175
2431.09956	7832.275
2433.88131	7836.375
2436.6613	7843.575
2439.43954	7834.775
2442.21603	7805.075
2444.99077	7812.775
2447.76377	7837.975
2450.53501	7867.575
2453.30451	7851.975
2456.07226	7831.875
2458.83827	7835.475
2461.60254	7849.075
2464.36507	7855.875
2467.12586	7827.775
2469.88492	7838.575
2472.64224	7825.675
2475.39782	7867.775
2478.15167	7890.375
2480.90379	7896.675
2483.65417	7903.975
2486.40283	7952.175
2489.14976	7949.875
2491.89497	7946.275
2494.63845	7959.775
2497.3802	7933.675
2500.12024	7932.775
2502.85855	7931.075
2505.59514	7907.975
2508.33002	7871.075
2511.06318	7853.675
2513.79462	7819.575
2516.52435	7794.275
2519.25237	7776.675
2521.97867	7763.275
2524.70327	7760.675
2527.42616	7763.975
2530.14734	7741.775
2532.86681	7734.375
2535.58458	7726.375
2538.30065	7693.575
2541.01501	7715.675
2543.72768	7735.175
2546.43864	7727.975
2549.14791	7737.075
2551.85548	7717.275
2554.56136	7707.075
2557.26554	7670.775
2559.96803	7666.975
2562.66883	7681.175
2565.36794	7689.675
2568.06536	7656.775
2570.7611	7651.675
2573.45514	7639.775
2576.14751	7644.675
2578.83819	7642.075
2581.52719	7615.375
2584.21451	7595.975
2586.90015	7624.375
2589.58411	7610.475
2592.2664	7608.475
2594.94701	7591.175
2597.62594	7611.675
2600.30321	7593.075
2602.9788	7615.175
2605.65273	7587.075
2608.32498	7587.375
2610.99557	7565.975
2613.66449	7598.175
2616.33175	7593.675
2618.99734	7607.975
2621.66128	7579.175
2624.32355	7576.875
2626.98416	7586.975
2629.64311	7587.275
2632.30041	7556.675
2634.95605	7573.375
2637.61004	7577.975
2640.26238	7548.075
2642.91306	7551.475
2645.56209	7540.175
2648.20948	7521.775
2650.85521	7539.375
2653.4993	7530.075
2656.14175	7551.575
2658.78255	7546.975
2661.42171	7536.275
2664.05923	7568.975
2666.6951	7567.275
2669.32934	7598.375
2671.96194	7577.975
2674.59291	7603.875
2677.22224	7586.675
2679.84993	7578.875
2682.476	7557.075
2685.10043	7555.675
2687.72324	7557.575
2690.34441	7546.475
2692.96396	7555.675
2695.58188	7555.075
2698.19818	7545.975
2700.81285	7548.775
2703.4259	7546.075
2706.03733	7548.075
2708.64714	7541.275
2711.25533	7544.275
2713.86191	7550.175
2716.46687	7589.875
2719.07021	7570.475
2721.67194	7603.875
2724.27206	7572.675
2726.87057	7577.475
2729.46747	7573.775
2732.06276	7586.575
2734.65644	7576.775
2737.24852	7570.875
2739.83899	7527.075
2742.42786	7540.675
2745.01513	7523.675
2747.60079	7536.375
2750.18486	7510.375
2752.76733	7514.275
2755.3482	7508.175
2757.92747	7501.575
2760.50515	7485.575
2763.08123	7506.075
2765.65573	7493.875
2768.22863	7499.175
2770.79994	7476.975
2773.36967	7472.975
2775.9378	7495.575
2778.50435	7496.375
2781.06932	7469.775
2783.6327	7493.175
2786.1945	7487.575
2788.75471	7490.175
2791.31335	7469.175
2793.87041	7471.975
2796.42589	7455.875
2798.97979	7461.675
2801.53212	7425.575
2804.08288	7440.375
2806.63206	7426.875
2809.17967	7404.875
2811.72571	7414.975
2814.27018	7415.475
2816.81308	7417.575
2819.35442	7413.175
2821.89419	7422.375
2824.43239	7431.275
2826.96904	7419.675
2829.50412	7411.975
2832.03763	7390.075
2834.56959	7395.375
2837.1	7386.775
2839.62884	7398.075
2842.15613	7404.275
2844.68186	7399.375
2847.20604	7407.575
2849.72867	7415.875
2852.24974	7435.575
2854.76927	7432.875
2857.28724	7404.475
2859.80367	7438.475
2862.31855	7403.375
2864.83189	7417.275
2867.34368	7425.475
2869.85393	7428.275
2872.36264	7438.375
2874.8698	7433.175
2877.37543	7443.575
2879.87952	7419.275
2882.38207	7410.975
2884.88308	7422.475
2887.38256	7414.675
2889.88051	7410.375
2892.37692	7414.875
2894.8718	7409.175
2897.36515	7432.275
2899.85698	7426.775
2902.34727	7425.775
2904.83604	7427.575
2907.32328	7450.375
2909.809	7454.375
2912.29319	7458.475
2914.77587	7457.675
2917.25702	7460.475
2919.73665	7412.675
2922.21476	7415.775
2924.69136	7408.275
2927.16644	7416.575
2929.64	7395.575
2932.11205	7374.175
2934.58258	7357.875
2937.05161	7361.475
2939.51912	7355.275
2941.98513	7336.575
2944.44962	7321.375
2946.91261	7283.575
2949.37409	7328.275
2951.83407	7300.075
2954.29254	7312.475
2956.74951	7320.075
2959.20498	7325.775
2961.65895	7306.975
2964.11142	7292.475
2966.56239	7275.575
2969.01186	7251.975
2971.45984	7252.575
2973.90632	7261.275
2976.35131	7211.575
2978.7948	7205.075
2981.23681	7171.275
2983.67732	7178.575
2986.11635	7155.275
2988.55388	7129.275
2990.98993	7121.375
2993.4245	7117.175
2995.85758	7094.675
2998.28917	7101.575
3000.71928	7090.875
3003.14791	7084.875
3005.57506	7079.175
3008.00073	7057.675
3010.42493	7056.775
3012.84764	7053.675
3015.26888	7067.975
3017.68865	7019.875
3020.10694	7037.375
3022.52376	7020.975
3024.9391	6982.775
3027.35298	6978.575
3029.76539	6966.575
3032.17632	6948.975
3034.5858	6948.875
3036.9938	6950.775
3039.40034	6924.975
3041.80542	6932.575
3044.20903	6919.275
3046.61118	6925.175
3049.01187	6882.875
3051.4111	6892.075
3053.80888	6850.175
3056.20519	6843.375
3058.60005	6845.075
3060.99345	6846.075
3063.3854	6793.575
3065.7759	6799.075
3068.16494	6781.175
3070.55254	6767.575
3072.93868	6744.775
3075.32338	6741.975
3077.70662	6717.375
3080.08842	6692.075
3082.46878	6728.175
3084.84769	6707.075
3087.22515	6718.275
3089.60118	6709.375
3091.97576	6705.475
3094.3489	6687.475
3096.72061	6686.675
3099.09087	6687.675
3101.4597	6699.575
3103.82709	6681.975
3106.19305	6691.275
3108.55757	6681.175
3110.92066	6672.075
3113.28232	6675.675
3115.64255	6659.775
3118.00134	6617.275
3120.35871	6624.175
3122.71466	6612.075
3125.06917	6579.275
3127.42226	6592.875
3129.77393	6582.575
3132.12417	6584.275
3134.47299	6588.675
3136.82039	6574.775
3139.16636	6593.875
3141.51092	6573.175
3143.85406	6576.775
3146.19579	6588.375
3148.53609	6593.775
3150.87499	6593.175
3153.21246	6599.275
3155.54853	6610.175
3157.88318	6604.675
3160.21642	6608.375
3162.54826	6593.675
3164.87868	6616.975
3167.2077	6612.575
3169.5353	6590.275
3171.86151	6581.675
3174.18631	6604.175
3176.5097	6598.675
3178.83169	6591.175
3181.15228	6578.275
3183.47147	6568.575
3185.78926	6592.675
