Data from AgNP_FTO_APTES_UA_100uM_CRN_5uM_R6G_10uM_NaF_0.1M_Addition_RamanShift__19__15-00-40-376.txt Node

Date: Thu Mar 24 15:00:40 GMT 2022
User: TCL
Spectrometer: QEP01345
Trigger mode: 4
Integration Time (sec): 7.000000E0
Scans to average: 10
Electric dark correction enabled: true
Nonlinearity correction enabled: false
Boxcar width: 0
XAxis mode: Raman Shifts
Number of Pixels in Spectrum: 1044
>>>>>Begin Spectral Data<<<<<
46.04893	-0.7875
50.45542	0.5125
54.85868	-1.0875
59.25871	0.9125
63.6555	28.4125
68.04907	31.5125
72.43941	29.9125
76.82654	30.3125
81.21044	36.7125
85.59113	36.5125
89.96862	36.6125
94.34289	35.3125
98.71396	40.1125
103.08183	38.3125
107.4465	41.7125
111.80798	43.2125
116.16626	44.7125
120.52136	42.5125
124.87327	44.0125
129.222	45.2125
133.56755	51.2125
137.90993	51.6125
142.24913	58.9125
146.58517	66.0125
150.91804	78.8125
155.24774	93.0125
159.57429	114.8125
163.89768	145.9125
168.21792	190.5125
172.53501	264.4125
176.84895	372.4125
181.15975	524.9125
185.46741	732.5125
189.77193	1008.2125
194.07331	1356.6125
198.37157	1760.0125
202.6667	2181.1125
206.9587	2619.2125
211.24758	3079.0125
215.53334	3556.8125
219.81599	4088.1125
224.09553	4711.6125
228.37195	5385.3125
232.64527	6133.6125
236.91549	6850.3125
241.18261	7477.8125
245.44663	7956.1125
249.70755	8295.4125
253.96539	8573.1125
258.22014	8834.1125
262.4718	9068.9125
266.72039	9264.1125
270.96589	9302.7125
275.20832	9171.7125
279.44768	8931.3125
283.68397	8705.7125
287.91719	8556.0125
292.14735	8563.2125
296.37445	8815.8125
300.59849	9270.2125
304.81948	9863.6125
309.03742	10285.7125
313.25231	10412.2125
317.46415	9986.0125
321.67296	9172.3125
325.87872	8429.6125
330.08145	8067.6125
334.28114	8042.7125
338.47781	8184.2125
342.67145	8401.7125
346.86207	8807.4125
351.04966	9347.0125
355.23424	9999.3125
359.4158	10485.6125
363.59435	10713.5125
367.76989	10740.0125
371.94243	10641.8125
376.11196	10475.9125
380.27849	10366.0125
384.44203	10241.5125
388.60257	10062.6125
392.76012	9970.0125
396.91468	10033.3125
401.06626	10304.6125
405.21485	10503.2125
409.36047	10216.4125
413.50311	9536.4125
417.64277	8902.0125
421.77947	8518.6125
425.9132	8369.9125
430.04396	8318.1125
434.17176	8341.4125
438.2966	8459.7125
442.41849	8680.1125
446.53742	9012.0125
450.6534	9319.2125
454.76644	9469.0125
458.87653	9442.9125
462.98368	9272.2125
467.08789	9095.6125
471.18916	8827.5125
475.2875	8566.1125
479.38291	8359.0125
483.4754	8181.6125
487.56496	8037.3125
491.6516	7955.7125
495.73531	7956.0125
499.81612	7987.0125
503.89401	8090.0125
507.96899	8221.1125
512.04106	8369.4125
516.11023	8531.0125
520.1765	8653.1125
524.23987	8679.5125
528.30034	8602.7125
532.35792	8498.8125
536.41261	8350.6125
540.46441	8099.7125
544.51333	7963.8125
548.55936	7996.3125
552.60252	8203.9125
556.64279	8502.3125
560.6802	8659.6125
564.71473	8788.4125
568.7464	9180.6125
572.7752	9440.2125
576.80114	9137.2125
580.82422	8847.9125
584.84444	8827.6125
588.86181	8994.5125
592.87633	9266.2125
596.888	9497.7125
600.89682	9685.2125
604.9028	10838.5125
608.90594	14467.8125
612.90624	19319.5125
616.90371	18587.5125
620.89834	12183.4125
624.89015	8953.6125
628.87913	8370.5125
632.86528	8535.1125
636.84862	8792.2125
640.82913	8624.1125
644.80683	8055.9125
648.78172	7623.5125
652.75379	7618.1125
656.72306	8043.8125
660.68952	8620.4125
664.65319	8470.4125
668.61405	7866.6125
672.57211	7597.0125
676.52738	7590.4125
680.47986	7551.3125
684.42955	7415.0125
688.37646	7299.0125
692.32058	7317.1125
696.26192	7398.6125
700.20048	7531.1125
704.13626	7623.3125
708.06928	7602.4125
711.99952	7516.9125
715.927	7509.7125
719.85171	7573.2125
723.77365	7647.4125
727.69284	7584.4125
731.60928	7546.1125
735.52295	7536.2125
739.43388	7552.5125
743.34206	7576.0125
747.24749	7603.9125
751.15017	7617.0125
755.05012	7725.0125
758.94733	8236.9125
762.8418	9579.6125
766.73354	11888.7125
770.62254	14235.7125
774.50882	15300.4125
778.39237	14536.8125
782.27321	12250.4125
786.15132	9938.3125
790.02671	8447.7125
793.89938	7798.9125
797.76935	7522.1125
801.6366	7413.8125
805.50115	7325.5125
809.36299	7300.4125
813.22213	7233.8125
817.07857	7177.2125
820.93231	7150.2125
824.78336	7169.8125
828.63172	7239.2125
832.47738	7248.1125
836.32036	7234.9125
840.16066	7151.2125
843.99827	7118.1125
847.8332	7096.2125
851.66546	7088.3125
855.49504	7098.7125
859.32195	7086.9125
863.1462	7051.0125
866.96777	7040.1125
870.78668	7039.3125
874.60293	7072.4125
878.41652	7116.9125
882.22745	7189.1125
886.03573	7244.4125
889.84136	7232.7125
893.64433	7207.6125
897.44466	7171.5125
901.24235	7127.8125
905.0374	7061.8125
908.8298	6963.2125
912.61957	6914.9125
916.40671	6929.5125
920.19121	6991.1125
923.97308	7116.6125
927.75233	7299.2125
931.52895	7442.1125
935.30295	7356.7125
939.07433	7072.5125
942.84309	6847.8125
946.60924	6683.3125
950.37278	6606.2125
954.13371	6567.0125
957.89203	6540.1125
961.64774	6497.5125
965.40086	6475.1125
969.15137	6452.1125
972.89929	6439.8125
976.64461	6423.3125
980.38733	6441.1125
984.12747	6452.4125
987.86502	6503.7125
991.59999	6555.5125
995.33237	6671.2125
999.06217	6882.1125
1002.78939	7124.1125
1006.51404	7375.5125
1010.23611	7577.8125
1013.95561	7680.1125
1017.67255	7672.0125
1021.38692	7528.8125
1025.09872	7320.4125
1028.80796	7207.6125
1032.51465	7262.4125
1036.21877	7387.7125
1039.92035	7482.0125
1043.61937	7483.3125
1047.31584	7440.6125
1051.00976	7350.1125
1054.70114	7300.8125
1058.38998	7261.4125
1062.07627	7249.1125
1065.76003	7284.0125
1069.44126	7363.3125
1073.11995	7489.3125
1076.79611	7694.7125
1080.46974	7945.2125
1084.14085	8265.2125
1087.80943	8606.3125
1091.47549	8698.2125
1095.13903	8509.5125
1098.80005	8149.0125
1102.45857	7860.5125
1106.11456	7741.3125
1109.76805	7882.4125
1113.41903	8155.0125
1117.06751	8619.6125
1120.71348	9175.5125
1124.35696	9838.0125
1127.99793	10336.1125
1131.63641	10169.6125
1135.2724	9456.6125
1138.90589	8838.8125
1142.5369	8429.7125
1146.16542	8151.2125
1149.79145	7974.1125
1153.415	7923.1125
1157.03607	7983.5125
1160.65467	8253.2125
1164.27079	8706.5125
1167.88443	9417.4125
1171.49561	10527.3125
1175.10432	12210.9125
1178.71056	14469.8125
1182.31434	16424.2125
1185.91565	16920.7125
1189.51451	16177.0125
1193.11091	14855.2125
1196.70485	13374.8125
1200.29634	12216.1125
1203.88538	11336.3125
1207.47197	10351.6125
1211.05612	9523.0125
1214.63782	9037.1125
1218.21708	8864.1125
1221.79391	8895.3125
1225.36829	8994.4125
1228.94024	8976.4125
1232.50976	8817.6125
1236.07685	8677.3125
1239.6415	8598.2125
1243.20374	8626.8125
1246.76355	8677.5125
1250.32093	8800.3125
1253.8759	9027.9125
1257.42845	9399.7125
1260.97859	9882.3125
1264.52631	10411.8125
1268.07163	10961.9125
1271.61453	11449.1125
1275.15503	11787.8125
1278.69312	11995.7125
1282.22882	12239.9125
1285.76211	12638.8125
1289.29301	13212.6125
1292.82151	13817.1125
1296.34761	14552.5125
1299.87133	15640.4125
1303.39266	17478.2125
1306.9116	20340.1125
1310.42815	23338.7125
1313.94233	24640.3125
1317.45412	23348.0125
1320.96354	20839.0125
1324.47058	18341.4125
1327.97525	16331.2125
1331.47754	15035.0125
1334.97747	14450.6125
1338.47502	14403.9125
1341.97022	14822.1125
1345.46305	15819.9125
1348.95352	17375.8125
1352.44163	19501.7125
1355.92738	22469.9125
1359.41078	26812.7125
1362.89183	30753.7125
1366.37053	29320.4125
1369.84688	23311.2125
1373.32088	17933.2125
1376.79254	14914.4125
1380.26186	13402.7125
1383.72883	12405.6125
1387.19347	11702.9125
1390.65578	11012.8125
1394.11575	10545.9125
1397.57339	10359.1125
1401.0287	10363.2125
1404.48168	10377.8125
1407.93234	10347.3125
1411.38068	10409.7125
1414.82669	10432.1125
1418.27039	10418.1125
1421.71177	10249.9125
1425.15083	10011.0125
1428.58758	9889.7125
1432.02203	10108.8125
1435.45416	10394.0125
1438.88399	10546.5125
1442.31151	10531.5125
1445.73673	10581.4125
1449.15965	10642.5125
1452.58027	10614.5125
1455.9986	10516.6125
1459.41463	10497.3125
1462.82837	10700.0125
1466.23982	11090.2125
1469.64898	11496.6125
1473.05586	11764.7125
1476.46045	11923.2125
1479.86276	12112.9125
1483.26279	12409.7125
1486.66054	12830.5125
1490.05602	13515.7125
1493.44922	14563.8125
1496.84016	16119.3125
1500.22882	18599.5125
1503.61521	22093.5125
1506.99934	26054.6125
1510.38121	29016.7125
1513.76081	29131.0125
1517.13816	26026.9125
1520.51324	21371.7125
1523.88607	17433.2125
1527.25665	14962.7125
1530.62498	13635.2125
1533.99105	12827.2125
1537.35488	12268.5125
1540.71647	11869.3125
1544.07581	11626.0125
1547.4329	11479.1125
1550.78776	11468.2125
1554.14038	11536.6125
1557.49077	11716.9125
1560.83892	12040.4125
1564.18484	12627.1125
1567.52853	13361.3125
1570.86999	13983.9125
1574.20922	14354.3125
1577.54624	14140.0125
1580.88103	13098.7125
1584.2136	11715.2125
1587.54395	10982.4125
1590.87208	11022.8125
1594.19801	11834.4125
1597.52172	13057.2125
1600.84321	13656.7125
1604.16251	13126.9125
1607.47959	12129.7125
1610.79447	11108.4125
1614.10715	10091.0125
1617.41763	9198.7125
1620.7259	8638.2125
1624.03199	8377.7125
1627.33587	8396.6125
1630.63757	8714.3125
1633.93707	9395.5125
1637.23439	10585.5125
1640.52951	12531.6125
1643.82246	15419.7125
1647.11321	18709.2125
1650.40179	20684.9125
1653.68819	19649.8125
1656.97241	16122.1125
1660.25446	12401.9125
1663.53433	9885.2125
1666.81203	8444.0125
1670.08756	7650.5125
1673.36092	7185.4125
1676.63211	6870.6125
1679.90115	6646.7125
1683.16801	6500.5125
1686.43272	6393.3125
1689.69527	6297.8125
1692.95567	6238.4125
1696.2139	6222.8125
1699.46999	6211.1125
1702.72392	6183.5125
1705.97571	6159.6125
1709.22535	6115.3125
1712.47284	6114.0125
1715.71819	6120.0125
1718.96139	6100.7125
1722.20246	6072.3125
1725.44139	6003.2125
1728.67818	5940.2125
1731.91284	5867.7125
1735.14537	5822.7125
1738.37576	5780.4125
1741.60403	5765.6125
1744.83017	5723.9125
1748.05418	5706.6125
1751.27607	5680.6125
1754.49584	5670.3125
1757.71349	5649.0125
1760.92903	5639.6125
1764.14244	5625.3125
1767.35375	5626.8125
1770.56294	5587.5125
1773.77002	5567.3125
1776.97499	5526.8125
1780.17785	5502.9125
1783.37861	5494.2125
1786.57727	5453.1125
1789.77382	5441.2125
1792.96828	5434.1125
1796.16064	5407.0125
1799.3509	5400.6125
1802.53907	5382.5125
1805.72514	5354.8125
1808.90913	5341.3125
1812.09102	5344.3125
1815.27083	5300.3125
1818.44856	5299.5125
1821.6242	5275.0125
1824.79776	5270.1125
1827.96924	5263.3125
1831.13864	5247.5125
1834.30597	5255.3125
1837.47122	5240.8125
1840.6344	5221.4125
1843.7955	5239.5125
1846.95454	5225.9125
1850.11151	5191.6125
1853.26642	5197.5125
1856.41926	5195.7125
1859.57004	5193.8125
1862.71876	5175.9125
1865.86542	5184.4125
1869.01003	5171.6125
1872.15258	5173.3125
1875.29308	5161.3125
1878.43152	5174.8125
1881.56792	5180.7125
1884.70227	5164.3125
1887.83457	5178.2125
1890.96482	5167.2125
1894.09304	5131.2125
1897.21921	5152.8125
1900.34335	5150.9125
1903.46544	5151.6125
1906.58551	5157.4125
1909.70353	5152.3125
1912.81953	5134.3125
1915.93349	5135.8125
1919.04543	5107.3125
1922.15534	5100.3125
1925.26322	5087.6125
1928.36908	5055.0125
1931.47292	5034.8125
1934.57473	5018.0125
1937.67453	4999.4125
1940.77232	4991.9125
1943.86808	4958.4125
1946.96184	4954.8125
1950.05358	4948.7125
1953.14331	4932.9125
1956.23103	4908.4125
1959.31675	4904.9125
1962.40046	4890.0125
1965.48217	4899.7125
1968.56188	4875.6125
1971.63959	4877.0125
1974.7153	4882.1125
1977.78901	4856.3125
1980.86073	4835.1125
1983.93046	4801.9125
1986.99819	4781.9125
1990.06394	4762.2125
1993.1277	4742.4125
1996.18947	4715.5125
1999.24925	4700.4125
2002.30706	4665.5125
2005.36288	4654.8125
2008.41672	4653.7125
2011.46859	4638.2125
2014.51848	4628.9125
2017.56639	4601.4125
2020.61233	4607.1125
2023.6563	4591.0125
2026.6983	4569.0125
2029.73833	4578.8125
2032.7764	4553.7125
2035.8125	4534.7125
2038.84664	4524.7125
2041.87881	4544.5125
2044.90903	4548.6125
2047.93729	4525.2125
2050.96359	4522.7125
2053.98794	4506.9125
2057.01034	4498.9125
2060.03078	4484.2125
2063.04927	4483.1125
2066.06582	4481.4125
2069.08042	4475.4125
2072.09307	4456.5125
2075.10378	4467.0125
2078.11255	4448.5125
2081.11938	4460.5125
2084.12426	4450.4125
2087.12722	4448.0125
2090.12824	4465.2125
2093.12732	4459.0125
2096.12447	4480.4125
2099.11969	4468.4125
2102.11299	4462.9125
2105.10435	4466.8125
2108.09379	4467.6125
2111.08131	4461.7125
2114.0669	4476.8125
2117.05057	4477.3125
2120.03233	4466.3125
2123.01216	4476.3125
2125.99008	4498.2125
2128.96609	4494.9125
2131.94018	4488.7125
2134.91236	4499.8125
2137.88263	4485.2125
2140.851	4484.6125
2143.81746	4495.2125
2146.78201	4495.2125
2149.74466	4478.3125
2152.7054	4485.4125
2155.66425	4470.7125
2158.6212	4458.8125
2161.57625	4458.8125
2164.52941	4456.9125
2167.48067	4443.3125
2170.43004	4462.1125
2173.37752	4463.6125
2176.32311	4451.7125
2179.26681	4466.8125
2182.20863	4459.9125
2185.14856	4449.2125
2188.08661	4456.9125
2191.02278	4430.7125
2193.95707	4441.1125
2196.88948	4429.2125
2199.82001	4445.7125
2202.74867	4429.6125
2205.67545	4432.5125
2208.60037	4410.3125
2211.52341	4408.7125
2214.44458	4418.9125
2217.36388	4411.8125
2220.28132	4405.6125
2223.1969	4391.9125
2226.11061	4395.3125
2229.02246	4377.6125
2231.93245	4373.1125
2234.84058	4362.3125
2237.74686	4358.8125
2240.65128	4343.6125
2243.55385	4335.7125
2246.45456	4335.3125
2249.35343	4329.0125
2252.25044	4350.7125
2255.14561	4335.2125
2258.03893	4342.5125
2260.93041	4343.2125
2263.82004	4352.5125
2266.70783	4328.6125
2269.59378	4337.3125
2272.4779	4307.2125
2275.36017	4300.0125
2278.24061	4293.7125
2281.11922	4290.2125
2283.996	4264.4125
2286.87094	4257.7125
2289.74405	4251.1125
2292.61534	4252.7125
2295.4848	4236.1125
2298.35243	4230.7125
2301.21824	4235.9125
2304.08223	4216.7125
2306.94439	4221.3125
2309.80474	4226.4125
2312.66327	4223.1125
2315.51999	4217.2125
2318.37489	4202.5125
2321.22797	4217.7125
2324.07925	4214.7125
2326.92871	4214.2125
2329.77637	4208.7125
2332.62222	4209.9125
2335.46626	4204.5125
2338.3085	4213.9125
2341.14893	4219.0125
2343.98756	4221.9125
2346.8244	4228.1125
2349.65943	4223.6125
2352.49267	4222.2125
2355.32411	4252.5125
2358.15376	4268.4125
2360.98161	4258.3125
2363.80768	4275.1125
2366.63195	4298.5125
2369.45444	4285.8125
2372.27514	4278.0125
2375.09405	4272.5125
2377.91118	4248.8125
2380.72652	4245.0125
2383.54009	4197.9125
2386.35187	4208.1125
2389.16188	4156.6125
2391.97011	4156.4125
2394.77657	4143.4125
2397.58125	4124.8125
2400.38416	4121.3125
2403.18529	4114.7125
2405.98466	4104.8125
2408.78226	4093.8125
2411.57809	4090.9125
2414.37216	4069.3125
2417.16446	4072.2125
2419.955	4065.2125
2422.74378	4063.7125
2425.5308	4056.4125
2428.31606	4068.7125
2431.09956	4051.0125
2433.88131	4075.1125
2436.6613	4075.8125
2439.43954	4081.2125
2442.21603	4082.2125
2444.99077	4085.1125
2447.76377	4099.2125
2450.53501	4092.3125
2453.30451	4097.2125
2456.07226	4078.9125
2458.83827	4100.8125
2461.60254	4094.2125
2464.36507	4107.9125
2467.12586	4101.5125
2469.88492	4095.4125
2472.64224	4089.8125
2475.39782	4130.5125
2478.15167	4106.9125
2480.90379	4129.4125
2483.65417	4138.6125
2486.40283	4160.4125
2489.14976	4168.1125
2491.89497	4183.7125
2494.63845	4175.0125
2497.3802	4157.4125
2500.12024	4161.6125
2502.85855	4154.3125
2505.59514	4129.0125
2508.33002	4121.9125
2511.06318	4094.2125
2513.79462	4078.3125
2516.52435	4031.9125
2519.25237	4036.9125
2521.97867	4029.6125
2524.70327	4029.0125
2527.42616	3999.3125
2530.14734	4014.4125
2532.86681	3990.8125
2535.58458	3992.3125
2538.30065	3991.9125
2541.01501	4009.8125
2543.72768	4006.9125
2546.43864	4000.4125
2549.14791	3993.2125
2551.85548	4004.0125
2554.56136	4002.6125
2557.26554	4002.4125
2559.96803	3993.4125
2562.66883	3998.9125
2565.36794	3998.4125
2568.06536	3989.2125
2570.7611	3982.4125
2573.45514	3974.9125
2576.14751	3968.9125
2578.83819	3978.2125
2581.52719	3966.2125
2584.21451	3954.1125
2586.90015	3949.1125
2589.58411	3944.0125
2592.2664	3938.0125
2594.94701	3940.3125
2597.62594	3929.8125
2600.30321	3943.4125
2602.9788	3918.4125
2605.65273	3923.6125
2608.32498	3932.9125
2610.99557	3922.6125
2613.66449	3944.5125
2616.33175	3939.2125
2618.99734	3940.7125
2621.66128	3938.3125
2624.32355	3928.5125
2626.98416	3937.2125
2629.64311	3904.2125
2632.30041	3914.0125
2634.95605	3915.3125
2637.61004	3901.4125
2640.26238	3883.0125
2642.91306	3889.1125
2645.56209	3903.6125
2648.20948	3879.5125
2650.85521	3882.8125
2653.4993	3884.1125
2656.14175	3890.6125
2658.78255	3892.6125
2661.42171	3892.4125
2664.05923	3889.3125
2666.6951	3907.2125
2669.32934	3921.3125
2671.96194	3909.0125
2674.59291	3915.4125
2677.22224	3923.7125
2679.84993	3929.8125
2682.476	3913.6125
2685.10043	3913.5125
2687.72324	3898.4125
2690.34441	3892.7125
2692.96396	3896.2125
2695.58188	3901.1125
2698.19818	3895.8125
2700.81285	3896.9125
2703.4259	3894.5125
2706.03733	3916.1125
2708.64714	3907.6125
2711.25533	3904.0125
2713.86191	3893.3125
2716.46687	3914.2125
2719.07021	3913.5125
2721.67194	3919.8125
2724.27206	3916.2125
2726.87057	3898.1125
2729.46747	3908.1125
2732.06276	3899.0125
2734.65644	3886.5125
2737.24852	3887.3125
2739.83899	3881.9125
2742.42786	3892.5125
2745.01513	3862.0125
2747.60079	3877.4125
2750.18486	3858.5125
2752.76733	3868.4125
2755.3482	3859.3125
2757.92747	3850.1125
2760.50515	3859.3125
2763.08123	3843.6125
2765.65573	3850.0125
2768.22863	3840.1125
2770.79994	3823.5125
2773.36967	3837.0125
2775.9378	3844.2125
2778.50435	3824.4125
2781.06932	3828.0125
2783.6327	3829.4125
2786.1945	3826.9125
2788.75471	3813.4125
2791.31335	3808.6125
2793.87041	3830.6125
2796.42589	3806.1125
2798.97979	3808.4125
2801.53212	3809.6125
2804.08288	3809.6125
2806.63206	3828.4125
2809.17967	3836.7125
2811.72571	3836.5125
2814.27018	3843.5125
2816.81308	3829.1125
2819.35442	3823.0125
2821.89419	3843.7125
2824.43239	3845.3125
2826.96904	3844.9125
2829.50412	3843.7125
2832.03763	3846.2125
2834.56959	3851.1125
2837.1	3829.7125
2839.62884	3832.0125
2842.15613	3825.2125
2844.68186	3830.9125
2847.20604	3828.2125
2849.72867	3844.8125
2852.24974	3845.7125
2854.76927	3850.0125
2857.28724	3858.3125
2859.80367	3838.3125
2862.31855	3860.8125
2864.83189	3871.4125
2867.34368	3864.5125
2869.85393	3871.3125
2872.36264	3886.9125
2874.8698	3873.5125
2877.37543	3893.8125
2879.87952	3903.8125
2882.38207	3890.7125
2884.88308	3874.6125
2887.38256	3867.5125
2889.88051	3880.0125
2892.37692	3859.7125
2894.8718	3855.8125
2897.36515	3861.1125
2899.85698	3854.5125
2902.34727	3863.1125
2904.83604	3862.7125
2907.32328	3868.6125
2909.809	3871.0125
2912.29319	3866.7125
2914.77587	3864.4125
2917.25702	3863.5125
2919.73665	3867.2125
2922.21476	3851.8125
2924.69136	3835.5125
2927.16644	3832.1125
2929.64	3825.5125
2932.11205	3821.9125
2934.58258	3811.1125
2937.05161	3799.4125
2939.51912	3798.4125
2941.98513	3805.3125
2944.44962	3798.6125
2946.91261	3774.7125
2949.37409	3787.7125
2951.83407	3773.3125
2954.29254	3778.8125
2956.74951	3789.4125
2959.20498	3777.7125
2961.65895	3760.6125
2964.11142	3770.0125
2966.56239	3766.3125
2969.01186	3755.4125
2971.45984	3740.5125
2973.90632	3720.3125
2976.35131	3735.4125
2978.7948	3712.6125
2981.23681	3694.2125
2983.67732	3692.1125
2986.11635	3679.7125
2988.55388	3663.5125
2990.98993	3661.0125
2993.4245	3669.3125
2995.85758	3679.2125
2998.28917	3673.7125
3000.71928	3656.1125
3003.14791	3656.4125
3005.57506	3665.7125
3008.00073	3659.8125
3010.42493	3667.9125
3012.84764	3657.8125
3015.26888	3647.9125
3017.68865	3641.9125
3020.10694	3633.0125
3022.52376	3622.2125
3024.9391	3615.9125
3027.35298	3620.6125
3029.76539	3615.1125
3032.17632	3604.2125
3034.5858	3588.1125
3036.9938	3580.1125
3039.40034	3564.3125
3041.80542	3568.2125
3044.20903	3545.8125
3046.61118	3537.8125
3049.01187	3542.6125
3051.4111	3551.9125
3053.80888	3546.0125
3056.20519	3532.2125
3058.60005	3531.4125
3060.99345	3532.0125
3063.3854	3519.9125
3065.7759	3504.3125
3068.16494	3514.8125
3070.55254	3496.0125
3072.93868	3490.6125
3075.32338	3480.0125
3077.70662	3481.6125
3080.08842	3477.7125
3082.46878	3471.8125
3084.84769	3467.6125
3087.22515	3467.1125
3089.60118	3468.4125
3091.97576	3462.1125
3094.3489	3464.6125
3096.72061	3445.5125
3099.09087	3474.7125
3101.4597	3463.3125
3103.82709	3456.0125
3106.19305	3447.0125
3108.55757	3455.8125
