Data from AgNP_FTO_APTES_UA_100uM_CRN_0uM_R6G_10uM_NaF_0.1M_Addition_RamanShift__11__10-58-00-094.txt Node

Date: Thu Mar 24 10:58:00 GMT 2022
User: TCL
Spectrometer: QEP01345
Trigger mode: 4
Integration Time (sec): 7.000000E0
Scans to average: 10
Electric dark correction enabled: true
Nonlinearity correction enabled: false
Boxcar width: 0
XAxis mode: Raman Shifts
Number of Pixels in Spectrum: 1044
>>>>>Begin Spectral Data<<<<<
46.04893	-1.5125
50.45542	0.1875
54.85868	-0.3125
59.25871	1.2875
63.6555	25.0875
68.04907	26.6875
72.43941	27.2875
76.82654	23.5875
81.21044	30.9875
85.59113	32.7875
89.96862	36.6875
94.34289	32.5875
98.71396	33.7875
103.08183	33.3875
107.4465	34.9875
111.80798	35.4875
116.16626	37.2875
120.52136	37.6875
124.87327	39.0875
129.222	38.5875
133.56755	43.0875
137.90993	44.8875
142.24913	51.3875
146.58517	50.9875
150.91804	63.5875
155.24774	71.9875
159.57429	85.5875
163.89768	112.9875
168.21792	154.4875
172.53501	204.1875
176.84895	283.5875
181.15975	390.4875
185.46741	550.5875
189.77193	753.8875
194.07331	1008.4875
198.37157	1306.1875
202.6667	1617.9875
206.9587	1928.6875
211.24758	2251.6875
215.53334	2605.6875
219.81599	2996.8875
224.09553	3472.0875
228.37195	3967.6875
232.64527	4518.7875
236.91549	5064.8875
241.18261	5549.0875
245.44663	5906.5875
249.70755	6204.4875
253.96539	6434.1875
258.22014	6552.3875
262.4718	6606.7875
266.72039	6589.3875
270.96589	6471.8875
275.20832	6300.8875
279.44768	6126.8875
283.68397	5934.0875
287.91719	5878.4875
292.14735	5909.0875
296.37445	6123.0875
300.59849	6511.9875
304.81948	6971.8875
309.03742	7411.7875
313.25231	7553.4875
317.46415	7208.9875
321.67296	6544.5875
325.87872	5942.2875
330.08145	5647.6875
334.28114	5623.1875
338.47781	5740.9875
342.67145	5932.4875
346.86207	6255.8875
351.04966	6730.3875
355.23424	7339.3875
359.4158	7792.6875
363.59435	8009.9875
367.76989	8040.6875
371.94243	7920.1875
376.11196	7756.3875
380.27849	7635.9875
384.44203	7453.4875
388.60257	7253.8875
392.76012	7120.5875
396.91468	7122.9875
401.06626	7352.0875
405.21485	7496.0875
409.36047	7273.2875
413.50311	6735.5875
417.64277	6279.7875
421.77947	5972.3875
425.9132	5741.0875
430.04396	5663.3875
434.17176	5740.1875
438.2966	5913.4875
442.41849	6230.9875
446.53742	6672.8875
450.6534	7002.6875
454.76644	7090.2875
458.87653	6869.7875
462.98368	6553.4875
467.08789	6245.8875
471.18916	5959.2875
475.2875	5641.4875
479.38291	5382.2875
483.4754	5204.5875
487.56496	5095.2875
491.6516	5035.8875
495.73531	5024.0875
499.81612	5053.0875
503.89401	5155.3875
507.96899	5272.0875
512.04106	5400.8875
516.11023	5556.1875
520.1765	5704.8875
524.23987	5767.8875
528.30034	5718.0875
532.35792	5644.6875
536.41261	5422.3875
540.46441	5140.5875
544.51333	4931.0875
548.55936	4949.9875
552.60252	5150.5875
556.64279	5425.4875
560.6802	5617.9875
564.71473	5729.0875
568.7464	6075.1875
572.7752	6295.9875
576.80114	5962.7875
580.82422	5583.2875
584.84444	5577.6875
588.86181	5932.5875
592.87633	6455.6875
596.888	6670.8875
600.89682	6520.1875
604.9028	7215.9875
608.90594	10146.0875
612.90624	14174.5875
616.90371	13762.2875
620.89834	8448.9875
624.89015	5655.9875
628.87913	5120.1875
632.86528	5264.7875
636.84862	5403.4875
640.82913	5209.0875
644.80683	4739.4875
648.78172	4404.6875
652.75379	4409.5875
656.72306	4817.6875
660.68952	5260.8875
664.65319	5171.9875
668.61405	4685.6875
672.57211	4444.9875
676.52738	4436.5875
680.47986	4364.8875
684.42955	4242.5875
688.37646	4185.3875
692.32058	4224.7875
696.26192	4327.0875
700.20048	4474.3875
704.13626	4585.0875
708.06928	4579.5875
711.99952	4507.9875
715.927	4475.1875
719.85171	4506.7875
723.77365	4489.2875
727.69284	4411.5875
731.60928	4318.6875
735.52295	4345.6875
739.43388	4400.3875
743.34206	4453.2875
747.24749	4477.0875
751.15017	4506.9875
755.05012	4648.5875
758.94733	5102.3875
762.8418	6253.9875
766.73354	8169.1875
770.62254	9964.8875
774.50882	10981.7875
778.39237	10689.9875
782.27321	8844.6875
786.15132	6672.2875
790.02671	5351.2875
793.89938	4768.4875
797.76935	4519.4875
801.6366	4421.3875
805.50115	4338.4875
809.36299	4283.7875
813.22213	4238.5875
817.07857	4216.4875
820.93231	4210.4875
824.78336	4245.7875
828.63172	4304.3875
832.47738	4333.8875
836.32036	4288.0875
840.16066	4230.2875
843.99827	4188.3875
847.8332	4157.5875
851.66546	4137.6875
855.49504	4158.0875
859.32195	4121.1875
863.1462	4091.6875
866.96777	4058.4875
870.78668	4024.6875
874.60293	4030.1875
878.41652	4086.4875
882.22745	4154.2875
886.03573	4215.3875
889.84136	4206.1875
893.64433	4177.3875
897.44466	4181.0875
901.24235	4167.0875
905.0374	4112.1875
908.8298	4042.6875
912.61957	3987.6875
916.40671	3984.4875
920.19121	4046.0875
923.97308	4163.0875
927.75233	4308.4875
931.52895	4436.9875
935.30295	4332.8875
939.07433	4063.1875
942.84309	3841.3875
946.60924	3709.3875
950.37278	3657.4875
954.13371	3618.9875
957.89203	3593.7875
961.64774	3590.8875
965.40086	3556.7875
969.15137	3524.9875
972.89929	3521.3875
976.64461	3498.0875
980.38733	3522.4875
984.12747	3523.1875
987.86502	3532.4875
991.59999	3572.2875
995.33237	3659.4875
999.06217	3809.5875
1002.78939	4031.8875
1006.51404	4202.2875
1010.23611	4347.1875
1013.95561	4420.0875
1017.67255	4391.8875
1021.38692	4236.2875
1025.09872	4037.6875
1028.80796	3891.9875
1032.51465	3892.5875
1036.21877	3946.5875
1039.92035	4028.0875
1043.61937	4087.2875
1047.31584	4112.9875
1051.00976	4111.4875
1054.70114	4071.8875
1058.38998	4039.1875
1062.07627	4035.7875
1065.76003	4027.5875
1069.44126	4087.6875
1073.11995	4243.2875
1076.79611	4470.0875
1080.46974	4698.0875
1084.14085	4991.7875
1087.80943	5240.0875
1091.47549	5280.9875
1095.13903	5053.7875
1098.80005	4683.6875
1102.45857	4408.7875
1106.11456	4331.6875
1109.76805	4415.7875
1113.41903	4676.2875
1117.06751	5063.4875
1120.71348	5649.6875
1124.35696	6341.1875
1127.99793	6717.9875
1131.63641	6388.6875
1135.2724	5703.5875
1138.90589	5165.5875
1142.5369	4852.9875
1146.16542	4687.7875
1149.79145	4577.3875
1153.415	4528.1875
1157.03607	4547.2875
1160.65467	4713.8875
1164.27079	5037.0875
1167.88443	5603.8875
1171.49561	6542.9875
1175.10432	8069.8875
1178.71056	10058.0875
1182.31434	11475.0875
1185.91565	11676.0875
1189.51451	11065.3875
1193.11091	10158.2875
1196.70485	9171.8875
1200.29634	8297.1875
1203.88538	7428.7875
1207.47197	6489.0875
1211.05612	5825.3875
1214.63782	5550.2875
1218.21708	5579.1875
1221.79391	5660.9875
1225.36829	5620.1875
1228.94024	5417.7875
1232.50976	5198.3875
1236.07685	5105.5875
1239.6415	5124.5875
1243.20374	5136.6875
1246.76355	5149.1875
1250.32093	5210.3875
1253.8759	5382.5875
1257.42845	5698.0875
1260.97859	6081.7875
1264.52631	6496.1875
1268.07163	6870.0875
1271.61453	7151.0875
1275.15503	7357.9875
1278.69312	7463.2875
1282.22882	7679.6875
1285.76211	8114.4875
1289.29301	8677.6875
1292.82151	9265.5875
1296.34761	9968.6875
1299.87133	10890.4875
1303.39266	12402.1875
1306.9116	14639.1875
1310.42815	17053.4875
1313.94233	17952.2875
1317.45412	16632.3875
1320.96354	14264.2875
1324.47058	11955.6875
1327.97525	10317.3875
1331.47754	9522.9875
1334.97747	9438.5875
1338.47502	9729.8875
1341.97022	10214.4875
1345.46305	10991.3875
1348.95352	12221.2875
1352.44163	14020.7875
1355.92738	16656.0875
1359.41078	20121.1875
1362.89183	22256.0875
1366.37053	20574.4875
1369.84688	16587.4875
1373.32088	13202.0875
1376.79254	10955.6875
1380.26186	9588.8875
1383.72883	8633.0875
1387.19347	7929.5875
1390.65578	7397.3875
1394.11575	7068.1875
1397.57339	7020.6875
1401.0287	7058.0875
1404.48168	7101.9875
1407.93234	7119.5875
1411.38068	7112.8875
1414.82669	7069.8875
1418.27039	6903.5875
1421.71177	6659.3875
1425.15083	6457.3875
1428.58758	6503.0875
1432.02203	6719.5875
1435.45416	6881.1875
1438.88399	6884.4875
1442.31151	6811.8875
1445.73673	6804.2875
1449.15965	6803.8875
1452.58027	6678.2875
1455.9986	6500.2875
1459.41463	6508.4875
1462.82837	6741.1875
1466.23982	7114.9875
1469.64898	7439.6875
1473.05586	7648.8875
1476.46045	7798.6875
1479.86276	7944.6875
1483.26279	8122.9875
1486.66054	8403.2875
1490.05602	8852.0875
1493.44922	9486.8875
1496.84016	10554.1875
1500.22882	12282.8875
1503.61521	14694.1875
1506.99934	17319.7875
1510.38121	19361.7875
1513.76081	19515.1875
1517.13816	17377.6875
1520.51324	14098.0875
1523.88607	11349.5875
1527.25665	9826.1875
1530.62498	9132.2875
1533.99105	8813.4875
1537.35488	8556.6875
1540.71647	8366.7875
1544.07581	8210.9875
1547.4329	8041.0875
1550.78776	7864.5875
1554.14038	7681.6875
1557.49077	7568.7875
1560.83892	7601.6875
1564.18484	7912.6875
1567.52853	8465.9875
1570.86999	8992.8875
1574.20922	9247.9875
1577.54624	9115.6875
1580.88103	8269.2875
1584.2136	7183.1875
1587.54395	6609.9875
1590.87208	6774.1875
1594.19801	7607.3875
1597.52172	8815.3875
1600.84321	9595.0875
1604.16251	9323.7875
1607.47959	8309.3875
1610.79447	7004.6875
1614.10715	5893.7875
1617.41763	5159.0875
1620.7259	4731.1875
1624.03199	4564.2875
1627.33587	4562.0875
1630.63757	4755.8875
1633.93707	5209.5875
1637.23439	6059.7875
1640.52951	7509.1875
1643.82246	9663.7875
1647.11321	12039.2875
1650.40179	13250.8875
1653.68819	12260.6875
1656.97241	9697.5875
1660.25446	7137.6875
1663.53433	5399.5875
1666.81203	4434.6875
1670.08756	3913.1875
1673.36092	3624.9875
1676.63211	3426.3875
1679.90115	3294.2875
1683.16801	3215.1875
1686.43272	3146.7875
1689.69527	3094.4875
1692.95567	3058.8875
1696.2139	3042.7875
1699.46999	3025.1875
1702.72392	3002.9875
1705.97571	3006.0875
1709.22535	3003.6875
1712.47284	3006.3875
1715.71819	2999.5875
1718.96139	2981.8875
1722.20246	2985.0875
1725.44139	2943.4875
1728.67818	2888.5875
1731.91284	2851.5875
1735.14537	2803.4875
1738.37576	2778.1875
1741.60403	2762.0875
1744.83017	2731.7875
1748.05418	2721.6875
1751.27607	2700.7875
1754.49584	2684.6875
1757.71349	2684.0875
1760.92903	2659.6875
1764.14244	2670.4875
1767.35375	2636.9875
1770.56294	2625.9875
1773.77002	2611.8875
1776.97499	2603.4875
1780.17785	2586.1875
1783.37861	2583.0875
1786.57727	2562.1875
1789.77382	2577.1875
1792.96828	2568.1875
1796.16064	2560.7875
1799.3509	2562.3875
1802.53907	2549.3875
1805.72514	2547.9875
1808.90913	2545.1875
1812.09102	2547.4875
1815.27083	2549.5875
1818.44856	2547.7875
1821.6242	2546.4875
1824.79776	2533.7875
1827.96924	2546.2875
1831.13864	2565.2875
1834.30597	2576.4875
1837.47122	2582.3875
1840.6344	2612.8875
1843.7955	2647.1875
1846.95454	2670.1875
1850.11151	2690.6875
1853.26642	2699.5875
1856.41926	2707.1875
1859.57004	2701.7875
1862.71876	2701.4875
1865.86542	2686.8875
1869.01003	2686.6875
1872.15258	2683.6875
1875.29308	2709.0875
1878.43152	2717.8875
1881.56792	2703.7875
1884.70227	2693.7875
1887.83457	2665.8875
1890.96482	2657.6875
1894.09304	2644.4875
1897.21921	2622.0875
1900.34335	2605.3875
1903.46544	2591.8875
1906.58551	2580.3875
1909.70353	2571.2875
1912.81953	2544.9875
1915.93349	2548.2875
1919.04543	2538.0875
1922.15534	2525.5875
1925.26322	2523.4875
1928.36908	2521.1875
1931.47292	2503.2875
1934.57473	2478.0875
1937.67453	2457.0875
1940.77232	2432.2875
1943.86808	2429.6875
1946.96184	2418.0875
1950.05358	2393.0875
1953.14331	2391.9875
1956.23103	2380.1875
1959.31675	2381.7875
1962.40046	2380.8875
1965.48217	2381.0875
1968.56188	2394.2875
1971.63959	2404.5875
1974.7153	2409.4875
1977.78901	2401.0875
1980.86073	2396.3875
1983.93046	2364.7875
1986.99819	2349.0875
1990.06394	2341.8875
1993.1277	2324.8875
1996.18947	2300.1875
1999.24925	2290.0875
2002.30706	2278.8875
2005.36288	2268.6875
2008.41672	2244.0875
2011.46859	2227.8875
2014.51848	2211.2875
2017.56639	2182.4875
2020.61233	2176.4875
2023.6563	2182.6875
2026.6983	2166.2875
2029.73833	2166.2875
2032.7764	2177.6875
2035.8125	2195.0875
2038.84664	2208.6875
2041.87881	2237.4875
2044.90903	2242.3875
2047.93729	2265.7875
2050.96359	2293.5875
2053.98794	2313.4875
2057.01034	2314.6875
2060.03078	2327.9875
2063.04927	2318.8875
2066.06582	2322.6875
2069.08042	2313.5875
2072.09307	2307.2875
2075.10378	2280.9875
2078.11255	2270.5875
2081.11938	2256.6875
2084.12426	2231.9875
2087.12722	2214.3875
2090.12824	2199.4875
2093.12732	2187.6875
2096.12447	2162.8875
2099.11969	2145.8875
2102.11299	2152.3875
2105.10435	2122.9875
2108.09379	2101.3875
2111.08131	2091.0875
2114.0669	2074.4875
2117.05057	2071.8875
2120.03233	2045.6875
2123.01216	2045.2875
2125.99008	2041.4875
2128.96609	2042.1875
2131.94018	2043.2875
2134.91236	2036.3875
2137.88263	2019.4875
2140.851	2006.4875
2143.81746	2007.4875
2146.78201	1999.4875
2149.74466	1980.4875
2152.7054	1963.7875
2155.66425	1926.6875
2158.6212	1921.7875
2161.57625	1910.6875
2164.52941	1886.6875
2167.48067	1891.0875
2170.43004	1877.4875
2173.37752	1873.2875
2176.32311	1874.7875
2179.26681	1869.1875
2182.20863	1860.0875
2185.14856	1854.5875
2188.08661	1861.3875
2191.02278	1866.9875
2193.95707	1849.7875
2196.88948	1850.8875
2199.82001	1836.4875
2202.74867	1828.1875
2205.67545	1828.0875
2208.60037	1823.3875
2211.52341	1805.9875
2214.44458	1802.9875
2217.36388	1806.7875
2220.28132	1795.5875
2223.1969	1779.2875
2226.11061	1780.6875
2229.02246	1777.5875
2231.93245	1764.1875
2234.84058	1763.3875
2237.74686	1765.0875
2240.65128	1775.7875
2243.55385	1758.8875
2246.45456	1751.1875
2249.35343	1751.8875
2252.25044	1753.3875
2255.14561	1759.9875
2258.03893	1764.1875
2260.93041	1755.5875
2263.82004	1761.9875
2266.70783	1746.8875
2269.59378	1746.7875
2272.4779	1735.6875
2275.36017	1736.6875
2278.24061	1742.4875
2281.11922	1729.0875
2283.996	1723.9875
2286.87094	1711.3875
2289.74405	1701.0875
2292.61534	1694.4875
2295.4848	1677.5875
2298.35243	1684.0875
2301.21824	1677.0875
2304.08223	1680.5875
2306.94439	1684.0875
2309.80474	1682.3875
2312.66327	1684.3875
2315.51999	1681.9875
2318.37489	1682.8875
2321.22797	1673.0875
2324.07925	1675.0875
2326.92871	1673.4875
2329.77637	1679.2875
2332.62222	1657.8875
2335.46626	1659.7875
2338.3085	1656.6875
2341.14893	1658.8875
2343.98756	1664.2875
2346.8244	1665.1875
2349.65943	1681.6875
2352.49267	1681.3875
2355.32411	1682.2875
2358.15376	1700.3875
2360.98161	1700.5875
2363.80768	1711.6875
2366.63195	1717.3875
2369.45444	1716.4875
2372.27514	1729.2875
2375.09405	1721.6875
2377.91118	1715.3875
2380.72652	1705.3875
2383.54009	1695.3875
2386.35187	1687.0875
2389.16188	1665.1875
2391.97011	1655.0875
2394.77657	1650.6875
2397.58125	1635.1875
2400.38416	1633.4875
2403.18529	1619.6875
2405.98466	1623.6875
2408.78226	1608.8875
2411.57809	1604.6875
2414.37216	1596.7875
2417.16446	1602.8875
2419.955	1597.3875
2422.74378	1602.2875
2425.5308	1607.1875
2428.31606	1605.0875
2431.09956	1606.1875
2433.88131	1602.8875
2436.6613	1592.8875
2439.43954	1602.9875
2442.21603	1605.4875
2444.99077	1609.7875
2447.76377	1607.3875
2450.53501	1618.4875
2453.30451	1622.9875
2456.07226	1623.5875
2458.83827	1626.7875
2461.60254	1620.3875
2464.36507	1620.7875
2467.12586	1619.1875
2469.88492	1621.6875
2472.64224	1622.2875
2475.39782	1619.7875
2478.15167	1639.5875
2480.90379	1640.7875
2483.65417	1650.8875
2486.40283	1668.0875
2489.14976	1679.6875
2491.89497	1688.3875
2494.63845	1681.3875
2497.3802	1679.8875
2500.12024	1674.4875
2502.85855	1662.2875
2505.59514	1648.4875
2508.33002	1634.9875
2511.06318	1616.9875
2513.79462	1602.8875
2516.52435	1597.8875
2519.25237	1580.1875
2521.97867	1558.6875
2524.70327	1562.4875
2527.42616	1575.4875
2530.14734	1559.9875
2532.86681	1553.6875
2535.58458	1564.5875
2538.30065	1550.1875
2541.01501	1561.4875
2543.72768	1565.2875
2546.43864	1564.8875
2549.14791	1569.3875
2551.85548	1575.4875
2554.56136	1578.8875
2557.26554	1570.1875
2559.96803	1572.3875
2562.66883	1577.8875
2565.36794	1571.5875
2568.06536	1566.0875
2570.7611	1574.2875
2573.45514	1566.6875
2576.14751	1551.5875
2578.83819	1551.8875
2581.52719	1553.1875
2584.21451	1555.5875
2586.90015	1547.1875
2589.58411	1546.3875
2592.2664	1546.7875
2594.94701	1538.2875
2597.62594	1540.3875
2600.30321	1545.7875
2602.9788	1537.7875
2605.65273	1542.1875
2608.32498	1538.2875
2610.99557	1546.0875
2613.66449	1542.4875
2616.33175	1548.1875
2618.99734	1544.4875
2621.66128	1538.4875
2624.32355	1545.0875
2626.98416	1547.0875
2629.64311	1536.6875
2632.30041	1529.0875
2634.95605	1531.8875
2637.61004	1526.0875
2640.26238	1507.4875
2642.91306	1521.5875
2645.56209	1511.9875
2648.20948	1522.9875
2650.85521	1519.3875
2653.4993	1515.7875
2656.14175	1525.3875
2658.78255	1526.3875
2661.42171	1537.4875
2664.05923	1538.5875
2666.6951	1541.1875
2669.32934	1556.1875
2671.96194	1555.8875
2674.59291	1551.7875
2677.22224	1561.1875
2679.84993	1556.2875
2682.476	1561.3875
2685.10043	1551.7875
2687.72324	1553.1875
2690.34441	1547.8875
2692.96396	1541.1875
2695.58188	1544.0875
2698.19818	1549.9875
2700.81285	1551.4875
2703.4259	1552.3875
2706.03733	1550.9875
2708.64714	1557.3875
2711.25533	1570.9875
2713.86191	1572.3875
2716.46687	1568.0875
2719.07021	1584.2875
2721.67194	1584.4875
2724.27206	1586.2875
2726.87057	1586.6875
2729.46747	1581.7875
2732.06276	1575.1875
2734.65644	1568.4875
2737.24852	1569.6875
2739.83899	1558.8875
2742.42786	1563.6875
2745.01513	1555.8875
2747.60079	1564.1875
2750.18486	1551.5875
2752.76733	1551.8875
2755.3482	1559.0875
2757.92747	1556.4875
2760.50515	1555.8875
2763.08123	1558.9875
2765.65573	1549.3875
2768.22863	1550.7875
2770.79994	1559.7875
2773.36967	1566.6875
2775.9378	1566.7875
2778.50435	1575.1875
2781.06932	1577.9875
2783.6327	1587.5875
2786.1945	1595.5875
2788.75471	1605.2875
2791.31335	1608.4875
2793.87041	1623.6875
2796.42589	1620.3875
2798.97979	1630.3875
2801.53212	1643.7875
2804.08288	1641.9875
2806.63206	1652.9875
2809.17967	1667.4875
2811.72571	1675.6875
2814.27018	1683.6875
2816.81308	1706.9875
2819.35442	1718.4875
2821.89419	1723.6875
2824.43239	1731.3875
2826.96904	1736.0875
2829.50412	1747.0875
2832.03763	1755.4875
2834.56959	1752.3875
2837.1	1762.3875
2839.62884	1782.7875
2842.15613	1802.2875
2844.68186	1849.1875
2847.20604	1875.7875
2849.72867	1910.8875
2852.24974	1953.1875
2854.76927	1947.6875
2857.28724	1946.3875
2859.80367	1950.6875
2862.31855	1959.2875
2864.83189	1957.3875
2867.34368	1965.5875
2869.85393	1977.8875
2872.36264	1960.2875
2874.8698	1970.4875
2877.37543	1962.4875
2879.87952	1963.0875
2882.38207	1947.8875
2884.88308	1947.2875
2887.38256	1948.7875
2889.88051	1932.9875
2892.37692	1924.2875
2894.8718	1927.0875
2897.36515	1925.3875
2899.85698	1928.0875
2902.34727	1911.4875
2904.83604	1903.9875
2907.32328	1900.4875
2909.809	1909.6875
2912.29319	1904.8875
2914.77587	1894.6875
2917.25702	1882.4875
2919.73665	1879.7875
2922.21476	1876.5875
2924.69136	1863.1875
2927.16644	1847.9875
2929.64	1839.0875
2932.11205	1837.1875
2934.58258	1811.7875
2937.05161	1792.5875
2939.51912	1770.8875
2941.98513	1748.5875
2944.44962	1713.1875
2946.91261	1691.3875
2949.37409	1677.1875
2951.83407	1655.2875
2954.29254	1642.1875
2956.74951	1631.2875
2959.20498	1610.0875
2961.65895	1596.7875
2964.11142	1588.0875
2966.56239	1573.4875
2969.01186	1555.4875
2971.45984	1536.0875
2973.90632	1530.3875
2976.35131	1524.5875
2978.7948	1505.6875
2981.23681	1493.9875
2983.67732	1493.0875
2986.11635	1473.8875
2988.55388	1480.8875
2990.98993	1458.1875
2993.4245	1469.9875
2995.85758	1459.2875
2998.28917	1462.7875
3000.71928	1462.5875
3003.14791	1449.8875
3005.57506	1450.2875
3008.00073	1449.3875
3010.42493	1452.6875
3012.84764	1442.6875
3015.26888	1448.3875
3017.68865	1440.7875
3020.10694	1446.2875
3022.52376	1428.8875
3024.9391	1418.2875
3027.35298	1424.0875
3029.76539	1419.6875
3032.17632	1413.1875
3034.5858	1409.5875
3036.9938	1406.2875
3039.40034	1393.8875
3041.80542	1397.1875
3044.20903	1391.4875
3046.61118	1384.0875
3049.01187	1389.6875
3051.4111	1398.3875
3053.80888	1389.7875
3056.20519	1379.5875
3058.60005	1382.4875
3060.99345	1381.4875
3063.3854	1378.8875
3065.7759	1372.9875
3068.16494	1383.8875
3070.55254	1372.2875
3072.93868	1371.4875
3075.32338	1360.5875
3077.70662	1354.8875
3080.08842	1348.7875
3082.46878	1356.3875
3084.84769	1345.3875
3087.22515	1339.8875
3089.60118	1344.5875
3091.97576	1341.2875
3094.3489	1337.8875
3096.72061	1345.6875
3099.09087	1340.2875
3101.4597	1349.5875
3103.82709	1338.6875
3106.19305	1337.4875
3108.55757	1335.8875
3110.92066	1332.7875
3113.28232	1334.6875
3115.64255	1335.0875
3118.00134	1341.9875
3120.35871	1339.9875
