Data from AgNP_FTO_APTES_UA_100uM_CRN_5uM_R6G_10uM_NaF_0.1M_Addition_RamanShift__2__14-40-50-353.txt Node

Date: Thu Mar 24 14:40:50 GMT 2022
User: TCL
Spectrometer: QEP01345
Trigger mode: 4
Integration Time (sec): 7.000000E0
Scans to average: 10
Electric dark correction enabled: true
Nonlinearity correction enabled: false
Boxcar width: 0
XAxis mode: Raman Shifts
Number of Pixels in Spectrum: 1044
>>>>>Begin Spectral Data<<<<<
46.04893	-0.9125
50.45542	-0.5125
54.85868	-0.0125
59.25871	1.1875
63.6555	30.3875
68.04907	34.6875
72.43941	30.8875
76.82654	32.3875
81.21044	35.1875
85.59113	36.4875
89.96862	36.3875
94.34289	38.1875
98.71396	42.1875
103.08183	43.6875
107.4465	41.6875
111.80798	47.8875
116.16626	44.1875
120.52136	44.8875
124.87327	46.2875
129.222	50.2875
133.56755	54.8875
137.90993	55.2875
142.24913	63.4875
146.58517	66.3875
150.91804	76.9875
155.24774	89.7875
159.57429	115.2875
163.89768	147.4875
168.21792	199.4875
172.53501	267.8875
176.84895	374.1875
181.15975	529.6875
185.46741	750.0875
189.77193	1023.5875
194.07331	1379.6875
198.37157	1796.0875
202.6667	2237.3875
206.9587	2673.0875
211.24758	3124.2875
215.53334	3593.1875
219.81599	4145.5875
224.09553	4738.3875
228.37195	5423.9875
232.64527	6148.0875
236.91549	6848.1875
241.18261	7426.0875
245.44663	7891.7875
249.70755	8213.4875
253.96539	8460.1875
258.22014	8710.0875
262.4718	8913.5875
266.72039	9048.0875
270.96589	9103.7875
275.20832	8984.1875
279.44768	8821.3875
283.68397	8606.9875
287.91719	8481.4875
292.14735	8493.8875
296.37445	8709.4875
300.59849	9109.6875
304.81948	9663.3875
309.03742	10122.8875
313.25231	10278.2875
317.46415	9954.6875
321.67296	9260.9875
325.87872	8614.3875
330.08145	8251.6875
334.28114	8230.4875
338.47781	8345.5875
342.67145	8583.3875
346.86207	8952.5875
351.04966	9476.0875
355.23424	10063.2875
359.4158	10499.8875
363.59435	10621.6875
367.76989	10607.9875
371.94243	10427.0875
376.11196	10274.1875
380.27849	10147.1875
384.44203	10025.9875
388.60257	9902.1875
392.76012	9874.1875
396.91468	9975.7875
401.06626	10241.2875
405.21485	10426.2875
409.36047	10198.6875
413.50311	9609.8875
417.64277	9030.2875
421.77947	8708.7875
425.9132	8575.4875
430.04396	8541.4875
434.17176	8577.4875
438.2966	8716.9875
442.41849	8996.9875
446.53742	9385.9875
450.6534	9730.9875
454.76644	9909.5875
458.87653	9886.5875
462.98368	9676.4875
467.08789	9447.5875
471.18916	9182.2875
475.2875	8888.6875
479.38291	8626.9875
483.4754	8394.1875
487.56496	8242.9875
491.6516	8171.0875
495.73531	8153.1875
499.81612	8206.0875
503.89401	8305.2875
507.96899	8364.5875
512.04106	8480.4875
516.11023	8611.3875
520.1765	8723.5875
524.23987	8765.3875
528.30034	8747.5875
532.35792	8693.1875
536.41261	8550.2875
540.46441	8311.0875
544.51333	8172.6875
548.55936	8215.7875
552.60252	8410.7875
556.64279	8647.0875
560.6802	8841.2875
564.71473	8986.0875
568.7464	9337.8875
572.7752	9544.9875
576.80114	9328.6875
580.82422	9124.9875
584.84444	9302.7875
588.86181	9659.4875
592.87633	10145.3875
596.888	10508.1875
600.89682	10539.0875
604.9028	11296.5875
608.90594	14516.3875
612.90624	18963.4875
616.90371	18229.0875
620.89834	12212.3875
624.89015	9191.6875
628.87913	8598.3875
632.86528	8779.2875
636.84862	9028.2875
640.82913	8806.1875
644.80683	8258.4875
648.78172	7863.7875
652.75379	7865.1875
656.72306	8273.8875
660.68952	8813.6875
664.65319	8656.4875
668.61405	8080.0875
672.57211	7789.3875
676.52738	7794.5875
680.47986	7771.6875
684.42955	7642.9875
688.37646	7546.9875
692.32058	7593.2875
696.26192	7696.9875
700.20048	7866.3875
704.13626	7935.1875
708.06928	7907.3875
711.99952	7831.7875
715.927	7850.1875
719.85171	7957.9875
723.77365	8001.1875
727.69284	7900.0875
731.60928	7835.7875
735.52295	7858.9875
739.43388	7899.6875
743.34206	7924.4875
747.24749	7902.6875
751.15017	7931.6875
755.05012	8044.0875
758.94733	8544.3875
762.8418	9755.2875
766.73354	11867.7875
770.62254	13851.6875
774.50882	14635.5875
778.39237	13998.1875
782.27321	12128.7875
786.15132	10025.2875
790.02671	8739.9875
793.89938	8124.7875
797.76935	7840.1875
801.6366	7736.5875
805.50115	7672.8875
809.36299	7611.4875
813.22213	7560.3875
817.07857	7524.0875
820.93231	7496.8875
824.78336	7533.5875
828.63172	7586.3875
832.47738	7591.0875
836.32036	7552.4875
840.16066	7517.9875
843.99827	7526.1875
847.8332	7451.2875
851.66546	7459.3875
855.49504	7477.2875
859.32195	7452.3875
863.1462	7434.4875
866.96777	7395.6875
870.78668	7413.6875
874.60293	7437.2875
878.41652	7459.3875
882.22745	7577.0875
886.03573	7645.1875
889.84136	7637.1875
893.64433	7594.1875
897.44466	7585.8875
901.24235	7538.0875
905.0374	7475.1875
908.8298	7415.3875
912.61957	7357.9875
916.40671	7333.9875
920.19121	7390.4875
923.97308	7530.3875
927.75233	7738.5875
931.52895	7894.4875
935.30295	7784.6875
939.07433	7455.3875
942.84309	7197.9875
946.60924	7065.2875
950.37278	6991.9875
954.13371	6970.3875
957.89203	6965.2875
961.64774	6955.8875
965.40086	6938.8875
969.15137	6935.2875
972.89929	6927.5875
976.64461	6930.3875
980.38733	6955.8875
984.12747	6983.0875
987.86502	7026.0875
991.59999	7080.7875
995.33237	7215.8875
999.06217	7428.5875
1002.78939	7694.9875
1006.51404	7931.8875
1010.23611	8157.5875
1013.95561	8278.9875
1017.67255	8247.5875
1021.38692	8060.5875
1025.09872	7787.8875
1028.80796	7667.4875
1032.51465	7710.2875
1036.21877	7844.1875
1039.92035	7899.8875
1043.61937	7919.8875
1047.31584	7898.2875
1051.00976	7820.7875
1054.70114	7739.0875
1058.38998	7703.6875
1062.07627	7710.7875
1065.76003	7741.2875
1069.44126	7837.7875
1073.11995	8033.2875
1076.79611	8281.1875
1080.46974	8548.3875
1084.14085	8880.4875
1087.80943	9180.4875
1091.47549	9240.0875
1095.13903	9041.9875
1098.80005	8646.1875
1102.45857	8317.8875
1106.11456	8201.5875
1109.76805	8252.6875
1113.41903	8484.8875
1117.06751	8846.3875
1120.71348	9330.2875
1124.35696	9952.4875
1127.99793	10419.9875
1131.63641	10274.4875
1135.2724	9638.8875
1138.90589	9103.9875
1142.5369	8795.0875
1146.16542	8575.7875
1149.79145	8438.8875
1153.415	8386.0875
1157.03607	8480.0875
1160.65467	8686.2875
1164.27079	9096.1875
1167.88443	9794.1875
1171.49561	10823.5875
1175.10432	12495.5875
1178.71056	14747.7875
1182.31434	16584.9875
1185.91565	17111.0875
1189.51451	16530.9875
1193.11091	15314.4875
1196.70485	13978.8875
1200.29634	12847.5875
1203.88538	11961.5875
1207.47197	10944.1875
1211.05612	10123.4875
1214.63782	9655.6875
1218.21708	9466.5875
1221.79391	9494.9875
1225.36829	9549.6875
1228.94024	9557.7875
1232.50976	9384.5875
1236.07685	9270.5875
1239.6415	9217.5875
1243.20374	9301.5875
1246.76355	9386.3875
1250.32093	9495.0875
1253.8759	9719.5875
1257.42845	10123.9875
1260.97859	10686.3875
1264.52631	11298.6875
1268.07163	11935.9875
1271.61453	12379.3875
1275.15503	12618.1875
1278.69312	12722.4875
1282.22882	12881.3875
1285.76211	13369.8875
1289.29301	14023.1875
1292.82151	14668.9875
1296.34761	15374.3875
1299.87133	16409.8875
1303.39266	18192.0875
1306.9116	20820.6875
1310.42815	23618.0875
1313.94233	24887.1875
1317.45412	23690.2875
1320.96354	21377.2875
1324.47058	19038.3875
1327.97525	17160.0875
1331.47754	15820.1875
1334.97747	15157.3875
1338.47502	15054.6875
1341.97022	15396.0875
1345.46305	16257.6875
1348.95352	17629.9875
1352.44163	19455.0875
1355.92738	22082.1875
1359.41078	26072.5875
1362.89183	29842.1875
1366.37053	28900.1875
1369.84688	23510.5875
1373.32088	18332.7875
1376.79254	15451.6875
1380.26186	14200.9875
1383.72883	13404.9875
1387.19347	12567.1875
1390.65578	11722.5875
1394.11575	11146.7875
1397.57339	10849.5875
1401.0287	10770.4875
1404.48168	10784.9875
1407.93234	10809.2875
1411.38068	10933.0875
1414.82669	11065.1875
1418.27039	11124.0875
1421.71177	10958.5875
1425.15083	10694.2875
1428.58758	10637.2875
1432.02203	10881.2875
1435.45416	11299.4875
1438.88399	11524.5875
1442.31151	11545.4875
1445.73673	11591.2875
1449.15965	11610.5875
1452.58027	11530.9875
1455.9986	11268.6875
1459.41463	11134.5875
1462.82837	11257.6875
1466.23982	11663.8875
1469.64898	12192.0875
1473.05586	12649.8875
1476.46045	13010.2875
1479.86276	13421.8875
1483.26279	13907.0875
1486.66054	14472.3875
1490.05602	15315.1875
1493.44922	16461.9875
1496.84016	17875.4875
1500.22882	19748.1875
1503.61521	22326.1875
1506.99934	25436.3875
1510.38121	27924.2875
1513.76081	28093.7875
1517.13816	25370.9875
1520.51324	21121.6875
1523.88607	17453.7875
1527.25665	15109.7875
1530.62498	13876.1875
1533.99105	13204.0875
1537.35488	12680.1875
1540.71647	12302.9875
1544.07581	12068.5875
1547.4329	11879.7875
1550.78776	11750.0875
1554.14038	11723.0875
1557.49077	11720.1875
1560.83892	11950.3875
1564.18484	12476.4875
1567.52853	13271.0875
1570.86999	13965.2875
1574.20922	14389.2875
1577.54624	14241.0875
1580.88103	13284.5875
1584.2136	12038.3875
1587.54395	11411.3875
1590.87208	11635.2875
1594.19801	12669.0875
1597.52172	14111.8875
1600.84321	14930.0875
1604.16251	14456.5875
1607.47959	13208.9875
1610.79447	11786.4875
1614.10715	10533.8875
1617.41763	9535.9875
1620.7259	8969.0875
1624.03199	8727.1875
1627.33587	8794.9875
1630.63757	9142.5875
1633.93707	9836.0875
1637.23439	11134.7875
1640.52951	13285.2875
1643.82246	16425.9875
1647.11321	19943.6875
1650.40179	21868.0875
1653.68819	20615.8875
1656.97241	16945.4875
1660.25446	13107.2875
1663.53433	10473.5875
1666.81203	8984.4875
1670.08756	8153.9875
1673.36092	7677.9875
1676.63211	7371.5875
1679.90115	7162.8875
1683.16801	7007.7875
1686.43272	6903.7875
1689.69527	6798.0875
1692.95567	6755.6875
1696.2139	6711.3875
1699.46999	6703.7875
1702.72392	6666.9875
1705.97571	6629.8875
1709.22535	6629.9875
1712.47284	6604.8875
1715.71819	6616.4875
1718.96139	6591.0875
1722.20246	6600.9875
1725.44139	6520.8875
1728.67818	6462.7875
1731.91284	6393.7875
1735.14537	6321.1875
1738.37576	6292.0875
1741.60403	6253.5875
1744.83017	6242.1875
1748.05418	6220.0875
1751.27607	6195.2875
1754.49584	6179.7875
1757.71349	6167.7875
1760.92903	6154.7875
1764.14244	6140.3875
1767.35375	6140.5875
1770.56294	6104.8875
1773.77002	6065.4875
1776.97499	6037.4875
1780.17785	6011.4875
1783.37861	5985.1875
1786.57727	5976.1875
1789.77382	5937.7875
1792.96828	5953.4875
1796.16064	5925.3875
1799.3509	5906.8875
1802.53907	5917.9875
1805.72514	5890.9875
1808.90913	5855.2875
1812.09102	5846.2875
1815.27083	5822.3875
1818.44856	5817.8875
1821.6242	5786.9875
1824.79776	5765.5875
1827.96924	5760.4875
1831.13864	5768.2875
1834.30597	5760.1875
1837.47122	5751.4875
1840.6344	5735.6875
1843.7955	5739.7875
1846.95454	5728.0875
1850.11151	5717.8875
1853.26642	5716.2875
1856.41926	5705.2875
1859.57004	5698.5875
1862.71876	5702.2875
1865.86542	5689.1875
1869.01003	5700.9875
1872.15258	5688.4875
1875.29308	5687.5875
1878.43152	5668.2875
1881.56792	5690.1875
1884.70227	5678.0875
1887.83457	5670.9875
1890.96482	5670.0875
1894.09304	5643.0875
1897.21921	5654.9875
1900.34335	5667.7875
1903.46544	5648.3875
1906.58551	5660.4875
1909.70353	5657.4875
1912.81953	5632.4875
1915.93349	5637.5875
1919.04543	5606.6875
1922.15534	5616.8875
1925.26322	5582.3875
1928.36908	5568.2875
1931.47292	5554.8875
1934.57473	5516.7875
1937.67453	5504.5875
1940.77232	5508.7875
1943.86808	5471.6875
1946.96184	5454.8875
1950.05358	5434.2875
1953.14331	5437.9875
1956.23103	5407.5875
1959.31675	5401.8875
1962.40046	5388.7875
1965.48217	5369.8875
1968.56188	5362.6875
1971.63959	5355.1875
1974.7153	5325.3875
1977.78901	5320.4875
1980.86073	5305.9875
1983.93046	5269.0875
1986.99819	5258.4875
1990.06394	5231.5875
1993.1277	5203.7875
1996.18947	5186.3875
1999.24925	5158.8875
2002.30706	5151.7875
2005.36288	5135.1875
2008.41672	5092.1875
2011.46859	5107.7875
2014.51848	5087.1875
2017.56639	5082.6875
2020.61233	5052.3875
2023.6563	5050.6875
2026.6983	5035.8875
2029.73833	5050.7875
2032.7764	5012.7875
2035.8125	5023.2875
2038.84664	5000.2875
2041.87881	4995.0875
2044.90903	4991.4875
2047.93729	4979.1875
2050.96359	4991.2875
2053.98794	4963.1875
2057.01034	4951.9875
2060.03078	4960.7875
2063.04927	4938.3875
2066.06582	4945.1875
2069.08042	4927.9875
2072.09307	4928.6875
2075.10378	4927.1875
2078.11255	4905.4875
2081.11938	4926.8875
2084.12426	4912.6875
2087.12722	4930.3875
2090.12824	4940.5875
2093.12732	4929.1875
2096.12447	4924.9875
2099.11969	4925.4875
2102.11299	4923.0875
2105.10435	4944.0875
2108.09379	4934.6875
2111.08131	4926.9875
2114.0669	4919.0875
2117.05057	4939.1875
2120.03233	4931.0875
2123.01216	4943.8875
2125.99008	4933.3875
2128.96609	4944.2875
2131.94018	4945.7875
2134.91236	4944.5875
2137.88263	4955.7875
2140.851	4942.1875
2143.81746	4936.0875
2146.78201	4938.4875
2149.74466	4934.3875
2152.7054	4917.6875
2155.66425	4921.2875
2158.6212	4920.5875
2161.57625	4919.0875
2164.52941	4901.8875
2167.48067	4908.8875
2170.43004	4909.7875
2173.37752	4894.5875
2176.32311	4891.3875
2179.26681	4915.6875
2182.20863	4903.3875
2185.14856	4917.1875
2188.08661	4905.0875
2191.02278	4885.3875
2193.95707	4888.1875
2196.88948	4888.9875
2199.82001	4884.6875
2202.74867	4873.9875
2205.67545	4874.1875
2208.60037	4873.5875
2211.52341	4871.3875
2214.44458	4863.5875
2217.36388	4835.5875
2220.28132	4856.1875
2223.1969	4831.6875
2226.11061	4818.6875
2229.02246	4816.3875
2231.93245	4807.5875
2234.84058	4799.2875
2237.74686	4792.1875
2240.65128	4792.8875
2243.55385	4779.9875
2246.45456	4782.1875
2249.35343	4792.1875
2252.25044	4784.2875
2255.14561	4779.0875
2258.03893	4794.4875
2260.93041	4785.3875
2263.82004	4790.9875
2266.70783	4760.4875
2269.59378	4748.0875
2272.4779	4751.6875
2275.36017	4726.4875
2278.24061	4711.5875
2281.11922	4710.5875
2283.996	4697.3875
2286.87094	4697.1875
2289.74405	4684.2875
2292.61534	4669.1875
2295.4848	4663.0875
2298.35243	4658.7875
2301.21824	4649.6875
2304.08223	4645.3875
2306.94439	4645.2875
2309.80474	4640.3875
2312.66327	4651.2875
2315.51999	4638.7875
2318.37489	4636.4875
2321.22797	4641.0875
2324.07925	4645.6875
2326.92871	4630.5875
2329.77637	4637.4875
2332.62222	4630.9875
2335.46626	4632.9875
2338.3085	4634.2875
2341.14893	4637.5875
2343.98756	4620.0875
2346.8244	4630.6875
2349.65943	4624.3875
2352.49267	4636.0875
2355.32411	4660.3875
2358.15376	4644.2875
2360.98161	4657.5875
2363.80768	4668.8875
2366.63195	4675.4875
2369.45444	4687.2875
2372.27514	4680.0875
2375.09405	4695.9875
2377.91118	4672.3875
2380.72652	4645.6875
2383.54009	4619.7875
2386.35187	4611.9875
2389.16188	4576.8875
2391.97011	4581.9875
2394.77657	4553.8875
2397.58125	4546.6875
2400.38416	4532.7875
2403.18529	4519.7875
2405.98466	4516.6875
2408.78226	4507.6875
2411.57809	4484.6875
2414.37216	4475.3875
2417.16446	4462.3875
2419.955	4479.9875
2422.74378	4473.3875
2425.5308	4465.7875
2428.31606	4478.4875
2431.09956	4461.3875
2433.88131	4468.8875
2436.6613	4475.0875
2439.43954	4483.1875
2442.21603	4495.7875
2444.99077	4484.7875
2447.76377	4502.0875
2450.53501	4493.8875
2453.30451	4493.4875
2456.07226	4485.2875
2458.83827	4477.9875
2461.60254	4495.6875
2464.36507	4507.5875
2467.12586	4520.9875
2469.88492	4516.1875
2472.64224	4517.2875
2475.39782	4511.9875
2478.15167	4516.8875
2480.90379	4525.2875
2483.65417	4527.6875
2486.40283	4554.0875
2489.14976	4574.7875
2491.89497	4560.5875
2494.63845	4567.7875
2497.3802	4570.9875
2500.12024	4559.6875
2502.85855	4551.5875
2505.59514	4539.6875
2508.33002	4505.8875
2511.06318	4495.4875
2513.79462	4484.9875
2516.52435	4453.2875
2519.25237	4428.3875
2521.97867	4435.8875
2524.70327	4430.2875
2527.42616	4424.2875
2530.14734	4414.3875
2532.86681	4403.2875
2535.58458	4398.0875
2538.30065	4405.3875
2541.01501	4416.5875
2543.72768	4413.0875
2546.43864	4412.8875
2549.14791	4412.1875
2551.85548	4404.9875
2554.56136	4409.7875
2557.26554	4407.3875
2559.96803	4406.7875
2562.66883	4400.1875
2565.36794	4412.7875
2568.06536	4405.0875
2570.7611	4382.3875
2573.45514	4400.8875
2576.14751	4391.8875
2578.83819	4374.1875
2581.52719	4394.6875
2584.21451	4371.5875
2586.90015	4355.7875
2589.58411	4352.3875
2592.2664	4359.4875
2594.94701	4335.5875
2597.62594	4331.3875
2600.30321	4320.8875
2602.9788	4322.9875
2605.65273	4330.6875
2608.32498	4349.8875
2610.99557	4323.8875
2613.66449	4336.7875
2616.33175	4336.0875
2618.99734	4331.7875
2621.66128	4321.8875
2624.32355	4321.3875
2626.98416	4324.6875
2629.64311	4321.2875
2632.30041	4308.0875
2634.95605	4296.4875
2637.61004	4286.2875
2640.26238	4271.2875
2642.91306	4283.0875
2645.56209	4269.6875
2648.20948	4272.3875
2650.85521	4294.8875
2653.4993	4298.5875
2656.14175	4275.7875
2658.78255	4292.0875
2661.42171	4295.4875
2664.05923	4292.5875
2666.6951	4293.9875
2669.32934	4326.0875
2671.96194	4324.5875
2674.59291	4319.4875
2677.22224	4325.0875
2679.84993	4311.1875
2682.476	4323.8875
2685.10043	4317.0875
2687.72324	4303.5875
2690.34441	4320.8875
2692.96396	4310.6875
2695.58188	4315.7875
2698.19818	4286.9875
2700.81285	4306.2875
2703.4259	4312.9875
2706.03733	4311.5875
2708.64714	4312.2875
2711.25533	4327.1875
2713.86191	4302.9875
2716.46687	4335.9875
2719.07021	4331.2875
2721.67194	4328.0875
2724.27206	4318.4875
2726.87057	4324.8875
2729.46747	4328.7875
2732.06276	4329.5875
2734.65644	4308.0875
2737.24852	4322.0875
2739.83899	4289.0875
2742.42786	4300.0875
2745.01513	4277.6875
2747.60079	4283.7875
2750.18486	4289.6875
2752.76733	4270.7875
2755.3482	4288.8875
2757.92747	4271.9875
2760.50515	4269.0875
2763.08123	4263.4875
2765.65573	4246.4875
2768.22863	4262.1875
2770.79994	4255.9875
2773.36967	4249.0875
2775.9378	4261.7875
2778.50435	4257.0875
2781.06932	4247.2875
2783.6327	4248.0875
2786.1945	4235.2875
2788.75471	4241.4875
2791.31335	4229.8875
2793.87041	4242.2875
2796.42589	4238.8875
2798.97979	4231.7875
2801.53212	4245.1875
2804.08288	4247.2875
2806.63206	4239.7875
2809.17967	4233.4875
2811.72571	4241.6875
2814.27018	4232.0875
2816.81308	4248.4875
2819.35442	4241.3875
2821.89419	4239.7875
2824.43239	4246.2875
2826.96904	4262.0875
2829.50412	4248.9875
2832.03763	4252.6875
2834.56959	4242.3875
2837.1	4234.2875
2839.62884	4228.9875
2842.15613	4224.6875
2844.68186	4250.7875
2847.20604	4232.2875
2849.72867	4250.1875
2852.24974	4245.5875
2854.76927	4252.0875
2857.28724	4235.4875
2859.80367	4246.4875
2862.31855	4247.3875
2864.83189	4280.8875
2867.34368	4282.8875
2869.85393	4267.7875
2872.36264	4269.8875
2874.8698	4283.1875
2877.37543	4290.0875
2879.87952	4274.5875
2882.38207	4273.4875
2884.88308	4258.9875
2887.38256	4257.2875
2889.88051	4248.6875
2892.37692	4253.7875
2894.8718	4249.8875
2897.36515	4253.9875
2899.85698	4246.9875
2902.34727	4261.7875
2904.83604	4262.3875
2907.32328	4287.0875
2909.809	4270.0875
2912.29319	4271.5875
2914.77587	4274.3875
2917.25702	4272.7875
2919.73665	4278.5875
2922.21476	4264.4875
2924.69136	4235.8875
2927.16644	4235.4875
2929.64	4238.2875
2932.11205	4232.7875
2934.58258	4208.0875
2937.05161	4215.7875
2939.51912	4212.4875
2941.98513	4193.6875
2944.44962	4197.1875
2946.91261	4183.5875
2949.37409	4186.9875
2951.83407	4187.6875
2954.29254	4186.1875
2956.74951	4166.9875
2959.20498	4165.8875
2961.65895	4155.6875
2964.11142	4174.6875
2966.56239	4153.4875
2969.01186	4148.8875
2971.45984	4154.4875
2973.90632	4131.6875
2976.35131	4119.8875
2978.7948	4112.3875
2981.23681	4099.9875
2983.67732	4090.1875
2986.11635	4075.2875
2988.55388	4074.5875
2990.98993	4071.0875
2993.4245	4061.1875
2995.85758	4059.8875
2998.28917	4048.0875
3000.71928	4032.1875
3003.14791	4026.7875
3005.57506	4023.8875
3008.00073	4020.7875
3010.42493	4035.4875
3012.84764	4021.6875
3015.26888	4020.4875
3017.68865	4013.1875
3020.10694	4000.0875
3022.52376	3975.8875
3024.9391	3981.4875
3027.35298	3960.7875
3029.76539	3980.2875
3032.17632	3959.2875
3034.5858	3939.8875
3036.9938	3942.7875
3039.40034	3938.6875
3041.80542	3920.1875
3044.20903	3908.7875
3046.61118	3926.1875
3049.01187	3906.4875
3051.4111	3899.4875
3053.80888	3898.5875
3056.20519	3896.5875
3058.60005	3892.6875
3060.99345	3876.7875
3063.3854	3881.6875
3065.7759	3871.2875
3068.16494	3876.4875
3070.55254	3862.5875
3072.93868	3853.7875
3075.32338	3856.0875
3077.70662	3845.5875
3080.08842	3840.5875
3082.46878	3841.7875
3084.84769	3821.1875
3087.22515	3815.4875
3089.60118	3829.9875
3091.97576	3819.8875
3094.3489	3837.5875
3096.72061	3828.2875
3099.09087	3822.1875
3101.4597	3828.4875
3103.82709	3826.1875
3106.19305	3806.8875
3108.55757	3814.8875
