Data from AgNP_FTO_APTES_UA_100uM_CRN_5uM_R6G_10uM_NaF_0.1M_Addition_RamanShift__11__14-51-20-365.txt Node

Date: Thu Mar 24 14:51:20 GMT 2022
User: TCL
Spectrometer: QEP01345
Trigger mode: 4
Integration Time (sec): 7.000000E0
Scans to average: 10
Electric dark correction enabled: true
Nonlinearity correction enabled: false
Boxcar width: 0
XAxis mode: Raman Shifts
Number of Pixels in Spectrum: 1044
>>>>>Begin Spectral Data<<<<<
46.04893	-0.625
50.45542	-0.725
54.85868	-0.325
59.25871	0.575
63.6555	26.475
68.04907	26.775
72.43941	27.375
76.82654	25.575
81.21044	30.875
85.59113	31.975
89.96862	35.575
94.34289	33.775
98.71396	34.775
103.08183	36.175
107.4465	37.175
111.80798	39.375
116.16626	38.775
120.52136	38.475
124.87327	38.975
129.222	42.175
133.56755	43.675
137.90993	44.575
142.24913	52.775
146.58517	54.275
150.91804	63.275
155.24774	78.475
159.57429	93.075
163.89768	117.475
168.21792	154.475
172.53501	213.275
176.84895	299.375
181.15975	414.775
185.46741	583.475
189.77193	809.175
194.07331	1091.875
198.37157	1406.075
202.6667	1753.675
206.9587	2084.775
211.24758	2424.475
215.53334	2766.875
219.81599	3120.275
224.09553	3507.575
228.37195	3945.475
232.64527	4450.775
236.91549	4959.675
241.18261	5443.375
245.44663	5892.275
249.70755	6270.675
253.96539	6597.875
258.22014	6857.075
262.4718	7092.175
266.72039	7238.075
270.96589	7327.575
275.20832	7302.175
279.44768	7207.175
283.68397	7088.575
287.91719	6999.175
292.14735	6952.975
296.37445	6972.175
300.59849	7075.975
304.81948	7218.675
309.03742	7342.675
313.25231	7369.675
317.46415	7245.875
321.67296	6971.575
325.87872	6752.575
330.08145	6616.975
334.28114	6635.875
338.47781	6718.475
342.67145	6831.375
346.86207	6996.075
351.04966	7225.075
355.23424	7428.375
359.4158	7664.975
363.59435	7769.675
367.76989	7828.175
371.94243	7836.575
376.11196	7816.775
380.27849	7788.875
384.44203	7811.675
388.60257	7820.575
392.76012	7832.475
396.91468	7925.775
401.06626	8077.375
405.21485	8183.575
409.36047	8118.575
413.50311	7887.275
417.64277	7668.175
421.77947	7537.175
425.9132	7518.575
430.04396	7539.775
434.17176	7551.175
438.2966	7575.275
442.41849	7691.275
446.53742	7809.175
450.6534	7936.075
454.76644	8016.375
458.87653	8046.075
462.98368	8049.375
467.08789	8017.775
471.18916	7919.075
475.2875	7823.875
479.38291	7761.175
483.4754	7653.575
487.56496	7600.075
491.6516	7590.575
495.73531	7597.875
499.81612	7608.075
503.89401	7692.975
507.96899	7726.775
512.04106	7777.575
516.11023	7848.875
520.1765	7874.975
524.23987	7856.575
528.30034	7847.175
532.35792	7789.075
536.41261	7732.575
540.46441	7611.475
544.51333	7593.875
548.55936	7630.275
552.60252	7716.075
556.64279	7834.675
560.6802	7898.275
564.71473	7920.875
568.7464	8007.775
572.7752	8086.975
576.80114	8080.775
580.82422	8094.175
584.84444	8221.575
588.86181	8353.575
592.87633	8445.375
596.888	8558.975
600.89682	8663.075
604.9028	9040.675
608.90594	10343.975
612.90624	12060.275
616.90371	11709.475
620.89834	9329.075
624.89015	8102.075
628.87913	7882.475
632.86528	7981.775
636.84862	8099.475
640.82913	8069.175
644.80683	7857.375
648.78172	7704.875
652.75379	7704.675
656.72306	7844.675
660.68952	8098.075
664.65319	8057.975
668.61405	7853.875
672.57211	7724.775
676.52738	7731.675
680.47986	7752.875
684.42955	7670.975
688.37646	7633.475
692.32058	7647.975
696.26192	7708.575
700.20048	7778.575
704.13626	7828.875
708.06928	7851.675
711.99952	7807.075
715.927	7777.175
719.85171	7795.675
723.77365	7804.275
727.69284	7766.075
731.60928	7727.475
735.52295	7692.275
739.43388	7704.175
743.34206	7730.675
747.24749	7756.975
751.15017	7774.575
755.05012	7840.475
758.94733	8039.875
762.8418	8539.875
766.73354	9423.175
770.62254	10351.775
774.50882	10721.675
778.39237	10387.175
782.27321	9566.375
786.15132	8731.475
790.02671	8182.175
793.89938	7892.475
797.76935	7749.875
801.6366	7695.275
805.50115	7649.375
809.36299	7636.775
813.22213	7602.475
817.07857	7616.075
820.93231	7575.875
824.78336	7575.075
828.63172	7608.175
832.47738	7610.175
836.32036	7569.275
840.16066	7573.875
843.99827	7567.875
847.8332	7580.175
851.66546	7577.075
855.49504	7577.775
859.32195	7566.475
863.1462	7566.575
866.96777	7564.475
870.78668	7576.175
874.60293	7595.775
878.41652	7576.275
882.22745	7622.775
886.03573	7639.575
889.84136	7643.875
893.64433	7633.175
897.44466	7632.375
901.24235	7614.275
905.0374	7585.775
908.8298	7550.575
912.61957	7529.275
916.40671	7533.975
920.19121	7571.975
923.97308	7603.175
927.75233	7683.275
931.52895	7719.475
935.30295	7654.075
939.07433	7528.375
942.84309	7411.975
946.60924	7344.775
950.37278	7301.975
954.13371	7292.075
957.89203	7285.475
961.64774	7277.975
965.40086	7273.575
969.15137	7266.075
972.89929	7260.975
976.64461	7259.575
980.38733	7258.175
984.12747	7236.375
987.86502	7258.775
991.59999	7302.275
995.33237	7321.775
999.06217	7388.875
1002.78939	7471.175
1006.51404	7600.175
1010.23611	7715.475
1013.95561	7769.375
1017.67255	7768.475
1021.38692	7717.475
1025.09872	7652.375
1028.80796	7563.575
1032.51465	7519.875
1036.21877	7516.375
1039.92035	7554.975
1043.61937	7589.875
1047.31584	7647.875
1051.00976	7641.175
1054.70114	7667.375
1058.38998	7686.375
1062.07627	7698.275
1065.76003	7742.475
1069.44126	7824.575
1073.11995	7945.475
1076.79611	8095.075
1080.46974	8199.775
1084.14085	8320.175
1087.80943	8387.775
1091.47549	8467.175
1095.13903	8373.075
1098.80005	8259.275
1102.45857	8110.975
1106.11456	8037.275
1109.76805	8018.775
1113.41903	8031.575
1117.06751	8138.275
1120.71348	8313.775
1124.35696	8524.075
1127.99793	8700.975
1131.63641	8716.675
1135.2724	8545.375
1138.90589	8342.175
1142.5369	8210.175
1146.16542	8114.175
1149.79145	8061.775
1153.415	8025.675
1157.03607	8025.175
1160.65467	8138.675
1164.27079	8322.875
1167.88443	8602.575
1171.49561	9012.775
1175.10432	9659.475
1178.71056	10559.175
1182.31434	11265.475
1185.91565	11578.475
1189.51451	11488.375
1193.11091	11174.375
1196.70485	10694.175
1200.29634	10232.975
1203.88538	9824.475
1207.47197	9373.475
1211.05612	8970.975
1214.63782	8706.675
1218.21708	8597.075
1221.79391	8523.675
1225.36829	8517.275
1228.94024	8500.475
1232.50976	8484.475
1236.07685	8461.575
1239.6415	8445.575
1243.20374	8442.575
1246.76355	8487.975
1250.32093	8512.175
1253.8759	8603.275
1257.42845	8749.875
1260.97859	8960.075
1264.52631	9180.175
1268.07163	9408.975
1271.61453	9625.175
1275.15503	9756.675
1278.69312	9875.275
1282.22882	9953.975
1285.76211	10116.675
1289.29301	10357.975
1292.82151	10569.275
1296.34761	10836.475
1299.87133	11229.875
1303.39266	11814.975
1306.9116	12708.275
1310.42815	13644.675
1313.94233	14108.975
1317.45412	13792.775
1320.96354	13071.175
1324.47058	12428.175
1327.97525	11829.275
1331.47754	11451.675
1334.97747	11266.575
1338.47502	11299.775
1341.97022	11493.475
1345.46305	11860.575
1348.95352	12447.775
1352.44163	13159.375
1355.92738	13980.675
1359.41078	15062.175
1362.89183	16281.675
1366.37053	16116.275
1369.84688	14264.175
1373.32088	12235.675
1376.79254	10909.775
1380.26186	10202.375
1383.72883	9816.775
1387.19347	9495.675
1390.65578	9174.575
1394.11575	8949.575
1397.57339	8817.675
1401.0287	8727.375
1404.48168	8684.575
1407.93234	8662.875
1411.38068	8675.475
1414.82669	8702.475
1418.27039	8661.575
1421.71177	8635.475
1425.15083	8538.575
1428.58758	8453.575
1432.02203	8445.075
1435.45416	8509.975
1438.88399	8561.075
1442.31151	8550.875
1445.73673	8602.675
1449.15965	8623.975
1452.58027	8666.075
1455.9986	8644.675
1459.41463	8670.275
1462.82837	8799.575
1466.23982	8960.075
1469.64898	9142.475
1473.05586	9322.675
1476.46045	9433.575
1479.86276	9559.275
1483.26279	9697.575
1486.66054	9919.375
1490.05602	10196.975
1493.44922	10677.575
1496.84016	11382.875
1500.22882	12414.575
1503.61521	13713.275
1506.99934	15083.875
1510.38121	16053.475
1513.76081	15985.775
1517.13816	14852.175
1520.51324	13238.675
1523.88607	11831.875
1527.25665	10946.175
1530.62498	10406.675
1533.99105	10098.375
1537.35488	9870.075
1540.71647	9682.875
1544.07581	9538.075
1547.4329	9429.875
1550.78776	9343.775
1554.14038	9331.975
1557.49077	9378.575
1560.83892	9485.675
1564.18484	9703.575
1567.52853	9984.975
1570.86999	10264.975
1574.20922	10420.375
1577.54624	10378.375
1580.88103	9961.075
1584.2136	9459.375
1587.54395	9098.175
1590.87208	9108.275
1594.19801	9371.675
1597.52172	9789.975
1600.84321	10005.975
1604.16251	9820.475
1607.47959	9539.475
1610.79447	9167.475
1614.10715	8755.975
1617.41763	8367.975
1620.7259	8059.775
1624.03199	7899.575
1627.33587	7846.675
1630.63757	7949.375
1633.93707	8167.075
1637.23439	8601.275
1640.52951	9314.075
1643.82246	10336.875
1647.11321	11484.475
1650.40179	12259.675
1653.68819	12043.075
1656.97241	10866.175
1660.25446	9494.975
1663.53433	8428.875
1666.81203	7802.575
1670.08756	7447.275
1673.36092	7205.375
1676.63211	7065.475
1679.90115	6960.375
1683.16801	6877.475
1686.43272	6794.375
1689.69527	6753.775
1692.95567	6723.675
1696.2139	6709.075
1699.46999	6704.275
1702.72392	6678.275
1705.97571	6666.875
1709.22535	6614.675
1712.47284	6640.975
1715.71819	6622.475
1718.96139	6588.675
1722.20246	6583.275
1725.44139	6561.175
1728.67818	6539.775
1731.91284	6481.775
1735.14537	6437.775
1738.37576	6427.575
1741.60403	6394.375
1744.83017	6378.275
1748.05418	6384.775
1751.27607	6363.275
1754.49584	6362.375
1757.71349	6343.275
1760.92903	6332.175
1764.14244	6346.475
1767.35375	6312.075
1770.56294	6308.475
1773.77002	6296.975
1776.97499	6275.275
1780.17785	6263.275
1783.37861	6224.875
1786.57727	6201.575
1789.77382	6205.975
1792.96828	6201.875
1796.16064	6180.275
1799.3509	6168.575
1802.53907	6141.175
1805.72514	6130.975
1808.90913	6121.175
1812.09102	6095.075
1815.27083	6087.775
1818.44856	6081.075
1821.6242	6076.775
1824.79776	6070.175
1827.96924	6056.975
1831.13864	6040.475
1834.30597	6046.175
1837.47122	6043.575
1840.6344	6043.875
1843.7955	6025.875
1846.95454	6040.075
1850.11151	6033.175
1853.26642	6031.575
1856.41926	6029.675
1859.57004	6009.475
1862.71876	6001.175
1865.86542	5996.175
1869.01003	6011.875
1872.15258	5976.075
1875.29308	5988.475
1878.43152	5948.675
1881.56792	5944.775
1884.70227	5949.675
1887.83457	5945.475
1890.96482	5920.175
1894.09304	5905.975
1897.21921	5907.275
1900.34335	5908.575
1903.46544	5886.575
1906.58551	5899.475
1909.70353	5881.775
1912.81953	5878.875
1915.93349	5844.475
1919.04543	5866.175
1922.15534	5832.475
1925.26322	5810.175
1928.36908	5809.975
1931.47292	5786.375
1934.57473	5766.875
1937.67453	5756.875
1940.77232	5748.075
1943.86808	5718.175
1946.96184	5713.975
1950.05358	5701.175
1953.14331	5680.075
1956.23103	5671.875
1959.31675	5649.975
1962.40046	5617.275
1965.48217	5623.575
1968.56188	5600.775
1971.63959	5588.675
1974.7153	5567.075
1977.78901	5540.075
1980.86073	5532.175
1983.93046	5517.275
1986.99819	5491.375
1990.06394	5468.275
1993.1277	5465.575
1996.18947	5443.375
1999.24925	5426.475
2002.30706	5389.475
2005.36288	5379.275
2008.41672	5373.075
2011.46859	5354.275
2014.51848	5345.275
2017.56639	5333.975
2020.61233	5305.975
2023.6563	5281.375
2026.6983	5270.175
2029.73833	5265.275
2032.7764	5234.575
2035.8125	5230.975
2038.84664	5217.875
2041.87881	5213.675
2044.90903	5217.975
2047.93729	5185.775
2050.96359	5182.075
2053.98794	5174.775
2057.01034	5180.675
2060.03078	5162.975
2063.04927	5134.675
2066.06582	5160.775
2069.08042	5151.275
2072.09307	5149.275
2075.10378	5143.075
2078.11255	5134.675
2081.11938	5131.975
2084.12426	5135.375
2087.12722	5138.875
2090.12824	5152.775
2093.12732	5147.475
2096.12447	5147.575
2099.11969	5144.075
2102.11299	5137.675
2105.10435	5143.875
2108.09379	5136.675
2111.08131	5138.275
2114.0669	5160.675
2117.05057	5153.775
2120.03233	5158.875
2123.01216	5169.075
2125.99008	5131.975
2128.96609	5156.775
2131.94018	5155.475
2134.91236	5151.475
2137.88263	5176.775
2140.851	5165.975
2143.81746	5162.375
2146.78201	5179.675
2149.74466	5166.475
2152.7054	5188.975
2155.66425	5148.575
2158.6212	5174.975
2161.57625	5157.775
2164.52941	5162.775
2167.48067	5153.875
2170.43004	5162.075
2173.37752	5144.875
2176.32311	5132.075
2179.26681	5144.775
2182.20863	5141.075
2185.14856	5144.975
2188.08661	5125.175
2191.02278	5122.675
2193.95707	5111.775
2196.88948	5109.575
2199.82001	5120.075
2202.74867	5102.075
2205.67545	5089.375
2208.60037	5089.575
2211.52341	5057.975
2214.44458	5076.275
2217.36388	5055.475
2220.28132	5072.475
2223.1969	5049.675
2226.11061	5031.575
2229.02246	5019.575
2231.93245	5014.775
2234.84058	5002.775
2237.74686	4996.375
2240.65128	4982.375
2243.55385	4992.075
2246.45456	4970.375
2249.35343	4980.475
2252.25044	4964.575
2255.14561	4945.675
2258.03893	4943.875
2260.93041	4955.675
2263.82004	4943.675
2266.70783	4932.075
2269.59378	4913.775
2272.4779	4910.875
2275.36017	4894.975
2278.24061	4872.575
2281.11922	4880.575
2283.996	4875.575
2286.87094	4867.575
2289.74405	4837.275
2292.61534	4853.075
2295.4848	4830.175
2298.35243	4831.375
2301.21824	4819.475
2304.08223	4801.775
2306.94439	4816.775
2309.80474	4804.275
2312.66327	4807.675
2315.51999	4797.575
2318.37489	4777.375
2321.22797	4780.975
2324.07925	4781.875
2326.92871	4767.775
2329.77637	4763.775
2332.62222	4760.875
2335.46626	4770.275
2338.3085	4747.175
2341.14893	4748.175
2343.98756	4737.575
2346.8244	4732.075
2349.65943	4732.775
2352.49267	4724.875
2355.32411	4718.875
2358.15376	4725.275
2360.98161	4759.575
2363.80768	4725.975
2366.63195	4730.975
2369.45444	4710.475
2372.27514	4725.175
2375.09405	4726.575
2377.91118	4718.775
2380.72652	4703.675
2383.54009	4691.575
2386.35187	4672.075
2389.16188	4651.275
2391.97011	4637.475
2394.77657	4640.475
2397.58125	4618.375
2400.38416	4605.275
2403.18529	4609.575
2405.98466	4607.075
2408.78226	4594.775
2411.57809	4591.875
2414.37216	4565.175
2417.16446	4561.175
2419.955	4557.375
2422.74378	4563.775
2425.5308	4536.675
2428.31606	4555.975
2431.09956	4551.375
2433.88131	4543.875
2436.6613	4538.275
2439.43954	4522.075
2442.21603	4528.575
2444.99077	4529.475
2447.76377	4546.775
2450.53501	4540.975
2453.30451	4510.775
2456.07226	4521.175
2458.83827	4520.875
2461.60254	4510.875
2464.36507	4505.375
2467.12586	4523.375
2469.88492	4508.175
2472.64224	4517.075
2475.39782	4510.575
2478.15167	4509.975
2480.90379	4502.275
2483.65417	4499.775
2486.40283	4492.375
2489.14976	4513.375
2491.89497	4504.475
2494.63845	4498.975
2497.3802	4499.475
2500.12024	4490.475
2502.85855	4495.075
2505.59514	4471.175
2508.33002	4465.075
2511.06318	4467.175
2513.79462	4452.075
2516.52435	4439.675
2519.25237	4411.175
2521.97867	4422.475
2524.70327	4432.475
2527.42616	4404.375
2530.14734	4408.675
2532.86681	4384.975
2535.58458	4372.075
2538.30065	4371.975
2541.01501	4373.075
2543.72768	4375.575
2546.43864	4373.175
2549.14791	4347.175
2551.85548	4354.475
2554.56136	4340.975
2557.26554	4341.175
2559.96803	4331.475
2562.66883	4314.875
2565.36794	4326.375
2568.06536	4314.775
2570.7611	4318.775
2573.45514	4312.275
2576.14751	4297.375
2578.83819	4292.875
2581.52719	4291.775
2584.21451	4267.775
2586.90015	4260.275
2589.58411	4254.375
2592.2664	4238.675
2594.94701	4225.875
2597.62594	4238.675
2600.30321	4209.675
2602.9788	4219.575
2605.65273	4202.675
2608.32498	4204.275
2610.99557	4207.475
2613.66449	4182.475
2616.33175	4173.375
2618.99734	4183.875
2621.66128	4166.175
2624.32355	4168.475
2626.98416	4166.975
2629.64311	4151.375
2632.30041	4145.475
2634.95605	4152.475
2637.61004	4129.675
2640.26238	4122.675
2642.91306	4144.775
2645.56209	4127.275
2648.20948	4116.375
2650.85521	4118.575
2653.4993	4121.175
2656.14175	4116.175
2658.78255	4120.875
2661.42171	4120.575
2664.05923	4122.275
2666.6951	4110.875
2669.32934	4109.875
2671.96194	4100.475
2674.59291	4109.075
2677.22224	4120.875
2679.84993	4125.475
2682.476	4108.975
2685.10043	4113.275
2687.72324	4089.175
2690.34441	4114.875
2692.96396	4114.775
2695.58188	4110.275
2698.19818	4103.175
2700.81285	4092.375
2703.4259	4109.275
2706.03733	4123.075
2708.64714	4109.975
2711.25533	4112.775
2713.86191	4095.875
2716.46687	4099.575
2719.07021	4103.475
2721.67194	4098.775
2724.27206	4100.175
2726.87057	4102.375
2729.46747	4100.675
2732.06276	4090.875
2734.65644	4087.975
2737.24852	4077.675
2739.83899	4056.475
2742.42786	4083.375
2745.01513	4065.575
2747.60079	4054.175
2750.18486	4057.075
2752.76733	4055.175
2755.3482	4040.775
2757.92747	4055.775
2760.50515	4029.875
2763.08123	4047.575
2765.65573	4011.075
2768.22863	4016.075
2770.79994	4011.775
2773.36967	4010.275
2775.9378	3997.075
2778.50435	3993.175
2781.06932	3990.775
2783.6327	3985.975
2786.1945	3973.575
2788.75471	3972.775
2791.31335	3971.575
2793.87041	3961.175
2796.42589	3938.275
2798.97979	3946.475
2801.53212	3929.875
2804.08288	3950.975
2806.63206	3921.775
2809.17967	3931.775
2811.72571	3922.775
2814.27018	3925.875
2816.81308	3917.875
2819.35442	3901.575
2821.89419	3901.475
2824.43239	3903.275
2826.96904	3882.475
2829.50412	3890.175
2832.03763	3880.475
2834.56959	3879.175
2837.1	3866.975
2839.62884	3874.475
2842.15613	3857.475
2844.68186	3882.075
2847.20604	3871.975
2849.72867	3865.275
2852.24974	3857.775
2854.76927	3865.075
2857.28724	3844.775
2859.80367	3853.675
2862.31855	3845.575
2864.83189	3851.675
2867.34368	3860.275
2869.85393	3858.575
2872.36264	3847.775
2874.8698	3864.575
2877.37543	3859.275
2879.87952	3858.075
2882.38207	3845.175
2884.88308	3840.975
2887.38256	3832.875
2889.88051	3836.875
2892.37692	3831.175
2894.8718	3819.875
2897.36515	3822.375
2899.85698	3832.475
2902.34727	3837.075
2904.83604	3833.475
2907.32328	3837.475
2909.809	3837.475
2912.29319	3825.775
2914.77587	3837.975
2917.25702	3832.575
2919.73665	3833.375
2922.21476	3821.775
2924.69136	3823.375
2927.16644	3828.575
2929.64	3828.575
2932.11205	3803.375
2934.58258	3795.775
2937.05161	3802.075
2939.51912	3814.175
2941.98513	3797.275
2944.44962	3784.175
2946.91261	3782.075
2949.37409	3795.075
2951.83407	3795.475
2954.29254	3787.175
2956.74951	3783.275
2959.20498	3756.875
2961.65895	3774.275
2964.11142	3757.175
2966.56239	3753.975
2969.01186	3748.775
2971.45984	3741.075
2973.90632	3734.075
2976.35131	3721.475
2978.7948	3713.175
2981.23681	3719.975
2983.67732	3715.575
2986.11635	3712.475
2988.55388	3706.175
2990.98993	3707.175
2993.4245	3697.475
2995.85758	3686.275
2998.28917	3673.475
3000.71928	3688.175
3003.14791	3667.875
3005.57506	3663.875
3008.00073	3664.775
3010.42493	3663.075
3012.84764	3653.675
3015.26888	3659.875
3017.68865	3650.275
3020.10694	3651.775
3022.52376	3632.375
3024.9391	3634.575
3027.35298	3642.275
3029.76539	3624.475
3032.17632	3605.475
3034.5858	3597.375
3036.9938	3614.775
3039.40034	3596.175
3041.80542	3589.575
3044.20903	3578.975
3046.61118	3580.775
3049.01187	3571.075
3051.4111	3569.575
3053.80888	3577.075
3056.20519	3561.775
3058.60005	3564.275
3060.99345	3564.075
3063.3854	3542.075
3065.7759	3545.275
3068.16494	3549.075
3070.55254	3544.275
3072.93868	3534.775
3075.32338	3522.375
3077.70662	3515.375
3080.08842	3513.475
3082.46878	3515.575
3084.84769	3507.975
3087.22515	3512.975
3089.60118	3505.675
3091.97576	3514.775
3094.3489	3509.375
3096.72061	3501.875
3099.09087	3522.775
3101.4597	3511.275
3103.82709	3504.675
3106.19305	3509.875
3108.55757	3508.575
3110.92066	3498.875
3113.28232	3507.575
3115.64255	3486.675
3118.00134	3492.075
3120.35871	3490.575
3122.71466	3485.475
3125.06917	3481.275
3127.42226	3476.375
3129.77393	3491.275
3132.12417	3479.175
3134.47299	3488.975
3136.82039	3490.275
3139.16636	3497.875
3141.51092	3509.375
3143.85406	3507.275
3146.19579	3512.175
3148.53609	3513.475
3150.87499	3521.375
3153.21246	3507.575
3155.54853	3530.775
3157.88318	3510.975
3160.21642	3513.175
3162.54826	3531.175
3164.87868	3531.475
3167.2077	3519.275
3169.5353	3528.775
3171.86151	3520.375
3174.18631	3531.175
3176.5097	3518.975
3178.83169	3523.975
3181.15228	3537.075
3183.47147	3520.375
3185.78926	3523.275
3188.10565	3525.575
3190.42065	3512.275
3192.73424	3514.775
3195.04645	3516.575
3197.35725	3532.875
3199.66667	3536.075
3201.97469	3545.375
3204.28132	3547.475
3206.58656	3543.475
3208.8904	3545.475
3211.19287	3561.175
3213.49394	3555.275
3215.79363	3558.975
3218.09193	3543.475
3220.38884	3550.975
3222.68438	3537.275
3224.97853	3545.275
3227.2713	3548.975
3229.56269	3534.675
