Data from AgNP_FTO_APTES_UA_100uM_CRN_5uM_R6G_10uM_NaF_0.1M_Addition_RamanShift__25__15-07-40-383.txt Node

Date: Thu Mar 24 15:07:40 GMT 2022
User: TCL
Spectrometer: QEP01345
Trigger mode: 4
Integration Time (sec): 7.000000E0
Scans to average: 10
Electric dark correction enabled: true
Nonlinearity correction enabled: false
Boxcar width: 0
XAxis mode: Raman Shifts
Number of Pixels in Spectrum: 1044
>>>>>Begin Spectral Data<<<<<
46.04893	-0.7625
50.45542	0.4375
54.85868	-0.0625
59.25871	0.0375
63.6555	33.6375
68.04907	33.8375
72.43941	33.6375
76.82654	33.6375
81.21044	39.1375
85.59113	39.3375
89.96862	42.8375
94.34289	39.5375
98.71396	46.0375
103.08183	44.4375
107.4465	47.1375
111.80798	46.7375
116.16626	49.8375
120.52136	51.5375
124.87327	46.4375
129.222	50.0375
133.56755	58.0375
137.90993	57.3375
142.24913	68.6375
146.58517	74.6375
150.91804	88.3375
155.24774	102.6375
159.57429	128.6375
163.89768	168.2375
168.21792	226.5375
172.53501	312.2375
176.84895	433.1375
181.15975	611.7375
185.46741	853.4375
189.77193	1190.0375
194.07331	1586.5375
198.37157	2071.1375
202.6667	2592.1375
206.9587	3124.2375
211.24758	3670.8375
215.53334	4291.7375
219.81599	5002.4375
224.09553	5809.3375
228.37195	6732.9375
232.64527	7712.0375
236.91549	8610.6375
241.18261	9316.8375
245.44663	9795.6375
249.70755	10125.7375
253.96539	10408.9375
258.22014	10717.8375
262.4718	10977.1375
266.72039	11105.5375
270.96589	11059.0375
275.20832	10780.9375
279.44768	10381.4375
283.68397	10000.6375
287.91719	9826.0375
292.14735	9924.0375
296.37445	10412.2375
300.59849	11257.7375
304.81948	12311.8375
309.03742	13181.4375
313.25231	13435.7375
317.46415	12716.9375
321.67296	11304.6375
325.87872	10006.1375
330.08145	9355.4375
334.28114	9309.5375
338.47781	9566.5375
342.67145	9966.6375
346.86207	10612.5375
351.04966	11629.6375
355.23424	12825.3375
359.4158	13680.0375
363.59435	13945.9375
367.76989	13878.1375
371.94243	13551.5375
376.11196	13229.3375
380.27849	12902.2375
384.44203	12482.1375
388.60257	12122.4375
392.76012	11913.5375
396.91468	11966.8375
401.06626	12376.4375
405.21485	12672.1375
409.36047	12189.7375
413.50311	11096.4375
417.64277	9981.6375
421.77947	9360.8375
425.9132	9060.4375
430.04396	8963.1375
434.17176	8991.4375
438.2966	9160.4375
442.41849	9511.3375
446.53742	9926.7375
450.6534	10296.1375
454.76644	10469.2375
458.87653	10349.9375
462.98368	10090.9375
467.08789	9786.3375
471.18916	9413.3375
475.2875	9032.4375
479.38291	8720.8375
483.4754	8475.1375
487.56496	8308.4375
491.6516	8209.8375
495.73531	8193.4375
499.81612	8247.2375
503.89401	8439.0375
507.96899	8645.0375
512.04106	8931.5375
516.11023	9249.4375
520.1765	9474.3375
524.23987	9514.8375
528.30034	9388.7375
532.35792	9200.7375
536.41261	8963.3375
540.46441	8590.1375
544.51333	8365.1375
548.55936	8426.8375
552.60252	8778.3375
556.64279	9222.6375
560.6802	9443.7375
564.71473	9812.5375
568.7464	10606.1375
572.7752	10969.0375
576.80114	10113.8375
580.82422	9263.0375
584.84444	9001.0375
588.86181	9052.1375
592.87633	9251.2375
596.888	9512.1375
600.89682	9961.4375
604.9028	12074.3375
608.90594	18107.7375
612.90624	26320.3375
616.90371	25431.0375
620.89834	15106.0375
624.89015	9912.9375
628.87913	9008.1375
632.86528	9281.1375
636.84862	9624.5375
640.82913	9276.0375
644.80683	8405.0375
648.78172	7780.2375
652.75379	7817.2375
656.72306	8486.3375
660.68952	9388.7375
664.65319	9179.8375
668.61405	8181.3375
672.57211	7681.9375
676.52738	7640.6375
680.47986	7600.4375
684.42955	7425.0375
688.37646	7306.6375
692.32058	7316.0375
696.26192	7447.4375
700.20048	7647.1375
704.13626	7788.3375
708.06928	7741.0375
711.99952	7667.2375
715.927	7629.6375
719.85171	7764.9375
723.77365	7855.2375
727.69284	7775.4375
731.60928	7666.6375
735.52295	7631.2375
739.43388	7686.2375
743.34206	7741.9375
747.24749	7770.8375
751.15017	7767.5375
755.05012	8025.7375
758.94733	8910.3375
762.8418	11121.6375
766.73354	14829.7375
770.62254	18232.1375
774.50882	19749.5375
778.39237	18618.9375
782.27321	15066.7375
786.15132	11359.7375
790.02671	9140.6375
793.89938	8189.3375
797.76935	7785.9375
801.6366	7631.5375
805.50115	7532.5375
809.36299	7497.1375
813.22213	7446.9375
817.07857	7397.0375
820.93231	7405.0375
824.78336	7458.1375
828.63172	7556.4375
832.47738	7598.0375
836.32036	7514.0375
840.16066	7369.2375
843.99827	7317.0375
847.8332	7293.5375
851.66546	7259.5375
855.49504	7247.7375
859.32195	7246.5375
863.1462	7188.2375
866.96777	7136.4375
870.78668	7155.2375
874.60293	7174.4375
878.41652	7254.2375
882.22745	7377.8375
886.03573	7462.3375
889.84136	7445.1375
893.64433	7374.8375
897.44466	7369.4375
901.24235	7352.4375
905.0374	7303.3375
908.8298	7191.1375
912.61957	7086.2375
916.40671	7083.6375
920.19121	7161.5375
923.97308	7325.3375
927.75233	7636.3375
931.52895	7952.2375
935.30295	7833.1375
939.07433	7363.0375
942.84309	7032.5375
946.60924	6853.6375
950.37278	6739.7375
954.13371	6617.9375
957.89203	6554.3375
961.64774	6523.6375
965.40086	6491.6375
969.15137	6461.3375
972.89929	6439.3375
976.64461	6447.4375
980.38733	6457.1375
984.12747	6475.1375
987.86502	6514.4375
991.59999	6596.8375
995.33237	6726.5375
999.06217	6994.7375
1002.78939	7318.9375
1006.51404	7643.7375
1010.23611	7912.4375
1013.95561	7970.4375
1017.67255	7895.2375
1021.38692	7714.2375
1025.09872	7508.9375
1028.80796	7412.7375
1032.51465	7531.1375
1036.21877	7709.9375
1039.92035	7826.1375
1043.61937	7827.8375
1047.31584	7789.4375
1051.00976	7670.2375
1054.70114	7541.7375
1058.38998	7459.1375
1062.07627	7424.9375
1065.76003	7428.8375
1069.44126	7497.8375
1073.11995	7676.5375
1076.79611	7939.2375
1080.46974	8367.9375
1084.14085	8963.3375
1087.80943	9524.5375
1091.47549	9646.4375
1095.13903	9257.9375
1098.80005	8653.1375
1102.45857	8203.5375
1106.11456	8149.6375
1109.76805	8362.7375
1113.41903	8892.7375
1117.06751	9725.5375
1120.71348	10857.8375
1124.35696	12104.1375
1127.99793	12815.5375
1131.63641	12170.3375
1135.2724	10785.3375
1138.90589	9691.8375
1142.5369	9060.6375
1146.16542	8640.7375
1149.79145	8390.5375
1153.415	8327.7375
1157.03607	8455.2375
1160.65467	8802.0375
1164.27079	9384.2375
1167.88443	10329.4375
1171.49561	11859.7375
1175.10432	14292.0375
1178.71056	17595.3375
1182.31434	20084.2375
1185.91565	20560.7375
1189.51451	19520.0375
1193.11091	17531.7375
1196.70485	15426.7375
1200.29634	13930.7375
1203.88538	12780.5375
1207.47197	11389.7375
1211.05612	10232.3375
1214.63782	9528.8375
1218.21708	9273.0375
1221.79391	9255.3375
1225.36829	9364.3375
1228.94024	9317.9375
1232.50976	9173.5375
1236.07685	9063.6375
1239.6415	9004.7375
1243.20374	9083.3375
1246.76355	9222.7375
1250.32093	9392.3375
1253.8759	9712.8375
1257.42845	10247.4375
1260.97859	10902.8375
1264.52631	11641.6375
1268.07163	12326.0375
1271.61453	12819.3375
1275.15503	13117.0375
1278.69312	13244.8375
1282.22882	13484.4375
1285.76211	14177.4375
1289.29301	15018.4375
1292.82151	15802.2375
1296.34761	16664.8375
1299.87133	18199.1375
1303.39266	21040.4375
1306.9116	25643.1375
1310.42815	30546.9375
1313.94233	32398.7375
1317.45412	29858.2375
1320.96354	25397.5375
1324.47058	21187.5375
1327.97525	17992.8375
1331.47754	16108.8375
1334.97747	15423.4375
1338.47502	15615.5375
1341.97022	16660.9375
1345.46305	18564.2375
1348.95352	21298.9375
1352.44163	24633.4375
1355.92738	29489.8375
1359.41078	37082.1375
1362.89183	43355.8375
1366.37053	39900.8375
1369.84688	29899.6375
1373.32088	21977.2375
1376.79254	17705.6375
1380.26186	15461.7375
1383.72883	14002.0375
1387.19347	12938.2375
1390.65578	11951.5375
1394.11575	11282.5375
1397.57339	10996.4375
1401.0287	10942.3375
1404.48168	10946.9375
1407.93234	10953.6375
1411.38068	11120.8375
1414.82669	11279.2375
1418.27039	11397.7375
1421.71177	11206.0375
1425.15083	10928.8375
1428.58758	10909.3375
1432.02203	11296.1375
1435.45416	11589.1375
1438.88399	11574.7375
1442.31151	11481.6375
1445.73673	11513.9375
1449.15965	11595.3375
1452.58027	11511.9375
1455.9986	11274.6375
1459.41463	11167.5375
1462.82837	11394.6375
1466.23982	11883.7375
1469.64898	12383.8375
1473.05586	12650.6375
1476.46045	12752.1375
1479.86276	12993.8375
1483.26279	13436.8375
1486.66054	14200.7375
1490.05602	15333.4375
1493.44922	16987.4375
1496.84016	19649.8375
1500.22882	23854.6375
1503.61521	29843.5375
1506.99934	36861.5375
1510.38121	42214.8375
1513.76081	42735.4375
1517.13816	37286.5375
1520.51324	29173.9375
1523.88607	22489.6375
1527.25665	18387.5375
1530.62498	16174.2375
1533.99105	14829.7375
1537.35488	13945.2375
1540.71647	13454.6375
1544.07581	13205.4375
1547.4329	13163.7375
1550.78776	13294.0375
1554.14038	13518.6375
1557.49077	13912.8375
1560.83892	14524.0375
1564.18484	15491.0375
1567.52853	16590.9375
1570.86999	17375.2375
1574.20922	17786.5375
1577.54624	17475.9375
1580.88103	15797.1375
1584.2136	13612.9375
1587.54395	12330.3375
1590.87208	12288.3375
1594.19801	13340.0375
1597.52172	14931.9375
1600.84321	15739.2375
1604.16251	15107.0375
1607.47959	13905.5375
1610.79447	12608.8375
1614.10715	11296.4375
1617.41763	10209.3375
1620.7259	9493.1375
1624.03199	9221.9375
1627.33587	9300.1375
1630.63757	9749.3375
1633.93707	10643.9375
1637.23439	12204.2375
1640.52951	14853.5375
1643.82246	19003.6375
1647.11321	24108.6375
1650.40179	27404.3375
1653.68819	25941.1375
1656.97241	20535.2375
1660.25446	15034.7375
1663.53433	11454.0375
1666.81203	9497.7375
1670.08756	8416.2375
1673.36092	7799.7375
1676.63211	7395.2375
1679.90115	7133.6375
1683.16801	6947.9375
1686.43272	6792.5375
1689.69527	6692.3375
1692.95567	6621.5375
1696.2139	6601.3375
1699.46999	6586.8375
1702.72392	6531.4375
1705.97571	6511.4375
1709.22535	6506.2375
1712.47284	6493.9375
1715.71819	6516.1375
1718.96139	6495.0375
1722.20246	6462.6375
1725.44139	6400.2375
1728.67818	6308.5375
1731.91284	6193.6375
1735.14537	6124.3375
1738.37576	6104.3375
1741.60403	6068.8375
1744.83017	6025.8375
1748.05418	5983.4375
1751.27607	5974.3375
1754.49584	5953.5375
1757.71349	5923.8375
1760.92903	5908.5375
1764.14244	5901.5375
1767.35375	5863.6375
1770.56294	5829.9375
1773.77002	5793.3375
1776.97499	5724.2375
1780.17785	5702.1375
1783.37861	5663.3375
1786.57727	5662.8375
1789.77382	5629.6375
1792.96828	5618.6375
1796.16064	5615.4375
1799.3509	5597.1375
1802.53907	5593.4375
1805.72514	5553.9375
1808.90913	5527.7375
1812.09102	5518.4375
1815.27083	5476.0375
1818.44856	5468.7375
1821.6242	5445.8375
1824.79776	5443.4375
1827.96924	5432.1375
1831.13864	5421.4375
1834.30597	5412.6375
1837.47122	5399.5375
1840.6344	5371.3375
1843.7955	5362.2375
1846.95454	5357.0375
1850.11151	5349.4375
1853.26642	5337.4375
1856.41926	5332.6375
1859.57004	5328.6375
1862.71876	5347.6375
1865.86542	5354.1375
1869.01003	5353.4375
1872.15258	5344.0375
1875.29308	5341.0375
1878.43152	5348.9375
1881.56792	5356.8375
1884.70227	5364.3375
1887.83457	5345.6375
1890.96482	5334.8375
1894.09304	5330.9375
1897.21921	5322.5375
1900.34335	5311.8375
1903.46544	5335.1375
1906.58551	5328.2375
1909.70353	5346.0375
1912.81953	5338.3375
1915.93349	5318.8375
1919.04543	5311.9375
1922.15534	5298.3375
1925.26322	5266.5375
1928.36908	5251.6375
1931.47292	5225.6375
1934.57473	5189.0375
1937.67453	5149.7375
1940.77232	5134.9375
1943.86808	5119.9375
1946.96184	5113.5375
1950.05358	5112.9375
1953.14331	5085.5375
1956.23103	5075.3375
1959.31675	5061.5375
1962.40046	5068.0375
1965.48217	5065.7375
1968.56188	5044.2375
1971.63959	5055.5375
1974.7153	5056.4375
1977.78901	5025.7375
1980.86073	4993.3375
1983.93046	4964.1375
1986.99819	4928.3375
1990.06394	4899.2375
1993.1277	4874.1375
1996.18947	4844.8375
1999.24925	4838.8375
2002.30706	4810.0375
2005.36288	4786.6375
2008.41672	4768.0375
2011.46859	4773.7375
2014.51848	4763.9375
2017.56639	4744.4375
2020.61233	4723.5375
2023.6563	4718.6375
2026.6983	4713.3375
2029.73833	4707.3375
2032.7764	4686.4375
2035.8125	4677.4375
2038.84664	4667.5375
2041.87881	4659.0375
2044.90903	4674.0375
2047.93729	4647.3375
2050.96359	4660.8375
2053.98794	4632.3375
2057.01034	4613.1375
2060.03078	4617.9375
2063.04927	4601.2375
2066.06582	4595.7375
2069.08042	4579.3375
2072.09307	4568.2375
2075.10378	4572.2375
2078.11255	4566.1375
2081.11938	4599.4375
2084.12426	4559.6375
2087.12722	4586.2375
2090.12824	4576.2375
2093.12732	4573.0375
2096.12447	4587.9375
2099.11969	4574.6375
2102.11299	4580.0375
2105.10435	4584.0375
2108.09379	4579.5375
2111.08131	4585.4375
2114.0669	4601.6375
2117.05057	4609.2375
2120.03233	4613.3375
2123.01216	4633.6375
2125.99008	4631.3375
2128.96609	4645.0375
2131.94018	4638.3375
2134.91236	4634.9375
2137.88263	4623.3375
2140.851	4624.9375
2143.81746	4607.7375
2146.78201	4613.4375
2149.74466	4596.4375
2152.7054	4589.9375
2155.66425	4581.2375
2158.6212	4591.2375
2161.57625	4568.8375
2164.52941	4559.8375
2167.48067	4564.8375
2170.43004	4566.3375
2173.37752	4587.5375
2176.32311	4573.8375
2179.26681	4585.6375
2182.20863	4589.1375
2185.14856	4573.0375
2188.08661	4568.2375
2191.02278	4570.2375
2193.95707	4543.4375
2196.88948	4550.7375
2199.82001	4552.5375
2202.74867	4554.6375
2205.67545	4542.9375
2208.60037	4544.2375
2211.52341	4533.0375
2214.44458	4536.4375
2217.36388	4534.5375
2220.28132	4531.2375
2223.1969	4509.8375
2226.11061	4484.6375
2229.02246	4480.7375
2231.93245	4478.4375
2234.84058	4459.7375
2237.74686	4449.4375
2240.65128	4451.2375
2243.55385	4460.7375
2246.45456	4452.1375
2249.35343	4463.7375
2252.25044	4457.1375
2255.14561	4480.1375
2258.03893	4491.2375
2260.93041	4496.3375
2263.82004	4495.8375
2266.70783	4501.7375
2269.59378	4477.6375
2272.4779	4476.6375
2275.36017	4452.7375
2278.24061	4441.0375
2281.11922	4440.6375
2283.996	4424.2375
2286.87094	4421.4375
2289.74405	4392.1375
2292.61534	4386.5375
2295.4848	4373.2375
2298.35243	4363.2375
2301.21824	4352.6375
2304.08223	4355.7375
2306.94439	4358.8375
2309.80474	4370.6375
2312.66327	4368.7375
2315.51999	4358.8375
2318.37489	4375.8375
2321.22797	4373.0375
2324.07925	4371.8375
2326.92871	4356.7375
2329.77637	4373.6375
2332.62222	4361.1375
2335.46626	4365.0375
2338.3085	4366.7375
2341.14893	4371.2375
2343.98756	4382.2375
2346.8244	4400.7375
2349.65943	4409.5375
2352.49267	4416.3375
2355.32411	4441.9375
2358.15376	4460.6375
2360.98161	4468.9375
2363.80768	4478.3375
2366.63195	4505.8375
2369.45444	4492.6375
2372.27514	4505.1375
2375.09405	4471.9375
2377.91118	4453.7375
2380.72652	4427.8375
2383.54009	4404.9375
2386.35187	4398.6375
2389.16188	4353.4375
2391.97011	4349.3375
2394.77657	4314.6375
2397.58125	4307.5375
2400.38416	4294.2375
2403.18529	4270.5375
2405.98466	4264.8375
2408.78226	4238.8375
2411.57809	4234.1375
2414.37216	4211.8375
2417.16446	4209.3375
2419.955	4207.3375
2422.74378	4211.7375
2425.5308	4215.4375
2428.31606	4231.3375
2431.09956	4217.6375
2433.88131	4237.6375
2436.6613	4258.7375
2439.43954	4249.9375
2442.21603	4254.3375
2444.99077	4254.6375
2447.76377	4289.1375
2450.53501	4278.4375
2453.30451	4286.3375
2456.07226	4297.6375
2458.83827	4286.4375
2461.60254	4278.0375
2464.36507	4278.4375
2467.12586	4289.6375
2469.88492	4281.0375
2472.64224	4303.0375
2475.39782	4303.6375
2478.15167	4322.6375
2480.90379	4341.5375
2483.65417	4362.0375
2486.40283	4383.2375
2489.14976	4411.8375
2491.89497	4424.5375
2494.63845	4429.7375
2497.3802	4411.3375
2500.12024	4407.7375
2502.85855	4379.0375
2505.59514	4355.9375
2508.33002	4315.9375
2511.06318	4304.4375
2513.79462	4269.4375
2516.52435	4234.9375
2519.25237	4198.3375
2521.97867	4202.7375
2524.70327	4174.6375
2527.42616	4158.8375
2530.14734	4170.8375
2532.86681	4157.3375
2535.58458	4152.2375
2538.30065	4155.8375
2541.01501	4169.4375
2543.72768	4182.3375
2546.43864	4179.4375
2549.14791	4178.5375
2551.85548	4185.9375
2554.56136	4178.1375
2557.26554	4185.1375
2559.96803	4173.2375
2562.66883	4171.7375
2565.36794	4178.5375
2568.06536	4195.1375
2570.7611	4175.8375
2573.45514	4156.5375
2576.14751	4158.5375
2578.83819	4146.8375
2581.52719	4130.5375
2584.21451	4130.5375
2586.90015	4117.6375
2589.58411	4121.8375
2592.2664	4106.4375
2594.94701	4112.4375
2597.62594	4102.6375
2600.30321	4104.7375
2602.9788	4104.1375
2605.65273	4118.1375
2608.32498	4123.4375
2610.99557	4103.7375
2613.66449	4112.9375
2616.33175	4121.1375
2618.99734	4123.0375
2621.66128	4117.6375
2624.32355	4140.7375
2626.98416	4142.7375
2629.64311	4115.5375
2632.30041	4107.5375
2634.95605	4107.2375
2637.61004	4089.3375
2640.26238	4081.9375
2642.91306	4077.3375
2645.56209	4060.3375
2648.20948	4058.6375
2650.85521	4058.6375
2653.4993	4057.7375
2656.14175	4059.7375
2658.78255	4064.6375
2661.42171	4072.0375
2664.05923	4089.7375
2666.6951	4104.8375
2669.32934	4117.0375
2671.96194	4120.4375
2674.59291	4117.7375
2677.22224	4121.1375
2679.84993	4118.0375
2682.476	4125.4375
2685.10043	4102.3375
2687.72324	4099.2375
2690.34441	4120.1375
2692.96396	4106.1375
2695.58188	4098.9375
2698.19818	4098.2375
2700.81285	4087.3375
2703.4259	4087.3375
2706.03733	4095.0375
2708.64714	4106.1375
2711.25533	4115.5375
2713.86191	4110.6375
2716.46687	4114.6375
2719.07021	4123.8375
2721.67194	4116.6375
2724.27206	4113.9375
2726.87057	4109.3375
2729.46747	4098.6375
2732.06276	4093.9375
2734.65644	4090.7375
2737.24852	4066.5375
2739.83899	4062.5375
2742.42786	4058.3375
2745.01513	4033.5375
2747.60079	4046.1375
2750.18486	4034.9375
2752.76733	4026.2375
2755.3482	4034.4375
2757.92747	4018.8375
2760.50515	4010.3375
2763.08123	4011.1375
2765.65573	4006.0375
2768.22863	4008.0375
2770.79994	3998.1375
2773.36967	4011.9375
2775.9378	3993.8375
2778.50435	4016.1375
2781.06932	4009.8375
2783.6327	4008.1375
2786.1945	4001.3375
2788.75471	4006.6375
2791.31335	3991.3375
2793.87041	3994.6375
2796.42589	4009.3375
2798.97979	4010.4375
2801.53212	4003.9375
2804.08288	4019.1375
2806.63206	4032.1375
2809.17967	4035.1375
2811.72571	4036.8375
2814.27018	4071.0375
2816.81308	4065.6375
2819.35442	4081.6375
2821.89419	4076.4375
2824.43239	4108.3375
2826.96904	4104.2375
2829.50412	4103.8375
2832.03763	4087.2375
2834.56959	4090.8375
2837.1	4092.9375
2839.62884	4078.9375
2842.15613	4076.0375
2844.68186	4087.4375
2847.20604	4083.8375
2849.72867	4088.9375
2852.24974	4098.9375
2854.76927	4118.0375
2857.28724	4108.8375
2859.80367	4118.1375
2862.31855	4136.8375
2864.83189	4170.4375
2867.34368	4174.8375
2869.85393	4184.6375
2872.36264	4203.2375
2874.8698	4200.9375
2877.37543	4214.7375
2879.87952	4195.2375
2882.38207	4184.2375
2884.88308	4185.6375
2887.38256	4173.5375
2889.88051	4138.9375
2892.37692	4142.9375
2894.8718	4148.6375
2897.36515	4151.4375
2899.85698	4150.6375
2902.34727	4156.5375
2904.83604	4142.4375
2907.32328	4143.3375
2909.809	4128.2375
2912.29319	4131.0375
2914.77587	4122.5375
2917.25702	4100.6375
2919.73665	4099.7375
2922.21476	4072.9375
2924.69136	4066.3375
2927.16644	4065.8375
2929.64	4061.3375
2932.11205	4030.8375
2934.58258	4029.7375
2937.05161	4033.9375
2939.51912	4038.4375
2941.98513	4033.2375
2944.44962	4019.0375
2946.91261	4014.5375
2949.37409	4039.1375
2951.83407	4017.0375
2954.29254	4027.3375
2956.74951	4008.5375
2959.20498	4023.9375
2961.65895	4001.8375
2964.11142	3996.9375
2966.56239	4001.5375
2969.01186	3983.8375
2971.45984	3981.7375
2973.90632	3957.8375
2976.35131	3938.9375
2978.7948	3931.1375
2981.23681	3906.7375
2983.67732	3917.9375
2986.11635	3899.5375
2988.55388	3882.2375
2990.98993	3875.1375
2993.4245	3887.7375
2995.85758	3903.8375
2998.28917	3895.4375
3000.71928	3888.3375
3003.14791	3893.7375
3005.57506	3875.8375
3008.00073	3893.9375
3010.42493	3906.3375
3012.84764	3899.0375
3015.26888	3882.0375
3017.68865	3887.9375
3020.10694	3891.9375
3022.52376	3868.2375
3024.9391	3866.0375
3027.35298	3841.0375
3029.76539	3849.5375
3032.17632	3811.0375
3034.5858	3815.6375
3036.9938	3788.4375
3039.40034	3767.7375
3041.80542	3758.0375
3044.20903	3752.5375
3046.61118	3743.8375
3049.01187	3721.2375
3051.4111	3724.2375
3053.80888	3727.2375
3056.20519	3714.8375
3058.60005	3706.9375
3060.99345	3705.3375
3063.3854	3686.3375
3065.7759	3673.5375
3068.16494	3682.6375
3070.55254	3670.4375
3072.93868	3666.7375
3075.32338	3653.2375
3077.70662	3656.2375
3080.08842	3645.4375
3082.46878	3636.9375
3084.84769	3627.4375
3087.22515	3638.8375
3089.60118	3613.5375
3091.97576	3604.5375
3094.3489	3598.4375
3096.72061	3616.5375
3099.09087	3613.2375
3101.4597	3604.7375
3103.82709	3614.0375
