Data from AgNP_FTO_APTES_UA_100uM_CRN_20uM_R6G_10uM_NaF_0.1M_Addition_RamanShift__17__16-45-40-495.txt Node

Date: Thu Mar 24 16:45:40 GMT 2022
User: TCL
Spectrometer: QEP01345
Trigger mode: 4
Integration Time (sec): 7.000000E0
Scans to average: 10
Electric dark correction enabled: true
Nonlinearity correction enabled: false
Boxcar width: 0
XAxis mode: Raman Shifts
Number of Pixels in Spectrum: 1044
>>>>>Begin Spectral Data<<<<<
46.04893	-1.325
50.45542	-0.025
54.85868	-0.025
59.25871	-0.925
63.6555	40.675
68.04907	43.675
72.43941	46.975
76.82654	46.175
81.21044	51.375
85.59113	52.075
89.96862	52.075
94.34289	53.675
98.71396	59.775
103.08183	56.875
107.4465	60.675
111.80798	60.175
116.16626	63.175
120.52136	65.975
124.87327	66.375
129.222	74.575
133.56755	75.275
137.90993	81.875
142.24913	91.175
146.58517	99.875
150.91804	119.375
155.24774	147.975
159.57429	180.575
163.89768	231.475
168.21792	313.275
172.53501	434.475
176.84895	609.275
181.15975	858.675
185.46741	1203.375
189.77193	1676.775
194.07331	2262.775
198.37157	2922.875
202.6667	3620.875
206.9587	4320.275
211.24758	5027.175
215.53334	5731.275
219.81599	6513.175
224.09553	7374.375
228.37195	8336.375
232.64527	9415.575
236.91549	10484.775
241.18261	11502.375
245.44663	12410.375
249.70755	13169.575
253.96539	13783.375
258.22014	14321.075
262.4718	14767.675
266.72039	15098.475
270.96589	15264.975
275.20832	15257.775
279.44768	15121.275
283.68397	14928.275
287.91719	14777.375
292.14735	14738.675
296.37445	14847.675
300.59849	15136.875
304.81948	15519.375
309.03742	15745.475
313.25231	15712.475
317.46415	15353.875
321.67296	14756.675
325.87872	14166.775
330.08145	13869.075
334.28114	13867.875
338.47781	13981.375
342.67145	14233.975
346.86207	14572.875
351.04966	15018.175
355.23424	15505.575
359.4158	15869.875
363.59435	16112.475
367.76989	16233.675
371.94243	16213.275
376.11196	16239.275
380.27849	16216.475
384.44203	16222.475
388.60257	16221.875
392.76012	16256.975
396.91468	16427.775
401.06626	16685.775
405.21485	16867.075
409.36047	16645.475
413.50311	16137.775
417.64277	15600.075
421.77947	15317.675
425.9132	15225.475
430.04396	15290.075
434.17176	15372.575
438.2966	15504.875
442.41849	15724.675
446.53742	16143.075
450.6534	16487.075
454.76644	16739.775
458.87653	16764.575
462.98368	16694.475
467.08789	16545.575
471.18916	16339.975
475.2875	16060.675
479.38291	15857.075
483.4754	15621.275
487.56496	15493.075
491.6516	15412.875
495.73531	15345.175
499.81612	15303.475
503.89401	15402.075
507.96899	15507.575
512.04106	15602.075
516.11023	15644.775
520.1765	15695.375
524.23987	15687.075
528.30034	15600.975
532.35792	15534.775
536.41261	15363.875
540.46441	15137.075
544.51333	15063.775
548.55936	15203.775
552.60252	15491.175
556.64279	15772.575
560.6802	15988.775
564.71473	16033.875
568.7464	16307.975
572.7752	16610.475
576.80114	16658.575
580.82422	16676.975
584.84444	16774.475
588.86181	16983.175
592.87633	17156.275
596.888	17315.975
600.89682	17453.775
604.9028	18448.675
608.90594	21488.975
612.90624	25317.375
616.90371	24008.075
620.89834	18523.275
624.89015	15973.975
628.87913	15571.275
632.86528	15815.275
636.84862	16081.975
640.82913	15912.675
644.80683	15385.475
648.78172	14952.375
652.75379	14897.875
656.72306	15200.975
660.68952	15690.475
664.65319	15563.275
668.61405	15067.675
672.57211	14888.875
676.52738	14976.475
680.47986	14929.175
684.42955	14788.475
688.37646	14646.275
692.32058	14708.775
696.26192	14848.275
700.20048	15002.775
704.13626	15155.675
708.06928	15135.775
711.99952	15003.375
715.927	14956.975
719.85171	15047.475
723.77365	15074.675
727.69284	15012.375
731.60928	14896.475
735.52295	14836.375
739.43388	14874.875
743.34206	14924.675
747.24749	14935.875
751.15017	14987.575
755.05012	15180.175
758.94733	15684.775
762.8418	16880.975
766.73354	19042.775
770.62254	21146.475
774.50882	21958.475
778.39237	20915.675
782.27321	18853.375
786.15132	16875.875
790.02671	15701.475
793.89938	15067.775
797.76935	14803.375
801.6366	14687.375
805.50115	14575.375
809.36299	14514.675
813.22213	14480.775
817.07857	14456.375
820.93231	14397.975
824.78336	14403.475
828.63172	14397.275
832.47738	14372.975
836.32036	14321.175
840.16066	14310.775
843.99827	14325.575
847.8332	14266.775
851.66546	14296.475
855.49504	14291.375
859.32195	14320.775
863.1462	14285.375
866.96777	14294.975
870.78668	14295.775
874.60293	14319.575
878.41652	14359.575
882.22745	14422.175
886.03573	14497.675
889.84136	14500.275
893.64433	14412.575
897.44466	14376.075
901.24235	14295.075
905.0374	14243.875
908.8298	14204.275
912.61957	14144.675
916.40671	14152.475
920.19121	14276.375
923.97308	14407.675
927.75233	14435.675
931.52895	14472.275
935.30295	14321.175
939.07433	14031.675
942.84309	13822.475
946.60924	13697.275
950.37278	13628.075
954.13371	13608.175
957.89203	13595.575
961.64774	13573.175
965.40086	13565.375
969.15137	13548.175
972.89929	13485.675
976.64461	13456.675
980.38733	13461.675
984.12747	13500.375
987.86502	13542.275
991.59999	13610.375
995.33237	13715.475
999.06217	13907.775
1002.78939	14112.775
1006.51404	14396.675
1010.23611	14678.375
1013.95561	14829.175
1017.67255	14808.075
1021.38692	14641.775
1025.09872	14458.775
1028.80796	14247.775
1032.51465	14189.075
1036.21877	14232.375
1039.92035	14339.675
1043.61937	14380.275
1047.31584	14436.075
1051.00976	14456.775
1054.70114	14492.175
1058.38998	14486.175
1062.07627	14586.775
1065.76003	14681.175
1069.44126	14829.975
1073.11995	15041.775
1076.79611	15315.275
1080.46974	15483.375
1084.14085	15741.975
1087.80943	15952.275
1091.47549	16065.575
1095.13903	15937.975
1098.80005	15667.875
1102.45857	15362.875
1106.11456	15194.875
1109.76805	15205.275
1113.41903	15363.175
1117.06751	15641.375
1120.71348	16052.975
1124.35696	16466.675
1127.99793	16858.275
1131.63641	16831.275
1135.2724	16426.475
1138.90589	16043.575
1142.5369	15761.375
1146.16542	15580.175
1149.79145	15445.075
1153.415	15397.275
1157.03607	15493.375
1160.65467	15762.775
1164.27079	16271.375
1167.88443	17013.075
1171.49561	18124.375
1175.10432	19735.775
1178.71056	21850.375
1182.31434	23654.675
1185.91565	24314.275
1189.51451	23946.375
1193.11091	23022.875
1196.70485	21853.975
1200.29634	20756.675
1203.88538	19777.475
1207.47197	18812.975
1211.05612	17998.475
1214.63782	17335.475
1218.21708	17037.375
1221.79391	16927.975
1225.36829	16911.375
1228.94024	16860.575
1232.50976	16690.375
1236.07685	16555.875
1239.6415	16481.275
1243.20374	16479.475
1246.76355	16585.275
1250.32093	16680.275
1253.8759	16946.975
1257.42845	17361.375
1260.97859	17829.375
1264.52631	18365.175
1268.07163	18942.175
1271.61453	19387.875
1275.15503	19742.375
1278.69312	20001.875
1282.22882	20250.475
1285.76211	20703.475
1289.29301	21299.375
1292.82151	22002.575
1296.34761	22777.375
1299.87133	23965.375
1303.39266	25536.875
1306.9116	27721.675
1310.42815	29902.375
1313.94233	30900.175
1317.45412	30130.875
1320.96354	28654.475
1324.47058	27102.075
1327.97525	25741.175
1331.47754	24730.875
1334.97747	24284.475
1338.47502	24302.275
1341.97022	24736.575
1345.46305	25575.975
1348.95352	26782.175
1352.44163	28200.975
1355.92738	30222.775
1359.41078	33124.075
1362.89183	35718.675
1366.37053	34793.875
1369.84688	30352.275
1373.32088	25737.375
1376.79254	22953.375
1380.26186	21527.075
1383.72883	20765.175
1387.19347	20275.575
1390.65578	19680.275
1394.11575	19218.575
1397.57339	18938.875
1401.0287	18808.175
1404.48168	18786.175
1407.93234	18689.875
1411.38068	18597.675
1414.82669	18444.075
1418.27039	18199.975
1421.71177	17863.075
1425.15083	17473.075
1428.58758	17282.175
1432.02203	17338.575
1435.45416	17587.675
1438.88399	17808.875
1442.31151	17943.575
1445.73673	18097.075
1449.15965	18226.675
1452.58027	18275.975
1455.9986	18304.275
1459.41463	18353.075
1462.82837	18629.575
1466.23982	19083.275
1469.64898	19529.975
1473.05586	19948.875
1476.46045	20219.775
1479.86276	20453.075
1483.26279	20650.175
1486.66054	20963.575
1490.05602	21535.375
1493.44922	22438.375
1496.84016	23796.875
1500.22882	25813.875
1503.61521	28580.575
1506.99934	31383.875
1510.38121	33254.475
1513.76081	33001.275
1517.13816	30628.075
1520.51324	27316.475
1523.88607	24541.975
1527.25665	22864.075
1530.62498	21975.875
1533.99105	21440.575
1537.35488	21037.875
1540.71647	20568.775
1544.07581	20101.175
1547.4329	19743.275
1550.78776	19429.675
1554.14038	19304.675
1557.49077	19409.975
1560.83892	19625.975
1564.18484	20164.175
1567.52853	20731.775
1570.86999	21244.875
1574.20922	21625.175
1577.54624	21469.075
1580.88103	20593.375
1584.2136	19493.175
1587.54395	18913.275
1590.87208	19062.775
1594.19801	19914.775
1597.52172	21033.875
1600.84321	21490.875
1604.16251	20956.275
1607.47959	19959.275
1610.79447	18826.975
1614.10715	17678.975
1617.41763	16630.975
1620.7259	15844.975
1624.03199	15443.475
1627.33587	15380.275
1630.63757	15623.675
1633.93707	16322.175
1637.23439	17529.175
1640.52951	19524.475
1643.82246	22265.475
1647.11321	25047.775
1650.40179	26559.875
1653.68819	25384.175
1656.97241	22262.475
1660.25446	18918.775
1663.53433	16525.775
1666.81203	15035.875
1670.08756	14123.275
1673.36092	13579.475
1676.63211	13201.075
1679.90115	12972.375
1683.16801	12794.175
1686.43272	12643.875
1689.69527	12537.975
1692.95567	12421.575
1696.2139	12377.075
1699.46999	12318.875
1702.72392	12259.375
1705.97571	12223.075
1709.22535	12207.175
1712.47284	12203.875
1715.71819	12172.475
1718.96139	12134.475
1722.20246	12080.275
1725.44139	12025.775
1728.67818	11945.675
1731.91284	11868.275
1735.14537	11796.975
1738.37576	11747.775
1741.60403	11700.675
1744.83017	11673.275
1748.05418	11626.375
1751.27607	11606.175
1754.49584	11564.975
1757.71349	11536.875
1760.92903	11526.275
1764.14244	11532.175
1767.35375	11502.075
1770.56294	11437.075
1773.77002	11414.175
1776.97499	11377.475
1780.17785	11378.075
1783.37861	11342.975
1786.57727	11319.375
1789.77382	11280.175
1792.96828	11279.775
1796.16064	11251.475
1799.3509	11232.275
1802.53907	11220.375
1805.72514	11174.875
1808.90913	11157.975
1812.09102	11097.375
1815.27083	11094.375
1818.44856	11046.675
1821.6242	11041.075
1824.79776	11002.675
1827.96924	10978.275
1831.13864	10970.375
1834.30597	10945.375
1837.47122	10929.275
1840.6344	10904.775
1843.7955	10886.875
1846.95454	10873.875
1850.11151	10861.175
1853.26642	10870.175
1856.41926	10874.275
1859.57004	10834.375
1862.71876	10817.575
1865.86542	10800.175
1869.01003	10831.775
1872.15258	10778.275
1875.29308	10798.675
1878.43152	10759.775
1881.56792	10770.375
1884.70227	10757.475
1887.83457	10758.675
1890.96482	10734.175
1894.09304	10709.975
1897.21921	10688.675
1900.34335	10703.475
1903.46544	10678.375
1906.58551	10663.975
1909.70353	10674.375
1912.81953	10628.275
1915.93349	10642.075
1919.04543	10574.775
1922.15534	10534.775
1925.26322	10532.475
1928.36908	10510.975
1931.47292	10474.575
1934.57473	10468.775
1937.67453	10453.975
1940.77232	10451.675
1943.86808	10389.075
1946.96184	10361.775
1950.05358	10315.175
1953.14331	10269.075
1956.23103	10244.175
1959.31675	10207.375
1962.40046	10203.675
1965.48217	10195.175
1968.56188	10163.975
1971.63959	10131.975
1974.7153	10130.275
1977.78901	10060.775
1980.86073	10038.475
1983.93046	9979.175
1986.99819	9960.775
1990.06394	9917.475
1993.1277	9888.675
1996.18947	9858.375
1999.24925	9830.675
2002.30706	9780.475
2005.36288	9759.675
2008.41672	9715.175
2011.46859	9694.675
2014.51848	9644.475
2017.56639	9645.175
2020.61233	9611.475
2023.6563	9585.475
2026.6983	9547.275
2029.73833	9523.275
2032.7764	9499.175
2035.8125	9471.575
2038.84664	9466.975
2041.87881	9443.175
2044.90903	9397.975
2047.93729	9384.375
2050.96359	9388.575
2053.98794	9357.775
2057.01034	9344.875
2060.03078	9333.275
2063.04927	9326.275
2066.06582	9294.675
2069.08042	9312.175
2072.09307	9292.275
2075.10378	9295.775
2078.11255	9278.875
2081.11938	9315.875
2084.12426	9270.075
2087.12722	9281.575
2090.12824	9273.975
2093.12732	9282.075
2096.12447	9287.075
2099.11969	9275.675
2102.11299	9290.175
2105.10435	9288.475
2108.09379	9290.175
2111.08131	9317.875
2114.0669	9298.475
2117.05057	9300.175
2120.03233	9310.875
2123.01216	9317.675
2125.99008	9321.475
2128.96609	9330.375
2131.94018	9331.375
2134.91236	9307.975
2137.88263	9331.775
2140.851	9328.375
2143.81746	9350.975
2146.78201	9315.675
2149.74466	9332.975
2152.7054	9294.175
2155.66425	9298.375
2158.6212	9287.875
2161.57625	9273.275
2164.52941	9282.475
2167.48067	9275.075
2170.43004	9278.575
2173.37752	9270.675
2176.32311	9259.075
2179.26681	9273.275
2182.20863	9251.575
2185.14856	9256.675
2188.08661	9269.775
2191.02278	9234.975
2193.95707	9238.675
2196.88948	9223.575
2199.82001	9230.975
2202.74867	9200.975
2205.67545	9181.575
2208.60037	9195.375
2211.52341	9198.175
2214.44458	9161.775
2217.36388	9109.575
2220.28132	9124.375
2223.1969	9086.575
2226.11061	9069.975
2229.02246	9035.075
2231.93245	9036.275
2234.84058	9030.375
2237.74686	9008.575
2240.65128	9012.475
2243.55385	9026.275
2246.45456	8964.775
2249.35343	8952.075
2252.25044	8953.575
2255.14561	8968.875
2258.03893	8952.375
2260.93041	8916.375
2263.82004	8898.075
2266.70783	8879.975
2269.59378	8872.175
2272.4779	8864.175
2275.36017	8851.675
2278.24061	8800.875
2281.11922	8797.475
2283.996	8801.375
2286.87094	8786.075
2289.74405	8728.575
2292.61534	8721.675
2295.4848	8704.875
2298.35243	8700.875
2301.21824	8681.475
2304.08223	8682.875
2306.94439	8713.175
2309.80474	8680.575
2312.66327	8680.275
2315.51999	8670.275
2318.37489	8644.975
2321.22797	8651.775
2324.07925	8617.375
2326.92871	8630.475
2329.77637	8619.875
2332.62222	8588.575
2335.46626	8573.475
2338.3085	8554.275
2341.14893	8543.475
2343.98756	8559.475
2346.8244	8559.575
2349.65943	8546.475
2352.49267	8550.675
2355.32411	8559.475
2358.15376	8576.675
2360.98161	8577.275
2363.80768	8580.375
2366.63195	8575.375
2369.45444	8581.175
2372.27514	8556.475
2375.09405	8538.775
2377.91118	8543.475
2380.72652	8492.875
2383.54009	8478.275
2386.35187	8456.875
2389.16188	8423.275
2391.97011	8416.575
2394.77657	8381.675
2397.58125	8362.175
2400.38416	8338.975
2403.18529	8314.775
2405.98466	8314.675
2408.78226	8307.375
2411.57809	8269.275
2414.37216	8280.875
2417.16446	8279.275
2419.955	8282.675
2422.74378	8255.275
2425.5308	8256.375
2428.31606	8228.075
2431.09956	8248.775
2433.88131	8251.275
2436.6613	8238.675
2439.43954	8215.175
2442.21603	8205.175
2444.99077	8195.775
2447.76377	8190.175
2450.53501	8205.475
2453.30451	8201.575
2456.07226	8197.675
2458.83827	8196.175
2461.60254	8194.575
2464.36507	8197.675
2467.12586	8177.275
2469.88492	8171.475
2472.64224	8178.075
2475.39782	8185.775
2478.15167	8171.175
2480.90379	8196.175
2483.65417	8192.075
2486.40283	8196.375
2489.14976	8183.975
2491.89497	8217.975
2494.63845	8212.775
2497.3802	8193.075
2500.12024	8172.575
2502.85855	8177.775
2505.59514	8171.375
2508.33002	8124.075
2511.06318	8105.875
2513.79462	8098.975
2516.52435	8092.775
2519.25237	8045.175
2521.97867	8043.775
2524.70327	8043.575
2527.42616	8029.675
2530.14734	8019.275
2532.86681	8021.175
2535.58458	8015.175
2538.30065	7976.875
2541.01501	7969.575
2543.72768	7966.775
2546.43864	7971.075
2549.14791	7946.375
2551.85548	7934.575
2554.56136	7927.775
2557.26554	7902.675
2559.96803	7890.075
2562.66883	7900.875
2565.36794	7886.275
2568.06536	7866.275
2570.7611	7848.575
2573.45514	7847.975
2576.14751	7833.175
2578.83819	7815.275
2581.52719	7820.075
2584.21451	7825.375
2586.90015	7807.375
2589.58411	7776.275
2592.2664	7775.275
2594.94701	7769.475
2597.62594	7750.475
2600.30321	7726.975
2602.9788	7725.975
2605.65273	7718.575
2608.32498	7713.375
2610.99557	7693.275
2613.66449	7697.375
2616.33175	7681.075
2618.99734	7707.175
2621.66128	7677.475
2624.32355	7679.775
2626.98416	7660.175
2629.64311	7642.675
2632.30041	7641.075
2634.95605	7630.475
2637.61004	7626.975
2640.26238	7613.575
2642.91306	7617.875
2645.56209	7622.375
2648.20948	7614.275
2650.85521	7606.575
2653.4993	7608.675
2656.14175	7591.375
2658.78255	7616.675
2661.42171	7612.275
2664.05923	7625.175
2666.6951	7621.075
2669.32934	7603.675
2671.96194	7630.275
2674.59291	7638.475
2677.22224	7623.575
2679.84993	7603.075
2682.476	7591.075
2685.10043	7586.375
2687.72324	7569.275
2690.34441	7563.975
2692.96396	7589.975
2695.58188	7608.775
2698.19818	7582.775
2700.81285	7597.075
2703.4259	7603.975
2706.03733	7587.275
2708.64714	7579.575
2711.25533	7600.975
2713.86191	7589.475
2716.46687	7623.575
2719.07021	7597.475
2721.67194	7611.775
2724.27206	7597.975
2726.87057	7605.875
2729.46747	7604.575
2732.06276	7600.575
2734.65644	7566.275
2737.24852	7578.975
2739.83899	7572.475
2742.42786	7560.775
2745.01513	7546.575
2747.60079	7507.475
2750.18486	7526.375
2752.76733	7515.475
2755.3482	7503.575
2757.92747	7506.775
2760.50515	7492.075
2763.08123	7464.375
2765.65573	7483.675
2768.22863	7492.375
2770.79994	7483.875
2773.36967	7464.775
2775.9378	7458.875
2778.50435	7444.175
2781.06932	7437.075
2783.6327	7431.175
2786.1945	7413.775
2788.75471	7431.275
2791.31335	7423.375
2793.87041	7411.575
2796.42589	7397.375
2798.97979	7401.775
2801.53212	7343.175
2804.08288	7337.475
2806.63206	7347.275
2809.17967	7354.375
2811.72571	7329.275
2814.27018	7320.575
2816.81308	7316.075
2819.35442	7309.175
2821.89419	7299.675
2824.43239	7298.275
2826.96904	7287.175
2829.50412	7267.975
2832.03763	7262.875
2834.56959	7257.675
2837.1	7250.175
2839.62884	7259.475
2842.15613	7259.575
2844.68186	7244.075
2847.20604	7265.975
2849.72867	7278.375
2852.24974	7264.675
2854.76927	7280.275
2857.28724	7262.475
2859.80367	7243.275
2862.31855	7261.475
2864.83189	7245.575
2867.34368	7251.875
2869.85393	7231.075
2872.36264	7215.775
2874.8698	7239.075
2877.37543	7232.375
2879.87952	7224.875
2882.38207	7210.375
2884.88308	7213.775
2887.38256	7208.375
2889.88051	7210.375
2892.37692	7207.475
2894.8718	7204.375
2897.36515	7218.375
2899.85698	7208.775
2902.34727	7227.175
2904.83604	7204.775
2907.32328	7241.475
2909.809	7228.975
2912.29319	7234.575
2914.77587	7235.375
2917.25702	7231.575
2919.73665	7224.175
2922.21476	7226.675
2924.69136	7211.075
2927.16644	7206.475
2929.64	7198.075
2932.11205	7196.275
2934.58258	7160.275
2937.05161	7158.375
2939.51912	7164.975
2941.98513	7115.375
2944.44962	7099.375
2946.91261	7084.375
2949.37409	7102.975
2951.83407	7077.275
2954.29254	7098.375
2956.74951	7104.475
2959.20498	7090.375
2961.65895	7086.475
2964.11142	7076.375
2966.56239	7078.075
2969.01186	7063.875
2971.45984	7053.375
2973.90632	7048.875
2976.35131	7018.175
2978.7948	6992.175
2981.23681	6982.075
2983.67732	6983.575
2986.11635	6962.375
2988.55388	6957.575
2990.98993	6940.575
2993.4245	6936.975
2995.85758	6908.975
2998.28917	6896.475
3000.71928	6891.775
3003.14791	6883.975
3005.57506	6874.675
3008.00073	6848.175
3010.42493	6875.375
3012.84764	6845.675
3015.26888	6842.375
3017.68865	6842.775
3020.10694	6820.175
3022.52376	6814.375
3024.9391	6798.675
3027.35298	6778.675
3029.76539	6776.775
3032.17632	6737.875
3034.5858	6747.775
3036.9938	6727.075
3039.40034	6723.275
3041.80542	6738.875
3044.20903	6708.175
3046.61118	6717.775
3049.01187	6713.075
3051.4111	6683.375
3053.80888	6664.775
3056.20519	6677.075
3058.60005	6669.475
3060.99345	6646.875
3063.3854	6619.875
3065.7759	6611.475
3068.16494	6603.275
3070.55254	6595.475
3072.93868	6564.475
3075.32338	6562.075
3077.70662	6544.175
3080.08842	6537.675
3082.46878	6532.975
3084.84769	6525.975
3087.22515	6534.175
3089.60118	6526.775
3091.97576	6513.775
3094.3489	6516.275
3096.72061	6538.275
3099.09087	6529.275
3101.4597	6513.475
3103.82709	6513.575
3106.19305	6511.175
3108.55757	6516.275
3110.92066	6495.675
3113.28232	6493.075
3115.64255	6453.775
3118.00134	6452.575
3120.35871	6444.475
3122.71466	6433.575
3125.06917	6420.675
3127.42226	6426.175
3129.77393	6396.875
3132.12417	6416.275
3134.47299	6415.475
3136.82039	6403.175
3139.16636	6401.975
3141.51092	6393.875
3143.85406	6399.075
3146.19579	6412.675
3148.53609	6385.675
3150.87499	6409.975
3153.21246	6401.775
3155.54853	6427.175
3157.88318	6439.075
3160.21642	6442.875
3162.54826	6430.375
3164.87868	6413.975
3167.2077	6408.275
3169.5353	6399.075
3171.86151	6415.475
3174.18631	6397.575
3176.5097	6412.575
3178.83169	6395.975
