Data from AgNP_FTO_APTES_UA_100uM_CRN_2uM_R6G_10uM_NaF_0.1M_Addition_RamanShift__4__13-49-30-293.txt Node

Date: Thu Mar 24 13:49:30 GMT 2022
User: TCL
Spectrometer: QEP01345
Trigger mode: 4
Integration Time (sec): 7.000000E0
Scans to average: 10
Electric dark correction enabled: true
Nonlinearity correction enabled: false
Boxcar width: 0
XAxis mode: Raman Shifts
Number of Pixels in Spectrum: 1044
>>>>>Begin Spectral Data<<<<<
46.04893	-2.1875
50.45542	0.1125
54.85868	-0.2875
59.25871	0.8125
63.6555	40.7125
68.04907	45.2125
72.43941	41.3125
76.82654	48.7125
81.21044	49.0125
85.59113	50.2125
89.96862	53.8125
94.34289	54.5125
98.71396	56.8125
103.08183	55.5125
107.4465	57.6125
111.80798	63.7125
116.16626	61.3125
120.52136	65.4125
124.87327	68.0125
129.222	69.9125
133.56755	77.2125
137.90993	80.3125
142.24913	95.8125
146.58517	106.2125
150.91804	117.5125
155.24774	140.5125
159.57429	169.6125
163.89768	224.0125
168.21792	305.6125
172.53501	413.6125
176.84895	575.8125
181.15975	810.0125
185.46741	1148.6125
189.77193	1569.1125
194.07331	2103.3125
198.37157	2720.2125
202.6667	3370.4125
206.9587	4026.0125
211.24758	4682.6125
215.53334	5363.0125
219.81599	6122.3125
224.09553	6961.9125
228.37195	7915.3125
232.64527	8922.1125
236.91549	9967.3125
241.18261	10885.4125
245.44663	11639.1125
249.70755	12212.7125
253.96539	12703.8125
258.22014	13068.9125
262.4718	13424.4125
266.72039	13678.9125
270.96589	13770.4125
275.20832	13740.1125
279.44768	13603.3125
283.68397	13481.3125
287.91719	13413.0125
292.14735	13439.4125
296.37445	13595.6125
300.59849	13915.2125
304.81948	14343.1125
309.03742	14723.7125
313.25231	14840.5125
317.46415	14535.1125
321.67296	13864.4125
325.87872	13228.8125
330.08145	12885.7125
334.28114	12827.7125
338.47781	12927.5125
342.67145	13162.5125
346.86207	13547.9125
351.04966	13986.1125
355.23424	14460.7125
359.4158	14760.8125
363.59435	14889.0125
367.76989	14838.3125
371.94243	14728.3125
376.11196	14635.3125
380.27849	14557.3125
384.44203	14543.7125
388.60257	14574.9125
392.76012	14617.0125
396.91468	14797.8125
401.06626	15050.8125
405.21485	15215.9125
409.36047	14961.9125
413.50311	14360.4125
417.64277	13851.3125
421.77947	13637.1125
425.9132	13629.9125
430.04396	13723.7125
434.17176	13799.6125
438.2966	14006.6125
442.41849	14336.7125
446.53742	14907.7125
450.6534	15525.9125
454.76644	15924.7125
458.87653	15881.9125
462.98368	15680.8125
467.08789	15378.2125
471.18916	15064.3125
475.2875	14705.1125
479.38291	14436.6125
483.4754	14206.4125
487.56496	13980.9125
491.6516	13731.1125
495.73531	13520.2125
499.81612	13376.9125
503.89401	13446.3125
507.96899	13541.2125
512.04106	13547.7125
516.11023	13516.0125
520.1765	13424.0125
524.23987	13416.1125
528.30034	13337.3125
532.35792	13238.9125
536.41261	12965.8125
540.46441	12633.9125
544.51333	12525.3125
548.55936	12675.3125
552.60252	13087.9125
556.64279	13643.3125
560.6802	14091.5125
564.71473	14368.7125
568.7464	14968.6125
572.7752	15806.1125
576.80114	16227.2125
580.82422	16420.9125
584.84444	16734.0125
588.86181	17428.4125
592.87633	18413.2125
596.888	18745.2125
600.89682	17959.8125
604.9028	17859.7125
608.90594	20392.0125
612.90624	23834.7125
616.90371	22424.7125
620.89834	16416.2125
624.89015	13451.7125
628.87913	12989.0125
632.86528	13253.0125
636.84862	13439.2125
640.82913	13144.2125
644.80683	12451.4125
648.78172	12003.5125
652.75379	11951.8125
656.72306	12358.0125
660.68952	12861.7125
664.65319	12689.7125
668.61405	12124.5125
672.57211	11866.2125
676.52738	11897.4125
680.47986	11877.9125
684.42955	11699.4125
688.37646	11602.6125
692.32058	11666.9125
696.26192	11827.7125
700.20048	12087.7125
704.13626	12267.7125
708.06928	12311.1125
711.99952	12286.3125
715.927	12272.4125
719.85171	12307.7125
723.77365	12269.6125
727.69284	12064.9125
731.60928	11899.2125
735.52295	11853.2125
739.43388	11954.5125
743.34206	12022.6125
747.24749	12146.4125
751.15017	12304.9125
755.05012	12584.1125
758.94733	13307.4125
762.8418	14816.9125
766.73354	17437.2125
770.62254	19766.5125
774.50882	20287.0125
778.39237	18760.4125
782.27321	16402.5125
786.15132	14290.4125
790.02671	12961.9125
793.89938	12265.7125
797.76935	11923.7125
801.6366	11742.0125
805.50115	11629.1125
809.36299	11544.2125
813.22213	11483.7125
817.07857	11474.5125
820.93231	11435.7125
824.78336	11374.4125
828.63172	11380.8125
832.47738	11362.2125
836.32036	11323.7125
840.16066	11286.7125
843.99827	11252.2125
847.8332	11251.5125
851.66546	11258.1125
855.49504	11281.2125
859.32195	11249.2125
863.1462	11183.7125
866.96777	11131.0125
870.78668	11101.9125
874.60293	11132.4125
878.41652	11153.9125
882.22745	11265.3125
886.03573	11318.0125
889.84136	11294.7125
893.64433	11262.0125
897.44466	11216.4125
901.24235	11162.7125
905.0374	11089.8125
908.8298	11017.8125
912.61957	11006.6125
916.40671	11095.6125
920.19121	11312.7125
923.97308	11562.7125
927.75233	11617.2125
931.52895	11534.7125
935.30295	11228.7125
939.07433	10821.0125
942.84309	10542.6125
946.60924	10380.3125
950.37278	10291.8125
954.13371	10299.7125
957.89203	10295.9125
961.64774	10313.5125
965.40086	10289.3125
969.15137	10284.5125
972.89929	10259.0125
976.64461	10197.2125
980.38733	10166.8125
984.12747	10188.9125
987.86502	10255.1125
991.59999	10317.0125
995.33237	10480.2125
999.06217	10736.6125
1002.78939	11132.7125
1006.51404	11584.0125
1010.23611	11971.4125
1013.95561	12161.8125
1017.67255	12096.6125
1021.38692	11815.6125
1025.09872	11348.7125
1028.80796	11012.6125
1032.51465	10917.3125
1036.21877	10972.6125
1039.92035	11089.9125
1043.61937	11211.0125
1047.31584	11243.9125
1051.00976	11292.7125
1054.70114	11312.3125
1058.38998	11351.4125
1062.07627	11452.4125
1065.76003	11616.6125
1069.44126	11828.8125
1073.11995	12144.9125
1076.79611	12419.9125
1080.46974	12660.1125
1084.14085	12952.0125
1087.80943	13282.3125
1091.47549	13467.7125
1095.13903	13441.6125
1098.80005	13003.5125
1102.45857	12472.3125
1106.11456	12166.4125
1109.76805	12089.5125
1113.41903	12250.6125
1117.06751	12569.2125
1120.71348	13019.4125
1124.35696	13580.3125
1127.99793	14025.7125
1131.63641	14020.1125
1135.2724	13586.4125
1138.90589	13185.6125
1142.5369	13037.5125
1146.16542	13027.8125
1149.79145	13111.0125
1153.415	13263.5125
1157.03607	13460.7125
1160.65467	13837.7125
1164.27079	14527.8125
1167.88443	15604.8125
1171.49561	17245.5125
1175.10432	19651.2125
1178.71056	22652.2125
1182.31434	24986.0125
1185.91565	25443.4125
1189.51451	24539.1125
1193.11091	23135.7125
1196.70485	21582.3125
1200.29634	20161.7125
1203.88538	19007.3125
1207.47197	17947.1125
1211.05612	17060.8125
1214.63782	16561.5125
1218.21708	16282.5125
1221.79391	16243.0125
1225.36829	16372.3125
1228.94024	16271.0125
1232.50976	15788.9125
1236.07685	15170.1125
1239.6415	14748.8125
1243.20374	14641.9125
1246.76355	14719.9125
1250.32093	14923.1125
1253.8759	15282.8125
1257.42845	15850.3125
1260.97859	16537.8125
1264.52631	17309.2125
1268.07163	18041.4125
1271.61453	18680.4125
1275.15503	19274.2125
1278.69312	19830.2125
1282.22882	20617.1125
1285.76211	21702.9125
1289.29301	23126.4125
1292.82151	24734.8125
1296.34761	26485.1125
1299.87133	28643.1125
1303.39266	31205.4125
1306.9116	34123.4125
1310.42815	36862.2125
1313.94233	38163.5125
1317.45412	37314.6125
1320.96354	35224.4125
1324.47058	33132.4125
1327.97525	31331.7125
1331.47754	29883.3125
1334.97747	28910.9125
1338.47502	28291.1125
1341.97022	28113.8125
1345.46305	28368.0125
1348.95352	29060.6125
1352.44163	30355.8125
1355.92738	32608.3125
1359.41078	36300.5125
1362.89183	39963.4125
1366.37053	39512.6125
1369.84688	34418.0125
1373.32088	28579.0125
1376.79254	24933.8125
1380.26186	23406.1125
1383.72883	22802.4125
1387.19347	22303.7125
1390.65578	21902.1125
1394.11575	21656.5125
1397.57339	21639.0125
1401.0287	21725.4125
1404.48168	21669.3125
1407.93234	21287.0125
1411.38068	20654.5125
1414.82669	19921.1125
1418.27039	19108.4125
1421.71177	18242.7125
1425.15083	17439.8125
1428.58758	17070.0125
1432.02203	17285.8125
1435.45416	17827.9125
1438.88399	18310.2125
1442.31151	18628.9125
1445.73673	18938.6125
1449.15965	19233.3125
1452.58027	19341.2125
1455.9986	19317.6125
1459.41463	19424.6125
1462.82837	19762.1125
1466.23982	20320.4125
1469.64898	20883.0125
1473.05586	21371.5125
1476.46045	21644.9125
1479.86276	21830.9125
1483.26279	21963.0125
1486.66054	22291.7125
1490.05602	22962.8125
1493.44922	23976.5125
1496.84016	25302.7125
1500.22882	27208.0125
1503.61521	29729.7125
1506.99934	32420.4125
1510.38121	34380.8125
1513.76081	34359.2125
1517.13816	32091.0125
1520.51324	28837.5125
1523.88607	26199.6125
1527.25665	24737.4125
1530.62498	24039.5125
1533.99105	23641.6125
1537.35488	23015.7125
1540.71647	22161.9125
1544.07581	21219.8125
1547.4329	20290.7125
1550.78776	19517.8125
1554.14038	19111.9125
1557.49077	18997.1125
1560.83892	19198.6125
1564.18484	19759.0125
1567.52853	20504.2125
1570.86999	21159.9125
1574.20922	21719.0125
1577.54624	21737.4125
1580.88103	20906.2125
1584.2136	20033.4125
1587.54395	19880.4125
1590.87208	20726.9125
1594.19801	22337.2125
1597.52172	24139.5125
1600.84321	24730.5125
1604.16251	23397.1125
1607.47959	21104.7125
1610.79447	18818.8125
1614.10715	16742.3125
1617.41763	15165.7125
1620.7259	14123.7125
1624.03199	13643.2125
1627.33587	13670.2125
1630.63757	14193.6125
1633.93707	15444.2125
1637.23439	17695.7125
1640.52951	21361.5125
1643.82246	26235.7125
1647.11321	30924.8125
1650.40179	32826.6125
1653.68819	30539.8125
1656.97241	25172.8125
1660.25446	19739.9125
1663.53433	15810.3125
1666.81203	13421.7125
1670.08756	12018.4125
1673.36092	11195.6125
1676.63211	10679.8125
1679.90115	10315.1125
1683.16801	10094.8125
1686.43272	9881.9125
1689.69527	9736.1125
1692.95567	9625.2125
1696.2139	9554.9125
1699.46999	9472.2125
1702.72392	9418.8125
1705.97571	9370.1125
1709.22535	9337.8125
1712.47284	9308.5125
1715.71819	9285.1125
1718.96139	9239.1125
1722.20246	9213.9125
1725.44139	9138.4125
1728.67818	8990.0125
1731.91284	8913.0125
1735.14537	8826.1125
1738.37576	8764.1125
1741.60403	8728.3125
1744.83017	8685.0125
1748.05418	8617.5125
1751.27607	8619.1125
1754.49584	8592.7125
1757.71349	8577.2125
1760.92903	8565.2125
1764.14244	8540.1125
1767.35375	8502.8125
1770.56294	8473.9125
1773.77002	8442.2125
1776.97499	8399.4125
1780.17785	8394.6125
1783.37861	8346.0125
1786.57727	8319.8125
1789.77382	8283.8125
1792.96828	8278.9125
1796.16064	8242.1125
1799.3509	8211.9125
1802.53907	8186.7125
1805.72514	8156.4125
1808.90913	8143.2125
1812.09102	8098.7125
1815.27083	8076.0125
1818.44856	8061.6125
1821.6242	8014.9125
1824.79776	8020.6125
1827.96924	7982.3125
1831.13864	7975.4125
1834.30597	7967.6125
1837.47122	7951.3125
1840.6344	7929.7125
1843.7955	7906.5125
1846.95454	7912.8125
1850.11151	7891.4125
1853.26642	7890.7125
1856.41926	7867.8125
1859.57004	7868.7125
1862.71876	7846.0125
1865.86542	7835.8125
1869.01003	7841.4125
1872.15258	7812.7125
1875.29308	7815.6125
1878.43152	7804.5125
1881.56792	7791.9125
1884.70227	7770.4125
1887.83457	7803.0125
1890.96482	7781.5125
1894.09304	7770.7125
1897.21921	7765.4125
1900.34335	7770.8125
1903.46544	7758.4125
1906.58551	7759.8125
1909.70353	7749.9125
1912.81953	7734.9125
1915.93349	7721.0125
1919.04543	7699.6125
1922.15534	7670.5125
1925.26322	7648.8125
1928.36908	7622.3125
1931.47292	7603.5125
1934.57473	7561.7125
1937.67453	7539.7125
1940.77232	7516.6125
1943.86808	7476.6125
1946.96184	7470.3125
1950.05358	7439.3125
1953.14331	7427.6125
1956.23103	7417.0125
1959.31675	7389.3125
1962.40046	7388.8125
1965.48217	7350.0125
1968.56188	7333.5125
1971.63959	7318.5125
1974.7153	7297.9125
1977.78901	7256.1125
1980.86073	7237.3125
1983.93046	7212.3125
1986.99819	7162.3125
1990.06394	7156.8125
1993.1277	7133.0125
1996.18947	7088.8125
1999.24925	7065.3125
2002.30706	7034.3125
2005.36288	7000.4125
2008.41672	6975.1125
2011.46859	6944.6125
2014.51848	6932.7125
2017.56639	6916.2125
2020.61233	6893.7125
2023.6563	6863.5125
2026.6983	6873.1125
2029.73833	6815.6125
2032.7764	6811.0125
2035.8125	6786.2125
2038.84664	6776.0125
2041.87881	6743.9125
2044.90903	6742.2125
2047.93729	6735.7125
2050.96359	6704.5125
2053.98794	6682.9125
2057.01034	6670.1125
2060.03078	6667.5125
2063.04927	6648.5125
2066.06582	6657.8125
2069.08042	6661.8125
2072.09307	6638.7125
2075.10378	6620.0125
2078.11255	6622.1125
2081.11938	6653.4125
2084.12426	6612.5125
2087.12722	6613.4125
2090.12824	6623.7125
2093.12732	6660.4125
2096.12447	6629.9125
2099.11969	6626.7125
2102.11299	6621.3125
2105.10435	6628.3125
2108.09379	6613.2125
2111.08131	6617.2125
2114.0669	6615.2125
2117.05057	6636.8125
2120.03233	6618.1125
2123.01216	6613.7125
2125.99008	6618.4125
2128.96609	6617.0125
2131.94018	6633.0125
2134.91236	6623.5125
2137.88263	6615.6125
2140.851	6618.3125
2143.81746	6618.3125
2146.78201	6603.1125
2149.74466	6590.7125
2152.7054	6584.7125
2155.66425	6573.0125
2158.6212	6571.5125
2161.57625	6541.8125
2164.52941	6545.7125
2167.48067	6530.5125
2170.43004	6528.2125
2173.37752	6532.9125
2176.32311	6528.0125
2179.26681	6517.7125
2182.20863	6504.6125
2185.14856	6507.8125
2188.08661	6486.4125
2191.02278	6486.4125
2193.95707	6490.9125
2196.88948	6463.3125
2199.82001	6451.3125
2202.74867	6454.6125
2205.67545	6450.8125
2208.60037	6433.5125
2211.52341	6399.0125
2214.44458	6387.5125
2217.36388	6387.2125
2220.28132	6397.9125
2223.1969	6365.1125
2226.11061	6357.5125
2229.02246	6328.6125
2231.93245	6343.3125
2234.84058	6309.9125
2237.74686	6297.0125
2240.65128	6306.5125
2243.55385	6287.1125
2246.45456	6270.4125
2249.35343	6264.9125
2252.25044	6258.6125
2255.14561	6263.8125
2258.03893	6231.3125
2260.93041	6221.1125
2263.82004	6219.0125
2266.70783	6203.8125
2269.59378	6180.2125
2272.4779	6163.8125
2275.36017	6157.8125
2278.24061	6140.2125
2281.11922	6140.6125
2283.996	6102.9125
2286.87094	6084.8125
2289.74405	6064.9125
2292.61534	6072.9125
2295.4848	6061.5125
2298.35243	6043.2125
2301.21824	6028.9125
2304.08223	6032.8125
2306.94439	6032.0125
2309.80474	6016.8125
2312.66327	6012.1125
2315.51999	5999.5125
2318.37489	5994.6125
2321.22797	5993.0125
2324.07925	5982.9125
2326.92871	5978.7125
2329.77637	5968.4125
2332.62222	5958.1125
2335.46626	5960.6125
2338.3085	5959.9125
2341.14893	5976.4125
2343.98756	5949.6125
2346.8244	5950.3125
2349.65943	5956.4125
2352.49267	5952.8125
2355.32411	5954.6125
2358.15376	5967.9125
2360.98161	5982.7125
2363.80768	5994.1125
2366.63195	6013.5125
2369.45444	6006.9125
2372.27514	6000.6125
2375.09405	5980.6125
2377.91118	5972.2125
2380.72652	5934.5125
2383.54009	5933.6125
2386.35187	5921.3125
2389.16188	5881.5125
2391.97011	5862.9125
2394.77657	5851.5125
2397.58125	5837.7125
2400.38416	5807.1125
2403.18529	5802.0125
2405.98466	5806.4125
2408.78226	5788.7125
2411.57809	5765.8125
2414.37216	5756.3125
2417.16446	5753.3125
2419.955	5735.9125
2422.74378	5753.1125
2425.5308	5727.4125
2428.31606	5737.8125
2431.09956	5747.4125
2433.88131	5742.2125
2436.6613	5723.9125
2439.43954	5731.7125
2442.21603	5738.8125
2444.99077	5728.0125
2447.76377	5726.2125
2450.53501	5729.6125
2453.30451	5745.9125
2456.07226	5720.6125
2458.83827	5727.9125
2461.60254	5738.1125
2464.36507	5738.9125
2467.12586	5741.8125
2469.88492	5712.3125
2472.64224	5745.1125
2475.39782	5757.3125
2478.15167	5749.3125
2480.90379	5762.2125
2483.65417	5768.6125
2486.40283	5779.2125
2489.14976	5781.6125
2491.89497	5793.0125
2494.63845	5787.0125
2497.3802	5796.6125
2500.12024	5769.5125
2502.85855	5766.9125
2505.59514	5754.9125
2508.33002	5747.2125
2511.06318	5724.9125
2513.79462	5709.0125
2516.52435	5675.2125
2519.25237	5672.7125
2521.97867	5651.8125
2524.70327	5661.2125
2527.42616	5653.2125
2530.14734	5639.7125
2532.86681	5641.1125
2535.58458	5628.7125
2538.30065	5616.1125
2541.01501	5606.0125
2543.72768	5624.0125
2546.43864	5608.0125
2549.14791	5595.5125
2551.85548	5604.8125
2554.56136	5589.0125
2557.26554	5583.4125
2559.96803	5589.2125
2562.66883	5585.2125
2565.36794	5597.9125
2568.06536	5595.0125
2570.7611	5583.5125
2573.45514	5580.2125
2576.14751	5558.7125
2578.83819	5571.0125
2581.52719	5555.3125
2584.21451	5550.5125
2586.90015	5550.5125
2589.58411	5525.9125
2592.2664	5527.5125
2594.94701	5509.6125
2597.62594	5519.5125
2600.30321	5503.9125
2602.9788	5506.6125
2605.65273	5515.6125
2608.32498	5506.8125
2610.99557	5517.4125
2613.66449	5504.2125
2616.33175	5500.7125
2618.99734	5516.2125
2621.66128	5494.2125
2624.32355	5493.5125
2626.98416	5488.8125
2629.64311	5489.9125
2632.30041	5481.5125
2634.95605	5457.1125
2637.61004	5481.9125
2640.26238	5440.8125
2642.91306	5463.8125
2645.56209	5451.3125
2648.20948	5460.6125
2650.85521	5450.4125
2653.4993	5444.8125
2656.14175	5463.9125
2658.78255	5480.5125
2661.42171	5471.5125
2664.05923	5467.6125
2666.6951	5479.7125
2669.32934	5490.3125
2671.96194	5480.7125
2674.59291	5492.9125
2677.22224	5491.9125
2679.84993	5486.6125
2682.476	5471.0125
2685.10043	5473.9125
2687.72324	5471.0125
2690.34441	5484.8125
2692.96396	5475.1125
2695.58188	5465.1125
2698.19818	5473.9125
2700.81285	5475.6125
2703.4259	5477.2125
2706.03733	5463.8125
2708.64714	5466.1125
2711.25533	5477.2125
2713.86191	5484.7125
2716.46687	5491.7125
2719.07021	5477.6125
2721.67194	5484.3125
2724.27206	5484.0125
2726.87057	5484.5125
2729.46747	5485.9125
2732.06276	5455.4125
2734.65644	5476.9125
2737.24852	5476.4125
2739.83899	5475.8125
2742.42786	5470.0125
2745.01513	5457.0125
2747.60079	5458.9125
2750.18486	5439.1125
2752.76733	5442.5125
2755.3482	5435.5125
2757.92747	5426.0125
2760.50515	5413.6125
2763.08123	5426.9125
2765.65573	5417.3125
2768.22863	5423.4125
2770.79994	5420.0125
2773.36967	5407.3125
2775.9378	5413.1125
2778.50435	5397.7125
2781.06932	5409.6125
2783.6327	5408.4125
2786.1945	5407.6125
2788.75471	5411.9125
2791.31335	5398.9125
2793.87041	5397.6125
2796.42589	5392.9125
2798.97979	5364.5125
2801.53212	5374.4125
2804.08288	5396.1125
2806.63206	5366.6125
2809.17967	5382.1125
2811.72571	5365.5125
2814.27018	5368.5125
2816.81308	5351.8125
2819.35442	5353.8125
2821.89419	5367.1125
2824.43239	5358.0125
2826.96904	5364.8125
2829.50412	5374.4125
2832.03763	5361.1125
2834.56959	5333.0125
2837.1	5344.8125
2839.62884	5341.5125
2842.15613	5332.0125
2844.68186	5334.4125
2847.20604	5347.8125
2849.72867	5355.1125
2852.24974	5344.4125
2854.76927	5359.2125
2857.28724	5333.1125
2859.80367	5338.1125
2862.31855	5350.7125
2864.83189	5351.0125
2867.34368	5370.8125
2869.85393	5355.0125
2872.36264	5382.1125
2874.8698	5372.9125
2877.37543	5377.1125
2879.87952	5367.0125
2882.38207	5358.6125
2884.88308	5372.5125
2887.38256	5346.4125
2889.88051	5353.6125
2892.37692	5356.1125
2894.8718	5349.8125
2897.36515	5362.0125
2899.85698	5346.5125
2902.34727	5372.3125
2904.83604	5388.7125
2907.32328	5388.6125
2909.809	5388.7125
2912.29319	5381.5125
2914.77587	5374.0125
2917.25702	5372.9125
2919.73665	5376.8125
2922.21476	5369.9125
2924.69136	5369.7125
2927.16644	5330.3125
2929.64	5352.0125
2932.11205	5341.4125
2934.58258	5310.0125
2937.05161	5304.3125
2939.51912	5308.5125
2941.98513	5295.1125
2944.44962	5271.8125
2946.91261	5236.3125
2949.37409	5233.5125
2951.83407	5231.3125
2954.29254	5241.9125
2956.74951	5228.8125
2959.20498	5213.8125
2961.65895	5191.4125
2964.11142	5196.7125
2966.56239	5165.2125
2969.01186	5160.3125
2971.45984	5140.0125
2973.90632	5123.4125
2976.35131	5109.1125
2978.7948	5105.8125
2981.23681	5082.3125
2983.67732	5078.6125
2986.11635	5060.9125
2988.55388	5032.2125
2990.98993	5022.4125
2993.4245	5013.5125
2995.85758	5021.1125
2998.28917	5003.7125
3000.71928	4999.4125
3003.14791	4981.0125
3005.57506	4964.9125
3008.00073	4960.6125
3010.42493	4961.6125
3012.84764	4946.1125
3015.26888	4937.3125
3017.68865	4922.9125
3020.10694	4892.9125
3022.52376	4899.2125
3024.9391	4885.6125
3027.35298	4888.6125
3029.76539	4865.2125
3032.17632	4861.0125
3034.5858	4868.8125
3036.9938	4849.2125
3039.40034	4848.0125
3041.80542	4821.2125
3044.20903	4812.9125
3046.61118	4823.1125
3049.01187	4800.6125
3051.4111	4780.0125
3053.80888	4779.6125
3056.20519	4768.6125
3058.60005	4755.0125
3060.99345	4744.6125
3063.3854	4739.5125
3065.7759	4748.4125
3068.16494	4717.1125
3070.55254	4700.4125
3072.93868	4682.5125
3075.32338	4662.4125
3077.70662	4645.8125
3080.08842	4649.4125
