Data from AgNP_FTO_APTES_UA_100uM_CRN_0uM_R6G_10uM_NaF_0.1M_Addition_RamanShift__36__11-27-10-128.txt Node

Date: Thu Mar 24 11:27:10 GMT 2022
User: TCL
Spectrometer: QEP01345
Trigger mode: 4
Integration Time (sec): 7.000000E0
Scans to average: 10
Electric dark correction enabled: true
Nonlinearity correction enabled: false
Boxcar width: 0
XAxis mode: Raman Shifts
Number of Pixels in Spectrum: 1044
>>>>>Begin Spectral Data<<<<<
46.04893	-0.0125
50.45542	0.1875
54.85868	-0.3125
59.25871	-0.6125
63.6555	42.1875
68.04907	48.8875
72.43941	45.4875
76.82654	46.8875
81.21044	53.1875
85.59113	50.6875
89.96862	56.7875
94.34289	55.8875
98.71396	60.1875
103.08183	59.0875
107.4465	60.7875
111.80798	67.3875
116.16626	63.5875
120.52136	64.5875
124.87327	69.6875
129.222	73.1875
133.56755	76.7875
137.90993	83.3875
142.24913	96.5875
146.58517	106.9875
150.91804	123.6875
155.24774	150.5875
159.57429	185.6875
163.89768	236.1875
168.21792	318.1875
172.53501	444.5875
176.84895	617.6875
181.15975	869.6875
185.46741	1219.8875
189.77193	1685.2875
194.07331	2250.0875
198.37157	2926.8875
202.6667	3618.8875
206.9587	4337.2875
211.24758	5080.2875
215.53334	5894.8875
219.81599	6818.1875
224.09553	7843.5875
228.37195	9029.1875
232.64527	10281.0875
236.91549	11474.9875
241.18261	12543.1875
245.44663	13350.8875
249.70755	13915.0875
253.96539	14380.7875
258.22014	14784.9875
262.4718	15132.9875
266.72039	15336.1875
270.96589	15281.4875
275.20832	15029.5875
279.44768	14672.0875
283.68397	14344.0875
287.91719	14249.3875
292.14735	14322.4875
296.37445	14770.8875
300.59849	15538.3875
304.81948	16505.2875
309.03742	17314.6875
313.25231	17519.6875
317.46415	16781.6875
321.67296	15327.0875
325.87872	14020.2875
330.08145	13339.8875
334.28114	13305.8875
338.47781	13547.5875
342.67145	13960.5875
346.86207	14611.8875
351.04966	15632.4875
355.23424	16851.9875
359.4158	17734.3875
363.59435	18097.4875
367.76989	18097.7875
371.94243	17834.1875
376.11196	17526.6875
380.27849	17301.3875
384.44203	17003.9875
388.60257	16702.2875
392.76012	16510.1875
396.91468	16592.0875
401.06626	17030.9875
405.21485	17392.5875
409.36047	16966.6875
413.50311	15817.8875
417.64277	14775.2875
421.77947	14177.7875
425.9132	13991.7875
430.04396	13987.4875
434.17176	14046.8875
438.2966	14332.5875
442.41849	14835.4875
446.53742	15568.7875
450.6534	16275.1875
454.76644	16586.8875
458.87653	16385.9875
462.98368	15922.2875
467.08789	15477.8875
471.18916	14983.6875
475.2875	14444.6875
479.38291	14011.2875
483.4754	13728.3875
487.56496	13475.6875
491.6516	13256.1875
495.73531	13117.9875
499.81612	13131.2875
503.89401	13313.6875
507.96899	13494.6875
512.04106	13684.2875
516.11023	13894.7875
520.1765	14010.4875
524.23987	14025.5875
528.30034	13905.2875
532.35792	13686.9875
536.41261	13327.5875
540.46441	12843.5875
544.51333	12589.8875
548.55936	12700.2875
552.60252	13171.5875
556.64279	13910.4875
560.6802	14336.7875
564.71473	14800.5875
568.7464	15771.0875
572.7752	16519.6875
576.80114	15988.7875
580.82422	15173.7875
584.84444	15023.3875
588.86181	15460.3875
592.87633	16214.2875
596.888	16542.4875
600.89682	16359.0875
604.9028	18021.6875
608.90594	24202.2875
612.90624	32467.9875
616.90371	31146.8875
620.89834	20051.1875
624.89015	14359.1875
628.87913	13345.6875
632.86528	13603.6875
636.84862	13937.8875
640.82913	13562.4875
644.80683	12510.8875
648.78172	11765.2875
652.75379	11745.5875
656.72306	12512.9875
660.68952	13481.8875
664.65319	13309.2875
668.61405	12295.0875
672.57211	11846.4875
676.52738	11826.3875
680.47986	11759.9875
684.42955	11497.4875
688.37646	11330.4875
692.32058	11376.8875
696.26192	11566.7875
700.20048	11899.7875
704.13626	12138.6875
708.06928	12141.3875
711.99952	11987.1875
715.927	11932.1875
719.85171	12011.4875
723.77365	12045.4875
727.69284	11878.5875
731.60928	11721.9875
735.52295	11708.7875
739.43388	11801.5875
743.34206	11899.0875
747.24749	11963.0875
751.15017	12043.6875
755.05012	12417.5875
758.94733	13430.9875
762.8418	15964.3875
766.73354	20184.3875
770.62254	24138.3875
774.50882	25817.4875
778.39237	24379.7875
782.27321	20336.7875
786.15132	16166.9875
790.02671	13605.2875
793.89938	12400.6875
797.76935	11889.5875
801.6366	11720.3875
805.50115	11571.7875
809.36299	11474.6875
813.22213	11324.3875
817.07857	11252.5875
820.93231	11234.6875
824.78336	11267.5875
828.63172	11359.7875
832.47738	11413.2875
836.32036	11324.7875
840.16066	11267.2875
843.99827	11213.8875
847.8332	11135.5875
851.66546	11123.1875
855.49504	11119.8875
859.32195	11100.3875
863.1462	11027.9875
866.96777	10941.2875
870.78668	10920.4875
874.60293	10937.6875
878.41652	11009.6875
882.22745	11153.7875
886.03573	11295.8875
889.84136	11302.6875
893.64433	11208.6875
897.44466	11205.9875
901.24235	11150.7875
905.0374	11051.7875
908.8298	10881.0875
912.61957	10793.8875
916.40671	10813.3875
920.19121	11030.0875
923.97308	11310.0875
927.75233	11581.5875
931.52895	11791.6875
935.30295	11554.6875
939.07433	10970.3875
942.84309	10501.3875
946.60924	10281.1875
950.37278	10170.0875
954.13371	10086.5875
957.89203	10037.3875
961.64774	9994.6875
965.40086	9956.2875
969.15137	9936.5875
972.89929	9889.1875
976.64461	9856.1875
980.38733	9851.2875
984.12747	9886.8875
987.86502	9972.1875
991.59999	10099.9875
995.33237	10381.3875
999.06217	10846.2875
1002.78939	11484.4875
1006.51404	12015.5875
1010.23611	12385.7875
1013.95561	12571.5875
1017.67255	12533.1875
1021.38692	12196.2875
1025.09872	11789.0875
1028.80796	11568.4875
1032.51465	11703.5875
1036.21877	11924.4875
1039.92035	12052.8875
1043.61937	12054.2875
1047.31584	11936.4875
1051.00976	11757.1875
1054.70114	11620.4875
1058.38998	11514.9875
1062.07627	11535.8875
1065.76003	11621.3875
1069.44126	11777.9875
1073.11995	12066.7875
1076.79611	12397.6875
1080.46974	12866.7875
1084.14085	13480.8875
1087.80943	14073.8875
1091.47549	14257.0875
1095.13903	13915.8875
1098.80005	13207.9875
1102.45857	12589.1875
1106.11456	12338.5875
1109.76805	12484.1875
1113.41903	12965.1875
1117.06751	13739.2875
1120.71348	14815.4875
1124.35696	16036.8875
1127.99793	16906.9875
1131.63641	16460.4875
1135.2724	15224.3875
1138.90589	14192.3875
1142.5369	13562.7875
1146.16542	13172.6875
1149.79145	13001.8875
1153.415	12977.1875
1157.03607	13176.7875
1160.65467	13615.9875
1164.27079	14465.9875
1167.88443	15861.7875
1171.49561	18004.9875
1175.10432	21371.0875
1178.71056	25723.2875
1182.31434	29266.4875
1185.91565	30305.4875
1189.51451	29090.6875
1193.11091	26915.7875
1196.70485	24425.5875
1200.29634	22281.2875
1203.88538	20421.1875
1207.47197	18543.8875
1211.05612	16989.2875
1214.63782	16213.0875
1218.21708	16111.2875
1221.79391	16378.3875
1225.36829	16497.4875
1228.94024	16174.3875
1232.50976	15580.8875
1236.07685	15168.0875
1239.6415	15028.7875
1243.20374	15006.6875
1246.76355	15072.8875
1250.32093	15325.8875
1253.8759	15787.4875
1257.42845	16531.6875
1260.97859	17457.4875
1264.52631	18489.6875
1268.07163	19475.1875
1271.61453	20361.2875
1275.15503	21065.5875
1278.69312	21543.9875
1282.22882	22152.4875
1285.76211	23132.1875
1289.29301	24343.4875
1292.82151	25710.0875
1296.34761	27313.0875
1299.87133	29716.2875
1303.39266	33339.2875
1306.9116	38680.6875
1310.42815	44423.3875
1313.94233	47046.0875
1317.45412	44891.0875
1320.96354	40342.9875
1324.47058	35710.2875
1327.97525	32138.5875
1331.47754	29913.4875
1334.97747	29098.7875
1338.47502	29270.2875
1341.97022	30053.1875
1345.46305	31462.9875
1348.95352	33586.6875
1352.44163	36544.6875
1355.92738	41378.2875
1359.41078	48790.3875
1362.89183	55042.4875
1366.37053	52236.9875
1369.84688	42201.6875
1373.32088	33212.9875
1376.79254	27975.1875
1380.26186	25265.8875
1383.72883	23666.6875
1387.19347	22531.8875
1390.65578	21668.2875
1394.11575	21236.7875
1397.57339	21371.8875
1401.0287	21706.0875
1404.48168	21999.3875
1407.93234	22102.6875
1411.38068	22026.0875
1414.82669	21664.8875
1418.27039	21019.6875
1421.71177	20166.8875
1425.15083	19347.7875
1428.58758	19080.3875
1432.02203	19421.1875
1435.45416	19843.0875
1438.88399	19989.9875
1442.31151	19981.5875
1445.73673	20161.9875
1449.15965	20429.1875
1452.58027	20518.0875
1455.9986	20393.8875
1459.41463	20534.4875
1462.82837	21053.4875
1466.23982	21838.5875
1469.64898	22460.8875
1473.05586	22791.4875
1476.46045	22853.9875
1479.86276	22909.5875
1483.26279	23240.1875
1486.66054	23892.2875
1490.05602	25011.1875
1493.44922	26608.3875
1496.84016	29028.8875
1500.22882	32884.9875
1503.61521	38377.4875
1506.99934	44523.3875
1510.38121	49317.7875
1513.76081	49843.1875
1517.13816	45155.7875
1520.51324	37747.9875
1523.88607	31416.8875
1527.25665	27649.9875
1530.62498	25719.5875
1533.99105	24617.9875
1537.35488	23828.8875
1540.71647	23187.1875
1544.07581	22616.5875
1547.4329	22163.2875
1550.78776	21867.0875
1554.14038	21747.2875
1557.49077	21907.7875
1560.83892	22278.7875
1564.18484	23156.1875
1567.52853	24201.5875
1570.86999	25115.3875
1574.20922	25604.8875
1577.54624	25302.4875
1580.88103	23674.7875
1584.2136	21566.2875
1587.54395	20627.3875
1590.87208	21328.6875
1594.19801	23437.3875
1597.52172	26198.9875
1600.84321	27495.6875
1604.16251	26358.5875
1607.47959	23825.6875
1610.79447	20898.1875
1614.10715	18289.5875
1617.41763	16337.7875
1620.7259	15111.8875
1624.03199	14557.4875
1627.33587	14621.4875
1630.63757	15256.3875
1633.93707	16676.6875
1637.23439	19132.8875
1640.52951	23077.2875
1643.82246	28537.9875
1647.11321	34355.3875
1650.40179	37309.9875
1653.68819	34804.8875
1656.97241	28079.7875
1660.25446	21326.0875
1663.53433	16677.1875
1666.81203	13990.9875
1670.08756	12513.7875
1673.36092	11632.4875
1676.63211	11065.3875
1679.90115	10695.8875
1683.16801	10430.0875
1686.43272	10213.8875
1689.69527	10109.3875
1692.95567	9987.0875
1696.2139	9924.9875
1699.46999	9877.4875
1702.72392	9821.7875
1705.97571	9790.9875
1709.22535	9783.4875
1712.47284	9767.8875
1715.71819	9764.4875
1718.96139	9737.1875
1722.20246	9654.3875
1725.44139	9582.8875
1728.67818	9462.2875
1731.91284	9368.0875
1735.14537	9275.3875
1738.37576	9203.3875
1741.60403	9154.7875
1744.83017	9102.2875
1748.05418	9061.7875
1751.27607	9023.7875
1754.49584	9006.0875
1757.71349	8970.9875
1760.92903	8952.4875
1764.14244	8916.3875
1767.35375	8910.8875
1770.56294	8864.1875
1773.77002	8828.6875
1776.97499	8773.0875
1780.17785	8742.2875
1783.37861	8705.6875
1786.57727	8692.9875
1789.77382	8656.8875
1792.96828	8651.9875
1796.16064	8643.7875
1799.3509	8607.1875
1802.53907	8586.2875
1805.72514	8558.6875
1808.90913	8539.7875
1812.09102	8529.2875
1815.27083	8461.9875
1818.44856	8452.9875
1821.6242	8410.9875
1824.79776	8393.7875
1827.96924	8394.6875
1831.13864	8389.1875
1834.30597	8364.9875
1837.47122	8357.4875
1840.6344	8328.5875
1843.7955	8339.5875
1846.95454	8346.2875
1850.11151	8326.4875
1853.26642	8349.5875
1856.41926	8345.4875
1859.57004	8362.2875
1862.71876	8359.2875
1865.86542	8362.1875
1869.01003	8376.7875
1872.15258	8356.0875
1875.29308	8377.4875
1878.43152	8398.6875
1881.56792	8393.5875
1884.70227	8405.7875
1887.83457	8402.2875
1890.96482	8393.1875
1894.09304	8413.2875
1897.21921	8432.4875
1900.34335	8421.5875
1903.46544	8421.8875
1906.58551	8411.5875
1909.70353	8412.5875
1912.81953	8391.9875
1915.93349	8403.0875
1919.04543	8372.0875
1922.15534	8311.9875
1925.26322	8296.8875
1928.36908	8238.8875
1931.47292	8210.0875
1934.57473	8157.4875
1937.67453	8133.3875
1940.77232	8103.8875
1943.86808	8074.9875
1946.96184	8038.5875
1950.05358	8027.3875
1953.14331	7973.5875
1956.23103	7969.7875
1959.31675	7959.7875
1962.40046	7910.0875
1965.48217	7934.6875
1968.56188	7934.2875
1971.63959	7944.2875
1974.7153	7905.3875
1977.78901	7890.8875
1980.86073	7841.5875
1983.93046	7806.6875
1986.99819	7765.4875
1990.06394	7726.8875
1993.1277	7704.4875
1996.18947	7661.0875
1999.24925	7629.7875
2002.30706	7601.6875
2005.36288	7576.8875
2008.41672	7559.1875
2011.46859	7525.7875
2014.51848	7500.6875
2017.56639	7491.8875
2020.61233	7453.0875
2023.6563	7419.7875
2026.6983	7402.0875
2029.73833	7401.8875
2032.7764	7378.3875
2035.8125	7363.5875
2038.84664	7340.9875
2041.87881	7328.6875
2044.90903	7324.7875
2047.93729	7277.2875
2050.96359	7303.4875
2053.98794	7296.4875
2057.01034	7267.2875
2060.03078	7262.8875
2063.04927	7266.0875
2066.06582	7243.5875
2069.08042	7257.5875
2072.09307	7247.1875
2075.10378	7230.2875
2078.11255	7245.9875
2081.11938	7240.0875
2084.12426	7243.6875
2087.12722	7232.3875
2090.12824	7244.5875
2093.12732	7219.3875
2096.12447	7233.3875
2099.11969	7223.1875
2102.11299	7219.0875
2105.10435	7244.3875
2108.09379	7229.7875
2111.08131	7233.2875
2114.0669	7237.7875
2117.05057	7229.1875
2120.03233	7247.6875
2123.01216	7227.9875
2125.99008	7247.9875
2128.96609	7236.0875
2131.94018	7250.0875
2134.91236	7244.1875
2137.88263	7244.3875
2140.851	7205.4875
2143.81746	7217.7875
2146.78201	7212.4875
2149.74466	7202.7875
2152.7054	7176.8875
2155.66425	7161.3875
2158.6212	7163.1875
2161.57625	7159.8875
2164.52941	7148.3875
2167.48067	7113.4875
2170.43004	7122.7875
2173.37752	7105.1875
2176.32311	7115.5875
2179.26681	7106.7875
2182.20863	7120.0875
2185.14856	7125.1875
2188.08661	7120.2875
2191.02278	7121.8875
2193.95707	7098.2875
2196.88948	7069.5875
2199.82001	7107.4875
2202.74867	7059.1875
2205.67545	7092.1875
2208.60037	7068.2875
2211.52341	7046.8875
2214.44458	7042.1875
2217.36388	7041.0875
2220.28132	6985.0875
2223.1969	6995.7875
2226.11061	6976.1875
2229.02246	6972.9875
2231.93245	6947.3875
2234.84058	6930.7875
2237.74686	6919.8875
2240.65128	6924.0875
2243.55385	6918.2875
2246.45456	6898.5875
2249.35343	6903.6875
2252.25044	6898.9875
2255.14561	6912.7875
2258.03893	6908.3875
2260.93041	6911.6875
2263.82004	6908.2875
2266.70783	6893.7875
2269.59378	6885.7875
2272.4779	6838.1875
2275.36017	6819.4875
2278.24061	6807.2875
2281.11922	6801.7875
2283.996	6793.3875
2286.87094	6780.5875
2289.74405	6768.0875
2292.61534	6742.0875
2295.4848	6730.8875
2298.35243	6710.8875
2301.21824	6737.4875
2304.08223	6724.1875
2306.94439	6732.0875
2309.80474	6726.4875
2312.66327	6742.4875
2315.51999	6740.0875
2318.37489	6744.6875
2321.22797	6728.8875
2324.07925	6720.0875
2326.92871	6728.6875
2329.77637	6728.0875
2332.62222	6708.5875
2335.46626	6707.3875
2338.3085	6720.5875
2341.14893	6727.6875
2343.98756	6743.7875
2346.8244	6768.9875
2349.65943	6777.2875
2352.49267	6770.7875
2355.32411	6794.4875
2358.15376	6811.1875
2360.98161	6819.9875
2363.80768	6818.2875
2366.63195	6837.1875
2369.45444	6841.6875
2372.27514	6829.5875
2375.09405	6804.0875
2377.91118	6800.0875
2380.72652	6760.2875
2383.54009	6731.6875
2386.35187	6721.5875
2389.16188	6653.8875
2391.97011	6632.4875
2394.77657	6626.2875
2397.58125	6624.7875
2400.38416	6589.0875
2403.18529	6549.2875
2405.98466	6572.5875
2408.78226	6545.4875
2411.57809	6546.5875
2414.37216	6504.6875
2417.16446	6486.6875
2419.955	6488.8875
2422.74378	6497.1875
2425.5308	6492.6875
2428.31606	6488.9875
2431.09956	6510.9875
2433.88131	6491.6875
2436.6613	6493.3875
2439.43954	6508.7875
2442.21603	6517.3875
2444.99077	6519.4875
2447.76377	6527.8875
2450.53501	6545.7875
2453.30451	6573.1875
2456.07226	6547.5875
2458.83827	6551.1875
2461.60254	6551.6875
2464.36507	6554.0875
2467.12586	6558.1875
2469.88492	6556.2875
2472.64224	6585.6875
2475.39782	6566.2875
2478.15167	6613.5875
2480.90379	6615.2875
2483.65417	6620.4875
2486.40283	6647.2875
2489.14976	6667.6875
2491.89497	6704.8875
2494.63845	6711.3875
2497.3802	6693.3875
2500.12024	6693.0875
2502.85855	6698.2875
2505.59514	6662.9875
2508.33002	6609.0875
2511.06318	6598.1875
2513.79462	6539.1875
2516.52435	6505.8875
2519.25237	6489.7875
2521.97867	6465.8875
2524.70327	6456.1875
2527.42616	6445.5875
2530.14734	6443.1875
2532.86681	6435.1875
2535.58458	6439.9875
2538.30065	6435.8875
2541.01501	6445.2875
2543.72768	6438.6875
2546.43864	6440.3875
2549.14791	6476.1875
2551.85548	6448.7875
2554.56136	6459.1875
2557.26554	6440.7875
2559.96803	6472.1875
2562.66883	6434.1875
2565.36794	6439.9875
2568.06536	6424.3875
2570.7611	6437.9875
2573.45514	6428.9875
2576.14751	6411.3875
2578.83819	6404.1875
2581.52719	6414.7875
2584.21451	6391.4875
2586.90015	6396.0875
2589.58411	6390.2875
2592.2664	6385.8875
2594.94701	6408.7875
2597.62594	6384.7875
2600.30321	6379.1875
2602.9788	6404.3875
2605.65273	6376.1875
2608.32498	6398.1875
2610.99557	6395.5875
2613.66449	6405.2875
2616.33175	6411.1875
2618.99734	6425.5875
2621.66128	6419.0875
2624.32355	6410.6875
2626.98416	6408.4875
2629.64311	6397.1875
2632.30041	6406.0875
2634.95605	6395.1875
2637.61004	6390.6875
2640.26238	6364.9875
2642.91306	6361.0875
2645.56209	6359.2875
2648.20948	6342.1875
2650.85521	6342.2875
2653.4993	6356.5875
2656.14175	6349.0875
2658.78255	6377.5875
2661.42171	6381.7875
2664.05923	6404.7875
2666.6951	6413.3875
2669.32934	6422.7875
2671.96194	6423.4875
2674.59291	6438.3875
2677.22224	6422.3875
2679.84993	6430.5875
2682.476	6410.3875
2685.10043	6422.1875
2687.72324	6411.6875
2690.34441	6406.4875
2692.96396	6395.0875
2695.58188	6398.7875
2698.19818	6378.9875
2700.81285	6384.9875
2703.4259	6399.5875
2706.03733	6396.4875
2708.64714	6397.4875
2711.25533	6416.0875
2713.86191	6404.5875
2716.46687	6421.4875
2719.07021	6392.9875
2721.67194	6429.9875
2724.27206	6440.6875
2726.87057	6437.6875
2729.46747	6437.5875
2732.06276	6418.7875
2734.65644	6405.6875
2737.24852	6399.9875
2739.83899	6378.6875
2742.42786	6399.9875
2745.01513	6370.8875
2747.60079	6352.8875
2750.18486	6353.1875
2752.76733	6365.5875
2755.3482	6364.0875
2757.92747	6373.0875
2760.50515	6374.5875
2763.08123	6339.0875
2765.65573	6354.9875
2768.22863	6350.0875
2770.79994	6348.2875
2773.36967	6372.6875
2775.9378	6362.0875
2778.50435	6377.8875
2781.06932	6371.1875
2783.6327	6347.9875
2786.1945	6368.1875
2788.75471	6370.4875
2791.31335	6358.7875
2793.87041	6351.5875
2796.42589	6372.8875
2798.97979	6364.3875
2801.53212	6355.6875
2804.08288	6368.7875
2806.63206	6366.3875
2809.17967	6353.4875
2811.72571	6369.8875
2814.27018	6404.9875
2816.81308	6402.9875
2819.35442	6395.9875
2821.89419	6398.1875
2824.43239	6434.4875
2826.96904	6415.2875
2829.50412	6433.6875
2832.03763	6425.4875
2834.56959	6423.5875
2837.1	6408.5875
2839.62884	6404.2875
2842.15613	6406.3875
2844.68186	6424.8875
2847.20604	6435.9875
2849.72867	6466.9875
2852.24974	6455.8875
2854.76927	6473.7875
2857.28724	6483.1875
2859.80367	6505.8875
2862.31855	6497.7875
2864.83189	6507.7875
2867.34368	6539.0875
2869.85393	6546.8875
2872.36264	6547.8875
2874.8698	6560.4875
2877.37543	6546.6875
2879.87952	6563.0875
2882.38207	6541.0875
2884.88308	6530.0875
2887.38256	6539.0875
2889.88051	6511.6875
2892.37692	6522.3875
2894.8718	6526.9875
2897.36515	6535.2875
2899.85698	6517.2875
2902.34727	6541.6875
2904.83604	6534.7875
2907.32328	6533.8875
2909.809	6529.7875
2912.29319	6521.9875
2914.77587	6506.3875
2917.25702	6495.1875
2919.73665	6468.8875
2922.21476	6449.5875
2924.69136	6460.1875
2927.16644	6451.6875
2929.64	6410.5875
2932.11205	6411.9875
2934.58258	6369.9875
2937.05161	6356.5875
2939.51912	6363.2875
2941.98513	6341.0875
2944.44962	6324.7875
2946.91261	6290.7875
2949.37409	6300.4875
2951.83407	6317.6875
2954.29254	6307.6875
2956.74951	6286.1875
2959.20498	6257.6875
2961.65895	6241.2875
2964.11142	6241.3875
2966.56239	6208.6875
2969.01186	6194.5875
2971.45984	6161.8875
2973.90632	6156.7875
2976.35131	6137.4875
2978.7948	6102.8875
2981.23681	6075.7875
2983.67732	6076.6875
2986.11635	6052.4875
2988.55388	6045.7875
2990.98993	6033.8875
2993.4245	6019.2875
2995.85758	6019.9875
2998.28917	6006.4875
3000.71928	6017.3875
3003.14791	6020.8875
3005.57506	6022.4875
3008.00073	5995.3875
3010.42493	5999.9875
3012.84764	5990.7875
3015.26888	5975.7875
3017.68865	5964.0875
3020.10694	5940.0875
3022.52376	5930.2875
3024.9391	5905.5875
3027.35298	5883.8875
3029.76539	5881.5875
3032.17632	5861.0875
3034.5858	5839.8875
3036.9938	5836.4875
3039.40034	5825.9875
3041.80542	5790.9875
3044.20903	5775.3875
3046.61118	5799.9875
3049.01187	5777.6875
3051.4111	5771.3875
3053.80888	5755.2875
3056.20519	5739.6875
3058.60005	5709.8875
3060.99345	5702.8875
3063.3854	5697.3875
3065.7759	5667.8875
3068.16494	5672.4875
3070.55254	5627.8875
3072.93868	5646.7875
3075.32338	5597.0875
3077.70662	5583.9875
3080.08842	5578.5875
