Data from AgNP_FTO_APTES_UA_100uM_CRN_0uM_R6G_10uM_NaF_0.1M_Addition_RamanShift__15__11-02-40-095.txt Node

Date: Thu Mar 24 11:02:40 GMT 2022
User: TCL
Spectrometer: QEP01345
Trigger mode: 4
Integration Time (sec): 7.000000E0
Scans to average: 10
Electric dark correction enabled: true
Nonlinearity correction enabled: false
Boxcar width: 0
XAxis mode: Raman Shifts
Number of Pixels in Spectrum: 1044
>>>>>Begin Spectral Data<<<<<
46.04893	-1.6875
50.45542	-1.1875
54.85868	-0.6875
59.25871	0.3125
63.6555	30.9125
68.04907	33.9125
72.43941	33.6125
76.82654	33.0125
81.21044	37.2125
85.59113	39.3125
89.96862	40.8125
94.34289	36.0125
98.71396	41.6125
103.08183	39.7125
107.4465	43.1125
111.80798	44.4125
116.16626	44.3125
120.52136	43.4125
124.87327	45.8125
129.222	47.7125
133.56755	52.2125
137.90993	51.4125
142.24913	59.8125
146.58517	64.2125
150.91804	71.9125
155.24774	90.1125
159.57429	110.0125
163.89768	136.3125
168.21792	184.6125
172.53501	248.4125
176.84895	347.6125
181.15975	483.5125
185.46741	675.0125
189.77193	929.7125
194.07331	1240.3125
198.37157	1597.6125
202.6667	1971.1125
206.9587	2326.4125
211.24758	2719.7125
215.53334	3111.1125
219.81599	3549.6125
224.09553	4054.8125
228.37195	4611.9125
232.64527	5213.9125
236.91549	5833.1125
241.18261	6382.2125
245.44663	6822.5125
249.70755	7179.7125
253.96539	7418.4125
258.22014	7630.4125
262.4718	7827.3125
266.72039	7939.6125
270.96589	7985.0125
275.20832	7907.1125
279.44768	7779.3125
283.68397	7581.1125
287.91719	7471.7125
292.14735	7406.2125
296.37445	7475.6125
300.59849	7623.8125
304.81948	7886.6125
309.03742	8125.8125
313.25231	8263.3125
317.46415	8216.4125
321.67296	7986.6125
325.87872	7806.0125
330.08145	7722.4125
334.28114	7712.5125
338.47781	7768.5125
342.67145	7881.3125
346.86207	8062.0125
351.04966	8295.0125
355.23424	8550.1125
359.4158	8715.0125
363.59435	8789.6125
367.76989	8786.9125
371.94243	8738.7125
376.11196	8748.4125
380.27849	8766.1125
384.44203	8809.3125
388.60257	8779.7125
392.76012	8761.0125
396.91468	8789.6125
401.06626	8892.5125
405.21485	9007.9125
409.36047	8863.9125
413.50311	8646.5125
417.64277	8508.1125
421.77947	8492.3125
425.9132	8321.0125
430.04396	8280.9125
434.17176	8402.9125
438.2966	8632.9125
442.41849	9094.5125
446.53742	9719.3125
450.6534	10347.4125
454.76644	10615.8125
458.87653	10422.1125
462.98368	10008.0125
467.08789	9568.8125
471.18916	9149.8125
475.2875	8769.3125
479.38291	8378.9125
483.4754	8164.6125
487.56496	7960.8125
491.6516	7849.4125
495.73531	7756.7125
499.81612	7749.4125
503.89401	7814.0125
507.96899	7855.2125
512.04106	7831.8125
516.11023	7809.5125
520.1765	7839.4125
524.23987	7943.1125
528.30034	8080.8125
532.35792	8101.9125
536.41261	7913.1125
540.46441	7608.1125
544.51333	7407.6125
548.55936	7412.4125
552.60252	7676.5125
556.64279	8117.3125
560.6802	8486.2125
564.71473	8576.6125
568.7464	8673.5125
572.7752	8980.8125
576.80114	9101.2125
580.82422	9161.5125
584.84444	9746.0125
588.86181	11050.9125
592.87633	12977.3125
596.888	14041.3125
600.89682	12924.2125
604.9028	11586.3125
608.90594	12384.4125
612.90624	14230.9125
616.90371	13489.3125
620.89834	10014.2125
624.89015	8196.7125
628.87913	7829.5125
632.86528	7922.9125
636.84862	7891.0125
640.82913	7631.5125
644.80683	7242.7125
648.78172	6997.0125
652.75379	7003.5125
656.72306	7255.8125
660.68952	7609.3125
664.65319	7513.9125
668.61405	7105.7125
672.57211	6995.0125
676.52738	7075.7125
680.47986	7058.8125
684.42955	6914.7125
688.37646	6810.0125
692.32058	6898.2125
696.26192	7100.7125
700.20048	7290.2125
704.13626	7387.8125
708.06928	7359.4125
711.99952	7310.9125
715.927	7344.3125
719.85171	7445.2125
723.77365	7451.9125
727.69284	7290.0125
731.60928	7190.9125
735.52295	7206.5125
739.43388	7334.1125
743.34206	7398.4125
747.24749	7427.5125
751.15017	7510.6125
755.05012	7630.0125
758.94733	7950.8125
762.8418	8705.9125
766.73354	10073.1125
770.62254	11435.3125
774.50882	11935.3125
778.39237	11331.6125
782.27321	10053.3125
786.15132	8754.5125
790.02671	7903.8125
793.89938	7498.6125
797.76935	7290.3125
801.6366	7167.1125
805.50115	7108.9125
809.36299	7047.9125
813.22213	6990.2125
817.07857	6919.3125
820.93231	6877.7125
824.78336	6866.4125
828.63172	6870.8125
832.47738	6894.0125
836.32036	6896.2125
840.16066	6916.6125
843.99827	6939.6125
847.8332	6900.3125
851.66546	6888.8125
855.49504	6889.9125
859.32195	6866.1125
863.1462	6812.7125
866.96777	6782.0125
870.78668	6767.2125
874.60293	6782.8125
878.41652	6820.7125
882.22745	6894.9125
886.03573	6963.4125
889.84136	6960.5125
893.64433	6921.1125
897.44466	6885.9125
901.24235	6874.9125
905.0374	6835.7125
908.8298	6755.1125
912.61957	6689.8125
916.40671	6736.1125
920.19121	6846.5125
923.97308	7006.2125
927.75233	7149.0125
931.52895	7142.3125
935.30295	6970.7125
939.07433	6744.2125
942.84309	6542.1125
946.60924	6445.4125
950.37278	6402.3125
954.13371	6396.0125
957.89203	6386.4125
961.64774	6366.8125
965.40086	6354.8125
969.15137	6357.0125
972.89929	6342.9125
976.64461	6349.2125
980.38733	6327.9125
984.12747	6366.8125
987.86502	6424.3125
991.59999	6523.1125
995.33237	6686.3125
999.06217	6973.0125
1002.78939	7342.5125
1006.51404	7680.1125
1010.23611	7928.1125
1013.95561	8086.7125
1017.67255	8113.9125
1021.38692	7853.3125
1025.09872	7451.2125
1028.80796	7190.1125
1032.51465	7208.6125
1036.21877	7314.2125
1039.92035	7337.4125
1043.61937	7360.5125
1047.31584	7294.1125
1051.00976	7224.9125
1054.70114	7146.6125
1058.38998	7119.7125
1062.07627	7098.3125
1065.76003	7119.0125
1069.44126	7226.6125
1073.11995	7395.0125
1076.79611	7592.1125
1080.46974	7794.8125
1084.14085	8015.9125
1087.80943	8270.3125
1091.47549	8394.6125
1095.13903	8279.1125
1098.80005	7931.7125
1102.45857	7637.0125
1106.11456	7507.8125
1109.76805	7586.4125
1113.41903	7740.4125
1117.06751	7941.2125
1120.71348	8225.0125
1124.35696	8528.3125
1127.99793	8790.4125
1131.63641	8788.5125
1135.2724	8542.1125
1138.90589	8316.9125
1142.5369	8237.7125
1146.16542	8278.5125
1149.79145	8382.7125
1153.415	8486.8125
1157.03607	8550.8125
1160.65467	8768.2125
1164.27079	9220.6125
1167.88443	9981.2125
1171.49561	11180.0125
1175.10432	12910.5125
1178.71056	15214.2125
1182.31434	17229.1125
1185.91565	17758.1125
1189.51451	16830.5125
1193.11091	15323.8125
1196.70485	13976.0125
1200.29634	12765.0125
1203.88538	11851.6125
1207.47197	11071.1125
1211.05612	10578.6125
1214.63782	10359.5125
1218.21708	10516.6125
1221.79391	10899.1125
1225.36829	11374.6125
1228.94024	11435.1125
1232.50976	10917.0125
1236.07685	10243.6125
1239.6415	9849.3125
1243.20374	9684.8125
1246.76355	9650.3125
1250.32093	9702.6125
1253.8759	9947.2125
1257.42845	10367.6125
1260.97859	10879.5125
1264.52631	11466.3125
1268.07163	12021.1125
1271.61453	12491.5125
1275.15503	12952.3125
1278.69312	13392.0125
1282.22882	13958.9125
1285.76211	14893.5125
1289.29301	16106.5125
1292.82151	17357.2125
1296.34761	18700.2125
1299.87133	20327.5125
1303.39266	22251.5125
1306.9116	24457.2125
1310.42815	26792.7125
1313.94233	28075.3125
1317.45412	27371.8125
1320.96354	25114.7125
1324.47058	22554.8125
1327.97525	20350.2125
1331.47754	18876.0125
1334.97747	18165.7125
1338.47502	17735.5125
1341.97022	17443.4125
1345.46305	17323.7125
1348.95352	17847.3125
1352.44163	19354.3125
1355.92738	22035.4125
1359.41078	25525.2125
1362.89183	28466.8125
1366.37053	28429.6125
1369.84688	24622.4125
1373.32088	19940.1125
1376.79254	17131.8125
1380.26186	16077.5125
1383.72883	15574.9125
1387.19347	14989.0125
1390.65578	14393.4125
1394.11575	14189.5125
1397.57339	14406.5125
1401.0287	14722.8125
1404.48168	14874.9125
1407.93234	14741.3125
1411.38068	14415.8125
1414.82669	13993.0125
1418.27039	13584.8125
1421.71177	13068.9125
1425.15083	12613.0125
1428.58758	12510.9125
1432.02203	12833.7125
1435.45416	13295.9125
1438.88399	13574.3125
1442.31151	13616.8125
1445.73673	13577.6125
1449.15965	13576.6125
1452.58027	13333.0125
1455.9986	12985.9125
1459.41463	12853.0125
1462.82837	13116.0125
1466.23982	13668.3125
1469.64898	14266.4125
1473.05586	14680.3125
1476.46045	14985.3125
1479.86276	15174.8125
1483.26279	15257.1125
1486.66054	15445.4125
1490.05602	15835.8125
1493.44922	16265.7125
1496.84016	16657.9125
1500.22882	17060.9125
1503.61521	17838.3125
1506.99934	18897.1125
1510.38121	19903.6125
1513.76081	20081.4125
1517.13816	19076.7125
1520.51324	17480.6125
1523.88607	16129.7125
1527.25665	15517.4125
1530.62498	15434.1125
1533.99105	15290.0125
1537.35488	14957.7125
1540.71647	14439.1125
1544.07581	13850.3125
1547.4329	13266.9125
1550.78776	12669.8125
1554.14038	12245.2125
1557.49077	11910.9125
1560.83892	11827.5125
1564.18484	12019.0125
1567.52853	12394.3125
1570.86999	12874.3125
1574.20922	13240.4125
1577.54624	13346.7125
1580.88103	12996.9125
1584.2136	12528.1125
1587.54395	12713.7125
1590.87208	13740.0125
1594.19801	15533.5125
1597.52172	17556.8125
1600.84321	18620.9125
1604.16251	17797.6125
1607.47959	15494.5125
1610.79447	12978.7125
1614.10715	10950.9125
1617.41763	9685.9125
1620.7259	9013.4125
1624.03199	8769.1125
1627.33587	8878.0125
1630.63757	9358.1125
1633.93707	10330.7125
1637.23439	12119.5125
1640.52951	15102.9125
1643.82246	19121.3125
1647.11321	22625.8125
1650.40179	23423.1125
1653.68819	20669.9125
1656.97241	16231.6125
1660.25446	12347.5125
1663.53433	9846.9125
1666.81203	8426.8125
1670.08756	7641.9125
1673.36092	7190.5125
1676.63211	6892.2125
1679.90115	6696.1125
1683.16801	6559.0125
1686.43272	6462.0125
1689.69527	6370.5125
1692.95567	6333.0125
1696.2139	6298.2125
1699.46999	6248.1125
1702.72392	6205.9125
1705.97571	6187.0125
1709.22535	6177.9125
1712.47284	6174.8125
1715.71819	6176.2125
1718.96139	6138.9125
1722.20246	6116.3125
1725.44139	6085.3125
1728.67818	6009.3125
1731.91284	5951.3125
1735.14537	5900.1125
1738.37576	5868.1125
1741.60403	5842.1125
1744.83017	5815.1125
1748.05418	5787.0125
1751.27607	5758.6125
1754.49584	5757.0125
1757.71349	5719.6125
1760.92903	5731.6125
1764.14244	5711.2125
1767.35375	5717.6125
1770.56294	5707.5125
1773.77002	5685.9125
1776.97499	5673.5125
1780.17785	5659.5125
1783.37861	5626.4125
1786.57727	5616.2125
1789.77382	5600.7125
1792.96828	5581.9125
1796.16064	5585.9125
1799.3509	5565.3125
1802.53907	5564.9125
1805.72514	5540.0125
1808.90913	5527.6125
1812.09102	5501.0125
1815.27083	5485.5125
1818.44856	5494.4125
1821.6242	5482.0125
1824.79776	5464.4125
1827.96924	5451.4125
1831.13864	5458.3125
1834.30597	5451.9125
1837.47122	5454.8125
1840.6344	5437.3125
1843.7955	5453.5125
1846.95454	5443.4125
1850.11151	5459.0125
1853.26642	5449.9125
1856.41926	5456.2125
1859.57004	5485.4125
1862.71876	5479.1125
1865.86542	5502.4125
1869.01003	5519.0125
1872.15258	5544.2125
1875.29308	5563.9125
1878.43152	5598.0125
1881.56792	5637.3125
1884.70227	5635.3125
1887.83457	5653.8125
1890.96482	5666.6125
1894.09304	5649.4125
1897.21921	5661.0125
1900.34335	5648.7125
1903.46544	5636.1125
1906.58551	5643.6125
1909.70353	5627.8125
1912.81953	5606.4125
1915.93349	5594.7125
1919.04543	5578.0125
1922.15534	5549.3125
1925.26322	5536.7125
1928.36908	5532.5125
1931.47292	5504.2125
1934.57473	5495.7125
1937.67453	5472.4125
1940.77232	5470.8125
1943.86808	5447.2125
1946.96184	5434.5125
1950.05358	5397.5125
1953.14331	5395.9125
1956.23103	5366.5125
1959.31675	5342.0125
1962.40046	5319.1125
1965.48217	5309.7125
1968.56188	5303.9125
1971.63959	5287.7125
1974.7153	5250.7125
1977.78901	5215.6125
1980.86073	5212.9125
1983.93046	5179.9125
1986.99819	5152.2125
1990.06394	5133.7125
1993.1277	5135.2125
1996.18947	5126.7125
1999.24925	5122.1125
2002.30706	5131.3125
2005.36288	5119.6125
2008.41672	5120.2125
2011.46859	5096.9125
2014.51848	5085.1125
2017.56639	5057.7125
2020.61233	5047.2125
2023.6563	5009.1125
2026.6983	4983.1125
2029.73833	4972.1125
2032.7764	4942.5125
2035.8125	4922.3125
2038.84664	4907.2125
2041.87881	4884.1125
2044.90903	4887.5125
2047.93729	4882.6125
2050.96359	4893.2125
2053.98794	4895.7125
2057.01034	4900.6125
2060.03078	4927.4125
2063.04927	4930.5125
2066.06582	4961.6125
2069.08042	4987.8125
2072.09307	5020.9125
2075.10378	5041.1125
2078.11255	5049.4125
2081.11938	5069.7125
2084.12426	5071.1125
2087.12722	5065.0125
2090.12824	5064.3125
2093.12732	5034.6125
2096.12447	5034.2125
2099.11969	5007.3125
2102.11299	4981.4125
2105.10435	4969.1125
2108.09379	4941.0125
2111.08131	4911.8125
2114.0669	4896.4125
2117.05057	4887.8125
2120.03233	4888.7125
2123.01216	4869.0125
2125.99008	4840.6125
2128.96609	4849.0125
2131.94018	4822.7125
2134.91236	4839.0125
2137.88263	4838.6125
2140.851	4810.2125
2143.81746	4802.6125
2146.78201	4803.1125
2149.74466	4803.0125
2152.7054	4771.9125
2155.66425	4774.6125
2158.6212	4765.4125
2161.57625	4754.1125
2164.52941	4736.0125
2167.48067	4730.6125
2170.43004	4712.1125
2173.37752	4699.1125
2176.32311	4709.1125
2179.26681	4709.9125
2182.20863	4706.7125
2185.14856	4701.4125
2188.08661	4700.9125
2191.02278	4694.5125
2193.95707	4704.1125
2196.88948	4703.2125
2199.82001	4691.4125
2202.74867	4667.7125
2205.67545	4678.7125
2208.60037	4644.8125
2211.52341	4644.1125
2214.44458	4639.5125
2217.36388	4634.3125
2220.28132	4626.2125
2223.1969	4601.2125
2226.11061	4603.9125
2229.02246	4599.8125
2231.93245	4596.8125
2234.84058	4595.5125
2237.74686	4593.9125
2240.65128	4613.3125
2243.55385	4580.8125
2246.45456	4583.9125
2249.35343	4563.4125
2252.25044	4578.1125
2255.14561	4548.6125
2258.03893	4543.7125
2260.93041	4525.8125
2263.82004	4531.1125
2266.70783	4511.6125
2269.59378	4490.1125
2272.4779	4479.9125
2275.36017	4468.8125
2278.24061	4474.8125
2281.11922	4468.1125
2283.996	4450.6125
2286.87094	4439.2125
2289.74405	4449.1125
2292.61534	4436.1125
2295.4848	4428.4125
2298.35243	4413.9125
2301.21824	4427.9125
2304.08223	4416.2125
2306.94439	4417.5125
2309.80474	4431.1125
2312.66327	4426.8125
2315.51999	4440.7125
2318.37489	4415.3125
2321.22797	4422.6125
2324.07925	4414.0125
2326.92871	4414.6125
2329.77637	4410.2125
2332.62222	4403.1125
2335.46626	4392.8125
2338.3085	4390.5125
2341.14893	4411.0125
2343.98756	4402.1125
2346.8244	4415.7125
2349.65943	4396.4125
2352.49267	4411.2125
2355.32411	4411.3125
2358.15376	4410.0125
2360.98161	4405.9125
2363.80768	4417.4125
2366.63195	4403.7125
2369.45444	4406.2125
2372.27514	4418.9125
2375.09405	4410.6125
2377.91118	4405.3125
2380.72652	4397.0125
2383.54009	4391.2125
2386.35187	4363.4125
2389.16188	4343.4125
2391.97011	4346.5125
2394.77657	4339.3125
2397.58125	4319.5125
2400.38416	4323.7125
2403.18529	4298.0125
2405.98466	4306.7125
2408.78226	4284.3125
2411.57809	4304.2125
2414.37216	4271.0125
2417.16446	4278.1125
2419.955	4269.6125
2422.74378	4288.8125
2425.5308	4280.9125
2428.31606	4292.7125
2431.09956	4269.0125
2433.88131	4278.2125
2436.6613	4268.1125
2439.43954	4279.9125
2442.21603	4272.5125
2444.99077	4273.0125
2447.76377	4285.2125
2450.53501	4281.0125
2453.30451	4287.7125
2456.07226	4287.2125
2458.83827	4288.9125
2461.60254	4286.7125
2464.36507	4300.9125
2467.12586	4289.3125
2469.88492	4286.4125
2472.64224	4301.8125
2475.39782	4307.1125
2478.15167	4304.6125
2480.90379	4304.8125
2483.65417	4309.0125
2486.40283	4332.8125
2489.14976	4328.3125
2491.89497	4324.6125
2494.63845	4336.9125
2497.3802	4330.1125
2500.12024	4334.0125
2502.85855	4331.1125
2505.59514	4323.3125
2508.33002	4307.5125
2511.06318	4292.1125
2513.79462	4280.3125
2516.52435	4287.4125
2519.25237	4269.2125
2521.97867	4250.4125
2524.70327	4263.2125
2527.42616	4252.3125
2530.14734	4256.7125
2532.86681	4246.0125
2535.58458	4250.4125
2538.30065	4254.3125
2541.01501	4245.0125
2543.72768	4264.0125
2546.43864	4245.8125
2549.14791	4247.5125
2551.85548	4248.4125
2554.56136	4261.6125
2557.26554	4248.9125
2559.96803	4245.3125
2562.66883	4248.1125
2565.36794	4252.8125
2568.06536	4262.4125
2570.7611	4247.2125
2573.45514	4254.9125
2576.14751	4248.6125
2578.83819	4262.3125
2581.52719	4226.8125
2584.21451	4242.6125
2586.90015	4242.4125
2589.58411	4233.0125
2592.2664	4246.8125
2594.94701	4231.7125
2597.62594	4222.0125
2600.30321	4218.7125
2602.9788	4219.9125
2605.65273	4227.6125
2608.32498	4209.5125
2610.99557	4226.9125
2613.66449	4232.5125
2616.33175	4220.0125
2618.99734	4236.9125
2621.66128	4239.1125
2624.32355	4217.0125
2626.98416	4223.8125
2629.64311	4213.4125
2632.30041	4212.5125
2634.95605	4202.2125
2637.61004	4203.2125
2640.26238	4190.4125
2642.91306	4206.8125
2645.56209	4191.8125
2648.20948	4195.0125
2650.85521	4198.4125
2653.4993	4205.1125
2656.14175	4216.1125
2658.78255	4220.9125
2661.42171	4234.9125
2664.05923	4230.9125
2666.6951	4249.2125
2669.32934	4253.5125
2671.96194	4250.3125
2674.59291	4250.7125
2677.22224	4246.6125
2679.84993	4256.1125
2682.476	4256.1125
2685.10043	4237.3125
2687.72324	4229.9125
2690.34441	4239.3125
2692.96396	4231.4125
2695.58188	4217.5125
2698.19818	4234.7125
2700.81285	4224.0125
2703.4259	4230.9125
2706.03733	4244.9125
2708.64714	4244.5125
2711.25533	4249.4125
2713.86191	4241.1125
2716.46687	4257.4125
2719.07021	4262.0125
2721.67194	4262.7125
2724.27206	4262.2125
2726.87057	4287.2125
2729.46747	4278.4125
2732.06276	4273.7125
2734.65644	4282.0125
2737.24852	4269.5125
2739.83899	4254.4125
2742.42786	4286.5125
2745.01513	4261.2125
2747.60079	4253.3125
2750.18486	4248.1125
2752.76733	4250.6125
2755.3482	4263.4125
2757.92747	4262.5125
2760.50515	4262.7125
2763.08123	4259.8125
2765.65573	4252.2125
2768.22863	4258.5125
2770.79994	4249.2125
2773.36967	4269.9125
2775.9378	4263.2125
2778.50435	4264.6125
2781.06932	4262.7125
2783.6327	4259.2125
2786.1945	4264.4125
2788.75471	4277.5125
2791.31335	4259.7125
2793.87041	4257.5125
2796.42589	4249.6125
2798.97979	4260.7125
2801.53212	4237.9125
2804.08288	4247.5125
2806.63206	4238.3125
2809.17967	4239.2125
2811.72571	4229.8125
2814.27018	4234.2125
2816.81308	4241.3125
2819.35442	4249.2125
2821.89419	4231.0125
2824.43239	4253.0125
2826.96904	4253.0125
2829.50412	4249.6125
2832.03763	4267.0125
2834.56959	4261.5125
2837.1	4269.0125
2839.62884	4269.0125
2842.15613	4273.4125
2844.68186	4297.9125
2847.20604	4293.6125
2849.72867	4334.5125
2852.24974	4334.2125
2854.76927	4322.4125
2857.28724	4325.7125
2859.80367	4319.9125
2862.31855	4349.0125
2864.83189	4334.1125
2867.34368	4345.9125
2869.85393	4348.5125
2872.36264	4362.8125
2874.8698	4353.0125
2877.37543	4366.1125
2879.87952	4362.3125
2882.38207	4362.5125
2884.88308	4368.9125
2887.38256	4367.9125
2889.88051	4369.0125
2892.37692	4366.5125
2894.8718	4369.7125
2897.36515	4364.7125
2899.85698	4383.3125
2902.34727	4369.4125
2904.83604	4374.4125
2907.32328	4391.2125
2909.809	4387.1125
2912.29319	4409.8125
2914.77587	4365.9125
2917.25702	4375.0125
2919.73665	4361.9125
2922.21476	4363.7125
2924.69136	4361.9125
2927.16644	4359.0125
2929.64	4361.0125
2932.11205	4337.9125
2934.58258	4313.4125
2937.05161	4339.1125
2939.51912	4320.7125
2941.98513	4295.3125
2944.44962	4283.3125
2946.91261	4237.8125
2949.37409	4255.1125
2951.83407	4243.9125
2954.29254	4233.0125
2956.74951	4228.3125
2959.20498	4219.2125
2961.65895	4201.2125
2964.11142	4184.1125
2966.56239	4178.9125
2969.01186	4180.3125
2971.45984	4138.4125
2973.90632	4126.8125
2976.35131	4120.1125
2978.7948	4096.9125
2981.23681	4094.3125
2983.67732	4073.1125
2986.11635	4070.6125
2988.55388	4044.2125
2990.98993	4039.6125
2993.4245	4026.9125
2995.85758	4032.8125
2998.28917	4019.1125
3000.71928	4016.3125
3003.14791	4011.8125
3005.57506	4017.0125
3008.00073	3997.5125
3010.42493	4007.1125
3012.84764	4001.8125
3015.26888	3988.0125
3017.68865	3981.5125
3020.10694	3964.5125
3022.52376	3948.9125
3024.9391	3944.5125
3027.35298	3935.0125
3029.76539	3923.2125
3032.17632	3915.3125
3034.5858	3908.4125
3036.9938	3907.5125
3039.40034	3892.3125
3041.80542	3894.8125
3044.20903	3887.9125
3046.61118	3892.4125
3049.01187	3890.4125
3051.4111	3881.1125
3053.80888	3885.1125
3056.20519	3869.5125
3058.60005	3878.1125
3060.99345	3869.4125
3063.3854	3865.5125
3065.7759	3858.8125
3068.16494	3847.3125
3070.55254	3827.2125
3072.93868	3828.1125
3075.32338	3816.9125
3077.70662	3801.9125
3080.08842	3807.3125
3082.46878	3808.6125
3084.84769	3778.4125
3087.22515	3792.4125
3089.60118	3798.1125
3091.97576	3788.8125
3094.3489	3786.2125
3096.72061	3767.2125
3099.09087	3770.8125
3101.4597	3776.4125
3103.82709	3759.1125
3106.19305	3760.5125
3108.55757	3745.0125
