Data from AgNP_FTO_APTES_UA_100uM_CRN_0uM_R6G_10uM_NaF_0.1M_Addition_RamanShift__39__11-30-40-132.txt Node

Date: Thu Mar 24 11:30:40 GMT 2022
User: TCL
Spectrometer: QEP01345
Trigger mode: 4
Integration Time (sec): 7.000000E0
Scans to average: 10
Electric dark correction enabled: true
Nonlinearity correction enabled: false
Boxcar width: 0
XAxis mode: Raman Shifts
Number of Pixels in Spectrum: 1044
>>>>>Begin Spectral Data<<<<<
46.04893	-0.5375
50.45542	-1.1375
54.85868	0.4625
59.25871	0.8625
63.6555	41.5625
68.04907	47.2625
72.43941	44.6625
76.82654	46.2625
81.21044	53.7625
85.59113	56.1625
89.96862	58.6625
94.34289	53.3625
98.71396	61.7625
103.08183	61.1625
107.4465	58.6625
111.80798	60.8625
116.16626	65.0625
120.52136	65.1625
124.87327	69.9625
129.222	76.9625
133.56755	78.0625
137.90993	81.2625
142.24913	96.1625
146.58517	103.5625
150.91804	121.6625
155.24774	146.3625
159.57429	182.9625
163.89768	236.9625
168.21792	317.8625
172.53501	440.5625
176.84895	615.0625
181.15975	862.7625
185.46741	1208.9625
189.77193	1678.1625
194.07331	2254.3625
198.37157	2931.1625
202.6667	3631.0625
206.9587	4356.3625
211.24758	5147.3625
215.53334	5968.9625
219.81599	6911.5625
224.09553	7999.0625
228.37195	9195.2625
232.64527	10509.6625
236.91549	11731.9625
241.18261	12750.0625
245.44663	13524.8625
249.70755	14104.5625
253.96539	14512.9625
258.22014	14990.0625
262.4718	15331.5625
266.72039	15430.9625
270.96589	15295.0625
275.20832	14957.3625
279.44768	14567.6625
283.68397	14223.6625
287.91719	14021.6625
292.14735	14131.4625
296.37445	14621.3625
300.59849	15560.9625
304.81948	16694.7625
309.03742	17661.2625
313.25231	17981.6625
317.46415	17147.0625
321.67296	15468.8625
325.87872	14011.3625
330.08145	13266.1625
334.28114	13180.3625
338.47781	13470.0625
342.67145	13943.2625
346.86207	14693.9625
351.04966	15875.2625
355.23424	17259.3625
359.4158	18281.6625
363.59435	18660.4625
367.76989	18555.1625
371.94243	18229.5625
376.11196	17850.2625
380.27849	17471.9625
384.44203	17137.5625
388.60257	16701.5625
392.76012	16508.0625
396.91468	16580.4625
401.06626	17042.5625
405.21485	17417.4625
409.36047	16942.0625
413.50311	15675.2625
417.64277	14490.3625
421.77947	13799.4625
425.9132	13545.5625
430.04396	13515.7625
434.17176	13613.1625
438.2966	13901.2625
442.41849	14467.3625
446.53742	15241.0625
450.6534	15879.7625
454.76644	16153.5625
458.87653	15942.8625
462.98368	15451.7625
467.08789	14958.3625
471.18916	14472.4625
475.2875	13932.9625
479.38291	13473.9625
483.4754	13133.6625
487.56496	12893.8625
491.6516	12686.3625
495.73531	12531.8625
499.81612	12527.9625
503.89401	12721.8625
507.96899	12968.0625
512.04106	13177.3625
516.11023	13456.8625
520.1765	13644.7625
524.23987	13643.1625
528.30034	13508.1625
532.35792	13296.2625
536.41261	12922.3625
540.46441	12415.4625
544.51333	12101.6625
548.55936	12196.7625
552.60252	12678.7625
556.64279	13371.5625
560.6802	13866.7625
564.71473	14366.7625
568.7464	15560.2625
572.7752	16309.7625
576.80114	15549.6625
580.82422	14536.7625
584.84444	14272.6625
588.86181	14574.2625
592.87633	15197.8625
596.888	15532.4625
600.89682	15548.3625
604.9028	17566.2625
608.90594	24534.2625
612.90624	33848.1625
616.90371	32574.5625
620.89834	20283.3625
624.89015	14061.8625
628.87913	12946.0625
632.86528	13229.0625
636.84862	13621.1625
640.82913	13185.9625
644.80683	12017.6625
648.78172	11221.6625
652.75379	11222.0625
656.72306	12080.4625
660.68952	13133.7625
664.65319	12910.8625
668.61405	11805.9625
672.57211	11268.0625
676.52738	11246.8625
680.47986	11156.7625
684.42955	10884.9625
688.37646	10718.2625
692.32058	10777.7625
696.26192	11016.1625
700.20048	11323.2625
704.13626	11559.1625
708.06928	11545.5625
711.99952	11381.4625
715.927	11339.8625
719.85171	11446.9625
723.77365	11499.1625
727.69284	11304.8625
731.60928	11112.1625
735.52295	11091.5625
739.43388	11212.9625
743.34206	11322.7625
747.24749	11379.4625
751.15017	11476.4625
755.05012	11857.0625
758.94733	13001.0625
762.8418	15825.3625
766.73354	20387.9625
770.62254	24562.9625
774.50882	26296.1625
778.39237	24928.4625
782.27321	20609.1625
786.15132	16009.0625
790.02671	13217.3625
793.89938	11910.7625
797.76935	11364.8625
801.6366	11143.0625
805.50115	11030.8625
809.36299	10924.5625
813.22213	10808.6625
817.07857	10722.7625
820.93231	10733.5625
824.78336	10813.4625
828.63172	10907.4625
832.47738	10979.3625
836.32036	10904.6625
840.16066	10765.5625
843.99827	10711.2625
847.8332	10619.7625
851.66546	10619.1625
855.49504	10601.7625
859.32195	10580.0625
863.1462	10501.6625
866.96777	10420.3625
870.78668	10379.4625
874.60293	10429.3625
878.41652	10504.7625
882.22745	10655.8625
886.03573	10784.9625
889.84136	10776.0625
893.64433	10723.3625
897.44466	10675.5625
901.24235	10669.4625
905.0374	10550.2625
908.8298	10386.9625
912.61957	10282.4625
916.40671	10332.6625
920.19121	10484.7625
923.97308	10775.4625
927.75233	11126.8625
931.52895	11386.7625
935.30295	11123.0625
939.07433	10485.5625
942.84309	9981.4625
946.60924	9777.9625
950.37278	9615.1625
954.13371	9548.3625
957.89203	9496.6625
961.64774	9458.0625
965.40086	9429.3625
969.15137	9365.3625
972.89929	9344.1625
976.64461	9310.0625
980.38733	9343.1625
984.12747	9344.0625
987.86502	9446.2625
991.59999	9584.3625
995.33237	9849.0625
999.06217	10318.2625
1002.78939	10898.9625
1006.51404	11458.3625
1010.23611	11821.7625
1013.95561	11976.2625
1017.67255	11912.7625
1021.38692	11570.3625
1025.09872	11161.6625
1028.80796	10971.4625
1032.51465	11135.9625
1036.21877	11379.8625
1039.92035	11500.1625
1043.61937	11491.7625
1047.31584	11408.9625
1051.00976	11190.2625
1054.70114	11028.4625
1058.38998	10952.1625
1062.07627	10965.6625
1065.76003	11028.6625
1069.44126	11181.6625
1073.11995	11496.6625
1076.79611	11927.0625
1080.46974	12430.9625
1084.14085	13117.4625
1087.80943	13757.7625
1091.47549	13924.8625
1095.13903	13479.8625
1098.80005	12678.3625
1102.45857	12032.8625
1106.11456	11812.2625
1109.76805	11992.5625
1113.41903	12568.3625
1117.06751	13438.1625
1120.71348	14721.3625
1124.35696	16205.4625
1127.99793	17131.1625
1131.63641	16488.0625
1135.2724	14999.6625
1138.90589	13768.8625
1142.5369	13070.6625
1146.16542	12641.0625
1149.79145	12425.2625
1153.415	12421.2625
1157.03607	12580.4625
1160.65467	13028.8625
1164.27079	13878.0625
1167.88443	15314.1625
1171.49561	17490.4625
1175.10432	21012.0625
1178.71056	25492.2625
1182.31434	29055.0625
1185.91565	29960.4625
1189.51451	28735.8625
1193.11091	26384.1625
1196.70485	23830.3625
1200.29634	21715.2625
1203.88538	19845.6625
1207.47197	17854.1625
1211.05612	16240.2625
1214.63782	15422.8625
1218.21708	15319.8625
1221.79391	15524.0625
1225.36829	15590.8625
1228.94024	15258.7625
1232.50976	14735.6625
1236.07685	14411.8625
1239.6415	14316.1625
1243.20374	14367.8625
1246.76355	14469.2625
1250.32093	14706.6625
1253.8759	15114.5625
1257.42845	15943.6625
1260.97859	16911.9625
1264.52631	17937.3625
1268.07163	18938.4625
1271.61453	19748.1625
1275.15503	20371.8625
1278.69312	20804.4625
1282.22882	21354.3625
1285.76211	22401.4625
1289.29301	23661.7625
1292.82151	24978.9625
1296.34761	26578.3625
1299.87133	28994.6625
1303.39266	32903.3625
1306.9116	38542.0625
1310.42815	44666.2625
1313.94233	47209.9625
1317.45412	44540.7625
1320.96354	39360.3625
1324.47058	34355.2625
1327.97525	30574.6625
1331.47754	28353.4625
1334.97747	27626.3625
1338.47502	27937.5625
1341.97022	29042.9625
1345.46305	30775.7625
1348.95352	33259.1625
1352.44163	36588.3625
1355.92738	41941.4625
1359.41078	50230.3625
1362.89183	56911.4625
1366.37053	53313.0625
1369.84688	42355.6625
1373.32088	33068.7625
1376.79254	27779.2625
1380.26186	24884.2625
1383.72883	23082.9625
1387.19347	21731.3625
1390.65578	20671.2625
1394.11575	20182.6625
1397.57339	20202.3625
1401.0287	20561.1625
1404.48168	20858.5625
1407.93234	21026.8625
1411.38068	21069.2625
1414.82669	20803.1625
1418.27039	20228.6625
1421.71177	19397.8625
1425.15083	18606.0625
1428.58758	18432.1625
1432.02203	18778.9625
1435.45416	19183.7625
1438.88399	19257.8625
1442.31151	19218.2625
1445.73673	19395.0625
1449.15965	19598.7625
1452.58027	19611.3625
1455.9986	19468.5625
1459.41463	19567.3625
1462.82837	20139.3625
1466.23982	20907.5625
1469.64898	21608.9625
1473.05586	21923.3625
1476.46045	21967.9625
1479.86276	22113.8625
1483.26279	22573.4625
1486.66054	23378.3625
1490.05602	24623.3625
1493.44922	26456.0625
1496.84016	29148.5625
1500.22882	33439.5625
1503.61521	39624.5625
1506.99934	46566.7625
1510.38121	51976.5625
1513.76081	52461.9625
1517.13816	47097.7625
1520.51324	38750.5625
1523.88607	31650.6625
1527.25665	27423.5625
1530.62498	25298.5625
1533.99105	24032.0625
1537.35488	23199.0625
1540.71647	22534.8625
1544.07581	22081.7625
1547.4329	21713.9625
1550.78776	21451.1625
1554.14038	21355.0625
1557.49077	21506.7625
1560.83892	21988.0625
1564.18484	22902.7625
1567.52853	24162.1625
1570.86999	25169.7625
1574.20922	25655.2625
1577.54624	25294.9625
1580.88103	23411.7625
1584.2136	20960.1625
1587.54395	19878.8625
1590.87208	20514.1625
1594.19801	22628.0625
1597.52172	25411.7625
1600.84321	26771.4625
1604.16251	25679.6625
1607.47959	23073.0625
1610.79447	20175.1625
1614.10715	17532.1625
1617.41763	15626.3625
1620.7259	14500.3625
1624.03199	13987.2625
1627.33587	14070.7625
1630.63757	14738.8625
1633.93707	16159.7625
1637.23439	18609.2625
1640.52951	22544.9625
1643.82246	28250.3625
1647.11321	34378.5625
1650.40179	37694.8625
1653.68819	35119.0625
1656.97241	28135.6625
1660.25446	21135.8625
1663.53433	16335.6625
1666.81203	13565.8625
1670.08756	12046.0625
1673.36092	11163.1625
1676.63211	10606.4625
1679.90115	10243.1625
1683.16801	9994.8625
1686.43272	9766.7625
1689.69527	9636.2625
1692.95567	9552.6625
1696.2139	9493.5625
1699.46999	9430.5625
1702.72392	9383.6625
1705.97571	9370.1625
1709.22535	9378.6625
1712.47284	9349.4625
1715.71819	9367.0625
1718.96139	9312.6625
1722.20246	9287.2625
1725.44139	9173.1625
1728.67818	9067.9625
1731.91284	8940.5625
1735.14537	8853.5625
1738.37576	8769.1625
1741.60403	8732.7625
1744.83017	8677.7625
1748.05418	8641.1625
1751.27607	8601.7625
1754.49584	8589.5625
1757.71349	8547.1625
1760.92903	8506.6625
1764.14244	8514.5625
1767.35375	8471.4625
1770.56294	8428.8625
1773.77002	8375.9625
1776.97499	8325.1625
1780.17785	8301.5625
1783.37861	8269.8625
1786.57727	8241.2625
1789.77382	8234.7625
1792.96828	8203.1625
1796.16064	8193.2625
1799.3509	8177.2625
1802.53907	8153.3625
1805.72514	8114.4625
1808.90913	8107.6625
1812.09102	8078.2625
1815.27083	8047.5625
1818.44856	7999.4625
1821.6242	7981.1625
1824.79776	7975.4625
1827.96924	7958.7625
1831.13864	7942.9625
1834.30597	7935.3625
1837.47122	7923.1625
1840.6344	7893.6625
1843.7955	7902.2625
1846.95454	7888.6625
1850.11151	7890.4625
1853.26642	7893.5625
1856.41926	7907.7625
1859.57004	7910.2625
1862.71876	7903.4625
1865.86542	7925.0625
1869.01003	7924.3625
1872.15258	7926.2625
1875.29308	7938.2625
1878.43152	7945.7625
1881.56792	7964.4625
1884.70227	7969.3625
1887.83457	7960.3625
1890.96482	7972.9625
1894.09304	7966.5625
1897.21921	7990.3625
1900.34335	7980.1625
1903.46544	7978.4625
1906.58551	7987.8625
1909.70353	7963.6625
1912.81953	7947.9625
1915.93349	7919.9625
1919.04543	7929.2625
1922.15534	7888.6625
1925.26322	7858.8625
1928.36908	7805.0625
1931.47292	7797.1625
1934.57473	7760.1625
1937.67453	7720.8625
1940.77232	7676.1625
1943.86808	7640.3625
1946.96184	7605.2625
1950.05358	7588.6625
1953.14331	7570.0625
1956.23103	7549.3625
1959.31675	7534.6625
1962.40046	7512.0625
1965.48217	7541.6625
1968.56188	7535.8625
1971.63959	7531.8625
1974.7153	7507.9625
1977.78901	7486.1625
1980.86073	7437.9625
1983.93046	7404.5625
1986.99819	7355.5625
1990.06394	7310.6625
1993.1277	7286.4625
1996.18947	7248.0625
1999.24925	7205.2625
2002.30706	7208.1625
2005.36288	7179.6625
2008.41672	7134.9625
2011.46859	7118.6625
2014.51848	7098.7625
2017.56639	7064.9625
2020.61233	7049.5625
2023.6563	7025.0625
2026.6983	6977.6625
2029.73833	6978.1625
2032.7764	6958.4625
2035.8125	6941.3625
2038.84664	6959.9625
2041.87881	6942.8625
2044.90903	6932.7625
2047.93729	6901.2625
2050.96359	6902.7625
2053.98794	6889.8625
2057.01034	6869.6625
2060.03078	6870.1625
2063.04927	6866.1625
2066.06582	6874.1625
2069.08042	6835.8625
2072.09307	6828.4625
2075.10378	6838.1625
2078.11255	6815.1625
2081.11938	6830.9625
2084.12426	6816.0625
2087.12722	6822.1625
2090.12824	6812.9625
2093.12732	6830.0625
2096.12447	6825.9625
2099.11969	6809.7625
2102.11299	6823.9625
2105.10435	6825.3625
2108.09379	6814.0625
2111.08131	6811.8625
2114.0669	6817.9625
2117.05057	6827.0625
2120.03233	6834.2625
2123.01216	6827.9625
2125.99008	6845.4625
2128.96609	6835.7625
2131.94018	6840.0625
2134.91236	6841.3625
2137.88263	6843.4625
2140.851	6804.0625
2143.81746	6826.8625
2146.78201	6806.8625
2149.74466	6774.8625
2152.7054	6769.6625
2155.66425	6753.4625
2158.6212	6743.6625
2161.57625	6744.9625
2164.52941	6721.1625
2167.48067	6707.1625
2170.43004	6712.1625
2173.37752	6690.3625
2176.32311	6693.0625
2179.26681	6691.6625
2182.20863	6719.8625
2185.14856	6711.2625
2188.08661	6698.9625
2191.02278	6685.7625
2193.95707	6690.8625
2196.88948	6671.5625
2199.82001	6654.7625
2202.74867	6663.3625
2205.67545	6657.4625
2208.60037	6653.1625
2211.52341	6650.8625
2214.44458	6631.9625
2217.36388	6594.7625
2220.28132	6600.3625
2223.1969	6571.1625
2226.11061	6572.5625
2229.02246	6547.6625
2231.93245	6550.9625
2234.84058	6503.5625
2237.74686	6508.6625
2240.65128	6488.8625
2243.55385	6496.8625
2246.45456	6501.2625
2249.35343	6500.9625
2252.25044	6500.3625
2255.14561	6519.1625
2258.03893	6516.4625
2260.93041	6536.5625
2263.82004	6522.8625
2266.70783	6489.6625
2269.59378	6470.9625
2272.4779	6467.9625
2275.36017	6440.2625
2278.24061	6440.3625
2281.11922	6423.7625
2283.996	6408.2625
2286.87094	6383.8625
2289.74405	6335.5625
2292.61534	6342.6625
2295.4848	6331.5625
2298.35243	6330.8625
2301.21824	6325.3625
2304.08223	6315.1625
2306.94439	6325.7625
2309.80474	6333.2625
2312.66327	6326.5625
2315.51999	6334.7625
2318.37489	6318.9625
2321.22797	6338.8625
2324.07925	6323.6625
2326.92871	6325.8625
2329.77637	6313.1625
2332.62222	6306.8625
2335.46626	6312.8625
2338.3085	6303.9625
2341.14893	6331.6625
2343.98756	6345.1625
2346.8244	6371.6625
2349.65943	6367.9625
2352.49267	6396.3625
2355.32411	6382.3625
2358.15376	6399.0625
2360.98161	6428.9625
2363.80768	6420.3625
2366.63195	6438.8625
2369.45444	6450.6625
2372.27514	6437.0625
2375.09405	6438.0625
2377.91118	6403.6625
2380.72652	6381.1625
2383.54009	6352.0625
2386.35187	6312.7625
2389.16188	6288.2625
2391.97011	6266.6625
2394.77657	6241.9625
2397.58125	6230.6625
2400.38416	6224.5625
2403.18529	6171.2625
2405.98466	6155.2625
2408.78226	6152.3625
2411.57809	6128.3625
2414.37216	6109.9625
2417.16446	6143.0625
2419.955	6090.5625
2422.74378	6109.1625
2425.5308	6160.8625
2428.31606	6143.7625
2431.09956	6113.7625
2433.88131	6103.7625
2436.6613	6106.6625
2439.43954	6103.3625
2442.21603	6123.7625
2444.99077	6141.2625
2447.76377	6143.7625
2450.53501	6175.1625
2453.30451	6164.2625
2456.07226	6171.7625
2458.83827	6176.4625
2461.60254	6170.3625
2464.36507	6172.3625
2467.12586	6155.2625
2469.88492	6172.9625
2472.64224	6186.5625
2475.39782	6190.8625
2478.15167	6209.1625
2480.90379	6235.6625
2483.65417	6269.1625
2486.40283	6300.0625
2489.14976	6311.8625
2491.89497	6317.8625
2494.63845	6336.7625
2497.3802	6324.6625
2500.12024	6304.0625
2502.85855	6304.4625
2505.59514	6271.9625
2508.33002	6218.1625
2511.06318	6209.0625
2513.79462	6166.3625
2516.52435	6110.6625
2519.25237	6103.9625
2521.97867	6062.9625
2524.70327	6046.3625
2527.42616	6044.4625
2530.14734	6053.8625
2532.86681	6051.2625
2535.58458	6041.5625
2538.30065	6039.8625
2541.01501	6040.6625
2543.72768	6070.8625
2546.43864	6072.2625
2549.14791	6059.5625
2551.85548	6072.7625
2554.56136	6067.8625
2557.26554	6055.1625
2559.96803	6056.6625
2562.66883	6049.3625
2565.36794	6062.9625
2568.06536	6062.0625
2570.7611	6048.3625
2573.45514	6045.0625
2576.14751	6037.1625
2578.83819	6035.9625
2581.52719	6025.4625
2584.21451	6013.9625
2586.90015	6002.6625
2589.58411	5996.0625
2592.2664	5985.8625
2594.94701	5984.1625
2597.62594	5993.9625
2600.30321	5988.3625
2602.9788	6004.4625
2605.65273	5979.3625
2608.32498	5997.4625
2610.99557	6021.1625
2613.66449	6014.4625
2616.33175	6025.7625
2618.99734	6034.0625
2621.66128	6018.9625
2624.32355	6038.1625
2626.98416	6035.3625
2629.64311	6011.4625
2632.30041	6007.4625
2634.95605	5995.4625
2637.61004	6002.4625
2640.26238	5989.3625
2642.91306	5973.6625
2645.56209	5969.2625
2648.20948	5956.2625
2650.85521	5970.9625
2653.4993	5969.3625
2656.14175	5970.2625
2658.78255	5992.6625
2661.42171	5982.3625
2664.05923	6014.2625
2666.6951	6024.9625
2669.32934	6049.0625
2671.96194	6061.6625
2674.59291	6053.1625
2677.22224	6040.0625
2679.84993	6032.4625
2682.476	6026.2625
2685.10043	6026.9625
2687.72324	6030.4625
2690.34441	6033.6625
2692.96396	5985.7625
2695.58188	5996.1625
2698.19818	5998.1625
2700.81285	6004.4625
2703.4259	5999.2625
2706.03733	6005.8625
2708.64714	6013.8625
2711.25533	6009.7625
2713.86191	6026.8625
2716.46687	6034.0625
2719.07021	6047.5625
2721.67194	6032.5625
2724.27206	6032.1625
2726.87057	6062.5625
2729.46747	6056.1625
2732.06276	6034.4625
2734.65644	6020.8625
2737.24852	6038.4625
2739.83899	6008.5625
2742.42786	5986.2625
2745.01513	5970.8625
2747.60079	5968.9625
2750.18486	5978.3625
2752.76733	5980.1625
2755.3482	5966.4625
2757.92747	5956.9625
2760.50515	5959.6625
2763.08123	5967.5625
2765.65573	5956.8625
2768.22863	5964.6625
2770.79994	5954.1625
2773.36967	5965.6625
2775.9378	5980.5625
2778.50435	5967.6625
2781.06932	5962.7625
2783.6327	5984.7625
2786.1945	5979.4625
2788.75471	5984.0625
2791.31335	5990.4625
2793.87041	5984.0625
2796.42589	5979.3625
2798.97979	5970.8625
2801.53212	5982.5625
2804.08288	6005.2625
2806.63206	6014.3625
2809.17967	5997.0625
2811.72571	6020.7625
2814.27018	6027.3625
2816.81308	6037.9625
2819.35442	6053.2625
2821.89419	6062.5625
2824.43239	6066.0625
2826.96904	6099.6625
2829.50412	6077.3625
2832.03763	6090.1625
2834.56959	6083.5625
2837.1	6069.5625
2839.62884	6054.1625
2842.15613	6064.3625
2844.68186	6086.3625
2847.20604	6087.5625
2849.72867	6111.9625
2852.24974	6128.8625
2854.76927	6176.8625
2857.28724	6163.6625
2859.80367	6199.4625
2862.31855	6181.3625
2864.83189	6190.6625
2867.34368	6210.0625
2869.85393	6239.7625
2872.36264	6231.1625
2874.8698	6238.7625
2877.37543	6230.9625
2879.87952	6228.6625
2882.38207	6221.1625
2884.88308	6204.7625
2887.38256	6197.1625
2889.88051	6185.6625
2892.37692	6187.7625
2894.8718	6200.1625
2897.36515	6182.3625
2899.85698	6176.5625
2902.34727	6196.3625
2904.83604	6187.3625
2907.32328	6183.1625
2909.809	6167.1625
2912.29319	6177.6625
2914.77587	6146.5625
2917.25702	6132.8625
2919.73665	6107.2625
2922.21476	6117.6625
2924.69136	6078.7625
2927.16644	6076.0625
2929.64	6046.2625
2932.11205	6034.8625
2934.58258	5987.6625
2937.05161	6006.0625
2939.51912	6008.3625
2941.98513	5994.2625
2944.44962	5953.2625
2946.91261	5919.4625
2949.37409	5936.1625
2951.83407	5930.8625
2954.29254	5923.1625
2956.74951	5902.5625
2959.20498	5890.2625
2961.65895	5876.5625
2964.11142	5886.6625
2966.56239	5845.2625
2969.01186	5836.9625
2971.45984	5787.0625
2973.90632	5767.9625
2976.35131	5754.6625
2978.7948	5726.9625
2981.23681	5708.3625
2983.67732	5692.4625
2986.11635	5679.8625
2988.55388	5662.7625
2990.98993	5694.6625
2993.4245	5665.7625
2995.85758	5674.0625
2998.28917	5669.5625
3000.71928	5645.7625
3003.14791	5646.3625
3005.57506	5650.4625
3008.00073	5637.5625
3010.42493	5631.6625
3012.84764	5610.4625
3015.26888	5617.7625
3017.68865	5607.0625
3020.10694	5594.2625
3022.52376	5549.2625
3024.9391	5552.3625
3027.35298	5534.1625
3029.76539	5531.2625
3032.17632	5508.1625
3034.5858	5483.3625
3036.9938	5465.6625
3039.40034	5459.9625
3041.80542	5440.9625
3044.20903	5435.0625
3046.61118	5404.9625
3049.01187	5395.0625
3051.4111	5400.7625
3053.80888	5377.3625
3056.20519	5366.7625
3058.60005	5369.1625
3060.99345	5337.9625
3063.3854	5311.8625
3065.7759	5304.3625
3068.16494	5290.0625
3070.55254	5276.1625
3072.93868	5255.8625
3075.32338	5251.0625
3077.70662	5221.7625
3080.08842	5217.3625
3082.46878	5209.8625
