Data from AgNP_FTO_APTES_UA_100uM_CRN_20uM_R6G_10uM_NaF_0.1M_Addition_RamanShift__11__16-38-40-487.txt Node

Date: Thu Mar 24 16:38:40 GMT 2022
User: TCL
Spectrometer: QEP01345
Trigger mode: 4
Integration Time (sec): 7.000000E0
Scans to average: 10
Electric dark correction enabled: true
Nonlinearity correction enabled: false
Boxcar width: 0
XAxis mode: Raman Shifts
Number of Pixels in Spectrum: 1044
>>>>>Begin Spectral Data<<<<<
46.04893	-1.225
50.45542	0.375
54.85868	-0.525
59.25871	0.075
63.6555	42.075
68.04907	45.075
72.43941	47.875
76.82654	47.975
81.21044	50.975
85.59113	51.375
89.96862	56.475
94.34289	53.575
98.71396	57.675
103.08183	56.375
107.4465	59.775
111.80798	63.775
116.16626	65.475
120.52136	62.375
124.87327	64.275
129.222	70.075
133.56755	76.375
137.90993	79.275
142.24913	88.675
146.58517	97.375
150.91804	119.775
155.24774	141.175
159.57429	178.475
163.89768	233.875
168.21792	307.575
172.53501	425.275
176.84895	593.075
181.15975	845.475
185.46741	1184.075
189.77193	1638.875
194.07331	2212.175
198.37157	2861.975
202.6667	3555.275
206.9587	4230.375
211.24758	4899.475
215.53334	5596.175
219.81599	6316.275
224.09553	7112.275
228.37195	8000.975
232.64527	9008.775
236.91549	10031.175
241.18261	11003.375
245.44663	11908.875
249.70755	12667.275
253.96539	13331.675
258.22014	13905.175
262.4718	14387.775
266.72039	14675.975
270.96589	14861.475
275.20832	14892.475
279.44768	14723.375
283.68397	14571.975
287.91719	14413.375
292.14735	14346.675
296.37445	14410.875
300.59849	14572.375
304.81948	14845.975
309.03742	15023.575
313.25231	15018.475
317.46415	14772.475
321.67296	14334.875
325.87872	13893.875
330.08145	13740.475
334.28114	13766.675
338.47781	13894.475
342.67145	14085.075
346.86207	14425.075
351.04966	14765.575
355.23424	15159.675
359.4158	15459.175
363.59435	15680.375
367.76989	15798.875
371.94243	15840.475
376.11196	15820.475
380.27849	15832.975
384.44203	15848.575
388.60257	15897.875
392.76012	15975.475
396.91468	16129.775
401.06626	16381.075
405.21485	16554.475
409.36047	16406.875
413.50311	16020.075
417.64277	15620.575
421.77947	15430.675
425.9132	15379.875
430.04396	15405.475
434.17176	15533.675
438.2966	15614.775
442.41849	15854.075
446.53742	16169.775
450.6534	16491.075
454.76644	16750.175
458.87653	16771.075
462.98368	16752.075
467.08789	16660.175
471.18916	16481.375
475.2875	16226.375
479.38291	16066.675
483.4754	15907.875
487.56496	15779.775
491.6516	15715.775
495.73531	15642.475
499.81612	15634.975
503.89401	15745.175
507.96899	15814.175
512.04106	15886.575
516.11023	15924.175
520.1765	15977.275
524.23987	15965.475
528.30034	15933.275
532.35792	15844.675
536.41261	15682.975
540.46441	15502.975
544.51333	15445.675
548.55936	15569.975
552.60252	15795.675
556.64279	16052.475
560.6802	16237.075
564.71473	16277.875
568.7464	16486.075
572.7752	16748.875
576.80114	16872.975
580.82422	16951.875
584.84444	17214.475
588.86181	17468.975
592.87633	17818.775
596.888	18037.775
600.89682	18070.375
604.9028	18638.675
608.90594	20939.275
612.90624	23785.375
616.90371	22729.975
620.89834	18372.475
624.89015	16369.875
628.87913	16056.475
632.86528	16259.375
636.84862	16515.075
640.82913	16347.675
644.80683	15915.375
648.78172	15570.875
652.75379	15556.075
656.72306	15818.775
660.68952	16204.975
664.65319	16075.475
668.61405	15706.775
672.57211	15560.875
676.52738	15584.675
680.47986	15622.275
684.42955	15520.675
688.37646	15418.075
692.32058	15416.975
696.26192	15544.275
700.20048	15753.375
704.13626	15867.575
708.06928	15888.575
711.99952	15808.475
715.927	15760.375
719.85171	15802.975
723.77365	15811.275
727.69284	15724.975
731.60928	15629.975
735.52295	15635.475
739.43388	15639.675
743.34206	15657.975
747.24749	15701.675
751.15017	15735.075
755.05012	15911.575
758.94733	16365.975
762.8418	17354.075
766.73354	19030.375
770.62254	20689.775
774.50882	21246.575
778.39237	20413.875
782.27321	18785.375
786.15132	17297.475
790.02671	16331.575
793.89938	15859.675
797.76935	15641.575
801.6366	15510.475
805.50115	15410.375
809.36299	15365.575
813.22213	15343.675
817.07857	15335.975
820.93231	15303.375
824.78336	15277.375
828.63172	15292.575
832.47738	15276.275
836.32036	15207.775
840.16066	15225.875
843.99827	15215.175
847.8332	15220.675
851.66546	15206.675
855.49504	15238.575
859.32195	15254.075
863.1462	15260.475
866.96777	15246.375
870.78668	15232.275
874.60293	15275.275
878.41652	15318.075
882.22745	15378.975
886.03573	15419.775
889.84136	15436.875
893.64433	15354.175
897.44466	15335.475
901.24235	15268.575
905.0374	15249.375
908.8298	15200.875
912.61957	15168.375
916.40671	15200.375
920.19121	15271.675
923.97308	15414.975
927.75233	15448.175
931.52895	15432.275
935.30295	15289.975
939.07433	15050.275
942.84309	14840.075
946.60924	14723.775
950.37278	14670.475
954.13371	14679.775
957.89203	14630.875
961.64774	14650.575
965.40086	14635.175
969.15137	14600.175
972.89929	14544.475
976.64461	14540.575
980.38733	14528.575
984.12747	14592.675
987.86502	14623.975
991.59999	14680.175
995.33237	14769.675
999.06217	14905.375
1002.78939	15089.475
1006.51404	15354.575
1010.23611	15585.775
1013.95561	15698.675
1017.67255	15670.375
1021.38692	15575.675
1025.09872	15369.375
1028.80796	15208.575
1032.51465	15122.575
1036.21877	15135.975
1039.92035	15174.875
1043.61937	15246.475
1047.31584	15325.875
1051.00976	15364.475
1054.70114	15417.575
1058.38998	15438.475
1062.07627	15516.275
1065.76003	15618.475
1069.44126	15783.875
1073.11995	16007.175
1076.79611	16255.575
1080.46974	16449.275
1084.14085	16620.375
1087.80943	16798.175
1091.47549	16923.475
1095.13903	16841.375
1098.80005	16621.775
1102.45857	16358.875
1106.11456	16185.675
1109.76805	16107.675
1113.41903	16191.475
1117.06751	16381.775
1120.71348	16700.875
1124.35696	17033.875
1127.99793	17368.775
1131.63641	17405.375
1135.2724	17111.775
1138.90589	16793.275
1142.5369	16574.275
1146.16542	16465.675
1149.79145	16411.575
1153.415	16390.775
1157.03607	16409.775
1160.65467	16614.175
1164.27079	17004.575
1167.88443	17600.875
1171.49561	18489.675
1175.10432	19784.075
1178.71056	21465.075
1182.31434	22962.475
1185.91565	23544.875
1189.51451	23293.575
1193.11091	22618.775
1196.70485	21779.775
1200.29634	20922.275
1203.88538	20154.775
1207.47197	19374.575
1211.05612	18675.775
1214.63782	18205.175
1218.21708	17881.375
1221.79391	17766.675
1225.36829	17715.975
1228.94024	17675.175
1232.50976	17567.675
1236.07685	17419.475
1239.6415	17342.175
1243.20374	17308.475
1246.76355	17385.875
1250.32093	17509.175
1253.8759	17711.275
1257.42845	18008.575
1260.97859	18433.575
1264.52631	18905.875
1268.07163	19376.175
1271.61453	19788.275
1275.15503	20068.675
1278.69312	20304.675
1282.22882	20535.475
1285.76211	20967.475
1289.29301	21542.175
1292.82151	22140.775
1296.34761	22864.075
1299.87133	23856.875
1303.39266	25168.475
1306.9116	26795.575
1310.42815	28519.975
1313.94233	29270.275
1317.45412	28715.875
1320.96354	27491.275
1324.47058	26222.975
1327.97525	25115.675
1331.47754	24303.975
1334.97747	23993.675
1338.47502	23931.875
1341.97022	24322.275
1345.46305	25002.675
1348.95352	25968.275
1352.44163	27099.475
1355.92738	28558.775
1359.41078	30651.175
1362.89183	32759.975
1366.37053	32307.675
1369.84688	28947.675
1373.32088	25132.175
1376.79254	22668.075
1380.26186	21464.375
1383.72883	20860.575
1387.19347	20414.975
1390.65578	19931.075
1394.11575	19531.775
1397.57339	19248.275
1401.0287	19078.475
1404.48168	18978.975
1407.93234	18886.675
1411.38068	18754.375
1414.82669	18612.075
1418.27039	18363.875
1421.71177	18108.975
1425.15083	17790.675
1428.58758	17572.075
1432.02203	17633.375
1435.45416	17772.975
1438.88399	17915.375
1442.31151	18034.975
1445.73673	18162.075
1449.15965	18256.275
1452.58027	18252.575
1455.9986	18266.375
1459.41463	18333.175
1462.82837	18565.975
1466.23982	18919.675
1469.64898	19339.475
1473.05586	19706.275
1476.46045	19950.775
1479.86276	20149.575
1483.26279	20338.375
1486.66054	20604.275
1490.05602	21095.375
1493.44922	21861.775
1496.84016	23027.275
1500.22882	24747.475
1503.61521	26936.975
1506.99934	29112.675
1510.38121	30567.075
1513.76081	30400.575
1517.13816	28531.475
1520.51324	26024.375
1523.88607	23925.475
1527.25665	22685.375
1530.62498	21985.675
1533.99105	21514.075
1537.35488	21109.675
1540.71647	20694.675
1544.07581	20222.775
1547.4329	19859.175
1550.78776	19579.575
1554.14038	19449.475
1557.49077	19463.375
1560.83892	19599.075
1564.18484	19971.375
1567.52853	20435.275
1570.86999	20899.275
1574.20922	21229.075
1577.54624	21134.475
1580.88103	20494.775
1584.2136	19610.875
1587.54395	19127.575
1590.87208	19324.775
1594.19801	20055.475
1597.52172	20976.675
1600.84321	21339.175
1604.16251	20826.875
1607.47959	19950.475
1610.79447	18987.775
1614.10715	18003.575
1617.41763	17115.475
1620.7259	16433.675
1624.03199	16048.875
1627.33587	15982.575
1630.63757	16142.375
1633.93707	16720.075
1637.23439	17701.775
1640.52951	19367.975
1643.82246	21729.275
1647.11321	24049.275
1650.40179	25281.375
1653.68819	24352.675
1656.97241	21746.675
1660.25446	18921.375
1663.53433	16854.975
1666.81203	15612.275
1670.08756	14863.875
1673.36092	14397.975
1676.63211	14035.475
1679.90115	13855.275
1683.16801	13689.575
1686.43272	13542.875
1689.69527	13423.975
1692.95567	13348.175
1696.2139	13289.875
1699.46999	13225.175
1702.72392	13164.475
1705.97571	13156.275
1709.22535	13124.875
1712.47284	13122.975
1715.71819	13086.975
1718.96139	13031.875
1722.20246	13013.875
1725.44139	12933.775
1728.67818	12850.375
1731.91284	12804.475
1735.14537	12733.675
1738.37576	12694.375
1741.60403	12642.075
1744.83017	12596.375
1748.05418	12585.075
1751.27607	12525.175
1754.49584	12500.075
1757.71349	12469.875
1760.92903	12467.075
1764.14244	12450.575
1767.35375	12427.375
1770.56294	12368.675
1773.77002	12367.775
1776.97499	12360.775
1780.17785	12300.275
1783.37861	12284.075
1786.57727	12247.575
1789.77382	12232.975
1792.96828	12218.475
1796.16064	12164.975
1799.3509	12138.675
1802.53907	12136.475
1805.72514	12105.975
1808.90913	12082.275
1812.09102	12053.075
1815.27083	11982.475
1818.44856	11994.675
1821.6242	11930.375
1824.79776	11957.075
1827.96924	11910.075
1831.13864	11892.675
1834.30597	11900.075
1837.47122	11869.975
1840.6344	11855.575
1843.7955	11838.375
1846.95454	11796.675
1850.11151	11792.275
1853.26642	11776.275
1856.41926	11759.875
1859.57004	11754.375
1862.71876	11739.575
1865.86542	11731.975
1869.01003	11734.975
1872.15258	11704.375
1875.29308	11694.175
1878.43152	11649.475
1881.56792	11668.075
1884.70227	11648.375
1887.83457	11662.175
1890.96482	11669.375
1894.09304	11612.675
1897.21921	11604.275
1900.34335	11564.675
1903.46544	11540.675
1906.58551	11569.175
1909.70353	11562.575
1912.81953	11516.975
1915.93349	11494.575
1919.04543	11479.275
1922.15534	11424.475
1925.26322	11406.775
1928.36908	11380.175
1931.47292	11360.075
1934.57473	11320.775
1937.67453	11308.575
1940.77232	11279.375
1943.86808	11274.575
1946.96184	11210.975
1950.05358	11172.075
1953.14331	11135.875
1956.23103	11070.975
1959.31675	11054.175
1962.40046	11009.475
1965.48217	11016.575
1968.56188	10965.875
1971.63959	10941.475
1974.7153	10920.875
1977.78901	10877.875
1980.86073	10856.775
1983.93046	10812.875
1986.99819	10770.575
1990.06394	10744.875
1993.1277	10698.375
1996.18947	10666.675
1999.24925	10620.375
2002.30706	10577.275
2005.36288	10574.375
2008.41672	10526.575
2011.46859	10484.575
2014.51848	10464.375
2017.56639	10430.475
2020.61233	10387.275
2023.6563	10369.375
2026.6983	10315.275
2029.73833	10287.675
2032.7764	10243.675
2035.8125	10238.375
2038.84664	10207.475
2041.87881	10200.675
2044.90903	10160.175
2047.93729	10154.475
2050.96359	10133.875
2053.98794	10116.175
2057.01034	10106.775
2060.03078	10062.675
2063.04927	10046.875
2066.06582	10071.775
2069.08042	10041.475
2072.09307	10033.375
2075.10378	10014.675
2078.11255	10026.275
2081.11938	10038.775
2084.12426	10011.875
2087.12722	10006.275
2090.12824	10021.075
2093.12732	10006.975
2096.12447	9989.475
2099.11969	9991.175
2102.11299	10030.075
2105.10435	9999.875
2108.09379	10007.575
2111.08131	10013.575
2114.0669	10005.475
2117.05057	10027.375
2120.03233	10015.775
2123.01216	10052.175
2125.99008	10023.175
2128.96609	10065.275
2131.94018	10041.775
2134.91236	10022.575
2137.88263	10053.575
2140.851	10047.575
2143.81746	10053.375
2146.78201	10067.775
2149.74466	10028.775
2152.7054	10033.075
2155.66425	10009.875
2158.6212	10018.775
2161.57625	10004.175
2164.52941	9981.675
2167.48067	9990.975
2170.43004	10001.975
2173.37752	9979.175
2176.32311	9968.975
2179.26681	9962.975
2182.20863	9956.375
2185.14856	9967.675
2188.08661	9965.375
2191.02278	9961.275
2193.95707	9933.675
2196.88948	9941.675
2199.82001	9910.675
2202.74867	9900.775
2205.67545	9891.975
2208.60037	9901.175
2211.52341	9866.075
2214.44458	9852.075
2217.36388	9801.475
2220.28132	9796.875
2223.1969	9782.175
2226.11061	9753.375
2229.02246	9743.775
2231.93245	9714.175
2234.84058	9683.275
2237.74686	9678.175
2240.65128	9663.675
2243.55385	9662.975
2246.45456	9655.775
2249.35343	9631.175
2252.25044	9621.975
2255.14561	9595.675
2258.03893	9594.975
2260.93041	9586.975
2263.82004	9568.775
2266.70783	9529.875
2269.59378	9508.475
2272.4779	9496.075
2275.36017	9486.675
2278.24061	9467.775
2281.11922	9422.075
2283.996	9423.275
2286.87094	9389.875
2289.74405	9390.375
2292.61534	9368.175
2295.4848	9338.175
2298.35243	9337.875
2301.21824	9287.275
2304.08223	9317.475
2306.94439	9316.375
2309.80474	9298.975
2312.66327	9295.975
2315.51999	9269.375
2318.37489	9268.675
2321.22797	9247.675
2324.07925	9255.875
2326.92871	9202.475
2329.77637	9210.775
2332.62222	9213.375
2335.46626	9144.575
2338.3085	9136.775
2341.14893	9138.875
2343.98756	9121.875
2346.8244	9148.575
2349.65943	9139.475
2352.49267	9125.475
2355.32411	9121.175
2358.15376	9125.875
2360.98161	9124.475
2363.80768	9128.675
2366.63195	9129.075
2369.45444	9136.875
2372.27514	9132.475
2375.09405	9082.075
2377.91118	9088.075
2380.72652	9053.175
2383.54009	9029.675
2386.35187	9031.475
2389.16188	8974.175
2391.97011	8958.475
2394.77657	8942.775
2397.58125	8918.075
2400.38416	8906.175
2403.18529	8870.075
2405.98466	8862.675
2408.78226	8840.975
2411.57809	8820.175
2414.37216	8827.375
2417.16446	8834.875
2419.955	8802.175
2422.74378	8779.075
2425.5308	8755.275
2428.31606	8769.475
2431.09956	8787.075
2433.88131	8773.175
2436.6613	8776.375
2439.43954	8738.575
2442.21603	8705.975
2444.99077	8700.675
2447.76377	8713.675
2450.53501	8707.575
2453.30451	8712.475
2456.07226	8702.375
2458.83827	8705.875
2461.60254	8703.075
2464.36507	8696.975
2467.12586	8673.575
2469.88492	8664.175
2472.64224	8662.775
2475.39782	8673.175
2478.15167	8673.275
2480.90379	8666.975
2483.65417	8678.075
2486.40283	8687.475
2489.14976	8686.075
2491.89497	8681.875
2494.63845	8674.975
2497.3802	8644.775
2500.12024	8631.275
2502.85855	8625.875
2505.59514	8612.075
2508.33002	8586.675
2511.06318	8561.475
2513.79462	8543.075
2516.52435	8555.175
2519.25237	8523.575
2521.97867	8507.375
2524.70327	8485.875
2527.42616	8474.875
2530.14734	8494.375
2532.86681	8460.275
2535.58458	8457.075
2538.30065	8425.575
2541.01501	8449.475
2543.72768	8415.375
2546.43864	8395.275
2549.14791	8397.675
2551.85548	8385.175
2554.56136	8357.075
2557.26554	8345.575
2559.96803	8325.575
2562.66883	8305.375
2565.36794	8302.675
2568.06536	8293.975
2570.7611	8262.275
2573.45514	8266.175
2576.14751	8240.875
2578.83819	8252.675
2581.52719	8228.475
2584.21451	8220.275
2586.90015	8215.275
2589.58411	8190.675
2592.2664	8190.475
2594.94701	8169.675
2597.62594	8149.175
2600.30321	8140.575
2602.9788	8130.075
2605.65273	8117.075
2608.32498	8094.675
2610.99557	8067.875
2613.66449	8071.975
2616.33175	8073.175
2618.99734	8077.975
2621.66128	8054.675
2624.32355	8040.275
2626.98416	8038.375
2629.64311	8017.675
2632.30041	7973.775
2634.95605	7992.375
2637.61004	7962.075
2640.26238	7982.475
2642.91306	7968.575
2645.56209	7966.875
2648.20948	7963.175
2650.85521	7954.375
2653.4993	7957.475
2656.14175	7981.175
2658.78255	7942.175
2661.42171	7960.075
2664.05923	7963.275
2666.6951	7956.375
2669.32934	7976.375
2671.96194	7957.475
2674.59291	7994.075
2677.22224	7955.575
2679.84993	7952.775
2682.476	7939.975
2685.10043	7920.175
2687.72324	7923.575
2690.34441	7934.675
2692.96396	7934.975
2695.58188	7946.275
2698.19818	7930.075
2700.81285	7924.775
2703.4259	7924.375
2706.03733	7903.275
2708.64714	7886.075
2711.25533	7900.475
2713.86191	7902.375
2716.46687	7924.875
2719.07021	7920.675
2721.67194	7946.875
2724.27206	7936.175
2726.87057	7920.175
2729.46747	7899.875
2732.06276	7930.775
2734.65644	7892.375
2737.24852	7883.675
2739.83899	7850.575
2742.42786	7862.275
2745.01513	7870.075
2747.60079	7864.975
2750.18486	7787.475
2752.76733	7820.075
2755.3482	7821.275
2757.92747	7818.375
2760.50515	7769.175
2763.08123	7736.875
2765.65573	7751.675
2768.22863	7788.375
2770.79994	7770.975
2773.36967	7746.575
2775.9378	7756.375
2778.50435	7718.475
2781.06932	7705.275
2783.6327	7710.975
2786.1945	7726.875
2788.75471	7711.175
2791.31335	7684.675
2793.87041	7684.775
2796.42589	7653.375
2798.97979	7636.275
2801.53212	7608.775
2804.08288	7593.475
2806.63206	7592.075
2809.17967	7589.375
2811.72571	7562.675
2814.27018	7579.975
2816.81308	7553.475
2819.35442	7538.475
2821.89419	7528.475
2824.43239	7530.475
2826.96904	7509.675
2829.50412	7482.675
2832.03763	7478.175
2834.56959	7476.975
2837.1	7469.775
2839.62884	7491.975
2842.15613	7490.475
2844.68186	7491.075
2847.20604	7489.675
2849.72867	7487.375
2852.24974	7488.175
2854.76927	7472.675
2857.28724	7458.375
2859.80367	7455.975
2862.31855	7431.475
2864.83189	7440.275
2867.34368	7443.575
2869.85393	7433.975
2872.36264	7414.475
2874.8698	7424.675
2877.37543	7417.375
2879.87952	7412.575
2882.38207	7405.475
2884.88308	7390.975
2887.38256	7386.275
2889.88051	7370.275
2892.37692	7366.275
2894.8718	7367.775
2897.36515	7374.675
2899.85698	7381.475
2902.34727	7373.475
2904.83604	7381.875
2907.32328	7392.175
2909.809	7372.075
2912.29319	7390.175
2914.77587	7401.675
2917.25702	7406.875
2919.73665	7387.275
2922.21476	7373.875
2924.69136	7392.175
2927.16644	7368.375
2929.64	7330.975
2932.11205	7349.975
2934.58258	7300.575
2937.05161	7322.875
2939.51912	7308.075
2941.98513	7283.575
2944.44962	7267.975
2946.91261	7223.675
2949.37409	7260.675
2951.83407	7258.375
2954.29254	7250.675
2956.74951	7257.075
2959.20498	7255.575
2961.65895	7227.875
2964.11142	7228.675
2966.56239	7215.575
2969.01186	7221.675
2971.45984	7198.575
2973.90632	7184.675
2976.35131	7174.975
2978.7948	7159.375
2981.23681	7134.675
2983.67732	7140.375
2986.11635	7116.175
2988.55388	7110.075
2990.98993	7085.475
2993.4245	7075.475
2995.85758	7058.475
2998.28917	7044.475
3000.71928	7026.975
3003.14791	7016.275
3005.57506	7008.075
3008.00073	6987.175
3010.42493	6997.375
3012.84764	6986.175
3015.26888	6981.775
3017.68865	6963.575
3020.10694	6964.475
3022.52376	6923.875
3024.9391	6922.675
3027.35298	6909.075
3029.76539	6897.375
3032.17632	6871.275
3034.5858	6864.975
3036.9938	6860.975
3039.40034	6846.475
3041.80542	6848.175
3044.20903	6836.375
3046.61118	6821.675
3049.01187	6799.575
3051.4111	6802.675
3053.80888	6770.275
3056.20519	6772.675
3058.60005	6763.775
3060.99345	6755.375
3063.3854	6738.375
3065.7759	6734.175
3068.16494	6716.275
3070.55254	6693.175
3072.93868	6686.475
3075.32338	6674.975
3077.70662	6673.175
3080.08842	6634.775
3082.46878	6636.275
3084.84769	6623.175
3087.22515	6632.675
3089.60118	6645.475
3091.97576	6634.275
3094.3489	6623.275
3096.72061	6628.975
3099.09087	6631.475
3101.4597	6609.075
3103.82709	6627.875
3106.19305	6608.475
3108.55757	6622.875
3110.92066	6585.175
3113.28232	6593.275
3115.64255	6562.675
3118.00134	6539.475
3120.35871	6543.375
3122.71466	6533.675
3125.06917	6516.675
3127.42226	6515.975
3129.77393	6511.675
3132.12417	6503.075
3134.47299	6477.775
3136.82039	6496.275
3139.16636	6470.575
3141.51092	6481.075
3143.85406	6487.875
3146.19579	6474.875
3148.53609	6483.675
3150.87499	6500.375
3153.21246	6506.475
3155.54853	6524.075
3157.88318	6509.275
3160.21642	6516.675
3162.54826	6504.675
3164.87868	6511.075
3167.2077	6509.075
3169.5353	6480.575
3171.86151	6472.775
