Data from AgNP_FTO_APTES_UA_100uM_CRN_50uM_R6G_10uM_NaF_0.1M_Addition_RamanShift__10__17-19-30-532.txt Node

Date: Thu Mar 24 17:19:30 GMT 2022
User: TCL
Spectrometer: QEP01345
Trigger mode: 4
Integration Time (sec): 7.000000E0
Scans to average: 10
Electric dark correction enabled: true
Nonlinearity correction enabled: false
Boxcar width: 0
XAxis mode: Raman Shifts
Number of Pixels in Spectrum: 1044
>>>>>Begin Spectral Data<<<<<
46.04893	-2.075
50.45542	0.725
54.85868	-1.075
59.25871	0.425
63.6555	40.725
68.04907	37.625
72.43941	40.725
76.82654	39.525
81.21044	44.825
85.59113	46.525
89.96862	52.225
94.34289	45.225
98.71396	51.325
103.08183	53.325
107.4465	51.225
111.80798	53.725
116.16626	58.025
120.52136	57.825
124.87327	58.925
129.222	61.225
133.56755	66.625
137.90993	67.325
142.24913	85.625
146.58517	88.325
150.91804	102.825
155.24774	130.525
159.57429	162.925
163.89768	201.725
168.21792	273.625
172.53501	380.825
176.84895	530.425
181.15975	746.825
185.46741	1052.525
189.77193	1460.725
194.07331	1953.225
198.37157	2526.725
202.6667	3117.625
206.9587	3729.225
211.24758	4316.125
215.53334	4928.025
219.81599	5559.725
224.09553	6264.225
228.37195	7060.325
232.64527	7938.625
236.91549	8844.025
241.18261	9750.025
245.44663	10567.725
249.70755	11263.725
253.96539	11877.025
258.22014	12380.125
262.4718	12757.625
266.72039	13078.525
270.96589	13216.825
275.20832	13244.025
279.44768	13151.025
283.68397	13019.025
287.91719	12900.225
292.14735	12839.625
296.37445	12890.725
300.59849	13012.825
304.81948	13162.125
309.03742	13284.925
313.25231	13236.625
317.46415	13027.025
321.67296	12676.425
325.87872	12388.825
330.08145	12226.025
334.28114	12258.925
338.47781	12354.625
342.67145	12589.425
346.86207	12784.525
351.04966	13082.125
355.23424	13380.925
359.4158	13612.425
363.59435	13717.525
367.76989	13799.225
371.94243	13844.325
376.11196	13885.325
380.27849	13931.025
384.44203	13924.425
388.60257	14024.825
392.76012	14104.025
396.91468	14219.325
401.06626	14438.425
405.21485	14563.925
409.36047	14446.825
413.50311	14113.525
417.64277	13863.025
421.77947	13738.625
425.9132	13720.225
430.04396	13796.025
434.17176	13896.525
438.2966	14049.625
442.41849	14264.225
446.53742	14632.625
450.6534	14993.125
454.76644	15237.325
458.87653	15257.625
462.98368	15157.625
467.08789	15015.025
471.18916	14847.925
475.2875	14690.825
479.38291	14521.525
483.4754	14346.625
487.56496	14207.125
491.6516	14064.725
495.73531	14003.025
499.81612	13944.525
503.89401	13998.925
507.96899	14080.425
512.04106	14125.525
516.11023	14128.325
520.1765	14118.225
524.23987	14106.425
528.30034	14046.425
532.35792	13989.025
536.41261	13884.025
540.46441	13739.225
544.51333	13710.825
548.55936	13828.525
552.60252	14026.525
556.64279	14327.325
560.6802	14533.325
564.71473	14635.225
568.7464	14790.425
572.7752	15025.525
576.80114	15227.925
580.82422	15432.125
584.84444	15628.625
588.86181	15982.525
592.87633	16495.925
596.888	16841.125
600.89682	16782.525
604.9028	17047.625
608.90594	18519.425
612.90624	20477.725
616.90371	19454.925
620.89834	16041.625
624.89015	14458.325
628.87913	14191.725
632.86528	14389.925
636.84862	14614.325
640.82913	14446.725
644.80683	14014.425
648.78172	13754.925
652.75379	13653.825
656.72306	13831.925
660.68952	14122.325
664.65319	14058.925
668.61405	13699.125
672.57211	13574.625
676.52738	13629.125
680.47986	13614.625
684.42955	13535.525
688.37646	13458.625
692.32058	13506.925
696.26192	13623.625
700.20048	13746.625
704.13626	13880.725
708.06928	13903.425
711.99952	13822.125
715.927	13795.825
719.85171	13843.125
723.77365	13818.625
727.69284	13775.325
731.60928	13711.325
735.52295	13705.325
739.43388	13721.825
743.34206	13750.725
747.24749	13788.925
751.15017	13857.025
755.05012	13985.125
758.94733	14354.925
762.8418	15215.725
766.73354	16649.525
770.62254	18039.725
774.50882	18442.425
778.39237	17664.125
782.27321	16227.125
786.15132	14989.425
790.02671	14176.725
793.89938	13781.325
797.76935	13561.825
801.6366	13462.825
805.50115	13397.225
809.36299	13363.025
813.22213	13335.025
817.07857	13335.125
820.93231	13298.325
824.78336	13263.025
828.63172	13271.325
832.47738	13205.525
836.32036	13175.425
840.16066	13187.325
843.99827	13198.725
847.8332	13157.825
851.66546	13186.025
855.49504	13221.425
859.32195	13206.925
863.1462	13192.525
866.96777	13189.825
870.78668	13192.125
874.60293	13200.125
878.41652	13206.025
882.22745	13261.225
886.03573	13342.825
889.84136	13323.125
893.64433	13273.725
897.44466	13244.225
901.24235	13189.925
905.0374	13129.725
908.8298	13134.425
912.61957	13074.225
916.40671	13103.525
920.19121	13207.325
923.97308	13282.425
927.75233	13329.725
931.52895	13249.725
935.30295	13063.225
939.07433	12872.625
942.84309	12719.925
946.60924	12614.625
950.37278	12572.425
954.13371	12584.825
957.89203	12566.525
961.64774	12523.125
965.40086	12529.825
969.15137	12502.325
972.89929	12466.025
976.64461	12432.425
980.38733	12418.225
984.12747	12449.625
987.86502	12447.225
991.59999	12534.525
995.33237	12587.525
999.06217	12751.625
1002.78939	12934.025
1006.51404	13175.525
1010.23611	13411.125
1013.95561	13530.125
1017.67255	13503.025
1021.38692	13379.325
1025.09872	13195.525
1028.80796	12987.925
1032.51465	12882.825
1036.21877	12878.425
1039.92035	12933.825
1043.61937	13000.525
1047.31584	13051.225
1051.00976	13126.125
1054.70114	13182.125
1058.38998	13227.825
1062.07627	13289.425
1065.76003	13372.625
1069.44126	13515.425
1073.11995	13677.625
1076.79611	13862.025
1080.46974	14004.925
1084.14085	14142.625
1087.80943	14297.925
1091.47549	14404.225
1095.13903	14391.325
1098.80005	14194.225
1102.45857	13943.425
1106.11456	13791.425
1109.76805	13737.525
1113.41903	13811.625
1117.06751	13990.925
1120.71348	14260.525
1124.35696	14556.825
1127.99793	14804.725
1131.63641	14866.825
1135.2724	14664.525
1138.90589	14423.625
1142.5369	14291.925
1146.16542	14207.825
1149.79145	14209.725
1153.415	14219.525
1157.03607	14290.725
1160.65467	14507.125
1164.27079	14929.425
1167.88443	15501.725
1171.49561	16415.925
1175.10432	17673.425
1178.71056	19209.625
1182.31434	20641.725
1185.91565	21120.725
1189.51451	20826.225
1193.11091	20157.825
1196.70485	19331.425
1200.29634	18548.925
1203.88538	17835.925
1207.47197	17189.825
1211.05612	16570.325
1214.63782	16201.125
1218.21708	15984.625
1221.79391	15850.525
1225.36829	15812.325
1228.94024	15763.425
1232.50976	15537.325
1236.07685	15325.725
1239.6415	15174.925
1243.20374	15154.525
1246.76355	15154.825
1250.32093	15273.125
1253.8759	15431.825
1257.42845	15762.025
1260.97859	16139.525
1264.52631	16507.425
1268.07163	16934.525
1271.61453	17317.825
1275.15503	17639.925
1278.69312	17919.625
1282.22882	18209.725
1285.76211	18693.525
1289.29301	19343.325
1292.82151	20021.825
1296.34761	20881.525
1299.87133	21918.225
1303.39266	23248.325
1306.9116	24751.925
1310.42815	26230.325
1313.94233	27041.425
1317.45412	26687.525
1320.96354	25802.225
1324.47058	24793.725
1327.97525	23762.225
1331.47754	22964.125
1334.97747	22537.825
1338.47502	22398.925
1341.97022	22618.925
1345.46305	23057.225
1348.95352	23690.325
1352.44163	24490.925
1355.92738	25646.425
1359.41078	27431.025
1362.89183	29169.625
1366.37053	28886.725
1369.84688	26032.225
1373.32088	22734.125
1376.79254	20556.625
1380.26186	19557.225
1383.72883	19129.225
1387.19347	18759.325
1390.65578	18380.025
1394.11575	18110.225
1397.57339	17980.525
1401.0287	18007.725
1404.48168	18030.225
1407.93234	17917.825
1411.38068	17654.825
1414.82669	17336.925
1418.27039	16945.025
1421.71177	16422.225
1425.15083	15958.825
1428.58758	15763.725
1432.02203	15768.925
1435.45416	15954.025
1438.88399	16217.325
1442.31151	16352.925
1445.73673	16519.325
1449.15965	16699.725
1452.58027	16710.425
1455.9986	16710.925
1459.41463	16773.925
1462.82837	17037.525
1466.23982	17443.325
1469.64898	17859.425
1473.05586	18212.025
1476.46045	18476.925
1479.86276	18649.425
1483.26279	18738.125
1486.66054	18953.525
1490.05602	19259.125
1493.44922	19808.825
1496.84016	20568.525
1500.22882	21741.225
1503.61521	23237.925
1506.99934	24789.525
1510.38121	25757.025
1513.76081	25594.425
1517.13816	24331.225
1520.51324	22587.225
1523.88607	21160.625
1527.25665	20329.225
1530.62498	19909.425
1533.99105	19586.325
1537.35488	19243.825
1540.71647	18776.425
1544.07581	18260.325
1547.4329	17849.925
1550.78776	17438.925
1554.14038	17197.925
1557.49077	17150.025
1560.83892	17227.025
1564.18484	17500.825
1567.52853	17843.825
1570.86999	18226.325
1574.20922	18502.925
1577.54624	18577.925
1580.88103	18146.725
1584.2136	17513.625
1587.54395	17341.125
1590.87208	17684.025
1594.19801	18502.625
1597.52172	19460.125
1600.84321	19865.025
1604.16251	19260.425
1607.47959	18217.425
1610.79447	17036.425
1614.10715	15973.925
1617.41763	15010.825
1620.7259	14370.125
1624.03199	13948.725
1627.33587	13903.425
1630.63757	14081.725
1633.93707	14701.525
1637.23439	15854.025
1640.52951	17732.425
1643.82246	20143.725
1647.11321	22441.525
1650.40179	23356.425
1653.68819	22181.225
1656.97241	19554.725
1660.25446	16768.825
1663.53433	14743.025
1666.81203	13485.425
1670.08756	12739.825
1673.36092	12246.125
1676.63211	11910.325
1679.90115	11685.725
1683.16801	11541.625
1686.43272	11384.925
1689.69527	11291.225
1692.95567	11218.725
1696.2139	11168.825
1699.46999	11096.925
1702.72392	11043.225
1705.97571	11009.925
1709.22535	10963.125
1712.47284	10927.125
1715.71819	10909.125
1718.96139	10838.025
1722.20246	10816.125
1725.44139	10754.525
1728.67818	10681.525
1731.91284	10620.025
1735.14537	10549.825
1738.37576	10498.525
1741.60403	10461.125
1744.83017	10403.525
1748.05418	10385.625
1751.27607	10360.825
1754.49584	10325.125
1757.71349	10319.425
1760.92903	10292.325
1764.14244	10295.625
1767.35375	10260.325
1770.56294	10238.125
1773.77002	10212.525
1776.97499	10173.125
1780.17785	10155.925
1783.37861	10108.625
1786.57727	10108.325
1789.77382	10080.825
1792.96828	10084.325
1796.16064	10052.525
1799.3509	10005.225
1802.53907	10000.525
1805.72514	9956.825
1808.90913	9922.725
1812.09102	9895.225
1815.27083	9881.125
1818.44856	9877.625
1821.6242	9831.125
1824.79776	9805.225
1827.96924	9798.225
1831.13864	9769.225
1834.30597	9741.525
1837.47122	9732.925
1840.6344	9716.025
1843.7955	9699.625
1846.95454	9692.325
1850.11151	9666.425
1853.26642	9668.925
1856.41926	9673.125
1859.57004	9654.525
1862.71876	9611.025
1865.86542	9605.925
1869.01003	9609.125
1872.15258	9597.425
1875.29308	9586.725
1878.43152	9575.825
1881.56792	9572.725
1884.70227	9572.425
1887.83457	9548.525
1890.96482	9537.325
1894.09304	9502.425
1897.21921	9496.625
1900.34335	9463.125
1903.46544	9465.525
1906.58551	9466.525
1909.70353	9453.625
1912.81953	9457.625
1915.93349	9409.625
1919.04543	9411.125
1922.15534	9356.925
1925.26322	9340.625
1928.36908	9323.525
1931.47292	9304.525
1934.57473	9276.725
1937.67453	9263.625
1940.77232	9250.025
1943.86808	9214.125
1946.96184	9148.825
1950.05358	9132.825
1953.14331	9094.525
1956.23103	9067.225
1959.31675	9039.525
1962.40046	8991.925
1965.48217	9003.025
1968.56188	8955.325
1971.63959	8932.025
1974.7153	8907.925
1977.78901	8886.525
1980.86073	8853.725
1983.93046	8824.225
1986.99819	8773.425
1990.06394	8754.025
1993.1277	8730.125
1996.18947	8718.025
1999.24925	8659.125
2002.30706	8644.525
2005.36288	8565.625
2008.41672	8569.525
2011.46859	8530.625
2014.51848	8519.325
2017.56639	8497.425
2020.61233	8465.825
2023.6563	8433.725
2026.6983	8406.825
2029.73833	8371.725
2032.7764	8343.525
2035.8125	8309.625
2038.84664	8295.325
2041.87881	8291.425
2044.90903	8266.725
2047.93729	8242.225
2050.96359	8232.325
2053.98794	8208.625
2057.01034	8198.325
2060.03078	8184.425
2063.04927	8167.525
2066.06582	8156.325
2069.08042	8160.025
2072.09307	8154.425
2075.10378	8124.825
2078.11255	8151.025
2081.11938	8160.325
2084.12426	8141.925
2087.12722	8127.825
2090.12824	8141.125
2093.12732	8109.425
2096.12447	8123.125
2099.11969	8094.925
2102.11299	8133.325
2105.10435	8120.525
2108.09379	8108.225
2111.08131	8108.225
2114.0669	8108.025
2117.05057	8129.725
2120.03233	8100.325
2123.01216	8110.825
2125.99008	8118.825
2128.96609	8109.625
2131.94018	8106.225
2134.91236	8108.325
2137.88263	8126.925
2140.851	8095.825
2143.81746	8142.525
2146.78201	8105.625
2149.74466	8102.925
2152.7054	8095.225
2155.66425	8078.225
2158.6212	8075.425
2161.57625	8066.925
2164.52941	8074.625
2167.48067	8055.925
2170.43004	8059.225
2173.37752	8029.825
2176.32311	8034.825
2179.26681	8031.125
2182.20863	8018.425
2185.14856	8037.125
2188.08661	8014.825
2191.02278	7998.625
2193.95707	8001.325
2196.88948	7978.125
2199.82001	7980.325
2202.74867	7968.425
2205.67545	7977.025
2208.60037	7963.425
2211.52341	7926.425
2214.44458	7912.625
2217.36388	7897.125
2220.28132	7881.725
2223.1969	7846.225
2226.11061	7838.525
2229.02246	7816.725
2231.93245	7820.825
2234.84058	7782.625
2237.74686	7806.725
2240.65128	7755.025
2243.55385	7758.025
2246.45456	7768.025
2249.35343	7726.025
2252.25044	7725.925
2255.14561	7695.725
2258.03893	7714.125
2260.93041	7687.425
2263.82004	7643.225
2266.70783	7631.425
2269.59378	7593.025
2272.4779	7606.925
2275.36017	7584.825
2278.24061	7574.225
2281.11922	7553.425
2283.996	7524.125
2286.87094	7522.525
2289.74405	7508.825
2292.61534	7494.325
2295.4848	7463.225
2298.35243	7449.425
2301.21824	7441.825
2304.08223	7450.425
2306.94439	7424.325
2309.80474	7428.825
2312.66327	7419.125
2315.51999	7407.525
2318.37489	7372.125
2321.22797	7346.125
2324.07925	7381.525
2326.92871	7361.825
2329.77637	7348.125
2332.62222	7328.725
2335.46626	7308.825
2338.3085	7298.125
2341.14893	7286.125
2343.98756	7299.325
2346.8244	7288.225
2349.65943	7302.425
2352.49267	7299.225
2355.32411	7283.325
2358.15376	7294.925
2360.98161	7294.225
2363.80768	7293.725
2366.63195	7299.725
2369.45444	7300.625
2372.27514	7269.025
2375.09405	7265.425
2377.91118	7234.725
2380.72652	7217.925
2383.54009	7200.825
2386.35187	7206.925
2389.16188	7174.725
2391.97011	7161.325
2394.77657	7126.125
2397.58125	7097.325
2400.38416	7104.425
2403.18529	7064.425
2405.98466	7060.325
2408.78226	7033.925
2411.57809	7037.925
2414.37216	7012.725
2417.16446	7031.825
2419.955	6998.625
2422.74378	7009.325
2425.5308	6988.225
2428.31606	6998.725
2431.09956	6955.425
2433.88131	6963.325
2436.6613	6957.925
2439.43954	6953.525
2442.21603	6943.725
2444.99077	6937.825
2447.76377	6940.925
2450.53501	6937.025
2453.30451	6916.725
2456.07226	6915.525
2458.83827	6915.825
2461.60254	6907.725
2464.36507	6920.125
2467.12586	6900.125
2469.88492	6890.625
2472.64224	6910.225
2475.39782	6907.625
2478.15167	6905.625
2480.90379	6886.025
2483.65417	6914.925
2486.40283	6897.725
2489.14976	6910.925
2491.89497	6889.325
2494.63845	6895.325
2497.3802	6881.125
2500.12024	6886.225
2502.85855	6859.325
2505.59514	6839.425
2508.33002	6834.525
2511.06318	6811.725
2513.79462	6795.725
2516.52435	6778.025
2519.25237	6772.325
2521.97867	6766.225
2524.70327	6764.925
2527.42616	6759.025
2530.14734	6729.325
2532.86681	6731.325
2535.58458	6702.925
2538.30065	6713.225
2541.01501	6701.825
2543.72768	6710.825
2546.43864	6692.725
2549.14791	6673.525
2551.85548	6665.525
2554.56136	6667.825
2557.26554	6619.025
2559.96803	6617.125
2562.66883	6605.425
2565.36794	6605.425
2568.06536	6578.225
2570.7611	6577.625
2573.45514	6558.125
2576.14751	6550.225
2578.83819	6561.525
2581.52719	6543.025
2584.21451	6526.825
2586.90015	6502.525
2589.58411	6528.825
2592.2664	6505.625
2594.94701	6494.625
2597.62594	6467.025
2600.30321	6446.725
2602.9788	6471.025
2605.65273	6450.025
2608.32498	6447.425
2610.99557	6418.525
2613.66449	6417.925
2616.33175	6433.225
2618.99734	6427.525
2621.66128	6408.725
2624.32355	6393.125
2626.98416	6374.125
2629.64311	6373.425
2632.30041	6366.025
2634.95605	6353.025
2637.61004	6363.225
2640.26238	6348.925
2642.91306	6357.225
2645.56209	6346.725
2648.20948	6331.525
2650.85521	6342.725
2653.4993	6320.925
2656.14175	6338.225
2658.78255	6343.925
2661.42171	6363.525
2664.05923	6360.625
2666.6951	6349.325
2669.32934	6353.425
2671.96194	6361.625
2674.59291	6343.625
2677.22224	6335.825
2679.84993	6331.525
2682.476	6318.725
2685.10043	6307.625
2687.72324	6318.125
2690.34441	6307.025
2692.96396	6310.725
2695.58188	6287.725
2698.19818	6324.225
2700.81285	6297.925
2703.4259	6294.625
2706.03733	6297.925
2708.64714	6309.325
2711.25533	6324.625
2713.86191	6322.625
2716.46687	6321.625
2719.07021	6310.725
2721.67194	6316.325
2724.27206	6300.925
2726.87057	6279.125
2729.46747	6299.325
2732.06276	6308.725
2734.65644	6301.625
2737.24852	6302.925
2739.83899	6263.925
2742.42786	6268.725
2745.01513	6264.925
2747.60079	6254.625
2750.18486	6230.225
2752.76733	6233.225
2755.3482	6218.125
2757.92747	6201.225
2760.50515	6212.125
2763.08123	6197.925
2765.65573	6192.225
2768.22863	6209.725
2770.79994	6191.825
2773.36967	6200.125
2775.9378	6168.725
2778.50435	6157.425
2781.06932	6162.525
2783.6327	6166.225
2786.1945	6160.325
2788.75471	6157.025
2791.31335	6146.625
2793.87041	6130.325
2796.42589	6126.425
2798.97979	6128.125
2801.53212	6087.425
2804.08288	6085.625
2806.63206	6059.325
2809.17967	6065.425
2811.72571	6051.625
2814.27018	6049.225
2816.81308	6030.025
2819.35442	6016.925
2821.89419	6018.925
2824.43239	6034.725
2826.96904	5988.925
2829.50412	5988.725
2832.03763	5970.925
2834.56959	5963.925
2837.1	5967.325
2839.62884	5976.325
2842.15613	5971.225
2844.68186	5973.925
2847.20604	5982.625
2849.72867	6004.425
2852.24974	5990.925
2854.76927	5959.925
2857.28724	5960.025
2859.80367	5956.825
2862.31855	5963.625
2864.83189	5949.825
2867.34368	5947.525
2869.85393	5952.025
2872.36264	5937.425
2874.8698	5927.625
2877.37543	5948.025
2879.87952	5932.825
2882.38207	5918.825
2884.88308	5916.525
2887.38256	5903.525
2889.88051	5921.025
2892.37692	5913.325
2894.8718	5905.125
2897.36515	5907.725
2899.85698	5928.325
2902.34727	5909.925
2904.83604	5896.325
2907.32328	5920.925
2909.809	5923.225
2912.29319	5918.725
2914.77587	5932.625
2917.25702	5924.025
2919.73665	5909.925
2922.21476	5919.325
2924.69136	5902.525
2927.16644	5900.825
2929.64	5903.725
2932.11205	5864.325
2934.58258	5847.525
2937.05161	5864.525
2939.51912	5848.225
2941.98513	5843.825
2944.44962	5811.325
2946.91261	5796.325
2949.37409	5805.225
2951.83407	5800.725
2954.29254	5799.825
2956.74951	5789.425
2959.20498	5808.525
2961.65895	5784.725
2964.11142	5800.925
2966.56239	5763.225
2969.01186	5759.325
2971.45984	5731.025
2973.90632	5732.125
2976.35131	5712.925
2978.7948	5689.825
2981.23681	5694.725
2983.67732	5696.325
2986.11635	5669.825
2988.55388	5642.425
2990.98993	5648.225
2993.4245	5622.825
2995.85758	5622.825
2998.28917	5601.625
3000.71928	5595.225
3003.14791	5587.525
3005.57506	5583.325
3008.00073	5575.925
3010.42493	5568.925
3012.84764	5557.025
3015.26888	5543.225
3017.68865	5528.525
3020.10694	5534.825
3022.52376	5515.825
3024.9391	5494.725
3027.35298	5483.625
3029.76539	5482.725
3032.17632	5466.325
3034.5858	5466.625
3036.9938	5445.725
3039.40034	5448.725
3041.80542	5452.725
3044.20903	5453.625
3046.61118	5439.825
3049.01187	5424.125
3051.4111	5417.525
3053.80888	5409.625
3056.20519	5374.925
3058.60005	5367.325
3060.99345	5363.125
3063.3854	5359.325
3065.7759	5353.525
3068.16494	5347.425
3070.55254	5314.525
3072.93868	5315.825
3075.32338	5300.625
3077.70662	5310.225
3080.08842	5278.125
3082.46878	5280.425
3084.84769	5251.425
3087.22515	5266.125
3089.60118	5268.925
3091.97576	5286.825
3094.3489	5271.925
3096.72061	5264.425
3099.09087	5249.225
3101.4597	5254.125
3103.82709	5259.125
3106.19305	5255.725
3108.55757	5238.625
3110.92066	5243.925
3113.28232	5235.625
3115.64255	5227.425
3118.00134	5214.625
3120.35871	5206.725
3122.71466	5191.625
3125.06917	5172.325
3127.42226	5182.425
3129.77393	5177.825
3132.12417	5176.025
3134.47299	5157.625
3136.82039	5166.925
3139.16636	5160.025
3141.51092	5160.625
3143.85406	5153.925
3146.19579	5165.325
3148.53609	5163.825
3150.87499	5181.925
3153.21246	5179.325
3155.54853	5204.225
3157.88318	5189.925
3160.21642	5187.825
3162.54826	5192.025
3164.87868	5182.225
3167.2077	5190.125
3169.5353	5195.225
3171.86151	5173.825
3174.18631	5185.925
3176.5097	5179.925
3178.83169	5183.925
3181.15228	5166.625
3183.47147	5155.225
3185.78926	5160.625
