Data from AgNP_FTO_APTES_UA_100uM_CRN_2uM_R6G_10uM_NaF_0.1M_Addition_RamanShift__3__13-48-20-292.txt Node

Date: Thu Mar 24 13:48:20 GMT 2022
User: TCL
Spectrometer: QEP01345
Trigger mode: 4
Integration Time (sec): 7.000000E0
Scans to average: 10
Electric dark correction enabled: true
Nonlinearity correction enabled: false
Boxcar width: 0
XAxis mode: Raman Shifts
Number of Pixels in Spectrum: 1044
>>>>>Begin Spectral Data<<<<<
46.04893	-1.325
50.45542	-0.825
54.85868	0.775
59.25871	-0.025
63.6555	40.275
68.04907	43.375
72.43941	46.175
76.82654	44.275
81.21044	51.975
85.59113	52.775
89.96862	53.775
94.34289	50.875
98.71396	55.375
103.08183	55.575
107.4465	57.775
111.80798	61.775
116.16626	59.675
120.52136	61.875
124.87327	66.975
129.222	69.175
133.56755	73.675
137.90993	81.075
142.24913	92.575
146.58517	96.075
150.91804	116.275
155.24774	139.775
159.57429	174.275
163.89768	222.475
168.21792	296.675
172.53501	408.375
176.84895	571.875
181.15975	809.075
185.46741	1125.775
189.77193	1562.275
194.07331	2081.675
198.37157	2693.075
202.6667	3334.875
206.9587	3998.975
211.24758	4659.875
215.53334	5355.875
219.81599	6099.275
224.09553	6962.875
228.37195	7927.275
232.64527	8933.275
236.91549	9962.775
241.18261	10915.475
245.44663	11640.275
249.70755	12183.875
253.96539	12629.375
258.22014	12992.775
262.4718	13330.075
266.72039	13594.275
270.96589	13668.075
275.20832	13640.975
279.44768	13495.875
283.68397	13358.875
287.91719	13295.275
292.14735	13320.275
296.37445	13547.575
300.59849	13908.075
304.81948	14405.575
309.03742	14832.075
313.25231	14950.775
317.46415	14594.475
321.67296	13854.475
325.87872	13130.075
330.08145	12712.375
334.28114	12610.275
338.47781	12747.275
342.67145	13006.775
346.86207	13407.775
351.04966	13940.375
355.23424	14435.375
359.4158	14808.375
363.59435	14917.475
367.76989	14879.575
371.94243	14769.775
376.11196	14636.775
380.27849	14540.275
384.44203	14513.675
388.60257	14530.675
392.76012	14545.375
396.91468	14686.875
401.06626	14980.275
405.21485	15153.575
409.36047	14885.575
413.50311	14254.475
417.64277	13665.675
421.77947	13418.175
425.9132	13360.675
430.04396	13411.875
434.17176	13502.575
438.2966	13673.475
442.41849	14032.575
446.53742	14571.875
450.6534	15154.375
454.76644	15495.475
458.87653	15471.675
462.98368	15275.675
467.08789	14963.575
471.18916	14664.175
475.2875	14336.775
479.38291	14056.075
483.4754	13803.975
487.56496	13591.375
491.6516	13342.475
495.73531	13085.475
499.81612	13044.475
503.89401	13105.175
507.96899	13248.875
512.04106	13259.375
516.11023	13261.075
520.1765	13199.775
524.23987	13160.775
528.30034	13101.275
532.35792	12955.475
536.41261	12698.075
540.46441	12390.075
544.51333	12231.675
548.55936	12379.775
552.60252	12797.875
556.64279	13374.775
560.6802	13782.075
564.71473	14076.275
568.7464	14694.575
572.7752	15448.375
576.80114	15776.775
580.82422	15871.375
584.84444	16171.075
588.86181	16799.075
592.87633	17612.575
596.888	17839.075
600.89682	17162.475
604.9028	17376.775
608.90594	20395.675
612.90624	24465.075
616.90371	22998.775
620.89834	16444.475
624.89015	13179.675
628.87913	12690.375
632.86528	12943.275
636.84862	13203.175
640.82913	12895.075
644.80683	12190.875
648.78172	11680.175
652.75379	11658.175
656.72306	12099.275
660.68952	12639.275
664.65319	12495.875
668.61405	11830.975
672.57211	11567.875
676.52738	11598.575
680.47986	11549.275
684.42955	11364.875
688.37646	11279.275
692.32058	11349.875
696.26192	11480.375
700.20048	11757.975
704.13626	11918.775
708.06928	11998.575
711.99952	11914.675
715.927	11885.075
719.85171	11965.275
723.77365	11940.175
727.69284	11734.675
731.60928	11563.275
735.52295	11535.375
739.43388	11610.175
743.34206	11675.075
747.24749	11774.775
751.15017	11948.875
755.05012	12253.175
758.94733	12958.575
762.8418	14618.275
766.73354	17367.075
770.62254	19947.875
774.50882	20529.475
778.39237	18979.375
782.27321	16449.475
786.15132	14159.375
790.02671	12680.175
793.89938	11970.075
797.76935	11613.775
801.6366	11458.375
805.50115	11356.475
809.36299	11244.275
813.22213	11175.575
817.07857	11131.975
820.93231	11113.875
824.78336	11070.075
828.63172	11070.675
832.47738	11065.875
836.32036	11012.575
840.16066	10963.375
843.99827	10939.475
847.8332	10930.975
851.66546	10941.275
855.49504	10962.175
859.32195	10926.375
863.1462	10858.875
866.96777	10800.575
870.78668	10763.175
874.60293	10820.675
878.41652	10835.475
882.22745	10935.675
886.03573	10979.575
889.84136	10979.775
893.64433	10928.475
897.44466	10914.975
901.24235	10867.775
905.0374	10773.175
908.8298	10713.375
912.61957	10672.975
916.40671	10757.375
920.19121	10982.575
923.97308	11192.675
927.75233	11297.075
931.52895	11196.675
935.30295	10938.475
939.07433	10559.575
942.84309	10229.475
946.60924	10063.775
950.37278	9960.275
954.13371	9963.775
957.89203	9964.275
961.64774	9956.575
965.40086	9956.175
969.15137	9938.675
972.89929	9895.075
976.64461	9862.575
980.38733	9812.875
984.12747	9843.175
987.86502	9884.275
991.59999	9982.775
995.33237	10150.575
999.06217	10420.575
1002.78939	10825.375
1006.51404	11253.775
1010.23611	11631.375
1013.95561	11812.475
1017.67255	11795.375
1021.38692	11469.275
1025.09872	11045.975
1028.80796	10742.175
1032.51465	10697.075
1036.21877	10771.675
1039.92035	10872.375
1043.61937	10969.975
1047.31584	10997.075
1051.00976	11040.275
1054.70114	11042.775
1058.38998	11081.575
1062.07627	11127.375
1065.76003	11270.875
1069.44126	11520.175
1073.11995	11830.475
1076.79611	12095.275
1080.46974	12355.775
1084.14085	12646.775
1087.80943	13014.675
1091.47549	13247.775
1095.13903	13096.175
1098.80005	12688.075
1102.45857	12156.475
1106.11456	11860.175
1109.76805	11798.675
1113.41903	11981.775
1117.06751	12360.875
1120.71348	12841.275
1124.35696	13426.375
1127.99793	13906.675
1131.63641	13886.975
1135.2724	13378.275
1138.90589	12949.275
1142.5369	12716.975
1146.16542	12645.875
1149.79145	12687.575
1153.415	12819.675
1157.03607	13020.575
1160.65467	13422.875
1164.27079	14116.275
1167.88443	15227.575
1171.49561	16895.775
1175.10432	19325.775
1178.71056	22448.975
1182.31434	24857.775
1185.91565	25352.075
1189.51451	24394.275
1193.11091	22904.075
1196.70485	21227.075
1200.29634	19777.475
1203.88538	18606.775
1207.47197	17502.075
1211.05612	16536.075
1214.63782	15980.275
1218.21708	15689.675
1221.79391	15643.475
1225.36829	15732.175
1228.94024	15667.375
1232.50976	15214.575
1236.07685	14672.675
1239.6415	14283.575
1243.20374	14222.675
1246.76355	14304.075
1250.32093	14504.475
1253.8759	14857.475
1257.42845	15454.475
1260.97859	16147.975
1264.52631	16943.975
1268.07163	17660.375
1271.61453	18303.775
1275.15503	18926.475
1278.69312	19509.175
1282.22882	20178.775
1285.76211	21226.975
1289.29301	22573.975
1292.82151	24136.475
1296.34761	25841.075
1299.87133	27938.275
1303.39266	30614.375
1306.9116	33759.175
1310.42815	36712.675
1313.94233	38092.175
1317.45412	37057.575
1320.96354	34801.075
1324.47058	32466.075
1327.97525	30525.575
1331.47754	29057.375
1334.97747	28046.375
1338.47502	27484.775
1341.97022	27349.775
1345.46305	27736.675
1348.95352	28548.175
1352.44163	30010.475
1355.92738	32600.675
1359.41078	36710.975
1362.89183	40703.575
1366.37053	40026.075
1369.84688	34493.775
1373.32088	28301.475
1376.79254	24518.375
1380.26186	22870.575
1383.72883	22188.675
1387.19347	21678.975
1390.65578	21189.875
1394.11575	20921.675
1397.57339	20876.075
1401.0287	20926.275
1404.48168	20845.875
1407.93234	20465.575
1411.38068	19857.775
1414.82669	19177.975
1418.27039	18431.475
1421.71177	17632.775
1425.15083	16905.275
1428.58758	16549.775
1432.02203	16780.975
1435.45416	17341.175
1438.88399	17835.875
1442.31151	18070.375
1445.73673	18376.775
1449.15965	18609.675
1452.58027	18703.475
1455.9986	18672.775
1459.41463	18781.775
1462.82837	19124.475
1466.23982	19703.075
1469.64898	20225.075
1473.05586	20665.575
1476.46045	20905.475
1479.86276	21021.175
1483.26279	21263.575
1486.66054	21655.475
1490.05602	22372.175
1493.44922	23420.175
1496.84016	24963.375
1500.22882	27136.575
1503.61521	30099.975
1506.99934	33341.675
1510.38121	35630.175
1513.76081	35662.175
1517.13816	33083.975
1520.51324	29327.275
1523.88607	26209.275
1527.25665	24449.175
1530.62498	23596.575
1533.99105	23057.375
1537.35488	22452.375
1540.71647	21615.275
1544.07581	20665.375
1547.4329	19783.275
1550.78776	19081.875
1554.14038	18721.375
1557.49077	18681.475
1560.83892	18941.375
1564.18484	19562.275
1567.52853	20366.675
1570.86999	21123.975
1574.20922	21631.775
1577.54624	21628.475
1580.88103	20691.275
1584.2136	19593.175
1587.54395	19333.775
1590.87208	20097.375
1594.19801	21671.575
1597.52172	23485.475
1600.84321	24010.175
1604.16251	22723.475
1607.47959	20493.475
1610.79447	18284.775
1614.10715	16291.475
1617.41763	14740.075
1620.7259	13757.875
1624.03199	13259.875
1627.33587	13291.575
1630.63757	13794.975
1633.93707	15036.375
1637.23439	17254.075
1640.52951	20822.475
1643.82246	25654.475
1647.11321	30370.275
1650.40179	32384.375
1653.68819	30181.175
1656.97241	24845.575
1660.25446	19421.275
1663.53433	15450.575
1666.81203	13074.475
1670.08756	11684.575
1673.36092	10882.075
1676.63211	10383.575
1679.90115	10039.175
1683.16801	9801.675
1686.43272	9590.375
1689.69527	9454.875
1692.95567	9343.275
1696.2139	9267.275
1699.46999	9220.975
1702.72392	9152.475
1705.97571	9091.975
1709.22535	9073.175
1712.47284	9059.975
1715.71819	9031.875
1718.96139	9005.475
1722.20246	8958.275
1725.44139	8879.775
1728.67818	8751.175
1731.91284	8661.675
1735.14537	8578.375
1738.37576	8520.475
1741.60403	8470.775
1744.83017	8413.875
1748.05418	8393.775
1751.27607	8368.075
1754.49584	8349.575
1757.71349	8331.175
1760.92903	8291.675
1764.14244	8294.075
1767.35375	8264.875
1770.56294	8257.675
1773.77002	8196.575
1776.97499	8168.675
1780.17785	8137.375
1783.37861	8116.175
1786.57727	8063.675
1789.77382	8047.075
1792.96828	8014.075
1796.16064	8011.275
1799.3509	7993.475
1802.53907	7959.075
1805.72514	7927.375
1808.90913	7893.275
1812.09102	7865.275
1815.27083	7839.175
1818.44856	7821.975
1821.6242	7791.575
1824.79776	7774.875
1827.96924	7747.575
1831.13864	7744.175
1834.30597	7740.375
1837.47122	7709.575
1840.6344	7673.375
1843.7955	7678.275
1846.95454	7675.775
1850.11151	7686.975
1853.26642	7633.275
1856.41926	7631.275
1859.57004	7619.275
1862.71876	7599.375
1865.86542	7610.275
1869.01003	7595.475
1872.15258	7582.175
1875.29308	7587.475
1878.43152	7577.075
1881.56792	7571.475
1884.70227	7552.775
1887.83457	7568.875
1890.96482	7569.575
1894.09304	7556.375
1897.21921	7562.175
1900.34335	7555.975
1903.46544	7541.275
1906.58551	7527.575
1909.70353	7543.875
1912.81953	7525.075
1915.93349	7495.675
1919.04543	7475.975
1922.15534	7458.475
1925.26322	7446.675
1928.36908	7416.375
1931.47292	7380.475
1934.57473	7349.075
1937.67453	7330.575
1940.77232	7302.975
1943.86808	7285.675
1946.96184	7255.475
1950.05358	7242.475
1953.14331	7238.075
1956.23103	7197.975
1959.31675	7188.175
1962.40046	7154.875
1965.48217	7154.275
1968.56188	7153.875
1971.63959	7122.875
1974.7153	7096.275
1977.78901	7050.275
1980.86073	7037.575
1983.93046	7023.275
1986.99819	6981.875
1990.06394	6947.875
1993.1277	6936.075
1996.18947	6891.175
1999.24925	6879.775
2002.30706	6831.075
2005.36288	6815.875
2008.41672	6781.275
2011.46859	6747.275
2014.51848	6749.375
2017.56639	6729.575
2020.61233	6692.175
2023.6563	6683.075
2026.6983	6675.875
2029.73833	6616.475
2032.7764	6607.075
2035.8125	6606.875
2038.84664	6586.975
2041.87881	6571.875
2044.90903	6581.375
2047.93729	6558.675
2050.96359	6522.275
2053.98794	6512.475
2057.01034	6491.375
2060.03078	6491.875
2063.04927	6478.075
2066.06582	6485.475
2069.08042	6477.475
2072.09307	6460.275
2075.10378	6459.875
2078.11255	6452.075
2081.11938	6443.575
2084.12426	6433.575
2087.12722	6458.775
2090.12824	6464.075
2093.12732	6447.675
2096.12447	6457.275
2099.11969	6437.575
2102.11299	6449.175
2105.10435	6452.575
2108.09379	6432.075
2111.08131	6438.775
2114.0669	6447.975
2117.05057	6448.175
2120.03233	6443.275
2123.01216	6443.975
2125.99008	6464.875
2128.96609	6451.175
2131.94018	6463.075
2134.91236	6441.375
2137.88263	6455.175
2140.851	6438.275
2143.81746	6449.075
2146.78201	6440.475
2149.74466	6432.875
2152.7054	6416.175
2155.66425	6401.275
2158.6212	6399.575
2161.57625	6403.675
2164.52941	6388.675
2167.48067	6378.875
2170.43004	6387.875
2173.37752	6371.875
2176.32311	6368.375
2179.26681	6364.275
2182.20863	6333.575
2185.14856	6351.675
2188.08661	6337.475
2191.02278	6359.675
2193.95707	6314.375
2196.88948	6321.675
2199.82001	6314.575
2202.74867	6303.975
2205.67545	6282.675
2208.60037	6254.275
2211.52341	6258.275
2214.44458	6250.875
2217.36388	6241.275
2220.28132	6226.775
2223.1969	6217.475
2226.11061	6210.275
2229.02246	6187.375
2231.93245	6170.975
2234.84058	6154.875
2237.74686	6126.475
2240.65128	6155.575
2243.55385	6137.475
2246.45456	6136.575
2249.35343	6121.475
2252.25044	6127.575
2255.14561	6094.275
2258.03893	6113.675
2260.93041	6093.775
2263.82004	6084.375
2266.70783	6069.875
2269.59378	6056.375
2272.4779	6021.575
2275.36017	6015.275
2278.24061	5994.575
2281.11922	5984.575
2283.996	5971.675
2286.87094	5969.075
2289.74405	5945.075
2292.61534	5946.175
2295.4848	5925.675
2298.35243	5918.875
2301.21824	5912.475
2304.08223	5902.075
2306.94439	5895.975
2309.80474	5906.775
2312.66327	5906.975
2315.51999	5895.275
2318.37489	5869.175
2321.22797	5862.075
2324.07925	5894.275
2326.92871	5875.575
2329.77637	5851.675
2332.62222	5852.375
2335.46626	5860.975
2338.3085	5845.075
2341.14893	5845.775
2343.98756	5841.775
2346.8244	5830.975
2349.65943	5852.475
2352.49267	5844.475
2355.32411	5887.975
2358.15376	5880.875
2360.98161	5886.475
2363.80768	5878.275
2366.63195	5886.775
2369.45444	5891.775
2372.27514	5896.275
2375.09405	5872.175
2377.91118	5840.775
2380.72652	5844.075
2383.54009	5835.675
2386.35187	5805.075
2389.16188	5778.375
2391.97011	5763.575
2394.77657	5751.475
2397.58125	5726.275
2400.38416	5720.275
2403.18529	5695.175
2405.98466	5688.475
2408.78226	5685.275
2411.57809	5654.875
2414.37216	5655.775
2417.16446	5641.175
2419.955	5635.775
2422.74378	5630.675
2425.5308	5624.075
2428.31606	5626.175
2431.09956	5638.475
2433.88131	5624.275
2436.6613	5623.675
2439.43954	5624.475
2442.21603	5623.375
2444.99077	5634.675
2447.76377	5624.175
2450.53501	5638.575
2453.30451	5647.475
2456.07226	5636.775
2458.83827	5641.875
2461.60254	5632.875
2464.36507	5641.375
2467.12586	5641.975
2469.88492	5645.775
2472.64224	5649.675
2475.39782	5650.775
2478.15167	5670.875
2480.90379	5667.875
2483.65417	5687.375
2486.40283	5697.375
2489.14976	5719.775
2491.89497	5707.875
2494.63845	5728.075
2497.3802	5712.175
2500.12024	5716.875
2502.85855	5703.475
2505.59514	5669.075
2508.33002	5652.275
2511.06318	5645.975
2513.79462	5609.875
2516.52435	5596.375
2519.25237	5585.675
2521.97867	5568.675
2524.70327	5571.375
2527.42616	5559.175
2530.14734	5540.475
2532.86681	5532.675
2535.58458	5545.575
2538.30065	5515.075
2541.01501	5519.175
2543.72768	5521.975
2546.43864	5527.275
2549.14791	5508.375
2551.85548	5511.175
2554.56136	5520.675
2557.26554	5522.375
2559.96803	5508.975
2562.66883	5508.675
2565.36794	5506.075
2568.06536	5531.375
2570.7611	5519.875
2573.45514	5499.775
2576.14751	5500.575
2578.83819	5479.175
2581.52719	5470.675
2584.21451	5471.875
2586.90015	5465.075
2589.58411	5451.875
2592.2664	5460.675
2594.94701	5445.875
2597.62594	5442.575
2600.30321	5425.375
2602.9788	5429.275
2605.65273	5418.575
2608.32498	5433.175
2610.99557	5429.775
2613.66449	5415.775
2616.33175	5431.175
2618.99734	5434.175
2621.66128	5433.875
2624.32355	5416.975
2626.98416	5424.475
2629.64311	5411.075
2632.30041	5408.875
2634.95605	5395.075
2637.61004	5391.175
2640.26238	5389.075
2642.91306	5384.175
2645.56209	5392.375
2648.20948	5368.775
2650.85521	5390.075
2653.4993	5384.075
2656.14175	5384.675
2658.78255	5401.075
2661.42171	5399.475
2664.05923	5398.075
2666.6951	5410.075
2669.32934	5410.075
2671.96194	5415.875
2674.59291	5433.375
2677.22224	5421.575
2679.84993	5431.475
2682.476	5398.775
2685.10043	5419.675
2687.72324	5412.175
2690.34441	5421.375
2692.96396	5420.775
2695.58188	5403.275
2698.19818	5399.875
2700.81285	5383.775
2703.4259	5387.575
2706.03733	5388.275
2708.64714	5379.875
2711.25533	5413.175
2713.86191	5399.675
2716.46687	5420.275
2719.07021	5409.375
2721.67194	5421.875
2724.27206	5421.675
2726.87057	5424.375
2729.46747	5415.975
2732.06276	5420.275
2734.65644	5410.975
2737.24852	5429.475
2739.83899	5408.175
2742.42786	5420.875
2745.01513	5373.875
2747.60079	5393.875
2750.18486	5371.375
2752.76733	5362.675
2755.3482	5358.675
2757.92747	5352.775
2760.50515	5353.975
2763.08123	5349.575
2765.65573	5371.775
2768.22863	5343.875
2770.79994	5355.275
2773.36967	5344.175
2775.9378	5332.375
2778.50435	5340.875
2781.06932	5332.175
2783.6327	5342.775
2786.1945	5329.575
2788.75471	5343.275
2791.31335	5318.675
2793.87041	5332.575
2796.42589	5321.475
2798.97979	5314.475
2801.53212	5315.175
2804.08288	5315.575
2806.63206	5326.375
2809.17967	5308.075
2811.72571	5300.475
2814.27018	5308.375
2816.81308	5313.775
2819.35442	5310.475
2821.89419	5313.075
2824.43239	5305.575
2826.96904	5306.575
2829.50412	5327.175
2832.03763	5295.575
2834.56959	5296.175
2837.1	5290.475
2839.62884	5284.875
2842.15613	5281.675
2844.68186	5283.675
2847.20604	5299.475
2849.72867	5310.075
2852.24974	5310.375
2854.76927	5303.775
2857.28724	5315.875
2859.80367	5304.875
2862.31855	5315.475
2864.83189	5318.275
2867.34368	5331.075
2869.85393	5336.275
2872.36264	5342.775
2874.8698	5343.275
2877.37543	5335.975
2879.87952	5336.375
2882.38207	5343.775
2884.88308	5323.575
2887.38256	5338.075
2889.88051	5314.775
2892.37692	5322.975
2894.8718	5321.875
2897.36515	5334.175
2899.85698	5333.275
2902.34727	5338.475
2904.83604	5351.775
2907.32328	5355.875
2909.809	5352.675
2912.29319	5363.975
2914.77587	5346.775
2917.25702	5360.475
2919.73665	5338.375
2922.21476	5352.575
2924.69136	5315.175
2927.16644	5312.475
2929.64	5308.475
2932.11205	5282.875
2934.58258	5265.875
2937.05161	5262.675
2939.51912	5260.175
2941.98513	5257.575
2944.44962	5227.475
2946.91261	5211.475
2949.37409	5218.975
2951.83407	5210.375
2954.29254	5194.775
2956.74951	5193.975
2959.20498	5177.475
2961.65895	5172.775
2964.11142	5161.575
2966.56239	5149.075
2969.01186	5145.775
2971.45984	5111.475
2973.90632	5096.875
2976.35131	5072.875
2978.7948	5064.575
2981.23681	5053.175
2983.67732	5051.175
2986.11635	5032.375
2988.55388	5015.275
2990.98993	4992.975
2993.4245	4994.575
2995.85758	4977.075
2998.28917	4974.775
3000.71928	4953.775
3003.14791	4948.275
3005.57506	4942.875
3008.00073	4932.875
3010.42493	4941.475
3012.84764	4932.675
3015.26888	4918.875
3017.68865	4904.675
3020.10694	4900.975
3022.52376	4884.775
3024.9391	4865.275
3027.35298	4862.575
3029.76539	4851.175
3032.17632	4849.975
3034.5858	4828.875
3036.9938	4819.375
3039.40034	4814.275
3041.80542	4803.375
3044.20903	4799.475
3046.61118	4793.275
3049.01187	4772.075
3051.4111	4771.475
3053.80888	4756.575
3056.20519	4752.075
3058.60005	4737.275
3060.99345	4736.775
3063.3854	4717.875
3065.7759	4708.675
3068.16494	4706.475
3070.55254	4683.575
3072.93868	4662.775
3075.32338	4652.675
3077.70662	4666.775
3080.08842	4650.375
3082.46878	4629.475
3084.84769	4620.575
3087.22515	4615.375
3089.60118	4590.375
3091.97576	4586.875
3094.3489	4591.675
3096.72061	4603.575
3099.09087	4594.475
3101.4597	4598.175
3103.82709	4597.275
3106.19305	4573.375
3108.55757	4571.675
3110.92066	4579.375
3113.28232	4553.375
3115.64255	4537.975
3118.00134	4516.475
3120.35871	4508.175
3122.71466	4503.075
3125.06917	4500.275
3127.42226	4492.575
3129.77393	4527.975
3132.12417	4514.475
3134.47299	4514.675
3136.82039	4513.875
3139.16636	4517.275
3141.51092	4510.675
3143.85406	4508.175
3146.19579	4515.375
3148.53609	4500.575
3150.87499	4509.075
3153.21246	4507.875
3155.54853	4499.775
3157.88318	4504.575
3160.21642	4486.775
3162.54826	4494.075
3164.87868	4501.175
3167.2077	4484.075
3169.5353	4498.675
3171.86151	4486.675
3174.18631	4499.375
3176.5097	4483.775
3178.83169	4484.875
3181.15228	4476.375
3183.47147	4473.075
3185.78926	4474.475
3188.10565	4471.275
3190.42065	4475.375
3192.73424	4476.175
