Data from AgNP_FTO_APTES_UA_100uM_CRN_50uM_R6G_10uM_NaF_0.1M_Addition_RamanShift__22__17-33-30-547.txt Node

Date: Thu Mar 24 17:33:30 GMT 2022
User: TCL
Spectrometer: QEP01345
Trigger mode: 4
Integration Time (sec): 7.000000E0
Scans to average: 10
Electric dark correction enabled: true
Nonlinearity correction enabled: false
Boxcar width: 0
XAxis mode: Raman Shifts
Number of Pixels in Spectrum: 1044
>>>>>Begin Spectral Data<<<<<
46.04893	-1.6125
50.45542	-0.2125
54.85868	0.2875
59.25871	-0.4125
63.6555	37.7875
68.04907	39.1875
72.43941	38.6875
76.82654	40.3875
81.21044	44.5875
85.59113	43.2875
89.96862	47.5875
94.34289	45.6875
98.71396	48.2875
103.08183	47.3875
107.4465	50.9875
111.80798	53.4875
116.16626	51.5875
120.52136	53.3875
124.87327	52.8875
129.222	59.5875
133.56755	62.5875
137.90993	65.3875
142.24913	77.8875
146.58517	78.9875
150.91804	95.8875
155.24774	117.7875
159.57429	144.9875
163.89768	188.2875
168.21792	247.9875
172.53501	338.0875
176.84895	480.1875
181.15975	672.4875
185.46741	946.0875
189.77193	1313.6875
194.07331	1755.8875
198.37157	2277.1875
202.6667	2816.8875
206.9587	3350.4875
211.24758	3903.7875
215.53334	4438.7875
219.81599	5022.0875
224.09553	5678.7875
228.37195	6390.1875
232.64527	7216.5875
236.91549	8053.5875
241.18261	8871.5875
245.44663	9616.1875
249.70755	10218.5875
253.96539	10732.3875
258.22014	11183.0875
262.4718	11520.5875
266.72039	11764.7875
270.96589	11945.3875
275.20832	11980.9875
279.44768	11911.5875
283.68397	11768.1875
287.91719	11688.6875
292.14735	11656.4875
296.37445	11699.7875
300.59849	11858.5875
304.81948	12042.8875
309.03742	12124.1875
313.25231	12068.9875
317.46415	11781.0875
321.67296	11397.4875
325.87872	11035.0875
330.08145	10844.1875
334.28114	10846.4875
338.47781	10934.2875
342.67145	11100.1875
346.86207	11322.6875
351.04966	11620.1875
355.23424	11901.2875
359.4158	12131.0875
363.59435	12245.6875
367.76989	12316.1875
371.94243	12387.4875
376.11196	12398.9875
380.27849	12392.7875
384.44203	12382.7875
388.60257	12439.2875
392.76012	12500.0875
396.91468	12581.8875
401.06626	12805.5875
405.21485	12922.9875
409.36047	12793.6875
413.50311	12462.3875
417.64277	12162.1875
421.77947	12008.7875
425.9132	11993.4875
430.04396	12058.7875
434.17176	12137.8875
438.2966	12278.1875
442.41849	12457.1875
446.53742	12784.0875
450.6534	13059.4875
454.76644	13269.2875
458.87653	13316.1875
462.98368	13210.8875
467.08789	13136.6875
471.18916	12978.6875
475.2875	12803.6875
479.38291	12666.7875
483.4754	12530.6875
487.56496	12372.7875
491.6516	12246.5875
495.73531	12140.8875
499.81612	12119.0875
503.89401	12185.5875
507.96899	12258.0875
512.04106	12238.5875
516.11023	12257.3875
520.1765	12236.0875
524.23987	12199.8875
528.30034	12133.6875
532.35792	12072.4875
536.41261	11927.3875
540.46441	11829.9875
544.51333	11790.7875
548.55936	11905.4875
552.60252	12132.1875
556.64279	12402.3875
560.6802	12543.7875
564.71473	12635.2875
568.7464	12825.4875
572.7752	13092.6875
576.80114	13267.9875
580.82422	13418.7875
584.84444	13544.2875
588.86181	13725.4875
592.87633	13988.5875
596.888	14183.1875
600.89682	14204.9875
604.9028	14741.6875
608.90594	16449.0875
612.90624	18604.1875
616.90371	17673.8875
620.89834	14118.8875
624.89015	12404.9875
628.87913	12159.5875
632.86528	12358.3875
636.84862	12544.9875
640.82913	12428.0875
644.80683	12049.4875
648.78172	11681.7875
652.75379	11582.3875
656.72306	11777.5875
660.68952	12045.3875
664.65319	11963.0875
668.61405	11613.2875
672.57211	11493.2875
676.52738	11493.1875
680.47986	11497.4875
684.42955	11421.2875
688.37646	11360.1875
692.32058	11363.5875
696.26192	11476.5875
700.20048	11569.6875
704.13626	11660.9875
708.06928	11693.6875
711.99952	11609.3875
715.927	11594.5875
719.85171	11618.2875
723.77365	11631.1875
727.69284	11541.6875
731.60928	11520.1875
735.52295	11492.5875
739.43388	11494.1875
743.34206	11534.9875
747.24749	11540.1875
751.15017	11601.6875
755.05012	11746.5875
758.94733	12147.6875
762.8418	12972.2875
766.73354	14456.6875
770.62254	15931.6875
774.50882	16376.5875
778.39237	15577.2875
782.27321	14037.1875
786.15132	12708.9875
790.02671	11912.9875
793.89938	11500.9875
797.76935	11292.7875
801.6366	11225.2875
805.50115	11172.0875
809.36299	11129.2875
813.22213	11119.5875
817.07857	11090.4875
820.93231	11050.9875
824.78336	11004.7875
828.63172	10997.7875
832.47738	10947.0875
836.32036	10938.5875
840.16066	10917.3875
843.99827	10921.3875
847.8332	10894.5875
851.66546	10897.5875
855.49504	10897.7875
859.32195	10893.6875
863.1462	10872.8875
866.96777	10880.8875
870.78668	10875.7875
874.60293	10873.6875
878.41652	10878.6875
882.22745	10950.2875
886.03573	11004.0875
889.84136	11019.4875
893.64433	10955.6875
897.44466	10904.9875
901.24235	10860.5875
905.0374	10814.1875
908.8298	10781.6875
912.61957	10761.6875
916.40671	10783.7875
920.19121	10902.2875
923.97308	10977.1875
927.75233	10958.3875
931.52895	10898.1875
935.30295	10777.4875
939.07433	10558.6875
942.84309	10411.1875
946.60924	10319.6875
950.37278	10285.4875
954.13371	10253.6875
957.89203	10223.1875
961.64774	10231.6875
965.40086	10228.0875
969.15137	10197.8875
972.89929	10166.1875
976.64461	10137.5875
980.38733	10089.5875
984.12747	10119.0875
987.86502	10151.7875
991.59999	10187.7875
995.33237	10273.8875
999.06217	10425.1875
1002.78939	10627.5875
1006.51404	10869.0875
1010.23611	11074.1875
1013.95561	11188.9875
1017.67255	11158.0875
1021.38692	11053.0875
1025.09872	10838.3875
1028.80796	10703.3875
1032.51465	10600.1875
1036.21877	10622.2875
1039.92035	10673.1875
1043.61937	10722.9875
1047.31584	10775.0875
1051.00976	10836.5875
1054.70114	10850.0875
1058.38998	10884.8875
1062.07627	10968.8875
1065.76003	11072.9875
1069.44126	11157.9875
1073.11995	11312.6875
1076.79611	11475.7875
1080.46974	11589.7875
1084.14085	11704.0875
1087.80943	11863.8875
1091.47549	11976.4875
1095.13903	11928.0875
1098.80005	11715.9875
1102.45857	11478.3875
1106.11456	11327.0875
1109.76805	11320.3875
1113.41903	11422.2875
1117.06751	11613.1875
1120.71348	11901.0875
1124.35696	12183.6875
1127.99793	12445.8875
1131.63641	12499.5875
1135.2724	12276.0875
1138.90589	12063.9875
1142.5369	11874.9875
1146.16542	11773.0875
1149.79145	11698.0875
1153.415	11731.4875
1157.03607	11828.2875
1160.65467	12044.0875
1164.27079	12430.6875
1167.88443	13032.2875
1171.49561	13906.2875
1175.10432	15172.9875
1178.71056	16769.7875
1182.31434	18141.7875
1185.91565	18650.6875
1189.51451	18379.6875
1193.11091	17739.4875
1196.70485	16902.8875
1200.29634	16032.1875
1203.88538	15364.3875
1207.47197	14662.1875
1211.05612	14015.3875
1214.63782	13593.1875
1218.21708	13354.5875
1221.79391	13245.6875
1225.36829	13211.2875
1228.94024	13114.7875
1232.50976	12922.1875
1236.07685	12735.9875
1239.6415	12657.5875
1243.20374	12625.0875
1246.76355	12650.8875
1250.32093	12772.0875
1253.8759	12966.0875
1257.42845	13240.2875
1260.97859	13581.6875
1264.52631	13991.1875
1268.07163	14383.7875
1271.61453	14730.5875
1275.15503	15060.3875
1278.69312	15340.9875
1282.22882	15585.0875
1285.76211	15935.8875
1289.29301	16432.4875
1292.82151	17057.6875
1296.34761	17794.3875
1299.87133	18810.6875
1303.39266	20021.0875
1306.9116	21567.8875
1310.42815	23030.5875
1313.94233	23841.1875
1317.45412	23572.2875
1320.96354	22781.0875
1324.47058	21882.5875
1327.97525	20957.6875
1331.47754	20224.8875
1334.97747	19890.4875
1338.47502	19838.4875
1341.97022	20070.0875
1345.46305	20546.7875
1348.95352	21191.9875
1352.44163	21887.1875
1355.92738	23042.1875
1359.41078	24819.0875
1362.89183	26535.7875
1366.37053	26168.8875
1369.84688	23334.3875
1373.32088	20090.4875
1376.79254	18013.9875
1380.26186	16970.7875
1383.72883	16488.4875
1387.19347	16169.1875
1390.65578	15838.3875
1394.11575	15559.4875
1397.57339	15462.4875
1401.0287	15503.8875
1404.48168	15506.1875
1407.93234	15477.5875
1411.38068	15292.7875
1414.82669	14979.9875
1418.27039	14582.2875
1421.71177	14097.9875
1425.15083	13676.7875
1428.58758	13407.9875
1432.02203	13456.3875
1435.45416	13636.7875
1438.88399	13872.7875
1442.31151	14069.5875
1445.73673	14212.8875
1449.15965	14392.9875
1452.58027	14472.9875
1455.9986	14532.5875
1459.41463	14649.3875
1462.82837	14944.8875
1466.23982	15326.8875
1469.64898	15780.3875
1473.05586	16170.2875
1476.46045	16360.8875
1479.86276	16472.2875
1483.26279	16544.7875
1486.66054	16691.1875
1490.05602	17027.2875
1493.44922	17528.3875
1496.84016	18271.5875
1500.22882	19454.6875
1503.61521	21080.9875
1506.99934	22727.5875
1510.38121	23755.0875
1513.76081	23621.0875
1517.13816	22286.3875
1520.51324	20406.7875
1523.88607	18784.1875
1527.25665	17837.4875
1530.62498	17337.0875
1533.99105	17039.2875
1537.35488	16711.9875
1540.71647	16319.2875
1544.07581	15881.3875
1547.4329	15475.4875
1550.78776	15157.4875
1554.14038	14982.5875
1557.49077	14935.0875
1560.83892	15110.2875
1564.18484	15418.2875
1567.52853	15798.6875
1570.86999	16092.3875
1574.20922	16410.7875
1577.54624	16378.6875
1580.88103	15855.3875
1584.2136	15211.2875
1587.54395	14946.0875
1590.87208	15230.8875
1594.19801	15943.8875
1597.52172	16839.9875
1600.84321	17233.6875
1604.16251	16640.0875
1607.47959	15713.6875
1610.79447	14707.5875
1614.10715	13706.7875
1617.41763	12817.6875
1620.7259	12136.7875
1624.03199	11753.4875
1627.33587	11639.6875
1630.63757	11901.2875
1633.93707	12494.6875
1637.23439	13555.0875
1640.52951	15248.9875
1643.82246	17446.4875
1647.11321	19584.2875
1650.40179	20582.4875
1653.68819	19639.3875
1656.97241	17206.4875
1660.25446	14584.4875
1663.53433	12618.0875
1666.81203	11390.1875
1670.08756	10620.6875
1673.36092	10151.5875
1676.63211	9826.6875
1679.90115	9611.2875
1683.16801	9458.4875
1686.43272	9301.5875
1689.69527	9221.2875
1692.95567	9136.7875
1696.2139	9066.8875
1699.46999	9025.8875
1702.72392	8959.2875
1705.97571	8939.9875
1709.22535	8905.0875
1712.47284	8867.7875
1715.71819	8843.6875
1718.96139	8782.6875
1722.20246	8757.8875
1725.44139	8697.3875
1728.67818	8624.8875
1731.91284	8572.4875
1735.14537	8521.3875
1738.37576	8440.2875
1741.60403	8429.2875
1744.83017	8381.9875
1748.05418	8371.3875
1751.27607	8345.0875
1754.49584	8324.8875
1757.71349	8318.3875
1760.92903	8281.2875
1764.14244	8314.2875
1767.35375	8252.9875
1770.56294	8268.0875
1773.77002	8203.3875
1776.97499	8193.3875
1780.17785	8143.9875
1783.37861	8157.0875
1786.57727	8110.7875
1789.77382	8090.6875
1792.96828	8113.3875
1796.16064	8064.1875
1799.3509	8042.8875
1802.53907	8026.8875
1805.72514	7995.6875
1808.90913	7949.3875
1812.09102	7958.6875
1815.27083	7939.7875
1818.44856	7906.4875
1821.6242	7883.2875
1824.79776	7871.8875
1827.96924	7859.9875
1831.13864	7861.2875
1834.30597	7825.1875
1837.47122	7808.6875
1840.6344	7795.4875
1843.7955	7785.0875
1846.95454	7763.1875
1850.11151	7769.6875
1853.26642	7753.5875
1856.41926	7738.0875
1859.57004	7747.7875
1862.71876	7723.2875
1865.86542	7725.6875
1869.01003	7735.0875
1872.15258	7689.3875
1875.29308	7683.7875
1878.43152	7675.0875
1881.56792	7652.5875
1884.70227	7669.3875
1887.83457	7658.7875
1890.96482	7658.7875
1894.09304	7633.0875
1897.21921	7627.6875
1900.34335	7598.1875
1903.46544	7611.2875
1906.58551	7583.0875
1909.70353	7586.9875
1912.81953	7582.6875
1915.93349	7564.2875
1919.04543	7534.2875
1922.15534	7511.3875
1925.26322	7521.8875
1928.36908	7486.1875
1931.47292	7473.8875
1934.57473	7450.0875
1937.67453	7422.2875
1940.77232	7427.5875
1943.86808	7399.0875
1946.96184	7365.9875
1950.05358	7323.5875
1953.14331	7313.4875
1956.23103	7265.4875
1959.31675	7255.3875
1962.40046	7230.2875
1965.48217	7228.2875
1968.56188	7209.8875
1971.63959	7157.9875
1974.7153	7173.3875
1977.78901	7143.8875
1980.86073	7107.8875
1983.93046	7071.5875
1986.99819	7040.9875
1990.06394	7028.8875
1993.1277	6999.4875
1996.18947	6986.6875
1999.24925	6964.8875
2002.30706	6962.3875
2005.36288	6912.7875
2008.41672	6875.8875
2011.46859	6858.1875
2014.51848	6834.6875
2017.56639	6823.9875
2020.61233	6780.3875
2023.6563	6781.2875
2026.6983	6757.9875
2029.73833	6734.7875
2032.7764	6726.3875
2035.8125	6699.2875
2038.84664	6671.3875
2041.87881	6656.4875
2044.90903	6667.6875
2047.93729	6615.7875
2050.96359	6621.6875
2053.98794	6605.6875
2057.01034	6596.6875
2060.03078	6574.5875
2063.04927	6569.1875
2066.06582	6566.9875
2069.08042	6555.3875
2072.09307	6563.3875
2075.10378	6543.6875
2078.11255	6545.3875
2081.11938	6545.2875
2084.12426	6544.8875
2087.12722	6527.6875
2090.12824	6540.5875
2093.12732	6534.7875
2096.12447	6521.9875
2099.11969	6535.7875
2102.11299	6531.9875
2105.10435	6533.7875
2108.09379	6524.8875
2111.08131	6537.0875
2114.0669	6540.2875
2117.05057	6550.5875
2120.03233	6548.7875
2123.01216	6559.6875
2125.99008	6533.9875
2128.96609	6547.3875
2131.94018	6549.4875
2134.91236	6537.4875
2137.88263	6556.4875
2140.851	6556.5875
2143.81746	6536.1875
2146.78201	6547.4875
2149.74466	6525.4875
2152.7054	6532.1875
2155.66425	6524.1875
2158.6212	6504.2875
2161.57625	6510.3875
2164.52941	6502.6875
2167.48067	6499.9875
2170.43004	6477.2875
2173.37752	6487.4875
2176.32311	6489.8875
2179.26681	6477.5875
2182.20863	6454.8875
2185.14856	6468.2875
2188.08661	6460.3875
2191.02278	6455.6875
2193.95707	6443.2875
2196.88948	6454.2875
2199.82001	6439.4875
2202.74867	6431.1875
2205.67545	6430.3875
2208.60037	6406.7875
2211.52341	6400.1875
2214.44458	6393.7875
2217.36388	6388.6875
2220.28132	6359.4875
2223.1969	6340.4875
2226.11061	6354.2875
2229.02246	6313.0875
2231.93245	6303.5875
2234.84058	6299.1875
2237.74686	6308.0875
2240.65128	6301.2875
2243.55385	6272.8875
2246.45456	6272.2875
2249.35343	6248.3875
2252.25044	6241.7875
2255.14561	6218.6875
2258.03893	6232.3875
2260.93041	6215.4875
2263.82004	6182.0875
2266.70783	6163.8875
2269.59378	6158.6875
2272.4779	6137.1875
2275.36017	6142.6875
2278.24061	6114.1875
2281.11922	6100.1875
2283.996	6089.4875
2286.87094	6087.3875
2289.74405	6078.5875
2292.61534	6064.3875
2295.4848	6051.5875
2298.35243	6052.1875
2301.21824	6038.3875
2304.08223	6027.1875
2306.94439	6024.5875
2309.80474	6037.6875
2312.66327	6019.1875
2315.51999	6002.6875
2318.37489	5990.1875
2321.22797	5994.6875
2324.07925	5983.8875
2326.92871	5975.4875
2329.77637	5974.6875
2332.62222	5956.7875
2335.46626	5926.7875
2338.3085	5933.2875
2341.14893	5925.9875
2343.98756	5931.0875
2346.8244	5927.2875
2349.65943	5920.7875
2352.49267	5940.5875
2355.32411	5930.2875
2358.15376	5939.9875
2360.98161	5927.1875
2363.80768	5925.2875
2366.63195	5956.1875
2369.45444	5944.8875
2372.27514	5918.3875
2375.09405	5904.4875
2377.91118	5905.4875
2380.72652	5882.7875
2383.54009	5863.8875
2386.35187	5862.5875
2389.16188	5828.4875
2391.97011	5815.4875
2394.77657	5798.5875
2397.58125	5787.3875
2400.38416	5751.0875
2403.18529	5762.2875
2405.98466	5768.0875
2408.78226	5721.9875
2411.57809	5721.9875
2414.37216	5697.2875
2417.16446	5723.7875
2419.955	5705.7875
2422.74378	5715.4875
2425.5308	5697.4875
2428.31606	5693.4875
2431.09956	5697.3875
2433.88131	5686.4875
2436.6613	5695.0875
2439.43954	5704.9875
2442.21603	5674.4875
2444.99077	5659.8875
2447.76377	5664.7875
2450.53501	5648.0875
2453.30451	5662.9875
2456.07226	5648.6875
2458.83827	5659.8875
2461.60254	5646.0875
2464.36507	5649.5875
2467.12586	5638.4875
2469.88492	5648.7875
2472.64224	5664.9875
2475.39782	5627.3875
2478.15167	5638.7875
2480.90379	5653.3875
2483.65417	5667.3875
2486.40283	5658.7875
2489.14976	5675.9875
2491.89497	5664.4875
2494.63845	5688.8875
2497.3802	5655.7875
2500.12024	5649.6875
2502.85855	5624.3875
2505.59514	5619.5875
2508.33002	5613.6875
2511.06318	5603.8875
2513.79462	5580.3875
2516.52435	5574.9875
2519.25237	5562.5875
2521.97867	5573.0875
2524.70327	5550.4875
2527.42616	5541.1875
2530.14734	5535.3875
2532.86681	5513.3875
2535.58458	5531.3875
2538.30065	5520.5875
2541.01501	5508.6875
2543.72768	5514.0875
2546.43864	5508.7875
2549.14791	5495.4875
2551.85548	5483.1875
2554.56136	5474.5875
2557.26554	5457.9875
2559.96803	5458.2875
2562.66883	5450.9875
2565.36794	5435.8875
2568.06536	5423.5875
2570.7611	5431.7875
2573.45514	5412.0875
2576.14751	5392.1875
2578.83819	5401.7875
2581.52719	5399.4875
2584.21451	5403.6875
2586.90015	5389.0875
2589.58411	5377.7875
2592.2664	5375.1875
2594.94701	5367.2875
2597.62594	5345.0875
2600.30321	5350.3875
2602.9788	5358.9875
2605.65273	5341.0875
2608.32498	5326.4875
2610.99557	5331.7875
2613.66449	5319.6875
2616.33175	5324.1875
2618.99734	5313.1875
2621.66128	5305.0875
2624.32355	5299.0875
2626.98416	5297.0875
2629.64311	5290.0875
2632.30041	5295.0875
2634.95605	5278.2875
2637.61004	5281.6875
2640.26238	5284.0875
2642.91306	5263.2875
2645.56209	5262.4875
2648.20948	5264.7875
2650.85521	5263.5875
2653.4993	5255.9875
2656.14175	5261.7875
2658.78255	5271.0875
2661.42171	5293.6875
2664.05923	5267.3875
2666.6951	5286.8875
2669.32934	5298.1875
2671.96194	5301.5875
2674.59291	5292.3875
2677.22224	5290.2875
2679.84993	5293.4875
2682.476	5254.2875
2685.10043	5268.3875
2687.72324	5241.9875
2690.34441	5234.9875
2692.96396	5263.7875
2695.58188	5261.5875
2698.19818	5254.2875
2700.81285	5257.5875
2703.4259	5254.3875
2706.03733	5241.8875
2708.64714	5266.7875
2711.25533	5269.2875
2713.86191	5272.7875
2716.46687	5279.3875
2719.07021	5279.3875
2721.67194	5272.0875
2724.27206	5278.5875
2726.87057	5282.1875
2729.46747	5269.9875
2732.06276	5277.4875
2734.65644	5271.5875
2737.24852	5281.8875
2739.83899	5226.0875
2742.42786	5250.3875
2745.01513	5241.0875
2747.60079	5210.4875
2750.18486	5216.7875
2752.76733	5211.6875
2755.3482	5215.7875
2757.92747	5195.7875
2760.50515	5219.1875
2763.08123	5188.6875
2765.65573	5186.2875
2768.22863	5199.7875
2770.79994	5194.0875
2773.36967	5205.3875
2775.9378	5170.3875
2778.50435	5177.4875
2781.06932	5171.7875
2783.6327	5187.2875
2786.1945	5186.6875
2788.75471	5175.1875
2791.31335	5174.2875
2793.87041	5174.3875
2796.42589	5145.5875
2798.97979	5150.4875
2801.53212	5134.2875
2804.08288	5133.6875
2806.63206	5100.4875
2809.17967	5107.8875
2811.72571	5098.5875
2814.27018	5117.1875
2816.81308	5088.5875
2819.35442	5082.3875
2821.89419	5074.6875
2824.43239	5077.9875
2826.96904	5064.5875
2829.50412	5043.6875
2832.03763	5066.1875
2834.56959	5047.5875
2837.1	5055.1875
2839.62884	5056.6875
2842.15613	5047.2875
2844.68186	5062.7875
2847.20604	5068.2875
2849.72867	5084.1875
2852.24974	5072.1875
2854.76927	5080.8875
2857.28724	5061.9875
2859.80367	5075.4875
2862.31855	5057.1875
2864.83189	5057.8875
2867.34368	5045.6875
2869.85393	5068.1875
2872.36264	5059.1875
2874.8698	5041.9875
2877.37543	5041.7875
2879.87952	5061.6875
2882.38207	5049.7875
2884.88308	5034.9875
2887.38256	5047.1875
2889.88051	5030.2875
2892.37692	5041.6875
2894.8718	5044.0875
2897.36515	5053.4875
2899.85698	5024.1875
2902.34727	5045.3875
2904.83604	5033.6875
2907.32328	5049.0875
2909.809	5055.2875
2912.29319	5074.9875
2914.77587	5056.3875
2917.25702	5073.6875
2919.73665	5046.6875
2922.21476	5050.9875
2924.69136	5039.5875
2927.16644	5039.7875
2929.64	5031.4875
2932.11205	5011.2875
2934.58258	4993.0875
2937.05161	5015.2875
2939.51912	5002.8875
2941.98513	4991.5875
2944.44962	4977.6875
2946.91261	4944.5875
2949.37409	4965.4875
2951.83407	4961.9875
2954.29254	4949.2875
2956.74951	4949.5875
2959.20498	4944.6875
2961.65895	4952.8875
2964.11142	4921.4875
2966.56239	4925.5875
2969.01186	4908.5875
2971.45984	4915.2875
2973.90632	4910.2875
2976.35131	4887.7875
2978.7948	4864.2875
2981.23681	4858.8875
2983.67732	4852.9875
2986.11635	4827.7875
2988.55388	4837.1875
2990.98993	4832.5875
2993.4245	4826.6875
2995.85758	4804.0875
2998.28917	4802.8875
3000.71928	4792.8875
3003.14791	4779.5875
3005.57506	4765.4875
3008.00073	4761.9875
3010.42493	4757.3875
3012.84764	4754.6875
3015.26888	4748.8875
3017.68865	4745.2875
3020.10694	4748.7875
3022.52376	4727.1875
3024.9391	4719.6875
3027.35298	4724.2875
3029.76539	4692.6875
3032.17632	4706.1875
3034.5858	4675.8875
3036.9938	4695.9875
3039.40034	4689.3875
3041.80542	4690.2875
3044.20903	4672.0875
3046.61118	4679.2875
3049.01187	4682.4875
3051.4111	4660.2875
3053.80888	4649.9875
3056.20519	4646.2875
3058.60005	4630.9875
3060.99345	4624.8875
3063.3854	4615.9875
3065.7759	4594.2875
3068.16494	4590.5875
3070.55254	4580.8875
3072.93868	4589.8875
3075.32338	4572.1875
3077.70662	4564.2875
3080.08842	4549.9875
3082.46878	4555.7875
