Data from AgNP_FTO_APTES_UA_100uM_CRN_2uM_R6G_10uM_NaF_0.1M_Addition_RamanShift__38__14-29-10-339.txt Node

Date: Thu Mar 24 14:29:10 GMT 2022
User: TCL
Spectrometer: QEP01345
Trigger mode: 4
Integration Time (sec): 7.000000E0
Scans to average: 10
Electric dark correction enabled: true
Nonlinearity correction enabled: false
Boxcar width: 0
XAxis mode: Raman Shifts
Number of Pixels in Spectrum: 1044
>>>>>Begin Spectral Data<<<<<
46.04893	-1.275
50.45542	-0.275
54.85868	-0.575
59.25871	0.025
63.6555	47.725
68.04907	48.825
72.43941	49.325
76.82654	55.125
81.21044	60.925
85.59113	58.725
89.96862	62.925
94.34289	60.925
98.71396	63.825
103.08183	66.625
107.4465	66.425
111.80798	72.025
116.16626	71.325
120.52136	75.125
124.87327	72.725
129.222	79.725
133.56755	84.425
137.90993	86.725
142.24913	101.925
146.58517	110.525
150.91804	132.025
155.24774	156.625
159.57429	195.425
163.89768	253.125
168.21792	340.825
172.53501	466.225
176.84895	651.225
181.15975	916.625
185.46741	1281.825
189.77193	1777.525
194.07331	2361.525
198.37157	3060.125
202.6667	3777.725
206.9587	4507.625
211.24758	5238.025
215.53334	5989.725
219.81599	6793.325
224.09553	7723.425
228.37195	8748.225
232.64527	9890.525
236.91549	11033.425
241.18261	12098.925
245.44663	13018.125
249.70755	13753.525
253.96539	14342.325
258.22014	14854.225
262.4718	15293.925
266.72039	15576.625
270.96589	15763.325
275.20832	15654.825
279.44768	15454.225
283.68397	15190.425
287.91719	15023.125
292.14735	14954.225
296.37445	15033.925
300.59849	15330.925
304.81948	15719.725
309.03742	16025.825
313.25231	16138.325
317.46415	15933.325
321.67296	15487.725
325.87872	15059.625
330.08145	14886.125
334.28114	14861.325
338.47781	15011.125
342.67145	15296.525
346.86207	15648.925
351.04966	16150.425
355.23424	16610.225
359.4158	16977.925
363.59435	17128.325
367.76989	17181.825
371.94243	17132.925
376.11196	17109.125
380.27849	17130.325
384.44203	17128.925
388.60257	17159.825
392.76012	17253.025
396.91468	17351.525
401.06626	17583.525
405.21485	17813.225
409.36047	17566.525
413.50311	17017.325
417.64277	16560.725
421.77947	16367.025
425.9132	16338.625
430.04396	16400.325
434.17176	16634.825
438.2966	16957.125
442.41849	17575.525
446.53742	18443.325
450.6534	19314.525
454.76644	19777.025
458.87653	19716.125
462.98368	19290.825
467.08789	18738.325
471.18916	18188.125
475.2875	17583.625
479.38291	17050.725
483.4754	16595.425
487.56496	16257.525
491.6516	16062.625
495.73531	15899.625
499.81612	15886.925
503.89401	16043.625
507.96899	16112.325
512.04106	16112.525
516.11023	16136.625
520.1765	16129.025
524.23987	16192.525
528.30034	16279.225
532.35792	16275.025
536.41261	16027.425
540.46441	15672.625
544.51333	15514.925
548.55936	15596.625
552.60252	15969.725
556.64279	16602.725
560.6802	17082.525
564.71473	17169.225
568.7464	17419.425
572.7752	17826.225
576.80114	18068.925
580.82422	18387.025
584.84444	19133.725
588.86181	20649.125
592.87633	22719.525
596.888	23834.525
600.89682	22808.625
604.9028	21991.825
608.90594	24148.625
612.90624	27444.625
616.90371	25830.525
620.89834	19746.025
624.89015	16734.325
628.87913	16232.125
632.86528	16359.725
636.84862	16439.425
640.82913	16058.325
644.80683	15432.525
648.78172	14953.725
652.75379	14954.825
656.72306	15390.125
660.68952	15925.025
664.65319	15722.025
668.61405	15129.925
672.57211	14913.325
676.52738	15022.425
680.47986	14961.325
684.42955	14770.525
688.37646	14639.325
692.32058	14702.325
696.26192	14977.725
700.20048	15281.625
704.13626	15446.925
708.06928	15426.925
711.99952	15300.925
715.927	15334.925
719.85171	15481.825
723.77365	15450.225
727.69284	15274.525
731.60928	15120.625
735.52295	15181.625
739.43388	15292.625
743.34206	15360.725
747.24749	15420.625
751.15017	15495.725
755.05012	15744.125
758.94733	16331.925
762.8418	17755.425
766.73354	20085.225
770.62254	22396.625
774.50882	23166.725
778.39237	21959.725
782.27321	19710.825
786.15132	17531.125
790.02671	16140.325
793.89938	15431.625
797.76935	15085.025
801.6366	14904.825
805.50115	14804.025
809.36299	14696.925
813.22213	14611.625
817.07857	14536.525
820.93231	14484.625
824.78336	14430.225
828.63172	14436.525
832.47738	14453.225
836.32036	14444.625
840.16066	14448.625
843.99827	14424.525
847.8332	14435.625
851.66546	14408.725
855.49504	14426.725
859.32195	14398.025
863.1462	14398.825
866.96777	14302.125
870.78668	14295.925
874.60293	14336.725
878.41652	14391.425
882.22745	14501.025
886.03573	14595.725
889.84136	14566.825
893.64433	14515.225
897.44466	14450.525
901.24235	14364.925
905.0374	14268.425
908.8298	14181.025
912.61957	14189.525
916.40671	14257.425
920.19121	14430.325
923.97308	14622.025
927.75233	14773.525
931.52895	14734.125
935.30295	14475.325
939.07433	14130.825
942.84309	13811.825
946.60924	13678.325
950.37278	13621.525
954.13371	13609.425
957.89203	13592.925
961.64774	13593.925
965.40086	13603.425
969.15137	13586.825
972.89929	13593.325
976.64461	13600.825
980.38733	13578.725
984.12747	13621.425
987.86502	13721.125
991.59999	13832.125
995.33237	14102.825
999.06217	14529.425
1002.78939	15096.225
1006.51404	15619.425
1010.23611	16021.225
1013.95561	16266.725
1017.67255	16237.225
1021.38692	15855.525
1025.09872	15298.625
1028.80796	14905.025
1032.51465	14875.025
1036.21877	14981.925
1039.92035	15059.425
1043.61937	15069.725
1047.31584	15029.625
1051.00976	14923.125
1054.70114	14866.425
1058.38998	14852.425
1062.07627	14944.225
1065.76003	15080.125
1069.44126	15225.225
1073.11995	15534.725
1076.79611	15874.125
1080.46974	16212.225
1084.14085	16558.325
1087.80943	16914.225
1091.47549	17088.725
1095.13903	16957.325
1098.80005	16479.925
1102.45857	16041.925
1106.11456	15850.525
1109.76805	15909.725
1113.41903	16155.825
1117.06751	16549.425
1120.71348	17001.025
1124.35696	17523.525
1127.99793	17926.525
1131.63641	17917.625
1135.2724	17471.825
1138.90589	17086.725
1142.5369	16880.825
1146.16542	16926.225
1149.79145	16975.125
1153.415	17111.425
1157.03607	17292.925
1160.65467	17727.725
1164.27079	18541.825
1167.88443	19770.125
1171.49561	21576.225
1175.10432	24225.525
1178.71056	27546.725
1182.31434	30458.825
1185.91565	31270.625
1189.51451	30170.225
1193.11091	28364.625
1196.70485	26442.025
1200.29634	24713.225
1203.88538	23372.025
1207.47197	22146.925
1211.05612	21287.025
1214.63782	20780.525
1218.21708	20675.125
1221.79391	20840.925
1225.36829	21122.625
1228.94024	21076.225
1232.50976	20469.625
1236.07685	19706.125
1239.6415	19316.525
1243.20374	19247.725
1246.76355	19341.625
1250.32093	19558.325
1253.8759	19937.025
1257.42845	20541.925
1260.97859	21404.825
1264.52631	22326.825
1268.07163	23291.825
1271.61453	24030.025
1275.15503	24680.825
1278.69312	25194.625
1282.22882	25935.825
1285.76211	27040.225
1289.29301	28545.725
1292.82151	30283.825
1296.34761	32155.725
1299.87133	34523.325
1303.39266	37402.625
1306.9116	40838.725
1310.42815	44314.325
1313.94233	46327.925
1317.45412	45512.925
1320.96354	42907.925
1324.47058	39914.925
1327.97525	37215.525
1331.47754	35194.825
1334.97747	34090.125
1338.47502	33681.425
1341.97022	33689.025
1345.46305	33976.625
1348.95352	34772.825
1352.44163	36566.025
1355.92738	39705.125
1359.41078	44271.525
1362.89183	48368.525
1366.37053	47754.225
1369.84688	41661.025
1373.32088	34710.725
1376.79254	30431.825
1380.26186	28812.125
1383.72883	28289.125
1387.19347	27668.725
1390.65578	26868.025
1394.11575	26430.625
1397.57339	26478.325
1401.0287	26835.825
1404.48168	26999.325
1407.93234	26921.725
1411.38068	26612.625
1414.82669	26100.325
1418.27039	25491.625
1421.71177	24682.825
1425.15083	23764.225
1428.58758	23439.725
1432.02203	23841.125
1435.45416	24642.025
1438.88399	25387.425
1442.31151	25646.425
1445.73673	25801.025
1449.15965	25839.125
1452.58027	25584.025
1455.9986	25139.125
1459.41463	24967.225
1462.82837	25320.425
1466.23982	26199.325
1469.64898	27171.225
1473.05586	28061.325
1476.46045	28749.025
1479.86276	29151.425
1483.26279	29387.725
1486.66054	29704.325
1490.05602	30376.225
1493.44922	31272.025
1496.84016	32096.525
1500.22882	33149.925
1503.61521	34775.025
1506.99934	36843.225
1510.38121	38454.725
1513.76081	38247.725
1517.13816	35984.925
1520.51324	32822.825
1523.88607	30278.025
1527.25665	28954.625
1530.62498	28415.125
1533.99105	28125.625
1537.35488	27608.125
1540.71647	26869.825
1544.07581	26000.425
1547.4329	25182.925
1550.78776	24507.825
1554.14038	23908.325
1557.49077	23626.725
1560.83892	23657.725
1564.18484	24041.525
1567.52853	24704.525
1570.86999	25403.725
1574.20922	25996.525
1577.54624	26205.225
1580.88103	25480.525
1584.2136	24693.825
1587.54395	24805.125
1590.87208	26189.325
1594.19801	28708.925
1597.52172	31613.425
1600.84321	33149.525
1604.16251	31897.625
1607.47959	28789.425
1610.79447	25280.525
1614.10715	22236.125
1617.41763	20104.925
1620.7259	18782.325
1624.03199	18210.625
1627.33587	18280.625
1630.63757	19005.225
1633.93707	20609.625
1637.23439	23547.225
1640.52951	28174.125
1643.82246	34168.825
1647.11321	39443.825
1650.40179	40719.725
1653.68819	36908.925
1656.97241	30237.525
1660.25446	24063.625
1663.53433	19904.625
1666.81203	17462.325
1670.08756	16023.225
1673.36092	15195.725
1676.63211	14651.925
1679.90115	14257.525
1683.16801	13972.825
1686.43272	13738.325
1689.69527	13571.225
1692.95567	13448.725
1696.2139	13366.425
1699.46999	13289.925
1702.72392	13241.225
1705.97571	13190.825
1709.22535	13146.825
1712.47284	13125.925
1715.71819	13123.925
1718.96139	13071.425
1722.20246	13033.425
1725.44139	12919.225
1728.67818	12830.625
1731.91284	12703.425
1735.14537	12572.425
1738.37576	12522.525
1741.60403	12441.325
1744.83017	12410.125
1748.05418	12393.925
1751.27607	12332.625
1754.49584	12315.725
1757.71349	12289.725
1760.92903	12281.325
1764.14244	12260.625
1767.35375	12244.825
1770.56294	12224.325
1773.77002	12152.125
1776.97499	12130.025
1780.17785	12092.725
1783.37861	12066.125
1786.57727	12038.725
1789.77382	11980.025
1792.96828	11993.325
1796.16064	11940.925
1799.3509	11930.325
1802.53907	11897.525
1805.72514	11861.425
1808.90913	11822.625
1812.09102	11787.825
1815.27083	11760.925
1818.44856	11755.225
1821.6242	11721.425
1824.79776	11709.225
1827.96924	11682.125
1831.13864	11664.225
1834.30597	11637.425
1837.47122	11622.625
1840.6344	11609.625
1843.7955	11622.425
1846.95454	11620.525
1850.11151	11600.325
1853.26642	11597.125
1856.41926	11553.525
1859.57004	11567.125
1862.71876	11565.425
1865.86542	11527.625
1869.01003	11500.625
1872.15258	11523.325
1875.29308	11496.525
1878.43152	11458.025
1881.56792	11473.825
1884.70227	11491.425
1887.83457	11484.025
1890.96482	11500.425
1894.09304	11491.025
1897.21921	11459.725
1900.34335	11456.525
1903.46544	11462.725
1906.58551	11450.925
1909.70353	11450.425
1912.81953	11438.525
1915.93349	11412.625
1919.04543	11364.925
1922.15534	11350.725
1925.26322	11301.525
1928.36908	11278.225
1931.47292	11220.725
1934.57473	11187.225
1937.67453	11174.725
1940.77232	11143.225
1943.86808	11119.925
1946.96184	11099.425
1950.05358	11046.625
1953.14331	11038.325
1956.23103	11005.225
1959.31675	10989.925
1962.40046	10952.325
1965.48217	10924.125
1968.56188	10885.525
1971.63959	10867.125
1974.7153	10842.225
1977.78901	10802.225
1980.86073	10771.125
1983.93046	10724.025
1986.99819	10679.025
1990.06394	10630.125
1993.1277	10613.625
1996.18947	10560.925
1999.24925	10502.225
2002.30706	10501.725
2005.36288	10443.725
2008.41672	10390.825
2011.46859	10358.125
2014.51848	10348.925
2017.56639	10337.625
2020.61233	10330.425
2023.6563	10273.025
2026.6983	10257.625
2029.73833	10242.725
2032.7764	10218.125
2035.8125	10206.925
2038.84664	10157.025
2041.87881	10171.425
2044.90903	10153.825
2047.93729	10142.425
2050.96359	10123.125
2053.98794	10110.025
2057.01034	10121.525
2060.03078	10069.325
2063.04927	10038.725
2066.06582	10049.125
2069.08042	10035.625
2072.09307	10021.825
2075.10378	10013.425
2078.11255	10000.525
2081.11938	10019.425
2084.12426	9978.425
2087.12722	10010.925
2090.12824	10046.325
2093.12732	10003.625
2096.12447	10030.025
2099.11969	10025.225
2102.11299	10011.725
2105.10435	10029.525
2108.09379	9982.525
2111.08131	10022.025
2114.0669	9999.925
2117.05057	10013.825
2120.03233	9999.025
2123.01216	10023.825
2125.99008	9997.225
2128.96609	10020.025
2131.94018	10041.325
2134.91236	10015.825
2137.88263	10014.525
2140.851	9999.225
2143.81746	10040.325
2146.78201	10015.525
2149.74466	10026.225
2152.7054	10011.925
2155.66425	9993.025
2158.6212	9996.225
2161.57625	9983.425
2164.52941	9977.025
2167.48067	9994.125
2170.43004	9981.125
2173.37752	9983.825
2176.32311	9952.625
2179.26681	9985.725
2182.20863	9943.325
2185.14856	9975.725
2188.08661	9949.325
2191.02278	9942.725
2193.95707	9961.425
2196.88948	9939.625
2199.82001	9936.625
2202.74867	9911.325
2205.67545	9903.825
2208.60037	9902.325
2211.52341	9856.525
2214.44458	9846.525
2217.36388	9837.725
2220.28132	9823.425
2223.1969	9824.725
2226.11061	9819.725
2229.02246	9768.725
2231.93245	9769.825
2234.84058	9744.225
2237.74686	9739.625
2240.65128	9727.425
2243.55385	9704.425
2246.45456	9723.525
2249.35343	9701.225
2252.25044	9687.125
2255.14561	9655.725
2258.03893	9641.125
2260.93041	9622.725
2263.82004	9604.625
2266.70783	9557.625
2269.59378	9537.525
2272.4779	9528.725
2275.36017	9523.125
2278.24061	9494.825
2281.11922	9479.725
2283.996	9461.725
2286.87094	9447.025
2289.74405	9434.125
2292.61534	9415.125
2295.4848	9403.225
2298.35243	9408.525
2301.21824	9380.525
2304.08223	9390.725
2306.94439	9385.125
2309.80474	9387.125
2312.66327	9383.025
2315.51999	9351.825
2318.37489	9357.025
2321.22797	9344.225
2324.07925	9339.025
2326.92871	9336.625
2329.77637	9320.225
2332.62222	9300.725
2335.46626	9313.625
2338.3085	9315.425
2341.14893	9312.225
2343.98756	9292.125
2346.8244	9296.425
2349.65943	9292.925
2352.49267	9296.325
2355.32411	9300.925
2358.15376	9312.825
2360.98161	9314.025
2363.80768	9326.925
2366.63195	9322.825
2369.45444	9312.225
2372.27514	9308.125
2375.09405	9290.925
2377.91118	9279.325
2380.72652	9257.225
2383.54009	9225.325
2386.35187	9201.925
2389.16188	9167.925
2391.97011	9148.225
2394.77657	9148.525
2397.58125	9125.925
2400.38416	9118.925
2403.18529	9082.825
2405.98466	9099.525
2408.78226	9064.825
2411.57809	9036.725
2414.37216	9029.925
2417.16446	9010.525
2419.955	8992.625
2422.74378	9008.525
2425.5308	8980.725
2428.31606	8992.025
2431.09956	8998.225
2433.88131	8979.225
2436.6613	8979.625
2439.43954	8962.725
2442.21603	8985.925
2444.99077	8964.625
2447.76377	8988.025
2450.53501	8999.125
2453.30451	8991.025
2456.07226	8985.025
2458.83827	8994.725
2461.60254	8974.025
2464.36507	8977.725
2467.12586	8994.225
2469.88492	8990.925
2472.64224	8999.725
2475.39782	8978.625
2478.15167	9015.125
2480.90379	9008.425
2483.65417	9026.325
2486.40283	9036.925
2489.14976	9054.925
2491.89497	9063.625
2494.63845	9082.525
2497.3802	9040.225
2500.12024	9065.625
2502.85855	9061.325
2505.59514	9021.925
2508.33002	9031.225
2511.06318	8982.525
2513.79462	8995.425
2516.52435	8944.125
2519.25237	8951.425
2521.97867	8922.125
2524.70327	8948.225
2527.42616	8934.725
2530.14734	8932.225
2532.86681	8901.025
2535.58458	8899.725
2538.30065	8904.125
2541.01501	8902.925
2543.72768	8899.825
2546.43864	8906.425
2549.14791	8873.325
2551.85548	8880.725
2554.56136	8901.425
2557.26554	8870.725
2559.96803	8882.325
2562.66883	8855.925
2565.36794	8865.025
2568.06536	8851.525
2570.7611	8856.225
2573.45514	8846.925
2576.14751	8835.925
2578.83819	8823.125
2581.52719	8841.625
2584.21451	8831.625
2586.90015	8768.825
2589.58411	8772.025
2592.2664	8794.325
2594.94701	8783.425
2597.62594	8764.725
2600.30321	8738.625
2602.9788	8758.725
2605.65273	8751.925
2608.32498	8770.825
2610.99557	8763.625
2613.66449	8750.925
2616.33175	8748.925
2618.99734	8767.525
2621.66128	8734.825
2624.32355	8759.725
2626.98416	8743.125
2629.64311	8713.125
2632.30041	8721.525
2634.95605	8714.125
2637.61004	8716.925
2640.26238	8694.825
2642.91306	8726.125
2645.56209	8739.525
2648.20948	8701.925
2650.85521	8701.225
2653.4993	8717.525
2656.14175	8732.625
2658.78255	8752.425
2661.42171	8738.325
2664.05923	8749.525
2666.6951	8750.425
2669.32934	8756.125
2671.96194	8751.825
2674.59291	8758.925
2677.22224	8753.025
2679.84993	8775.425
2682.476	8742.125
2685.10043	8763.125
2687.72324	8737.225
2690.34441	8765.325
2692.96396	8760.125
2695.58188	8760.425
2698.19818	8740.925
2700.81285	8745.625
2703.4259	8733.525
2706.03733	8761.525
2708.64714	8762.325
2711.25533	8786.725
2713.86191	8777.925
2716.46687	8788.125
2719.07021	8773.925
2721.67194	8774.125
2724.27206	8764.825
2726.87057	8793.625
2729.46747	8790.425
2732.06276	8824.825
2734.65644	8807.825
2737.24852	8795.725
2739.83899	8759.625
2742.42786	8787.825
2745.01513	8758.625
2747.60079	8764.925
2750.18486	8769.625
2752.76733	8740.525
2755.3482	8759.925
2757.92747	8754.725
2760.50515	8747.125
2763.08123	8760.025
2765.65573	8749.725
2768.22863	8744.325
2770.79994	8730.425
2773.36967	8760.825
2775.9378	8740.125
2778.50435	8749.625
2781.06932	8719.625
2783.6327	8711.125
2786.1945	8710.725
2788.75471	8714.225
2791.31335	8690.525
2793.87041	8696.725
2796.42589	8696.425
2798.97979	8685.125
2801.53212	8644.725
2804.08288	8658.225
2806.63206	8659.825
2809.17967	8643.825
2811.72571	8650.825
2814.27018	8651.525
2816.81308	8648.525
2819.35442	8620.325
2821.89419	8619.925
2824.43239	8599.225
2826.96904	8591.325
2829.50412	8625.425
2832.03763	8606.125
2834.56959	8564.925
2837.1	8586.825
2839.62884	8586.025
2842.15613	8547.325
2844.68186	8563.125
2847.20604	8549.025
2849.72867	8571.525
2852.24974	8547.725
2854.76927	8537.425
2857.28724	8500.825
2859.80367	8521.525
2862.31855	8506.325
2864.83189	8517.525
2867.34368	8520.325
2869.85393	8518.025
2872.36264	8528.325
2874.8698	8538.225
2877.37543	8513.325
2879.87952	8524.625
2882.38207	8532.425
2884.88308	8514.825
2887.38256	8511.425
2889.88051	8524.225
2892.37692	8502.325
2894.8718	8491.825
2897.36515	8512.025
2899.85698	8517.925
2902.34727	8524.425
2904.83604	8523.825
2907.32328	8547.725
2909.809	8526.925
2912.29319	8555.125
2914.77587	8525.625
2917.25702	8534.425
2919.73665	8536.425
2922.21476	8526.025
2924.69136	8505.825
2927.16644	8493.225
2929.64	8496.825
2932.11205	8494.325
2934.58258	8463.025
2937.05161	8478.725
2939.51912	8465.725
2941.98513	8467.925
2944.44962	8446.925
2946.91261	8407.225
2949.37409	8412.225
2951.83407	8419.725
2954.29254	8426.925
2956.74951	8407.025
2959.20498	8403.825
2961.65895	8395.725
2964.11142	8388.125
2966.56239	8349.925
2969.01186	8374.125
2971.45984	8321.625
2973.90632	8307.725
2976.35131	8281.225
2978.7948	8261.125
2981.23681	8242.225
2983.67732	8225.625
2986.11635	8202.125
2988.55388	8181.725
2990.98993	8177.725
2993.4245	8160.225
2995.85758	8139.425
2998.28917	8123.225
3000.71928	8110.525
3003.14791	8071.925
3005.57506	8095.725
3008.00073	8071.925
3010.42493	8063.925
3012.84764	8057.225
3015.26888	8042.725
3017.68865	7998.325
3020.10694	8005.325
3022.52376	7971.825
3024.9391	7949.425
3027.35298	7953.825
3029.76539	7954.825
3032.17632	7905.125
3034.5858	7933.225
3036.9938	7907.625
3039.40034	7882.925
3041.80542	7851.625
3044.20903	7869.225
3046.61118	7849.125
3049.01187	7802.425
3051.4111	7797.625
3053.80888	7802.925
3056.20519	7767.625
3058.60005	7766.925
3060.99345	7756.925
3063.3854	7730.325
3065.7759	7708.825
3068.16494	7712.725
3070.55254	7683.825
3072.93868	7684.425
3075.32338	7640.225
3077.70662	7649.325
3080.08842	7607.925
3082.46878	7616.425
3084.84769	7587.525
3087.22515	7593.325
3089.60118	7570.425
3091.97576	7577.525
3094.3489	7572.825
3096.72061	7545.325
3099.09087	7556.625
3101.4597	7548.825
3103.82709	7557.825
3106.19305	7531.725
3108.55757	7532.125
3110.92066	7487.625
3113.28232	7474.925
3115.64255	7448.725
3118.00134	7426.025
3120.35871	7419.825
3122.71466	7395.325
3125.06917	7389.925
3127.42226	7399.925
3129.77393	7422.625
3132.12417	7411.925
3134.47299	7402.625
3136.82039	7411.925
3139.16636	7402.925
3141.51092	7405.625
3143.85406	7392.025
3146.19579	7407.825
3148.53609	7376.425
3150.87499	7384.725
3153.21246	7365.925
3155.54853	7394.225
3157.88318	7363.025
3160.21642	7332.825
3162.54826	7325.825
3164.87868	7312.125
3167.2077	7322.725
3169.5353	7331.325
3171.86151	7306.925
3174.18631	7303.025
