Data from AgNP_FTO_APTES_UA_100uM_CRN_0uM_R6G_10uM_NaF_0.1M_Addition_RamanShift__31__11-21-20-121.txt Node

Date: Thu Mar 24 11:21:20 GMT 2022
User: TCL
Spectrometer: QEP01345
Trigger mode: 4
Integration Time (sec): 7.000000E0
Scans to average: 10
Electric dark correction enabled: true
Nonlinearity correction enabled: false
Boxcar width: 0
XAxis mode: Raman Shifts
Number of Pixels in Spectrum: 1044
>>>>>Begin Spectral Data<<<<<
46.04893	-1.5875
50.45542	-0.0875
54.85868	0.3125
59.25871	0.3125
63.6555	39.2125
68.04907	41.6125
72.43941	43.3125
76.82654	43.2125
81.21044	48.2125
85.59113	46.4125
89.96862	52.9125
94.34289	52.0125
98.71396	54.2125
103.08183	50.2125
107.4465	54.3125
111.80798	58.7125
116.16626	58.6125
120.52136	57.9125
124.87327	60.9125
129.222	59.6125
133.56755	70.5125
137.90993	73.1125
142.24913	84.7125
146.58517	92.4125
150.91804	104.9125
155.24774	128.2125
159.57429	159.6125
163.89768	206.6125
168.21792	274.3125
172.53501	375.2125
176.84895	528.3125
181.15975	744.3125
185.46741	1040.6125
189.77193	1437.4125
194.07331	1914.5125
198.37157	2457.7125
202.6667	3046.5125
206.9587	3647.8125
211.24758	4241.5125
215.53334	4871.2125
219.81599	5580.2125
224.09553	6420.3125
228.37195	7311.5125
232.64527	8296.5125
236.91549	9251.9125
241.18261	10133.0125
245.44663	10873.0125
249.70755	11376.1125
253.96539	11746.1125
258.22014	12104.9125
262.4718	12429.3125
266.72039	12638.5125
270.96589	12709.7125
275.20832	12601.4125
279.44768	12399.6125
283.68397	12170.4125
287.91719	12059.6125
292.14735	12099.9125
296.37445	12318.1125
300.59849	12749.6125
304.81948	13315.7125
309.03742	13761.4125
313.25231	13855.3125
317.46415	13413.8125
321.67296	12545.1125
325.87872	11812.4125
330.08145	11374.0125
334.28114	11303.9125
338.47781	11415.2125
342.67145	11674.3125
346.86207	12070.4125
351.04966	12659.7125
355.23424	13327.8125
359.4158	13811.3125
363.59435	14052.7125
367.76989	14089.1125
371.94243	13970.0125
376.11196	13849.3125
380.27849	13795.2125
384.44203	13704.6125
388.60257	13619.4125
392.76012	13571.0125
396.91468	13658.1125
401.06626	13911.8125
405.21485	14145.5125
409.36047	13861.5125
413.50311	13122.4125
417.64277	12520.4125
421.77947	12247.2125
425.9132	12157.9125
430.04396	12171.2125
434.17176	12238.1125
438.2966	12453.4125
442.41849	12824.8125
446.53742	13450.8125
450.6534	14038.4125
454.76644	14343.5125
458.87653	14241.1125
462.98368	13882.1125
467.08789	13539.0125
471.18916	13144.1125
475.2875	12787.8125
479.38291	12501.2125
483.4754	12279.1125
487.56496	12072.6125
491.6516	11859.8125
495.73531	11707.9125
499.81612	11615.7125
503.89401	11719.9125
507.96899	11848.8125
512.04106	11918.8125
516.11023	11931.1125
520.1765	11931.3125
524.23987	11884.3125
528.30034	11829.9125
532.35792	11687.3125
536.41261	11418.3125
540.46441	11083.2125
544.51333	10825.1125
548.55936	10949.1125
552.60252	11375.7125
556.64279	11942.5125
560.6802	12399.3125
564.71473	12685.4125
568.7464	13367.4125
572.7752	14064.4125
576.80114	14075.1125
580.82422	13880.6125
584.84444	14068.4125
588.86181	14700.0125
592.87633	15515.3125
596.888	15855.7125
600.89682	15199.2125
604.9028	15608.5125
608.90594	19148.5125
612.90624	23931.6125
616.90371	22770.5125
620.89834	15569.4125
624.89015	11909.5125
628.87913	11247.4125
632.86528	11460.0125
636.84862	11703.4125
640.82913	11418.8125
644.80683	10748.6125
648.78172	10239.3125
652.75379	10169.8125
656.72306	10660.2125
660.68952	11274.9125
664.65319	11112.0125
668.61405	10425.0125
672.57211	10164.1125
676.52738	10187.9125
680.47986	10185.2125
684.42955	10012.4125
688.37646	9843.3125
692.32058	9876.3125
696.26192	10074.5125
700.20048	10322.8125
704.13626	10496.1125
708.06928	10502.8125
711.99952	10389.9125
715.927	10365.5125
719.85171	10433.9125
723.77365	10437.0125
727.69284	10275.6125
731.60928	10110.3125
735.52295	10109.8125
739.43388	10211.3125
743.34206	10285.6125
747.24749	10358.6125
751.15017	10430.9125
755.05012	10697.6125
758.94733	11390.4125
762.8418	12980.2125
766.73354	15821.8125
770.62254	18570.9125
774.50882	19553.2125
778.39237	18353.1125
782.27321	15686.5125
786.15132	13076.5125
790.02671	11398.0125
793.89938	10601.0125
797.76935	10274.0125
801.6366	10077.9125
805.50115	9969.3125
809.36299	9871.0125
813.22213	9759.8125
817.07857	9662.7125
820.93231	9630.5125
824.78336	9620.1125
828.63172	9612.0125
832.47738	9604.1125
836.32036	9559.1125
840.16066	9516.4125
843.99827	9505.8125
847.8332	9481.3125
851.66546	9449.4125
855.49504	9469.2125
859.32195	9484.4125
863.1462	9415.4125
866.96777	9376.1125
870.78668	9348.0125
874.60293	9340.3125
878.41652	9378.8125
882.22745	9464.0125
886.03573	9588.3125
889.84136	9594.3125
893.64433	9571.3125
897.44466	9543.9125
901.24235	9500.4125
905.0374	9392.1125
908.8298	9261.0125
912.61957	9196.8125
916.40671	9199.9125
920.19121	9398.5125
923.97308	9612.6125
927.75233	9793.4125
931.52895	9844.5125
935.30295	9595.9125
939.07433	9175.2125
942.84309	8867.4125
946.60924	8686.0125
950.37278	8637.0125
954.13371	8616.9125
957.89203	8564.1125
961.64774	8548.2125
965.40086	8516.5125
969.15137	8505.1125
972.89929	8448.4125
976.64461	8436.1125
980.38733	8408.8125
984.12747	8400.7125
987.86502	8488.7125
991.59999	8571.2125
995.33237	8794.6125
999.06217	9147.0125
1002.78939	9625.8125
1006.51404	10081.6125
1010.23611	10433.7125
1013.95561	10627.5125
1017.67255	10616.9125
1021.38692	10336.9125
1025.09872	9877.0125
1028.80796	9605.2125
1032.51465	9586.4125
1036.21877	9692.6125
1039.92035	9753.5125
1043.61937	9785.2125
1047.31584	9757.4125
1051.00976	9703.3125
1054.70114	9670.4125
1058.38998	9637.1125
1062.07627	9692.5125
1065.76003	9741.3125
1069.44126	9904.9125
1073.11995	10178.9125
1076.79611	10485.9125
1080.46974	10777.9125
1084.14085	11169.0125
1087.80943	11586.9125
1091.47549	11810.5125
1095.13903	11632.9125
1098.80005	11164.8125
1102.45857	10670.4125
1106.11456	10425.3125
1109.76805	10444.4125
1113.41903	10720.8125
1117.06751	11137.2125
1120.71348	11695.4125
1124.35696	12350.1125
1127.99793	12945.2125
1131.63641	12876.9125
1135.2724	12297.2125
1138.90589	11741.6125
1142.5369	11391.4125
1146.16542	11248.3125
1149.79145	11184.1125
1153.415	11247.4125
1157.03607	11423.6125
1160.65467	11810.0125
1164.27079	12572.7125
1167.88443	13812.4125
1171.49561	15534.6125
1175.10432	18120.0125
1178.71056	21519.5125
1182.31434	24417.9125
1185.91565	25321.3125
1189.51451	24426.0125
1193.11091	22731.2125
1196.70485	20812.9125
1200.29634	19024.8125
1203.88538	17526.7125
1207.47197	16168.1125
1211.05612	15108.8125
1214.63782	14532.1125
1218.21708	14410.2125
1221.79391	14619.3125
1225.36829	14867.3125
1228.94024	14708.3125
1232.50976	14076.8125
1236.07685	13508.2125
1239.6415	13174.2125
1243.20374	13084.0125
1246.76355	13068.1125
1250.32093	13217.3125
1253.8759	13611.6125
1257.42845	14266.5125
1260.97859	15027.1125
1264.52631	15891.2125
1268.07163	16756.3125
1271.61453	17536.2125
1275.15503	18252.6125
1278.69312	18829.3125
1282.22882	19429.8125
1285.76211	20395.3125
1289.29301	21570.5125
1292.82151	22985.1125
1296.34761	24623.9125
1299.87133	26734.2125
1303.39266	29559.5125
1306.9116	33160.9125
1310.42815	36951.7125
1313.94233	38938.7125
1317.45412	37906.2125
1320.96354	35087.9125
1324.47058	32175.4125
1327.97525	29723.9125
1331.47754	28014.7125
1334.97747	27105.7125
1338.47502	26764.0125
1341.97022	26735.5125
1345.46305	27088.5125
1348.95352	28018.2125
1352.44163	29772.8125
1355.92738	32731.3125
1359.41078	37383.2125
1362.89183	41774.1125
1366.37053	40899.5125
1369.84688	34522.2125
1373.32088	27787.7125
1376.79254	23654.6125
1380.26186	21752.9125
1383.72883	20830.2125
1387.19347	20153.7125
1390.65578	19636.5125
1394.11575	19503.7125
1397.57339	19707.7125
1401.0287	20029.2125
1404.48168	20208.9125
1407.93234	20028.4125
1411.38068	19566.5125
1414.82669	18924.6125
1418.27039	18174.0125
1421.71177	17414.7125
1425.15083	16669.5125
1428.58758	16397.7125
1432.02203	16653.3125
1435.45416	17146.1125
1438.88399	17458.8125
1442.31151	17638.7125
1445.73673	17845.0125
1449.15965	18091.1125
1452.58027	18236.6125
1455.9986	18248.3125
1459.41463	18452.9125
1462.82837	18840.0125
1466.23982	19462.4125
1469.64898	19909.1125
1473.05586	20192.7125
1476.46045	20156.4125
1479.86276	20080.6125
1483.26279	20108.9125
1486.66054	20395.0125
1490.05602	21055.2125
1493.44922	22020.6125
1496.84016	23400.8125
1500.22882	25603.9125
1503.61521	28818.4125
1506.99934	32390.8125
1510.38121	35330.3125
1513.76081	35829.0125
1517.13816	33194.5125
1520.51324	28839.0125
1523.88607	25099.3125
1527.25665	22848.6125
1530.62498	21860.0125
1533.99105	21228.6125
1537.35488	20681.8125
1540.71647	20022.7125
1544.07581	19299.8125
1547.4329	18673.8125
1550.78776	18082.1125
1554.14038	17798.1125
1557.49077	17794.4125
1560.83892	18017.0125
1564.18484	18596.4125
1567.52853	19341.1125
1570.86999	20071.9125
1574.20922	20554.0125
1577.54624	20544.9125
1580.88103	19593.6125
1584.2136	18428.4125
1587.54395	18167.2125
1590.87208	18964.1125
1594.19801	20853.4125
1597.52172	22985.8125
1600.84321	23841.7125
1604.16251	22536.6125
1607.47959	20142.9125
1610.79447	17557.7125
1614.10715	15347.3125
1617.41763	13644.6125
1620.7259	12561.5125
1624.03199	12098.5125
1627.33587	12131.0125
1630.63757	12701.7125
1633.93707	13990.2125
1637.23439	16304.9125
1640.52951	19950.3125
1643.82246	24779.3125
1647.11321	29405.5125
1650.40179	31365.8125
1653.68819	28918.8125
1656.97241	23329.3125
1660.25446	17775.5125
1663.53433	13863.5125
1666.81203	11584.1125
1670.08756	10294.1125
1673.36092	9528.2125
1676.63211	9052.4125
1679.90115	8724.5125
1683.16801	8482.6125
1686.43272	8322.9125
1689.69527	8161.0125
1692.95567	8092.9125
1696.2139	8015.6125
1699.46999	7962.0125
1702.72392	7909.0125
1705.97571	7876.5125
1709.22535	7851.9125
1712.47284	7852.7125
1715.71819	7827.7125
1718.96139	7778.9125
1722.20246	7721.4125
1725.44139	7654.8125
1728.67818	7555.7125
1731.91284	7476.5125
1735.14537	7398.9125
1738.37576	7338.4125
1741.60403	7275.0125
1744.83017	7246.4125
1748.05418	7200.7125
1751.27607	7164.3125
1754.49584	7156.1125
1757.71349	7110.2125
1760.92903	7120.1125
1764.14244	7088.7125
1767.35375	7101.1125
1770.56294	7066.8125
1773.77002	7017.3125
1776.97499	6968.7125
1780.17785	6968.9125
1783.37861	6931.4125
1786.57727	6917.4125
1789.77382	6879.5125
1792.96828	6881.9125
1796.16064	6853.9125
1799.3509	6841.7125
1802.53907	6810.2125
1805.72514	6787.7125
1808.90913	6755.3125
1812.09102	6737.1125
1815.27083	6703.7125
1818.44856	6684.5125
1821.6242	6664.5125
1824.79776	6676.3125
1827.96924	6669.9125
1831.13864	6657.5125
1834.30597	6645.4125
1837.47122	6613.1125
1840.6344	6624.7125
1843.7955	6617.8125
1846.95454	6618.9125
1850.11151	6615.1125
1853.26642	6607.7125
1856.41926	6588.5125
1859.57004	6599.1125
1862.71876	6608.4125
1865.86542	6602.2125
1869.01003	6622.7125
1872.15258	6627.0125
1875.29308	6626.6125
1878.43152	6624.6125
1881.56792	6655.0125
1884.70227	6634.4125
1887.83457	6648.0125
1890.96482	6646.1125
1894.09304	6635.3125
1897.21921	6653.3125
1900.34335	6649.1125
1903.46544	6631.8125
1906.58551	6631.9125
1909.70353	6618.2125
1912.81953	6603.6125
1915.93349	6575.2125
1919.04543	6561.4125
1922.15534	6528.5125
1925.26322	6508.9125
1928.36908	6461.5125
1931.47292	6428.8125
1934.57473	6403.5125
1937.67453	6367.8125
1940.77232	6368.2125
1943.86808	6324.9125
1946.96184	6300.9125
1950.05358	6292.0125
1953.14331	6268.3125
1956.23103	6249.1125
1959.31675	6234.7125
1962.40046	6228.3125
1965.48217	6201.9125
1968.56188	6218.4125
1971.63959	6196.2125
1974.7153	6172.0125
1977.78901	6172.3125
1980.86073	6126.0125
1983.93046	6099.5125
1986.99819	6057.9125
1990.06394	6050.7125
1993.1277	6029.2125
1996.18947	6012.4125
1999.24925	5963.9125
2002.30706	5969.8125
2005.36288	5934.9125
2008.41672	5932.1125
2011.46859	5889.5125
2014.51848	5864.0125
2017.56639	5833.3125
2020.61233	5828.7125
2023.6563	5831.2125
2026.6983	5789.8125
2029.73833	5775.4125
2032.7764	5762.2125
2035.8125	5736.0125
2038.84664	5732.1125
2041.87881	5708.3125
2044.90903	5698.7125
2047.93729	5688.2125
2050.96359	5686.1125
2053.98794	5670.6125
2057.01034	5672.6125
2060.03078	5649.4125
2063.04927	5655.3125
2066.06582	5648.9125
2069.08042	5676.6125
2072.09307	5668.3125
2075.10378	5667.8125
2078.11255	5670.1125
2081.11938	5695.7125
2084.12426	5680.3125
2087.12722	5681.4125
2090.12824	5681.3125
2093.12732	5684.8125
2096.12447	5676.6125
2099.11969	5670.9125
2102.11299	5673.0125
2105.10435	5662.9125
2108.09379	5651.6125
2111.08131	5651.8125
2114.0669	5631.9125
2117.05057	5636.6125
2120.03233	5639.4125
2123.01216	5626.8125
2125.99008	5635.4125
2128.96609	5618.0125
2131.94018	5611.9125
2134.91236	5606.5125
2137.88263	5596.0125
2140.851	5588.8125
2143.81746	5593.5125
2146.78201	5566.9125
2149.74466	5560.8125
2152.7054	5565.4125
2155.66425	5536.8125
2158.6212	5546.8125
2161.57625	5532.6125
2164.52941	5523.4125
2167.48067	5500.8125
2170.43004	5500.5125
2173.37752	5488.4125
2176.32311	5475.2125
2179.26681	5475.2125
2182.20863	5480.6125
2185.14856	5479.6125
2188.08661	5470.0125
2191.02278	5472.0125
2193.95707	5464.5125
2196.88948	5454.6125
2199.82001	5440.0125
2202.74867	5427.9125
2205.67545	5420.5125
2208.60037	5433.2125
2211.52341	5408.3125
2214.44458	5419.1125
2217.36388	5375.1125
2220.28132	5355.9125
2223.1969	5356.0125
2226.11061	5344.2125
2229.02246	5325.4125
2231.93245	5316.9125
2234.84058	5330.4125
2237.74686	5310.1125
2240.65128	5316.1125
2243.55385	5329.1125
2246.45456	5289.8125
2249.35343	5274.6125
2252.25044	5262.7125
2255.14561	5248.0125
2258.03893	5272.9125
2260.93041	5256.2125
2263.82004	5264.7125
2266.70783	5233.6125
2269.59378	5245.3125
2272.4779	5206.6125
2275.36017	5202.0125
2278.24061	5203.7125
2281.11922	5174.1125
2283.996	5184.2125
2286.87094	5144.4125
2289.74405	5135.4125
2292.61534	5146.6125
2295.4848	5136.9125
2298.35243	5121.1125
2301.21824	5099.6125
2304.08223	5105.0125
2306.94439	5106.3125
2309.80474	5106.5125
2312.66327	5121.6125
2315.51999	5105.2125
2318.37489	5125.4125
2321.22797	5093.5125
2324.07925	5094.7125
2326.92871	5103.1125
2329.77637	5085.7125
2332.62222	5083.1125
2335.46626	5092.1125
2338.3085	5087.4125
2341.14893	5087.1125
2343.98756	5088.4125
2346.8244	5124.2125
2349.65943	5115.4125
2352.49267	5101.4125
2355.32411	5121.1125
2358.15376	5143.4125
2360.98161	5158.6125
2363.80768	5139.0125
2366.63195	5157.5125
2369.45444	5156.0125
2372.27514	5156.8125
2375.09405	5147.1125
2377.91118	5135.2125
2380.72652	5115.5125
2383.54009	5089.4125
2386.35187	5062.6125
2389.16188	5036.3125
2391.97011	5018.1125
2394.77657	5003.0125
2397.58125	4984.6125
2400.38416	4984.8125
2403.18529	4958.9125
2405.98466	4969.3125
2408.78226	4934.0125
2411.57809	4935.3125
2414.37216	4927.8125
2417.16446	4916.0125
2419.955	4914.1125
2422.74378	4916.7125
2425.5308	4909.5125
2428.31606	4908.1125
2431.09956	4911.2125
2433.88131	4909.6125
2436.6613	4913.7125
2439.43954	4913.8125
2442.21603	4926.0125
2444.99077	4919.8125
2447.76377	4931.8125
2450.53501	4934.4125
2453.30451	4947.3125
2456.07226	4958.2125
2458.83827	4943.3125
2461.60254	4963.9125
2464.36507	4952.7125
2467.12586	4946.1125
2469.88492	4954.7125
2472.64224	4964.0125
2475.39782	4969.6125
2478.15167	5001.3125
2480.90379	4998.5125
2483.65417	5002.7125
2486.40283	5017.4125
2489.14976	5015.6125
2491.89497	5027.7125
2494.63845	5030.2125
2497.3802	5017.7125
2500.12024	5028.5125
2502.85855	5025.3125
2505.59514	4993.3125
2508.33002	4986.4125
2511.06318	4964.3125
2513.79462	4934.4125
2516.52435	4923.9125
2519.25237	4904.6125
2521.97867	4888.1125
2524.70327	4878.5125
2527.42616	4874.7125
2530.14734	4883.9125
2532.86681	4859.7125
2535.58458	4873.4125
2538.30065	4867.9125
2541.01501	4868.2125
2543.72768	4892.0125
2546.43864	4863.4125
2549.14791	4867.8125
2551.85548	4879.3125
2554.56136	4867.0125
2557.26554	4900.7125
2559.96803	4884.2125
2562.66883	4878.3125
2565.36794	4883.6125
2568.06536	4871.2125
2570.7611	4861.1125
2573.45514	4859.9125
2576.14751	4860.5125
2578.83819	4831.2125
2581.52719	4845.0125
2584.21451	4859.3125
2586.90015	4847.5125
2589.58411	4824.1125
2592.2664	4829.7125
2594.94701	4847.0125
2597.62594	4819.9125
2600.30321	4821.8125
2602.9788	4829.5125
2605.65273	4814.9125
2608.32498	4832.6125
2610.99557	4833.9125
2613.66449	4830.6125
2616.33175	4840.8125
2618.99734	4856.7125
2621.66128	4833.9125
2624.32355	4848.3125
2626.98416	4847.9125
2629.64311	4832.4125
2632.30041	4835.8125
2634.95605	4821.0125
2637.61004	4820.0125
2640.26238	4798.8125
2642.91306	4802.4125
2645.56209	4778.8125
2648.20948	4810.2125
2650.85521	4791.3125
2653.4993	4814.6125
2656.14175	4824.3125
2658.78255	4836.0125
2661.42171	4826.9125
2664.05923	4837.6125
2666.6951	4841.1125
2669.32934	4876.3125
2671.96194	4848.7125
2674.59291	4860.9125
2677.22224	4843.6125
2679.84993	4845.0125
2682.476	4843.6125
2685.10043	4840.4125
2687.72324	4826.1125
2690.34441	4844.2125
2692.96396	4819.9125
2695.58188	4813.7125
2698.19818	4813.8125
2700.81285	4817.1125
2703.4259	4823.4125
2706.03733	4821.8125
2708.64714	4815.8125
2711.25533	4852.4125
2713.86191	4820.9125
2716.46687	4853.1125
2719.07021	4841.0125
2721.67194	4866.5125
2724.27206	4841.9125
2726.87057	4875.1125
2729.46747	4867.5125
2732.06276	4861.0125
2734.65644	4847.8125
2737.24852	4825.0125
2739.83899	4827.7125
2742.42786	4827.9125
2745.01513	4815.5125
2747.60079	4807.5125
2750.18486	4826.8125
2752.76733	4813.6125
2755.3482	4820.6125
2757.92747	4819.1125
2760.50515	4813.8125
2763.08123	4823.4125
2765.65573	4807.5125
2768.22863	4801.8125
2770.79994	4799.2125
2773.36967	4805.5125
2775.9378	4831.5125
2778.50435	4819.7125
2781.06932	4808.9125
2783.6327	4821.3125
2786.1945	4808.3125
2788.75471	4801.0125
2791.31335	4795.5125
2793.87041	4801.8125
2796.42589	4804.5125
2798.97979	4799.5125
2801.53212	4805.1125
2804.08288	4795.0125
2806.63206	4796.8125
2809.17967	4813.4125
2811.72571	4783.6125
2814.27018	4807.1125
2816.81308	4814.1125
2819.35442	4804.8125
2821.89419	4803.6125
2824.43239	4829.0125
2826.96904	4829.3125
2829.50412	4836.6125
2832.03763	4808.9125
2834.56959	4808.3125
2837.1	4806.6125
2839.62884	4804.9125
2842.15613	4797.1125
2844.68186	4828.8125
2847.20604	4831.9125
2849.72867	4842.4125
2852.24974	4858.8125
2854.76927	4857.5125
2857.28724	4852.5125
2859.80367	4878.6125
2862.31855	4865.5125
2864.83189	4891.9125
2867.34368	4900.9125
2869.85393	4907.3125
2872.36264	4904.8125
2874.8698	4918.1125
2877.37543	4928.9125
2879.87952	4918.4125
2882.38207	4905.4125
2884.88308	4916.5125
2887.38256	4909.8125
2889.88051	4914.4125
2892.37692	4909.9125
2894.8718	4902.6125
2897.36515	4915.5125
2899.85698	4899.4125
2902.34727	4917.9125
2904.83604	4927.4125
2907.32328	4936.5125
2909.809	4945.0125
2912.29319	4934.3125
2914.77587	4924.1125
2917.25702	4918.5125
2919.73665	4904.5125
2922.21476	4913.0125
2924.69136	4906.8125
2927.16644	4900.9125
2929.64	4864.1125
2932.11205	4853.4125
2934.58258	4818.7125
2937.05161	4829.0125
2939.51912	4823.5125
2941.98513	4804.0125
2944.44962	4799.0125
2946.91261	4775.7125
2949.37409	4767.5125
2951.83407	4768.3125
2954.29254	4747.0125
2956.74951	4740.5125
2959.20498	4734.9125
2961.65895	4726.0125
2964.11142	4711.2125
2966.56239	4703.8125
2969.01186	4671.4125
2971.45984	4647.0125
2973.90632	4653.3125
2976.35131	4621.1125
2978.7948	4606.7125
2981.23681	4598.3125
2983.67732	4565.0125
2986.11635	4562.8125
2988.55388	4541.2125
2990.98993	4537.3125
2993.4245	4536.9125
2995.85758	4533.7125
2998.28917	4522.7125
3000.71928	4509.8125
3003.14791	4504.3125
3005.57506	4494.3125
3008.00073	4500.5125
3010.42493	4476.5125
3012.84764	4486.1125
3015.26888	4480.1125
3017.68865	4456.7125
3020.10694	4447.4125
3022.52376	4432.5125
3024.9391	4424.6125
3027.35298	4407.7125
3029.76539	4412.0125
3032.17632	4401.4125
3034.5858	4376.9125
3036.9938	4394.1125
3039.40034	4385.0125
3041.80542	4358.6125
3044.20903	4358.3125
3046.61118	4353.7125
3049.01187	4348.8125
3051.4111	4330.5125
3053.80888	4316.2125
3056.20519	4313.4125
3058.60005	4302.2125
3060.99345	4298.6125
3063.3854	4275.3125
3065.7759	4270.3125
3068.16494	4266.2125
3070.55254	4249.0125
3072.93868	4244.2125
3075.32338	4233.6125
3077.70662	4222.3125
3080.08842	4202.3125
3082.46878	4207.0125
3084.84769	4201.0125
3087.22515	4193.1125
3089.60118	4188.9125
