Data from AgNP_FTO_APTES_UA_100uM_CRN_1uM_R6G_10uM_NaF_0.1M_Addition_RamanShift__25__12-17-20-186.txt Node

Date: Thu Mar 24 12:17:20 GMT 2022
User: TCL
Spectrometer: QEP01345
Trigger mode: 4
Integration Time (sec): 7.000000E0
Scans to average: 10
Electric dark correction enabled: true
Nonlinearity correction enabled: false
Boxcar width: 0
XAxis mode: Raman Shifts
Number of Pixels in Spectrum: 1044
>>>>>Begin Spectral Data<<<<<
46.04893	-1.375
50.45542	0.325
54.85868	-0.175
59.25871	-1.175
63.6555	53.925
68.04907	57.425
72.43941	57.725
76.82654	57.925
81.21044	62.025
85.59113	64.625
89.96862	70.425
94.34289	63.525
98.71396	71.425
103.08183	72.525
107.4465	74.525
111.80798	74.225
116.16626	80.125
120.52136	79.625
124.87327	83.525
129.222	88.625
133.56755	96.725
137.90993	100.425
142.24913	115.325
146.58517	125.125
150.91804	154.425
155.24774	183.525
159.57429	233.225
163.89768	298.125
168.21792	396.725
172.53501	544.525
176.84895	767.825
181.15975	1075.625
185.46741	1506.525
189.77193	2086.925
194.07331	2800.225
198.37157	3620.125
202.6667	4494.325
206.9587	5372.625
211.24758	6289.725
215.53334	7261.625
219.81599	8355.625
224.09553	9588.925
228.37195	10980.125
232.64527	12457.525
236.91549	13947.225
241.18261	15254.825
245.44663	16319.825
249.70755	17100.725
253.96539	17786.225
258.22014	18396.425
262.4718	18988.025
266.72039	19277.525
270.96589	19284.525
275.20832	19117.425
279.44768	18821.125
283.68397	18561.625
287.91719	18434.025
292.14735	18523.625
296.37445	18895.725
300.59849	19568.725
304.81948	20426.725
309.03742	21112.025
313.25231	21196.125
317.46415	20394.525
321.67296	18991.525
325.87872	17748.325
330.08145	17101.825
334.28114	16996.425
338.47781	17292.025
342.67145	17730.025
346.86207	18409.225
351.04966	19435.125
355.23424	20533.225
359.4158	21439.225
363.59435	21771.525
367.76989	21779.925
371.94243	21661.425
376.11196	21359.625
380.27849	21226.025
384.44203	20989.425
388.60257	20739.925
392.76012	20643.825
396.91468	20800.125
401.06626	21291.525
405.21485	21649.925
409.36047	21261.625
413.50311	20156.625
417.64277	19135.525
421.77947	18679.625
425.9132	18572.225
430.04396	18671.325
434.17176	18827.125
438.2966	19195.525
442.41849	19816.225
446.53742	20749.625
450.6534	21603.825
454.76644	22094.325
458.87653	21981.825
462.98368	21442.025
467.08789	20902.525
471.18916	20308.625
475.2875	19685.825
479.38291	19245.625
483.4754	18919.925
487.56496	18582.825
491.6516	18229.925
495.73531	17955.825
499.81612	17910.025
503.89401	18064.225
507.96899	18247.125
512.04106	18355.925
516.11023	18458.925
520.1765	18505.125
524.23987	18426.225
528.30034	18295.125
532.35792	18109.125
536.41261	17762.725
540.46441	17318.025
544.51333	17069.325
548.55936	17323.225
552.60252	18039.925
556.64279	18885.325
560.6802	19442.725
564.71473	19874.325
568.7464	20849.225
572.7752	21698.225
576.80114	21391.525
580.82422	20800.825
584.84444	20765.625
588.86181	21257.925
592.87633	22126.125
596.888	22487.525
600.89682	22256.525
604.9028	23954.725
608.90594	30302.825
612.90624	38263.125
616.90371	36049.525
620.89834	24714.525
624.89015	19149.925
628.87913	18214.225
632.86528	18435.425
636.84862	18692.725
640.82913	18180.025
644.80683	17091.925
648.78172	16250.425
652.75379	16229.425
656.72306	17055.525
660.68952	18005.325
664.65319	17819.225
668.61405	16798.625
672.57211	16336.925
676.52738	16321.725
680.47986	16225.825
684.42955	15999.725
688.37646	15824.225
692.32058	15950.425
696.26192	16247.825
700.20048	16605.025
704.13626	16902.425
708.06928	16919.725
711.99952	16715.225
715.927	16614.025
719.85171	16739.225
723.77365	16744.725
727.69284	16485.125
731.60928	16250.625
735.52295	16275.625
739.43388	16389.625
743.34206	16507.725
747.24749	16648.925
751.15017	16832.025
755.05012	17277.225
758.94733	18500.825
762.8418	21269.625
766.73354	25847.225
770.62254	30071.425
774.50882	31344.325
778.39237	29280.525
782.27321	24901.925
786.15132	20666.625
790.02671	18177.825
793.89938	16970.425
797.76935	16453.225
801.6366	16263.125
805.50115	16152.725
809.36299	15997.825
813.22213	15888.825
817.07857	15788.825
820.93231	15775.325
824.78336	15784.425
828.63172	15842.925
832.47738	15854.525
836.32036	15848.125
840.16066	15807.825
843.99827	15782.625
847.8332	15707.225
851.66546	15672.125
855.49504	15669.425
859.32195	15611.725
863.1462	15539.125
866.96777	15449.025
870.78668	15405.425
874.60293	15428.425
878.41652	15513.125
882.22745	15696.925
886.03573	15812.025
889.84136	15847.025
893.64433	15672.625
897.44466	15643.625
901.24235	15564.525
905.0374	15456.325
908.8298	15346.925
912.61957	15258.225
916.40671	15430.825
920.19121	15708.925
923.97308	16047.125
927.75233	16297.325
931.52895	16358.825
935.30295	16013.225
939.07433	15413.125
942.84309	14933.125
946.60924	14695.125
950.37278	14586.825
954.13371	14526.825
957.89203	14439.825
961.64774	14403.525
965.40086	14372.225
969.15137	14331.325
972.89929	14277.725
976.64461	14231.525
980.38733	14202.025
984.12747	14269.125
987.86502	14388.825
991.59999	14631.425
995.33237	14998.625
999.06217	15659.425
1002.78939	16471.325
1006.51404	17172.525
1010.23611	17604.925
1013.95561	17863.825
1017.67255	17831.625
1021.38692	17448.625
1025.09872	16914.525
1028.80796	16758.025
1032.51465	17017.725
1036.21877	17453.525
1039.92035	17595.225
1043.61937	17525.225
1047.31584	17285.825
1051.00976	16919.425
1054.70114	16687.325
1058.38998	16637.725
1062.07627	16712.925
1065.76003	16849.025
1069.44126	17076.025
1073.11995	17405.625
1076.79611	17747.625
1080.46974	18164.325
1084.14085	18774.525
1087.80943	19435.925
1091.47549	19611.425
1095.13903	19300.025
1098.80005	18534.725
1102.45857	17836.125
1106.11456	17548.825
1109.76805	17652.225
1113.41903	18128.625
1117.06751	18985.325
1120.71348	19987.725
1124.35696	21193.825
1127.99793	21964.325
1131.63641	21533.425
1135.2724	20306.925
1138.90589	19413.525
1142.5369	18848.525
1146.16542	18544.425
1149.79145	18404.525
1153.415	18509.525
1157.03607	18803.725
1160.65467	19460.825
1164.27079	20551.825
1167.88443	22239.625
1171.49561	24803.625
1175.10432	28618.225
1178.71056	33533.425
1182.31434	37638.825
1185.91565	39002.225
1189.51451	37963.725
1193.11091	35554.225
1196.70485	32780.925
1200.29634	30306.625
1203.88538	28179.325
1207.47197	26048.125
1211.05612	24338.525
1214.63782	23408.825
1218.21708	23323.425
1221.79391	23545.425
1225.36829	23623.225
1228.94024	23129.025
1232.50976	22361.525
1236.07685	21800.625
1239.6415	21578.925
1243.20374	21575.425
1246.76355	21720.125
1250.32093	22096.025
1253.8759	22714.725
1257.42845	23695.925
1260.97859	24804.225
1264.52631	25919.625
1268.07163	27063.125
1271.61453	28121.825
1275.15503	29075.725
1278.69312	29898.625
1282.22882	30676.725
1285.76211	31841.225
1289.29301	33265.625
1292.82151	34884.825
1296.34761	36925.725
1299.87133	39913.925
1303.39266	44185.725
1306.9116	50105.925
1310.42815	56268.625
1313.94233	59290.825
1317.45412	57452.525
1320.96354	53205.225
1324.47058	48704.825
1327.97525	45091.125
1331.47754	42894.025
1334.97747	42091.825
1338.47502	42374.125
1341.97022	43274.225
1345.46305	44470.025
1348.95352	46082.525
1352.44163	48544.725
1355.92738	52964.825
1359.41078	60350.325
1362.89183	66414.025
1366.37053	63263.125
1369.84688	52656.625
1373.32088	42974.325
1376.79254	37313.725
1380.26186	34488.925
1383.72883	32966.825
1387.19347	31943.425
1390.65578	31203.125
1394.11575	30909.825
1397.57339	31249.725
1401.0287	31965.725
1404.48168	32628.425
1407.93234	32925.325
1411.38068	32815.125
1414.82669	32154.925
1418.27039	30943.725
1421.71177	29382.525
1425.15083	28094.325
1428.58758	27521.425
1432.02203	27906.225
1435.45416	28570.125
1438.88399	28993.325
1442.31151	29302.325
1445.73673	29574.825
1449.15965	29950.825
1452.58027	30054.125
1455.9986	30044.525
1459.41463	30219.925
1462.82837	30907.625
1466.23982	31940.325
1469.64898	32794.825
1473.05586	33181.425
1476.46045	33304.625
1479.86276	33310.225
1483.26279	33461.325
1486.66054	34120.325
1490.05602	35250.625
1493.44922	36810.225
1496.84016	39163.025
1500.22882	42887.425
1503.61521	48251.225
1506.99934	54328.325
1510.38121	58652.425
1513.76081	58689.325
1517.13816	53761.325
1520.51324	46576.925
1523.88607	40628.925
1527.25665	37229.925
1530.62498	35585.025
1533.99105	34672.325
1537.35488	34045.425
1540.71647	33381.725
1544.07581	32644.825
1547.4329	31878.825
1550.78776	31268.725
1554.14038	30797.825
1557.49077	30764.725
1560.83892	31160.525
1564.18484	31925.525
1567.52853	32915.225
1570.86999	33607.125
1574.20922	34150.925
1577.54624	33887.925
1580.88103	32269.925
1584.2136	30273.025
1587.54395	29765.025
1590.87208	31000.925
1594.19801	33960.625
1597.52172	37585.525
1600.84321	39319.825
1604.16251	37874.125
1607.47959	34477.325
1610.79447	30582.525
1614.10715	27026.325
1617.41763	24193.025
1620.7259	22452.325
1624.03199	21613.625
1627.33587	21612.125
1630.63757	22500.725
1633.93707	24443.425
1637.23439	27701.925
1640.52951	32691.925
1643.82246	39275.425
1647.11321	45653.625
1650.40179	48362.125
1653.68819	44801.925
1656.97241	36842.825
1660.25446	28984.225
1663.53433	23474.025
1666.81203	20215.725
1670.08756	18305.625
1673.36092	17213.625
1676.63211	16526.625
1679.90115	15991.825
1683.16801	15640.825
1686.43272	15389.425
1689.69527	15213.325
1692.95567	15085.925
1696.2139	14966.525
1699.46999	14889.225
1702.72392	14832.325
1705.97571	14800.925
1709.22535	14754.625
1712.47284	14756.025
1715.71819	14759.725
1718.96139	14699.725
1722.20246	14640.125
1725.44139	14535.325
1728.67818	14378.125
1731.91284	14255.825
1735.14537	14123.325
1738.37576	14038.625
1741.60403	13944.225
1744.83017	13875.025
1748.05418	13882.325
1751.27607	13808.525
1754.49584	13769.125
1757.71349	13727.125
1760.92903	13710.225
1764.14244	13705.825
1767.35375	13660.325
1770.56294	13621.925
1773.77002	13595.325
1776.97499	13559.725
1780.17785	13531.125
1783.37861	13500.525
1786.57727	13456.325
1789.77382	13425.425
1792.96828	13429.325
1796.16064	13405.725
1799.3509	13365.125
1802.53907	13342.125
1805.72514	13267.825
1808.90913	13254.025
1812.09102	13213.325
1815.27083	13158.325
1818.44856	13134.325
1821.6242	13091.725
1824.79776	13070.025
1827.96924	13052.725
1831.13864	13036.125
1834.30597	13066.325
1837.47122	13033.725
1840.6344	13004.825
1843.7955	13010.225
1846.95454	13010.025
1850.11151	12993.725
1853.26642	13008.225
1856.41926	13007.725
1859.57004	13007.925
1862.71876	12995.925
1865.86542	12989.625
1869.01003	12996.525
1872.15258	12985.025
1875.29308	13028.925
1878.43152	13023.125
1881.56792	13033.625
1884.70227	13026.125
1887.83457	13052.125
1890.96482	13039.625
1894.09304	13026.425
1897.21921	13034.725
1900.34335	13034.025
1903.46544	13043.425
1906.58551	13038.725
1909.70353	13038.125
1912.81953	13007.225
1915.93349	12992.925
1919.04543	12949.625
1922.15534	12917.325
1925.26322	12881.725
1928.36908	12818.125
1931.47292	12775.225
1934.57473	12735.825
1937.67453	12700.425
1940.77232	12644.425
1943.86808	12629.925
1946.96184	12601.125
1950.05358	12553.025
1953.14331	12534.025
1956.23103	12481.525
1959.31675	12453.925
1962.40046	12415.225
1965.48217	12417.125
1968.56188	12394.125
1971.63959	12389.525
1974.7153	12362.625
1977.78901	12308.525
1980.86073	12273.025
1983.93046	12213.125
1986.99819	12146.825
1990.06394	12094.925
1993.1277	12055.825
1996.18947	12014.125
1999.24925	11973.325
2002.30706	11925.125
2005.36288	11876.625
2008.41672	11887.125
2011.46859	11840.425
2014.51848	11808.925
2017.56639	11748.625
2020.61233	11710.725
2023.6563	11694.825
2026.6983	11665.425
2029.73833	11654.725
2032.7764	11651.525
2035.8125	11615.725
2038.84664	11603.125
2041.87881	11579.525
2044.90903	11589.225
2047.93729	11539.225
2050.96359	11518.925
2053.98794	11487.925
2057.01034	11472.625
2060.03078	11451.625
2063.04927	11417.925
2066.06582	11437.625
2069.08042	11375.525
2072.09307	11407.825
2075.10378	11382.825
2078.11255	11372.125
2081.11938	11378.525
2084.12426	11398.625
2087.12722	11395.125
2090.12824	11382.125
2093.12732	11385.025
2096.12447	11403.025
2099.11969	11384.725
2102.11299	11390.925
2105.10435	11421.625
2108.09379	11405.625
2111.08131	11402.025
2114.0669	11442.525
2117.05057	11430.525
2120.03233	11424.125
2123.01216	11471.825
2125.99008	11448.325
2128.96609	11456.925
2131.94018	11474.625
2134.91236	11458.325
2137.88263	11479.325
2140.851	11469.325
2143.81746	11469.325
2146.78201	11447.625
2149.74466	11467.425
2152.7054	11422.425
2155.66425	11423.725
2158.6212	11406.325
2161.57625	11410.625
2164.52941	11395.625
2167.48067	11404.825
2170.43004	11397.525
2173.37752	11394.625
2176.32311	11395.125
2179.26681	11399.125
2182.20863	11405.925
2185.14856	11404.525
2188.08661	11423.925
2191.02278	11403.825
2193.95707	11400.025
2196.88948	11371.225
2199.82001	11341.025
2202.74867	11357.025
2205.67545	11333.825
2208.60037	11330.625
2211.52341	11343.425
2214.44458	11325.625
2217.36388	11305.025
2220.28132	11291.425
2223.1969	11245.325
2226.11061	11216.225
2229.02246	11219.525
2231.93245	11181.425
2234.84058	11169.825
2237.74686	11155.725
2240.65128	11161.825
2243.55385	11147.225
2246.45456	11119.525
2249.35343	11135.725
2252.25044	11117.225
2255.14561	11124.425
2258.03893	11126.525
2260.93041	11150.125
2263.82004	11084.925
2266.70783	11069.025
2269.59378	11036.925
2272.4779	11010.225
2275.36017	10999.425
2278.24061	10945.225
2281.11922	10933.525
2283.996	10934.725
2286.87094	10902.225
2289.74405	10863.025
2292.61534	10859.525
2295.4848	10837.525
2298.35243	10860.125
2301.21824	10828.525
2304.08223	10839.125
2306.94439	10853.825
2309.80474	10864.725
2312.66327	10868.025
2315.51999	10872.225
2318.37489	10874.925
2321.22797	10862.825
2324.07925	10850.825
2326.92871	10835.225
2329.77637	10844.925
2332.62222	10853.525
2335.46626	10825.925
2338.3085	10847.425
2341.14893	10844.725
2343.98756	10880.325
2346.8244	10900.225
2349.65943	10925.625
2352.49267	10910.525
2355.32411	10929.425
2358.15376	10963.025
2360.98161	10977.725
2363.80768	10935.825
2366.63195	10960.325
2369.45444	10935.825
2372.27514	10949.025
2375.09405	10904.825
2377.91118	10892.225
2380.72652	10828.925
2383.54009	10795.725
2386.35187	10783.725
2389.16188	10729.725
2391.97011	10695.625
2394.77657	10686.525
2397.58125	10634.925
2400.38416	10641.925
2403.18529	10607.325
2405.98466	10579.725
2408.78226	10559.425
2411.57809	10524.125
2414.37216	10482.525
2417.16446	10506.125
2419.955	10505.325
2422.74378	10474.025
2425.5308	10472.725
2428.31606	10469.125
2431.09956	10449.525
2433.88131	10466.025
2436.6613	10472.625
2439.43954	10489.825
2442.21603	10511.125
2444.99077	10509.825
2447.76377	10506.425
2450.53501	10522.325
2453.30451	10517.925
2456.07226	10544.725
2458.83827	10527.525
2461.60254	10546.525
2464.36507	10547.925
2467.12586	10538.825
2469.88492	10543.925
2472.64224	10541.825
2475.39782	10542.925
2478.15167	10568.225
2480.90379	10596.425
2483.65417	10613.925
2486.40283	10650.425
2489.14976	10665.125
2491.89497	10679.125
2494.63845	10671.025
2497.3802	10676.725
2500.12024	10687.325
2502.85855	10692.325
2505.59514	10656.725
2508.33002	10659.525
2511.06318	10570.925
2513.79462	10549.225
2516.52435	10545.025
2519.25237	10509.125
2521.97867	10490.925
2524.70327	10473.625
2527.42616	10474.425
2530.14734	10456.025
2532.86681	10435.625
2535.58458	10454.025
2538.30065	10448.425
2541.01501	10442.925
2543.72768	10455.525
2546.43864	10444.325
2549.14791	10451.825
2551.85548	10448.425
2554.56136	10445.025
2557.26554	10411.925
2559.96803	10397.925
2562.66883	10407.725
2565.36794	10428.825
2568.06536	10413.425
2570.7611	10392.925
2573.45514	10380.825
2576.14751	10393.125
2578.83819	10370.325
2581.52719	10394.525
2584.21451	10392.825
2586.90015	10374.725
2589.58411	10337.625
2592.2664	10323.825
2594.94701	10328.825
2597.62594	10344.225
2600.30321	10331.325
2602.9788	10327.125
2605.65273	10325.925
2608.32498	10351.025
2610.99557	10343.725
2613.66449	10365.425
2616.33175	10388.425
2618.99734	10391.825
2621.66128	10406.625
2624.32355	10397.725
2626.98416	10385.525
2629.64311	10414.225
2632.30041	10395.025
2634.95605	10396.325
2637.61004	10367.625
2640.26238	10370.925
2642.91306	10340.825
2645.56209	10324.425
2648.20948	10337.425
2650.85521	10329.325
2653.4993	10354.025
2656.14175	10372.725
2658.78255	10397.625
2661.42171	10338.525
2664.05923	10387.725
2666.6951	10412.425
2669.32934	10409.125
2671.96194	10419.825
2674.59291	10431.725
2677.22224	10440.025
2679.84993	10428.625
2682.476	10414.325
2685.10043	10407.825
2687.72324	10406.625
2690.34441	10392.725
2692.96396	10416.625
2695.58188	10378.425
2698.19818	10391.125
2700.81285	10397.625
2703.4259	10391.325
2706.03733	10384.225
2708.64714	10393.625
2711.25533	10398.925
2713.86191	10414.325
2716.46687	10435.325
2719.07021	10400.225
2721.67194	10423.125
2724.27206	10443.725
2726.87057	10422.125
2729.46747	10451.225
2732.06276	10447.625
2734.65644	10420.425
2737.24852	10428.825
2739.83899	10411.225
2742.42786	10430.725
2745.01513	10383.125
2747.60079	10375.325
2750.18486	10382.925
2752.76733	10421.425
2755.3482	10386.225
2757.92747	10381.725
2760.50515	10386.125
2763.08123	10392.625
2765.65573	10369.925
2768.22863	10405.225
2770.79994	10374.525
2773.36967	10383.425
2775.9378	10386.725
2778.50435	10378.625
2781.06932	10399.325
2783.6327	10396.925
2786.1945	10375.625
2788.75471	10362.325
2791.31335	10365.625
2793.87041	10365.525
2796.42589	10340.325
2798.97979	10344.125
2801.53212	10350.425
2804.08288	10378.725
2806.63206	10348.025
2809.17967	10342.125
2811.72571	10335.225
2814.27018	10341.025
2816.81308	10322.925
2819.35442	10319.225
2821.89419	10339.125
2824.43239	10337.725
2826.96904	10311.925
2829.50412	10337.225
2832.03763	10341.425
2834.56959	10362.025
2837.1	10319.625
2839.62884	10323.825
2842.15613	10285.825
2844.68186	10328.825
2847.20604	10318.825
2849.72867	10324.825
2852.24974	10310.725
2854.76927	10309.325
2857.28724	10304.225
2859.80367	10348.225
2862.31855	10353.625
2864.83189	10354.025
2867.34368	10345.025
2869.85393	10367.025
2872.36264	10381.225
2874.8698	10382.325
2877.37543	10380.025
2879.87952	10388.225
2882.38207	10344.525
2884.88308	10370.525
2887.38256	10356.025
2889.88051	10361.525
2892.37692	10355.925
2894.8718	10354.125
2897.36515	10373.125
2899.85698	10371.425
2902.34727	10388.625
2904.83604	10383.525
2907.32328	10389.725
2909.809	10379.125
2912.29319	10368.725
2914.77587	10347.825
2917.25702	10343.625
2919.73665	10334.925
2922.21476	10321.625
2924.69136	10300.325
2927.16644	10298.025
2929.64	10263.425
2932.11205	10249.325
2934.58258	10210.825
2937.05161	10243.725
2939.51912	10201.825
2941.98513	10203.525
2944.44962	10177.025
2946.91261	10151.525
2949.37409	10151.025
2951.83407	10174.625
2954.29254	10165.625
2956.74951	10136.125
2959.20498	10103.425
2961.65895	10063.325
2964.11142	10062.925
2966.56239	10030.225
2969.01186	10032.025
2971.45984	10004.525
2973.90632	9977.825
2976.35131	9936.925
2978.7948	9921.425
2981.23681	9873.325
2983.67732	9869.825
2986.11635	9849.825
2988.55388	9835.525
2990.98993	9779.525
2993.4245	9774.525
2995.85758	9793.625
2998.28917	9749.425
3000.71928	9739.925
3003.14791	9706.725
3005.57506	9721.125
3008.00073	9707.325
3010.42493	9699.525
3012.84764	9685.225
3015.26888	9663.125
3017.68865	9662.225
3020.10694	9625.825
3022.52376	9605.625
3024.9391	9581.525
3027.35298	9556.525
3029.76539	9538.725
3032.17632	9525.625
3034.5858	9483.925
3036.9938	9511.825
3039.40034	9490.525
3041.80542	9466.725
3044.20903	9436.125
3046.61118	9450.125
3049.01187	9390.625
3051.4111	9364.125
3053.80888	9371.625
3056.20519	9335.725
3058.60005	9302.925
3060.99345	9288.825
3063.3854	9275.225
3065.7759	9235.925
3068.16494	9234.025
3070.55254	9191.425
3072.93868	9159.425
3075.32338	9127.825
3077.70662	9114.625
3080.08842	9075.225
3082.46878	9098.225
3084.84769	9065.625
3087.22515	9061.525
3089.60118	9041.725
3091.97576	9022.325
3094.3489	9030.325
3096.72061	9017.125
3099.09087	9006.125
3101.4597	8961.925
3103.82709	8988.525
3106.19305	8950.925
3108.55757	8926.425
3110.92066	8893.825
3113.28232	8912.925
3115.64255	8886.425
3118.00134	8856.225
3120.35871	8844.525
3122.71466	8838.125
3125.06917	8819.325
3127.42226	8816.925
3129.77393	8800.625
3132.12417	8809.325
3134.47299	8807.525
3136.82039	8826.325
