Data from AgNP_FTO_APTES_UA_100uM_CRN_10uM_R6G_10uM_NaF_0.1M_Addition_RamanShift__35__15-57-50-442.txt Node

Date: Thu Mar 24 15:57:50 GMT 2022
User: TCL
Spectrometer: QEP01345
Trigger mode: 4
Integration Time (sec): 7.000000E0
Scans to average: 10
Electric dark correction enabled: true
Nonlinearity correction enabled: false
Boxcar width: 0
XAxis mode: Raman Shifts
Number of Pixels in Spectrum: 1044
>>>>>Begin Spectral Data<<<<<
46.04893	-1.275
50.45542	-0.775
54.85868	-1.175
59.25871	0.425
63.6555	28.125
68.04907	31.425
72.43941	30.925
76.82654	30.825
81.21044	35.325
85.59113	35.625
89.96862	36.025
94.34289	34.325
98.71396	37.625
103.08183	37.325
107.4465	38.325
111.80798	41.025
116.16626	38.725
120.52136	42.125
124.87327	40.425
129.222	44.325
133.56755	47.525
137.90993	44.525
142.24913	54.225
146.58517	56.925
150.91804	66.725
155.24774	82.225
159.57429	98.625
163.89768	127.725
168.21792	174.025
172.53501	233.425
176.84895	327.225
181.15975	460.025
185.46741	652.325
189.77193	900.225
194.07331	1207.925
198.37157	1559.525
202.6667	1935.225
206.9587	2322.325
211.24758	2662.325
215.53334	3039.625
219.81599	3438.325
224.09553	3873.625
228.37195	4346.825
232.64527	4895.525
236.91549	5477.025
241.18261	6019.525
245.44663	6527.625
249.70755	6941.825
253.96539	7315.425
258.22014	7591.725
262.4718	7874.325
266.72039	8049.125
270.96589	8130.725
275.20832	8093.125
279.44768	8009.025
283.68397	7910.025
287.91719	7809.825
292.14735	7724.325
296.37445	7768.025
300.59849	7880.325
304.81948	8013.325
309.03742	8145.325
313.25231	8132.325
317.46415	8018.825
321.67296	7793.625
325.87872	7552.425
330.08145	7443.025
334.28114	7452.025
338.47781	7512.825
342.67145	7631.625
346.86207	7802.125
351.04966	7996.225
355.23424	8254.325
359.4158	8437.425
363.59435	8546.125
367.76989	8600.125
371.94243	8606.625
376.11196	8633.625
380.27849	8635.825
384.44203	8620.825
388.60257	8637.125
392.76012	8688.525
396.91468	8768.425
401.06626	8900.025
405.21485	9014.425
409.36047	8906.125
413.50311	8650.725
417.64277	8446.125
421.77947	8343.325
425.9132	8312.125
430.04396	8327.225
434.17176	8358.625
438.2966	8455.525
442.41849	8545.825
446.53742	8715.025
450.6534	8861.425
454.76644	8962.225
458.87653	9017.225
462.98368	8958.725
467.08789	8923.425
471.18916	8808.725
475.2875	8723.625
479.38291	8592.625
483.4754	8486.925
487.56496	8439.525
491.6516	8414.225
495.73531	8399.425
499.81612	8384.025
503.89401	8453.025
507.96899	8494.325
512.04106	8568.225
516.11023	8623.525
520.1765	8635.925
524.23987	8625.525
528.30034	8612.625
532.35792	8560.125
536.41261	8480.925
540.46441	8386.925
544.51333	8321.725
548.55936	8344.925
552.60252	8449.225
556.64279	8627.925
560.6802	8690.725
564.71473	8717.125
568.7464	8792.725
572.7752	8925.225
576.80114	8921.825
580.82422	8981.325
584.84444	9134.825
588.86181	9335.925
592.87633	9576.625
596.888	9788.925
600.89682	9813.725
604.9028	10035.825
608.90594	11255.325
612.90624	12989.725
616.90371	12525.225
620.89834	10030.525
624.89015	8830.325
628.87913	8598.425
632.86528	8691.625
636.84862	8826.625
640.82913	8765.625
644.80683	8526.825
648.78172	8341.925
652.75379	8326.325
656.72306	8482.325
660.68952	8707.325
664.65319	8681.425
668.61405	8432.925
672.57211	8339.725
676.52738	8357.725
680.47986	8319.725
684.42955	8287.625
688.37646	8224.225
692.32058	8244.125
696.26192	8299.525
700.20048	8384.825
704.13626	8466.325
708.06928	8459.925
711.99952	8417.725
715.927	8415.425
719.85171	8400.625
723.77365	8424.625
727.69284	8392.925
731.60928	8324.925
735.52295	8324.425
739.43388	8355.325
743.34206	8386.725
747.24749	8377.725
751.15017	8407.925
755.05012	8451.725
758.94733	8674.025
762.8418	9225.825
766.73354	10167.725
770.62254	11137.225
774.50882	11525.425
778.39237	11093.625
782.27321	10171.325
786.15132	9323.825
790.02671	8739.825
793.89938	8462.725
797.76935	8329.125
801.6366	8256.225
805.50115	8223.125
809.36299	8156.525
813.22213	8164.025
817.07857	8128.125
820.93231	8116.025
824.78336	8103.325
828.63172	8099.525
832.47738	8121.825
836.32036	8113.625
840.16066	8090.725
843.99827	8080.825
847.8332	8098.725
851.66546	8105.025
855.49504	8113.225
859.32195	8107.225
863.1462	8086.925
866.96777	8061.725
870.78668	8064.625
874.60293	8096.325
878.41652	8110.225
882.22745	8145.125
886.03573	8172.325
889.84136	8170.425
893.64433	8127.225
897.44466	8112.225
901.24235	8094.225
905.0374	8064.225
908.8298	8039.325
912.61957	8005.325
916.40671	8048.925
920.19121	8054.825
923.97308	8113.725
927.75233	8180.525
931.52895	8178.025
935.30295	8098.925
939.07433	7956.325
942.84309	7831.725
946.60924	7765.725
950.37278	7740.425
954.13371	7726.225
957.89203	7707.125
961.64774	7692.125
965.40086	7674.025
969.15137	7672.325
972.89929	7645.025
976.64461	7636.425
980.38733	7670.825
984.12747	7633.625
987.86502	7652.025
991.59999	7700.625
995.33237	7718.225
999.06217	7788.725
1002.78939	7914.925
1006.51404	8014.125
1010.23611	8131.325
1013.95561	8203.925
1017.67255	8209.125
1021.38692	8162.625
1025.09872	8050.925
1028.80796	7951.525
1032.51465	7873.325
1036.21877	7884.225
1039.92035	7940.425
1043.61937	7969.325
1047.31584	8000.125
1051.00976	8036.425
1054.70114	8032.525
1058.38998	8057.425
1062.07627	8081.425
1065.76003	8139.025
1069.44126	8189.725
1073.11995	8318.025
1076.79611	8438.025
1080.46974	8552.125
1084.14085	8666.825
1087.80943	8778.225
1091.47549	8845.725
1095.13903	8791.125
1098.80005	8639.525
1102.45857	8479.625
1106.11456	8406.725
1109.76805	8371.025
1113.41903	8436.625
1117.06751	8539.525
1120.71348	8695.125
1124.35696	8904.025
1127.99793	9112.425
1131.63641	9105.525
1135.2724	8942.725
1138.90589	8754.225
1142.5369	8617.125
1146.16542	8540.925
1149.79145	8494.825
1153.415	8480.225
1157.03607	8529.525
1160.65467	8614.225
1164.27079	8811.925
1167.88443	9137.925
1171.49561	9616.425
1175.10432	10285.325
1178.71056	11228.625
1182.31434	12063.925
1185.91565	12353.125
1189.51451	12227.625
1193.11091	11830.825
1196.70485	11289.425
1200.29634	10812.925
1203.88538	10378.725
1207.47197	9904.125
1211.05612	9500.525
1214.63782	9226.225
1218.21708	9106.825
1221.79391	9050.525
1225.36829	9062.725
1228.94024	9062.425
1232.50976	9026.125
1236.07685	8930.625
1239.6415	8918.525
1243.20374	8894.425
1246.76355	8919.125
1250.32093	8956.825
1253.8759	9034.025
1257.42845	9206.725
1260.97859	9436.025
1264.52631	9645.325
1268.07163	9920.725
1271.61453	10122.225
1275.15503	10281.025
1278.69312	10435.125
1282.22882	10559.225
1285.76211	10773.625
1289.29301	11057.625
1292.82151	11391.825
1296.34761	11711.325
1299.87133	12228.725
1303.39266	12916.925
1306.9116	13864.825
1310.42815	14838.725
1313.94233	15244.725
1317.45412	14929.225
1320.96354	14214.625
1324.47058	13443.425
1327.97525	12766.025
1331.47754	12310.225
1334.97747	12091.225
1338.47502	12087.025
1341.97022	12240.925
1345.46305	12603.825
1348.95352	13188.525
1352.44163	13876.725
1355.92738	14801.825
1359.41078	16071.125
1362.89183	17414.025
1366.37053	17217.825
1369.84688	15282.125
1373.32088	13080.225
1376.79254	11629.625
1380.26186	10912.825
1383.72883	10579.225
1387.19347	10214.725
1390.65578	9935.025
1394.11575	9701.125
1397.57339	9570.425
1401.0287	9505.425
1404.48168	9492.825
1407.93234	9421.925
1411.38068	9380.625
1414.82669	9330.625
1418.27039	9238.125
1421.71177	9136.725
1425.15083	9008.725
1428.58758	8901.025
1432.02203	8888.425
1435.45416	8979.725
1438.88399	9051.725
1442.31151	9074.225
1445.73673	9124.625
1449.15965	9139.425
1452.58027	9147.825
1455.9986	9134.025
1459.41463	9162.325
1462.82837	9277.025
1466.23982	9479.025
1469.64898	9695.225
1473.05586	9881.225
1476.46045	10028.025
1479.86276	10172.725
1483.26279	10311.425
1486.66054	10465.725
1490.05602	10800.925
1493.44922	11279.825
1496.84016	11968.025
1500.22882	12915.525
1503.61521	14153.725
1506.99934	15458.825
1510.38121	16302.625
1513.76081	16275.525
1517.13816	15198.025
1520.51324	13687.225
1523.88607	12405.925
1527.25665	11579.625
1530.62498	11120.425
1533.99105	10830.725
1537.35488	10558.725
1540.71647	10298.025
1544.07581	10104.925
1547.4329	9934.625
1550.78776	9825.025
1554.14038	9785.025
1557.49077	9829.025
1560.83892	9930.425
1564.18484	10113.525
1567.52853	10411.725
1570.86999	10671.025
1574.20922	10833.825
1577.54624	10785.325
1580.88103	10397.725
1584.2136	9862.425
1587.54395	9605.925
1590.87208	9653.125
1594.19801	10022.125
1597.52172	10479.825
1600.84321	10695.625
1604.16251	10479.025
1607.47959	10030.425
1610.79447	9545.825
1614.10715	9067.825
1617.41763	8649.525
1620.7259	8328.925
1624.03199	8144.725
1627.33587	8071.925
1630.63757	8189.725
1633.93707	8439.525
1637.23439	8989.125
1640.52951	9843.725
1643.82246	11064.025
1647.11321	12406.925
1650.40179	13177.825
1653.68819	12728.725
1656.97241	11330.525
1660.25446	9795.525
1663.53433	8660.925
1666.81203	7983.125
1670.08756	7593.525
1673.36092	7325.425
1676.63211	7164.525
1679.90115	7078.125
1683.16801	6966.825
1686.43272	6901.725
1689.69527	6844.425
1692.95567	6801.025
1696.2139	6791.825
1699.46999	6758.625
1702.72392	6754.925
1705.97571	6721.125
1709.22535	6708.425
1712.47284	6664.525
1715.71819	6681.525
1718.96139	6649.025
1722.20246	6624.025
1725.44139	6610.925
1728.67818	6566.825
1731.91284	6510.825
1735.14537	6473.325
1738.37576	6447.625
1741.60403	6400.425
1744.83017	6408.425
1748.05418	6377.525
1751.27607	6369.525
1754.49584	6351.225
1757.71349	6353.325
1760.92903	6358.025
1764.14244	6347.925
1767.35375	6321.025
1770.56294	6318.925
1773.77002	6273.125
1776.97499	6259.925
1780.17785	6233.625
1783.37861	6224.725
1786.57727	6185.125
1789.77382	6172.925
1792.96828	6176.825
1796.16064	6147.525
1799.3509	6132.825
1802.53907	6106.425
1805.72514	6117.425
1808.90913	6091.225
1812.09102	6072.325
1815.27083	6045.025
1818.44856	6040.925
1821.6242	6020.725
1824.79776	6029.025
1827.96924	6013.125
1831.13864	5993.025
1834.30597	5982.025
1837.47122	5986.425
1840.6344	5973.225
1843.7955	5961.825
1846.95454	5966.825
1850.11151	5950.825
1853.26642	5949.525
1856.41926	5936.725
1859.57004	5937.025
1862.71876	5922.025
1865.86542	5908.225
1869.01003	5914.825
1872.15258	5889.525
1875.29308	5894.425
1878.43152	5879.625
1881.56792	5876.125
1884.70227	5858.425
1887.83457	5854.725
1890.96482	5851.625
1894.09304	5840.625
1897.21921	5813.325
1900.34335	5811.725
1903.46544	5799.125
1906.58551	5801.725
1909.70353	5796.825
1912.81953	5782.425
1915.93349	5765.625
1919.04543	5755.725
1922.15534	5750.325
1925.26322	5731.425
1928.36908	5711.125
1931.47292	5707.125
1934.57473	5690.725
1937.67453	5671.125
1940.77232	5641.325
1943.86808	5621.725
1946.96184	5615.125
1950.05358	5595.725
1953.14331	5567.825
1956.23103	5563.225
1959.31675	5547.625
1962.40046	5528.325
1965.48217	5504.525
1968.56188	5492.425
1971.63959	5491.325
1974.7153	5453.625
1977.78901	5447.725
1980.86073	5433.225
1983.93046	5405.525
1986.99819	5382.225
1990.06394	5360.925
1993.1277	5336.925
1996.18947	5321.925
1999.24925	5316.325
2002.30706	5287.225
2005.36288	5275.325
2008.41672	5248.525
2011.46859	5250.025
2014.51848	5227.325
2017.56639	5199.525
2020.61233	5174.725
2023.6563	5175.125
2026.6983	5160.825
2029.73833	5136.825
2032.7764	5142.625
2035.8125	5124.325
2038.84664	5100.425
2041.87881	5095.825
2044.90903	5063.525
2047.93729	5080.625
2050.96359	5073.625
2053.98794	5058.325
2057.01034	5034.625
2060.03078	5048.825
2063.04927	5027.525
2066.06582	5007.725
2069.08042	5019.725
2072.09307	5004.425
2075.10378	5003.325
2078.11255	5011.225
2081.11938	5010.125
2084.12426	4998.925
2087.12722	4991.825
2090.12824	4981.525
2093.12732	4991.925
2096.12447	5013.925
2099.11969	5002.525
2102.11299	4987.325
2105.10435	4980.725
2108.09379	4998.425
2111.08131	5000.225
2114.0669	4991.425
2117.05057	4998.825
2120.03233	4995.925
2123.01216	5005.725
2125.99008	4989.125
2128.96609	4992.825
2131.94018	5012.825
2134.91236	5021.625
2137.88263	5005.525
2140.851	5009.525
2143.81746	4985.325
2146.78201	4995.925
2149.74466	4985.025
2152.7054	4983.125
2155.66425	4967.525
2158.6212	4982.225
2161.57625	4985.525
2164.52941	4970.825
2167.48067	4968.725
2170.43004	4970.525
2173.37752	4968.925
2176.32311	4959.625
2179.26681	4961.225
2182.20863	4945.725
2185.14856	4940.325
2188.08661	4943.825
2191.02278	4937.925
2193.95707	4936.925
2196.88948	4919.825
2199.82001	4928.725
2202.74867	4926.325
2205.67545	4904.125
2208.60037	4882.025
2211.52341	4881.325
2214.44458	4876.525
2217.36388	4866.625
2220.28132	4857.025
2223.1969	4846.025
2226.11061	4850.025
2229.02246	4834.725
2231.93245	4824.625
2234.84058	4803.225
2237.74686	4808.125
2240.65128	4782.125
2243.55385	4783.325
2246.45456	4777.825
2249.35343	4764.625
2252.25044	4755.525
2255.14561	4754.325
2258.03893	4765.925
2260.93041	4741.325
2263.82004	4742.025
2266.70783	4718.925
2269.59378	4720.825
2272.4779	4692.025
2275.36017	4692.025
2278.24061	4681.425
2281.11922	4665.625
2283.996	4660.925
2286.87094	4637.825
2289.74405	4634.725
2292.61534	4626.225
2295.4848	4618.825
2298.35243	4618.525
2301.21824	4602.825
2304.08223	4601.125
2306.94439	4603.425
2309.80474	4596.925
2312.66327	4579.825
2315.51999	4579.625
2318.37489	4575.925
2321.22797	4568.225
2324.07925	4544.125
2326.92871	4561.025
2329.77637	4562.525
2332.62222	4531.025
2335.46626	4530.825
2338.3085	4523.525
2341.14893	4508.725
2343.98756	4506.125
2346.8244	4509.625
2349.65943	4488.625
2352.49267	4507.725
2355.32411	4501.225
2358.15376	4511.725
2360.98161	4513.125
2363.80768	4505.125
2366.63195	4498.925
2369.45444	4498.025
2372.27514	4494.425
2375.09405	4484.825
2377.91118	4486.525
2380.72652	4466.125
2383.54009	4451.625
2386.35187	4441.325
2389.16188	4430.925
2391.97011	4414.725
2394.77657	4395.325
2397.58125	4379.325
2400.38416	4389.625
2403.18529	4363.825
2405.98466	4362.325
2408.78226	4339.125
2411.57809	4345.125
2414.37216	4349.925
2417.16446	4347.925
2419.955	4332.625
2422.74378	4327.125
2425.5308	4301.225
2428.31606	4304.225
2431.09956	4320.225
2433.88131	4315.625
2436.6613	4293.025
2439.43954	4304.825
2442.21603	4293.125
2444.99077	4300.125
2447.76377	4293.725
2450.53501	4285.625
2453.30451	4292.625
2456.07226	4289.025
2458.83827	4273.625
2461.60254	4279.525
2464.36507	4270.225
2467.12586	4276.625
2469.88492	4264.025
2472.64224	4258.125
2475.39782	4259.725
2478.15167	4263.125
2480.90379	4258.525
2483.65417	4260.125
2486.40283	4271.725
2489.14976	4266.125
2491.89497	4265.225
2494.63845	4261.725
2497.3802	4238.125
2500.12024	4249.225
2502.85855	4237.525
2505.59514	4219.825
2508.33002	4204.425
2511.06318	4205.925
2513.79462	4172.025
2516.52435	4176.125
2519.25237	4176.925
2521.97867	4157.025
2524.70327	4163.225
2527.42616	4141.325
2530.14734	4140.825
2532.86681	4139.025
2535.58458	4124.825
2538.30065	4119.925
2541.01501	4120.925
2543.72768	4116.825
2546.43864	4125.425
2549.14791	4107.525
2551.85548	4110.925
2554.56136	4086.625
2557.26554	4071.625
2559.96803	4083.925
2562.66883	4073.025
2565.36794	4061.125
2568.06536	4055.425
2570.7611	4043.125
2573.45514	4051.625
2576.14751	4033.925
2578.83819	4034.025
2581.52719	4031.725
2584.21451	4003.625
2586.90015	4021.225
2589.58411	3992.525
2592.2664	3998.525
2594.94701	3991.225
2597.62594	3984.425
2600.30321	3957.725
2602.9788	3964.125
2605.65273	3947.725
2608.32498	3979.025
2610.99557	3961.725
2613.66449	3958.625
2616.33175	3937.325
2618.99734	3935.525
2621.66128	3930.325
2624.32355	3927.625
2626.98416	3904.125
2629.64311	3893.725
2632.30041	3891.325
2634.95605	3890.825
2637.61004	3884.125
2640.26238	3877.825
2642.91306	3873.425
2645.56209	3881.325
2648.20948	3865.925
2650.85521	3875.625
2653.4993	3877.325
2656.14175	3875.325
2658.78255	3880.625
2661.42171	3874.925
2664.05923	3873.425
2666.6951	3876.325
2669.32934	3890.225
2671.96194	3876.725
2674.59291	3884.225
2677.22224	3874.425
2679.84993	3878.425
2682.476	3847.025
2685.10043	3855.025
2687.72324	3853.625
2690.34441	3853.125
2692.96396	3864.225
2695.58188	3869.525
2698.19818	3860.025
2700.81285	3846.225
2703.4259	3852.325
2706.03733	3861.225
2708.64714	3851.725
2711.25533	3858.725
2713.86191	3855.625
2716.46687	3866.825
2719.07021	3856.525
2721.67194	3852.825
2724.27206	3857.825
2726.87057	3837.725
2729.46747	3852.325
2732.06276	3855.025
2734.65644	3823.125
2737.24852	3842.925
2739.83899	3821.625
2742.42786	3828.825
2745.01513	3810.225
2747.60079	3798.325
2750.18486	3785.525
2752.76733	3785.225
2755.3482	3781.225
2757.92747	3789.925
2760.50515	3767.325
2763.08123	3763.525
2765.65573	3768.225
2768.22863	3768.725
2770.79994	3751.325
2773.36967	3734.325
2775.9378	3742.225
2778.50435	3734.225
2781.06932	3731.925
2783.6327	3711.825
2786.1945	3715.325
2788.75471	3740.925
2791.31335	3720.525
2793.87041	3719.225
2796.42589	3713.225
2798.97979	3711.125
2801.53212	3682.825
2804.08288	3693.525
2806.63206	3673.925
2809.17967	3668.925
2811.72571	3661.625
2814.27018	3683.625
2816.81308	3664.525
2819.35442	3660.825
2821.89419	3652.025
2824.43239	3649.025
2826.96904	3637.825
2829.50412	3641.625
2832.03763	3632.025
2834.56959	3639.625
2837.1	3626.425
2839.62884	3628.025
2842.15613	3622.625
2844.68186	3629.925
2847.20604	3631.925
2849.72867	3651.925
2852.24974	3634.125
2854.76927	3632.025
2857.28724	3628.625
2859.80367	3617.725
2862.31855	3624.425
2864.83189	3615.025
2867.34368	3624.325
2869.85393	3602.025
2872.36264	3598.525
2874.8698	3597.125
2877.37543	3599.725
2879.87952	3585.225
2882.38207	3603.125
2884.88308	3587.125
2887.38256	3581.425
2889.88051	3583.425
2892.37692	3581.525
2894.8718	3580.725
2897.36515	3570.625
2899.85698	3584.825
2902.34727	3592.525
2904.83604	3576.325
2907.32328	3587.825
2909.809	3600.025
2912.29319	3603.425
2914.77587	3594.425
2917.25702	3599.625
2919.73665	3597.425
2922.21476	3603.625
2924.69136	3586.525
2927.16644	3582.525
2929.64	3587.525
2932.11205	3568.425
2934.58258	3558.025
2937.05161	3561.525
2939.51912	3562.725
2941.98513	3555.925
2944.44962	3552.225
2946.91261	3521.525
2949.37409	3525.325
2951.83407	3526.025
2954.29254	3537.925
2956.74951	3503.125
2959.20498	3524.725
2961.65895	3522.625
2964.11142	3512.925
2966.56239	3507.825
2969.01186	3504.325
2971.45984	3495.725
2973.90632	3486.625
2976.35131	3490.325
2978.7948	3474.625
2981.23681	3464.325
2983.67732	3471.425
2986.11635	3464.425
2988.55388	3457.325
2990.98993	3433.725
2993.4245	3431.925
2995.85758	3418.425
2998.28917	3432.625
3000.71928	3411.325
3003.14791	3415.425
3005.57506	3405.425
3008.00073	3394.925
3010.42493	3396.625
3012.84764	3403.925
3015.26888	3403.025
3017.68865	3382.725
3020.10694	3391.725
3022.52376	3370.925
3024.9391	3371.825
3027.35298	3376.825
3029.76539	3373.425
3032.17632	3355.225
3034.5858	3348.525
3036.9938	3371.725
3039.40034	3335.225
3041.80542	3339.125
3044.20903	3330.325
3046.61118	3332.425
3049.01187	3335.625
3051.4111	3331.925
3053.80888	3324.725
3056.20519	3307.025
3058.60005	3313.325
3060.99345	3318.625
3063.3854	3300.525
3065.7759	3291.025
3068.16494	3302.825
3070.55254	3302.925
3072.93868	3284.725
3075.32338	3274.025
3077.70662	3277.325
3080.08842	3269.625
3082.46878	3262.825
3084.84769	3260.525
3087.22515	3266.325
3089.60118	3266.425
3091.97576	3260.925
3094.3489	3253.225
3096.72061	3267.625
3099.09087	3263.925
3101.4597	3268.725
3103.82709	3264.325
3106.19305	3261.725
3108.55757	3267.425
3110.92066	3264.425
3113.28232	3257.425
3115.64255	3259.725
3118.00134	3249.525
3120.35871	3241.225
3122.71466	3248.425
3125.06917	3245.025
3127.42226	3231.625
3129.77393	3237.925
3132.12417	3232.525
3134.47299	3227.525
3136.82039	3240.125
3139.16636	3243.525
3141.51092	3242.025
3143.85406	3238.125
3146.19579	3241.725
3148.53609	3263.925
3150.87499	3271.625
3153.21246	3275.625
3155.54853	3292.325
3157.88318	3275.925
3160.21642	3286.025
3162.54826	3286.325
3164.87868	3273.425
3167.2077	3274.925
3169.5353	3286.925
3171.86151	3290.125
3174.18631	3274.425
3176.5097	3286.425
3178.83169	3290.825
3181.15228	3283.325
3183.47147	3282.125
3185.78926	3271.325
3188.10565	3287.525
3190.42065	3281.225
3192.73424	3277.125
3195.04645	3288.725
3197.35725	3276.425
3199.66667	3278.025
3201.97469	3278.325
3204.28132	3285.425
3206.58656	3303.725
3208.8904	3293.325
3211.19287	3284.425
3213.49394	3305.425
3215.79363	3297.925
3218.09193	3314.225
3220.38884	3312.925
3222.68438	3323.625
3224.97853	3319.925
