Data from AgNP_FTO_APTES_UA_100uM_CRN_2uM_R6G_10uM_NaF_0.1M_Addition_RamanShift__23__14-11-40-319.txt Node

Date: Thu Mar 24 14:11:40 GMT 2022
User: TCL
Spectrometer: QEP01345
Trigger mode: 4
Integration Time (sec): 7.000000E0
Scans to average: 10
Electric dark correction enabled: true
Nonlinearity correction enabled: false
Boxcar width: 0
XAxis mode: Raman Shifts
Number of Pixels in Spectrum: 1044
>>>>>Begin Spectral Data<<<<<
46.04893	-1.025
50.45542	-0.925
54.85868	0.175
59.25871	0.475
63.6555	44.975
68.04907	47.275
72.43941	48.675
76.82654	48.475
81.21044	53.575
85.59113	54.175
89.96862	55.675
94.34289	54.475
98.71396	60.275
103.08183	60.575
107.4465	62.475
111.80798	65.575
116.16626	66.075
120.52136	67.875
124.87327	69.575
129.222	71.375
133.56755	81.175
137.90993	82.875
142.24913	96.475
146.58517	103.675
150.91804	121.075
155.24774	145.375
159.57429	183.575
163.89768	235.175
168.21792	314.175
172.53501	422.875
176.84895	601.075
181.15975	838.375
185.46741	1189.375
189.77193	1636.875
194.07331	2199.475
198.37157	2848.575
202.6667	3555.575
206.9587	4263.375
211.24758	4985.175
215.53334	5756.975
219.81599	6635.575
224.09553	7637.575
228.37195	8766.475
232.64527	9992.575
236.91549	11180.275
241.18261	12181.975
245.44663	12969.575
249.70755	13552.875
253.96539	14031.075
258.22014	14533.575
262.4718	14931.275
266.72039	15207.475
270.96589	15249.275
275.20832	15077.775
279.44768	14705.975
283.68397	14383.375
287.91719	14147.275
292.14735	14248.575
296.37445	14684.575
300.59849	15442.075
304.81948	16416.175
309.03742	17161.575
313.25231	17261.975
317.46415	16501.275
321.67296	15084.675
325.87872	13830.175
330.08145	13173.275
334.28114	13098.475
338.47781	13382.775
342.67145	13839.075
346.86207	14478.175
351.04966	15454.675
355.23424	16609.575
359.4158	17540.975
363.59435	17949.675
367.76989	18011.275
371.94243	17859.875
376.11196	17619.575
380.27849	17408.875
384.44203	17120.175
388.60257	16817.275
392.76012	16614.775
396.91468	16696.075
401.06626	17082.875
405.21485	17403.475
409.36047	16982.175
413.50311	15875.875
417.64277	14800.975
421.77947	14111.075
425.9132	13831.975
430.04396	13751.475
434.17176	13828.875
438.2966	14011.975
442.41849	14394.175
446.53742	14889.775
450.6534	15355.175
454.76644	15599.075
458.87653	15578.075
462.98368	15379.475
467.08789	15033.875
471.18916	14635.775
475.2875	14215.075
479.38291	13835.075
483.4754	13523.775
487.56496	13322.275
491.6516	13210.875
495.73531	13156.575
499.81612	13240.875
503.89401	13442.475
507.96899	13665.075
512.04106	13905.575
516.11023	14225.675
520.1765	14437.675
524.23987	14469.275
528.30034	14301.775
532.35792	14074.775
536.41261	13798.575
540.46441	13426.475
544.51333	13206.975
548.55936	13327.875
552.60252	13729.675
556.64279	14265.675
560.6802	14466.675
564.71473	14724.375
568.7464	15408.775
572.7752	15776.075
576.80114	15135.475
580.82422	14407.575
584.84444	14185.375
588.86181	14239.575
592.87633	14425.075
596.888	14703.675
600.89682	15242.175
604.9028	17546.775
608.90594	23872.575
612.90624	32083.775
616.90371	30921.675
620.89834	20330.975
624.89015	15074.175
628.87913	14082.875
632.86528	14355.275
636.84862	14690.575
640.82913	14363.775
644.80683	13465.075
648.78172	12754.875
652.75379	12762.775
656.72306	13493.075
660.68952	14392.175
664.65319	14198.775
668.61405	13231.575
672.57211	12757.575
676.52738	12717.775
680.47986	12675.175
684.42955	12493.575
688.37646	12366.475
692.32058	12405.275
696.26192	12514.575
700.20048	12767.175
704.13626	12941.475
708.06928	12868.675
711.99952	12755.375
715.927	12714.675
719.85171	12842.675
723.77365	12879.675
727.69284	12812.175
731.60928	12671.975
735.52295	12612.675
739.43388	12690.175
743.34206	12755.975
747.24749	12821.675
751.15017	12856.575
755.05012	13128.875
758.94733	14011.975
762.8418	16295.875
766.73354	20144.775
770.62254	23963.575
774.50882	25690.375
778.39237	24318.175
782.27321	20422.875
786.15132	16537.475
790.02671	14234.375
793.89938	13229.775
797.76935	12798.975
801.6366	12632.275
805.50115	12516.175
809.36299	12465.575
813.22213	12383.275
817.07857	12385.275
820.93231	12325.275
824.78336	12350.975
828.63172	12428.175
832.47738	12484.475
836.32036	12432.975
840.16066	12316.475
843.99827	12299.575
847.8332	12224.175
851.66546	12221.775
855.49504	12209.275
859.32195	12223.275
863.1462	12166.275
866.96777	12094.475
870.78668	12069.075
874.60293	12126.575
878.41652	12212.075
882.22745	12323.875
886.03573	12400.575
889.84136	12385.675
893.64433	12311.675
897.44466	12304.375
901.24235	12251.575
905.0374	12178.175
908.8298	12060.775
912.61957	12001.175
916.40671	12038.575
920.19121	12171.475
923.97308	12352.575
927.75233	12597.375
931.52895	12827.075
935.30295	12696.775
939.07433	12224.975
942.84309	11863.575
946.60924	11632.475
950.37278	11481.975
954.13371	11404.475
957.89203	11343.675
961.64774	11319.275
965.40086	11252.275
969.15137	11236.375
972.89929	11188.775
976.64461	11192.475
980.38733	11206.975
984.12747	11223.675
987.86502	11309.475
991.59999	11407.175
995.33237	11636.475
999.06217	11938.275
1002.78939	12401.075
1006.51404	12794.175
1010.23611	13094.875
1013.95561	13222.575
1017.67255	13232.275
1021.38692	13042.375
1025.09872	12821.175
1028.80796	12775.375
1032.51465	12965.475
1036.21877	13268.775
1039.92035	13323.775
1043.61937	13327.575
1047.31584	13175.075
1051.00976	12950.975
1054.70114	12819.575
1058.38998	12706.075
1062.07627	12723.175
1065.76003	12776.275
1069.44126	12825.275
1073.11995	13001.575
1076.79611	13280.275
1080.46974	13649.175
1084.14085	14217.175
1087.80943	14728.875
1091.47549	14940.875
1095.13903	14583.175
1098.80005	13999.275
1102.45857	13524.475
1106.11456	13377.875
1109.76805	13575.875
1113.41903	14107.375
1117.06751	14955.675
1120.71348	15985.775
1124.35696	17080.375
1127.99793	17795.475
1131.63641	17370.075
1135.2724	16144.675
1138.90589	15070.775
1142.5369	14457.975
1146.16542	14002.075
1149.79145	13715.575
1153.415	13677.275
1157.03607	13803.975
1160.65467	14183.375
1164.27079	14878.975
1167.88443	15919.175
1171.49561	17599.075
1175.10432	20211.575
1178.71056	23774.375
1182.31434	26782.275
1185.91565	27662.075
1189.51451	26751.875
1193.11091	24697.375
1196.70485	22271.175
1200.29634	20477.975
1203.88538	19153.375
1207.47197	17661.375
1211.05612	16335.175
1214.63782	15570.675
1218.21708	15271.875
1221.79391	15256.875
1225.36829	15310.475
1228.94024	15282.675
1232.50976	15102.375
1236.07685	14941.175
1239.6415	14941.175
1243.20374	15033.175
1246.76355	15203.075
1250.32093	15418.775
1253.8759	15824.975
1257.42845	16434.775
1260.97859	17149.875
1264.52631	17883.875
1268.07163	18655.975
1271.61453	19358.175
1275.15503	19818.375
1278.69312	20093.675
1282.22882	20393.575
1285.76211	21002.975
1289.29301	21824.675
1292.82151	22734.175
1296.34761	23752.775
1299.87133	25475.675
1303.39266	28480.175
1306.9116	33060.075
1310.42815	37871.275
1313.94233	39792.875
1317.45412	37626.275
1320.96354	33503.675
1324.47058	29587.675
1327.97525	26422.275
1331.47754	24491.175
1334.97747	23838.675
1338.47502	24114.275
1341.97022	25173.575
1345.46305	26995.675
1348.95352	29489.875
1352.44163	32644.375
1355.92738	37260.875
1359.41078	44451.675
1362.89183	50827.675
1366.37053	48107.275
1369.84688	38397.975
1373.32088	29914.975
1376.79254	25095.775
1380.26186	22485.975
1383.72883	20995.075
1387.19347	19965.975
1390.65578	18995.875
1394.11575	18240.875
1397.57339	17890.275
1401.0287	17821.175
1404.48168	17927.775
1407.93234	18045.275
1411.38068	18232.275
1414.82669	18414.175
1418.27039	18377.975
1421.71177	18065.875
1425.15083	17559.875
1428.58758	17386.875
1432.02203	17691.475
1435.45416	17983.375
1438.88399	18084.475
1442.31151	18053.975
1445.73673	18161.775
1449.15965	18316.275
1452.58027	18261.275
1455.9986	18046.875
1459.41463	17979.175
1462.82837	18272.875
1466.23982	18850.375
1469.64898	19446.575
1473.05586	19876.175
1476.46045	20079.875
1479.86276	20364.275
1483.26279	20817.575
1486.66054	21573.575
1490.05602	22679.875
1493.44922	24351.775
1496.84016	26911.575
1500.22882	31094.075
1503.61521	37026.875
1506.99934	43711.675
1510.38121	48698.475
1513.76081	48922.175
1517.13816	43645.275
1520.51324	36054.675
1523.88607	29637.475
1527.25665	25667.975
1530.62498	23477.375
1533.99105	22249.975
1537.35488	21444.775
1540.71647	20929.375
1544.07581	20635.175
1547.4329	20539.875
1550.78776	20533.975
1554.14038	20659.975
1557.49077	21023.775
1560.83892	21521.475
1564.18484	22429.975
1567.52853	23438.075
1570.86999	24228.375
1574.20922	24646.175
1577.54624	24383.075
1580.88103	22746.275
1584.2136	20542.475
1587.54395	19257.775
1590.87208	19346.675
1594.19801	20634.675
1597.52172	22577.675
1600.84321	23494.875
1604.16251	22823.275
1607.47959	21374.275
1610.79447	19730.875
1614.10715	18017.875
1617.41763	16574.875
1620.7259	15576.775
1624.03199	15144.475
1627.33587	15194.175
1630.63757	15654.175
1633.93707	16668.475
1637.23439	18357.675
1640.52951	21077.875
1643.82246	25081.775
1647.11321	29930.475
1650.40179	33065.375
1653.68819	31576.675
1656.97241	26296.175
1660.25446	20782.175
1663.53433	17054.075
1666.81203	14873.375
1670.08756	13662.675
1673.36092	12910.975
1676.63211	12435.575
1679.90115	12139.075
1683.16801	11865.675
1686.43272	11717.275
1689.69527	11566.875
1692.95567	11473.475
1696.2139	11429.075
1699.46999	11371.975
1702.72392	11358.975
1705.97571	11313.975
1709.22535	11304.175
1712.47284	11295.875
1715.71819	11288.675
1718.96139	11237.575
1722.20246	11243.775
1725.44139	11113.475
1728.67818	11021.875
1731.91284	10909.575
1735.14537	10814.775
1738.37576	10776.975
1741.60403	10730.075
1744.83017	10670.975
1748.05418	10679.575
1751.27607	10611.375
1754.49584	10595.675
1757.71349	10579.675
1760.92903	10539.975
1764.14244	10543.975
1767.35375	10499.975
1770.56294	10454.375
1773.77002	10425.675
1776.97499	10385.675
1780.17785	10357.075
1783.37861	10309.075
1786.57727	10309.475
1789.77382	10290.575
1792.96828	10236.475
1796.16064	10257.375
1799.3509	10245.775
1802.53907	10189.975
1805.72514	10186.675
1808.90913	10146.975
1812.09102	10142.975
1815.27083	10097.775
1818.44856	10059.075
1821.6242	10062.575
1824.79776	10036.775
1827.96924	10011.975
1831.13864	9989.375
1834.30597	10006.875
1837.47122	9958.075
1840.6344	9962.875
1843.7955	9954.075
1846.95454	9937.475
1850.11151	9953.275
1853.26642	9933.375
1856.41926	9901.375
1859.57004	9899.375
1862.71876	9890.575
1865.86542	9908.075
1869.01003	9902.975
1872.15258	9900.375
1875.29308	9895.375
1878.43152	9881.075
1881.56792	9884.775
1884.70227	9886.875
1887.83457	9902.975
1890.96482	9898.075
1894.09304	9862.375
1897.21921	9849.775
1900.34335	9867.175
1903.46544	9853.675
1906.58551	9857.375
1909.70353	9863.175
1912.81953	9858.075
1915.93349	9817.775
1919.04543	9822.275
1922.15534	9788.975
1925.26322	9778.775
1928.36908	9760.175
1931.47292	9727.475
1934.57473	9683.575
1937.67453	9654.975
1940.77232	9643.275
1943.86808	9600.275
1946.96184	9576.275
1950.05358	9567.675
1953.14331	9550.175
1956.23103	9515.775
1959.31675	9510.675
1962.40046	9480.775
1965.48217	9507.775
1968.56188	9460.575
1971.63959	9482.975
1974.7153	9450.475
1977.78901	9395.875
1980.86073	9369.575
1983.93046	9338.375
1986.99819	9282.975
1990.06394	9269.175
1993.1277	9210.275
1996.18947	9182.875
1999.24925	9159.675
2002.30706	9122.075
2005.36288	9081.775
2008.41672	9064.175
2011.46859	9039.375
2014.51848	9010.475
2017.56639	8999.075
2020.61233	8968.775
2023.6563	8938.675
2026.6983	8915.875
2029.73833	8899.375
2032.7764	8889.575
2035.8125	8862.975
2038.84664	8865.675
2041.87881	8844.675
2044.90903	8834.675
2047.93729	8813.675
2050.96359	8789.675
2053.98794	8786.875
2057.01034	8766.075
2060.03078	8736.775
2063.04927	8746.775
2066.06582	8725.775
2069.08042	8704.975
2072.09307	8697.575
2075.10378	8710.475
2078.11255	8682.575
2081.11938	8692.875
2084.12426	8683.275
2087.12722	8693.375
2090.12824	8692.475
2093.12732	8696.575
2096.12447	8711.075
2099.11969	8728.475
2102.11299	8709.375
2105.10435	8714.875
2108.09379	8729.875
2111.08131	8717.775
2114.0669	8735.575
2117.05057	8762.975
2120.03233	8753.175
2123.01216	8781.675
2125.99008	8803.475
2128.96609	8789.575
2131.94018	8793.575
2134.91236	8777.275
2137.88263	8775.475
2140.851	8802.175
2143.81746	8793.075
2146.78201	8779.475
2149.74466	8804.175
2152.7054	8772.875
2155.66425	8754.775
2158.6212	8740.575
2161.57625	8742.675
2164.52941	8742.875
2167.48067	8744.575
2170.43004	8744.375
2173.37752	8735.675
2176.32311	8747.875
2179.26681	8744.175
2182.20863	8737.975
2185.14856	8755.775
2188.08661	8743.275
2191.02278	8729.975
2193.95707	8733.975
2196.88948	8722.875
2199.82001	8729.675
2202.74867	8700.175
2205.67545	8706.175
2208.60037	8706.675
2211.52341	8691.875
2214.44458	8682.775
2217.36388	8704.675
2220.28132	8671.075
2223.1969	8659.475
2226.11061	8643.875
2229.02246	8607.375
2231.93245	8595.675
2234.84058	8558.775
2237.74686	8538.575
2240.65128	8549.575
2243.55385	8519.575
2246.45456	8518.575
2249.35343	8536.275
2252.25044	8539.875
2255.14561	8545.875
2258.03893	8535.075
2260.93041	8548.175
2263.82004	8535.475
2266.70783	8535.175
2269.59378	8515.575
2272.4779	8490.075
2275.36017	8450.675
2278.24061	8475.975
2281.11922	8447.875
2283.996	8437.775
2286.87094	8416.375
2289.74405	8398.975
2292.61534	8378.675
2295.4848	8366.275
2298.35243	8351.675
2301.21824	8337.775
2304.08223	8362.275
2306.94439	8355.475
2309.80474	8382.875
2312.66327	8380.175
2315.51999	8332.375
2318.37489	8348.375
2321.22797	8346.175
2324.07925	8353.375
2326.92871	8346.175
2329.77637	8335.075
2332.62222	8325.175
2335.46626	8350.775
2338.3085	8347.175
2341.14893	8350.975
2343.98756	8362.375
2346.8244	8376.375
2349.65943	8381.575
2352.49267	8367.675
2355.32411	8408.575
2358.15376	8420.675
2360.98161	8431.275
2363.80768	8432.975
2366.63195	8441.175
2369.45444	8418.575
2372.27514	8433.975
2375.09405	8417.975
2377.91118	8377.075
2380.72652	8337.275
2383.54009	8329.875
2386.35187	8278.375
2389.16188	8257.975
2391.97011	8228.075
2394.77657	8226.375
2397.58125	8222.975
2400.38416	8166.875
2403.18529	8138.775
2405.98466	8125.275
2408.78226	8108.975
2411.57809	8076.075
2414.37216	8074.275
2417.16446	8058.475
2419.955	8034.575
2422.74378	8046.975
2425.5308	8050.475
2428.31606	8069.375
2431.09956	8058.875
2433.88131	8043.175
2436.6613	8041.075
2439.43954	8060.875
2442.21603	8057.975
2444.99077	8058.075
2447.76377	8097.275
2450.53501	8093.075
2453.30451	8074.375
2456.07226	8080.075
2458.83827	8072.175
2461.60254	8071.875
2464.36507	8079.675
2467.12586	8086.575
2469.88492	8094.475
2472.64224	8106.875
2475.39782	8100.575
2478.15167	8117.775
2480.90379	8135.675
2483.65417	8166.875
2486.40283	8189.775
2489.14976	8220.975
2491.89497	8215.775
2494.63845	8228.775
2497.3802	8225.475
2500.12024	8206.375
2502.85855	8196.175
2505.59514	8166.175
2508.33002	8110.475
2511.06318	8091.075
2513.79462	8054.675
2516.52435	8004.775
2519.25237	7990.275
2521.97867	7966.275
2524.70327	7986.075
2527.42616	7954.775
2530.14734	7957.775
2532.86681	7928.575
2535.58458	7941.875
2538.30065	7925.575
2541.01501	7941.175
2543.72768	7915.275
2546.43864	7938.175
2549.14791	7912.575
2551.85548	7907.975
2554.56136	7922.975
2557.26554	7927.275
2559.96803	7910.775
2562.66883	7908.175
2565.36794	7924.975
2568.06536	7899.675
2570.7611	7886.675
2573.45514	7878.175
2576.14751	7868.775
2578.83819	7858.875
2581.52719	7861.275
2584.21451	7836.075
2586.90015	7835.075
2589.58411	7814.475
2592.2664	7816.075
2594.94701	7801.975
2597.62594	7809.575
2600.30321	7792.175
2602.9788	7778.675
2605.65273	7767.775
2608.32498	7808.975
2610.99557	7781.375
2613.66449	7798.875
2616.33175	7784.275
2618.99734	7783.475
2621.66128	7821.075
2624.32355	7793.375
2626.98416	7788.375
2629.64311	7767.075
2632.30041	7773.075
2634.95605	7776.875
2637.61004	7770.975
2640.26238	7747.975
2642.91306	7742.475
2645.56209	7720.275
2648.20948	7713.275
2650.85521	7715.975
2653.4993	7696.175
2656.14175	7710.975
2658.78255	7723.975
2661.42171	7721.175
2664.05923	7728.075
2666.6951	7748.675
2669.32934	7774.775
2671.96194	7770.975
2674.59291	7770.975
2677.22224	7766.975
2679.84993	7799.175
2682.476	7757.775
2685.10043	7796.475
2687.72324	7762.375
2690.34441	7768.675
2692.96396	7784.675
2695.58188	7757.575
2698.19818	7757.775
2700.81285	7765.775
2703.4259	7762.475
2706.03733	7746.175
2708.64714	7741.875
2711.25533	7787.275
2713.86191	7750.475
2716.46687	7787.275
2719.07021	7775.475
2721.67194	7763.775
2724.27206	7772.675
2726.87057	7759.175
2729.46747	7775.975
2732.06276	7753.175
2734.65644	7736.175
2737.24852	7758.275
2739.83899	7711.075
2742.42786	7741.575
2745.01513	7706.475
2747.60079	7709.175
2750.18486	7694.275
2752.76733	7704.175
2755.3482	7691.875
2757.92747	7701.275
2760.50515	7667.475
2763.08123	7665.475
2765.65573	7680.375
2768.22863	7667.975
2770.79994	7669.675
2773.36967	7654.675
2775.9378	7658.175
2778.50435	7658.875
2781.06932	7654.675
2783.6327	7652.975
2786.1945	7656.975
2788.75471	7606.575
2791.31335	7611.675
2793.87041	7609.075
2796.42589	7613.875
2798.97979	7612.975
2801.53212	7600.575
2804.08288	7625.475
2806.63206	7613.575
2809.17967	7606.575
2811.72571	7619.675
2814.27018	7630.975
2816.81308	7627.575
2819.35442	7622.875
2821.89419	7652.575
2824.43239	7654.475
2826.96904	7640.575
2829.50412	7662.375
2832.03763	7639.175
2834.56959	7643.875
2837.1	7620.975
2839.62884	7625.275
2842.15613	7610.175
2844.68186	7604.575
2847.20604	7607.175
2849.72867	7620.075
2852.24974	7619.275
2854.76927	7625.075
2857.28724	7611.575
2859.80367	7622.175
2862.31855	7645.275
2864.83189	7631.375
2867.34368	7650.875
2869.85393	7674.975
2872.36264	7680.575
2874.8698	7684.675
2877.37543	7669.175
2879.87952	7698.375
2882.38207	7664.175
2884.88308	7674.675
2887.38256	7685.475
2889.88051	7663.375
2892.37692	7655.675
2894.8718	7661.975
2897.36515	7656.275
2899.85698	7651.575
2902.34727	7661.775
2904.83604	7661.375
2907.32328	7655.475
2909.809	7672.975
2912.29319	7659.875
2914.77587	7638.875
2917.25702	7624.375
2919.73665	7612.075
2922.21476	7597.275
2924.69136	7601.675
2927.16644	7575.375
2929.64	7580.475
2932.11205	7565.875
2934.58258	7551.575
2937.05161	7546.675
2939.51912	7539.475
2941.98513	7533.275
2944.44962	7527.875
2946.91261	7495.575
2949.37409	7504.875
2951.83407	7499.275
2954.29254	7504.175
2956.74951	7494.475
2959.20498	7487.675
2961.65895	7481.475
2964.11142	7455.075
2966.56239	7466.375
2969.01186	7461.475
2971.45984	7422.975
2973.90632	7416.775
2976.35131	7374.275
2978.7948	7378.575
2981.23681	7365.275
2983.67732	7362.175
2986.11635	7334.475
2988.55388	7319.575
2990.98993	7314.375
2993.4245	7314.275
2995.85758	7313.275
2998.28917	7285.675
3000.71928	7258.975
3003.14791	7272.975
3005.57506	7276.475
3008.00073	7272.575
3010.42493	7277.075
3012.84764	7249.675
3015.26888	7258.775
3017.68865	7242.275
3020.10694	7242.075
3022.52376	7210.275
3024.9391	7190.475
3027.35298	7176.375
3029.76539	7166.275
3032.17632	7145.175
3034.5858	7138.375
3036.9938	7127.075
3039.40034	7104.375
3041.80542	7088.375
3044.20903	7077.875
3046.61118	7042.975
3049.01187	7032.675
3051.4111	7024.175
3053.80888	6990.575
3056.20519	7003.775
3058.60005	6975.975
3060.99345	6969.275
3063.3854	6958.775
3065.7759	6938.275
3068.16494	6934.775
3070.55254	6895.575
3072.93868	6886.875
3075.32338	6881.775
3077.70662	6884.275
3080.08842	6867.975
3082.46878	6854.175
3084.84769	6831.275
3087.22515	6845.775
3089.60118	6840.675
3091.97576	6804.875
3094.3489	6802.675
3096.72061	6804.075
3099.09087	6816.775
3101.4597	6794.875
3103.82709	6807.175
3106.19305	6784.275
3108.55757	6792.275
3110.92066	6777.975
3113.28232	6766.975
3115.64255	6733.975
3118.00134	6704.275
3120.35871	6732.275
3122.71466	6701.775
3125.06917	6692.375
3127.42226	6706.975
3129.77393	6721.775
3132.12417	6710.675
3134.47299	6713.675
3136.82039	6696.875
3139.16636	6718.675
3141.51092	6727.975
3143.85406	6729.875
3146.19579	6741.075
3148.53609	6726.475
3150.87499	6741.175
3153.21246	6738.975
3155.54853	6753.775
3157.88318	6730.275
3160.21642	6734.075
3162.54826	6733.575
3164.87868	6712.575
3167.2077	6712.175
3169.5353	6711.275
3171.86151	6702.975
3174.18631	6711.375
3176.5097	6699.575
3178.83169	6700.675
3181.15228	6712.175
3183.47147	6693.975
3185.78926	6680.575
