Data from AgNP_FTO_APTES_UA_100uM_CRN_0uM_R6G_10uM_NaF_0.1M_Addition_RamanShift__10__10-56-50-093.txt Node

Date: Thu Mar 24 10:56:50 GMT 2022
User: TCL
Spectrometer: QEP01345
Trigger mode: 4
Integration Time (sec): 7.000000E0
Scans to average: 10
Electric dark correction enabled: true
Nonlinearity correction enabled: false
Boxcar width: 0
XAxis mode: Raman Shifts
Number of Pixels in Spectrum: 1044
>>>>>Begin Spectral Data<<<<<
46.04893	-2.325
50.45542	0.075
54.85868	-0.225
59.25871	0.275
63.6555	27.675
68.04907	29.775
72.43941	29.975
76.82654	31.275
81.21044	33.075
85.59113	35.075
89.96862	38.975
94.34289	36.975
98.71396	40.475
103.08183	40.175
107.4465	39.575
111.80798	40.075
116.16626	42.375
120.52136	41.875
124.87327	44.775
129.222	49.675
133.56755	46.975
137.90993	49.775
142.24913	56.475
146.58517	61.375
150.91804	71.375
155.24774	83.275
159.57429	103.375
163.89768	132.075
168.21792	171.675
172.53501	240.475
176.84895	328.175
181.15975	463.375
185.46741	648.775
189.77193	876.575
194.07331	1182.475
198.37157	1524.775
202.6667	1882.675
206.9587	2241.375
211.24758	2627.375
215.53334	3011.475
219.81599	3454.075
224.09553	3970.575
228.37195	4540.575
232.64527	5171.275
236.91549	5776.775
241.18261	6316.475
245.44663	6770.575
249.70755	7101.775
253.96539	7355.175
258.22014	7550.775
262.4718	7635.075
266.72039	7651.075
270.96589	7575.375
275.20832	7405.275
279.44768	7220.475
283.68397	7017.475
287.91719	6935.375
292.14735	6958.075
296.37445	7137.975
300.59849	7496.075
304.81948	7986.275
309.03742	8381.375
313.25231	8509.475
317.46415	8222.875
321.67296	7592.175
325.87872	7034.875
330.08145	6754.675
334.28114	6732.475
338.47781	6881.275
342.67145	7063.075
346.86207	7354.375
351.04966	7814.475
355.23424	8366.975
359.4158	8787.175
363.59435	9018.975
367.76989	9052.675
371.94243	8976.575
376.11196	8867.575
380.27849	8789.075
384.44203	8637.075
388.60257	8450.275
392.76012	8307.375
396.91468	8324.475
401.06626	8522.775
405.21485	8714.075
409.36047	8503.975
413.50311	7954.175
417.64277	7477.675
421.77947	7207.675
425.9132	7024.875
430.04396	6999.175
434.17176	7111.475
438.2966	7369.875
442.41849	7819.475
446.53742	8413.475
450.6534	8947.775
454.76644	9102.675
458.87653	8812.375
462.98368	8319.275
467.08789	7875.875
471.18916	7477.375
475.2875	7100.875
479.38291	6797.875
483.4754	6540.375
487.56496	6373.075
491.6516	6295.075
495.73531	6254.175
499.81612	6269.975
503.89401	6356.475
507.96899	6469.475
512.04106	6582.275
516.11023	6747.675
520.1765	6897.275
524.23987	6999.775
528.30034	7020.675
532.35792	6957.775
536.41261	6747.575
540.46441	6397.275
544.51333	6169.675
548.55936	6133.375
552.60252	6383.675
556.64279	6749.075
560.6802	6974.975
564.71473	7069.375
568.7464	7378.575
572.7752	7685.175
576.80114	7361.775
580.82422	7006.875
584.84444	7174.675
588.86181	7862.775
592.87633	8866.175
596.888	9242.375
600.89682	8673.175
604.9028	8981.075
608.90594	11768.575
612.90624	15678.175
616.90371	15125.575
620.89834	9688.975
624.89015	6826.175
628.87913	6278.075
632.86528	6397.975
636.84862	6536.675
640.82913	6347.475
644.80683	5813.075
648.78172	5446.375
652.75379	5451.275
656.72306	5813.475
660.68952	6319.975
664.65319	6224.575
668.61405	5788.675
672.57211	5592.875
676.52738	5589.475
680.47986	5504.075
684.42955	5345.175
688.37646	5239.375
692.32058	5269.875
696.26192	5394.875
700.20048	5561.875
704.13626	5674.775
708.06928	5653.375
711.99952	5584.275
715.927	5550.575
719.85171	5600.375
723.77365	5604.875
727.69284	5490.675
731.60928	5427.675
735.52295	5468.875
739.43388	5579.375
743.34206	5629.075
747.24749	5641.275
751.15017	5661.275
755.05012	5768.475
758.94733	6230.675
762.8418	7390.875
766.73354	9335.875
770.62254	11246.575
774.50882	12387.275
778.39237	12060.675
782.27321	10135.475
786.15132	7906.475
790.02671	6506.875
793.89938	5856.675
797.76935	5581.775
801.6366	5463.075
805.50115	5361.875
809.36299	5333.775
813.22213	5261.975
817.07857	5230.275
820.93231	5209.675
824.78336	5242.075
828.63172	5305.275
832.47738	5327.075
836.32036	5285.275
840.16066	5244.875
843.99827	5207.275
847.8332	5175.575
851.66546	5162.875
855.49504	5155.375
859.32195	5142.375
863.1462	5107.175
866.96777	5065.475
870.78668	5058.275
874.60293	5069.375
878.41652	5123.575
882.22745	5187.675
886.03573	5256.575
889.84136	5255.775
893.64433	5212.575
897.44466	5198.975
901.24235	5166.175
905.0374	5076.975
908.8298	5026.475
912.61957	4970.775
916.40671	4971.175
920.19121	5047.475
923.97308	5199.375
927.75233	5350.475
931.52895	5450.375
935.30295	5324.775
939.07433	5062.275
942.84309	4858.075
946.60924	4734.475
950.37278	4651.375
954.13371	4606.875
957.89203	4549.175
961.64774	4511.875
965.40086	4470.775
969.15137	4453.175
972.89929	4428.175
976.64461	4438.375
980.38733	4449.575
984.12747	4465.175
987.86502	4495.675
991.59999	4570.475
995.33237	4693.375
999.06217	4942.375
1002.78939	5235.175
1006.51404	5457.475
1010.23611	5633.075
1013.95561	5744.575
1017.67255	5718.075
1021.38692	5462.275
1025.09872	5167.575
1028.80796	4983.075
1032.51465	4953.075
1036.21877	5010.775
1039.92035	5063.775
1043.61937	5131.375
1047.31584	5143.775
1051.00976	5157.875
1054.70114	5093.575
1058.38998	5063.775
1062.07627	5056.775
1065.76003	5062.775
1069.44126	5121.375
1073.11995	5295.175
1076.79611	5523.075
1080.46974	5771.675
1084.14085	6086.175
1087.80943	6369.775
1091.47549	6407.475
1095.13903	6170.175
1098.80005	5782.675
1102.45857	5471.975
1106.11456	5384.475
1109.76805	5499.975
1113.41903	5747.575
1117.06751	6119.475
1120.71348	6698.475
1124.35696	7346.475
1127.99793	7753.175
1131.63641	7519.475
1135.2724	6906.275
1138.90589	6386.075
1142.5369	6083.575
1146.16542	5878.175
1149.79145	5804.975
1153.415	5744.575
1157.03607	5747.675
1160.65467	5910.075
1164.27079	6287.175
1167.88443	7009.775
1171.49561	8126.075
1175.10432	9898.175
1178.71056	12133.075
1182.31434	13913.875
1185.91565	14351.675
1189.51451	13678.375
1193.11091	12629.275
1196.70485	11470.975
1200.29634	10355.675
1203.88538	9228.975
1207.47197	8148.875
1211.05612	7402.975
1214.63782	7177.075
1218.21708	7346.775
1221.79391	7594.975
1225.36829	7577.175
1228.94024	7228.175
1232.50976	6844.275
1236.07685	6627.375
1239.6415	6608.875
1243.20374	6609.175
1246.76355	6596.375
1250.32093	6660.075
1253.8759	6867.075
1257.42845	7237.375
1260.97859	7718.575
1264.52631	8224.475
1268.07163	8695.575
1271.61453	9053.075
1275.15503	9306.675
1278.69312	9521.275
1282.22882	9806.375
1285.76211	10376.475
1289.29301	11113.375
1292.82151	11915.175
1296.34761	12833.475
1299.87133	14009.075
1303.39266	15744.075
1306.9116	18241.675
1310.42815	21010.875
1313.94233	22253.775
1317.45412	21031.375
1320.96354	18360.075
1324.47058	15674.775
1327.97525	13718.475
1331.47754	12726.375
1334.97747	12669.475
1338.47502	13017.175
1341.97022	13421.075
1345.46305	14021.475
1348.95352	15157.275
1352.44163	17061.675
1355.92738	19956.875
1359.41078	23536.475
1362.89183	25976.875
1366.37053	24388.675
1369.84688	20148.675
1373.32088	16237.475
1376.79254	13740.775
1380.26186	12209.475
1383.72883	11185.175
1387.19347	10368.475
1390.65578	9766.175
1394.11575	9540.475
1397.57339	9618.675
1401.0287	9836.875
1404.48168	9992.275
1407.93234	10038.275
1411.38068	9987.575
1414.82669	9853.375
1418.27039	9486.075
1421.71177	9047.975
1425.15083	8758.775
1428.58758	8798.175
1432.02203	9072.475
1435.45416	9337.075
1438.88399	9423.475
1442.31151	9328.075
1445.73673	9317.575
1449.15965	9294.975
1452.58027	9129.575
1455.9986	8900.575
1459.41463	8886.475
1462.82837	9239.275
1466.23982	9744.375
1469.64898	10206.875
1473.05586	10516.075
1476.46045	10694.775
1479.86276	10851.275
1483.26279	10983.975
1486.66054	11184.875
1490.05602	11519.975
1493.44922	12020.675
1496.84016	12802.475
1500.22882	14193.575
1503.61521	16345.575
1506.99934	18762.175
1510.38121	20771.875
1513.76081	21094.275
1517.13816	19104.475
1520.51324	15959.175
1523.88607	13312.275
1527.25665	11886.975
1530.62498	11310.975
1533.99105	11078.975
1537.35488	10884.075
1540.71647	10662.875
1544.07581	10453.875
1547.4329	10171.175
1550.78776	9816.075
1554.14038	9520.975
1557.49077	9275.875
1560.83892	9214.075
1564.18484	9459.275
1567.52853	10004.175
1570.86999	10548.175
1574.20922	10873.675
1577.54624	10798.075
1580.88103	9985.775
1584.2136	8975.875
1587.54395	8504.775
1590.87208	8913.675
1594.19801	10170.675
1597.52172	11861.675
1600.84321	13044.175
1604.16251	12691.475
1607.47959	11171.275
1610.79447	9288.075
1614.10715	7704.975
1617.41763	6674.875
1620.7259	6113.175
1624.03199	5833.675
1627.33587	5843.175
1630.63757	6103.075
1633.93707	6709.775
1637.23439	7865.275
1640.52951	9810.975
1643.82246	12567.875
1647.11321	15356.875
1650.40179	16590.675
1653.68819	15175.275
1656.97241	12022.175
1660.25446	8919.075
1663.53433	6830.775
1666.81203	5634.175
1670.08756	4993.275
1673.36092	4626.075
1676.63211	4389.375
1679.90115	4235.575
1683.16801	4133.275
1686.43272	4039.775
1689.69527	3974.775
1692.95567	3928.575
1696.2139	3907.875
1699.46999	3892.375
1702.72392	3846.375
1705.97571	3855.375
1709.22535	3824.875
1712.47284	3821.275
1715.71819	3835.675
1718.96139	3807.875
1722.20246	3797.375
1725.44139	3759.875
1728.67818	3715.075
1731.91284	3643.175
1735.14537	3616.675
1738.37576	3598.475
1741.60403	3548.675
1744.83017	3522.875
1748.05418	3515.475
1751.27607	3484.175
1754.49584	3474.075
1757.71349	3479.175
1760.92903	3466.675
1764.14244	3437.175
1767.35375	3434.475
1770.56294	3428.975
1773.77002	3414.175
1776.97499	3380.975
1780.17785	3370.375
1783.37861	3353.675
1786.57727	3350.175
1789.77382	3339.675
1792.96828	3338.075
1796.16064	3336.175
1799.3509	3327.575
1802.53907	3336.975
1805.72514	3316.575
1808.90913	3315.575
1812.09102	3297.975
1815.27083	3287.275
1818.44856	3293.775
1821.6242	3284.675
1824.79776	3292.875
1827.96924	3297.875
1831.13864	3298.275
1834.30597	3307.375
1837.47122	3330.075
1840.6344	3359.075
1843.7955	3383.175
1846.95454	3401.975
1850.11151	3436.275
1853.26642	3466.575
1856.41926	3486.175
1859.57004	3517.175
1862.71876	3488.975
1865.86542	3497.475
1869.01003	3507.075
1872.15258	3496.175
1875.29308	3508.575
1878.43152	3520.075
1881.56792	3508.575
1884.70227	3518.675
1887.83457	3509.975
1890.96482	3498.875
1894.09304	3493.275
1897.21921	3459.975
1900.34335	3436.975
1903.46544	3426.075
1906.58551	3400.775
1909.70353	3393.775
1912.81953	3363.275
1915.93349	3348.575
1919.04543	3345.675
1922.15534	3322.375
1925.26322	3307.975
1928.36908	3298.975
1931.47292	3289.475
1934.57473	3266.775
1937.67453	3247.175
1940.77232	3224.775
1943.86808	3207.675
1946.96184	3159.175
1950.05358	3161.775
1953.14331	3159.375
1956.23103	3148.775
1959.31675	3149.475
1962.40046	3148.575
1965.48217	3150.375
1968.56188	3162.075
1971.63959	3174.475
1974.7153	3164.575
1977.78901	3173.675
1980.86073	3158.975
1983.93046	3154.975
1986.99819	3124.975
1990.06394	3126.775
1993.1277	3109.675
1996.18947	3092.275
1999.24925	3074.675
2002.30706	3040.675
2005.36288	3034.975
2008.41672	3015.275
2011.46859	2993.775
2014.51848	2973.975
2017.56639	2954.175
2020.61233	2934.575
2023.6563	2919.675
2026.6983	2895.575
2029.73833	2888.775
2032.7764	2896.475
2035.8125	2906.375
2038.84664	2904.375
2041.87881	2931.575
2044.90903	2937.075
2047.93729	2974.675
2050.96359	2988.675
2053.98794	3012.575
2057.01034	3030.875
2060.03078	3044.375
2063.04927	3049.175
2066.06582	3056.575
2069.08042	3063.075
2072.09307	3047.675
2075.10378	3049.375
2078.11255	3023.275
2081.11938	3003.375
2084.12426	2969.675
2087.12722	2953.675
2090.12824	2935.675
2093.12732	2902.375
2096.12447	2883.275
2099.11969	2880.275
2102.11299	2864.875
2105.10435	2843.475
2108.09379	2820.975
2111.08131	2804.175
2114.0669	2768.475
2117.05057	2767.075
2120.03233	2736.075
2123.01216	2727.475
2125.99008	2718.075
2128.96609	2715.075
2131.94018	2688.075
2134.91236	2690.875
2137.88263	2705.275
2140.851	2676.075
2143.81746	2689.375
2146.78201	2681.275
2149.74466	2658.675
2152.7054	2622.075
2155.66425	2615.875
2158.6212	2584.575
2161.57625	2571.475
2164.52941	2569.875
2167.48067	2556.775
2170.43004	2552.375
2173.37752	2534.775
2176.32311	2528.675
2179.26681	2524.775
2182.20863	2518.375
2185.14856	2534.975
2188.08661	2525.975
2191.02278	2517.275
2193.95707	2511.375
2196.88948	2501.675
2199.82001	2496.275
2202.74867	2494.275
2205.67545	2491.075
2208.60037	2486.075
2211.52341	2478.675
2214.44458	2463.875
2217.36388	2459.375
2220.28132	2445.075
2223.1969	2439.275
2226.11061	2433.975
2229.02246	2418.575
2231.93245	2421.475
2234.84058	2429.775
2237.74686	2404.575
2240.65128	2413.275
2243.55385	2405.675
2246.45456	2393.275
2249.35343	2403.375
2252.25044	2402.975
2255.14561	2393.975
2258.03893	2398.275
2260.93041	2397.075
2263.82004	2386.775
2266.70783	2378.975
2269.59378	2371.775
2272.4779	2369.275
2275.36017	2374.675
2278.24061	2347.975
2281.11922	2347.575
2283.996	2336.875
2286.87094	2333.675
2289.74405	2327.375
2292.61534	2327.375
2295.4848	2308.075
2298.35243	2300.575
2301.21824	2306.775
2304.08223	2307.775
2306.94439	2298.175
2309.80474	2304.275
2312.66327	2304.275
2315.51999	2296.175
2318.37489	2309.875
2321.22797	2286.275
2324.07925	2288.675
2326.92871	2279.475
2329.77637	2287.375
2332.62222	2281.575
2335.46626	2272.675
2338.3085	2274.475
2341.14893	2277.775
2343.98756	2277.775
2346.8244	2288.275
2349.65943	2293.075
2352.49267	2289.675
2355.32411	2297.575
2358.15376	2306.775
2360.98161	2319.275
2363.80768	2328.775
2366.63195	2322.775
2369.45444	2337.275
2372.27514	2344.175
2375.09405	2319.975
2377.91118	2329.675
2380.72652	2318.675
2383.54009	2313.875
2386.35187	2295.275
2389.16188	2279.075
2391.97011	2268.775
2394.77657	2253.175
2397.58125	2236.275
2400.38416	2239.675
2403.18529	2235.075
2405.98466	2220.075
2408.78226	2213.575
2411.57809	2206.075
2414.37216	2197.675
2417.16446	2192.175
2419.955	2195.875
2422.74378	2203.075
2425.5308	2194.175
2428.31606	2199.775
2431.09956	2192.075
2433.88131	2194.875
2436.6613	2195.275
2439.43954	2195.975
2442.21603	2203.875
2444.99077	2206.075
2447.76377	2201.675
2450.53501	2202.375
2453.30451	2204.475
2456.07226	2211.575
2458.83827	2217.375
2461.60254	2219.475
2464.36507	2218.575
2467.12586	2209.175
2469.88492	2218.475
2472.64224	2224.875
2475.39782	2227.575
2478.15167	2230.175
2480.90379	2232.575
2483.65417	2247.775
2486.40283	2254.575
2489.14976	2273.275
2491.89497	2285.075
2494.63845	2282.775
2497.3802	2269.575
2500.12024	2275.575
2502.85855	2259.575
2505.59514	2250.275
2508.33002	2234.375
2511.06318	2222.875
2513.79462	2202.775
2516.52435	2186.675
2519.25237	2184.475
2521.97867	2157.275
2524.70327	2167.275
2527.42616	2155.775
2530.14734	2162.975
2532.86681	2152.375
2535.58458	2156.975
2538.30065	2150.275
2541.01501	2159.775
2543.72768	2154.975
2546.43864	2164.575
2549.14791	2158.375
2551.85548	2166.675
2554.56136	2165.275
2557.26554	2157.875
2559.96803	2167.175
2562.66883	2165.975
2565.36794	2169.775
2568.06536	2156.875
2570.7611	2157.975
2573.45514	2162.075
2576.14751	2159.775
2578.83819	2141.575
2581.52719	2153.275
2584.21451	2154.975
2586.90015	2139.975
2589.58411	2130.575
2592.2664	2145.675
2594.94701	2142.775
2597.62594	2136.975
2600.30321	2131.475
2602.9788	2133.675
2605.65273	2145.975
2608.32498	2143.975
2610.99557	2151.375
2613.66449	2137.375
2616.33175	2139.775
2618.99734	2143.975
2621.66128	2134.375
2624.32355	2135.775
2626.98416	2141.675
2629.64311	2122.075
2632.30041	2132.475
2634.95605	2132.775
2637.61004	2130.475
2640.26238	2122.875
2642.91306	2112.575
2645.56209	2119.375
2648.20948	2121.475
2650.85521	2118.975
2653.4993	2125.375
2656.14175	2125.075
2658.78255	2129.675
2661.42171	2134.375
2664.05923	2153.975
2666.6951	2147.675
2669.32934	2161.175
2671.96194	2158.275
2674.59291	2158.675
2677.22224	2158.475
2679.84993	2152.675
2682.476	2154.575
2685.10043	2146.075
2687.72324	2145.275
2690.34441	2143.375
2692.96396	2143.075
2695.58188	2148.675
2698.19818	2141.175
2700.81285	2157.875
2703.4259	2146.275
2706.03733	2149.275
2708.64714	2156.175
2711.25533	2163.975
2713.86191	2168.675
2716.46687	2180.475
2719.07021	2175.975
2721.67194	2184.775
2724.27206	2191.975
2726.87057	2185.675
2729.46747	2189.675
2732.06276	2193.075
2734.65644	2179.275
2737.24852	2172.375
2739.83899	2174.375
2742.42786	2172.575
2745.01513	2149.675
2747.60079	2161.475
2750.18486	2161.075
2752.76733	2167.275
2755.3482	2157.075
2757.92747	2169.275
2760.50515	2162.075
2763.08123	2164.375
2765.65573	2159.875
2768.22863	2162.175
2770.79994	2167.275
2773.36967	2172.075
2775.9378	2179.275
2778.50435	2186.075
2781.06932	2201.375
2783.6327	2199.275
2786.1945	2207.975
2788.75471	2202.175
2791.31335	2215.175
2793.87041	2218.975
2796.42589	2217.575
2798.97979	2235.475
2801.53212	2229.175
2804.08288	2233.075
2806.63206	2242.375
2809.17967	2235.875
2811.72571	2257.575
2814.27018	2274.775
2816.81308	2287.475
2819.35442	2281.475
2821.89419	2295.575
2824.43239	2307.475
2826.96904	2298.375
2829.50412	2320.875
2832.03763	2328.475
2834.56959	2332.175
2837.1	2339.075
2839.62884	2342.175
2842.15613	2385.175
2844.68186	2428.175
2847.20604	2466.275
2849.72867	2514.075
2852.24974	2521.675
2854.76927	2530.275
2857.28724	2529.975
2859.80367	2540.475
2862.31855	2541.475
2864.83189	2541.675
2867.34368	2558.075
2869.85393	2535.475
2872.36264	2544.875
2874.8698	2558.375
2877.37543	2567.275
2879.87952	2549.775
2882.38207	2545.075
2884.88308	2547.175
2887.38256	2545.375
2889.88051	2525.875
2892.37692	2515.975
2894.8718	2520.275
2897.36515	2522.075
2899.85698	2519.175
2902.34727	2519.275
2904.83604	2519.175
2907.32328	2508.075
2909.809	2509.375
2912.29319	2499.275
2914.77587	2497.075
2917.25702	2490.075
2919.73665	2481.975
2922.21476	2478.875
2924.69136	2478.475
2927.16644	2459.575
2929.64	2458.175
2932.11205	2446.875
2934.58258	2410.075
2937.05161	2391.475
2939.51912	2384.675
2941.98513	2353.075
2944.44962	2317.975
2946.91261	2297.475
2949.37409	2278.675
2951.83407	2244.375
2954.29254	2229.475
2956.74951	2210.375
2959.20498	2211.875
2961.65895	2181.575
2964.11142	2171.975
2966.56239	2162.575
2969.01186	2142.775
2971.45984	2117.475
2973.90632	2102.675
2976.35131	2083.275
2978.7948	2074.575
2981.23681	2061.675
2983.67732	2050.775
2986.11635	2045.275
2988.55388	2030.075
2990.98993	2023.975
2993.4245	2013.975
2995.85758	2013.075
2998.28917	2005.775
3000.71928	2015.475
3003.14791	2005.975
3005.57506	2008.375
3008.00073	1997.575
3010.42493	1999.875
3012.84764	2000.975
3015.26888	1992.975
3017.68865	1994.575
3020.10694	1984.675
3022.52376	1971.575
3024.9391	1965.775
3027.35298	1956.175
3029.76539	1956.875
3032.17632	1943.175
3034.5858	1942.975
3036.9938	1936.875
3039.40034	1932.275
3041.80542	1925.075
3044.20903	1915.475
3046.61118	1927.175
3049.01187	1917.475
3051.4111	1924.975
3053.80888	1922.175
3056.20519	1910.975
3058.60005	1909.575
3060.99345	1901.775
3063.3854	1909.175
3065.7759	1890.675
3068.16494	1892.775
3070.55254	1880.675
3072.93868	1885.375
3075.32338	1874.075
3077.70662	1861.475
3080.08842	1866.275
3082.46878	1871.275
3084.84769	1854.575
3087.22515	1861.875
3089.60118	1851.475
3091.97576	1862.075
3094.3489	1841.775
3096.72061	1852.675
3099.09087	1849.775
3101.4597	1852.875
3103.82709	1843.375
3106.19305	1831.975
3108.55757	1835.975
3110.92066	1826.475
3113.28232	1831.075
3115.64255	1820.975
3118.00134	1827.375
3120.35871	1825.575
3122.71466	1824.775
3125.06917	1824.975
3127.42226	1836.475
3129.77393	1823.775
3132.12417	1838.975
3134.47299	1842.975
3136.82039	1848.275
3139.16636	1847.675
3141.51092	1845.775
3143.85406	1846.475
3146.19579	1852.575
3148.53609	1859.775
3150.87499	1863.775
3153.21246	1852.875
3155.54853	1856.275
3157.88318	1862.275
3160.21642	1853.675
3162.54826	1865.075
3164.87868	1863.975
3167.2077	1860.375
3169.5353	1871.475
3171.86151	1877.575
3174.18631	1876.475
3176.5097	1876.875
3178.83169	1881.075
3181.15228	1886.075
3183.47147	1886.075
3185.78926	1902.275
3188.10565	1895.075
3190.42065	1906.875
3192.73424	1913.375
3195.04645	1921.275
3197.35725	1918.775
3199.66667	1915.475
3201.97469	1922.375
3204.28132	1932.475
3206.58656	1929.975
3208.8904	1935.175
3211.19287	1941.575
3213.49394	1942.275
3215.79363	1929.575
3218.09193	1950.275
3220.38884	1935.075
3222.68438	1943.675
3224.97853	1956.175
3227.2713	1954.975
