Data from AgNP_FTO_APTES_UA_100uM_CRN_2uM_R6G_10uM_NaF_0.1M_Addition_RamanShift__12__13-58-50-303.txt Node

Date: Thu Mar 24 13:58:50 GMT 2022
User: TCL
Spectrometer: QEP01345
Trigger mode: 4
Integration Time (sec): 7.000000E0
Scans to average: 10
Electric dark correction enabled: true
Nonlinearity correction enabled: false
Boxcar width: 0
XAxis mode: Raman Shifts
Number of Pixels in Spectrum: 1044
>>>>>Begin Spectral Data<<<<<
46.04893	-1.375
50.45542	-0.775
54.85868	-0.975
59.25871	1.325
63.6555	36.025
68.04907	38.325
72.43941	37.925
76.82654	41.425
81.21044	44.125
85.59113	46.225
89.96862	45.625
94.34289	43.125
98.71396	50.125
103.08183	49.725
107.4465	52.125
111.80798	52.825
116.16626	54.325
120.52136	51.825
124.87327	55.925
129.222	60.225
133.56755	62.325
137.90993	63.225
142.24913	75.225
146.58517	77.725
150.91804	91.925
155.24774	107.025
159.57429	134.025
163.89768	168.425
168.21792	225.725
172.53501	307.225
176.84895	425.125
181.15975	608.025
185.46741	853.925
189.77193	1178.625
194.07331	1581.125
198.37157	2047.125
202.6667	2544.625
206.9587	3030.825
211.24758	3517.325
215.53334	3988.425
219.81599	4511.125
224.09553	5060.825
228.37195	5670.225
232.64527	6378.025
236.91549	7097.325
241.18261	7825.625
245.44663	8503.025
249.70755	9117.925
253.96539	9651.125
258.22014	10099.025
262.4718	10438.625
266.72039	10708.225
270.96589	10798.525
275.20832	10826.125
279.44768	10735.525
283.68397	10566.225
287.91719	10464.825
292.14735	10376.525
296.37445	10358.525
300.59849	10413.925
304.81948	10498.325
309.03742	10581.925
313.25231	10576.325
317.46415	10449.425
321.67296	10162.525
325.87872	9940.625
330.08145	9848.525
334.28114	9849.625
338.47781	9943.525
342.67145	10103.125
346.86207	10270.625
351.04966	10521.425
355.23424	10728.025
359.4158	10957.025
363.59435	11102.925
367.76989	11220.825
371.94243	11288.925
376.11196	11306.925
380.27849	11366.525
384.44203	11400.225
388.60257	11446.925
392.76012	11510.025
396.91468	11623.325
401.06626	11780.025
405.21485	11940.325
409.36047	11887.525
413.50311	11677.625
417.64277	11480.325
421.77947	11348.325
425.9132	11322.125
430.04396	11342.925
434.17176	11405.825
438.2966	11469.725
442.41849	11553.825
446.53742	11710.925
450.6534	11854.625
454.76644	11989.025
458.87653	12057.825
462.98368	12092.625
467.08789	12062.025
471.18916	12021.825
475.2875	11883.025
479.38291	11785.025
483.4754	11707.325
487.56496	11697.125
491.6516	11673.825
495.73531	11651.825
499.81612	11685.025
503.89401	11778.325
507.96899	11856.625
512.04106	11892.925
516.11023	11970.525
520.1765	11944.125
524.23987	11921.425
528.30034	11895.725
532.35792	11833.925
536.41261	11757.625
540.46441	11643.525
544.51333	11622.025
548.55936	11720.125
552.60252	11835.125
556.64279	11989.825
560.6802	12074.125
564.71473	12083.925
568.7464	12180.525
572.7752	12261.925
576.80114	12306.425
580.82422	12356.425
584.84444	12488.525
588.86181	12534.525
592.87633	12500.025
596.888	12505.825
600.89682	12687.425
604.9028	13273.525
608.90594	14682.325
612.90624	16393.025
616.90371	15946.025
620.89834	13540.525
624.89015	12328.525
628.87913	12117.625
632.86528	12212.925
636.84862	12355.525
640.82913	12339.525
644.80683	12107.725
648.78172	11945.425
652.75379	11927.225
656.72306	12121.125
660.68952	12338.525
664.65319	12313.725
668.61405	12169.225
672.57211	12093.425
676.52738	12120.525
680.47986	12092.825
684.42955	12009.925
688.37646	11984.125
692.32058	12028.025
696.26192	12109.225
700.20048	12197.125
704.13626	12268.825
708.06928	12295.725
711.99952	12222.625
715.927	12175.425
719.85171	12162.525
723.77365	12172.725
727.69284	12124.925
731.60928	12046.825
735.52295	12014.125
739.43388	12022.825
743.34206	12040.125
747.24749	12093.625
751.15017	12121.425
755.05012	12210.125
758.94733	12442.325
762.8418	12952.425
766.73354	13915.025
770.62254	14940.725
774.50882	15336.925
778.39237	14922.825
782.27321	14024.625
786.15132	13148.425
790.02671	12575.325
793.89938	12266.025
797.76935	12112.025
801.6366	12043.425
805.50115	12020.325
809.36299	11971.325
813.22213	11931.725
817.07857	11947.125
820.93231	11942.225
824.78336	11945.725
828.63172	11943.625
832.47738	11941.325
836.32036	11939.525
840.16066	11920.625
843.99827	11905.025
847.8332	11923.025
851.66546	11930.725
855.49504	11936.925
859.32195	11976.725
863.1462	11951.125
866.96777	11956.825
870.78668	11956.625
874.60293	11974.425
878.41652	12001.125
882.22745	12013.425
886.03573	12042.425
889.84136	12051.825
893.64433	12029.525
897.44466	12000.125
901.24235	12009.825
905.0374	11971.425
908.8298	11933.725
912.61957	11935.025
916.40671	11932.525
920.19121	12007.625
923.97308	12035.225
927.75233	12027.625
931.52895	12038.225
935.30295	11989.125
939.07433	11866.525
942.84309	11719.825
946.60924	11699.525
950.37278	11611.825
954.13371	11607.125
957.89203	11579.825
961.64774	11562.525
965.40086	11573.125
969.15137	11566.825
972.89929	11530.625
976.64461	11528.425
980.38733	11544.725
984.12747	11534.925
987.86502	11553.725
991.59999	11597.825
995.33237	11628.625
999.06217	11696.825
1002.78939	11795.725
1006.51404	11893.825
1010.23611	12021.025
1013.95561	12095.725
1017.67255	12112.225
1021.38692	12107.425
1025.09872	11987.425
1028.80796	11889.825
1032.51465	11858.325
1036.21877	11886.225
1039.92035	11913.725
1043.61937	11954.925
1047.31584	11974.825
1051.00976	12046.125
1054.70114	12092.725
1058.38998	12087.825
1062.07627	12159.625
1065.76003	12233.225
1069.44126	12300.925
1073.11995	12483.125
1076.79611	12629.725
1080.46974	12767.025
1084.14085	12838.225
1087.80943	12891.525
1091.47549	12981.125
1095.13903	12950.625
1098.80005	12846.225
1102.45857	12714.325
1106.11456	12593.525
1109.76805	12551.925
1113.41903	12560.325
1117.06751	12656.225
1120.71348	12807.625
1124.35696	12954.925
1127.99793	13103.725
1131.63641	13145.025
1135.2724	12981.925
1138.90589	12842.725
1142.5369	12703.525
1146.16542	12607.025
1149.79145	12523.125
1153.415	12475.625
1157.03607	12487.625
1160.65467	12580.625
1164.27079	12791.125
1167.88443	13083.725
1171.49561	13527.625
1175.10432	14219.225
1178.71056	15094.325
1182.31434	15887.625
1185.91565	16260.425
1189.51451	16215.025
1193.11091	16001.025
1196.70485	15560.125
1200.29634	15065.325
1203.88538	14655.525
1207.47197	14168.325
1211.05612	13714.125
1214.63782	13388.625
1218.21708	13226.625
1221.79391	13082.025
1225.36829	13049.525
1228.94024	13022.125
1232.50976	13026.325
1236.07685	13048.225
1239.6415	13038.225
1243.20374	13036.625
1246.76355	13093.025
1250.32093	13186.125
1253.8759	13267.825
1257.42845	13430.225
1260.97859	13662.925
1264.52631	13906.025
1268.07163	14123.025
1271.61453	14332.125
1275.15503	14512.725
1278.69312	14602.425
1282.22882	14685.625
1285.76211	14775.625
1289.29301	14975.125
1292.82151	15184.325
1296.34761	15461.525
1299.87133	15830.225
1303.39266	16395.025
1306.9116	17218.525
1310.42815	18039.325
1313.94233	18489.825
1317.45412	18319.125
1320.96354	17803.025
1324.47058	17275.925
1327.97525	16775.025
1331.47754	16474.625
1334.97747	16375.925
1338.47502	16451.825
1341.97022	16740.825
1345.46305	17197.125
1348.95352	17778.825
1352.44163	18415.925
1355.92738	19072.625
1359.41078	19986.325
1362.89183	20999.125
1366.37053	20878.225
1369.84688	19155.825
1373.32088	17170.725
1376.79254	15775.625
1380.26186	14980.825
1383.72883	14542.425
1387.19347	14217.625
1390.65578	13896.525
1394.11575	13652.825
1397.57339	13435.525
1401.0287	13310.225
1404.48168	13193.725
1407.93234	13181.725
1411.38068	13156.525
1414.82669	13148.825
1418.27039	13096.125
1421.71177	12994.825
1425.15083	12851.725
1428.58758	12715.525
1432.02203	12701.525
1435.45416	12738.525
1438.88399	12796.625
1442.31151	12813.425
1445.73673	12870.825
1449.15965	12924.325
1452.58027	12935.725
1455.9986	12943.125
1459.41463	12994.925
1462.82837	13112.025
1466.23982	13326.425
1469.64898	13584.125
1473.05586	13783.725
1476.46045	13954.525
1479.86276	14082.425
1483.26279	14254.825
1486.66054	14447.325
1490.05602	14711.825
1493.44922	15155.025
1496.84016	15856.925
1500.22882	16875.825
1503.61521	18230.625
1506.99934	19553.725
1510.38121	20450.625
1513.76081	20402.425
1517.13816	19389.925
1520.51324	17931.325
1523.88607	16633.225
1527.25665	15791.925
1530.62498	15280.725
1533.99105	14975.825
1537.35488	14721.225
1540.71647	14569.725
1544.07581	14397.125
1547.4329	14216.325
1550.78776	14131.125
1554.14038	14031.625
1557.49077	14060.325
1560.83892	14180.325
1564.18484	14410.025
1567.52853	14670.525
1570.86999	14918.925
1574.20922	15064.625
1577.54624	15012.325
1580.88103	14615.925
1584.2136	14018.225
1587.54395	13666.125
1590.87208	13627.725
1594.19801	13840.425
1597.52172	14296.225
1600.84321	14468.525
1604.16251	14325.825
1607.47959	14008.725
1610.79447	13657.925
1614.10715	13237.125
1617.41763	12781.925
1620.7259	12396.425
1624.03199	12160.725
1627.33587	12038.025
1630.63757	12090.125
1633.93707	12270.025
1637.23439	12689.725
1640.52951	13289.125
1643.82246	14228.325
1647.11321	15345.425
1650.40179	16102.425
1653.68819	16011.025
1656.97241	14985.625
1660.25446	13620.125
1663.53433	12579.425
1666.81203	11868.425
1670.08756	11425.325
1673.36092	11150.725
1676.63211	10999.525
1679.90115	10877.725
1683.16801	10763.825
1686.43272	10690.325
1689.69527	10598.925
1692.95567	10548.825
1696.2139	10502.425
1699.46999	10502.625
1702.72392	10472.025
1705.97571	10462.125
1709.22535	10448.225
1712.47284	10419.125
1715.71819	10437.225
1718.96139	10413.725
1722.20246	10370.425
1725.44139	10340.425
1728.67818	10302.325
1731.91284	10248.225
1735.14537	10200.325
1738.37576	10157.225
1741.60403	10129.825
1744.83017	10110.125
1748.05418	10055.725
1751.27607	10039.725
1754.49584	10036.925
1757.71349	10015.425
1760.92903	10000.125
1764.14244	10031.825
1767.35375	10001.525
1770.56294	9961.425
1773.77002	9957.425
1776.97499	9949.025
1780.17785	9938.225
1783.37861	9924.025
1786.57727	9880.425
1789.77382	9879.025
1792.96828	9843.525
1796.16064	9828.425
1799.3509	9819.025
1802.53907	9798.425
1805.72514	9766.525
1808.90913	9758.025
1812.09102	9711.025
1815.27083	9699.725
1818.44856	9680.025
1821.6242	9642.725
1824.79776	9663.225
1827.96924	9616.225
1831.13864	9611.425
1834.30597	9594.325
1837.47122	9577.125
1840.6344	9566.925
1843.7955	9555.025
1846.95454	9558.825
1850.11151	9547.925
1853.26642	9517.825
1856.41926	9536.625
1859.57004	9529.025
1862.71876	9501.525
1865.86542	9476.425
1869.01003	9477.525
1872.15258	9456.725
1875.29308	9444.625
1878.43152	9425.225
1881.56792	9411.525
1884.70227	9395.925
1887.83457	9404.525
1890.96482	9369.925
1894.09304	9373.525
1897.21921	9380.025
1900.34335	9350.725
1903.46544	9324.125
1906.58551	9345.725
1909.70353	9335.125
1912.81953	9296.225
1915.93349	9303.425
1919.04543	9288.625
1922.15534	9275.125
1925.26322	9226.625
1928.36908	9206.425
1931.47292	9195.425
1934.57473	9157.125
1937.67453	9140.525
1940.77232	9109.525
1943.86808	9114.725
1946.96184	9086.225
1950.05358	9066.325
1953.14331	9033.025
1956.23103	8996.425
1959.31675	8984.925
1962.40046	8954.925
1965.48217	8959.725
1968.56188	8908.725
1971.63959	8889.025
1974.7153	8866.825
1977.78901	8865.125
1980.86073	8799.525
1983.93046	8787.525
1986.99819	8770.425
1990.06394	8725.025
1993.1277	8670.925
1996.18947	8659.425
1999.24925	8629.825
2002.30706	8600.425
2005.36288	8566.125
2008.41672	8535.025
2011.46859	8515.525
2014.51848	8487.125
2017.56639	8470.625
2020.61233	8442.625
2023.6563	8410.725
2026.6983	8405.225
2029.73833	8370.025
2032.7764	8354.225
2035.8125	8311.725
2038.84664	8306.225
2041.87881	8288.725
2044.90903	8279.525
2047.93729	8255.425
2050.96359	8222.825
2053.98794	8208.925
2057.01034	8202.625
2060.03078	8175.825
2063.04927	8182.425
2066.06582	8168.825
2069.08042	8155.625
2072.09307	8144.225
2075.10378	8142.425
2078.11255	8150.225
2081.11938	8152.025
2084.12426	8126.525
2087.12722	8133.025
2090.12824	8135.225
2093.12732	8155.525
2096.12447	8148.325
2099.11969	8162.625
2102.11299	8131.725
2105.10435	8145.525
2108.09379	8121.825
2111.08131	8144.825
2114.0669	8156.025
2117.05057	8167.825
2120.03233	8142.925
2123.01216	8169.925
2125.99008	8175.525
2128.96609	8169.125
2131.94018	8171.025
2134.91236	8188.525
2137.88263	8175.825
2140.851	8176.425
2143.81746	8218.725
2146.78201	8176.925
2149.74466	8182.825
2152.7054	8214.725
2155.66425	8201.825
2158.6212	8197.725
2161.57625	8184.625
2164.52941	8178.825
2167.48067	8165.425
2170.43004	8136.725
2173.37752	8166.025
2176.32311	8140.825
2179.26681	8136.325
2182.20863	8116.125
2185.14856	8138.525
2188.08661	8102.225
2191.02278	8118.925
2193.95707	8098.525
2196.88948	8083.925
2199.82001	8071.925
2202.74867	8083.425
2205.67545	8052.325
2208.60037	8047.825
2211.52341	8032.625
2214.44458	8019.525
2217.36388	8020.125
2220.28132	7992.625
2223.1969	7974.425
2226.11061	7974.525
2229.02246	7914.825
2231.93245	7932.925
2234.84058	7892.425
2237.74686	7877.425
2240.65128	7873.825
2243.55385	7847.725
2246.45456	7833.425
2249.35343	7827.225
2252.25044	7841.725
2255.14561	7814.825
2258.03893	7829.025
2260.93041	7793.325
2263.82004	7773.425
2266.70783	7769.225
2269.59378	7756.125
2272.4779	7715.925
2275.36017	7705.625
2278.24061	7697.425
2281.11922	7686.225
2283.996	7678.225
2286.87094	7660.025
2289.74405	7633.525
2292.61534	7627.325
2295.4848	7622.925
2298.35243	7609.225
2301.21824	7597.525
2304.08223	7622.625
2306.94439	7580.825
2309.80474	7565.725
2312.66327	7558.825
2315.51999	7532.525
2318.37489	7524.625
2321.22797	7522.425
2324.07925	7504.525
2326.92871	7474.225
2329.77637	7489.025
2332.62222	7458.225
2335.46626	7470.225
2338.3085	7443.425
2341.14893	7456.125
2343.98756	7436.325
2346.8244	7412.225
2349.65943	7420.825
2352.49267	7406.625
2355.32411	7414.525
2358.15376	7398.225
2360.98161	7388.625
2363.80768	7400.525
2366.63195	7401.425
2369.45444	7385.225
2372.27514	7387.425
2375.09405	7363.625
2377.91118	7353.625
2380.72652	7366.425
2383.54009	7324.425
2386.35187	7306.425
2389.16188	7283.525
2391.97011	7283.825
2394.77657	7273.125
2397.58125	7238.425
2400.38416	7240.425
2403.18529	7201.625
2405.98466	7211.525
2408.78226	7191.525
2411.57809	7180.825
2414.37216	7155.825
2417.16446	7143.325
2419.955	7114.725
2422.74378	7114.125
2425.5308	7113.325
2428.31606	7108.525
2431.09956	7094.225
2433.88131	7073.525
2436.6613	7081.725
2439.43954	7080.925
2442.21603	7085.925
2444.99077	7077.825
2447.76377	7068.325
2450.53501	7062.025
2453.30451	7038.225
2456.07226	7013.525
2458.83827	7026.025
2461.60254	7014.725
2464.36507	7019.425
2467.12586	7015.725
2469.88492	7025.725
2472.64224	7030.325
2475.39782	7014.125
2478.15167	6999.525
2480.90379	6977.425
2483.65417	6976.325
2486.40283	6992.625
2489.14976	6998.225
2491.89497	6964.125
2494.63845	6975.725
2497.3802	6975.025
2500.12024	6984.225
2502.85855	6959.825
2505.59514	6924.225
2508.33002	6946.225
2511.06318	6926.525
2513.79462	6917.025
2516.52435	6882.425
2519.25237	6866.525
2521.97867	6877.625
2524.70327	6860.725
2527.42616	6852.425
2530.14734	6840.825
2532.86681	6822.825
2535.58458	6802.425
2538.30065	6799.925
2541.01501	6779.425
2543.72768	6753.225
2546.43864	6761.825
2549.14791	6735.925
2551.85548	6719.325
2554.56136	6749.125
2557.26554	6709.825
2559.96803	6709.625
2562.66883	6692.325
2565.36794	6686.025
2568.06536	6686.625
2570.7611	6670.825
2573.45514	6655.925
2576.14751	6640.225
2578.83819	6621.825
2581.52719	6609.725
2584.21451	6593.725
2586.90015	6584.825
2589.58411	6561.525
2592.2664	6542.225
2594.94701	6537.225
2597.62594	6527.025
2600.30321	6511.625
2602.9788	6483.525
2605.65273	6492.125
2608.32498	6481.525
2610.99557	6460.225
2613.66449	6462.025
2616.33175	6452.725
2618.99734	6429.625
2621.66128	6421.425
2624.32355	6403.225
2626.98416	6406.625
2629.64311	6407.625
2632.30041	6390.525
2634.95605	6375.925
2637.61004	6366.525
2640.26238	6368.725
2642.91306	6365.925
2645.56209	6342.525
2648.20948	6350.025
2650.85521	6331.625
2653.4993	6325.625
2656.14175	6340.925
2658.78255	6330.925
2661.42171	6318.825
2664.05923	6331.925
2666.6951	6322.025
2669.32934	6313.425
2671.96194	6314.325
2674.59291	6302.325
2677.22224	6319.125
2679.84993	6333.525
2682.476	6296.825
2685.10043	6310.225
2687.72324	6290.725
2690.34441	6312.125
2692.96396	6307.725
2695.58188	6294.525
2698.19818	6300.025
2700.81285	6289.025
2703.4259	6273.825
2706.03733	6287.025
2708.64714	6278.925
2711.25533	6301.925
2713.86191	6285.625
2716.46687	6275.725
2719.07021	6270.425
2721.67194	6263.525
2724.27206	6235.725
2726.87057	6246.925
2729.46747	6246.725
2732.06276	6259.725
2734.65644	6263.825
2737.24852	6237.725
2739.83899	6228.725
2742.42786	6234.125
2745.01513	6221.425
2747.60079	6206.325
2750.18486	6184.525
2752.76733	6195.125
2755.3482	6184.425
2757.92747	6173.725
2760.50515	6165.725
2763.08123	6168.425
2765.65573	6148.725
2768.22863	6159.525
2770.79994	6129.725
2773.36967	6131.925
2775.9378	6104.025
2778.50435	6094.625
2781.06932	6091.125
2783.6327	6078.025
2786.1945	6073.025
2788.75471	6066.725
2791.31335	6055.425
2793.87041	6045.825
2796.42589	6014.025
2798.97979	6006.925
2801.53212	5995.225
2804.08288	6004.325
2806.63206	5972.425
2809.17967	5986.525
2811.72571	5967.825
2814.27018	5952.725
2816.81308	5940.425
2819.35442	5929.625
2821.89419	5918.925
2824.43239	5925.725
2826.96904	5900.325
2829.50412	5904.725
2832.03763	5893.025
2834.56959	5881.325
2837.1	5882.125
2839.62884	5887.025
2842.15613	5857.125
2844.68186	5853.825
2847.20604	5850.125
2849.72867	5839.325
2852.24974	5855.125
2854.76927	5838.325
2857.28724	5818.125
2859.80367	5797.625
2862.31855	5803.225
2864.83189	5800.725
2867.34368	5807.125
2869.85393	5812.425
2872.36264	5804.825
2874.8698	5801.825
2877.37543	5805.425
2879.87952	5805.325
2882.38207	5785.125
2884.88308	5778.525
2887.38256	5781.925
2889.88051	5764.525
2892.37692	5776.625
2894.8718	5744.125
2897.36515	5767.825
2899.85698	5760.125
2902.34727	5772.125
2904.83604	5783.625
2907.32328	5779.725
2909.809	5776.625
2912.29319	5772.425
2914.77587	5752.725
2917.25702	5746.025
2919.73665	5750.925
2922.21476	5769.625
2924.69136	5767.025
2927.16644	5736.325
2929.64	5756.625
2932.11205	5745.725
2934.58258	5715.325
2937.05161	5719.625
2939.51912	5711.925
2941.98513	5714.125
2944.44962	5685.825
2946.91261	5677.325
2949.37409	5688.725
2951.83407	5684.025
2954.29254	5674.525
2956.74951	5653.925
2959.20498	5664.425
2961.65895	5652.925
2964.11142	5652.025
2966.56239	5648.325
2969.01186	5645.625
2971.45984	5616.825
2973.90632	5613.825
2976.35131	5598.825
2978.7948	5603.825
2981.23681	5586.425
2983.67732	5565.025
2986.11635	5565.025
2988.55388	5564.225
2990.98993	5547.825
2993.4245	5548.325
2995.85758	5551.925
2998.28917	5523.125
3000.71928	5531.725
3003.14791	5510.725
3005.57506	5509.225
3008.00073	5490.025
3010.42493	5492.325
3012.84764	5484.525
3015.26888	5477.025
3017.68865	5462.625
3020.10694	5460.025
3022.52376	5442.525
3024.9391	5440.625
3027.35298	5422.125
3029.76539	5417.825
3032.17632	5407.625
3034.5858	5408.525
3036.9938	5417.125
3039.40034	5384.825
3041.80542	5370.725
3044.20903	5352.825
3046.61118	5350.725
3049.01187	5333.325
3051.4111	5322.025
3053.80888	5307.325
3056.20519	5308.225
3058.60005	5297.525
3060.99345	5299.325
3063.3854	5288.725
3065.7759	5289.225
3068.16494	5297.825
3070.55254	5265.725
3072.93868	5255.025
3075.32338	5232.825
3077.70662	5245.925
3080.08842	5249.625
3082.46878	5243.825
3084.84769	5221.825
3087.22515	5213.825
3089.60118	5214.825
3091.97576	5208.725
3094.3489	5203.825
3096.72061	5216.025
3099.09087	5207.425
3101.4597	5204.225
3103.82709	5210.425
3106.19305	5194.425
3108.55757	5205.525
3110.92066	5187.225
3113.28232	5175.625
3115.64255	5156.125
3118.00134	5163.425
3120.35871	5146.625
3122.71466	5141.225
3125.06917	5138.025
3127.42226	5144.025
3129.77393	5140.825
3132.12417	5143.925
3134.47299	5136.625
3136.82039	5131.825
3139.16636	5132.425
3141.51092	5154.125
3143.85406	5139.825
3146.19579	5152.025
3148.53609	5144.225
3150.87499	5151.625
3153.21246	5167.025
3155.54853	5152.725
3157.88318	5150.425
3160.21642	5147.225
3162.54826	5120.125
3164.87868	5142.425
3167.2077	5126.225
3169.5353	5142.425
3171.86151	5141.725
3174.18631	5126.925
3176.5097	5111.925
3178.83169	5142.225
3181.15228	5134.125
3183.47147	5120.625
3185.78926	5110.425
3188.10565	5129.725
