Data from AgNP_FTO_APTES_UA_100uM_CRN_1uM_R6G_10uM_NaF_0.1M_Addition_RamanShift__21__12-12-40-181.txt Node

Date: Thu Mar 24 12:12:40 GMT 2022
User: TCL
Spectrometer: QEP01345
Trigger mode: 4
Integration Time (sec): 7.000000E0
Scans to average: 10
Electric dark correction enabled: true
Nonlinearity correction enabled: false
Boxcar width: 0
XAxis mode: Raman Shifts
Number of Pixels in Spectrum: 1044
>>>>>Begin Spectral Data<<<<<
46.04893	-0.8875
50.45542	-0.0875
54.85868	-1.2875
59.25871	0.4125
63.6555	51.3125
68.04907	54.7125
72.43941	52.9125
76.82654	56.7125
81.21044	62.7125
85.59113	63.6125
89.96862	63.8125
94.34289	64.7125
98.71396	68.0125
103.08183	67.1125
107.4465	69.5125
111.80798	76.6125
116.16626	73.6125
120.52136	74.7125
124.87327	78.8125
129.222	84.9125
133.56755	92.2125
137.90993	97.3125
142.24913	115.4125
146.58517	122.5125
150.91804	144.3125
155.24774	175.5125
159.57429	222.4125
163.89768	289.5125
168.21792	387.0125
172.53501	521.3125
176.84895	736.6125
181.15975	1026.5125
185.46741	1451.8125
189.77193	1999.1125
194.07331	2663.3125
198.37157	3439.8125
202.6667	4263.7125
206.9587	5073.3125
211.24758	5919.6125
215.53334	6822.9125
219.81599	7836.2125
224.09553	8940.6125
228.37195	10177.3125
232.64527	11560.1125
236.91549	12935.3125
241.18261	14165.5125
245.44663	15197.6125
249.70755	15954.3125
253.96539	16619.6125
258.22014	17260.4125
262.4718	17769.4125
266.72039	18170.5125
270.96589	18243.0125
275.20832	18123.4125
279.44768	17892.0125
283.68397	17700.3125
287.91719	17536.7125
292.14735	17591.6125
296.37445	17842.7125
300.59849	18316.8125
304.81948	18939.3125
309.03742	19370.8125
313.25231	19366.3125
317.46415	18739.8125
321.67296	17666.0125
325.87872	16719.9125
330.08145	16201.0125
334.28114	16131.4125
338.47781	16314.5125
342.67145	16659.5125
346.86207	17208.4125
351.04966	17966.4125
355.23424	18808.0125
359.4158	19425.2125
363.59435	19722.4125
367.76989	19774.1125
371.94243	19679.9125
376.11196	19638.2125
380.27849	19558.0125
384.44203	19426.5125
388.60257	19348.3125
392.76012	19304.8125
396.91468	19467.0125
401.06626	19875.2125
405.21485	20127.9125
409.36047	19803.2125
413.50311	18939.7125
417.64277	18214.6125
421.77947	17887.7125
425.9132	17856.5125
430.04396	17965.9125
434.17176	18100.6125
438.2966	18420.2125
442.41849	19049.0125
446.53742	19907.5125
450.6534	20758.7125
454.76644	21219.4125
458.87653	21158.3125
462.98368	20729.5125
467.08789	20226.5125
471.18916	19685.6125
475.2875	19229.8125
479.38291	18836.8125
483.4754	18596.8125
487.56496	18252.6125
491.6516	17841.6125
495.73531	17548.7125
499.81612	17389.8125
503.89401	17540.5125
507.96899	17675.7125
512.04106	17698.0125
516.11023	17650.5125
520.1765	17617.9125
524.23987	17539.4125
528.30034	17445.3125
532.35792	17269.2125
536.41261	16970.9125
540.46441	16568.1125
544.51333	16386.8125
548.55936	16619.6125
552.60252	17245.9125
556.64279	18046.2125
560.6802	18636.0125
564.71473	19067.0125
568.7464	19922.8125
572.7752	20788.5125
576.80114	20826.0125
580.82422	20569.7125
584.84444	20718.5125
588.86181	21319.3125
592.87633	22303.7125
596.888	22637.1125
600.89682	22032.8125
604.9028	22904.4125
608.90594	27655.2125
612.90624	33564.2125
616.90371	31469.8125
620.89834	22352.9125
624.89015	17865.9125
628.87913	17135.4125
632.86528	17337.2125
636.84862	17572.0125
640.82913	17134.4125
644.80683	16212.7125
648.78172	15499.4125
652.75379	15448.5125
656.72306	16060.0125
660.68952	16864.8125
664.65319	16690.4125
668.61405	15896.4125
672.57211	15545.9125
676.52738	15555.5125
680.47986	15506.9125
684.42955	15310.3125
688.37646	15125.8125
692.32058	15210.3125
696.26192	15493.2125
700.20048	15782.9125
704.13626	16035.1125
708.06928	16055.0125
711.99952	15912.0125
715.927	15823.6125
719.85171	15936.2125
723.77365	15927.0125
727.69284	15702.6125
731.60928	15524.7125
735.52295	15514.0125
739.43388	15635.2125
743.34206	15726.1125
747.24749	15841.1125
751.15017	16006.0125
755.05012	16375.7125
758.94733	17371.6125
762.8418	19560.8125
766.73354	23326.1125
770.62254	26867.0125
774.50882	27897.9125
778.39237	26074.5125
782.27321	22460.4125
786.15132	19120.2125
790.02671	17053.7125
793.89938	16026.1125
797.76935	15566.8125
801.6366	15416.2125
805.50115	15264.5125
809.36299	15103.4125
813.22213	14961.1125
817.07857	14893.9125
820.93231	14821.7125
824.78336	14812.6125
828.63172	14829.4125
832.47738	14849.7125
836.32036	14828.8125
840.16066	14770.8125
843.99827	14720.9125
847.8332	14695.8125
851.66546	14689.1125
855.49504	14677.5125
859.32195	14694.3125
863.1462	14616.5125
866.96777	14526.3125
870.78668	14488.1125
874.60293	14518.0125
878.41652	14570.1125
882.22745	14670.4125
886.03573	14819.8125
889.84136	14828.7125
893.64433	14713.6125
897.44466	14618.4125
901.24235	14570.8125
905.0374	14425.8125
908.8298	14325.6125
912.61957	14247.0125
916.40671	14372.5125
920.19121	14679.9125
923.97308	14997.8125
927.75233	15137.7125
931.52895	15099.4125
935.30295	14799.7125
939.07433	14282.3125
942.84309	13868.8125
946.60924	13671.9125
950.37278	13613.9125
954.13371	13549.0125
957.89203	13531.2125
961.64774	13481.8125
965.40086	13459.5125
969.15137	13416.5125
972.89929	13369.7125
976.64461	13314.4125
980.38733	13291.6125
984.12747	13317.4125
987.86502	13467.9125
991.59999	13690.3125
995.33237	14028.7125
999.06217	14615.5125
1002.78939	15362.3125
1006.51404	16010.8125
1010.23611	16441.5125
1013.95561	16716.3125
1017.67255	16668.4125
1021.38692	16246.2125
1025.09872	15690.6125
1028.80796	15396.1125
1032.51465	15521.2125
1036.21877	15841.5125
1039.92035	15990.9125
1043.61937	15976.7125
1047.31584	15799.8125
1051.00976	15537.2125
1054.70114	15412.2125
1058.38998	15417.1125
1062.07627	15485.4125
1065.76003	15649.6125
1069.44126	15873.4125
1073.11995	16156.3125
1076.79611	16508.5125
1080.46974	16875.3125
1084.14085	17374.8125
1087.80943	17928.0125
1091.47549	18127.8125
1095.13903	17898.3125
1098.80005	17351.3125
1102.45857	16723.1125
1106.11456	16415.8125
1109.76805	16478.0125
1113.41903	16824.3125
1117.06751	17414.8125
1120.71348	18166.7125
1124.35696	19020.6125
1127.99793	19608.0125
1131.63641	19462.6125
1135.2724	18688.0125
1138.90589	18027.8125
1142.5369	17661.8125
1146.16542	17418.0125
1149.79145	17379.9125
1153.415	17530.5125
1157.03607	17808.2125
1160.65467	18446.3125
1164.27079	19581.8125
1167.88443	21167.7125
1171.49561	23614.8125
1175.10432	27047.5125
1178.71056	31513.1125
1182.31434	35375.3125
1185.91565	36654.0125
1189.51451	35633.4125
1193.11091	33588.4125
1196.70485	31073.1125
1200.29634	28774.6125
1203.88538	26803.4125
1207.47197	25004.3125
1211.05612	23540.9125
1214.63782	22666.9125
1218.21708	22581.9125
1221.79391	22830.0125
1225.36829	22952.5125
1228.94024	22460.0125
1232.50976	21608.4125
1236.07685	20887.0125
1239.6415	20544.2125
1243.20374	20429.8125
1246.76355	20534.3125
1250.32093	20843.9125
1253.8759	21435.5125
1257.42845	22319.9125
1260.97859	23382.2125
1264.52631	24493.8125
1268.07163	25665.1125
1271.61453	26687.7125
1275.15503	27674.4125
1278.69312	28553.3125
1282.22882	29366.4125
1285.76211	30538.2125
1289.29301	32007.6125
1292.82151	33734.1125
1296.34761	35971.3125
1299.87133	38906.7125
1303.39266	42756.4125
1306.9116	47741.5125
1310.42815	52809.6125
1313.94233	55472.7125
1317.45412	54295.2125
1320.96354	51193.1125
1324.47058	47732.6125
1327.97525	44812.2125
1331.47754	42874.8125
1334.97747	41951.2125
1338.47502	41838.4125
1341.97022	42142.4125
1345.46305	42726.8125
1348.95352	43534.5125
1352.44163	45207.5125
1355.92738	48645.3125
1359.41078	54250.2125
1362.89183	59109.6125
1366.37053	57058.1125
1369.84688	48564.7125
1373.32088	40162.3125
1376.79254	35167.2125
1380.26186	32808.2125
1383.72883	31740.9125
1387.19347	31097.4125
1390.65578	30638.3125
1394.11575	30531.9125
1397.57339	31028.6125
1401.0287	31800.1125
1404.48168	32299.8125
1407.93234	32420.7125
1411.38068	31982.2125
1414.82669	30987.2125
1418.27039	29574.6125
1421.71177	27988.6125
1425.15083	26666.2125
1428.58758	26099.8125
1432.02203	26452.6125
1435.45416	27189.3125
1438.88399	27841.8125
1442.31151	28281.6125
1445.73673	28641.0125
1449.15965	29108.1125
1452.58027	29263.2125
1455.9986	29333.0125
1459.41463	29668.7125
1462.82837	30383.0125
1466.23982	31311.0125
1469.64898	32026.4125
1473.05586	32338.2125
1476.46045	32351.4125
1479.86276	32147.2125
1483.26279	32115.2125
1486.66054	32447.7125
1490.05602	33202.2125
1493.44922	34339.5125
1496.84016	35934.0125
1500.22882	38560.2125
1503.61521	42527.4125
1506.99934	46944.0125
1510.38121	50135.0125
1513.76081	50142.6125
1517.13816	46540.3125
1520.51324	41167.9125
1523.88607	36760.4125
1527.25665	34296.7125
1530.62498	33229.1125
1533.99105	32685.3125
1537.35488	32220.2125
1540.71647	31518.2125
1544.07581	30634.5125
1547.4329	29737.2125
1550.78776	29004.5125
1554.14038	28487.9125
1557.49077	28398.2125
1560.83892	28577.2125
1564.18484	29170.4125
1567.52853	29951.4125
1570.86999	30679.1125
1574.20922	31208.5125
1577.54624	31177.6125
1580.88103	30028.5125
1584.2136	28696.7125
1587.54395	28558.0125
1590.87208	29972.7125
1594.19801	32791.0125
1597.52172	36023.2125
1600.84321	37414.9125
1604.16251	35863.3125
1607.47959	32422.2125
1610.79447	28675.3125
1614.10715	25208.2125
1617.41763	22520.5125
1620.7259	20801.2125
1624.03199	19957.8125
1627.33587	19988.9125
1630.63757	20816.9125
1633.93707	22667.6125
1637.23439	26042.7125
1640.52951	31122.8125
1643.82246	37633.3125
1647.11321	43493.3125
1650.40179	45621.2125
1653.68819	41823.1125
1656.97241	34216.9125
1660.25446	26865.2125
1663.53433	21672.9125
1666.81203	18519.5125
1670.08756	16749.1125
1673.36092	15656.3125
1676.63211	14984.6125
1679.90115	14460.9125
1683.16801	14112.1125
1686.43272	13858.1125
1689.69527	13713.5125
1692.95567	13549.6125
1696.2139	13410.3125
1699.46999	13360.2125
1702.72392	13258.9125
1705.97571	13237.5125
1709.22535	13208.4125
1712.47284	13208.5125
1715.71819	13167.3125
1718.96139	13104.8125
1722.20246	13042.6125
1725.44139	12928.2125
1728.67818	12816.3125
1731.91284	12672.5125
1735.14537	12566.5125
1738.37576	12462.6125
1741.60403	12354.8125
1744.83017	12332.1125
1748.05418	12307.3125
1751.27607	12252.1125
1754.49584	12195.6125
1757.71349	12187.8125
1760.92903	12135.5125
1764.14244	12146.8125
1767.35375	12124.5125
1770.56294	12129.5125
1773.77002	12044.5125
1776.97499	12035.3125
1780.17785	11994.2125
1783.37861	11930.4125
1786.57727	11912.1125
1789.77382	11884.4125
1792.96828	11841.2125
1796.16064	11863.2125
1799.3509	11798.8125
1802.53907	11777.8125
1805.72514	11730.8125
1808.90913	11700.9125
1812.09102	11672.1125
1815.27083	11641.2125
1818.44856	11612.6125
1821.6242	11567.4125
1824.79776	11545.6125
1827.96924	11510.6125
1831.13864	11538.7125
1834.30597	11518.1125
1837.47122	11503.9125
1840.6344	11503.0125
1843.7955	11498.6125
1846.95454	11469.4125
1850.11151	11452.0125
1853.26642	11480.9125
1856.41926	11501.0125
1859.57004	11462.4125
1862.71876	11460.0125
1865.86542	11451.8125
1869.01003	11451.3125
1872.15258	11469.1125
1875.29308	11464.3125
1878.43152	11440.3125
1881.56792	11466.7125
1884.70227	11431.9125
1887.83457	11469.8125
1890.96482	11490.3125
1894.09304	11447.9125
1897.21921	11425.7125
1900.34335	11452.4125
1903.46544	11435.6125
1906.58551	11462.9125
1909.70353	11461.8125
1912.81953	11426.8125
1915.93349	11409.6125
1919.04543	11349.5125
1922.15534	11320.0125
1925.26322	11266.7125
1928.36908	11196.0125
1931.47292	11161.3125
1934.57473	11120.1125
1937.67453	11090.0125
1940.77232	11047.7125
1943.86808	11036.4125
1946.96184	10978.5125
1950.05358	10951.7125
1953.14331	10914.0125
1956.23103	10922.6125
1959.31675	10889.6125
1962.40046	10882.4125
1965.48217	10841.0125
1968.56188	10858.0125
1971.63959	10813.7125
1974.7153	10799.6125
1977.78901	10748.9125
1980.86073	10710.6125
1983.93046	10670.6125
1986.99819	10612.6125
1990.06394	10563.0125
1993.1277	10538.6125
1996.18947	10506.0125
1999.24925	10456.0125
2002.30706	10399.5125
2005.36288	10381.2125
2008.41672	10360.8125
2011.46859	10323.0125
2014.51848	10317.0125
2017.56639	10257.1125
2020.61233	10232.0125
2023.6563	10180.3125
2026.6983	10173.6125
2029.73833	10157.0125
2032.7764	10147.9125
2035.8125	10108.0125
2038.84664	10098.6125
2041.87881	10093.9125
2044.90903	10063.3125
2047.93729	10039.6125
2050.96359	10038.6125
2053.98794	9998.2125
2057.01034	9986.1125
2060.03078	9986.7125
2063.04927	9963.8125
2066.06582	9944.7125
2069.08042	9925.6125
2072.09307	9907.1125
2075.10378	9902.7125
2078.11255	9913.5125
2081.11938	9905.0125
2084.12426	9915.0125
2087.12722	9908.9125
2090.12824	9907.7125
2093.12732	9897.2125
2096.12447	9914.1125
2099.11969	9913.2125
2102.11299	9902.6125
2105.10435	9933.7125
2108.09379	9905.4125
2111.08131	9909.2125
2114.0669	9924.2125
2117.05057	9926.6125
2120.03233	9925.4125
2123.01216	9938.7125
2125.99008	9973.2125
2128.96609	9940.8125
2131.94018	9962.6125
2134.91236	9970.8125
2137.88263	9924.5125
2140.851	9912.6125
2143.81746	9953.5125
2146.78201	9937.4125
2149.74466	9926.2125
2152.7054	9920.1125
2155.66425	9897.2125
2158.6212	9882.3125
2161.57625	9879.6125
2164.52941	9877.1125
2167.48067	9858.3125
2170.43004	9863.6125
2173.37752	9868.1125
2176.32311	9875.5125
2179.26681	9874.5125
2182.20863	9876.9125
2185.14856	9878.0125
2188.08661	9845.6125
2191.02278	9848.6125
2193.95707	9838.7125
2196.88948	9839.6125
2199.82001	9821.5125
2202.74867	9800.3125
2205.67545	9783.7125
2208.60037	9773.6125
2211.52341	9793.6125
2214.44458	9776.0125
2217.36388	9742.1125
2220.28132	9755.0125
2223.1969	9709.8125
2226.11061	9691.9125
2229.02246	9684.1125
2231.93245	9656.8125
2234.84058	9645.8125
2237.74686	9636.6125
2240.65128	9620.8125
2243.55385	9607.1125
2246.45456	9587.0125
2249.35343	9565.7125
2252.25044	9599.1125
2255.14561	9546.9125
2258.03893	9574.4125
2260.93041	9534.4125
2263.82004	9519.7125
2266.70783	9513.7125
2269.59378	9493.2125
2272.4779	9449.3125
2275.36017	9409.4125
2278.24061	9414.5125
2281.11922	9412.2125
2283.996	9376.1125
2286.87094	9352.5125
2289.74405	9347.1125
2292.61534	9339.2125
2295.4848	9322.2125
2298.35243	9319.5125
2301.21824	9332.7125
2304.08223	9314.4125
2306.94439	9310.5125
2309.80474	9341.3125
2312.66327	9320.4125
2315.51999	9336.3125
2318.37489	9306.7125
2321.22797	9334.2125
2324.07925	9328.4125
2326.92871	9308.2125
2329.77637	9311.7125
2332.62222	9293.4125
2335.46626	9281.8125
2338.3085	9306.5125
2341.14893	9300.2125
2343.98756	9341.7125
2346.8244	9350.5125
2349.65943	9362.1125
2352.49267	9367.1125
2355.32411	9376.9125
2358.15376	9366.2125
2360.98161	9373.3125
2363.80768	9386.0125
2366.63195	9364.8125
2369.45444	9370.2125
2372.27514	9342.4125
2375.09405	9354.6125
2377.91118	9339.2125
2380.72652	9267.5125
2383.54009	9249.0125
2386.35187	9209.9125
2389.16188	9196.5125
2391.97011	9154.6125
2394.77657	9160.1125
2397.58125	9105.0125
2400.38416	9112.5125
2403.18529	9071.9125
2405.98466	9071.6125
2408.78226	9052.2125
2411.57809	9029.4125
2414.37216	9021.0125
2417.16446	9001.7125
2419.955	8991.9125
2422.74378	8978.2125
2425.5308	8963.7125
2428.31606	8962.5125
2431.09956	8973.0125
2433.88131	8950.8125
2436.6613	8976.2125
2439.43954	8981.9125
2442.21603	8987.0125
2444.99077	9009.3125
2447.76377	9000.7125
2450.53501	9008.4125
2453.30451	9036.0125
2456.07226	9009.6125
2458.83827	9029.5125
2461.60254	9025.5125
2464.36507	9035.1125
2467.12586	9022.3125
2469.88492	9045.6125
2472.64224	9029.6125
2475.39782	9013.8125
2478.15167	9071.7125
2480.90379	9053.9125
2483.65417	9106.7125
2486.40283	9092.4125
2489.14976	9107.5125
2491.89497	9155.4125
2494.63845	9156.4125
2497.3802	9158.4125
2500.12024	9152.0125
2502.85855	9171.7125
2505.59514	9128.9125
2508.33002	9092.1125
2511.06318	9084.6125
2513.79462	9063.9125
2516.52435	9024.0125
2519.25237	9001.0125
2521.97867	8979.1125
2524.70327	8983.7125
2527.42616	8957.6125
2530.14734	8949.5125
2532.86681	8937.8125
2535.58458	8964.8125
2538.30065	8942.6125
2541.01501	8950.6125
2543.72768	8954.7125
2546.43864	8952.0125
2549.14791	8942.6125
2551.85548	8956.0125
2554.56136	8929.5125
2557.26554	8912.2125
2559.96803	8932.9125
2562.66883	8937.6125
2565.36794	8935.2125
2568.06536	8926.2125
2570.7611	8931.5125
2573.45514	8901.6125
2576.14751	8909.5125
2578.83819	8910.2125
2581.52719	8935.4125
2584.21451	8917.4125
2586.90015	8902.6125
2589.58411	8890.6125
2592.2664	8880.8125
2594.94701	8860.2125
2597.62594	8862.4125
2600.30321	8851.6125
2602.9788	8870.1125
2605.65273	8856.6125
2608.32498	8878.8125
2610.99557	8885.6125
2613.66449	8908.1125
2616.33175	8899.7125
2618.99734	8920.0125
2621.66128	8923.4125
2624.32355	8920.5125
2626.98416	8929.0125
2629.64311	8935.9125
2632.30041	8923.7125
2634.95605	8911.3125
2637.61004	8904.7125
2640.26238	8874.3125
2642.91306	8916.4125
2645.56209	8891.0125
2648.20948	8883.5125
2650.85521	8899.6125
2653.4993	8883.8125
2656.14175	8896.1125
2658.78255	8914.0125
2661.42171	8925.3125
2664.05923	8939.7125
2666.6951	8947.6125
2669.32934	8961.3125
2671.96194	8958.7125
2674.59291	8972.0125
2677.22224	8962.3125
2679.84993	8971.0125
2682.476	8944.4125
2685.10043	8933.2125
2687.72324	8931.4125
2690.34441	8948.2125
2692.96396	8915.7125
2695.58188	8949.2125
2698.19818	8913.3125
2700.81285	8937.6125
2703.4259	8933.8125
2706.03733	8935.5125
2708.64714	8908.3125
2711.25533	8933.6125
2713.86191	8950.0125
2716.46687	8947.5125
2719.07021	8940.6125
2721.67194	8991.4125
2724.27206	8958.3125
2726.87057	8980.1125
2729.46747	8975.2125
2732.06276	8998.4125
2734.65644	8973.3125
2737.24852	8978.7125
2739.83899	8953.9125
2742.42786	8976.6125
2745.01513	8933.5125
2747.60079	8942.3125
2750.18486	8923.5125
2752.76733	8953.6125
2755.3482	8942.3125
2757.92747	8946.1125
2760.50515	8949.4125
2763.08123	8942.1125
2765.65573	8973.9125
2768.22863	8943.9125
2770.79994	8920.4125
2773.36967	8972.5125
2775.9378	8932.5125
2778.50435	8948.5125
2781.06932	8943.6125
2783.6327	8951.1125
2786.1945	8953.4125
2788.75471	8922.7125
2791.31335	8901.1125
2793.87041	8914.5125
2796.42589	8918.9125
2798.97979	8906.0125
2801.53212	8910.2125
2804.08288	8920.1125
2806.63206	8899.5125
2809.17967	8903.7125
2811.72571	8874.0125
2814.27018	8907.7125
2816.81308	8869.0125
2819.35442	8902.3125
2821.89419	8870.3125
2824.43239	8900.3125
2826.96904	8871.8125
2829.50412	8893.0125
2832.03763	8891.5125
2834.56959	8868.5125
2837.1	8854.4125
2839.62884	8852.8125
2842.15613	8856.9125
2844.68186	8869.7125
2847.20604	8844.9125
2849.72867	8854.4125
2852.24974	8864.4125
2854.76927	8845.1125
2857.28724	8873.4125
2859.80367	8870.2125
2862.31855	8868.3125
2864.83189	8876.1125
2867.34368	8874.6125
2869.85393	8882.1125
2872.36264	8907.2125
2874.8698	8920.1125
2877.37543	8902.7125
2879.87952	8908.4125
2882.38207	8887.0125
2884.88308	8880.0125
2887.38256	8914.7125
2889.88051	8898.2125
2892.37692	8893.5125
2894.8718	8889.8125
2897.36515	8884.3125
2899.85698	8916.2125
2902.34727	8935.4125
2904.83604	8895.7125
2907.32328	8946.4125
2909.809	8913.7125
2912.29319	8912.7125
2914.77587	8917.6125
2917.25702	8894.8125
2919.73665	8878.0125
2922.21476	8907.6125
2924.69136	8873.0125
2927.16644	8884.1125
2929.64	8842.3125
2932.11205	8825.4125
2934.58258	8777.5125
2937.05161	8768.7125
2939.51912	8802.8125
2941.98513	8767.8125
2944.44962	8761.9125
2946.91261	8713.6125
2949.37409	8745.7125
2951.83407	8759.4125
2954.29254	8751.7125
2956.74951	8716.6125
2959.20498	8698.5125
2961.65895	8666.5125
2964.11142	8656.7125
2966.56239	8641.2125
2969.01186	8614.9125
2971.45984	8581.4125
2973.90632	8571.7125
2976.35131	8546.5125
2978.7948	8512.2125
2981.23681	8478.7125
2983.67732	8470.7125
2986.11635	8434.0125
2988.55388	8418.1125
2990.98993	8398.3125
2993.4245	8382.3125
2995.85758	8392.2125
2998.28917	8351.6125
3000.71928	8324.6125
3003.14791	8336.4125
3005.57506	8331.8125
3008.00073	8311.5125
3010.42493	8313.3125
3012.84764	8284.5125
3015.26888	8279.7125
3017.68865	8258.7125
3020.10694	8248.4125
3022.52376	8206.3125
3024.9391	8208.1125
3027.35298	8200.6125
3029.76539	8164.9125
3032.17632	8154.0125
3034.5858	8117.2125
3036.9938	8145.1125
3039.40034	8128.8125
3041.80542	8104.3125
3044.20903	8099.4125
3046.61118	8073.6125
3049.01187	8061.7125
3051.4111	8041.8125
3053.80888	8038.2125
3056.20519	7997.5125
3058.60005	7966.4125
3060.99345	7967.2125
3063.3854	7943.6125
3065.7759	7942.8125
