Data from AgNP_FTO_APTES_UA_100uM_CRN_20uM_R6G_10uM_NaF_0.1M_Addition_RamanShift__23__16-52-40-502.txt Node

Date: Thu Mar 24 16:52:40 GMT 2022
User: TCL
Spectrometer: QEP01345
Trigger mode: 4
Integration Time (sec): 7.000000E0
Scans to average: 10
Electric dark correction enabled: true
Nonlinearity correction enabled: false
Boxcar width: 0
XAxis mode: Raman Shifts
Number of Pixels in Spectrum: 1044
>>>>>Begin Spectral Data<<<<<
46.04893	-0.475
50.45542	-0.675
54.85868	0.125
59.25871	-0.375
63.6555	41.725
68.04907	43.225
72.43941	43.425
76.82654	43.825
81.21044	52.425
85.59113	50.825
89.96862	55.625
94.34289	52.925
98.71396	59.625
103.08183	54.825
107.4465	59.625
111.80798	62.025
116.16626	60.825
120.52136	63.025
124.87327	61.725
129.222	71.025
133.56755	77.125
137.90993	83.325
142.24913	90.325
146.58517	97.825
150.91804	120.025
155.24774	149.425
159.57429	184.425
163.89768	241.025
168.21792	325.225
172.53501	450.525
176.84895	628.125
181.15975	887.825
185.46741	1246.725
189.77193	1720.425
194.07331	2318.025
198.37157	2997.425
202.6667	3710.625
206.9587	4448.225
211.24758	5183.225
215.53334	5960.625
219.81599	6825.925
224.09553	7817.625
228.37195	8912.025
232.64527	10120.725
236.91549	11317.325
241.18261	12365.125
245.44663	13217.025
249.70755	13870.725
253.96539	14435.125
258.22014	14926.525
262.4718	15376.725
266.72039	15673.825
270.96589	15840.625
275.20832	15734.725
279.44768	15492.825
283.68397	15188.225
287.91719	15006.725
292.14735	15027.325
296.37445	15346.225
300.59849	15903.125
304.81948	16588.025
309.03742	17097.825
313.25231	17076.625
317.46415	16497.425
321.67296	15473.225
325.87872	14531.425
330.08145	14038.725
334.28114	13960.525
338.47781	14180.125
342.67145	14499.125
346.86207	14987.625
351.04966	15681.825
355.23424	16471.525
359.4158	17091.425
363.59435	17379.625
367.76989	17480.525
371.94243	17419.625
376.11196	17288.825
380.27849	17189.625
384.44203	17045.525
388.60257	16903.925
392.76012	16834.125
396.91468	16957.325
401.06626	17289.825
405.21485	17550.325
409.36047	17179.125
413.50311	16322.325
417.64277	15533.325
421.77947	15077.425
425.9132	14944.225
430.04396	14937.025
434.17176	15060.825
438.2966	15251.225
442.41849	15657.725
446.53742	16220.325
450.6534	16770.425
454.76644	17077.325
458.87653	17045.025
462.98368	16783.625
467.08789	16473.725
471.18916	16062.025
475.2875	15694.825
479.38291	15390.325
483.4754	15071.325
487.56496	14831.125
491.6516	14638.025
495.73531	14537.025
499.81612	14517.025
503.89401	14648.625
507.96899	14760.825
512.04106	14923.525
516.11023	15091.025
520.1765	15177.225
524.23987	15157.225
528.30034	15036.525
532.35792	14905.625
536.41261	14667.225
540.46441	14347.225
544.51333	14238.725
548.55936	14383.725
552.60252	14781.325
556.64279	15272.625
560.6802	15549.425
564.71473	15720.425
568.7464	16238.825
572.7752	16683.025
576.80114	16487.725
580.82422	16187.125
584.84444	16222.725
588.86181	16568.525
592.87633	17042.425
596.888	17309.425
600.89682	17409.625
604.9028	18859.825
608.90594	23582.525
612.90624	29652.825
616.90371	27994.025
620.89834	19553.025
624.89015	15560.225
628.87913	14885.325
632.86528	15154.425
636.84862	15425.625
640.82913	15133.425
644.80683	14326.425
648.78172	13709.225
652.75379	13677.425
656.72306	14201.425
660.68952	14924.725
664.65319	14707.825
668.61405	13898.325
672.57211	13551.525
676.52738	13567.925
680.47986	13572.425
684.42955	13386.125
688.37646	13285.225
692.32058	13298.125
696.26192	13474.525
700.20048	13666.825
704.13626	13809.525
708.06928	13792.125
711.99952	13651.925
715.927	13624.125
719.85171	13711.825
723.77365	13758.725
727.69284	13708.825
731.60928	13561.425
735.52295	13564.525
739.43388	13569.225
743.34206	13660.825
747.24749	13717.325
751.15017	13753.025
755.05012	14017.725
758.94733	14773.425
762.8418	16685.225
766.73354	19901.225
770.62254	22993.425
774.50882	24197.925
778.39237	22792.525
782.27321	19548.725
786.15132	16479.825
790.02671	14712.825
793.89938	13875.625
797.76935	13484.725
801.6366	13340.225
805.50115	13249.425
809.36299	13164.725
813.22213	13085.925
817.07857	13037.925
820.93231	12981.225
824.78336	12973.025
828.63172	13033.325
832.47738	13031.225
836.32036	12988.125
840.16066	12920.525
843.99827	12932.125
847.8332	12893.625
851.66546	12853.225
855.49504	12878.225
859.32195	12880.925
863.1462	12814.525
866.96777	12785.925
870.78668	12745.625
874.60293	12809.425
878.41652	12850.825
882.22745	12974.625
886.03573	13060.925
889.84136	13044.825
893.64433	12954.325
897.44466	12883.725
901.24235	12827.325
905.0374	12751.425
908.8298	12663.525
912.61957	12617.925
916.40671	12679.625
920.19121	12816.125
923.97308	13010.325
927.75233	13180.925
931.52895	13250.525
935.30295	13028.125
939.07433	12645.025
942.84309	12313.825
946.60924	12138.425
950.37278	12062.425
954.13371	12046.425
957.89203	11988.325
961.64774	11944.925
965.40086	11921.725
969.15137	11883.225
972.89929	11816.025
976.64461	11804.425
980.38733	11806.625
984.12747	11820.225
987.86502	11932.725
991.59999	12052.925
995.33237	12270.325
999.06217	12623.025
1002.78939	13055.925
1006.51404	13430.225
1010.23611	13722.025
1013.95561	13877.625
1017.67255	13850.425
1021.38692	13628.825
1025.09872	13320.525
1028.80796	13163.225
1032.51465	13285.125
1036.21877	13472.425
1039.92035	13621.225
1043.61937	13581.725
1047.31584	13522.525
1051.00976	13385.425
1054.70114	13261.925
1058.38998	13222.025
1062.07627	13299.025
1065.76003	13385.425
1069.44126	13480.925
1073.11995	13669.125
1076.79611	13923.925
1080.46974	14260.125
1084.14085	14662.125
1087.80943	15099.925
1091.47549	15243.125
1095.13903	15014.225
1098.80005	14514.825
1102.45857	14072.325
1106.11456	13962.025
1109.76805	14090.625
1113.41903	14472.625
1117.06751	15080.125
1120.71348	15778.025
1124.35696	16575.925
1127.99793	17174.125
1131.63641	16926.325
1135.2724	16110.425
1138.90589	15398.525
1142.5369	14912.125
1146.16542	14646.525
1149.79145	14444.525
1153.415	14476.825
1157.03607	14644.825
1160.65467	15069.525
1164.27079	15814.225
1167.88443	16939.025
1171.49561	18628.125
1175.10432	21141.625
1178.71056	24422.025
1182.31434	27180.725
1185.91565	28019.925
1189.51451	27096.425
1193.11091	25277.025
1196.70485	23203.625
1200.29634	21589.825
1203.88538	20272.725
1207.47197	18969.025
1211.05612	17756.925
1214.63782	17060.725
1218.21708	16742.525
1221.79391	16803.325
1225.36829	16850.525
1228.94024	16719.625
1232.50976	16311.725
1236.07685	16032.025
1239.6415	15920.625
1243.20374	15936.525
1246.76355	16057.325
1250.32093	16259.625
1253.8759	16647.825
1257.42845	17176.925
1260.97859	17847.325
1264.52631	18587.025
1268.07163	19362.825
1271.61453	20055.425
1275.15503	20602.725
1278.69312	21010.925
1282.22882	21428.725
1285.76211	22155.225
1289.29301	23067.025
1292.82151	24124.025
1296.34761	25418.125
1299.87133	27352.725
1303.39266	30095.625
1306.9116	33923.725
1310.42815	37811.525
1313.94233	39497.825
1317.45412	38097.325
1320.96354	35172.525
1324.47058	32155.625
1327.97525	29633.625
1331.47754	27901.125
1334.97747	27181.725
1338.47502	27177.325
1341.97022	27742.825
1345.46305	28873.725
1348.95352	30601.725
1352.44163	32969.325
1355.92738	36570.525
1359.41078	42060.125
1362.89183	46834.725
1366.37053	44816.725
1369.84688	37102.625
1373.32088	29936.325
1376.79254	25794.125
1380.26186	23786.025
1383.72883	22682.625
1387.19347	21865.025
1390.65578	21110.325
1394.11575	20682.125
1397.57339	20591.125
1401.0287	20688.425
1404.48168	20861.425
1407.93234	20864.825
1411.38068	20687.525
1414.82669	20414.125
1418.27039	19928.025
1421.71177	19288.325
1425.15083	18620.525
1428.58758	18343.725
1432.02203	18615.425
1435.45416	19063.825
1438.88399	19385.725
1442.31151	19564.825
1445.73673	19745.225
1449.15965	19887.725
1452.58027	19891.225
1455.9986	19810.625
1459.41463	19845.325
1462.82837	20200.525
1466.23982	20836.825
1469.64898	21429.325
1473.05586	21905.225
1476.46045	22178.325
1479.86276	22342.225
1483.26279	22621.725
1486.66054	23064.525
1490.05602	23860.525
1493.44922	25079.825
1496.84016	27024.325
1500.22882	30062.225
1503.61521	34331.725
1506.99934	39040.725
1510.38121	42321.625
1513.76081	42119.525
1517.13816	38164.125
1520.51324	32713.125
1523.88607	28232.525
1527.25665	25519.925
1530.62498	24250.425
1533.99105	23472.625
1537.35488	22863.525
1540.71647	22315.225
1544.07581	21781.225
1547.4329	21337.325
1550.78776	21013.525
1554.14038	20884.425
1557.49077	21028.625
1560.83892	21389.125
1564.18484	22100.325
1567.52853	22884.025
1570.86999	23631.625
1574.20922	24087.125
1577.54624	23984.225
1580.88103	22694.125
1584.2136	21136.825
1587.54395	20433.625
1590.87208	20866.525
1594.19801	22345.325
1597.52172	24247.925
1600.84321	25072.725
1604.16251	24155.625
1607.47959	22382.725
1610.79447	20440.925
1614.10715	18594.325
1617.41763	17086.225
1620.7259	16032.925
1624.03199	15492.725
1627.33587	15528.825
1630.63757	16038.525
1633.93707	17165.025
1637.23439	19126.025
1640.52951	22208.825
1643.82246	26411.425
1647.11321	30733.325
1650.40179	32835.025
1653.68819	30777.925
1656.97241	25659.025
1660.25446	20489.425
1663.53433	16976.025
1666.81203	14921.425
1670.08756	13714.825
1673.36092	12962.725
1676.63211	12464.825
1679.90115	12140.625
1683.16801	11922.125
1686.43272	11711.525
1689.69527	11578.625
1692.95567	11471.725
1696.2139	11393.525
1699.46999	11329.025
1702.72392	11276.225
1705.97571	11239.125
1709.22535	11211.625
1712.47284	11203.225
1715.71819	11202.925
1718.96139	11173.725
1722.20246	11105.125
1725.44139	11007.425
1728.67818	10935.025
1731.91284	10828.025
1735.14537	10743.925
1738.37576	10677.825
1741.60403	10630.125
1744.83017	10584.725
1748.05418	10561.325
1751.27607	10518.325
1754.49584	10484.825
1757.71349	10472.525
1760.92903	10463.225
1764.14244	10436.725
1767.35375	10411.125
1770.56294	10358.625
1773.77002	10322.225
1776.97499	10277.125
1780.17785	10242.825
1783.37861	10221.225
1786.57727	10201.025
1789.77382	10175.125
1792.96828	10177.025
1796.16064	10143.425
1799.3509	10106.025
1802.53907	10086.925
1805.72514	10027.825
1808.90913	10021.425
1812.09102	9964.125
1815.27083	9964.225
1818.44856	9920.125
1821.6242	9912.425
1824.79776	9882.325
1827.96924	9854.525
1831.13864	9841.225
1834.30597	9836.725
1837.47122	9807.825
1840.6344	9792.425
1843.7955	9807.525
1846.95454	9800.025
1850.11151	9740.125
1853.26642	9754.625
1856.41926	9770.925
1859.57004	9741.625
1862.71876	9733.825
1865.86542	9728.925
1869.01003	9730.925
1872.15258	9729.925
1875.29308	9716.525
1878.43152	9714.025
1881.56792	9727.125
1884.70227	9724.325
1887.83457	9726.025
1890.96482	9708.725
1894.09304	9706.925
1897.21921	9691.025
1900.34335	9662.125
1903.46544	9657.725
1906.58551	9670.425
1909.70353	9667.125
1912.81953	9641.325
1915.93349	9633.925
1919.04543	9616.625
1922.15534	9542.125
1925.26322	9547.625
1928.36908	9529.125
1931.47292	9487.425
1934.57473	9476.725
1937.67453	9447.425
1940.77232	9431.125
1943.86808	9402.925
1946.96184	9358.125
1950.05358	9341.525
1953.14331	9305.425
1956.23103	9289.225
1959.31675	9251.325
1962.40046	9231.925
1965.48217	9227.225
1968.56188	9215.825
1971.63959	9209.525
1974.7153	9164.125
1977.78901	9142.025
1980.86073	9104.025
1983.93046	9059.025
1986.99819	9024.725
1990.06394	8989.525
1993.1277	8936.625
1996.18947	8942.125
1999.24925	8924.325
2002.30706	8870.325
2005.36288	8838.425
2008.41672	8814.225
2011.46859	8784.625
2014.51848	8749.925
2017.56639	8722.225
2020.61233	8671.425
2023.6563	8698.725
2026.6983	8664.125
2029.73833	8634.425
2032.7764	8617.025
2035.8125	8620.525
2038.84664	8587.425
2041.87881	8585.825
2044.90903	8556.625
2047.93729	8547.925
2050.96359	8542.325
2053.98794	8515.325
2057.01034	8517.125
2060.03078	8484.225
2063.04927	8447.125
2066.06582	8451.625
2069.08042	8467.625
2072.09307	8462.625
2075.10378	8446.525
2078.11255	8457.825
2081.11938	8457.625
2084.12426	8433.925
2087.12722	8450.025
2090.12824	8430.325
2093.12732	8440.625
2096.12447	8440.625
2099.11969	8446.225
2102.11299	8444.425
2105.10435	8459.325
2108.09379	8446.825
2111.08131	8465.825
2114.0669	8464.425
2117.05057	8472.725
2120.03233	8482.825
2123.01216	8492.925
2125.99008	8516.325
2128.96609	8495.125
2131.94018	8512.425
2134.91236	8491.525
2137.88263	8492.625
2140.851	8512.125
2143.81746	8510.325
2146.78201	8487.025
2149.74466	8481.025
2152.7054	8483.125
2155.66425	8468.725
2158.6212	8465.525
2161.57625	8440.525
2164.52941	8429.225
2167.48067	8439.725
2170.43004	8453.525
2173.37752	8453.325
2176.32311	8447.225
2179.26681	8439.025
2182.20863	8433.625
2185.14856	8460.025
2188.08661	8435.325
2191.02278	8451.625
2193.95707	8448.625
2196.88948	8436.125
2199.82001	8432.425
2202.74867	8413.625
2205.67545	8414.825
2208.60037	8434.225
2211.52341	8393.825
2214.44458	8399.925
2217.36388	8363.425
2220.28132	8366.925
2223.1969	8350.925
2226.11061	8333.525
2229.02246	8296.525
2231.93245	8299.025
2234.84058	8292.225
2237.74686	8279.725
2240.65128	8280.625
2243.55385	8251.125
2246.45456	8256.725
2249.35343	8236.925
2252.25044	8230.825
2255.14561	8222.325
2258.03893	8237.325
2260.93041	8215.925
2263.82004	8214.525
2266.70783	8191.125
2269.59378	8166.225
2272.4779	8148.425
2275.36017	8129.025
2278.24061	8122.825
2281.11922	8083.125
2283.996	8063.425
2286.87094	8070.025
2289.74405	8042.225
2292.61534	8047.525
2295.4848	8030.225
2298.35243	8019.025
2301.21824	8004.925
2304.08223	7996.525
2306.94439	8005.025
2309.80474	8023.625
2312.66327	8034.625
2315.51999	8021.325
2318.37489	8005.225
2321.22797	8009.925
2324.07925	8001.925
2326.92871	8005.125
2329.77637	8020.925
2332.62222	7966.225
2335.46626	7957.525
2338.3085	7969.525
2341.14893	7967.925
2343.98756	7985.725
2346.8244	8001.225
2349.65943	8020.425
2352.49267	8035.125
2355.32411	8023.625
2358.15376	8026.725
2360.98161	8027.025
2363.80768	8052.625
2366.63195	8053.525
2369.45444	8053.825
2372.27514	8031.225
2375.09405	8019.925
2377.91118	7982.125
2380.72652	7979.225
2383.54009	7950.825
2386.35187	7940.325
2389.16188	7889.325
2391.97011	7878.025
2394.77657	7831.525
2397.58125	7820.925
2400.38416	7828.425
2403.18529	7799.825
2405.98466	7784.025
2408.78226	7751.025
2411.57809	7749.325
2414.37216	7729.725
2417.16446	7729.325
2419.955	7712.425
2422.74378	7726.025
2425.5308	7723.025
2428.31606	7719.925
2431.09956	7700.925
2433.88131	7710.225
2436.6613	7701.225
2439.43954	7725.425
2442.21603	7703.325
2444.99077	7691.525
2447.76377	7709.925
2450.53501	7719.125
2453.30451	7716.225
2456.07226	7713.125
2458.83827	7717.225
2461.60254	7720.225
2464.36507	7713.225
2467.12586	7721.125
2469.88492	7731.925
2472.64224	7723.825
2475.39782	7750.925
2478.15167	7779.325
2480.90379	7771.125
2483.65417	7781.025
2486.40283	7818.625
2489.14976	7833.925
2491.89497	7842.125
2494.63845	7826.825
2497.3802	7816.825
2500.12024	7816.625
2502.85855	7801.425
2505.59514	7797.525
2508.33002	7759.825
2511.06318	7719.825
2513.79462	7706.525
2516.52435	7673.925
2519.25237	7636.625
2521.97867	7642.825
2524.70327	7643.825
2527.42616	7636.225
2530.14734	7611.225
2532.86681	7624.025
2535.58458	7611.825
2538.30065	7587.125
2541.01501	7622.825
2543.72768	7601.825
2546.43864	7601.625
2549.14791	7600.325
2551.85548	7590.425
2554.56136	7589.025
2557.26554	7571.825
2559.96803	7567.125
2562.66883	7555.825
2565.36794	7538.125
2568.06536	7550.025
2570.7611	7542.525
2573.45514	7534.025
2576.14751	7510.025
2578.83819	7513.325
2581.52719	7507.025
2584.21451	7495.325
2586.90015	7520.625
2589.58411	7515.825
2592.2664	7502.925
2594.94701	7496.025
2597.62594	7505.725
2600.30321	7469.525
2602.9788	7492.225
2605.65273	7471.325
2608.32498	7476.225
2610.99557	7480.225
2613.66449	7483.725
2616.33175	7484.925
2618.99734	7491.125
2621.66128	7479.725
2624.32355	7484.225
2626.98416	7478.425
2629.64311	7479.825
2632.30041	7456.325
2634.95605	7463.225
2637.61004	7455.125
2640.26238	7452.325
2642.91306	7461.225
2645.56209	7430.125
2648.20948	7424.725
2650.85521	7421.925
2653.4993	7441.325
2656.14175	7432.425
2658.78255	7455.425
2661.42171	7451.525
2664.05923	7483.025
2666.6951	7467.425
2669.32934	7487.325
2671.96194	7496.025
2674.59291	7506.425
2677.22224	7495.525
2679.84993	7460.525
2682.476	7458.925
2685.10043	7454.325
2687.72324	7465.125
2690.34441	7433.525
2692.96396	7455.125
2695.58188	7430.625
2698.19818	7427.125
2700.81285	7458.125
2703.4259	7443.025
2706.03733	7446.525
2708.64714	7455.125
2711.25533	7444.125
2713.86191	7480.125
2716.46687	7485.725
2719.07021	7485.225
2721.67194	7476.025
2724.27206	7483.225
2726.87057	7470.225
2729.46747	7486.825
2732.06276	7484.525
2734.65644	7455.525
2737.24852	7463.025
2739.83899	7420.825
2742.42786	7459.625
2745.01513	7424.725
2747.60079	7415.225
2750.18486	7415.525
2752.76733	7416.825
2755.3482	7395.225
2757.92747	7404.425
2760.50515	7369.725
2763.08123	7390.625
2765.65573	7382.625
2768.22863	7410.125
2770.79994	7382.625
2773.36967	7397.425
2775.9378	7382.325
2778.50435	7379.025
2781.06932	7382.425
2783.6327	7382.525
2786.1945	7389.025
2788.75471	7381.425
2791.31335	7371.625
2793.87041	7381.125
2796.42589	7364.525
2798.97979	7371.025
2801.53212	7339.025
2804.08288	7332.525
2806.63206	7336.925
2809.17967	7333.525
2811.72571	7324.125
2814.27018	7344.225
2816.81308	7344.825
2819.35442	7310.525
2821.89419	7328.925
2824.43239	7331.425
2826.96904	7313.425
2829.50412	7311.625
2832.03763	7305.125
2834.56959	7312.625
2837.1	7290.925
2839.62884	7293.825
2842.15613	7306.025
2844.68186	7312.925
2847.20604	7321.325
2849.72867	7319.925
2852.24974	7328.125
2854.76927	7347.525
2857.28724	7327.425
2859.80367	7327.425
2862.31855	7336.025
2864.83189	7328.425
2867.34368	7340.125
2869.85393	7349.525
2872.36264	7360.225
2874.8698	7337.725
2877.37543	7352.025
2879.87952	7334.425
2882.38207	7317.825
2884.88308	7322.425
2887.38256	7340.325
2889.88051	7322.225
2892.37692	7324.425
2894.8718	7324.225
2897.36515	7342.425
2899.85698	7333.625
2902.34727	7369.425
2904.83604	7338.025
2907.32328	7365.525
2909.809	7356.225
2912.29319	7373.825
2914.77587	7374.325
2917.25702	7361.325
2919.73665	7331.525
2922.21476	7333.525
2924.69136	7312.025
2927.16644	7312.125
2929.64	7300.325
2932.11205	7305.825
2934.58258	7247.025
2937.05161	7264.825
2939.51912	7262.925
2941.98513	7248.525
2944.44962	7224.425
2946.91261	7200.925
2949.37409	7207.025
2951.83407	7215.125
2954.29254	7203.625
2956.74951	7219.525
2959.20498	7222.925
2961.65895	7199.525
2964.11142	7200.925
2966.56239	7190.725
2969.01186	7169.025
2971.45984	7155.825
2973.90632	7154.725
2976.35131	7130.625
2978.7948	7101.125
2981.23681	7096.125
2983.67732	7093.425
2986.11635	7042.625
2988.55388	7039.225
2990.98993	7028.625
2993.4245	7018.325
2995.85758	7009.425
2998.28917	7011.125
3000.71928	6980.725
3003.14791	6986.825
3005.57506	6996.025
3008.00073	6968.225
3010.42493	6964.125
3012.84764	6960.025
3015.26888	6962.625
3017.68865	6950.425
3020.10694	6942.625
3022.52376	6902.325
3024.9391	6914.825
3027.35298	6883.425
3029.76539	6880.725
3032.17632	6855.625
3034.5858	6844.225
3036.9938	6840.725
3039.40034	6845.325
3041.80542	6848.725
3044.20903	6827.525
3046.61118	6815.325
3049.01187	6807.725
3051.4111	6778.325
3053.80888	6775.625
3056.20519	6770.425
3058.60005	6744.225
3060.99345	6730.025
3063.3854	6703.825
3065.7759	6702.425
3068.16494	6679.625
3070.55254	6680.525
3072.93868	6651.125
3075.32338	6653.925
3077.70662	6633.225
3080.08842	6602.725
3082.46878	6621.625
3084.84769	6592.025
3087.22515	6603.525
3089.60118	6605.325
3091.97576	6583.825
3094.3489	6597.025
3096.72061	6582.725
3099.09087	6611.225
3101.4597	6587.625
3103.82709	6562.025
3106.19305	6587.025
3108.55757	6590.725
3110.92066	6583.825
3113.28232	6600.325
3115.64255	6547.525
3118.00134	6535.825
3120.35871	6516.125
3122.71466	6503.725
3125.06917	6497.025
3127.42226	6508.325
3129.77393	6501.325
3132.12417	6469.725
3134.47299	6468.725
3136.82039	6486.925
3139.16636	6486.725
3141.51092	6490.825
3143.85406	6486.025
3146.19579	6480.925
3148.53609	6502.525
3150.87499	6501.625
3153.21246	6499.225
3155.54853	6510.125
3157.88318	6513.125
3160.21642	6496.325
3162.54826	6500.725
3164.87868	6509.325
3167.2077	6503.525
3169.5353	6491.025
3171.86151	6506.425
3174.18631	6516.925
3176.5097	6519.625
3178.83169	6496.625
3181.15228	6492.125
3183.47147	6469.925
3185.78926	6495.225
