Data from AgNP_FTO_APTES_UA_100uM_CRN_2uM_R6G_10uM_NaF_0.1M_Addition_RamanShift__0__13-44-50-288.txt Node

Date: Thu Mar 24 13:44:50 GMT 2022
User: TCL
Spectrometer: QEP01345
Trigger mode: 4
Integration Time (sec): 7.000000E0
Scans to average: 10
Electric dark correction enabled: true
Nonlinearity correction enabled: false
Boxcar width: 0
XAxis mode: Raman Shifts
Number of Pixels in Spectrum: 1044
>>>>>Begin Spectral Data<<<<<
46.04893	-1.575
50.45542	-0.075
54.85868	0.325
59.25871	-0.275
63.6555	40.325
68.04907	41.225
72.43941	46.425
76.82654	44.725
81.21044	49.025
85.59113	48.325
89.96862	50.625
94.34289	52.925
98.71396	55.025
103.08183	56.125
107.4465	59.225
111.80798	62.725
116.16626	62.125
120.52136	62.725
124.87327	63.825
129.222	68.225
133.56755	74.425
137.90993	72.825
142.24913	84.625
146.58517	93.625
150.91804	109.325
155.24774	132.425
159.57429	165.025
163.89768	216.125
168.21792	283.425
172.53501	389.425
176.84895	551.925
181.15975	775.125
185.46741	1083.425
189.77193	1502.325
194.07331	2006.125
198.37157	2619.925
202.6667	3238.525
206.9587	3891.725
211.24758	4528.925
215.53334	5213.925
219.81599	5946.125
224.09553	6768.725
228.37195	7708.325
232.64527	8717.725
236.91549	9703.425
241.18261	10610.225
245.44663	11310.725
249.70755	11806.125
253.96539	12209.825
258.22014	12551.225
262.4718	12877.225
266.72039	13120.425
270.96589	13215.525
275.20832	13193.425
279.44768	13028.125
283.68397	12867.625
287.91719	12808.725
292.14735	12861.325
296.37445	13092.425
300.59849	13526.625
304.81948	14084.825
309.03742	14597.725
313.25231	14775.825
317.46415	14350.825
321.67296	13483.525
325.87872	12656.325
330.08145	12200.625
334.28114	12108.825
338.47781	12284.525
342.67145	12549.925
346.86207	12953.725
351.04966	13529.425
355.23424	14146.825
359.4158	14544.525
363.59435	14714.825
367.76989	14666.525
371.94243	14552.425
376.11196	14376.425
380.27849	14308.525
384.44203	14197.925
388.60257	14111.225
392.76012	14120.925
396.91468	14272.225
401.06626	14579.325
405.21485	14838.825
409.36047	14548.725
413.50311	13845.025
417.64277	13183.725
421.77947	12828.425
425.9132	12753.225
430.04396	12776.425
434.17176	12803.325
438.2966	12918.925
442.41849	13221.825
446.53742	13628.725
450.6534	14056.525
454.76644	14273.925
458.87653	14266.225
462.98368	14098.525
467.08789	13886.025
471.18916	13634.125
475.2875	13319.225
479.38291	13082.225
483.4754	12868.725
487.56496	12729.525
491.6516	12530.125
495.73531	12457.625
499.81612	12452.825
503.89401	12544.825
507.96899	12682.425
512.04106	12769.725
516.11023	12815.525
520.1765	12849.625
524.23987	12792.425
528.30034	12700.825
532.35792	12553.525
536.41261	12289.525
540.46441	11998.825
544.51333	11887.225
548.55936	12032.125
552.60252	12361.425
556.64279	12816.025
560.6802	13099.525
564.71473	13318.525
568.7464	13857.625
572.7752	14461.125
576.80114	14566.025
580.82422	14553.225
584.84444	14758.125
588.86181	15092.525
592.87633	15547.825
596.888	15667.925
600.89682	15468.925
604.9028	16270.225
608.90594	19818.125
612.90624	24597.525
616.90371	23384.825
620.89834	16370.925
624.89015	12898.425
628.87913	12337.125
632.86528	12597.625
636.84862	12949.525
640.82913	12684.425
644.80683	11983.525
648.78172	11494.625
652.75379	11468.125
656.72306	11915.325
660.68952	12537.325
664.65319	12380.825
668.61405	11725.625
672.57211	11402.125
676.52738	11380.325
680.47986	11337.425
684.42955	11207.725
688.37646	11112.025
692.32058	11143.025
696.26192	11293.325
700.20048	11495.425
704.13626	11666.625
708.06928	11723.325
711.99952	11673.225
715.927	11640.125
719.85171	11679.625
723.77365	11678.625
727.69284	11528.225
731.60928	11326.825
735.52295	11278.525
739.43388	11314.325
743.34206	11403.825
747.24749	11493.425
751.15017	11605.925
755.05012	11895.325
758.94733	12611.525
762.8418	14262.025
766.73354	17120.125
770.62254	19791.425
774.50882	20515.125
778.39237	19078.525
782.27321	16472.125
786.15132	14076.225
790.02671	12554.525
793.89938	11796.725
797.76935	11455.825
801.6366	11293.825
805.50115	11191.225
809.36299	11085.225
813.22213	11032.125
817.07857	11012.825
820.93231	10979.225
824.78336	10948.125
828.63172	10977.125
832.47738	10972.025
836.32036	10950.125
840.16066	10869.925
843.99827	10848.325
847.8332	10833.325
851.66546	10816.525
855.49504	10853.925
859.32195	10861.525
863.1462	10804.625
866.96777	10741.125
870.78668	10743.125
874.60293	10753.825
878.41652	10770.425
882.22745	10867.925
886.03573	10924.025
889.84136	10935.525
893.64433	10867.425
897.44466	10854.925
901.24235	10832.725
905.0374	10773.225
908.8298	10669.325
912.61957	10647.125
916.40671	10709.225
920.19121	10890.925
923.97308	11080.025
927.75233	11196.725
931.52895	11209.925
935.30295	10987.025
939.07433	10559.525
942.84309	10242.625
946.60924	10063.925
950.37278	9989.625
954.13371	9957.025
957.89203	9958.625
961.64774	9944.025
965.40086	9928.325
969.15137	9903.725
972.89929	9875.325
976.64461	9855.925
980.38733	9842.825
984.12747	9857.725
987.86502	9892.625
991.59999	9972.825
995.33237	10067.425
999.06217	10302.225
1002.78939	10576.425
1006.51404	10956.125
1010.23611	11261.625
1013.95561	11407.625
1017.67255	11382.125
1021.38692	11164.225
1025.09872	10824.325
1028.80796	10591.025
1032.51465	10573.925
1036.21877	10648.925
1039.92035	10764.525
1043.61937	10895.525
1047.31584	10937.325
1051.00976	10955.025
1054.70114	10978.625
1058.38998	10980.525
1062.07627	11073.025
1065.76003	11192.225
1069.44126	11383.725
1073.11995	11684.125
1076.79611	11980.025
1080.46974	12227.325
1084.14085	12555.025
1087.80943	12869.525
1091.47549	13097.225
1095.13903	12974.125
1098.80005	12561.825
1102.45857	12037.625
1106.11456	11757.625
1109.76805	11664.925
1113.41903	11856.825
1117.06751	12195.425
1120.71348	12730.225
1124.35696	13382.725
1127.99793	13892.525
1131.63641	13847.925
1135.2724	13240.725
1138.90589	12720.525
1142.5369	12411.225
1146.16542	12292.825
1149.79145	12256.525
1153.415	12310.025
1157.03607	12448.525
1160.65467	12783.925
1164.27079	13343.125
1167.88443	14259.625
1171.49561	15676.225
1175.10432	17861.425
1178.71056	20686.225
1182.31434	22869.325
1185.91565	23354.725
1189.51451	22481.225
1193.11091	21096.725
1196.70485	19550.025
1200.29634	18279.325
1203.88538	17231.325
1207.47197	16174.925
1211.05612	15264.825
1214.63782	14613.025
1218.21708	14274.525
1221.79391	14167.225
1225.36829	14232.225
1228.94024	14207.825
1232.50976	13928.825
1236.07685	13630.825
1239.6415	13390.925
1243.20374	13384.425
1246.76355	13437.525
1250.32093	13685.225
1253.8759	14005.125
1257.42845	14501.925
1260.97859	15150.825
1264.52631	15809.025
1268.07163	16505.125
1271.61453	17063.325
1275.15503	17530.825
1278.69312	17932.425
1282.22882	18430.325
1285.76211	19218.025
1289.29301	20243.525
1292.82151	21431.225
1296.34761	22673.325
1299.87133	24352.925
1303.39266	26633.025
1306.9116	29577.425
1310.42815	32450.625
1313.94233	33678.525
1317.45412	32424.625
1320.96354	30064.925
1324.47058	27779.925
1327.97525	25931.625
1331.47754	24663.425
1334.97747	23914.325
1338.47502	23585.825
1341.97022	23670.525
1345.46305	24271.825
1348.95352	25500.125
1352.44163	27219.825
1355.92738	29908.825
1359.41078	34168.825
1362.89183	38399.925
1366.37053	37809.025
1369.84688	32072.625
1373.32088	25976.225
1376.79254	22273.225
1380.26186	20482.325
1383.72883	19660.425
1387.19347	19003.425
1390.65578	18406.225
1394.11575	17941.325
1397.57339	17695.825
1401.0287	17533.625
1404.48168	17367.325
1407.93234	17043.525
1411.38068	16672.925
1414.82669	16294.325
1418.27039	15925.425
1421.71177	15476.625
1425.15083	14985.125
1428.58758	14687.125
1432.02203	14882.425
1435.45416	15264.325
1438.88399	15595.525
1442.31151	15778.125
1445.73673	15954.725
1449.15965	16144.725
1452.58027	16205.025
1455.9986	16183.525
1459.41463	16219.225
1462.82837	16525.025
1466.23982	17014.225
1469.64898	17546.325
1473.05586	17889.325
1476.46045	18126.625
1479.86276	18347.025
1483.26279	18654.125
1486.66054	19138.225
1490.05602	19924.025
1493.44922	21072.725
1496.84016	22913.625
1500.22882	25603.625
1503.61521	29245.725
1506.99934	33097.725
1510.38121	35815.525
1513.76081	35950.425
1517.13816	32990.525
1520.51324	28642.725
1523.88607	24963.625
1527.25665	22758.225
1530.62498	21556.125
1533.99105	20856.325
1537.35488	20166.125
1540.71647	19404.925
1544.07581	18608.725
1547.4329	18016.225
1550.78776	17534.725
1554.14038	17316.425
1557.49077	17373.725
1560.83892	17732.425
1564.18484	18385.825
1567.52853	19311.125
1570.86999	20090.425
1574.20922	20546.625
1577.54624	20423.725
1580.88103	19273.525
1584.2136	17865.825
1587.54395	17210.225
1590.87208	17524.625
1594.19801	18628.925
1597.52172	20083.125
1600.84321	20537.925
1604.16251	19568.725
1607.47959	17953.625
1610.79447	16347.525
1614.10715	14874.525
1617.41763	13678.925
1620.7259	12922.225
1624.03199	12553.425
1627.33587	12559.525
1630.63757	12902.025
1633.93707	13796.525
1637.23439	15446.125
1640.52951	18159.725
1643.82246	22086.225
1647.11321	26312.625
1650.40179	28681.025
1653.68819	27411.425
1656.97241	23045.625
1660.25446	18224.225
1663.53433	14695.125
1666.81203	12566.825
1670.08756	11342.725
1673.36092	10619.825
1676.63211	10195.225
1679.90115	9877.625
1683.16801	9681.525
1686.43272	9505.025
1689.69527	9390.925
1692.95567	9284.325
1696.2139	9241.425
1699.46999	9208.425
1702.72392	9120.425
1705.97571	9102.925
1709.22535	9079.825
1712.47284	9061.725
1715.71819	9068.925
1718.96139	9041.925
1722.20246	9021.325
1725.44139	8930.825
1728.67818	8834.525
1731.91284	8719.725
1735.14537	8642.225
1738.37576	8593.525
1741.60403	8520.425
1744.83017	8502.225
1748.05418	8475.625
1751.27607	8430.525
1754.49584	8420.425
1757.71349	8385.325
1760.92903	8380.025
1764.14244	8376.025
1767.35375	8364.525
1770.56294	8309.325
1773.77002	8277.125
1776.97499	8250.725
1780.17785	8231.525
1783.37861	8192.425
1786.57727	8155.925
1789.77382	8147.725
1792.96828	8121.425
1796.16064	8109.525
1799.3509	8091.325
1802.53907	8064.825
1805.72514	8024.425
1808.90913	7983.125
1812.09102	7980.725
1815.27083	7940.825
1818.44856	7930.225
1821.6242	7891.625
1824.79776	7887.825
1827.96924	7867.225
1831.13864	7864.125
1834.30597	7837.925
1837.47122	7837.725
1840.6344	7811.225
1843.7955	7826.825
1846.95454	7773.225
1850.11151	7773.525
1853.26642	7774.825
1856.41926	7736.225
1859.57004	7743.525
1862.71876	7764.325
1865.86542	7719.825
1869.01003	7740.225
1872.15258	7702.025
1875.29308	7702.325
1878.43152	7712.125
1881.56792	7689.625
1884.70227	7679.525
1887.83457	7682.525
1890.96482	7663.625
1894.09304	7666.925
1897.21921	7642.925
1900.34335	7648.425
1903.46544	7646.725
1906.58551	7640.225
1909.70353	7655.225
1912.81953	7630.325
1915.93349	7633.325
1919.04543	7610.425
1922.15534	7598.725
1925.26322	7551.425
1928.36908	7553.425
1931.47292	7496.025
1934.57473	7465.825
1937.67453	7439.225
1940.77232	7440.825
1943.86808	7447.425
1946.96184	7389.925
1950.05358	7369.725
1953.14331	7352.825
1956.23103	7353.325
1959.31675	7320.125
1962.40046	7305.125
1965.48217	7292.525
1968.56188	7255.525
1971.63959	7265.625
1974.7153	7211.725
1977.78901	7213.025
1980.86073	7183.225
1983.93046	7150.225
1986.99819	7118.625
1990.06394	7097.925
1993.1277	7060.625
1996.18947	7036.425
1999.24925	7011.625
2002.30706	6999.825
2005.36288	6948.925
2008.41672	6943.025
2011.46859	6907.425
2014.51848	6883.725
2017.56639	6859.225
2020.61233	6849.425
2023.6563	6830.625
2026.6983	6807.525
2029.73833	6756.225
2032.7764	6757.225
2035.8125	6738.625
2038.84664	6693.325
2041.87881	6715.225
2044.90903	6696.725
2047.93729	6706.425
2050.96359	6667.625
2053.98794	6654.725
2057.01034	6625.025
2060.03078	6620.225
2063.04927	6633.725
2066.06582	6615.625
2069.08042	6607.925
2072.09307	6593.425
2075.10378	6583.725
2078.11255	6579.525
2081.11938	6604.225
2084.12426	6596.025
2087.12722	6590.225
2090.12824	6612.225
2093.12732	6597.525
2096.12447	6601.925
2099.11969	6613.125
2102.11299	6581.125
2105.10435	6611.625
2108.09379	6606.125
2111.08131	6594.925
2114.0669	6599.825
2117.05057	6629.325
2120.03233	6624.625
2123.01216	6622.125
2125.99008	6619.325
2128.96609	6625.125
2131.94018	6631.225
2134.91236	6619.625
2137.88263	6617.825
2140.851	6607.125
2143.81746	6604.625
2146.78201	6598.325
2149.74466	6589.025
2152.7054	6581.125
2155.66425	6599.825
2158.6212	6584.325
2161.57625	6555.925
2164.52941	6580.625
2167.48067	6547.625
2170.43004	6546.825
2173.37752	6542.325
2176.32311	6520.125
2179.26681	6512.825
2182.20863	6515.225
2185.14856	6539.825
2188.08661	6520.225
2191.02278	6515.725
2193.95707	6500.825
2196.88948	6482.225
2199.82001	6479.625
2202.74867	6489.725
2205.67545	6455.725
2208.60037	6444.425
2211.52341	6420.725
2214.44458	6434.725
2217.36388	6419.325
2220.28132	6415.825
2223.1969	6394.825
2226.11061	6409.025
2229.02246	6357.325
2231.93245	6376.025
2234.84058	6346.325
2237.74686	6322.825
2240.65128	6314.725
2243.55385	6308.925
2246.45456	6312.325
2249.35343	6284.725
2252.25044	6298.225
2255.14561	6299.925
2258.03893	6296.425
2260.93041	6281.125
2263.82004	6270.425
2266.70783	6265.825
2269.59378	6248.625
2272.4779	6231.325
2275.36017	6223.525
2278.24061	6197.725
2281.11922	6192.225
2283.996	6174.325
2286.87094	6186.825
2289.74405	6151.025
2292.61534	6138.125
2295.4848	6116.025
2298.35243	6119.025
2301.21824	6108.225
2304.08223	6114.825
2306.94439	6095.425
2309.80474	6091.225
2312.66327	6083.025
2315.51999	6058.725
2318.37489	6081.825
2321.22797	6082.125
2324.07925	6066.625
2326.92871	6057.025
2329.77637	6036.425
2332.62222	6035.225
2335.46626	6037.725
2338.3085	6043.325
2341.14893	6032.225
2343.98756	6030.825
2346.8244	6039.825
2349.65943	6043.625
2352.49267	6037.725
2355.32411	6051.325
2358.15376	6047.125
2360.98161	6061.425
2363.80768	6082.725
2366.63195	6097.525
2369.45444	6071.425
2372.27514	6086.025
2375.09405	6066.925
2377.91118	6066.425
2380.72652	6039.225
2383.54009	6016.325
2386.35187	5998.425
2389.16188	5977.025
2391.97011	5970.325
2394.77657	5948.925
2397.58125	5914.525
2400.38416	5902.925
2403.18529	5891.025
2405.98466	5880.625
2408.78226	5853.025
2411.57809	5841.125
2414.37216	5826.725
2417.16446	5807.425
2419.955	5802.925
2422.74378	5829.925
2425.5308	5801.325
2428.31606	5811.025
2431.09956	5815.425
2433.88131	5795.825
2436.6613	5814.125
2439.43954	5795.825
2442.21603	5826.225
2444.99077	5808.425
2447.76377	5812.525
2450.53501	5810.725
2453.30451	5831.625
2456.07226	5815.725
2458.83827	5827.425
2461.60254	5804.725
2464.36507	5807.225
2467.12586	5808.325
2469.88492	5819.925
2472.64224	5832.025
2475.39782	5815.925
2478.15167	5822.625
2480.90379	5830.325
2483.65417	5850.625
2486.40283	5863.725
2489.14976	5872.425
2491.89497	5878.725
2494.63845	5896.625
2497.3802	5879.525
2500.12024	5865.925
2502.85855	5857.525
2505.59514	5848.625
2508.33002	5827.425
2511.06318	5800.325
2513.79462	5771.125
2516.52435	5741.725
2519.25237	5726.425
2521.97867	5727.625
2524.70327	5714.525
2527.42616	5714.925
2530.14734	5689.825
2532.86681	5686.125
2535.58458	5677.725
2538.30065	5660.125
2541.01501	5670.025
2543.72768	5672.025
2546.43864	5667.725
2549.14791	5656.625
2551.85548	5660.625
2554.56136	5656.025
2557.26554	5642.625
2559.96803	5650.525
2562.66883	5649.825
2565.36794	5637.825
2568.06536	5642.225
2570.7611	5632.725
2573.45514	5617.025
2576.14751	5606.925
2578.83819	5593.525
2581.52719	5586.125
2584.21451	5585.425
2586.90015	5579.725
2589.58411	5549.925
2592.2664	5547.625
2594.94701	5539.225
2597.62594	5538.025
2600.30321	5525.625
2602.9788	5529.725
2605.65273	5522.725
2608.32498	5534.325
2610.99557	5523.425
2613.66449	5507.025
2616.33175	5522.525
2618.99734	5529.225
2621.66128	5507.025
2624.32355	5500.025
2626.98416	5494.525
2629.64311	5481.025
2632.30041	5479.325
2634.95605	5457.925
2637.61004	5464.325
2640.26238	5452.225
2642.91306	5458.225
2645.56209	5441.025
2648.20948	5447.825
2650.85521	5457.425
2653.4993	5436.825
2656.14175	5436.525
2658.78255	5467.425
2661.42171	5462.425
2664.05923	5467.425
2666.6951	5478.625
2669.32934	5471.725
2671.96194	5479.625
2674.59291	5481.425
2677.22224	5480.725
2679.84993	5473.525
2682.476	5470.325
2685.10043	5467.925
2687.72324	5473.725
2690.34441	5459.625
2692.96396	5475.325
2695.58188	5457.225
2698.19818	5459.625
2700.81285	5458.025
2703.4259	5451.225
2706.03733	5453.325
2708.64714	5465.525
2711.25533	5464.225
2713.86191	5458.625
2716.46687	5472.125
2719.07021	5474.225
2721.67194	5471.425
2724.27206	5463.225
2726.87057	5470.625
2729.46747	5465.225
2732.06276	5456.425
2734.65644	5445.825
2737.24852	5454.825
2739.83899	5433.425
2742.42786	5444.725
2745.01513	5410.725
2747.60079	5416.325
2750.18486	5419.925
2752.76733	5411.425
2755.3482	5389.925
2757.92747	5378.025
2760.50515	5385.725
2763.08123	5382.025
2765.65573	5372.325
2768.22863	5370.325
2770.79994	5367.225
2773.36967	5372.925
2775.9378	5370.125
2778.50435	5354.725
2781.06932	5359.625
2783.6327	5341.825
2786.1945	5319.225
2788.75471	5350.725
2791.31335	5321.525
2793.87041	5340.525
2796.42589	5327.825
2798.97979	5333.225
2801.53212	5315.925
2804.08288	5303.925
2806.63206	5334.025
2809.17967	5337.725
2811.72571	5319.825
2814.27018	5327.425
2816.81308	5328.625
2819.35442	5320.925
2821.89419	5314.725
2824.43239	5312.325
2826.96904	5299.925
2829.50412	5323.125
2832.03763	5302.825
2834.56959	5304.825
2837.1	5310.225
2839.62884	5289.325
2842.15613	5293.825
2844.68186	5295.525
2847.20604	5305.425
2849.72867	5323.025
2852.24974	5307.125
2854.76927	5300.925
2857.28724	5300.725
2859.80367	5326.625
2862.31855	5304.025
2864.83189	5324.825
2867.34368	5335.225
2869.85393	5348.325
2872.36264	5352.925
2874.8698	5355.525
2877.37543	5346.625
2879.87952	5345.525
2882.38207	5337.225
2884.88308	5346.325
2887.38256	5339.125
2889.88051	5318.025
2892.37692	5318.625
2894.8718	5331.825
2897.36515	5319.725
2899.85698	5318.925
2902.34727	5347.625
2904.83604	5335.025
2907.32328	5353.625
2909.809	5341.125
2912.29319	5368.125
2914.77587	5352.725
2917.25702	5364.425
2919.73665	5342.125
2922.21476	5338.125
2924.69136	5325.725
2927.16644	5325.725
2929.64	5303.425
2932.11205	5306.525
2934.58258	5277.525
2937.05161	5291.825
2939.51912	5248.225
2941.98513	5253.325
2944.44962	5235.625
2946.91261	5225.125
2949.37409	5226.225
2951.83407	5203.525
2954.29254	5200.025
2956.74951	5182.025
2959.20498	5189.825
2961.65895	5155.925
2964.11142	5155.225
2966.56239	5154.025
2969.01186	5120.325
2971.45984	5123.425
2973.90632	5117.125
2976.35131	5102.125
2978.7948	5078.525
2981.23681	5057.525
2983.67732	5076.825
2986.11635	5027.925
2988.55388	5045.825
2990.98993	5007.125
2993.4245	5015.125
2995.85758	4996.325
2998.28917	4999.125
3000.71928	4981.025
3003.14791	4976.925
3005.57506	4973.425
3008.00073	4952.925
3010.42493	4966.825
3012.84764	4947.725
3015.26888	4932.025
3017.68865	4945.425
3020.10694	4928.025
3022.52376	4914.925
3024.9391	4881.525
3027.35298	4898.725
3029.76539	4878.925
3032.17632	4875.025
3034.5858	4866.625
3036.9938	4858.125
3039.40034	4844.125
3041.80542	4832.325
3044.20903	4811.325
3046.61118	4818.525
3049.01187	4796.725
3051.4111	4782.025
3053.80888	4787.525
3056.20519	4768.825
3058.60005	4769.125
3060.99345	4778.025
3063.3854	4753.325
3065.7759	4736.625
3068.16494	4739.525
3070.55254	4719.225
3072.93868	4710.625
3075.32338	4691.125
3077.70662	4696.025
3080.08842	4679.025
3082.46878	4672.525
3084.84769	4652.125
3087.22515	4662.125
3089.60118	4646.825
3091.97576	4646.625
3094.3489	4636.325
3096.72061	4636.525
3099.09087	4642.925
3101.4597	4625.125
3103.82709	4630.325
3106.19305	4628.325
3108.55757	4631.925
3110.92066	4617.625
3113.28232	4590.025
3115.64255	4592.825
3118.00134	4562.225
3120.35871	4560.325
3122.71466	4547.425
3125.06917	4561.225
3127.42226	4558.325
3129.77393	4570.425
3132.12417	4561.825
3134.47299	4574.725
3136.82039	4560.725
3139.16636	4560.425
3141.51092	4562.025
3143.85406	4572.325
3146.19579	4570.425
3148.53609	4577.425
3150.87499	4575.325
3153.21246	4575.925
3155.54853	4590.625
3157.88318	4562.925
3160.21642	4559.825
3162.54826	4568.925
3164.87868	4551.925
3167.2077	4568.625
3169.5353	4566.525
3171.86151	4562.625
3174.18631	4555.425
3176.5097	4554.725
3178.83169	4555.325
3181.15228	4553.125
3183.47147	4557.925
3185.78926	4551.825
3188.10565	4539.425
3190.42065	4555.425
3192.73424	4548.225
