Data from AgNP_FTO_APTES_UA_100uM_CRN_0uM_R6G_10uM_NaF_0.1M_Addition_RamanShift__18__11-06-10-104.txt Node

Date: Thu Mar 24 11:06:10 GMT 2022
User: TCL
Spectrometer: QEP01345
Trigger mode: 4
Integration Time (sec): 7.000000E0
Scans to average: 10
Electric dark correction enabled: true
Nonlinearity correction enabled: false
Boxcar width: 0
XAxis mode: Raman Shifts
Number of Pixels in Spectrum: 1044
>>>>>Begin Spectral Data<<<<<
46.04893	-1.375
50.45542	0.625
54.85868	-0.375
59.25871	0.925
63.6555	32.825
68.04907	40.625
72.43941	36.125
76.82654	36.225
81.21044	42.025
85.59113	42.525
89.96862	44.725
94.34289	46.025
98.71396	48.025
103.08183	46.625
107.4465	45.025
111.80798	47.325
116.16626	49.925
120.52136	48.325
124.87327	49.625
129.222	54.825
133.56755	58.725
137.90993	61.525
142.24913	70.225
146.58517	73.825
150.91804	86.125
155.24774	104.125
159.57429	130.625
163.89768	162.725
168.21792	223.125
172.53501	301.225
176.84895	424.825
181.15975	602.025
185.46741	833.925
189.77193	1147.525
194.07331	1540.625
198.37157	1972.325
202.6667	2434.925
206.9587	2897.425
211.24758	3362.725
215.53334	3840.925
219.81599	4348.825
224.09553	4923.825
228.37195	5576.925
232.64527	6282.625
236.91549	6999.825
241.18261	7696.525
245.44663	8301.525
249.70755	8770.725
253.96539	9136.125
258.22014	9436.725
262.4718	9652.725
266.72039	9801.425
270.96589	9845.925
275.20832	9813.125
279.44768	9658.225
283.68397	9502.325
287.91719	9376.225
292.14735	9289.125
296.37445	9285.625
300.59849	9373.425
304.81948	9515.325
309.03742	9714.725
313.25231	9815.325
317.46415	9816.025
321.67296	9702.525
325.87872	9606.925
330.08145	9563.525
334.28114	9557.325
338.47781	9598.325
342.67145	9724.725
346.86207	9891.525
351.04966	10152.225
355.23424	10339.525
359.4158	10517.025
363.59435	10547.925
367.76989	10555.425
371.94243	10520.425
376.11196	10512.425
380.27849	10547.525
384.44203	10607.125
388.60257	10658.125
392.76012	10700.625
396.91468	10759.325
401.06626	10895.425
405.21485	11010.325
409.36047	10867.625
413.50311	10621.425
417.64277	10545.125
421.77947	10557.525
425.9132	10416.825
430.04396	10401.825
434.17176	10478.425
438.2966	10716.025
442.41849	11106.425
446.53742	11759.825
450.6534	12367.525
454.76644	12683.825
458.87653	12536.325
462.98368	12201.925
467.08789	11827.225
471.18916	11442.425
475.2875	11062.325
479.38291	10695.525
483.4754	10417.825
487.56496	10223.125
491.6516	10058.325
495.73531	9930.125
499.81612	9906.625
503.89401	9946.925
507.96899	10018.225
512.04106	9962.425
516.11023	9883.325
520.1765	9846.925
524.23987	9921.825
528.30034	10061.925
532.35792	10078.325
536.41261	9830.925
540.46441	9512.725
544.51333	9284.825
548.55936	9287.225
552.60252	9574.125
556.64279	10061.425
560.6802	10502.225
564.71473	10599.725
568.7464	10748.425
572.7752	11178.625
576.80114	11555.225
580.82422	11893.125
584.84444	12661.625
588.86181	14288.725
592.87633	16600.325
596.888	17883.025
600.89682	16495.125
604.9028	14551.825
608.90594	14684.225
612.90624	15943.725
616.90371	14935.025
620.89834	11722.125
624.89015	10070.425
628.87913	9808.525
632.86528	9932.725
636.84862	9905.525
640.82913	9570.325
644.80683	9131.925
648.78172	8900.425
652.75379	8911.825
656.72306	9135.025
660.68952	9432.025
664.65319	9319.425
668.61405	8968.925
672.57211	8847.725
676.52738	8937.025
680.47986	8953.525
684.42955	8802.325
688.37646	8704.325
692.32058	8767.925
696.26192	8997.925
700.20048	9197.025
704.13626	9351.325
708.06928	9373.525
711.99952	9361.425
715.927	9385.825
719.85171	9456.125
723.77365	9404.625
727.69284	9193.125
731.60928	9067.625
735.52295	9092.925
739.43388	9211.225
743.34206	9341.925
747.24749	9391.925
751.15017	9481.725
755.05012	9672.325
758.94733	10042.925
762.8418	10799.125
766.73354	12121.225
770.62254	13482.625
774.50882	13823.025
778.39237	13066.125
782.27321	11766.525
786.15132	10571.425
790.02671	9783.025
793.89938	9368.125
797.76935	9140.725
801.6366	9015.925
805.50115	8939.925
809.36299	8859.925
813.22213	8782.625
817.07857	8702.425
820.93231	8654.825
824.78336	8605.525
828.63172	8597.125
832.47738	8609.525
836.32036	8609.525
840.16066	8626.225
843.99827	8621.725
847.8332	8618.625
851.66546	8614.625
855.49504	8640.425
859.32195	8611.325
863.1462	8566.225
866.96777	8520.525
870.78668	8497.625
874.60293	8519.525
878.41652	8533.925
882.22745	8635.025
886.03573	8684.225
889.84136	8676.425
893.64433	8657.725
897.44466	8610.725
901.24235	8607.225
905.0374	8525.925
908.8298	8470.125
912.61957	8457.425
916.40671	8502.725
920.19121	8646.825
923.97308	8839.325
927.75233	8996.925
931.52895	8967.425
935.30295	8659.425
939.07433	8370.625
942.84309	8155.725
946.60924	8043.225
950.37278	8010.725
954.13371	8008.225
957.89203	7992.925
961.64774	8001.125
965.40086	8028.125
969.15137	8019.725
972.89929	8006.425
976.64461	7990.225
980.38733	7977.825
984.12747	7962.625
987.86502	7995.125
991.59999	8094.825
995.33237	8231.225
999.06217	8501.825
1002.78939	8877.425
1006.51404	9271.025
1010.23611	9597.425
1013.95561	9813.125
1017.67255	9813.525
1021.38692	9544.425
1025.09872	9075.325
1028.80796	8730.625
1032.51465	8592.725
1036.21877	8617.825
1039.92035	8693.325
1043.61937	8741.225
1047.31584	8769.425
1051.00976	8768.825
1054.70114	8796.125
1058.38998	8799.625
1062.07627	8830.425
1065.76003	8918.225
1069.44126	9046.825
1073.11995	9299.125
1076.79611	9528.425
1080.46974	9695.325
1084.14085	9929.925
1087.80943	10194.725
1091.47549	10331.825
1095.13903	10269.025
1098.80005	9921.625
1102.45857	9553.325
1106.11456	9368.225
1109.76805	9382.025
1113.41903	9520.325
1117.06751	9705.425
1120.71348	9942.625
1124.35696	10228.325
1127.99793	10454.825
1131.63641	10505.625
1135.2724	10349.425
1138.90589	10241.125
1142.5369	10184.625
1146.16542	10345.325
1149.79145	10576.725
1153.415	10731.525
1157.03607	10851.425
1160.65467	11048.425
1164.27079	11615.025
1167.88443	12471.225
1171.49561	13695.025
1175.10432	15504.125
1178.71056	17775.425
1182.31434	19823.925
1185.91565	20321.225
1189.51451	19382.325
1193.11091	17898.225
1196.70485	16546.825
1200.29634	15392.825
1203.88538	14427.525
1207.47197	13783.625
1211.05612	13403.925
1214.63782	13172.625
1218.21708	13162.025
1221.79391	13406.225
1225.36829	13811.425
1228.94024	13971.225
1232.50976	13514.825
1236.07685	12782.725
1239.6415	12206.025
1243.20374	11938.325
1246.76355	11887.125
1250.32093	11987.025
1253.8759	12235.225
1257.42845	12699.125
1260.97859	13252.425
1264.52631	13866.925
1268.07163	14499.425
1271.61453	15056.325
1275.15503	15610.725
1278.69312	16203.525
1282.22882	17066.325
1285.76211	18280.325
1289.29301	19709.025
1292.82151	21173.425
1296.34761	22786.925
1299.87133	24651.025
1303.39266	26645.725
1306.9116	28678.325
1310.42815	30546.625
1313.94233	31596.325
1317.45412	30823.025
1320.96354	28719.525
1324.47058	26462.125
1327.97525	24537.825
1331.47754	23138.025
1334.97747	22252.625
1338.47502	21664.725
1341.97022	21230.425
1345.46305	20962.325
1348.95352	21308.225
1352.44163	22507.125
1355.92738	24944.925
1359.41078	28292.125
1362.89183	31220.725
1366.37053	31517.125
1369.84688	28237.425
1373.32088	23407.325
1376.79254	20248.025
1380.26186	19086.225
1383.72883	18660.025
1387.19347	18150.325
1390.65578	17582.425
1394.11575	17453.725
1397.57339	17707.825
1401.0287	18059.825
1404.48168	18215.625
1407.93234	18048.525
1411.38068	17522.825
1414.82669	16958.425
1418.27039	16390.325
1421.71177	15728.025
1425.15083	15147.625
1428.58758	14930.225
1432.02203	15173.225
1435.45416	15647.025
1438.88399	15955.225
1442.31151	16074.325
1445.73673	16142.525
1449.15965	16206.025
1452.58027	16066.125
1455.9986	15815.925
1459.41463	15716.125
1462.82837	16081.525
1466.23982	16703.825
1469.64898	17332.025
1473.05586	17810.425
1476.46045	18114.925
1479.86276	18347.125
1483.26279	18454.325
1486.66054	18604.225
1490.05602	19057.825
1493.44922	19557.025
1496.84016	19946.825
1500.22882	20221.625
1503.61521	20681.725
1506.99934	21254.125
1510.38121	21815.225
1513.76081	21844.625
1517.13816	21109.625
1520.51324	20025.725
1523.88607	19226.225
1527.25665	18987.825
1530.62498	18995.125
1533.99105	18866.725
1537.35488	18368.025
1540.71647	17642.525
1544.07581	16789.825
1547.4329	16028.325
1550.78776	15342.225
1554.14038	14842.525
1557.49077	14585.325
1560.83892	14507.325
1564.18484	14670.725
1567.52853	14975.825
1570.86999	15367.825
1574.20922	15838.625
1577.54624	16018.225
1580.88103	15758.425
1584.2136	15505.625
1587.54395	15876.925
1590.87208	17102.925
1594.19801	19018.925
1597.52172	21038.925
1600.84321	21890.225
1604.16251	20756.225
1607.47959	18190.625
1610.79447	15473.225
1614.10715	13263.525
1617.41763	11868.825
1620.7259	11085.525
1624.03199	10790.725
1627.33587	10909.125
1630.63757	11453.725
1633.93707	12651.925
1637.23439	14786.025
1640.52951	18313.425
1643.82246	22973.825
1647.11321	26953.325
1650.40179	27728.625
1653.68819	24543.525
1656.97241	19551.025
1660.25446	15095.525
1663.53433	12163.225
1666.81203	10478.025
1670.08756	9503.725
1673.36092	8934.325
1676.63211	8584.825
1679.90115	8326.625
1683.16801	8147.125
1686.43272	8025.425
1689.69527	7914.625
1692.95567	7839.025
1696.2139	7779.325
1699.46999	7742.025
1702.72392	7684.625
1705.97571	7691.925
1709.22535	7648.325
1712.47284	7623.825
1715.71819	7618.625
1718.96139	7591.325
1722.20246	7551.625
1725.44139	7500.325
1728.67818	7418.525
1731.91284	7361.925
1735.14537	7307.825
1738.37576	7258.225
1741.60403	7234.525
1744.83017	7204.025
1748.05418	7156.425
1751.27607	7143.025
1754.49584	7108.725
1757.71349	7100.525
1760.92903	7092.025
1764.14244	7082.425
1767.35375	7041.025
1770.56294	7043.325
1773.77002	7044.525
1776.97499	7014.225
1780.17785	7006.825
1783.37861	6991.125
1786.57727	6942.225
1789.77382	6930.725
1792.96828	6917.825
1796.16064	6904.925
1799.3509	6890.225
1802.53907	6879.725
1805.72514	6849.425
1808.90913	6833.125
1812.09102	6812.125
1815.27083	6789.625
1818.44856	6787.325
1821.6242	6748.225
1824.79776	6744.525
1827.96924	6725.725
1831.13864	6746.325
1834.30597	6725.725
1837.47122	6710.625
1840.6344	6724.425
1843.7955	6718.425
1846.95454	6746.625
1850.11151	6713.125
1853.26642	6733.125
1856.41926	6729.625
1859.57004	6721.325
1862.71876	6724.725
1865.86542	6736.525
1869.01003	6731.425
1872.15258	6757.125
1875.29308	6768.125
1878.43152	6792.025
1881.56792	6810.725
1884.70227	6845.325
1887.83457	6856.525
1890.96482	6868.325
1894.09304	6872.525
1897.21921	6884.125
1900.34335	6892.725
1903.46544	6883.625
1906.58551	6868.125
1909.70353	6857.425
1912.81953	6817.025
1915.93349	6804.225
1919.04543	6785.125
1922.15534	6782.225
1925.26322	6742.025
1928.36908	6720.825
1931.47292	6700.325
1934.57473	6679.525
1937.67453	6639.525
1940.77232	6642.025
1943.86808	6606.425
1946.96184	6592.925
1950.05358	6585.325
1953.14331	6577.525
1956.23103	6564.625
1959.31675	6520.225
1962.40046	6511.125
1965.48217	6480.325
1968.56188	6444.025
1971.63959	6410.525
1974.7153	6384.325
1977.78901	6373.325
1980.86073	6327.425
1983.93046	6295.725
1986.99819	6276.625
1990.06394	6249.325
1993.1277	6237.525
1996.18947	6231.025
1999.24925	6228.425
2002.30706	6216.425
2005.36288	6183.725
2008.41672	6197.825
2011.46859	6179.925
2014.51848	6157.125
2017.56639	6159.525
2020.61233	6137.425
2023.6563	6113.525
2026.6983	6093.225
2029.73833	6061.925
2032.7764	6040.125
2035.8125	6019.125
2038.84664	5979.825
2041.87881	5969.525
2044.90903	5943.625
2047.93729	5927.925
2050.96359	5932.125
2053.98794	5916.625
2057.01034	5935.525
2060.03078	5937.525
2063.04927	5955.025
2066.06582	5960.425
2069.08042	5989.225
2072.09307	6006.425
2075.10378	6020.225
2078.11255	6033.225
2081.11938	6063.725
2084.12426	6065.025
2087.12722	6067.725
2090.12824	6073.825
2093.12732	6060.525
2096.12447	6054.125
2099.11969	6042.825
2102.11299	6026.025
2105.10435	6026.325
2108.09379	5982.725
2111.08131	5970.725
2114.0669	5954.325
2117.05057	5960.625
2120.03233	5942.425
2123.01216	5909.925
2125.99008	5912.825
2128.96609	5920.225
2131.94018	5898.625
2134.91236	5902.025
2137.88263	5899.225
2140.851	5898.325
2143.81746	5903.625
2146.78201	5894.125
2149.74466	5893.525
2152.7054	5876.725
2155.66425	5837.325
2158.6212	5829.625
2161.57625	5826.225
2164.52941	5802.525
2167.48067	5769.525
2170.43004	5766.125
2173.37752	5758.725
2176.32311	5736.525
2179.26681	5733.925
2182.20863	5716.225
2185.14856	5734.125
2188.08661	5716.825
2191.02278	5711.125
2193.95707	5707.425
2196.88948	5709.925
2199.82001	5674.425
2202.74867	5674.325
2205.67545	5663.625
2208.60037	5651.725
2211.52341	5651.025
2214.44458	5641.525
2217.36388	5606.225
2220.28132	5608.025
2223.1969	5589.925
2226.11061	5600.025
2229.02246	5587.625
2231.93245	5579.825
2234.84058	5575.625
2237.74686	5575.625
2240.65128	5587.225
2243.55385	5576.625
2246.45456	5566.825
2249.35343	5554.325
2252.25044	5550.025
2255.14561	5523.125
2258.03893	5505.325
2260.93041	5491.425
2263.82004	5463.825
2266.70783	5443.725
2269.59378	5430.125
2272.4779	5406.125
2275.36017	5406.925
2278.24061	5382.825
2281.11922	5401.425
2283.996	5388.225
2286.87094	5370.825
2289.74405	5367.225
2292.61534	5367.925
2295.4848	5357.625
2298.35243	5345.125
2301.21824	5336.725
2304.08223	5339.325
2306.94439	5334.025
2309.80474	5329.425
2312.66327	5346.625
2315.51999	5322.825
2318.37489	5318.225
2321.22797	5302.125
2324.07925	5314.325
2326.92871	5308.425
2329.77637	5306.525
2332.62222	5315.425
2335.46626	5292.225
2338.3085	5277.625
2341.14893	5268.125
2343.98756	5289.725
2346.8244	5300.725
2349.65943	5273.125
2352.49267	5282.125
2355.32411	5292.625
2358.15376	5292.025
2360.98161	5307.925
2363.80768	5304.725
2366.63195	5280.525
2369.45444	5290.025
2372.27514	5271.925
2375.09405	5270.325
2377.91118	5264.825
2380.72652	5261.025
2383.54009	5238.225
2386.35187	5240.525
2389.16188	5210.025
2391.97011	5199.925
2394.77657	5209.025
2397.58125	5189.125
2400.38416	5183.025
2403.18529	5165.925
2405.98466	5161.225
2408.78226	5159.625
2411.57809	5150.625
2414.37216	5144.125
2417.16446	5145.225
2419.955	5127.525
2422.74378	5143.125
2425.5308	5129.725
2428.31606	5129.225
2431.09956	5133.325
2433.88131	5117.725
2436.6613	5119.825
2439.43954	5111.725
2442.21603	5108.225
2444.99077	5105.325
2447.76377	5121.125
2450.53501	5113.125
2453.30451	5121.925
2456.07226	5137.925
2458.83827	5134.725
2461.60254	5126.125
2464.36507	5149.725
2467.12586	5111.225
2469.88492	5143.625
2472.64224	5138.425
2475.39782	5134.525
2478.15167	5142.625
2480.90379	5127.925
2483.65417	5131.725
2486.40283	5135.825
2489.14976	5153.125
2491.89497	5130.925
2494.63845	5147.125
2497.3802	5134.325
2500.12024	5149.125
2502.85855	5123.225
2505.59514	5131.425
2508.33002	5125.625
2511.06318	5114.825
2513.79462	5099.225
2516.52435	5097.625
2519.25237	5079.025
2521.97867	5088.825
2524.70327	5076.825
2527.42616	5074.025
2530.14734	5076.225
2532.86681	5058.325
2535.58458	5067.325
2538.30065	5051.925
2541.01501	5071.525
2543.72768	5062.225
2546.43864	5062.325
2549.14791	5039.125
2551.85548	5050.825
2554.56136	5068.125
2557.26554	5042.425
2559.96803	5049.125
2562.66883	5046.025
2565.36794	5035.525
2568.06536	5038.625
2570.7611	5041.825
2573.45514	5034.925
2576.14751	5026.725
2578.83819	5014.825
2581.52719	5031.125
2584.21451	5037.925
2586.90015	5033.725
2589.58411	5021.725
2592.2664	5006.725
2594.94701	4994.025
2597.62594	4994.125
2600.30321	4979.625
2602.9788	4998.925
2605.65273	5002.725
2608.32498	4986.025
2610.99557	4981.025
2613.66449	5003.925
2616.33175	4986.725
2618.99734	4982.125
2621.66128	4967.525
2624.32355	4977.425
2626.98416	4969.725
2629.64311	4952.125
2632.30041	4970.425
2634.95605	4963.425
2637.61004	4949.725
2640.26238	4945.925
2642.91306	4946.225
2645.56209	4957.025
2648.20948	4953.525
2650.85521	4958.125
2653.4993	4956.125
2656.14175	4972.825
2658.78255	4984.425
2661.42171	4978.125
2664.05923	4992.125
2666.6951	5005.225
2669.32934	5010.225
2671.96194	5000.225
2674.59291	4991.525
2677.22224	5012.625
2679.84993	5021.825
2682.476	4988.625
2685.10043	5001.525
2687.72324	4994.125
2690.34441	5003.025
2692.96396	4978.025
2695.58188	4976.825
2698.19818	4974.425
2700.81285	4988.325
2703.4259	5003.125
2706.03733	4981.025
2708.64714	5010.925
2711.25533	5023.425
2713.86191	4992.825
2716.46687	5021.625
2719.07021	5010.825
2721.67194	5022.625
2724.27206	5025.525
2726.87057	5047.525
2729.46747	5033.325
2732.06276	5038.025
2734.65644	5030.625
2737.24852	5014.725
2739.83899	5011.425
2742.42786	5031.225
2745.01513	5011.425
2747.60079	4998.025
2750.18486	5001.525
2752.76733	5017.925
2755.3482	5011.625
2757.92747	5013.325
2760.50515	5025.425
2763.08123	5028.525
2765.65573	5012.025
2768.22863	5002.025
2770.79994	4997.725
2773.36967	5015.325
2775.9378	5017.725
2778.50435	5008.025
2781.06932	4991.225
2783.6327	4998.125
2786.1945	4999.525
2788.75471	4995.725
2791.31335	4978.125
2793.87041	4982.325
2796.42589	4971.825
2798.97979	4986.625
2801.53212	4971.125
2804.08288	4973.525
2806.63206	4977.225
2809.17967	4940.325
2811.72571	4942.025
2814.27018	4954.625
2816.81308	4945.825
2819.35442	4943.925
2821.89419	4950.425
2824.43239	4965.725
2826.96904	4952.025
2829.50412	4966.325
2832.03763	4950.025
2834.56959	4955.125
2837.1	4948.125
2839.62884	4958.725
2842.15613	4948.425
2844.68186	4960.725
2847.20604	4970.125
2849.72867	4973.925
2852.24974	5004.125
2854.76927	4989.125
2857.28724	4996.125
2859.80367	4990.725
2862.31855	4972.125
2864.83189	4978.425
2867.34368	4974.725
2869.85393	4980.225
2872.36264	4990.925
2874.8698	5007.025
2877.37543	4997.425
2879.87952	5004.625
2882.38207	4994.625
2884.88308	5003.525
2887.38256	4999.925
2889.88051	4997.825
2892.37692	5001.825
2894.8718	5003.325
2897.36515	4998.925
2899.85698	5012.725
2902.34727	5006.225
2904.83604	5013.925
2907.32328	5006.925
2909.809	5011.425
2912.29319	5018.025
2914.77587	5020.125
2917.25702	5006.225
2919.73665	5003.525
2922.21476	4988.625
2924.69136	4997.325
2927.16644	4986.225
2929.64	4984.825
2932.11205	4971.825
2934.58258	4953.325
2937.05161	4943.425
2939.51912	4954.125
2941.98513	4939.625
2944.44962	4930.225
2946.91261	4895.625
2949.37409	4912.625
2951.83407	4882.725
2954.29254	4892.125
2956.74951	4882.625
2959.20498	4879.425
2961.65895	4843.225
2964.11142	4838.225
2966.56239	4816.225
2969.01186	4807.425
2971.45984	4781.425
2973.90632	4759.225
2976.35131	4759.025
2978.7948	4739.625
2981.23681	4706.025
2983.67732	4690.825
2986.11635	4694.225
2988.55388	4677.525
2990.98993	4671.925
2993.4245	4648.125
2995.85758	4645.025
2998.28917	4636.425
3000.71928	4647.025
3003.14791	4625.225
3005.57506	4624.025
3008.00073	4635.025
3010.42493	4608.625
3012.84764	4606.825
3015.26888	4589.625
3017.68865	4574.425
3020.10694	4573.725
3022.52376	4560.225
3024.9391	4525.425
3027.35298	4535.225
3029.76539	4520.625
3032.17632	4511.525
3034.5858	4509.525
3036.9938	4509.425
3039.40034	4500.225
3041.80542	4494.325
3044.20903	4482.825
3046.61118	4484.225
3049.01187	4465.525
3051.4111	4473.825
3053.80888	4465.325
3056.20519	4456.625
3058.60005	4447.625
3060.99345	4421.125
3063.3854	4435.025
3065.7759	4423.225
3068.16494	4403.525
3070.55254	4399.625
3072.93868	4393.425
3075.32338	4386.625
3077.70662	4365.325
3080.08842	4361.625
3082.46878	4361.025
3084.84769	4338.225
3087.22515	4329.925
3089.60118	4342.425
3091.97576	4346.725
3094.3489	4332.925
3096.72061	4313.825
3099.09087	4313.925
3101.4597	4320.925
3103.82709	4314.425
3106.19305	4299.125
3108.55757	4288.125
3110.92066	4279.325
3113.28232	4268.525
3115.64255	4262.725
3118.00134	4255.225
3120.35871	4248.825
3122.71466	4230.125
3125.06917	4230.325
3127.42226	4231.025
3129.77393	4235.825
3132.12417	4230.625
3134.47299	4248.025
3136.82039	4236.125
3139.16636	4251.625
3141.51092	4248.725
3143.85406	4240.325
3146.19579	4242.425
3148.53609	4233.725
3150.87499	4245.425
3153.21246	4238.225
3155.54853	4247.525
3157.88318	4228.125
3160.21642	4216.225
3162.54826	4227.225
3164.87868	4218.725
3167.2077	4219.725
3169.5353	4208.725
3171.86151	4216.925
3174.18631	4212.725
3176.5097	4208.525
3178.83169	4213.425
3181.15228	4219.725
3183.47147	4224.625
3185.78926	4198.525
3188.10565	4206.625
3190.42065	4210.125
3192.73424	4201.425
3195.04645	4206.825
3197.35725	4207.525
3199.66667	4211.825
3201.97469	4202.025
3204.28132	4210.225
3206.58656	4217.025
3208.8904	4209.525
