Data from AgNP_FTO_APTES_UA_100uM_CRN_2uM_R6G_10uM_NaF_0.1M_Addition_RamanShift__33__14-23-20-332.txt Node

Date: Thu Mar 24 14:23:20 GMT 2022
User: TCL
Spectrometer: QEP01345
Trigger mode: 4
Integration Time (sec): 7.000000E0
Scans to average: 10
Electric dark correction enabled: true
Nonlinearity correction enabled: false
Boxcar width: 0
XAxis mode: Raman Shifts
Number of Pixels in Spectrum: 1044
>>>>>Begin Spectral Data<<<<<
46.04893	-0.925
50.45542	-0.625
54.85868	-1.325
59.25871	0.675
63.6555	43.675
68.04907	44.975
72.43941	49.175
76.82654	50.975
81.21044	54.175
85.59113	54.075
89.96862	61.575
94.34289	57.875
98.71396	60.775
103.08183	62.075
107.4465	62.175
111.80798	64.175
116.16626	68.275
120.52136	68.275
124.87327	70.975
129.222	75.675
133.56755	81.175
137.90993	83.575
142.24913	94.675
146.58517	103.475
150.91804	122.075
155.24774	148.775
159.57429	184.675
163.89768	238.775
168.21792	316.775
172.53501	432.275
176.84895	602.475
181.15975	847.675
185.46741	1187.875
189.77193	1643.575
194.07331	2197.375
198.37157	2845.175
202.6667	3520.275
206.9587	4183.775
211.24758	4907.575
215.53334	5648.875
219.81599	6491.775
224.09553	7426.475
228.37195	8470.475
232.64527	9604.875
236.91549	10712.475
241.18261	11684.675
245.44663	12450.975
249.70755	13075.475
253.96539	13548.475
258.22014	13992.175
262.4718	14445.975
266.72039	14735.875
270.96589	14849.275
275.20832	14719.375
279.44768	14418.575
283.68397	14068.375
287.91719	13810.775
292.14735	13788.575
296.37445	14049.375
300.59849	14545.875
304.81948	15235.875
309.03742	15846.475
313.25231	16045.875
317.46415	15678.475
321.67296	14794.975
325.87872	14006.675
330.08145	13629.575
334.28114	13629.575
338.47781	13796.875
342.67145	14175.375
346.86207	14659.375
351.04966	15351.975
355.23424	16136.075
359.4158	16703.875
363.59435	16893.375
367.76989	16872.175
371.94243	16784.075
376.11196	16682.475
380.27849	16641.075
384.44203	16518.675
388.60257	16434.075
392.76012	16344.975
396.91468	16440.875
401.06626	16730.475
405.21485	16944.375
409.36047	16656.375
413.50311	15836.375
417.64277	15045.975
421.77947	14637.075
425.9132	14489.775
430.04396	14590.075
434.17176	14761.375
438.2966	15194.075
442.41849	15849.075
446.53742	16817.775
450.6534	17694.375
454.76644	18143.375
458.87653	18011.075
462.98368	17485.475
467.08789	16864.175
471.18916	16266.575
475.2875	15669.975
479.38291	15143.975
483.4754	14681.875
487.56496	14316.475
491.6516	14088.675
495.73531	13959.275
499.81612	13946.475
503.89401	14051.675
507.96899	14245.975
512.04106	14326.875
516.11023	14455.375
520.1765	14581.375
524.23987	14675.475
528.30034	14717.675
532.35792	14675.875
536.41261	14457.375
540.46441	14050.475
544.51333	13874.675
548.55936	13969.175
552.60252	14305.075
556.64279	14878.875
560.6802	15327.075
564.71473	15576.075
568.7464	16080.975
572.7752	16491.475
576.80114	16257.675
580.82422	16011.475
584.84444	16340.275
588.86181	17430.575
592.87633	19176.075
596.888	20388.675
600.89682	20074.975
604.9028	20399.675
608.90594	24219.075
612.90624	29720.075
616.90371	28124.675
620.89834	19716.275
624.89015	15507.475
628.87913	14727.375
632.86528	14895.975
636.84862	15011.975
640.82913	14609.375
644.80683	13801.475
648.78172	13286.775
652.75379	13334.875
656.72306	13911.475
660.68952	14639.575
664.65319	14396.175
668.61405	13550.375
672.57211	13213.675
676.52738	13213.375
680.47986	13112.975
684.42955	12864.975
688.37646	12793.975
692.32058	12905.075
696.26192	13155.975
700.20048	13441.475
704.13626	13598.975
708.06928	13461.975
711.99952	13339.075
715.927	13391.775
719.85171	13583.875
723.77365	13614.475
727.69284	13475.275
731.60928	13334.475
735.52295	13395.975
739.43388	13541.175
743.34206	13598.275
747.24749	13578.075
751.15017	13607.275
755.05012	13800.475
758.94733	14550.175
762.8418	16340.275
766.73354	19357.875
770.62254	22257.775
774.50882	23559.275
778.39237	22461.475
782.27321	19580.175
786.15132	16543.475
790.02671	14666.775
793.89938	13775.375
797.76935	13391.075
801.6366	13219.675
805.50115	13081.375
809.36299	13002.175
813.22213	12922.375
817.07857	12889.875
820.93231	12860.275
824.78336	12868.275
828.63172	12950.875
832.47738	12984.675
836.32036	12951.375
840.16066	12897.875
843.99827	12872.475
847.8332	12840.075
851.66546	12806.775
855.49504	12825.075
859.32195	12807.375
863.1462	12753.975
866.96777	12672.675
870.78668	12666.875
874.60293	12734.575
878.41652	12799.075
882.22745	12938.575
886.03573	13034.075
889.84136	12997.275
893.64433	12935.775
897.44466	12882.275
901.24235	12832.675
905.0374	12734.575
908.8298	12622.375
912.61957	12572.075
916.40671	12612.675
920.19121	12726.475
923.97308	12947.875
927.75233	13175.475
931.52895	13284.375
935.30295	13086.775
939.07433	12681.775
942.84309	12320.075
946.60924	12171.275
950.37278	12034.475
954.13371	12058.275
957.89203	11998.375
961.64774	11978.975
965.40086	11973.975
969.15137	11964.975
972.89929	11946.675
976.64461	11966.075
980.38733	11965.275
984.12747	12053.775
987.86502	12147.675
991.59999	12310.675
995.33237	12635.475
999.06217	13118.775
1002.78939	13705.675
1006.51404	14182.375
1010.23611	14527.975
1013.95561	14756.975
1017.67255	14708.875
1021.38692	14278.475
1025.09872	13752.375
1028.80796	13497.875
1032.51465	13573.775
1036.21877	13800.075
1039.92035	13902.575
1043.61937	13836.275
1047.31584	13695.675
1051.00976	13476.475
1054.70114	13341.975
1058.38998	13283.575
1062.07627	13305.475
1065.76003	13329.675
1069.44126	13435.875
1073.11995	13638.975
1076.79611	14004.875
1080.46974	14425.775
1084.14085	14935.575
1087.80943	15421.275
1091.47549	15629.775
1095.13903	15311.175
1098.80005	14746.475
1102.45857	14281.275
1106.11456	14179.175
1109.76805	14347.775
1113.41903	14737.375
1117.06751	15323.775
1120.71348	16004.275
1124.35696	16795.375
1127.99793	17395.975
1131.63641	17231.875
1135.2724	16387.075
1138.90589	15690.875
1142.5369	15275.275
1146.16542	15096.375
1149.79145	15060.575
1153.415	15087.775
1157.03607	15273.375
1160.65467	15689.375
1164.27079	16467.375
1167.88443	17693.375
1171.49561	19601.675
1175.10432	22617.475
1178.71056	26556.375
1182.31434	30036.075
1185.91565	30974.775
1189.51451	29597.875
1193.11091	27222.775
1196.70485	24770.475
1200.29634	22811.775
1203.88538	21312.075
1207.47197	19791.575
1211.05612	18641.875
1214.63782	18084.175
1218.21708	18026.075
1221.79391	18331.975
1225.36829	18709.675
1228.94024	18572.775
1232.50976	17998.475
1236.07685	17382.175
1239.6415	17094.475
1243.20374	17212.575
1246.76355	17324.575
1250.32093	17492.575
1253.8759	17911.775
1257.42845	18647.775
1260.97859	19521.575
1264.52631	20571.875
1268.07163	21527.575
1271.61453	22288.575
1275.15503	22722.475
1278.69312	23040.575
1282.22882	23494.275
1285.76211	24506.975
1289.29301	25989.275
1292.82151	27693.475
1296.34761	29476.875
1299.87133	31899.375
1303.39266	35135.075
1306.9116	39541.675
1310.42815	44167.775
1313.94233	46500.675
1317.45412	45079.375
1320.96354	41467.075
1324.47058	37520.675
1327.97525	34043.975
1331.47754	31560.475
1334.97747	30358.375
1338.47502	30090.575
1341.97022	30316.275
1345.46305	30997.375
1348.95352	32500.075
1352.44163	35236.375
1355.92738	39851.275
1359.41078	46508.575
1362.89183	52461.475
1366.37053	51078.775
1369.84688	42589.475
1373.32088	34048.875
1376.79254	29297.875
1380.26186	27494.675
1383.72883	26540.075
1387.19347	25495.075
1390.65578	24257.075
1394.11575	23594.075
1397.57339	23595.575
1401.0287	23982.575
1404.48168	24238.675
1407.93234	24228.775
1411.38068	24069.075
1414.82669	23769.975
1418.27039	23274.875
1421.71177	22423.375
1425.15083	21611.375
1428.58758	21369.375
1432.02203	22002.275
1435.45416	22993.975
1438.88399	23665.075
1442.31151	23860.075
1445.73673	23954.275
1449.15965	23981.075
1452.58027	23625.775
1455.9986	22959.475
1459.41463	22558.575
1462.82837	22790.875
1466.23982	23666.475
1469.64898	24726.475
1473.05586	25565.575
1476.46045	26237.375
1479.86276	26864.675
1483.26279	27298.475
1486.66054	27870.875
1490.05602	28763.875
1493.44922	29845.075
1496.84016	31022.775
1500.22882	32764.075
1503.61521	35661.975
1506.99934	39398.375
1510.38121	42528.975
1513.76081	42706.775
1517.13816	39263.275
1520.51324	34039.075
1523.88607	29642.175
1527.25665	27150.175
1530.62498	26064.175
1533.99105	25466.575
1537.35488	24958.675
1540.71647	24404.375
1544.07581	23819.475
1547.4329	23182.075
1550.78776	22571.375
1554.14038	22080.975
1557.49077	21765.875
1560.83892	21867.075
1564.18484	22493.875
1567.52853	23492.575
1570.86999	24497.975
1574.20922	25206.275
1577.54624	25209.375
1580.88103	24049.175
1584.2136	22591.175
1587.54395	22279.075
1590.87208	23447.175
1594.19801	26028.775
1597.52172	29246.675
1600.84321	31105.275
1604.16251	30095.575
1607.47959	27049.175
1610.79447	23403.875
1614.10715	20279.475
1617.41763	18130.375
1620.7259	16913.475
1624.03199	16465.475
1627.33587	16551.375
1630.63757	17272.675
1633.93707	18796.975
1637.23439	21519.675
1640.52951	26018.975
1643.82246	32250.975
1647.11321	38238.375
1650.40179	40457.575
1653.68819	36979.275
1656.97241	29793.275
1660.25446	23102.875
1663.53433	18698.275
1666.81203	16109.775
1670.08756	14719.575
1673.36092	13850.275
1676.63211	13348.075
1679.90115	12968.575
1683.16801	12722.675
1686.43272	12491.575
1689.69527	12333.475
1692.95567	12215.075
1696.2139	12130.575
1699.46999	12097.475
1702.72392	12044.475
1705.97571	11987.275
1709.22535	11976.075
1712.47284	11952.275
1715.71819	11932.775
1718.96139	11909.875
1722.20246	11882.375
1725.44139	11784.375
1728.67818	11669.075
1731.91284	11559.475
1735.14537	11452.775
1738.37576	11383.975
1741.60403	11338.475
1744.83017	11276.575
1748.05418	11256.675
1751.27607	11227.575
1754.49584	11205.875
1757.71349	11177.575
1760.92903	11174.175
1764.14244	11157.775
1767.35375	11125.275
1770.56294	11087.675
1773.77002	11044.175
1776.97499	11025.075
1780.17785	10992.875
1783.37861	10965.075
1786.57727	10912.775
1789.77382	10857.375
1792.96828	10849.175
1796.16064	10833.075
1799.3509	10829.175
1802.53907	10810.375
1805.72514	10774.375
1808.90913	10757.275
1812.09102	10698.275
1815.27083	10658.175
1818.44856	10654.075
1821.6242	10613.575
1824.79776	10602.175
1827.96924	10585.475
1831.13864	10545.475
1834.30597	10554.575
1837.47122	10505.675
1840.6344	10509.875
1843.7955	10492.375
1846.95454	10475.075
1850.11151	10466.175
1853.26642	10459.475
1856.41926	10444.375
1859.57004	10422.675
1862.71876	10458.075
1865.86542	10412.075
1869.01003	10413.775
1872.15258	10436.375
1875.29308	10423.075
1878.43152	10395.675
1881.56792	10432.475
1884.70227	10428.575
1887.83457	10422.175
1890.96482	10408.575
1894.09304	10410.775
1897.21921	10403.975
1900.34335	10406.675
1903.46544	10405.775
1906.58551	10428.475
1909.70353	10430.075
1912.81953	10399.675
1915.93349	10417.675
1919.04543	10360.775
1922.15534	10349.175
1925.26322	10295.175
1928.36908	10282.675
1931.47292	10249.875
1934.57473	10220.875
1937.67453	10198.975
1940.77232	10183.475
1943.86808	10146.575
1946.96184	10132.375
1950.05358	10072.175
1953.14331	10062.375
1956.23103	10032.775
1959.31675	10025.675
1962.40046	9975.075
1965.48217	9988.075
1968.56188	9956.275
1971.63959	9918.775
1974.7153	9920.675
1977.78901	9870.075
1980.86073	9821.175
1983.93046	9808.375
1986.99819	9745.875
1990.06394	9707.375
1993.1277	9692.575
1996.18947	9659.075
1999.24925	9605.975
2002.30706	9568.275
2005.36288	9541.275
2008.41672	9512.975
2011.46859	9469.275
2014.51848	9492.775
2017.56639	9459.375
2020.61233	9417.875
2023.6563	9393.775
2026.6983	9357.775
2029.73833	9346.575
2032.7764	9360.175
2035.8125	9348.775
2038.84664	9311.575
2041.87881	9297.575
2044.90903	9298.975
2047.93729	9286.575
2050.96359	9281.875
2053.98794	9244.275
2057.01034	9228.775
2060.03078	9207.575
2063.04927	9215.175
2066.06582	9182.875
2069.08042	9193.875
2072.09307	9156.375
2075.10378	9135.075
2078.11255	9138.375
2081.11938	9159.175
2084.12426	9138.175
2087.12722	9145.775
2090.12824	9153.075
2093.12732	9176.975
2096.12447	9177.475
2099.11969	9186.675
2102.11299	9144.175
2105.10435	9173.175
2108.09379	9165.875
2111.08131	9168.375
2114.0669	9169.675
2117.05057	9177.075
2120.03233	9171.275
2123.01216	9185.675
2125.99008	9205.975
2128.96609	9188.275
2131.94018	9193.975
2134.91236	9198.875
2137.88263	9196.875
2140.851	9202.775
2143.81746	9211.375
2146.78201	9186.575
2149.74466	9164.675
2152.7054	9174.875
2155.66425	9168.975
2158.6212	9182.675
2161.57625	9144.075
2164.52941	9137.875
2167.48067	9136.675
2170.43004	9148.475
2173.37752	9140.475
2176.32311	9135.775
2179.26681	9134.875
2182.20863	9144.875
2185.14856	9145.575
2188.08661	9148.775
2191.02278	9133.975
2193.95707	9114.075
2196.88948	9138.175
2199.82001	9125.275
2202.74867	9107.575
2205.67545	9126.675
2208.60037	9083.675
2211.52341	9080.075
2214.44458	9084.775
2217.36388	9032.875
2220.28132	9051.075
2223.1969	9033.575
2226.11061	9036.875
2229.02246	8995.075
2231.93245	8974.575
2234.84058	8972.075
2237.74686	8953.675
2240.65128	8938.875
2243.55385	8940.875
2246.45456	8915.675
2249.35343	8919.275
2252.25044	8914.475
2255.14561	8886.875
2258.03893	8893.775
2260.93041	8857.775
2263.82004	8869.775
2266.70783	8838.875
2269.59378	8820.275
2272.4779	8811.475
2275.36017	8770.575
2278.24061	8770.475
2281.11922	8752.875
2283.996	8733.675
2286.87094	8716.075
2289.74405	8706.675
2292.61534	8680.175
2295.4848	8664.575
2298.35243	8658.775
2301.21824	8650.775
2304.08223	8653.775
2306.94439	8657.275
2309.80474	8651.975
2312.66327	8678.975
2315.51999	8655.675
2318.37489	8657.975
2321.22797	8636.875
2324.07925	8632.575
2326.92871	8614.775
2329.77637	8622.575
2332.62222	8612.875
2335.46626	8623.275
2338.3085	8644.575
2341.14893	8618.675
2343.98756	8639.975
2346.8244	8636.475
2349.65943	8604.175
2352.49267	8620.475
2355.32411	8635.975
2358.15376	8636.175
2360.98161	8656.775
2363.80768	8646.875
2366.63195	8684.375
2369.45444	8665.975
2372.27514	8655.075
2375.09405	8662.675
2377.91118	8603.675
2380.72652	8612.775
2383.54009	8569.275
2386.35187	8549.075
2389.16188	8519.775
2391.97011	8528.575
2394.77657	8502.875
2397.58125	8469.975
2400.38416	8456.075
2403.18529	8433.575
2405.98466	8408.975
2408.78226	8387.775
2411.57809	8371.575
2414.37216	8361.375
2417.16446	8355.975
2419.955	8334.975
2422.74378	8334.475
2425.5308	8316.675
2428.31606	8344.575
2431.09956	8350.475
2433.88131	8320.775
2436.6613	8313.475
2439.43954	8319.575
2442.21603	8326.075
2444.99077	8324.975
2447.76377	8356.675
2450.53501	8326.675
2453.30451	8352.175
2456.07226	8336.275
2458.83827	8348.275
2461.60254	8356.775
2464.36507	8353.675
2467.12586	8374.375
2469.88492	8400.175
2472.64224	8392.775
2475.39782	8403.875
2478.15167	8404.775
2480.90379	8412.675
2483.65417	8426.275
2486.40283	8436.275
2489.14976	8472.775
2491.89497	8500.575
2494.63845	8485.975
2497.3802	8488.875
2500.12024	8489.775
2502.85855	8461.875
2505.59514	8453.775
2508.33002	8427.975
2511.06318	8394.475
2513.79462	8352.975
2516.52435	8346.575
2519.25237	8341.275
2521.97867	8305.975
2524.70327	8294.575
2527.42616	8287.275
2530.14734	8282.275
2532.86681	8251.775
2535.58458	8256.475
2538.30065	8252.275
2541.01501	8287.975
2543.72768	8269.975
2546.43864	8263.775
2549.14791	8268.375
2551.85548	8258.675
2554.56136	8266.875
2557.26554	8266.575
2559.96803	8251.175
2562.66883	8246.275
2565.36794	8260.775
2568.06536	8276.975
2570.7611	8257.075
2573.45514	8262.875
2576.14751	8231.875
2578.83819	8216.775
2581.52719	8230.575
2584.21451	8212.075
2586.90015	8205.375
2589.58411	8175.475
2592.2664	8180.975
2594.94701	8174.775
2597.62594	8170.075
2600.30321	8148.075
2602.9788	8169.475
2605.65273	8170.375
2608.32498	8172.075
2610.99557	8171.375
2613.66449	8168.175
2616.33175	8177.975
2618.99734	8173.975
2621.66128	8187.775
2624.32355	8161.875
2626.98416	8177.375
2629.64311	8134.675
2632.30041	8136.975
2634.95605	8124.475
2637.61004	8128.875
2640.26238	8120.875
2642.91306	8127.075
2645.56209	8121.675
2648.20948	8109.275
2650.85521	8111.375
2653.4993	8116.975
2656.14175	8130.975
2658.78255	8142.975
2661.42171	8144.575
2664.05923	8140.875
2666.6951	8185.175
2669.32934	8181.475
2671.96194	8177.575
2674.59291	8183.675
2677.22224	8207.675
2679.84993	8190.075
2682.476	8177.575
2685.10043	8186.275
2687.72324	8190.775
2690.34441	8183.075
2692.96396	8172.375
2695.58188	8167.375
2698.19818	8170.575
2700.81285	8173.375
2703.4259	8177.075
2706.03733	8166.675
2708.64714	8159.775
2711.25533	8183.575
2713.86191	8188.275
2716.46687	8213.775
2719.07021	8188.275
2721.67194	8220.675
2724.27206	8195.375
2726.87057	8208.275
2729.46747	8217.575
2732.06276	8209.675
2734.65644	8198.975
2737.24852	8215.475
2739.83899	8195.875
2742.42786	8203.975
2745.01513	8177.775
2747.60079	8159.575
2750.18486	8160.875
2752.76733	8152.375
2755.3482	8170.975
2757.92747	8151.275
2760.50515	8144.775
2763.08123	8144.575
2765.65573	8149.775
2768.22863	8147.375
2770.79994	8152.175
2773.36967	8148.575
2775.9378	8155.475
2778.50435	8149.475
2781.06932	8146.075
2783.6327	8141.175
2786.1945	8153.075
2788.75471	8134.375
2791.31335	8121.175
2793.87041	8137.375
2796.42589	8115.975
2798.97979	8126.875
2801.53212	8112.875
2804.08288	8127.175
2806.63206	8107.175
2809.17967	8098.775
2811.72571	8079.775
2814.27018	8111.275
2816.81308	8103.775
2819.35442	8097.875
2821.89419	8091.275
2824.43239	8097.875
2826.96904	8102.775
2829.50412	8107.875
2832.03763	8079.775
2834.56959	8073.475
2837.1	8068.575
2839.62884	8071.675
2842.15613	8037.175
2844.68186	8062.975
2847.20604	8052.375
2849.72867	8071.875
2852.24974	8052.075
2854.76927	8039.375
2857.28724	8035.075
2859.80367	8063.475
2862.31855	8038.275
2864.83189	8054.275
2867.34368	8061.675
2869.85393	8069.675
2872.36264	8064.975
2874.8698	8071.975
2877.37543	8063.875
2879.87952	8072.075
2882.38207	8070.375
2884.88308	8066.775
2887.38256	8074.075
2889.88051	8039.475
2892.37692	8044.775
2894.8718	8071.175
2897.36515	8061.875
2899.85698	8061.775
2902.34727	8066.675
2904.83604	8080.275
2907.32328	8106.575
2909.809	8080.475
2912.29319	8077.375
2914.77587	8093.675
2917.25702	8079.575
2919.73665	8034.375
2922.21476	8032.975
2924.69136	8040.875
2927.16644	8008.975
2929.64	8032.775
2932.11205	8014.575
2934.58258	7983.375
2937.05161	7991.675
2939.51912	7998.975
2941.98513	7980.875
2944.44962	7957.975
2946.91261	7912.275
2949.37409	7961.875
2951.83407	7934.875
2954.29254	7935.775
2956.74951	7939.075
2959.20498	7936.875
2961.65895	7914.975
2964.11142	7916.075
2966.56239	7896.175
2969.01186	7892.875
2971.45984	7855.375
2973.90632	7843.375
2976.35131	7816.175
2978.7948	7801.075
2981.23681	7769.575
2983.67732	7758.375
2986.11635	7729.275
2988.55388	7713.875
2990.98993	7714.675
2993.4245	7693.575
2995.85758	7695.375
2998.28917	7668.775
3000.71928	7655.675
3003.14791	7621.075
3005.57506	7614.075
3008.00073	7607.775
3010.42493	7618.175
3012.84764	7642.275
3015.26888	7620.775
3017.68865	7587.375
3020.10694	7564.475
3022.52376	7542.375
3024.9391	7516.575
3027.35298	7508.675
3029.76539	7483.275
3032.17632	7491.175
3034.5858	7487.275
3036.9938	7474.275
3039.40034	7442.175
3041.80542	7409.875
3044.20903	7411.575
3046.61118	7416.575
3049.01187	7361.875
3051.4111	7372.975
3053.80888	7367.175
3056.20519	7369.675
3058.60005	7318.275
3060.99345	7317.575
3063.3854	7295.075
3065.7759	7282.475
3068.16494	7281.675
3070.55254	7256.675
3072.93868	7218.475
3075.32338	7214.175
3077.70662	7200.875
3080.08842	7187.975
3082.46878	7196.475
3084.84769	7182.675
3087.22515	7158.175
3089.60118	7165.175
3091.97576	7153.275
3094.3489	7160.375
3096.72061	7159.175
3099.09087	7160.975
3101.4597	7132.975
3103.82709	7136.475
3106.19305	7118.875
3108.55757	7110.575
3110.92066	7078.675
3113.28232	7069.375
3115.64255	7040.675
3118.00134	7026.175
3120.35871	7020.675
3122.71466	7005.775
3125.06917	7002.775
3127.42226	7012.975
3129.77393	7012.475
3132.12417	7014.775
3134.47299	7022.475
3136.82039	7013.475
3139.16636	6987.775
3141.51092	7028.175
3143.85406	7019.975
3146.19579	7019.075
3148.53609	6984.275
3150.87499	6993.075
3153.21246	6994.675
3155.54853	7000.475
3157.88318	6957.975
3160.21642	6938.975
3162.54826	6945.275
3164.87868	6940.175
3167.2077	6938.775
3169.5353	6922.875
3171.86151	6929.775
3174.18631	6911.175
3176.5097	6932.575
3178.83169	6928.875
3181.15228	6917.075
