Data from AgNP_FTO_APTES_UA_100uM_CRN_1uM_R6G_10uM_NaF_0.1M_Addition_RamanShift__31__12-24-20-194.txt Node

Date: Thu Mar 24 12:24:20 GMT 2022
User: TCL
Spectrometer: QEP01345
Trigger mode: 4
Integration Time (sec): 7.000000E0
Scans to average: 10
Electric dark correction enabled: true
Nonlinearity correction enabled: false
Boxcar width: 0
XAxis mode: Raman Shifts
Number of Pixels in Spectrum: 1044
>>>>>Begin Spectral Data<<<<<
46.04893	-1.225
50.45542	-0.325
54.85868	-0.025
59.25871	0.975
63.6555	44.475
68.04907	47.175
72.43941	49.575
76.82654	49.675
81.21044	53.575
85.59113	52.675
89.96862	57.375
94.34289	57.775
98.71396	62.875
103.08183	59.275
107.4465	62.075
111.80798	65.875
116.16626	65.875
120.52136	71.775
124.87327	72.175
129.222	80.375
133.56755	81.775
137.90993	88.775
142.24913	101.175
146.58517	111.875
150.91804	128.275
155.24774	157.375
159.57429	199.275
163.89768	260.475
168.21792	340.675
172.53501	474.575
176.84895	654.075
181.15975	924.875
185.46741	1292.775
189.77193	1795.675
194.07331	2418.675
198.37157	3167.875
202.6667	3939.375
206.9587	4730.875
211.24758	5562.675
215.53334	6477.475
219.81599	7490.375
224.09553	8690.275
228.37195	10015.975
232.64527	11451.275
236.91549	12804.975
241.18261	14008.375
245.44663	14863.075
249.70755	15488.375
253.96539	15988.475
258.22014	16387.975
262.4718	16656.375
266.72039	16687.175
270.96589	16513.475
275.20832	16191.575
279.44768	15776.975
283.68397	15422.675
287.91719	15293.875
292.14735	15451.075
296.37445	16072.175
300.59849	17137.675
304.81948	18556.175
309.03742	19724.775
313.25231	20031.475
317.46415	19000.075
321.67296	17044.875
325.87872	15251.075
330.08145	14328.375
334.28114	14226.675
338.47781	14577.275
342.67145	15146.775
346.86207	16060.875
351.04966	17471.475
355.23424	19142.675
359.4158	20321.575
363.59435	20775.975
367.76989	20613.475
371.94243	20167.875
376.11196	19698.075
380.27849	19213.575
384.44203	18669.975
388.60257	18152.275
392.76012	17852.775
396.91468	18003.675
401.06626	18591.675
405.21485	19020.675
409.36047	18433.275
413.50311	16912.175
417.64277	15456.675
421.77947	14606.275
425.9132	14258.475
430.04396	14191.375
434.17176	14261.475
438.2966	14510.375
442.41849	14992.775
446.53742	15691.375
450.6534	16265.875
454.76644	16479.075
458.87653	16269.675
462.98368	15874.275
467.08789	15415.275
471.18916	14843.575
475.2875	14203.175
479.38291	13707.175
483.4754	13366.675
487.56496	13097.575
491.6516	12992.175
495.73531	12958.775
499.81612	13084.175
503.89401	13351.175
507.96899	13617.475
512.04106	13932.175
516.11023	14294.075
520.1765	14510.375
524.23987	14524.675
528.30034	14257.675
532.35792	13980.675
536.41261	13552.975
540.46441	13041.175
544.51333	12705.675
548.55936	12847.075
552.60252	13415.875
556.64279	14076.475
560.6802	14402.075
564.71473	14934.275
568.7464	16178.475
572.7752	16854.775
576.80114	15876.275
580.82422	14724.375
584.84444	14290.075
588.86181	14148.975
592.87633	14225.175
596.888	14462.975
600.89682	15175.375
604.9028	18337.775
608.90594	27107.875
612.90624	38252.775
616.90371	36491.975
620.89834	22031.475
624.89015	14919.175
628.87913	13693.775
632.86528	14096.075
636.84862	14582.675
640.82913	14058.175
644.80683	12752.275
648.78172	11865.775
652.75379	11935.975
656.72306	12993.575
660.68952	14226.675
664.65319	13911.875
668.61405	12560.775
672.57211	11864.675
676.52738	11802.375
680.47986	11729.275
684.42955	11441.075
688.37646	11293.275
692.32058	11367.475
696.26192	11615.275
700.20048	11973.075
704.13626	12246.775
708.06928	12292.875
711.99952	12138.075
715.927	12051.975
719.85171	12129.575
723.77365	12181.375
727.69284	11978.475
731.60928	11774.475
735.52295	11750.575
739.43388	11824.775
743.34206	11895.975
747.24749	12014.275
751.15017	12176.175
755.05012	12639.175
758.94733	14084.375
762.8418	17473.375
766.73354	22879.875
770.62254	27720.275
774.50882	29614.475
778.39237	27889.075
782.27321	22688.875
786.15132	17298.875
790.02671	14123.975
793.89938	12701.175
797.76935	12103.275
801.6366	11838.975
805.50115	11676.975
809.36299	11534.175
813.22213	11474.875
817.07857	11390.075
820.93231	11391.675
824.78336	11499.375
828.63172	11671.475
832.47738	11744.175
836.32036	11657.475
840.16066	11486.975
843.99827	11360.975
847.8332	11292.675
851.66546	11276.675
855.49504	11295.775
859.32195	11229.475
863.1462	11139.975
866.96777	11072.375
870.78668	11056.275
874.60293	11108.475
878.41652	11228.575
882.22745	11396.175
886.03573	11523.075
889.84136	11486.375
893.64433	11417.775
897.44466	11431.875
901.24235	11433.075
905.0374	11330.475
908.8298	11167.375
912.61957	11090.275
916.40671	11146.875
920.19121	11340.375
923.97308	11636.175
927.75233	11988.475
931.52895	12237.975
935.30295	11897.975
939.07433	11181.875
942.84309	10580.975
946.60924	10303.175
950.37278	10183.575
954.13371	10113.875
957.89203	10079.475
961.64774	10061.775
965.40086	9982.275
969.15137	9970.475
972.89929	9930.675
976.64461	9932.675
980.38733	9906.575
984.12747	9962.875
987.86502	10030.075
991.59999	10130.875
995.33237	10332.675
999.06217	10694.975
1002.78939	11172.475
1006.51404	11655.475
1010.23611	12020.775
1013.95561	12185.675
1017.67255	12112.375
1021.38692	11829.875
1025.09872	11468.175
1028.80796	11331.275
1032.51465	11479.875
1036.21877	11809.175
1039.92035	11970.875
1043.61937	12067.975
1047.31584	12069.875
1051.00976	11928.375
1054.70114	11828.775
1058.38998	11748.875
1062.07627	11825.075
1065.76003	11911.175
1069.44126	12118.475
1073.11995	12419.375
1076.79611	12827.675
1080.46974	13360.475
1084.14085	14133.775
1087.80943	14847.375
1091.47549	14985.675
1095.13903	14454.175
1098.80005	13564.975
1102.45857	12838.175
1106.11456	12582.375
1109.76805	12787.675
1113.41903	13429.175
1117.06751	14523.175
1120.71348	16068.275
1124.35696	17852.275
1127.99793	18787.475
1131.63641	17880.775
1135.2724	15959.075
1138.90589	14568.975
1142.5369	13712.975
1146.16542	13214.875
1149.79145	12922.175
1153.415	12891.875
1157.03607	13076.275
1160.65467	13554.375
1164.27079	14428.975
1167.88443	15829.375
1171.49561	18109.075
1175.10432	21739.875
1178.71056	26461.275
1182.31434	29894.575
1185.91565	30551.575
1189.51451	29164.675
1193.11091	26761.175
1196.70485	23993.275
1200.29634	21863.475
1203.88538	20069.375
1207.47197	17995.575
1211.05612	16193.875
1214.63782	15196.775
1218.21708	14869.875
1221.79391	14821.975
1225.36829	14791.275
1228.94024	14574.675
1232.50976	14388.175
1236.07685	14345.675
1239.6415	14403.375
1243.20374	14524.775
1246.76355	14700.275
1250.32093	14983.175
1253.8759	15510.975
1257.42845	16314.675
1260.97859	17302.475
1264.52631	18309.075
1268.07163	19232.175
1271.61453	19904.375
1275.15503	20382.875
1278.69312	20631.175
1282.22882	21092.775
1285.76211	22000.175
1289.29301	23139.475
1292.82151	24174.675
1296.34761	25496.275
1299.87133	27764.575
1303.39266	31676.475
1306.9116	37695.975
1310.42815	43820.075
1313.94233	46065.575
1317.45412	42893.475
1320.96354	37521.975
1324.47058	32374.975
1327.97525	28450.075
1331.47754	26342.275
1334.97747	25644.875
1338.47502	26150.975
1341.97022	27689.775
1345.46305	30117.475
1348.95352	33271.375
1352.44163	37263.875
1355.92738	43609.575
1359.41078	53052.275
1362.89183	60053.175
1366.37053	55468.575
1369.84688	43704.975
1373.32088	33952.775
1376.79254	28134.675
1380.26186	24886.275
1383.72883	22776.475
1387.19347	21220.475
1390.65578	19875.475
1394.11575	18885.975
1397.57339	18443.275
1401.0287	18403.075
1404.48168	18486.475
1407.93234	18702.675
1411.38068	18894.675
1414.82669	19029.475
1418.27039	18739.775
1421.71177	18194.075
1425.15083	17664.875
1428.58758	17542.975
1432.02203	17889.675
1435.45416	18200.675
1438.88399	18127.675
1442.31151	18046.475
1445.73673	18181.575
1449.15965	18369.475
1452.58027	18266.375
1455.9986	18002.975
1459.41463	18032.175
1462.82837	18465.375
1466.23982	19231.875
1469.64898	19898.775
1473.05586	20235.475
1476.46045	20466.675
1479.86276	20922.075
1483.26279	21670.075
1486.66054	22816.275
1490.05602	24448.275
1493.44922	26818.475
1496.84016	30509.275
1500.22882	36212.075
1503.61521	43916.875
1506.99934	52206.475
1510.38121	58181.575
1513.76081	58513.275
1517.13816	52044.875
1520.51324	42298.875
1523.88607	34136.975
1527.25665	29170.475
1530.62498	26520.075
1533.99105	24962.075
1537.35488	23877.575
1540.71647	23125.475
1544.07581	22628.975
1547.4329	22310.575
1550.78776	22158.875
1554.14038	22096.575
1557.49077	22321.575
1560.83892	23024.975
1564.18484	24364.975
1567.52853	25851.675
1570.86999	26976.475
1574.20922	27458.075
1577.54624	26842.175
1580.88103	24412.275
1584.2136	21408.575
1587.54395	19758.275
1590.87208	19917.275
1594.19801	21666.475
1597.52172	24114.975
1600.84321	25283.275
1604.16251	24297.675
1607.47959	22138.575
1610.79447	19784.975
1614.10715	17519.375
1617.41763	15828.075
1620.7259	14803.075
1624.03199	14392.875
1627.33587	14487.875
1630.63757	15095.175
1633.93707	16374.575
1637.23439	18485.875
1640.52951	22062.975
1643.82246	27403.575
1647.11321	33518.475
1650.40179	37362.075
1653.68819	35201.375
1656.97241	28485.275
1660.25446	21583.975
1663.53433	16847.275
1666.81203	14167.075
1670.08756	12690.675
1673.36092	11821.175
1676.63211	11273.975
1679.90115	10902.175
1683.16801	10636.575
1686.43272	10468.575
1689.69527	10344.975
1692.95567	10210.475
1696.2139	10186.875
1699.46999	10119.075
1702.72392	10094.375
1705.97571	10087.275
1709.22535	10099.175
1712.47284	10090.875
1715.71819	10105.775
1718.96139	10109.975
1722.20246	10040.675
1725.44139	9950.575
1728.67818	9817.475
1731.91284	9692.475
1735.14537	9577.375
1738.37576	9511.375
1741.60403	9442.075
1744.83017	9414.575
1748.05418	9361.575
1751.27607	9308.075
1754.49584	9277.775
1757.71349	9245.275
1760.92903	9214.875
1764.14244	9156.375
1767.35375	9159.175
1770.56294	9088.075
1773.77002	9062.875
1776.97499	9007.075
1780.17785	8960.475
1783.37861	8911.675
1786.57727	8898.175
1789.77382	8864.775
1792.96828	8888.275
1796.16064	8844.475
1799.3509	8833.975
1802.53907	8801.475
1805.72514	8762.375
1808.90913	8732.275
1812.09102	8694.075
1815.27083	8667.575
1818.44856	8651.175
1821.6242	8604.275
1824.79776	8603.475
1827.96924	8573.875
1831.13864	8540.675
1834.30597	8542.375
1837.47122	8537.675
1840.6344	8492.975
1843.7955	8492.675
1846.95454	8492.775
1850.11151	8471.475
1853.26642	8468.975
1856.41926	8471.275
1859.57004	8467.375
1862.71876	8466.475
1865.86542	8461.975
1869.01003	8473.775
1872.15258	8469.175
1875.29308	8473.675
1878.43152	8483.375
1881.56792	8473.475
1884.70227	8482.575
1887.83457	8484.275
1890.96482	8473.775
1894.09304	8461.175
1897.21921	8447.875
1900.34335	8450.875
1903.46544	8478.975
1906.58551	8454.275
1909.70353	8454.775
1912.81953	8454.575
1915.93349	8445.175
1919.04543	8437.475
1922.15534	8379.175
1925.26322	8379.975
1928.36908	8321.175
1931.47292	8309.775
1934.57473	8258.575
1937.67453	8212.575
1940.77232	8205.375
1943.86808	8157.675
1946.96184	8137.975
1950.05358	8113.875
1953.14331	8104.475
1956.23103	8078.575
1959.31675	8060.675
1962.40046	8054.575
1965.48217	8034.275
1968.56188	8059.975
1971.63959	8063.875
1974.7153	8033.275
1977.78901	7990.575
1980.86073	7946.475
1983.93046	7908.275
1986.99819	7863.875
1990.06394	7819.675
1993.1277	7795.675
1996.18947	7745.175
1999.24925	7715.375
2002.30706	7669.075
2005.36288	7649.075
2008.41672	7638.675
2011.46859	7602.575
2014.51848	7583.575
2017.56639	7554.775
2020.61233	7516.275
2023.6563	7487.475
2026.6983	7464.475
2029.73833	7440.475
2032.7764	7447.475
2035.8125	7448.175
2038.84664	7438.875
2041.87881	7417.175
2044.90903	7405.175
2047.93729	7377.875
2050.96359	7337.175
2053.98794	7361.375
2057.01034	7328.675
2060.03078	7324.875
2063.04927	7297.675
2066.06582	7248.375
2069.08042	7266.575
2072.09307	7261.875
2075.10378	7227.775
2078.11255	7233.275
2081.11938	7255.675
2084.12426	7247.775
2087.12722	7260.375
2090.12824	7244.175
2093.12732	7248.775
2096.12447	7261.475
2099.11969	7245.975
2102.11299	7245.675
2105.10435	7238.575
2108.09379	7270.975
2111.08131	7270.375
2114.0669	7297.075
2117.05057	7279.275
2120.03233	7290.675
2123.01216	7312.775
2125.99008	7313.975
2128.96609	7309.175
2131.94018	7312.975
2134.91236	7309.175
2137.88263	7304.275
2140.851	7291.075
2143.81746	7288.275
2146.78201	7293.875
2149.74466	7279.175
2152.7054	7247.575
2155.66425	7223.075
2158.6212	7223.575
2161.57625	7189.475
2164.52941	7195.575
2167.48067	7193.575
2170.43004	7174.375
2173.37752	7193.775
2176.32311	7199.875
2179.26681	7193.275
2182.20863	7204.875
2185.14856	7202.475
2188.08661	7184.475
2191.02278	7191.075
2193.95707	7177.375
2196.88948	7134.075
2199.82001	7129.875
2202.74867	7132.875
2205.67545	7119.575
2208.60037	7114.375
2211.52341	7108.075
2214.44458	7095.075
2217.36388	7067.975
2220.28132	7082.275
2223.1969	7044.075
2226.11061	7030.375
2229.02246	7027.575
2231.93245	7001.375
2234.84058	6982.175
2237.74686	6958.975
2240.65128	6946.875
2243.55385	6959.675
2246.45456	6959.775
2249.35343	6948.775
2252.25044	6973.375
2255.14561	6995.075
2258.03893	6992.075
2260.93041	7009.775
2263.82004	6989.175
2266.70783	6985.875
2269.59378	6950.175
2272.4779	6946.475
2275.36017	6916.775
2278.24061	6918.675
2281.11922	6898.975
2283.996	6855.575
2286.87094	6855.175
2289.74405	6837.275
2292.61534	6801.875
2295.4848	6784.075
2298.35243	6771.775
2301.21824	6770.275
2304.08223	6749.375
2306.94439	6779.875
2309.80474	6763.575
2312.66327	6754.775
2315.51999	6773.875
2318.37489	6769.575
2321.22797	6766.875
2324.07925	6745.075
2326.92871	6746.575
2329.77637	6750.075
2332.62222	6733.075
2335.46626	6714.275
2338.3085	6729.975
2341.14893	6735.375
2343.98756	6778.575
2346.8244	6785.475
2349.65943	6790.975
2352.49267	6787.075
2355.32411	6816.775
2358.15376	6856.575
2360.98161	6859.875
2363.80768	6862.575
2366.63195	6884.775
2369.45444	6900.175
2372.27514	6898.475
2375.09405	6875.875
2377.91118	6861.075
2380.72652	6799.575
2383.54009	6784.775
2386.35187	6755.875
2389.16188	6695.275
2391.97011	6652.975
2394.77657	6637.675
2397.58125	6610.375
2400.38416	6597.575
2403.18529	6560.275
2405.98466	6551.575
2408.78226	6536.275
2411.57809	6519.775
2414.37216	6495.175
2417.16446	6472.175
2419.955	6474.575
2422.74378	6460.975
2425.5308	6493.575
2428.31606	6486.175
2431.09956	6508.175
2433.88131	6498.275
2436.6613	6501.875
2439.43954	6494.575
2442.21603	6522.775
2444.99077	6527.475
2447.76377	6528.775
2450.53501	6549.675
2453.30451	6562.075
2456.07226	6533.575
2458.83827	6547.975
2461.60254	6538.575
2464.36507	6529.275
2467.12586	6536.675
2469.88492	6523.575
2472.64224	6538.575
2475.39782	6523.675
2478.15167	6564.875
2480.90379	6595.575
2483.65417	6636.375
2486.40283	6658.175
2489.14976	6678.575
2491.89497	6685.775
2494.63845	6700.675
2497.3802	6700.475
2500.12024	6687.575
2502.85855	6663.975
2505.59514	6628.175
2508.33002	6580.175
2511.06318	6538.075
2513.79462	6494.875
2516.52435	6456.375
2519.25237	6430.175
2521.97867	6385.675
2524.70327	6400.575
2527.42616	6379.075
2530.14734	6361.275
2532.86681	6347.475
2535.58458	6348.275
2538.30065	6365.375
2541.01501	6347.875
2543.72768	6336.675
2546.43864	6363.275
2549.14791	6356.375
2551.85548	6354.875
2554.56136	6349.475
2557.26554	6361.775
2559.96803	6344.575
2562.66883	6327.175
2565.36794	6346.075
2568.06536	6324.375
2570.7611	6318.075
2573.45514	6322.275
2576.14751	6295.575
2578.83819	6268.075
2581.52719	6279.175
2584.21451	6249.275
2586.90015	6247.675
2589.58411	6240.075
2592.2664	6208.775
2594.94701	6225.175
2597.62594	6216.275
2600.30321	6218.275
2602.9788	6207.775
2605.65273	6212.575
2608.32498	6228.175
2610.99557	6217.375
2613.66449	6229.375
2616.33175	6231.575
2618.99734	6245.775
2621.66128	6230.875
2624.32355	6237.575
2626.98416	6222.575
2629.64311	6227.775
2632.30041	6212.375
2634.95605	6210.775
2637.61004	6183.775
2640.26238	6157.075
2642.91306	6157.675
2645.56209	6148.675
2648.20948	6142.275
2650.85521	6138.375
2653.4993	6135.375
2656.14175	6141.575
2658.78255	6165.475
2661.42171	6166.275
2664.05923	6173.975
2666.6951	6196.375
2669.32934	6211.275
2671.96194	6209.875
2674.59291	6215.975
2677.22224	6215.075
2679.84993	6220.675
2682.476	6208.275
2685.10043	6205.475
2687.72324	6212.975
2690.34441	6201.475
2692.96396	6190.075
2695.58188	6183.975
2698.19818	6177.975
2700.81285	6189.575
2703.4259	6168.075
2706.03733	6177.775
2708.64714	6183.575
2711.25533	6188.675
2713.86191	6196.175
2716.46687	6211.075
2719.07021	6214.275
2721.67194	6215.775
2724.27206	6209.775
2726.87057	6214.775
2729.46747	6202.075
2732.06276	6195.775
2734.65644	6196.475
2737.24852	6159.575
2739.83899	6177.675
2742.42786	6144.975
2745.01513	6139.875
2747.60079	6138.375
2750.18486	6097.875
2752.76733	6115.075
2755.3482	6098.275
2757.92747	6101.375
2760.50515	6098.675
2763.08123	6094.375
2765.65573	6067.875
2768.22863	6071.175
2770.79994	6083.175
2773.36967	6091.975
2775.9378	6089.375
2778.50435	6087.575
2781.06932	6077.575
2783.6327	6079.175
2786.1945	6088.575
2788.75471	6090.475
2791.31335	6089.675
2793.87041	6087.675
2796.42589	6086.075
2798.97979	6103.875
2801.53212	6092.775
2804.08288	6117.775
2806.63206	6113.975
2809.17967	6118.475
2811.72571	6140.375
2814.27018	6153.475
2816.81308	6194.475
2819.35442	6177.175
2821.89419	6192.875
2824.43239	6216.775
2826.96904	6202.875
2829.50412	6208.275
2832.03763	6198.775
2834.56959	6219.875
2837.1	6216.875
2839.62884	6214.275
2842.15613	6207.175
2844.68186	6236.775
2847.20604	6265.775
2849.72867	6252.375
2852.24974	6278.175
2854.76927	6290.975
2857.28724	6294.875
2859.80367	6313.775
2862.31855	6322.975
2864.83189	6335.675
2867.34368	6348.775
2869.85393	6359.075
2872.36264	6369.375
2874.8698	6374.575
2877.37543	6382.375
2879.87952	6378.675
2882.38207	6347.475
2884.88308	6340.775
2887.38256	6305.275
2889.88051	6316.375
2892.37692	6296.975
2894.8718	6291.275
2897.36515	6292.775
2899.85698	6284.675
2902.34727	6305.975
2904.83604	6272.075
2907.32328	6275.775
2909.809	6267.575
2912.29319	6245.175
2914.77587	6241.875
2917.25702	6215.175
2919.73665	6195.575
2922.21476	6176.675
2924.69136	6170.375
2927.16644	6154.675
2929.64	6147.175
2932.11205	6114.975
2934.58258	6071.275
2937.05161	6087.175
2939.51912	6073.875
2941.98513	6061.475
2944.44962	6041.975
2946.91261	6013.375
2949.37409	5999.475
2951.83407	5995.175
2954.29254	5989.275
2956.74951	5977.575
2959.20498	5952.475
2961.65895	5934.875
2964.11142	5908.575
2966.56239	5911.675
2969.01186	5886.575
2971.45984	5862.175
2973.90632	5844.875
2976.35131	5836.975
2978.7948	5816.175
2981.23681	5781.675
2983.67732	5782.675
2986.11635	5746.775
2988.55388	5739.875
2990.98993	5734.775
2993.4245	5707.175
2995.85758	5733.275
2998.28917	5729.175
3000.71928	5711.375
3003.14791	5727.575
3005.57506	5725.175
3008.00073	5689.075
3010.42493	5707.075
3012.84764	5686.275
3015.26888	5690.275
3017.68865	5678.275
3020.10694	5665.475
3022.52376	5633.375
3024.9391	5639.975
3027.35298	5612.975
3029.76539	5606.575
3032.17632	5581.575
3034.5858	5568.475
3036.9938	5538.075
3039.40034	5522.275
3041.80542	5505.575
3044.20903	5500.075
3046.61118	5486.275
3049.01187	5454.175
3051.4111	5461.875
3053.80888	5441.375
3056.20519	5417.575
3058.60005	5423.875
3060.99345	5401.875
3063.3854	5393.375
3065.7759	5369.875
3068.16494	5346.775
3070.55254	5323.375
3072.93868	5319.075
3075.32338	5287.075
3077.70662	5281.675
3080.08842	5253.475
3082.46878	5245.575
3084.84769	5235.275
3087.22515	5228.875
3089.60118	5220.875
3091.97576	5213.775
3094.3489	5209.975
3096.72061	5224.575
3099.09087	5207.075
3101.4597	5187.575
3103.82709	5188.775
3106.19305	5180.275
3108.55757	5176.075
3110.92066	5144.675
3113.28232	5143.775
3115.64255	5142.375
3118.00134	5134.575
3120.35871	5119.875
3122.71466	5104.575
3125.06917	5115.875
3127.42226	5112.275
3129.77393	5106.675
3132.12417	5109.775
3134.47299	5134.775
3136.82039	5137.775
3139.16636	5154.075
3141.51092	5135.275
3143.85406	5141.775
3146.19579	5156.375
3148.53609	5128.075
3150.87499	5147.375
3153.21246	5146.275
3155.54853	5159.775
3157.88318	5149.675
3160.21642	5162.275
3162.54826	5156.275
3164.87868	5155.075
3167.2077	5140.475
3169.5353	5159.975
3171.86151	5143.875
3174.18631	5124.575
3176.5097	5147.875
3178.83169	5124.775
3181.15228	5142.175
3183.47147	5123.875
3185.78926	5121.675
3188.10565	5133.575
3190.42065	5131.975
