Data from AgNP_FTO_APTES_UA_100uM_CRN_1uM_R6G_10uM_NaF_0.1M_Addition_RamanShift__26__12-18-30-188.txt Node

Date: Thu Mar 24 12:18:30 GMT 2022
User: TCL
Spectrometer: QEP01345
Trigger mode: 4
Integration Time (sec): 7.000000E0
Scans to average: 10
Electric dark correction enabled: true
Nonlinearity correction enabled: false
Boxcar width: 0
XAxis mode: Raman Shifts
Number of Pixels in Spectrum: 1044
>>>>>Begin Spectral Data<<<<<
46.04893	-1.5875
50.45542	-0.7875
54.85868	0.6125
59.25871	-0.5875
63.6555	51.1125
68.04907	59.4125
72.43941	57.7125
76.82654	54.1125
81.21044	63.3125
85.59113	65.5125
89.96862	66.2125
94.34289	69.0125
98.71396	71.1125
103.08183	70.5125
107.4465	72.5125
111.80798	74.4125
116.16626	75.4125
120.52136	81.0125
124.87327	80.8125
129.222	89.2125
133.56755	94.1125
137.90993	104.2125
142.24913	112.6125
146.58517	129.4125
150.91804	151.6125
155.24774	181.5125
159.57429	228.6125
163.89768	296.8125
168.21792	390.9125
172.53501	544.0125
176.84895	762.1125
181.15975	1072.8125
185.46741	1490.9125
189.77193	2062.9125
194.07331	2775.5125
198.37157	3590.0125
202.6667	4447.9125
206.9587	5344.3125
211.24758	6261.2125
215.53334	7251.9125
219.81599	8324.6125
224.09553	9567.1125
228.37195	10949.2125
232.64527	12451.6125
236.91549	13918.9125
241.18261	15245.0125
245.44663	16276.8125
249.70755	17022.8125
253.96539	17752.6125
258.22014	18324.2125
262.4718	18844.3125
266.72039	19119.6125
270.96589	19106.1125
275.20832	18924.7125
279.44768	18621.9125
283.68397	18331.4125
287.91719	18214.1125
292.14735	18304.6125
296.37445	18704.9125
300.59849	19443.7125
304.81948	20356.8125
309.03742	21076.4125
313.25231	21214.4125
317.46415	20369.6125
321.67296	18921.8125
325.87872	17591.1125
330.08145	16900.0125
334.28114	16834.0125
338.47781	17117.2125
342.67145	17550.4125
346.86207	18290.2125
351.04966	19338.3125
355.23424	20575.9125
359.4158	21482.8125
363.59435	21887.4125
367.76989	21841.8125
371.94243	21643.2125
376.11196	21401.5125
380.27849	21141.7125
384.44203	20857.8125
388.60257	20594.2125
392.76012	20464.2125
396.91468	20633.3125
401.06626	21129.0125
405.21485	21505.0125
409.36047	21073.3125
413.50311	19951.0125
417.64277	18883.9125
421.77947	18341.8125
425.9132	18230.0125
430.04396	18308.6125
434.17176	18465.8125
438.2966	18802.3125
442.41849	19479.1125
446.53742	20391.2125
450.6534	21293.9125
454.76644	21731.0125
458.87653	21596.2125
462.98368	21118.4125
467.08789	20504.2125
471.18916	19877.0125
475.2875	19303.6125
479.38291	18872.6125
483.4754	18506.6125
487.56496	18163.4125
491.6516	17794.4125
495.73531	17554.5125
499.81612	17490.4125
503.89401	17650.2125
507.96899	17867.5125
512.04106	18014.5125
516.11023	18102.9125
520.1765	18142.4125
524.23987	18113.4125
528.30034	17994.3125
532.35792	17767.9125
536.41261	17401.0125
540.46441	16909.1125
544.51333	16711.8125
548.55936	16968.9125
552.60252	17655.6125
556.64279	18505.0125
560.6802	19061.9125
564.71473	19510.7125
568.7464	20602.9125
572.7752	21451.1125
576.80114	21014.3125
580.82422	20361.4125
584.84444	20229.1125
588.86181	20727.7125
592.87633	21534.3125
596.888	21927.2125
600.89682	21731.5125
604.9028	23567.5125
608.90594	30268.3125
612.90624	38648.6125
616.90371	36490.5125
620.89834	24635.5125
624.89015	18850.3125
628.87913	17851.1125
632.86528	18113.6125
636.84862	18384.5125
640.82913	17819.7125
644.80683	16687.3125
648.78172	15856.5125
652.75379	15860.0125
656.72306	16683.2125
660.68952	17686.6125
664.65319	17493.7125
668.61405	16433.0125
672.57211	15932.5125
676.52738	15893.9125
680.47986	15823.9125
684.42955	15584.2125
688.37646	15394.3125
692.32058	15523.4125
696.26192	15801.4125
700.20048	16177.7125
704.13626	16446.4125
708.06928	16476.7125
711.99952	16284.7125
715.927	16240.9125
719.85171	16306.4125
723.77365	16326.2125
727.69284	16091.7125
731.60928	15847.7125
735.52295	15850.5125
739.43388	15957.6125
743.34206	16110.4125
747.24749	16220.0125
751.15017	16389.7125
755.05012	16896.6125
758.94733	18121.8125
762.8418	21025.7125
766.73354	25789.3125
770.62254	30073.7125
774.50882	31446.7125
778.39237	29393.2125
782.27321	24841.4125
786.15132	20467.4125
790.02671	17850.4125
793.89938	16608.2125
797.76935	16110.8125
801.6366	15877.0125
805.50115	15723.1125
809.36299	15596.2125
813.22213	15490.5125
817.07857	15417.2125
820.93231	15382.3125
824.78336	15395.4125
828.63172	15464.3125
832.47738	15512.5125
836.32036	15488.3125
840.16066	15413.1125
843.99827	15390.8125
847.8332	15328.2125
851.66546	15320.4125
855.49504	15262.8125
859.32195	15255.7125
863.1462	15130.6125
866.96777	15050.8125
870.78668	15002.5125
874.60293	15054.5125
878.41652	15128.0125
882.22745	15314.1125
886.03573	15447.6125
889.84136	15418.8125
893.64433	15291.3125
897.44466	15250.5125
901.24235	15220.0125
905.0374	15073.0125
908.8298	14970.0125
912.61957	14900.1125
916.40671	15028.9125
920.19121	15361.4125
923.97308	15662.9125
927.75233	15881.0125
931.52895	16014.0125
935.30295	15695.3125
939.07433	15064.5125
942.84309	14562.1125
946.60924	14285.0125
950.37278	14201.5125
954.13371	14118.4125
957.89203	14047.6125
961.64774	13975.5125
965.40086	13958.5125
969.15137	13964.3125
972.89929	13883.0125
976.64461	13844.9125
980.38733	13839.3125
984.12747	13859.5125
987.86502	14004.7125
991.59999	14221.1125
995.33237	14622.0125
999.06217	15258.2125
1002.78939	16096.6125
1006.51404	16768.6125
1010.23611	17251.2125
1013.95561	17473.2125
1017.67255	17429.3125
1021.38692	17026.2125
1025.09872	16507.1125
1028.80796	16354.3125
1032.51465	16657.3125
1036.21877	17067.1125
1039.92035	17213.3125
1043.61937	17146.7125
1047.31584	16886.8125
1051.00976	16528.0125
1054.70114	16313.0125
1058.38998	16272.4125
1062.07627	16307.2125
1065.76003	16454.5125
1069.44126	16629.1125
1073.11995	16978.4125
1076.79611	17337.3125
1080.46974	17730.7125
1084.14085	18455.5125
1087.80943	19115.6125
1091.47549	19291.6125
1095.13903	18907.7125
1098.80005	18132.0125
1102.45857	17468.6125
1106.11456	17167.4125
1109.76805	17284.7125
1113.41903	17807.0125
1117.06751	18646.7125
1120.71348	19821.6125
1124.35696	21080.3125
1127.99793	21875.1125
1131.63641	21363.3125
1135.2724	20059.5125
1138.90589	19056.8125
1142.5369	18466.6125
1146.16542	18135.8125
1149.79145	18022.6125
1153.415	18098.1125
1157.03607	18401.3125
1160.65467	19038.5125
1164.27079	20162.0125
1167.88443	21821.5125
1171.49561	24441.6125
1175.10432	28310.8125
1178.71056	33322.3125
1182.31434	37432.0125
1185.91565	38784.5125
1189.51451	37609.9125
1193.11091	35168.2125
1196.70485	32330.5125
1200.29634	29810.8125
1203.88538	27724.9125
1207.47197	25602.7125
1211.05612	23835.2125
1214.63782	22937.3125
1218.21708	22813.4125
1221.79391	23095.5125
1225.36829	23104.4125
1228.94024	22594.8125
1232.50976	21859.2125
1236.07685	21307.2125
1239.6415	21085.0125
1243.20374	21075.8125
1246.76355	21239.8125
1250.32093	21626.9125
1253.8759	22264.3125
1257.42845	23247.7125
1260.97859	24359.2125
1264.52631	25479.2125
1268.07163	26632.1125
1271.61453	27687.6125
1275.15503	28610.6125
1278.69312	29366.9125
1282.22882	30219.4125
1285.76211	31350.0125
1289.29301	32791.9125
1292.82151	34448.5125
1296.34761	36469.9125
1299.87133	39423.8125
1303.39266	43804.1125
1306.9116	49904.3125
1310.42815	56300.2125
1313.94233	59361.2125
1317.45412	57279.6125
1320.96354	52836.4125
1324.47058	48113.2125
1327.97525	44308.4125
1331.47754	42058.5125
1334.97747	41245.0125
1338.47502	41634.4125
1341.97022	42562.4125
1345.46305	43946.4125
1348.95352	45676.5125
1352.44163	48292.7125
1355.92738	53055.7125
1359.41078	60757.3125
1362.89183	67134.3125
1366.37053	63768.1125
1369.84688	52685.6125
1373.32088	42767.8125
1376.79254	36996.2125
1380.26186	34090.4125
1383.72883	32505.3125
1387.19347	31407.1125
1390.65578	30595.7125
1394.11575	30288.5125
1397.57339	30616.7125
1401.0287	31311.1125
1404.48168	32022.8125
1407.93234	32363.6125
1411.38068	32236.3125
1414.82669	31638.1125
1418.27039	30414.3125
1421.71177	28870.6125
1425.15083	27570.3125
1428.58758	27042.7125
1432.02203	27472.4125
1435.45416	28096.2125
1438.88399	28446.6125
1442.31151	28720.4125
1445.73673	29034.0125
1449.15965	29445.1125
1452.58027	29530.8125
1455.9986	29427.1125
1459.41463	29629.3125
1462.82837	30383.2125
1466.23982	31389.7125
1469.64898	32212.5125
1473.05586	32618.9125
1476.46045	32760.0125
1479.86276	32827.5125
1483.26279	33034.1125
1486.66054	33680.0125
1490.05602	34909.4125
1493.44922	36566.8125
1496.84016	38994.5125
1500.22882	42908.4125
1503.61521	48613.6125
1506.99934	54998.4125
1510.38121	59596.2125
1513.76081	59603.2125
1517.13816	54489.7125
1520.51324	46809.3125
1523.88607	40601.1125
1527.25665	36966.9125
1530.62498	35214.9125
1533.99105	34271.1125
1537.35488	33566.9125
1540.71647	32906.9125
1544.07581	32233.7125
1547.4329	31507.9125
1550.78776	30899.8125
1554.14038	30496.0125
1557.49077	30414.5125
1560.83892	30777.4125
1564.18484	31647.1125
1567.52853	32706.5125
1570.86999	33510.2125
1574.20922	33932.8125
1577.54624	33689.0125
1580.88103	31966.2125
1584.2136	29888.4125
1587.54395	29231.2125
1590.87208	30544.8125
1594.19801	33494.6125
1597.52172	37055.9125
1600.84321	38850.3125
1604.16251	37412.4125
1607.47959	34034.7125
1610.79447	30076.0125
1614.10715	26486.0125
1617.41763	23757.9125
1620.7259	22001.8125
1624.03199	21219.1125
1627.33587	21202.9125
1630.63757	22136.4125
1633.93707	24028.1125
1637.23439	27287.9125
1640.52951	32284.7125
1643.82246	38952.0125
1647.11321	45482.1125
1650.40179	48372.8125
1653.68819	44798.2125
1656.97241	36690.3125
1660.25446	28744.3125
1663.53433	23172.4125
1666.81203	19866.0125
1670.08756	17970.1125
1673.36092	16830.6125
1676.63211	16132.0125
1679.90115	15612.6125
1683.16801	15267.4125
1686.43272	15035.1125
1689.69527	14862.7125
1692.95567	14687.6125
1696.2139	14610.2125
1699.46999	14521.7125
1702.72392	14460.7125
1705.97571	14440.0125
1709.22535	14424.8125
1712.47284	14416.3125
1715.71819	14395.7125
1718.96139	14356.5125
1722.20246	14296.3125
1725.44139	14194.9125
1728.67818	14029.8125
1731.91284	13887.5125
1735.14537	13752.8125
1738.37576	13690.9125
1741.60403	13604.4125
1744.83017	13555.6125
1748.05418	13541.3125
1751.27607	13458.4125
1754.49584	13428.2125
1757.71349	13393.1125
1760.92903	13348.2125
1764.14244	13362.2125
1767.35375	13323.7125
1770.56294	13315.0125
1773.77002	13255.3125
1776.97499	13237.0125
1780.17785	13163.8125
1783.37861	13142.4125
1786.57727	13096.2125
1789.77382	13071.0125
1792.96828	13054.5125
1796.16064	13066.5125
1799.3509	12997.9125
1802.53907	12980.3125
1805.72514	12916.8125
1808.90913	12885.4125
1812.09102	12850.7125
1815.27083	12822.1125
1818.44856	12784.8125
1821.6242	12768.5125
1824.79776	12753.2125
1827.96924	12729.3125
1831.13864	12705.3125
1834.30597	12706.4125
1837.47122	12689.5125
1840.6344	12644.5125
1843.7955	12661.8125
1846.95454	12648.8125
1850.11151	12637.1125
1853.26642	12644.5125
1856.41926	12670.6125
1859.57004	12666.3125
1862.71876	12661.5125
1865.86542	12668.3125
1869.01003	12661.2125
1872.15258	12676.9125
1875.29308	12689.8125
1878.43152	12683.5125
1881.56792	12673.2125
1884.70227	12690.2125
1887.83457	12679.5125
1890.96482	12692.8125
1894.09304	12654.5125
1897.21921	12654.7125
1900.34335	12681.9125
1903.46544	12703.3125
1906.58551	12704.0125
1909.70353	12707.2125
1912.81953	12680.9125
1915.93349	12653.3125
1919.04543	12606.2125
1922.15534	12588.7125
1925.26322	12522.3125
1928.36908	12495.4125
1931.47292	12461.5125
1934.57473	12392.4125
1937.67453	12353.7125
1940.77232	12304.5125
1943.86808	12233.3125
1946.96184	12218.3125
1950.05358	12206.9125
1953.14331	12184.9125
1956.23103	12125.5125
1959.31675	12116.3125
1962.40046	12110.7125
1965.48217	12087.8125
1968.56188	12051.9125
1971.63959	12040.0125
1974.7153	12012.7125
1977.78901	11978.1125
1980.86073	11923.9125
1983.93046	11896.3125
1986.99819	11826.2125
1990.06394	11788.3125
1993.1277	11728.0125
1996.18947	11669.6125
1999.24925	11650.4125
2002.30706	11566.1125
2005.36288	11557.1125
2008.41672	11528.2125
2011.46859	11495.8125
2014.51848	11475.5125
2017.56639	11443.1125
2020.61233	11413.6125
2023.6563	11371.5125
2026.6983	11342.6125
2029.73833	11342.2125
2032.7764	11306.0125
2035.8125	11304.6125
2038.84664	11285.0125
2041.87881	11251.3125
2044.90903	11229.0125
2047.93729	11225.8125
2050.96359	11202.0125
2053.98794	11182.7125
2057.01034	11178.4125
2060.03078	11143.7125
2063.04927	11127.8125
2066.06582	11108.0125
2069.08042	11076.6125
2072.09307	11067.0125
2075.10378	11076.6125
2078.11255	11060.9125
2081.11938	11110.5125
2084.12426	11061.4125
2087.12722	11086.6125
2090.12824	11045.0125
2093.12732	11054.1125
2096.12447	11090.0125
2099.11969	11086.0125
2102.11299	11067.7125
2105.10435	11097.3125
2108.09379	11074.8125
2111.08131	11077.9125
2114.0669	11105.0125
2117.05057	11106.6125
2120.03233	11113.4125
2123.01216	11126.9125
2125.99008	11161.7125
2128.96609	11130.3125
2131.94018	11157.9125
2134.91236	11143.1125
2137.88263	11156.7125
2140.851	11119.7125
2143.81746	11164.2125
2146.78201	11131.3125
2149.74466	11136.1125
2152.7054	11101.9125
2155.66425	11100.1125
2158.6212	11103.5125
2161.57625	11088.6125
2164.52941	11063.0125
2167.48067	11090.3125
2170.43004	11070.9125
2173.37752	11057.5125
2176.32311	11071.1125
2179.26681	11052.8125
2182.20863	11068.7125
2185.14856	11063.7125
2188.08661	11056.0125
2191.02278	11062.2125
2193.95707	11059.8125
2196.88948	11050.0125
2199.82001	11030.9125
2202.74867	11012.4125
2205.67545	11034.0125
2208.60037	11007.3125
2211.52341	10991.9125
2214.44458	11009.3125
2217.36388	10988.1125
2220.28132	10994.2125
2223.1969	10952.1125
2226.11061	10925.2125
2229.02246	10910.1125
2231.93245	10849.8125
2234.84058	10857.9125
2237.74686	10813.3125
2240.65128	10833.7125
2243.55385	10824.0125
2246.45456	10800.5125
2249.35343	10787.7125
2252.25044	10800.6125
2255.14561	10785.5125
2258.03893	10802.2125
2260.93041	10813.6125
2263.82004	10772.9125
2266.70783	10736.9125
2269.59378	10722.2125
2272.4779	10669.0125
2275.36017	10665.1125
2278.24061	10655.5125
2281.11922	10632.5125
2283.996	10621.6125
2286.87094	10590.0125
2289.74405	10590.1125
2292.61534	10555.7125
2295.4848	10536.5125
2298.35243	10517.6125
2301.21824	10533.2125
2304.08223	10523.7125
2306.94439	10521.0125
2309.80474	10545.8125
2312.66327	10558.5125
2315.51999	10546.5125
2318.37489	10549.5125
2321.22797	10550.0125
2324.07925	10533.3125
2326.92871	10550.6125
2329.77637	10552.6125
2332.62222	10535.7125
2335.46626	10508.1125
2338.3085	10536.8125
2341.14893	10549.8125
2343.98756	10564.5125
2346.8244	10575.1125
2349.65943	10594.6125
2352.49267	10617.2125
2355.32411	10631.5125
2358.15376	10655.7125
2360.98161	10655.3125
2363.80768	10656.7125
2366.63195	10671.1125
2369.45444	10618.9125
2372.27514	10610.5125
2375.09405	10610.0125
2377.91118	10597.6125
2380.72652	10535.9125
2383.54009	10496.3125
2386.35187	10450.8125
2389.16188	10447.6125
2391.97011	10369.1125
2394.77657	10385.1125
2397.58125	10332.4125
2400.38416	10334.0125
2403.18529	10296.9125
2405.98466	10268.2125
2408.78226	10274.2125
2411.57809	10223.0125
2414.37216	10198.1125
2417.16446	10186.2125
2419.955	10155.9125
2422.74378	10173.9125
2425.5308	10168.7125
2428.31606	10173.6125
2431.09956	10159.4125
2433.88131	10165.9125
2436.6613	10155.1125
2439.43954	10166.0125
2442.21603	10195.5125
2444.99077	10196.1125
2447.76377	10237.2125
2450.53501	10202.2125
2453.30451	10218.9125
2456.07226	10218.4125
2458.83827	10217.2125
2461.60254	10238.6125
2464.36507	10228.3125
2467.12586	10222.6125
2469.88492	10245.1125
2472.64224	10225.0125
2475.39782	10229.6125
2478.15167	10271.4125
2480.90379	10289.2125
2483.65417	10297.7125
2486.40283	10341.6125
2489.14976	10360.8125
2491.89497	10381.4125
2494.63845	10388.8125
2497.3802	10370.3125
2500.12024	10402.3125
2502.85855	10408.0125
2505.59514	10365.9125
2508.33002	10333.0125
2511.06318	10294.2125
2513.79462	10243.2125
2516.52435	10218.6125
2519.25237	10172.3125
2521.97867	10170.0125
2524.70327	10162.7125
2527.42616	10155.8125
2530.14734	10149.7125
2532.86681	10123.6125
2535.58458	10122.3125
2538.30065	10133.5125
2541.01501	10156.3125
2543.72768	10160.0125
2546.43864	10131.0125
2549.14791	10107.3125
2551.85548	10132.1125
2554.56136	10121.4125
2557.26554	10131.2125
2559.96803	10107.9125
2562.66883	10104.0125
2565.36794	10132.3125
2568.06536	10097.4125
2570.7611	10112.0125
2573.45514	10069.7125
2576.14751	10068.5125
2578.83819	10071.9125
2581.52719	10112.4125
2584.21451	10079.0125
2586.90015	10049.2125
2589.58411	10053.6125
2592.2664	10042.5125
2594.94701	10017.3125
2597.62594	10053.3125
2600.30321	10004.2125
2602.9788	10022.9125
2605.65273	10057.9125
2608.32498	10020.8125
2610.99557	10040.4125
2613.66449	10077.7125
2616.33175	10074.6125
2618.99734	10106.0125
2621.66128	10106.8125
2624.32355	10095.8125
2626.98416	10118.9125
2629.64311	10116.0125
2632.30041	10094.7125
2634.95605	10124.2125
2637.61004	10080.2125
2640.26238	10056.1125
2642.91306	10064.5125
2645.56209	10038.9125
2648.20948	10015.5125
2650.85521	10053.4125
2653.4993	10024.6125
2656.14175	10056.9125
2658.78255	10083.4125
2661.42171	10069.4125
2664.05923	10109.0125
2666.6951	10107.2125
2669.32934	10142.5125
2671.96194	10127.4125
2674.59291	10102.4125
2677.22224	10150.1125
2679.84993	10125.3125
2682.476	10116.5125
2685.10043	10114.3125
2687.72324	10106.1125
2690.34441	10101.5125
2692.96396	10099.2125
2695.58188	10106.9125
2698.19818	10067.5125
2700.81285	10075.7125
2703.4259	10091.3125
2706.03733	10076.7125
2708.64714	10087.8125
2711.25533	10089.2125
2713.86191	10096.3125
2716.46687	10089.6125
2719.07021	10102.6125
2721.67194	10138.8125
2724.27206	10136.1125
2726.87057	10131.5125
2729.46747	10127.2125
2732.06276	10158.5125
2734.65644	10146.8125
2737.24852	10116.4125
2739.83899	10124.7125
2742.42786	10115.3125
2745.01513	10103.1125
2747.60079	10089.3125
2750.18486	10087.7125
2752.76733	10094.3125
2755.3482	10083.4125
2757.92747	10098.3125
2760.50515	10059.2125
2763.08123	10085.1125
2765.65573	10083.5125
2768.22863	10077.7125
2770.79994	10093.0125
2773.36967	10090.5125
2775.9378	10085.8125
2778.50435	10078.9125
2781.06932	10080.3125
2783.6327	10076.0125
2786.1945	10093.5125
2788.75471	10066.5125
2791.31335	10057.1125
2793.87041	10066.9125
2796.42589	10043.9125
2798.97979	10065.3125
2801.53212	10014.6125
2804.08288	10066.0125
2806.63206	10044.1125
2809.17967	10049.8125
2811.72571	10038.5125
2814.27018	10062.7125
2816.81308	10052.6125
2819.35442	10057.4125
2821.89419	10049.7125
2824.43239	10052.1125
2826.96904	10041.4125
2829.50412	10066.7125
2832.03763	10057.6125
2834.56959	10057.7125
2837.1	10045.0125
2839.62884	10027.0125
2842.15613	10045.0125
2844.68186	10036.5125
2847.20604	10050.1125
2849.72867	10029.8125
2852.24974	10047.6125
2854.76927	10044.2125
2857.28724	10055.6125
2859.80367	10064.5125
2862.31855	10073.7125
2864.83189	10064.4125
2867.34368	10077.4125
2869.85393	10082.2125
2872.36264	10080.8125
2874.8698	10121.6125
2877.37543	10119.5125
2879.87952	10107.2125
2882.38207	10104.7125
2884.88308	10080.2125
2887.38256	10091.1125
2889.88051	10086.7125
2892.37692	10076.4125
2894.8718	10051.8125
2897.36515	10097.3125
2899.85698	10081.8125
2902.34727	10119.6125
2904.83604	10091.7125
2907.32328	10144.7125
2909.809	10073.7125
2912.29319	10083.8125
2914.77587	10080.5125
2917.25702	10042.3125
2919.73665	10028.5125
2922.21476	10051.4125
2924.69136	10040.8125
2927.16644	10030.1125
2929.64	9970.0125
2932.11205	9946.3125
2934.58258	9930.8125
2937.05161	9940.1125
2939.51912	9931.5125
2941.98513	9923.8125
2944.44962	9881.2125
2946.91261	9859.9125
2949.37409	9904.7125
2951.83407	9874.1125
2954.29254	9859.0125
2956.74951	9830.1125
2959.20498	9832.7125
2961.65895	9781.3125
2964.11142	9783.1125
2966.56239	9755.7125
2969.01186	9727.1125
2971.45984	9682.8125
2973.90632	9689.7125
2976.35131	9656.6125
2978.7948	9637.2125
2981.23681	9595.0125
2983.67732	9582.6125
2986.11635	9563.1125
2988.55388	9534.1125
2990.98993	9530.4125
2993.4245	9479.5125
2995.85758	9492.8125
2998.28917	9483.6125
3000.71928	9456.7125
3003.14791	9476.3125
3005.57506	9464.0125
3008.00073	9410.3125
3010.42493	9392.8125
3012.84764	9403.3125
3015.26888	9388.0125
3017.68865	9377.6125
3020.10694	9351.8125
3022.52376	9308.3125
3024.9391	9299.0125
3027.35298	9291.5125
3029.76539	9274.3125
