Data from AgNP_FTO_APTES_UA_100uM_CRN_100uM_R6G_10uM_NaF_0.1M_Addition_RamanShift__26__18-17-50-597.txt Node

Date: Thu Mar 24 18:17:50 GMT 2022
User: TCL
Spectrometer: QEP01345
Trigger mode: 4
Integration Time (sec): 7.000000E0
Scans to average: 10
Electric dark correction enabled: true
Nonlinearity correction enabled: false
Boxcar width: 0
XAxis mode: Raman Shifts
Number of Pixels in Spectrum: 1044
>>>>>Begin Spectral Data<<<<<
46.04893	-1.1625
50.45542	0.1375
54.85868	-0.6625
59.25871	0.3375
63.6555	31.3375
68.04907	35.6375
72.43941	37.3375
76.82654	33.4375
81.21044	40.5375
85.59113	40.3375
89.96862	44.4375
94.34289	44.1375
98.71396	44.7375
103.08183	45.5375
107.4465	46.9375
111.80798	48.4375
116.16626	49.7375
120.52136	49.4375
124.87327	48.1375
129.222	50.5375
133.56755	56.9375
137.90993	56.6375
142.24913	63.6375
146.58517	69.2375
150.91804	75.5375
155.24774	90.9375
159.57429	109.7375
163.89768	140.4375
168.21792	181.7375
172.53501	246.1375
176.84895	343.3375
181.15975	484.3375
185.46741	668.8375
189.77193	932.4375
194.07331	1245.6375
198.37157	1612.6375
202.6667	1986.3375
206.9587	2367.7375
211.24758	2766.9375
215.53334	3153.8375
219.81599	3584.4375
224.09553	4064.5375
228.37195	4587.7375
232.64527	5174.1375
236.91549	5774.3375
241.18261	6334.5375
245.44663	6825.4375
249.70755	7245.2375
253.96539	7604.4375
258.22014	7861.7375
262.4718	8113.3375
266.72039	8292.9375
270.96589	8362.9375
275.20832	8330.5375
279.44768	8274.7375
283.68397	8157.4375
287.91719	8098.9375
292.14735	8067.9375
296.37445	8140.6375
300.59849	8304.0375
304.81948	8488.2375
309.03742	8598.5375
313.25231	8585.0375
317.46415	8386.6375
321.67296	8037.7375
325.87872	7722.7375
330.08145	7535.0375
334.28114	7522.3375
338.47781	7612.5375
342.67145	7712.1375
346.86207	7902.1375
351.04966	8146.7375
355.23424	8375.3375
359.4158	8586.9375
363.59435	8673.9375
367.76989	8732.3375
371.94243	8725.3375
376.11196	8720.5375
380.27849	8709.5375
384.44203	8683.2375
388.60257	8689.6375
392.76012	8722.0375
396.91468	8785.2375
401.06626	8950.0375
405.21485	9047.2375
409.36047	8938.7375
413.50311	8657.6375
417.64277	8405.2375
421.77947	8266.5375
425.9132	8225.5375
430.04396	8246.0375
434.17176	8300.2375
438.2966	8360.8375
442.41849	8515.2375
446.53742	8743.6375
450.6534	8953.4375
454.76644	9115.6375
458.87653	9111.7375
462.98368	9060.2375
467.08789	8950.8375
471.18916	8828.9375
475.2875	8705.0375
479.38291	8547.2375
483.4754	8444.5375
487.56496	8354.0375
491.6516	8279.7375
495.73531	8238.4375
499.81612	8200.4375
503.89401	8266.3375
507.96899	8289.7375
512.04106	8309.3375
516.11023	8343.1375
520.1765	8322.3375
524.23987	8310.0375
528.30034	8272.4375
532.35792	8230.1375
536.41261	8124.6375
540.46441	7978.4375
544.51333	7939.5375
548.55936	8022.6375
552.60252	8179.1375
556.64279	8372.2375
560.6802	8477.7375
564.71473	8537.4375
568.7464	8692.2375
572.7752	8926.0375
576.80114	9033.9375
580.82422	9142.5375
584.84444	9272.2375
588.86181	9455.7375
592.87633	9662.3375
596.888	9796.2375
600.89682	9766.4375
604.9028	10129.9375
608.90594	11613.3375
612.90624	13563.9375
616.90371	12828.2375
620.89834	9871.3375
624.89015	8433.5375
628.87913	8209.6375
632.86528	8369.0375
636.84862	8542.3375
640.82913	8416.2375
644.80683	8080.3375
648.78172	7812.9375
652.75379	7744.5375
656.72306	7906.6375
660.68952	8125.0375
664.65319	8062.5375
668.61405	7768.7375
672.57211	7634.1375
676.52738	7645.7375
680.47986	7643.3375
684.42955	7573.5375
688.37646	7522.5375
692.32058	7547.2375
696.26192	7588.2375
700.20048	7687.3375
704.13626	7767.8375
708.06928	7772.7375
711.99952	7723.5375
715.927	7702.7375
719.85171	7743.9375
723.77365	7755.3375
727.69284	7702.3375
731.60928	7656.7375
735.52295	7647.5375
739.43388	7651.9375
743.34206	7701.8375
747.24749	7702.8375
751.15017	7732.2375
755.05012	7825.4375
758.94733	8110.8375
762.8418	8831.6375
766.73354	10019.3375
770.62254	11173.6375
774.50882	11579.0375
778.39237	10952.6375
782.27321	9764.7375
786.15132	8660.4375
790.02671	7975.9375
793.89938	7656.7375
797.76935	7503.7375
801.6366	7422.4375
805.50115	7400.9375
809.36299	7367.8375
813.22213	7341.5375
817.07857	7328.7375
820.93231	7284.1375
824.78336	7256.0375
828.63172	7259.3375
832.47738	7252.5375
836.32036	7241.2375
840.16066	7213.2375
843.99827	7201.1375
847.8332	7171.0375
851.66546	7173.3375
855.49504	7186.3375
859.32195	7176.3375
863.1462	7160.0375
866.96777	7163.9375
870.78668	7152.6375
874.60293	7171.4375
878.41652	7196.4375
882.22745	7223.0375
886.03573	7255.3375
889.84136	7268.4375
893.64433	7239.0375
897.44466	7189.0375
901.24235	7160.1375
905.0374	7128.0375
908.8298	7071.1375
912.61957	7046.6375
916.40671	7068.2375
920.19121	7142.8375
923.97308	7210.8375
927.75233	7248.3375
931.52895	7214.8375
935.30295	7134.6375
939.07433	6967.2375
942.84309	6825.6375
946.60924	6732.4375
950.37278	6705.9375
954.13371	6678.7375
957.89203	6662.4375
961.64774	6678.9375
965.40086	6650.7375
969.15137	6628.7375
972.89929	6606.6375
976.64461	6597.0375
980.38733	6576.0375
984.12747	6576.3375
987.86502	6586.0375
991.59999	6635.1375
995.33237	6705.7375
999.06217	6840.9375
1002.78939	6975.2375
1006.51404	7144.7375
1010.23611	7288.8375
1013.95561	7374.5375
1017.67255	7373.4375
1021.38692	7267.8375
1025.09872	7101.6375
1028.80796	7008.5375
1032.51465	6971.6375
1036.21877	6990.7375
1039.92035	7040.0375
1043.61937	7079.8375
1047.31584	7077.2375
1051.00976	7121.2375
1054.70114	7111.4375
1058.38998	7131.2375
1062.07627	7166.4375
1065.76003	7239.7375
1069.44126	7330.7375
1073.11995	7429.4375
1076.79611	7563.0375
1080.46974	7652.0375
1084.14085	7781.7375
1087.80943	7925.5375
1091.47549	7993.2375
1095.13903	7921.4375
1098.80005	7707.4375
1102.45857	7521.0375
1106.11456	7400.6375
1109.76805	7395.2375
1113.41903	7500.0375
1117.06751	7680.7375
1120.71348	7913.0375
1124.35696	8185.1375
1127.99793	8413.7375
1131.63641	8407.3375
1135.2724	8235.1375
1138.90589	7995.9375
1142.5369	7866.0375
1146.16542	7759.1375
1149.79145	7709.4375
1153.415	7684.0375
1157.03607	7767.5375
1160.65467	7923.1375
1164.27079	8215.4375
1167.88443	8726.4375
1171.49561	9376.5375
1175.10432	10388.6375
1178.71056	11677.4375
1182.31434	12750.3375
1185.91565	13100.1375
1189.51451	12811.7375
1193.11091	12207.4375
1196.70485	11456.3375
1200.29634	10765.7375
1203.88538	10204.2375
1207.47197	9671.2375
1211.05612	9203.7375
1214.63782	8884.6375
1218.21708	8743.0375
1221.79391	8720.0375
1225.36829	8691.9375
1228.94024	8628.9375
1232.50976	8501.0375
1236.07685	8368.6375
1239.6415	8301.3375
1243.20374	8319.1375
1246.76355	8324.5375
1250.32093	8392.4375
1253.8759	8545.6375
1257.42845	8753.6375
1260.97859	9046.6375
1264.52631	9388.4375
1268.07163	9681.4375
1271.61453	9964.2375
1275.15503	10221.8375
1278.69312	10429.6375
1282.22882	10645.4375
1285.76211	10950.4375
1289.29301	11367.6375
1292.82151	11861.6375
1296.34761	12416.7375
1299.87133	13165.0375
1303.39266	14184.9375
1306.9116	15466.2375
1310.42815	16772.9375
1313.94233	17415.9375
1317.45412	17031.7375
1320.96354	16207.1375
1324.47058	15242.0375
1327.97525	14431.0375
1331.47754	13860.6375
1334.97747	13524.7375
1338.47502	13440.8375
1341.97022	13578.5375
1345.46305	13873.6375
1348.95352	14387.0375
1352.44163	15087.6375
1355.92738	16199.8375
1359.41078	17848.0375
1362.89183	19431.0375
1366.37053	19102.4375
1369.84688	16699.0375
1373.32088	14048.0375
1376.79254	12389.3375
1380.26186	11574.0375
1383.72883	11104.1375
1387.19347	10789.4375
1390.65578	10477.5375
1394.11575	10269.3375
1397.57339	10209.8375
1401.0287	10221.3375
1404.48168	10269.1375
1407.93234	10226.4375
1411.38068	10117.5375
1414.82669	9944.1375
1418.27039	9667.5375
1421.71177	9393.5375
1425.15083	9088.0375
1428.58758	8919.5375
1432.02203	8993.7375
1435.45416	9120.9375
1438.88399	9288.9375
1442.31151	9395.8375
1445.73673	9492.3375
1449.15965	9603.5375
1452.58027	9654.3375
1455.9986	9647.4375
1459.41463	9719.9375
1462.82837	9912.8375
1466.23982	10190.6375
1469.64898	10519.1375
1473.05586	10785.2375
1476.46045	10975.9375
1479.86276	11139.3375
1483.26279	11277.4375
1486.66054	11452.7375
1490.05602	11777.3375
1493.44922	12292.6375
1496.84016	12974.5375
1500.22882	14060.2375
1503.61521	15409.0375
1506.99934	16899.7375
1510.38121	17846.0375
1513.76081	17721.4375
1517.13816	16432.4375
1520.51324	14658.8375
1523.88607	13161.3375
1527.25665	12270.4375
1530.62498	11740.9375
1533.99105	11468.0375
1537.35488	11163.9375
1540.71647	10858.4375
1544.07581	10569.1375
1547.4329	10312.0375
1550.78776	10106.6375
1554.14038	10005.3375
1557.49077	10028.5375
1560.83892	10156.8375
1564.18484	10405.0375
1567.52853	10748.2375
1570.86999	11068.9375
1574.20922	11275.7375
1577.54624	11233.2375
1580.88103	10807.7375
1584.2136	10231.4375
1587.54395	10017.2375
1590.87208	10172.6375
1594.19801	10724.2375
1597.52172	11446.6375
1600.84321	11727.9375
1604.16251	11299.7375
1607.47959	10531.1375
1610.79447	9765.9375
1614.10715	9013.9375
1617.41763	8404.7375
1620.7259	7950.1375
1624.03199	7712.7375
1627.33587	7666.7375
1630.63757	7819.4375
1633.93707	8290.1375
1637.23439	9136.1375
1640.52951	10443.7375
1643.82246	12225.5375
1647.11321	14024.2375
1650.40179	14950.0375
1653.68819	14234.8375
1656.97241	12255.3375
1660.25446	10132.2375
1663.53433	8562.2375
1666.81203	7589.0375
1670.08756	7018.0375
1673.36092	6656.6375
1676.63211	6425.2375
1679.90115	6262.3375
1683.16801	6152.1375
1686.43272	6043.4375
1689.69527	5962.8375
1692.95567	5907.6375
1696.2139	5850.0375
1699.46999	5818.6375
1702.72392	5761.8375
1705.97571	5755.9375
1709.22535	5730.7375
1712.47284	5726.7375
1715.71819	5684.7375
1718.96139	5645.6375
1722.20246	5624.6375
1725.44139	5593.6375
1728.67818	5539.0375
1731.91284	5498.6375
1735.14537	5462.9375
1738.37576	5430.5375
1741.60403	5406.1375
1744.83017	5384.7375
1748.05418	5362.7375
1751.27607	5318.5375
1754.49584	5319.2375
1757.71349	5301.6375
1760.92903	5291.9375
1764.14244	5287.4375
1767.35375	5273.3375
1770.56294	5257.0375
1773.77002	5220.4375
1776.97499	5205.7375
1780.17785	5196.4375
1783.37861	5182.9375
1786.57727	5158.2375
1789.77382	5157.7375
1792.96828	5153.9375
1796.16064	5130.0375
1799.3509	5110.0375
1802.53907	5108.6375
1805.72514	5087.7375
1808.90913	5066.4375
1812.09102	5061.3375
1815.27083	5041.8375
1818.44856	5035.1375
1821.6242	5000.6375
1824.79776	5002.6375
1827.96924	4994.1375
1831.13864	4989.9375
1834.30597	4964.4375
1837.47122	4968.5375
1840.6344	4964.7375
1843.7955	4953.2375
1846.95454	4934.5375
1850.11151	4937.7375
1853.26642	4930.0375
1856.41926	4931.6375
1859.57004	4910.3375
1862.71876	4908.4375
1865.86542	4894.5375
1869.01003	4881.0375
1872.15258	4893.9375
1875.29308	4885.8375
1878.43152	4873.1375
1881.56792	4867.9375
1884.70227	4868.3375
1887.83457	4863.4375
1890.96482	4853.8375
1894.09304	4836.8375
1897.21921	4835.6375
1900.34335	4831.6375
1903.46544	4823.0375
1906.58551	4830.4375
1909.70353	4816.1375
1912.81953	4790.7375
1915.93349	4787.2375
1919.04543	4785.0375
1922.15534	4783.0375
1925.26322	4764.5375
1928.36908	4741.0375
1931.47292	4713.5375
1934.57473	4701.4375
1937.67453	4708.8375
1940.77232	4704.0375
1943.86808	4676.4375
1946.96184	4658.2375
1950.05358	4635.5375
1953.14331	4617.2375
1956.23103	4605.0375
1959.31675	4594.3375
1962.40046	4572.8375
1965.48217	4567.9375
1968.56188	4545.7375
1971.63959	4526.1375
1974.7153	4545.5375
1977.78901	4512.0375
1980.86073	4487.1375
1983.93046	4474.7375
1986.99819	4444.3375
1990.06394	4458.1375
1993.1277	4441.5375
1996.18947	4413.7375
1999.24925	4394.5375
2002.30706	4386.9375
2005.36288	4366.8375
2008.41672	4342.7375
2011.46859	4331.9375
2014.51848	4317.9375
2017.56639	4298.4375
2020.61233	4290.0375
2023.6563	4283.7375
2026.6983	4251.6375
2029.73833	4262.0375
2032.7764	4232.9375
2035.8125	4238.8375
2038.84664	4218.0375
2041.87881	4212.3375
2044.90903	4188.8375
2047.93729	4190.9375
2050.96359	4202.6375
2053.98794	4174.1375
2057.01034	4167.2375
2060.03078	4154.6375
2063.04927	4137.5375
2066.06582	4147.6375
2069.08042	4148.4375
2072.09307	4142.8375
2075.10378	4126.4375
2078.11255	4132.5375
2081.11938	4144.1375
2084.12426	4137.2375
2087.12722	4144.5375
2090.12824	4124.9375
2093.12732	4120.9375
2096.12447	4110.6375
2099.11969	4119.4375
2102.11299	4124.8375
2105.10435	4123.7375
2108.09379	4141.4375
2111.08131	4126.0375
2114.0669	4127.8375
2117.05057	4125.4375
2120.03233	4143.9375
2123.01216	4126.2375
2125.99008	4126.3375
2128.96609	4131.1375
2131.94018	4134.9375
2134.91236	4146.7375
2137.88263	4142.9375
2140.851	4122.3375
2143.81746	4123.1375
2146.78201	4119.3375
2149.74466	4112.1375
2152.7054	4105.9375
2155.66425	4120.6375
2158.6212	4098.6375
2161.57625	4116.1375
2164.52941	4101.9375
2167.48067	4074.6375
2170.43004	4097.2375
2173.37752	4090.6375
2176.32311	4089.7375
2179.26681	4088.8375
2182.20863	4057.4375
2185.14856	4085.4375
2188.08661	4080.5375
2191.02278	4081.2375
2193.95707	4062.0375
2196.88948	4067.1375
2199.82001	4068.5375
2202.74867	4048.8375
2205.67545	4051.2375
2208.60037	4048.5375
2211.52341	4035.4375
2214.44458	4031.1375
2217.36388	4010.2375
2220.28132	3996.0375
2223.1969	4001.2375
2226.11061	3969.6375
2229.02246	3980.4375
2231.93245	3972.4375
2234.84058	3949.6375
2237.74686	3947.4375
2240.65128	3950.6375
2243.55385	3939.0375
2246.45456	3927.1375
2249.35343	3951.4375
2252.25044	3944.5375
2255.14561	3925.7375
2258.03893	3925.9375
2260.93041	3911.7375
2263.82004	3908.0375
2266.70783	3879.6375
2269.59378	3879.4375
2272.4779	3881.1375
2275.36017	3873.6375
2278.24061	3857.2375
2281.11922	3861.1375
2283.996	3842.2375
2286.87094	3836.2375
2289.74405	3826.9375
2292.61534	3812.6375
2295.4848	3812.6375
2298.35243	3805.2375
2301.21824	3790.7375
2304.08223	3805.7375
2306.94439	3790.5375
2309.80474	3798.8375
2312.66327	3791.1375
2315.51999	3776.2375
2318.37489	3774.3375
2321.22797	3777.3375
2324.07925	3766.2375
2326.92871	3768.1375
2329.77637	3779.4375
2332.62222	3762.7375
2335.46626	3748.7375
2338.3085	3759.8375
2341.14893	3748.5375
2343.98756	3750.2375
2346.8244	3742.3375
2349.65943	3744.7375
2352.49267	3748.7375
2355.32411	3752.3375
2358.15376	3753.8375
2360.98161	3767.7375
2363.80768	3754.8375
2366.63195	3765.4375
2369.45444	3757.2375
2372.27514	3760.1375
2375.09405	3747.1375
2377.91118	3733.6375
2380.72652	3718.0375
2383.54009	3708.6375
2386.35187	3711.0375
2389.16188	3682.2375
2391.97011	3677.6375
2394.77657	3679.0375
2397.58125	3656.8375
2400.38416	3642.5375
2403.18529	3645.4375
2405.98466	3639.1375
2408.78226	3616.6375
2411.57809	3622.4375
2414.37216	3606.7375
2417.16446	3610.0375
2419.955	3600.1375
2422.74378	3591.3375
2425.5308	3590.5375
2428.31606	3591.3375
2431.09956	3581.3375
2433.88131	3587.2375
2436.6613	3589.7375
2439.43954	3585.7375
2442.21603	3587.0375
2444.99077	3572.3375
2447.76377	3593.9375
2450.53501	3581.7375
2453.30451	3592.8375
2456.07226	3584.4375
2458.83827	3568.8375
2461.60254	3579.7375
2464.36507	3572.2375
2467.12586	3564.8375
2469.88492	3578.4375
2472.64224	3567.8375
2475.39782	3572.5375
2478.15167	3594.0375
2480.90379	3596.8375
2483.65417	3595.6375
2486.40283	3598.9375
2489.14976	3609.3375
2491.89497	3605.9375
2494.63845	3608.0375
2497.3802	3591.2375
2500.12024	3584.0375
2502.85855	3584.0375
2505.59514	3563.1375
2508.33002	3557.2375
2511.06318	3555.9375
2513.79462	3544.7375
2516.52435	3539.4375
2519.25237	3516.8375
2521.97867	3509.1375
2524.70327	3520.5375
2527.42616	3502.4375
2530.14734	3493.5375
2532.86681	3481.2375
2535.58458	3487.0375
2538.30065	3491.4375
2541.01501	3494.1375
2543.72768	3488.0375
2546.43864	3481.5375
2549.14791	3485.5375
2551.85548	3476.2375
2554.56136	3467.1375
2557.26554	3466.8375
2559.96803	3468.2375
2562.66883	3454.0375
2565.36794	3458.2375
2568.06536	3451.9375
2570.7611	3441.0375
2573.45514	3430.7375
2576.14751	3415.6375
2578.83819	3419.2375
2581.52719	3428.7375
2584.21451	3423.3375
2586.90015	3413.4375
2589.58411	3410.6375
2592.2664	3409.7375
2594.94701	3390.7375
2597.62594	3395.8375
2600.30321	3395.4375
2602.9788	3397.2375
2605.65273	3392.8375
2608.32498	3393.8375
2610.99557	3380.1375
2613.66449	3371.9375
2616.33175	3372.3375
2618.99734	3373.2375
2621.66128	3372.6375
2624.32355	3377.3375
2626.98416	3366.5375
2629.64311	3362.6375
2632.30041	3369.2375
2634.95605	3354.0375
2637.61004	3359.5375
2640.26238	3346.3375
2642.91306	3337.5375
2645.56209	3358.1375
2648.20948	3347.4375
2650.85521	3352.1375
2653.4993	3350.4375
2656.14175	3346.7375
2658.78255	3345.7375
2661.42171	3345.6375
2664.05923	3345.7375
2666.6951	3369.1375
2669.32934	3368.8375
2671.96194	3355.2375
2674.59291	3369.2375
2677.22224	3363.0375
2679.84993	3364.6375
2682.476	3351.8375
2685.10043	3344.7375
2687.72324	3348.4375
2690.34441	3336.5375
2692.96396	3331.8375
2695.58188	3347.6375
2698.19818	3350.2375
2700.81285	3333.8375
2703.4259	3342.1375
2706.03733	3335.0375
2708.64714	3343.8375
2711.25533	3347.6375
2713.86191	3345.8375
2716.46687	3360.1375
2719.07021	3367.4375
2721.67194	3359.8375
2724.27206	3359.1375
2726.87057	3357.2375
2729.46747	3347.9375
2732.06276	3344.3375
2734.65644	3360.0375
2737.24852	3352.2375
2739.83899	3339.4375
2742.42786	3341.2375
2745.01513	3327.2375
2747.60079	3324.6375
2750.18486	3322.0375
2752.76733	3327.6375
2755.3482	3317.0375
2757.92747	3318.2375
2760.50515	3293.3375
2763.08123	3297.6375
2765.65573	3309.8375
2768.22863	3303.4375
2770.79994	3297.0375
2773.36967	3308.2375
2775.9378	3295.3375
2778.50435	3304.0375
2781.06932	3290.2375
2783.6327	3307.5375
2786.1945	3296.9375
2788.75471	3287.0375
2791.31335	3289.5375
2793.87041	3290.7375
2796.42589	3283.6375
2798.97979	3291.4375
2801.53212	3277.5375
2804.08288	3266.7375
2806.63206	3266.2375
2809.17967	3263.2375
2811.72571	3271.8375
2814.27018	3268.6375
2816.81308	3258.1375
2819.35442	3242.0375
2821.89419	3252.2375
2824.43239	3242.2375
2826.96904	3253.7375
2829.50412	3244.1375
2832.03763	3234.9375
2834.56959	3232.5375
2837.1	3225.1375
2839.62884	3247.5375
2842.15613	3249.1375
2844.68186	3245.9375
2847.20604	3240.6375
2849.72867	3249.0375
2852.24974	3260.0375
2854.76927	3246.6375
2857.28724	3244.5375
2859.80367	3236.0375
2862.31855	3243.0375
2864.83189	3254.3375
2867.34368	3256.0375
2869.85393	3240.8375
2872.36264	3241.6375
2874.8698	3244.1375
2877.37543	3233.6375
2879.87952	3253.4375
2882.38207	3234.4375
2884.88308	3229.9375
2887.38256	3231.1375
2889.88051	3245.8375
2892.37692	3245.7375
2894.8718	3241.3375
2897.36515	3244.3375
2899.85698	3223.0375
2902.34727	3243.7375
2904.83604	3251.6375
2907.32328	3242.6375
2909.809	3246.5375
2912.29319	3261.4375
2914.77587	3259.2375
2917.25702	3258.9375
2919.73665	3246.7375
2922.21476	3256.3375
2924.69136	3240.9375
2927.16644	3245.4375
2929.64	3233.9375
2932.11205	3218.9375
2934.58258	3219.9375
2937.05161	3211.1375
2939.51912	3217.5375
2941.98513	3206.3375
2944.44962	3201.7375
2946.91261	3187.6375
2949.37409	3187.1375
2951.83407	3195.1375
2954.29254	3196.8375
2956.74951	3197.4375
2959.20498	3177.0375
2961.65895	3192.6375
2964.11142	3172.0375
2966.56239	3171.7375
2969.01186	3164.4375
2971.45984	3153.3375
2973.90632	3141.7375
2976.35131	3139.4375
2978.7948	3133.5375
2981.23681	3124.8375
2983.67732	3113.6375
2986.11635	3105.8375
2988.55388	3110.2375
2990.98993	3103.8375
2993.4245	3094.0375
2995.85758	3105.6375
2998.28917	3099.1375
3000.71928	3081.8375
3003.14791	3079.4375
3005.57506	3089.1375
3008.00073	3084.9375
3010.42493	3087.3375
3012.84764	3058.1375
3015.26888	3058.4375
3017.68865	3065.1375
3020.10694	3062.0375
3022.52376	3053.6375
3024.9391	3039.4375
3027.35298	3050.8375
3029.76539	3031.9375
3032.17632	3036.5375
3034.5858	3019.8375
3036.9938	3013.1375
3039.40034	3023.6375
3041.80542	3023.8375
3044.20903	3008.1375
3046.61118	3024.1375
3049.01187	3010.9375
3051.4111	3009.1375
3053.80888	3003.7375
3056.20519	2989.6375
3058.60005	2992.0375
3060.99345	2991.7375
3063.3854	2981.5375
3065.7759	2977.3375
3068.16494	2978.8375
3070.55254	2978.9375
3072.93868	2967.8375
3075.32338	2958.7375
3077.70662	2958.8375
3080.08842	2947.7375
3082.46878	2942.1375
3084.84769	2940.7375
3087.22515	2955.9375
3089.60118	2959.1375
3091.97576	2960.4375
3094.3489	2949.9375
3096.72061	2957.0375
3099.09087	2963.6375
3101.4597	2968.4375
3103.82709	2951.1375
3106.19305	2961.2375
3108.55757	2942.4375
3110.92066	2959.5375
3113.28232	2949.5375
