Data from AgNP_FTO_APTES_UA_100uM_CRN_0uM_R6G_10uM_NaF_0.1M_Addition_RamanShift__9__10-55-40-092.txt Node

Date: Thu Mar 24 10:55:40 GMT 2022
User: TCL
Spectrometer: QEP01345
Trigger mode: 4
Integration Time (sec): 7.000000E0
Scans to average: 10
Electric dark correction enabled: true
Nonlinearity correction enabled: false
Boxcar width: 0
XAxis mode: Raman Shifts
Number of Pixels in Spectrum: 1044
>>>>>Begin Spectral Data<<<<<
46.04893	-1.6875
50.45542	0.3125
54.85868	0.2125
59.25871	0.5125
63.6555	28.7125
68.04907	33.7125
72.43941	32.9125
76.82654	34.2125
81.21044	37.0125
85.59113	36.1125
89.96862	41.5125
94.34289	39.6125
98.71396	43.4125
103.08183	42.3125
107.4465	41.6125
111.80798	46.3125
116.16626	40.7125
120.52136	45.7125
124.87327	47.5125
129.222	50.9125
133.56755	52.9125
137.90993	55.5125
142.24913	62.9125
146.58517	65.6125
150.91804	77.8125
155.24774	87.6125
159.57429	108.2125
163.89768	145.0125
168.21792	187.3125
172.53501	258.9125
176.84895	359.3125
181.15975	498.8125
185.46741	702.9125
189.77193	953.9125
194.07331	1272.6125
198.37157	1654.2125
202.6667	2032.1125
206.9587	2436.3125
211.24758	2825.4125
215.53334	3260.8125
219.81599	3735.0125
224.09553	4295.0125
228.37195	4915.0125
232.64527	5581.6125
236.91549	6248.1125
241.18261	6844.3125
245.44663	7326.7125
249.70755	7676.9125
253.96539	7941.3125
258.22014	8178.6125
262.4718	8253.4125
266.72039	8255.5125
270.96589	8188.8125
275.20832	8016.7125
279.44768	7813.2125
283.68397	7599.5125
287.91719	7506.4125
292.14735	7511.8125
296.37445	7724.9125
300.59849	8123.2125
304.81948	8623.0125
309.03742	9044.6125
313.25231	9201.9125
317.46415	8879.6125
321.67296	8218.3125
325.87872	7603.7125
330.08145	7308.5125
334.28114	7309.4125
338.47781	7455.3125
342.67145	7635.3125
346.86207	7949.3125
351.04966	8420.6125
355.23424	9023.5125
359.4158	9483.6125
363.59435	9697.2125
367.76989	9772.3125
371.94243	9694.5125
376.11196	9613.8125
380.27849	9487.6125
384.44203	9327.6125
388.60257	9129.4125
392.76012	8989.7125
396.91468	9029.6125
401.06626	9234.9125
405.21485	9406.0125
409.36047	9181.2125
413.50311	8580.6125
417.64277	7984.7125
421.77947	7656.8125
425.9132	7546.6125
430.04396	7582.8125
434.17176	7695.8125
438.2966	7992.5125
442.41849	8467.5125
446.53742	9095.1125
450.6534	9650.0125
454.76644	9837.6125
458.87653	9550.9125
462.98368	9014.7125
467.08789	8528.8125
471.18916	8092.3125
475.2875	7692.0125
479.38291	7346.6125
483.4754	7094.0125
487.56496	6912.6125
491.6516	6812.9125
495.73531	6783.9125
499.81612	6808.2125
503.89401	6920.0125
507.96899	7035.9125
512.04106	7160.5125
516.11023	7311.0125
520.1765	7471.2125
524.23987	7585.2125
528.30034	7632.9125
532.35792	7562.1125
536.41261	7322.7125
540.46441	6945.2125
544.51333	6688.6125
548.55936	6661.5125
552.60252	6904.8125
556.64279	7303.7125
560.6802	7563.6125
564.71473	7645.5125
568.7464	7981.5125
572.7752	8263.7125
576.80114	7974.1125
580.82422	7614.1125
584.84444	7814.7125
588.86181	8550.7125
592.87633	9616.4125
596.888	10030.7125
600.89682	9407.5125
604.9028	9724.5125
608.90594	12698.2125
612.90624	16890.9125
616.90371	16256.5125
620.89834	10445.4125
624.89015	7396.7125
628.87913	6810.0125
632.86528	6918.5125
636.84862	7092.9125
640.82913	6861.5125
644.80683	6320.2125
648.78172	5927.9125
652.75379	5908.1125
656.72306	6321.1125
660.68952	6813.4125
664.65319	6761.4125
668.61405	6274.3125
672.57211	6091.5125
676.52738	6095.6125
680.47986	5996.8125
684.42955	5802.4125
688.37646	5680.0125
692.32058	5721.7125
696.26192	5850.6125
700.20048	6043.1125
704.13626	6173.1125
708.06928	6137.7125
711.99952	6064.5125
715.927	6011.3125
719.85171	6062.8125
723.77365	6061.8125
727.69284	5975.8125
731.60928	5894.8125
735.52295	5943.5125
739.43388	6018.3125
743.34206	6090.1125
747.24749	6129.6125
751.15017	6133.2125
755.05012	6271.5125
758.94733	6761.4125
762.8418	7997.6125
766.73354	10071.5125
770.62254	12201.4125
774.50882	13377.7125
778.39237	13018.3125
782.27321	10954.9125
786.15132	8576.2125
790.02671	7051.8125
793.89938	6356.1125
797.76935	6058.6125
801.6366	5935.5125
805.50115	5852.7125
809.36299	5765.3125
813.22213	5699.3125
817.07857	5665.0125
820.93231	5651.2125
824.78336	5678.3125
828.63172	5747.3125
832.47738	5784.9125
836.32036	5754.5125
840.16066	5698.0125
843.99827	5632.1125
847.8332	5600.9125
851.66546	5589.3125
855.49504	5606.2125
859.32195	5572.1125
863.1462	5543.2125
866.96777	5523.4125
870.78668	5496.8125
874.60293	5512.6125
878.41652	5543.1125
882.22745	5640.4125
886.03573	5716.7125
889.84136	5698.1125
893.64433	5661.1125
897.44466	5657.0125
901.24235	5618.7125
905.0374	5546.8125
908.8298	5458.2125
912.61957	5409.1125
916.40671	5406.4125
920.19121	5508.5125
923.97308	5633.7125
927.75233	5820.1125
931.52895	5919.7125
935.30295	5790.9125
939.07433	5489.8125
942.84309	5260.5125
946.60924	5130.4125
950.37278	5054.9125
954.13371	4997.1125
957.89203	4957.8125
961.64774	4908.2125
965.40086	4877.9125
969.15137	4843.9125
972.89929	4824.6125
976.64461	4810.3125
980.38733	4826.5125
984.12747	4843.4125
987.86502	4881.8125
991.59999	4960.6125
995.33237	5084.5125
999.06217	5340.5125
1002.78939	5656.6125
1006.51404	5937.8125
1010.23611	6095.3125
1013.95561	6232.0125
1017.67255	6193.0125
1021.38692	5938.4125
1025.09872	5598.5125
1028.80796	5388.9125
1032.51465	5381.9125
1036.21877	5440.9125
1039.92035	5529.9125
1043.61937	5568.8125
1047.31584	5581.9125
1051.00976	5573.6125
1054.70114	5564.0125
1058.38998	5517.6125
1062.07627	5499.6125
1065.76003	5498.4125
1069.44126	5551.2125
1073.11995	5754.8125
1076.79611	6005.8125
1080.46974	6276.6125
1084.14085	6603.8125
1087.80943	6889.2125
1091.47549	6945.3125
1095.13903	6713.2125
1098.80005	6279.4125
1102.45857	5963.4125
1106.11456	5849.2125
1109.76805	5970.3125
1113.41903	6238.9125
1117.06751	6651.8125
1120.71348	7241.9125
1124.35696	7907.4125
1127.99793	8365.7125
1131.63641	8127.1125
1135.2724	7479.5125
1138.90589	6917.0125
1142.5369	6599.4125
1146.16542	6401.0125
1149.79145	6277.5125
1153.415	6223.9125
1157.03607	6246.9125
1160.65467	6391.7125
1164.27079	6808.5125
1167.88443	7561.0125
1171.49561	8792.7125
1175.10432	10706.8125
1178.71056	13080.9125
1182.31434	15020.9125
1185.91565	15455.3125
1189.51451	14731.6125
1193.11091	13618.9125
1196.70485	12372.3125
1200.29634	11165.1125
1203.88538	9953.6125
1207.47197	8787.8125
1211.05612	8009.7125
1214.63782	7751.0125
1218.21708	7962.7125
1221.79391	8199.9125
1225.36829	8202.6125
1228.94024	7821.6125
1232.50976	7385.1125
1236.07685	7170.1125
1239.6415	7112.9125
1243.20374	7119.5125
1246.76355	7098.4125
1250.32093	7191.2125
1253.8759	7401.7125
1257.42845	7817.4125
1260.97859	8287.4125
1264.52631	8840.9125
1268.07163	9344.8125
1271.61453	9732.9125
1275.15503	10039.2125
1278.69312	10240.2125
1282.22882	10584.4125
1285.76211	11189.8125
1289.29301	11977.9125
1292.82151	12826.5125
1296.34761	13807.2125
1299.87133	15123.6125
1303.39266	16947.6125
1306.9116	19610.2125
1310.42815	22547.8125
1313.94233	23893.5125
1317.45412	22586.1125
1320.96354	19794.2125
1324.47058	16889.0125
1327.97525	14772.5125
1331.47754	13735.5125
1334.97747	13629.8125
1338.47502	14022.8125
1341.97022	14447.3125
1345.46305	15052.9125
1348.95352	16287.7125
1352.44163	18355.1125
1355.92738	21483.0125
1359.41078	25322.7125
1362.89183	27854.1125
1366.37053	26182.0125
1369.84688	21664.4125
1373.32088	17484.5125
1376.79254	14754.3125
1380.26186	13123.3125
1383.72883	11998.5125
1387.19347	11121.6125
1390.65578	10521.8125
1394.11575	10285.8125
1397.57339	10394.5125
1401.0287	10593.0125
1404.48168	10772.3125
1407.93234	10802.7125
1411.38068	10773.3125
1414.82669	10565.9125
1418.27039	10183.0125
1421.71177	9714.5125
1425.15083	9383.4125
1428.58758	9414.7125
1432.02203	9726.7125
1435.45416	10016.4125
1438.88399	10099.3125
1442.31151	9999.5125
1445.73673	9976.7125
1449.15965	9961.6125
1452.58027	9815.4125
1455.9986	9573.2125
1459.41463	9578.3125
1462.82837	9940.8125
1466.23982	10492.0125
1469.64898	10994.1125
1473.05586	11324.5125
1476.46045	11514.1125
1479.86276	11680.4125
1483.26279	11785.7125
1486.66054	11987.4125
1490.05602	12384.7125
1493.44922	12903.4125
1496.84016	13741.2125
1500.22882	15224.5125
1503.61521	17524.5125
1506.99934	20165.5125
1510.38121	22291.5125
1513.76081	22555.1125
1517.13816	20447.1125
1520.51324	17134.5125
1523.88607	14366.5125
1527.25665	12801.0125
1530.62498	12186.6125
1533.99105	11936.4125
1537.35488	11746.9125
1540.71647	11504.1125
1544.07581	11245.5125
1547.4329	10949.3125
1550.78776	10594.5125
1554.14038	10257.3125
1557.49077	9981.4125
1560.83892	9951.8125
1564.18484	10228.3125
1567.52853	10771.5125
1570.86999	11355.2125
1574.20922	11712.3125
1577.54624	11576.1125
1580.88103	10759.4125
1584.2136	9642.5125
1587.54395	9129.2125
1590.87208	9582.9125
1594.19801	10926.3125
1597.52172	12749.6125
1600.84321	13982.4125
1604.16251	13646.6125
1607.47959	11989.8125
1610.79447	9983.5125
1614.10715	8278.2125
1617.41763	7175.1125
1620.7259	6563.9125
1624.03199	6295.5125
1627.33587	6291.2125
1630.63757	6573.6125
1633.93707	7210.2125
1637.23439	8410.3125
1640.52951	10533.6125
1643.82246	13456.9125
1647.11321	16445.4125
1650.40179	17741.0125
1653.68819	16240.5125
1656.97241	12869.4125
1660.25446	9578.6125
1663.53433	7359.9125
1666.81203	6083.5125
1670.08756	5397.8125
1673.36092	4996.6125
1676.63211	4749.5125
1679.90115	4579.1125
1683.16801	4448.7125
1686.43272	4378.2125
1689.69527	4309.0125
1692.95567	4264.3125
1696.2139	4231.6125
1699.46999	4203.8125
1702.72392	4179.2125
1705.97571	4174.9125
1709.22535	4166.5125
1712.47284	4145.4125
1715.71819	4157.1125
1718.96139	4135.5125
1722.20246	4132.5125
1725.44139	4081.9125
1728.67818	4023.5125
1731.91284	3985.6125
1735.14537	3913.9125
1738.37576	3892.1125
1741.60403	3855.3125
1744.83017	3822.3125
1748.05418	3804.3125
1751.27607	3786.7125
1754.49584	3772.0125
1757.71349	3761.3125
1760.92903	3749.0125
1764.14244	3741.0125
1767.35375	3729.4125
1770.56294	3720.2125
1773.77002	3694.9125
1776.97499	3679.9125
1780.17785	3659.7125
1783.37861	3640.7125
1786.57727	3637.3125
1789.77382	3619.2125
1792.96828	3625.5125
1796.16064	3610.8125
1799.3509	3614.1125
1802.53907	3607.1125
1805.72514	3596.1125
1808.90913	3580.5125
1812.09102	3586.6125
1815.27083	3575.9125
1818.44856	3561.3125
1821.6242	3570.1125
1824.79776	3571.6125
1827.96924	3557.3125
1831.13864	3573.4125
1834.30597	3583.6125
1837.47122	3578.7125
1840.6344	3606.7125
1843.7955	3634.1125
1846.95454	3670.0125
1850.11151	3690.7125
1853.26642	3706.3125
1856.41926	3740.5125
1859.57004	3739.9125
1862.71876	3748.7125
1865.86542	3755.3125
1869.01003	3765.5125
1872.15258	3743.5125
1875.29308	3766.2125
1878.43152	3764.8125
1881.56792	3760.3125
1884.70227	3766.5125
1887.83457	3740.8125
1890.96482	3740.7125
1894.09304	3732.2125
1897.21921	3696.7125
1900.34335	3690.0125
1903.46544	3671.2125
1906.58551	3643.2125
1909.70353	3620.8125
1912.81953	3622.6125
1915.93349	3593.3125
1919.04543	3579.4125
1922.15534	3564.8125
1925.26322	3561.0125
1928.36908	3545.3125
1931.47292	3537.2125
1934.57473	3513.5125
1937.67453	3486.8125
1940.77232	3471.8125
1943.86808	3423.0125
1946.96184	3414.5125
1950.05358	3392.5125
1953.14331	3378.3125
1956.23103	3384.0125
1959.31675	3384.1125
1962.40046	3370.7125
1965.48217	3383.4125
1968.56188	3399.6125
1971.63959	3406.0125
1974.7153	3409.0125
1977.78901	3413.7125
1980.86073	3399.9125
1983.93046	3381.7125
1986.99819	3372.0125
1990.06394	3351.6125
1993.1277	3346.2125
1996.18947	3344.1125
1999.24925	3307.5125
2002.30706	3282.7125
2005.36288	3265.6125
2008.41672	3253.9125
2011.46859	3221.1125
2014.51848	3196.8125
2017.56639	3187.5125
2020.61233	3150.5125
2023.6563	3146.0125
2026.6983	3129.7125
2029.73833	3131.7125
2032.7764	3115.6125
2035.8125	3118.9125
2038.84664	3126.3125
2041.87881	3138.2125
2044.90903	3150.0125
2047.93729	3169.8125
2050.96359	3205.7125
2053.98794	3204.3125
2057.01034	3219.8125
2060.03078	3223.7125
2063.04927	3239.1125
2066.06582	3248.2125
2069.08042	3252.4125
2072.09307	3240.4125
2075.10378	3223.9125
2078.11255	3199.5125
2081.11938	3191.8125
2084.12426	3167.3125
2087.12722	3146.2125
2090.12824	3125.8125
2093.12732	3114.2125
2096.12447	3098.8125
2099.11969	3084.4125
2102.11299	3080.0125
2105.10435	3064.8125
2108.09379	3041.0125
2111.08131	3008.0125
2114.0669	2984.1125
2117.05057	2962.6125
2120.03233	2942.3125
2123.01216	2936.1125
2125.99008	2918.0125
2128.96609	2914.4125
2131.94018	2912.2125
2134.91236	2923.8125
2137.88263	2911.5125
2140.851	2902.2125
2143.81746	2905.1125
2146.78201	2884.7125
2149.74466	2870.6125
2152.7054	2843.8125
2155.66425	2827.9125
2158.6212	2808.0125
2161.57625	2800.0125
2164.52941	2781.0125
2167.48067	2760.3125
2170.43004	2771.7125
2173.37752	2751.2125
2176.32311	2755.9125
2179.26681	2756.6125
2182.20863	2738.2125
2185.14856	2742.9125
2188.08661	2744.3125
2191.02278	2733.0125
2193.95707	2738.5125
2196.88948	2729.4125
2199.82001	2722.9125
2202.74867	2699.1125
2205.67545	2710.6125
2208.60037	2699.5125
2211.52341	2697.4125
2214.44458	2680.5125
2217.36388	2669.0125
2220.28132	2665.5125
2223.1969	2647.8125
2226.11061	2646.4125
2229.02246	2633.5125
2231.93245	2640.7125
2234.84058	2632.2125
2237.74686	2637.8125
2240.65128	2631.5125
2243.55385	2619.2125
2246.45456	2612.8125
2249.35343	2606.0125
2252.25044	2620.2125
2255.14561	2614.3125
2258.03893	2612.9125
2260.93041	2601.3125
2263.82004	2608.4125
2266.70783	2593.3125
2269.59378	2588.3125
2272.4779	2577.3125
2275.36017	2571.9125
2278.24061	2565.4125
2281.11922	2552.2125
2283.996	2549.3125
2286.87094	2542.3125
2289.74405	2532.6125
2292.61534	2534.2125
2295.4848	2517.6125
2298.35243	2504.9125
2301.21824	2496.3125
2304.08223	2500.6125
2306.94439	2512.5125
2309.80474	2507.3125
2312.66327	2508.7125
2315.51999	2510.9125
2318.37489	2503.3125
2321.22797	2500.5125
2324.07925	2498.3125
2326.92871	2499.2125
2329.77637	2501.4125
2332.62222	2490.4125
2335.46626	2477.3125
2338.3085	2482.7125
2341.14893	2486.6125
2343.98756	2500.5125
2346.8244	2504.8125
2349.65943	2503.3125
2352.49267	2502.0125
2355.32411	2523.0125
2358.15376	2533.6125
2360.98161	2531.6125
2363.80768	2534.0125
2366.63195	2549.2125
2369.45444	2536.5125
2372.27514	2552.2125
2375.09405	2550.0125
2377.91118	2538.8125
2380.72652	2533.7125
2383.54009	2518.3125
2386.35187	2500.7125
2389.16188	2478.2125
2391.97011	2462.5125
2394.77657	2453.5125
2397.58125	2443.8125
2400.38416	2434.6125
2403.18529	2428.7125
2405.98466	2417.9125
2408.78226	2410.6125
2411.57809	2409.4125
2414.37216	2403.6125
2417.16446	2402.8125
2419.955	2394.3125
2422.74378	2393.0125
2425.5308	2392.2125
2428.31606	2401.5125
2431.09956	2389.9125
2433.88131	2390.9125
2436.6613	2392.9125
2439.43954	2399.4125
2442.21603	2391.2125
2444.99077	2408.0125
2447.76377	2399.7125
2450.53501	2405.1125
2453.30451	2420.9125
2456.07226	2413.3125
2458.83827	2413.8125
2461.60254	2420.0125
2464.36507	2412.2125
2467.12586	2419.5125
2469.88492	2422.2125
2472.64224	2420.0125
2475.39782	2429.5125
2478.15167	2430.5125
2480.90379	2447.6125
2483.65417	2450.7125
2486.40283	2477.8125
2489.14976	2475.4125
2491.89497	2482.9125
2494.63845	2494.8125
2497.3802	2487.7125
2500.12024	2476.1125
2502.85855	2466.8125
2505.59514	2462.2125
2508.33002	2434.3125
2511.06318	2424.6125
2513.79462	2403.1125
2516.52435	2387.4125
2519.25237	2380.3125
2521.97867	2368.4125
2524.70327	2366.8125
2527.42616	2347.8125
2530.14734	2347.3125
2532.86681	2341.0125
2535.58458	2353.9125
2538.30065	2348.7125
2541.01501	2359.6125
2543.72768	2352.5125
2546.43864	2358.5125
2549.14791	2361.3125
2551.85548	2364.9125
2554.56136	2361.4125
2557.26554	2357.5125
2559.96803	2370.2125
2562.66883	2363.9125
2565.36794	2366.7125
2568.06536	2362.9125
2570.7611	2350.9125
2573.45514	2354.4125
2576.14751	2347.9125
2578.83819	2334.0125
2581.52719	2341.2125
2584.21451	2337.3125
2586.90015	2339.6125
2589.58411	2325.9125
2592.2664	2343.3125
2594.94701	2331.4125
2597.62594	2336.6125
2600.30321	2328.7125
2602.9788	2328.8125
2605.65273	2333.5125
2608.32498	2340.0125
2610.99557	2327.7125
2613.66449	2335.3125
2616.33175	2339.2125
2618.99734	2339.9125
2621.66128	2346.7125
2624.32355	2331.3125
2626.98416	2329.4125
2629.64311	2328.6125
2632.30041	2322.7125
2634.95605	2315.4125
2637.61004	2315.6125
2640.26238	2306.5125
2642.91306	2313.3125
2645.56209	2308.0125
2648.20948	2303.9125
2650.85521	2311.2125
2653.4993	2310.0125
2656.14175	2331.9125
2658.78255	2326.5125
2661.42171	2326.7125
2664.05923	2335.8125
2666.6951	2351.1125
2669.32934	2345.7125
2671.96194	2346.2125
2674.59291	2357.5125
2677.22224	2357.0125
2679.84993	2341.5125
2682.476	2344.8125
2685.10043	2349.1125
2687.72324	2342.6125
2690.34441	2341.4125
2692.96396	2339.2125
2695.58188	2336.6125
2698.19818	2335.4125
2700.81285	2338.7125
2703.4259	2342.7125
2706.03733	2345.5125
2708.64714	2347.5125
2711.25533	2351.2125
2713.86191	2363.1125
2716.46687	2370.7125
2719.07021	2372.7125
2721.67194	2384.9125
2724.27206	2385.6125
2726.87057	2398.3125
2729.46747	2384.0125
2732.06276	2382.6125
2734.65644	2372.2125
2737.24852	2362.0125
2739.83899	2365.4125
2742.42786	2379.5125
2745.01513	2356.8125
2747.60079	2346.3125
2750.18486	2355.8125
2752.76733	2359.5125
2755.3482	2358.1125
2757.92747	2371.4125
2760.50515	2364.8125
2763.08123	2345.5125
2765.65573	2347.0125
2768.22863	2356.2125
2770.79994	2358.8125
2773.36967	2372.5125
2775.9378	2379.2125
2778.50435	2371.6125
2781.06932	2392.0125
2783.6327	2399.6125
2786.1945	2402.9125
2788.75471	2400.0125
2791.31335	2402.7125
2793.87041	2413.1125
2796.42589	2421.8125
2798.97979	2438.3125
2801.53212	2425.8125
2804.08288	2435.5125
2806.63206	2450.0125
2809.17967	2445.7125
2811.72571	2454.3125
2814.27018	2458.4125
2816.81308	2481.7125
2819.35442	2478.0125
2821.89419	2490.5125
2824.43239	2491.9125
2826.96904	2507.9125
2829.50412	2510.7125
2832.03763	2521.5125
2834.56959	2538.6125
2837.1	2533.0125
2839.62884	2552.5125
2842.15613	2584.4125
2844.68186	2637.8125
2847.20604	2678.3125
2849.72867	2718.1125
2852.24974	2743.5125
2854.76927	2752.5125
2857.28724	2751.8125
2859.80367	2763.0125
2862.31855	2757.7125
2864.83189	2758.3125
2867.34368	2758.3125
2869.85393	2765.4125
2872.36264	2766.4125
2874.8698	2770.4125
2877.37543	2756.8125
2879.87952	2771.2125
2882.38207	2757.6125
2884.88308	2745.1125
2887.38256	2759.0125
2889.88051	2745.5125
2892.37692	2731.0125
2894.8718	2738.8125
2897.36515	2744.8125
2899.85698	2729.1125
2902.34727	2724.0125
2904.83604	2731.5125
2907.32328	2730.7125
2909.809	2729.5125
2912.29319	2713.8125
2914.77587	2709.6125
2917.25702	2710.7125
2919.73665	2696.8125
2922.21476	2689.2125
2924.69136	2677.1125
2927.16644	2678.7125
2929.64	2670.2125
2932.11205	2639.4125
2934.58258	2641.6125
2937.05161	2609.7125
2939.51912	2585.4125
2941.98513	2561.3125
2944.44962	2521.5125
2946.91261	2482.0125
2949.37409	2462.6125
2951.83407	2438.2125
2954.29254	2428.6125
2956.74951	2404.7125
2959.20498	2395.7125
2961.65895	2378.0125
2964.11142	2364.8125
2966.56239	2334.4125
2969.01186	2330.8125
2971.45984	2307.5125
2973.90632	2282.5125
2976.35131	2272.2125
2978.7948	2266.8125
2981.23681	2242.9125
2983.67732	2245.4125
2986.11635	2216.0125
2988.55388	2207.4125
2990.98993	2212.9125
2993.4245	2199.2125
2995.85758	2196.4125
2998.28917	2206.1125
3000.71928	2193.8125
3003.14791	2185.2125
3005.57506	2195.6125
3008.00073	2186.9125
3010.42493	2175.9125
3012.84764	2179.0125
3015.26888	2174.6125
3017.68865	2166.4125
3020.10694	2163.5125
3022.52376	2152.1125
3024.9391	2141.9125
3027.35298	2127.4125
3029.76539	2137.2125
3032.17632	2123.4125
3034.5858	2120.5125
3036.9938	2112.4125
3039.40034	2105.2125
3041.80542	2100.1125
3044.20903	2096.1125
3046.61118	2091.8125
3049.01187	2093.0125
3051.4111	2092.1125
3053.80888	2086.1125
3056.20519	2091.3125
3058.60005	2085.2125
3060.99345	2079.0125
3063.3854	2073.0125
3065.7759	2065.5125
3068.16494	2070.0125
3070.55254	2054.3125
3072.93868	2051.8125
3075.32338	2044.6125
3077.70662	2043.6125
3080.08842	2036.2125
3082.46878	2035.3125
3084.84769	2028.1125
3087.22515	2023.1125
3089.60118	2029.5125
3091.97576	2025.0125
3094.3489	2018.8125
3096.72061	2018.5125
3099.09087	2019.6125
3101.4597	2021.4125
3103.82709	2007.1125
3106.19305	2003.9125
3108.55757	2002.6125
3110.92066	2001.5125
3113.28232	1999.3125
