Data from AgNP_FTO_APTES_UA_100uM_CRN_10uM_R6G_10uM_NaF_0.1M_Addition_RamanShift__28__15-49-40-432.txt Node

Date: Thu Mar 24 15:49:40 GMT 2022
User: TCL
Spectrometer: QEP01345
Trigger mode: 4
Integration Time (sec): 7.000000E0
Scans to average: 10
Electric dark correction enabled: true
Nonlinearity correction enabled: false
Boxcar width: 0
XAxis mode: Raman Shifts
Number of Pixels in Spectrum: 1044
>>>>>Begin Spectral Data<<<<<
46.04893	-1.4
50.45542	0.3
54.85868	0.8
59.25871	0.7
63.6555	29.5
68.04907	31.2
72.43941	33
76.82654	34.5
81.21044	37.3
85.59113	37
89.96862	37.9
94.34289	38
98.71396	39
103.08183	40.1
107.4465	41.4
111.80798	40.7
116.16626	43.3
120.52136	43
124.87327	45.8
129.222	47.5
133.56755	53
137.90993	56.1
142.24913	61.5
146.58517	67.1
150.91804	79.9
155.24774	96.6
159.57429	116
163.89768	151.7
168.21792	203.2
172.53501	274
176.84895	386.9
181.15975	553.9
185.46741	775.6
189.77193	1069.4
194.07331	1435.4
198.37157	1863.5
202.6667	2302.1
206.9587	2760.7
211.24758	3229.6
215.53334	3703.8
219.81599	4245.3
224.09553	4868.3
228.37195	5515.1
232.64527	6230.6
236.91549	6948.2
241.18261	7610.7
245.44663	8114.5
249.70755	8509.1
253.96539	8849.5
258.22014	9124.6
262.4718	9395.4
266.72039	9579.1
270.96589	9615.3
275.20832	9519.3
279.44768	9350
283.68397	9154.2
287.91719	9018.3
292.14735	8984.9
296.37445	9117
300.59849	9453.1
304.81948	9862.8
309.03742	10228
313.25231	10373.3
317.46415	10120.3
321.67296	9578.1
325.87872	9083.4
330.08145	8883.3
334.28114	8838.3
338.47781	8955
342.67145	9138.7
346.86207	9422.5
351.04966	9865.5
355.23424	10332.5
359.4158	10664.6
363.59435	10786.3
367.76989	10788.6
371.94243	10691.6
376.11196	10638
380.27849	10576
384.44203	10480.1
388.60257	10419.1
392.76012	10436.7
396.91468	10483.1
401.06626	10717.4
405.21485	10834.6
409.36047	10641.1
413.50311	10108.3
417.64277	9659.2
421.77947	9405.6
425.9132	9306.7
430.04396	9341.3
434.17176	9427.2
438.2966	9593.9
442.41849	9961.1
446.53742	10448.7
450.6534	10882.2
454.76644	11119.2
458.87653	11032.3
462.98368	10788
467.08789	10477.8
471.18916	10154
475.2875	9857.1
479.38291	9537
483.4754	9279.2
487.56496	9095.7
491.6516	9008.7
495.73531	8951.8
499.81612	8989.9
503.89401	9065.8
507.96899	9169.8
512.04106	9235.3
516.11023	9327.9
520.1765	9410.7
524.23987	9458.7
528.30034	9495.8
532.35792	9443.6
536.41261	9295
540.46441	9087.7
544.51333	8920.8
548.55936	8956.2
552.60252	9126.3
556.64279	9418
560.6802	9644.3
564.71473	9748.1
568.7464	9986.6
572.7752	10252.3
576.80114	10166
580.82422	10075.7
584.84444	10328.9
588.86181	10997.4
592.87633	11994.5
596.888	12681.1
600.89682	12372.7
604.9028	12399.3
608.90594	14763.1
612.90624	18366.5
616.90371	17464.6
620.89834	12232.8
624.89015	9709.7
628.87913	9225.8
632.86528	9375.7
636.84862	9524.5
640.82913	9326.4
644.80683	8841.3
648.78172	8477.4
652.75379	8472.8
656.72306	8822.5
660.68952	9282
664.65319	9166.3
668.61405	8638.6
672.57211	8408.3
676.52738	8450.9
680.47986	8419.5
684.42955	8270.8
688.37646	8183
692.32058	8193.5
696.26192	8314.6
700.20048	8488.9
704.13626	8586.9
708.06928	8559.5
711.99952	8515.1
715.927	8523
719.85171	8595.8
723.77365	8641.9
727.69284	8543.1
731.60928	8507.9
735.52295	8537.4
739.43388	8621.2
743.34206	8651
747.24749	8636.1
751.15017	8612.1
755.05012	8739.4
758.94733	9141.3
762.8418	10218.4
766.73354	12055.3
770.62254	13860
774.50882	14638.8
778.39237	13947.4
782.27321	12157.8
786.15132	10381.4
790.02671	9214
793.89938	8678.2
797.76935	8416.1
801.6366	8310.4
805.50115	8230.6
809.36299	8177.3
813.22213	8141.5
817.07857	8098.2
820.93231	8092.3
824.78336	8112.4
828.63172	8141
832.47738	8145.6
836.32036	8099.2
840.16066	8089.1
843.99827	8045.4
847.8332	8024.8
851.66546	8010.3
855.49504	8058.7
859.32195	8034.2
863.1462	7992
866.96777	7979.4
870.78668	7963.8
874.60293	8000.3
878.41652	8040.3
882.22745	8120.7
886.03573	8161.5
889.84136	8167.6
893.64433	8102.8
897.44466	8068
901.24235	8039.7
905.0374	7983
908.8298	7913.2
912.61957	7865.2
916.40671	7847
920.19121	7916.8
923.97308	8045.8
927.75233	8190
931.52895	8265.9
935.30295	8126.1
939.07433	7864.9
942.84309	7666.4
946.60924	7539.4
950.37278	7492.9
954.13371	7469.6
957.89203	7443.1
961.64774	7438.8
965.40086	7402.1
969.15137	7402.1
972.89929	7377.7
976.64461	7374.5
980.38733	7392.2
984.12747	7401
987.86502	7466.7
991.59999	7509.2
995.33237	7648
999.06217	7858.2
1002.78939	8143.3
1006.51404	8375.4
1010.23611	8635.6
1013.95561	8768.4
1017.67255	8707.3
1021.38692	8503.3
1025.09872	8188.4
1028.80796	7984.2
1032.51465	7927.4
1036.21877	7992.5
1039.92035	8041.3
1043.61937	8073.3
1047.31584	8114.8
1051.00976	8086.5
1054.70114	8087.4
1058.38998	8050.8
1062.07627	8082.1
1065.76003	8111.6
1069.44126	8192.9
1073.11995	8382.7
1076.79611	8585.5
1080.46974	8799.6
1084.14085	9087.7
1087.80943	9366.8
1091.47549	9481.7
1095.13903	9309.8
1098.80005	8952.1
1102.45857	8680.1
1106.11456	8580.1
1109.76805	8628.7
1113.41903	8804.8
1117.06751	9112.3
1120.71348	9522.4
1124.35696	10029.6
1127.99793	10406.4
1131.63641	10310.2
1135.2724	9826.1
1138.90589	9434.6
1142.5369	9187.6
1146.16542	9070.7
1149.79145	8975.4
1153.415	9004.9
1157.03607	9036.9
1160.65467	9233.2
1164.27079	9662.2
1167.88443	10350.3
1171.49561	11427.6
1175.10432	13060
1178.71056	15224.1
1182.31434	17067.4
1185.91565	17426.9
1189.51451	16637.3
1193.11091	15332.9
1196.70485	14065.6
1200.29634	12989.9
1203.88538	12157.7
1207.47197	11301.3
1211.05612	10666.3
1214.63782	10295.2
1218.21708	10224.1
1221.79391	10323.7
1225.36829	10445.8
1228.94024	10418
1232.50976	10173.6
1236.07685	9905.1
1239.6415	9781.6
1243.20374	9842.6
1246.76355	9902.3
1250.32093	9988.9
1253.8759	10204.6
1257.42845	10563.7
1260.97859	11071.2
1264.52631	11644.7
1268.07163	12180.5
1271.61453	12588.3
1275.15503	12830.8
1278.69312	13000
1282.22882	13266.5
1285.76211	13812.4
1289.29301	14603.4
1292.82151	15432.5
1296.34761	16323.6
1299.87133	17510.9
1303.39266	19193.5
1306.9116	21516.1
1310.42815	23931.4
1313.94233	25109.6
1317.45412	24160.1
1320.96354	22152.9
1324.47058	20033.8
1327.97525	18194.6
1331.47754	16870.5
1334.97747	16220.2
1338.47502	16015.8
1341.97022	16237.9
1345.46305	16796.9
1348.95352	17854.8
1352.44163	19510.5
1355.92738	22086.8
1359.41078	25782.4
1362.89183	29137.9
1366.37053	28327.1
1369.84688	23612.1
1373.32088	18750
1376.79254	16042
1380.26186	14932.2
1383.72883	14264.8
1387.19347	13595.3
1390.65578	12889.6
1394.11575	12428.2
1397.57339	12335.6
1401.0287	12385.6
1404.48168	12448.6
1407.93234	12435.5
1411.38068	12385.3
1414.82669	12346.4
1418.27039	12177.3
1421.71177	11842.6
1425.15083	11446.5
1428.58758	11311.5
1432.02203	11592.2
1435.45416	12040.1
1438.88399	12378.5
1442.31151	12467.7
1445.73673	12509.4
1449.15965	12598.9
1452.58027	12440.9
1455.9986	12147.9
1459.41463	11974.3
1462.82837	12098.4
1466.23982	12577.9
1469.64898	13160.6
1473.05586	13642.9
1476.46045	14047.3
1479.86276	14432.2
1483.26279	14776.4
1486.66054	15188.7
1490.05602	15839.6
1493.44922	16685.5
1496.84016	17631.8
1500.22882	18913.8
1503.61521	20802.8
1506.99934	23100.5
1510.38121	24873.1
1513.76081	24884.8
1517.13816	22703.8
1520.51324	19461.4
1523.88607	16775.5
1527.25665	15143.7
1530.62498	14293.6
1533.99105	13819
1537.35488	13378.9
1540.71647	13049
1544.07581	12721.6
1547.4329	12430.7
1550.78776	12223
1554.14038	12044.1
1557.49077	11947.4
1560.83892	12107
1564.18484	12544
1567.52853	13178.3
1570.86999	13768.5
1574.20922	14157.6
1577.54624	14082.9
1580.88103	13285.9
1584.2136	12287.9
1587.54395	11928.3
1590.87208	12347
1594.19801	13550.8
1597.52172	15106.6
1600.84321	15946.9
1604.16251	15401.2
1607.47959	13962.9
1610.79447	12283.4
1614.10715	10855.8
1617.41763	9825.1
1620.7259	9250.1
1624.03199	8998.6
1627.33587	9043.1
1630.63757	9394.3
1633.93707	10143.2
1637.23439	11515.5
1640.52951	13875.1
1643.82246	17214.2
1647.11321	20571.5
1650.40179	22092.6
1653.68819	20376.9
1656.97241	16554.9
1660.25446	12874.7
1663.53433	10454
1666.81203	9065
1670.08756	8303.6
1673.36092	7812.6
1676.63211	7525.5
1679.90115	7318
1683.16801	7176.7
1686.43272	7048.8
1689.69527	6955.2
1692.95567	6901.6
1696.2139	6857.2
1699.46999	6825.3
1702.72392	6809.8
1705.97571	6756.6
1709.22535	6736.5
1712.47284	6720.2
1715.71819	6714.2
1718.96139	6690.4
1722.20246	6654.1
1725.44139	6622.2
1728.67818	6561.5
1731.91284	6471.7
1735.14537	6421.1
1738.37576	6360.8
1741.60403	6349.9
1744.83017	6320.1
1748.05418	6303.8
1751.27607	6259.1
1754.49584	6265
1757.71349	6245.7
1760.92903	6234.9
1764.14244	6218.6
1767.35375	6201.6
1770.56294	6199.1
1773.77002	6162.6
1776.97499	6121.4
1780.17785	6108.7
1783.37861	6097.6
1786.57727	6079.1
1789.77382	6043.7
1792.96828	6025.3
1796.16064	5994.9
1799.3509	6009.9
1802.53907	5979.9
1805.72514	5967
1808.90913	5954.3
1812.09102	5917.6
1815.27083	5907.8
1818.44856	5888.5
1821.6242	5879.3
1824.79776	5854.2
1827.96924	5849.3
1831.13864	5821.8
1834.30597	5811.9
1837.47122	5786.9
1840.6344	5788.6
1843.7955	5793.5
1846.95454	5783.3
1850.11151	5754.4
1853.26642	5754.8
1856.41926	5745.2
1859.57004	5755.4
1862.71876	5750.9
1865.86542	5743.2
1869.01003	5746.2
1872.15258	5722.5
1875.29308	5733.3
1878.43152	5749.1
1881.56792	5725.9
1884.70227	5728.1
1887.83457	5708.2
1890.96482	5704.5
1894.09304	5681.7
1897.21921	5691.9
1900.34335	5667.9
1903.46544	5666.9
1906.58551	5678.4
1909.70353	5657
1912.81953	5667.1
1915.93349	5634.7
1919.04543	5643.8
1922.15534	5624.6
1925.26322	5609.3
1928.36908	5587.5
1931.47292	5567.1
1934.57473	5538.2
1937.67453	5540.8
1940.77232	5491.1
1943.86808	5457.9
1946.96184	5492.4
1950.05358	5454.7
1953.14331	5433.7
1956.23103	5435.6
1959.31675	5410.4
1962.40046	5401.8
1965.48217	5385.9
1968.56188	5376.6
1971.63959	5362.3
1974.7153	5336.5
1977.78901	5325.9
1980.86073	5292
1983.93046	5258
1986.99819	5245.8
1990.06394	5231.7
1993.1277	5229.1
1996.18947	5200.5
1999.24925	5160.6
2002.30706	5143.7
2005.36288	5125.5
2008.41672	5116.5
2011.46859	5102.9
2014.51848	5087.8
2017.56639	5060.1
2020.61233	5068.6
2023.6563	5041.8
2026.6983	5024.7
2029.73833	5022.8
2032.7764	4997.7
2035.8125	4981.9
2038.84664	4993
2041.87881	4974.4
2044.90903	4985.9
2047.93729	4957.4
2050.96359	4951.1
2053.98794	4939
2057.01034	4932.6
2060.03078	4940.2
2063.04927	4914.1
2066.06582	4912.6
2069.08042	4901.4
2072.09307	4902.9
2075.10378	4894.1
2078.11255	4892.9
2081.11938	4901
2084.12426	4883.1
2087.12722	4883.3
2090.12824	4890.7
2093.12732	4894.5
2096.12447	4896.3
2099.11969	4879.7
2102.11299	4892.1
2105.10435	4887.6
2108.09379	4886.2
2111.08131	4881.8
2114.0669	4883.5
2117.05057	4897.2
2120.03233	4886.9
2123.01216	4886.7
2125.99008	4869.3
2128.96609	4897.8
2131.94018	4902.7
2134.91236	4879.2
2137.88263	4885.9
2140.851	4875.1
2143.81746	4880.9
2146.78201	4860.8
2149.74466	4866.4
2152.7054	4858.6
2155.66425	4837.3
2158.6212	4847.9
2161.57625	4836.2
2164.52941	4812
2167.48067	4821.2
2170.43004	4823.3
2173.37752	4834.1
2176.32311	4834.4
2179.26681	4827.5
2182.20863	4833.7
2185.14856	4819.3
2188.08661	4814.5
2191.02278	4826.8
2193.95707	4819.5
2196.88948	4826.7
2199.82001	4806.3
2202.74867	4809.6
2205.67545	4786.5
2208.60037	4784.7
2211.52341	4746.2
2214.44458	4762.7
2217.36388	4743.6
2220.28132	4743.5
2223.1969	4717.4
2226.11061	4729
2229.02246	4710.3
2231.93245	4703.5
2234.84058	4702.1
2237.74686	4682.1
2240.65128	4684.3
2243.55385	4682.2
2246.45456	4669.5
2249.35343	4680.6
2252.25044	4664.2
2255.14561	4669.9
2258.03893	4661.1
2260.93041	4654.2
2263.82004	4633.7
2266.70783	4627.3
2269.59378	4613.9
2272.4779	4596.4
2275.36017	4596.2
2278.24061	4588.9
2281.11922	4587.6
2283.996	4554.7
2286.87094	4531.3
2289.74405	4529.2
2292.61534	4510.1
2295.4848	4512.4
2298.35243	4504.7
2301.21824	4506.9
2304.08223	4506.1
2306.94439	4519
2309.80474	4497.4
2312.66327	4498.6
2315.51999	4487.3
2318.37489	4495.2
2321.22797	4482.4
2324.07925	4480.9
2326.92871	4463.7
2329.77637	4473.4
2332.62222	4457
2335.46626	4453.5
2338.3085	4458
2341.14893	4453.3
2343.98756	4452.5
2346.8244	4473.2
2349.65943	4462.7
2352.49267	4461.1
2355.32411	4472.3
2358.15376	4464.8
2360.98161	4481
2363.80768	4492.9
2366.63195	4490
2369.45444	4490.7
2372.27514	4489.4
2375.09405	4487.2
2377.91118	4468.1
2380.72652	4447.9
2383.54009	4429.5
2386.35187	4420.3
2389.16188	4399.4
2391.97011	4379.3
2394.77657	4361.9
2397.58125	4353.7
2400.38416	4339.6
2403.18529	4333.6
2405.98466	4327.3
2408.78226	4305
2411.57809	4294.9
2414.37216	4289.5
2417.16446	4293.9
2419.955	4314.8
2422.74378	4280.7
2425.5308	4276.8
2428.31606	4287.9
2431.09956	4287.7
2433.88131	4280.2
2436.6613	4288.4
2439.43954	4280
2442.21603	4289.6
2444.99077	4287.2
2447.76377	4291.9
2450.53501	4287.2
2453.30451	4305.7
2456.07226	4294.6
2458.83827	4273.1
2461.60254	4290.5
2464.36507	4271.4
2467.12586	4280.6
2469.88492	4273.5
2472.64224	4277
2475.39782	4295.3
2478.15167	4307.2
2480.90379	4306.8
2483.65417	4327.2
2486.40283	4325.6
2489.14976	4334.4
2491.89497	4333.1
2494.63845	4341.6
2497.3802	4333.9
2500.12024	4333.6
2502.85855	4330.5
2505.59514	4295
2508.33002	4283.4
2511.06318	4268
2513.79462	4249.1
2516.52435	4239.1
2519.25237	4221.1
2521.97867	4212.7
2524.70327	4215.4
2527.42616	4185.9
2530.14734	4203.2
2532.86681	4202.4
2535.58458	4193.8
2538.30065	4177.4
2541.01501	4197.2
2543.72768	4189.9
2546.43864	4193.7
2549.14791	4185.9
2551.85548	4187.1
2554.56136	4190.1
2557.26554	4182.2
2559.96803	4176.7
2562.66883	4179.7
2565.36794	4178.4
2568.06536	4161
2570.7611	4162.3
2573.45514	4162.5
2576.14751	4148.7
2578.83819	4135.4
2581.52719	4141.1
2584.21451	4135
2586.90015	4107.2
2589.58411	4134.8
2592.2664	4122.3
2594.94701	4125.3
2597.62594	4119.4
2600.30321	4105.8
2602.9788	4096.8
2605.65273	4116.7
2608.32498	4136.4
2610.99557	4102.1
2613.66449	4096
2616.33175	4104.5
2618.99734	4101
2621.66128	4096.3
2624.32355	4095
2626.98416	4084.7
2629.64311	4084.6
2632.30041	4064.9
2634.95605	4075.6
2637.61004	4050.9
2640.26238	4052.2
2642.91306	4058.5
2645.56209	4050.4
2648.20948	4060.6
2650.85521	4057.9
2653.4993	4069.6
2656.14175	4063
2658.78255	4064.8
2661.42171	4074.8
2664.05923	4090.8
2666.6951	4090.8
2669.32934	4102.3
2671.96194	4094.2
2674.59291	4102
2677.22224	4081.3
2679.84993	4096.7
2682.476	4089.9
2685.10043	4069.2
2687.72324	4068.8
2690.34441	4065.4
2692.96396	4066.2
2695.58188	4072.5
2698.19818	4070.9
2700.81285	4069.8
2703.4259	4064
2706.03733	4084.9
2708.64714	4080.4
2711.25533	4078.7
2713.86191	4076
2716.46687	4106.3
2719.07021	4092.2
2721.67194	4095.4
2724.27206	4093.3
2726.87057	4102
2729.46747	4109.8
2732.06276	4106.8
2734.65644	4081.1
2737.24852	4079.5
2739.83899	4063.2
2742.42786	4076.1
2745.01513	4051.3
2747.60079	4062.6
2750.18486	4044.1
2752.76733	4036.2
2755.3482	4028.4
2757.92747	4048.2
2760.50515	4016.8
2763.08123	4039.2
2765.65573	4043.3
2768.22863	4021.8
2770.79994	4016.1
2773.36967	4023.6
2775.9378	4022.7
2778.50435	4031
2781.06932	4027.9
2783.6327	4032.7
2786.1945	4030.7
2788.75471	4025.9
2791.31335	4014.4
2793.87041	4016.8
2796.42589	4009.5
2798.97979	4006.1
2801.53212	4010.8
2804.08288	3998.1
2806.63206	4002.4
2809.17967	3992.4
2811.72571	3990.4
2814.27018	3987.8
2816.81308	3992.4
2819.35442	3994.2
2821.89419	3998.2
2824.43239	3991.3
2826.96904	3988.4
2829.50412	3988.6
2832.03763	3990
2834.56959	3980.1
2837.1	3975.1
2839.62884	3978.7
2842.15613	3976.1
2844.68186	3979.5
2847.20604	3988.6
2849.72867	3989.5
2852.24974	3988.9
2854.76927	3993.9
2857.28724	3995.5
2859.80367	3974
2862.31855	3977
2864.83189	3968.9
2867.34368	3984.3
2869.85393	3989.3
2872.36264	3974.2
2874.8698	3973.1
2877.37543	3982.9
2879.87952	3963.1
2882.38207	3970.7
2884.88308	3965.2
2887.38256	3973.9
2889.88051	3954.3
2892.37692	3955.4
2894.8718	3962.2
2897.36515	3967
2899.85698	3955.9
2902.34727	3972.4
2904.83604	3978.4
2907.32328	3985.4
2909.809	3974.5
2912.29319	3989.8
2914.77587	3996.3
2917.25702	3970.7
2919.73665	3959.7
2922.21476	3966.4
2924.69136	3947.6
2927.16644	3943.6
2929.64	3943.6
2932.11205	3938.8
2934.58258	3912.8
2937.05161	3916.2
2939.51912	3901.3
2941.98513	3898.9
2944.44962	3910.9
2946.91261	3882.8
2949.37409	3905.2
2951.83407	3903
2954.29254	3896.5
2956.74951	3888
2959.20498	3903.4
2961.65895	3888.3
2964.11142	3887.5
2966.56239	3877
2969.01186	3879.6
2971.45984	3851.5
2973.90632	3841.7
2976.35131	3828.9
2978.7948	3822.3
2981.23681	3809
2983.67732	3794.9
2986.11635	3788.8
2988.55388	3768.1
2990.98993	3772
2993.4245	3765
2995.85758	3757.3
2998.28917	3761.9
3000.71928	3751.6
3003.14791	3750.2
3005.57506	3746
3008.00073	3727.9
3010.42493	3724.5
3012.84764	3724.6
3015.26888	3717.2
3017.68865	3694.7
3020.10694	3697.5
3022.52376	3697.4
3024.9391	3700
3027.35298	3680.6
3029.76539	3670.2
3032.17632	3660.1
3034.5858	3668.8
3036.9938	3654.9
3039.40034	3643.2
3041.80542	3632.9
3044.20903	3645.7
3046.61118	3629
3049.01187	3628.9
3051.4111	3611.5
3053.80888	3612.6
3056.20519	3607.8
3058.60005	3589.7
3060.99345	3599.8
3063.3854	3577.7
3065.7759	3587.2
3068.16494	3581
3070.55254	3566.9
3072.93868	3552.5
3075.32338	3539.9
3077.70662	3542.5
3080.08842	3532.9
3082.46878	3531.9
3084.84769	3525.8
3087.22515	3526.8
3089.60118	3526.7
3091.97576	3527.9
3094.3489	3529.4
3096.72061	3537.7
3099.09087	3532.4
3101.4597	3518.8
3103.82709	3518.4
3106.19305	3510.5
3108.55757	3506.8
3110.92066	3496
3113.28232	3498.2
3115.64255	3504.5
3118.00134	3493.3
3120.35871	3489
3122.71466	3476.6
3125.06917	3469.1
3127.42226	3477.4
3129.77393	3484.5
3132.12417	3466.3
3134.47299	3480.4
3136.82039	3471.3
3139.16636	3481.6
3141.51092	3475.6
3143.85406	3473.5
3146.19579	3475.7
3148.53609	3491.1
3150.87499	3497
3153.21246	3487.4
3155.54853	3496.2
3157.88318	3497.9
3160.21642	3499.6
3162.54826	3487.9
3164.87868	3498.3
3167.2077	3480
3169.5353	3491.5
3171.86151	3498.2
3174.18631	3485.8
3176.5097	3485
3178.83169	3469.9
3181.15228	3482.9
3183.47147	3483.1
3185.78926	3476.4
3188.10565	3461.5
3190.42065	3479.3
3192.73424	3490.3
3195.04645	3480.7
3197.35725	3484.8
3199.66667	3491.2
3201.97469	3488.6
3204.28132	3487.7
3206.58656	3487.8
3208.8904	3516
3211.19287	3502
3213.49394	3500
3215.79363	3497.2
3218.09193	3504.3
3220.38884	3513.2
3222.68438	3522.7
3224.97853	3511.5
3227.2713	3502
3229.56269	3514.3
3231.8527	3505.6
3234.14133	3504.9
3236.42858	3504.5
3238.71446	3490.9
3240.99896	3491.5
3243.28209	3482.6
3245.56384	3502.7
3247.84423	3500.8
3250.12324	3479.9
3252.40088	3478.1
3254.67715	3478.2
3256.95205	3477.5
3259.22558	3468.6
3261.49775	3473.2
3263.76855	3456.3
3266.03799	3472.3
3268.30606	3456.2
3270.57277	3457
3272.83812	3454.7
3275.10211	3442.5
3277.36474	3449.2
3279.62601	3438.8
3281.88593	3441.8
3284.14448	3433.3
3286.40168	3444.8
3288.65753	3461.6
3290.91202	3439.8
3293.16516	3454.3
3295.41695	3459.4
3297.66738	3453.8
3299.91647	3436.2
3302.16421	3404.9
3304.4106	3389
3306.65564	3378.3
3308.89933	3341.3
3311.14169	3315.1
3313.38269	3295.8
3315.62236	3279.7
3317.86068	3253
3320.09766	3225.7
3322.3333	3203.1
3324.5676	3206.6
3326.80056	3153.9
3329.03219	3128.8
3331.26248	1.9
3333.49143	-2.1
3335.71905	-0.9
