Data from AgNP_FTO_APTES_UA_100uM_CRN_0uM_R6G_10uM_NaF_0.1M_Addition_RamanShift__46__11-38-50-142.txt Node

Date: Thu Mar 24 11:38:50 GMT 2022
User: TCL
Spectrometer: QEP01345
Trigger mode: 4
Integration Time (sec): 7.000000E0
Scans to average: 10
Electric dark correction enabled: true
Nonlinearity correction enabled: false
Boxcar width: 0
XAxis mode: Raman Shifts
Number of Pixels in Spectrum: 1044
>>>>>Begin Spectral Data<<<<<
46.04893	-1.575
50.45542	-0.775
54.85868	-0.875
59.25871	0.025
63.6555	38.125
68.04907	42.025
72.43941	45.625
76.82654	45.925
81.21044	46.625
85.59113	51.325
89.96862	53.025
94.34289	52.325
98.71396	55.925
103.08183	56.725
107.4465	56.625
111.80798	79.925
116.16626	63.025
120.52136	62.425
124.87327	62.725
129.222	66.325
133.56755	71.225
137.90993	74.225
142.24913	84.325
146.58517	90.725
150.91804	105.125
155.24774	128.725
159.57429	158.825
163.89768	203.625
168.21792	274.825
172.53501	375.125
176.84895	515.625
181.15975	729.025
185.46741	1026.025
189.77193	1410.225
194.07331	1864.325
198.37157	2414.725
202.6667	2996.125
206.9587	3593.625
211.24758	4195.025
215.53334	4863.825
219.81599	5599.625
224.09553	6460.125
228.37195	7375.825
232.64527	8368.025
236.91549	9286.025
241.18261	10141.825
245.44663	10755.325
249.70755	11210.925
253.96539	11582.225
258.22014	11973.325
262.4718	12328.425
266.72039	12572.625
270.96589	12602.925
275.20832	12388.025
279.44768	12055.825
283.68397	11732.625
287.91719	11550.425
292.14735	11514.925
296.37445	11735.925
300.59849	12269.125
304.81948	12946.225
309.03742	13563.425
313.25231	13829.125
317.46415	13499.825
321.67296	12695.625
325.87872	11945.625
330.08145	11611.625
334.28114	11577.525
338.47781	11727.325
342.67145	11999.225
346.86207	12397.125
351.04966	13028.625
355.23424	13754.225
359.4158	14279.025
363.59435	14439.725
367.76989	14398.025
371.94243	14253.625
376.11196	14147.625
380.27849	14109.925
384.44203	13985.825
388.60257	13799.825
392.76012	13684.125
396.91468	13740.625
401.06626	14016.425
405.21485	14237.525
409.36047	13947.925
413.50311	13209.725
417.64277	12590.225
421.77947	12227.125
425.9132	12139.325
430.04396	12225.525
434.17176	12393.425
438.2966	12863.925
442.41849	13594.625
446.53742	14621.425
450.6534	15557.225
454.76644	15960.625
458.87653	15698.725
462.98368	15021.725
467.08789	14341.325
471.18916	13729.625
475.2875	13128.025
479.38291	12646.125
483.4754	12173.425
487.56496	11848.425
491.6516	11593.725
495.73531	11402.325
499.81612	11350.825
503.89401	11402.225
507.96899	11511.225
512.04106	11615.925
516.11023	11712.825
520.1765	11826.225
524.23987	11927.625
528.30034	12036.925
532.35792	12014.125
536.41261	11743.425
540.46441	11333.425
544.51333	11069.025
548.55936	11122.725
552.60252	11496.025
556.64279	12117.625
560.6802	12666.925
564.71473	13004.825
568.7464	13678.825
572.7752	14278.625
576.80114	14065.725
580.82422	13696.025
584.84444	13975.425
588.86181	15306.425
592.87633	17347.325
596.888	18533.425
600.89682	17694.425
604.9028	17454.625
608.90594	20819.625
612.90624	25875.225
616.90371	24461.725
620.89834	16517.325
624.89015	12483.725
628.87913	11718.125
632.86528	11872.525
636.84862	11990.625
640.82913	11565.525
644.80683	10792.925
648.78172	10287.325
652.75379	10320.425
656.72306	10888.525
660.68952	11612.125
664.65319	11404.625
668.61405	10587.825
672.57211	10293.825
676.52738	10319.625
680.47986	10200.625
684.42955	9979.125
688.37646	9862.425
692.32058	9966.825
696.26192	10227.625
700.20048	10559.225
704.13626	10657.425
708.06928	10572.625
711.99952	10469.225
715.927	10546.125
719.85171	10719.925
723.77365	10723.525
727.69284	10550.525
731.60928	10417.525
735.52295	10513.825
739.43388	10641.925
743.34206	10716.825
747.24749	10728.325
751.15017	10779.325
755.05012	11016.325
758.94733	11683.225
762.8418	13445.125
766.73354	16308.225
770.62254	18980.325
774.50882	20098.425
778.39237	19193.825
782.27321	16532.225
786.15132	13636.925
790.02671	11814.025
793.89938	10946.525
797.76935	10555.125
801.6366	10416.525
805.50115	10298.825
809.36299	10238.625
813.22213	10130.925
817.07857	10070.625
820.93231	10062.825
824.78336	10080.825
828.63172	10143.025
832.47738	10155.425
836.32036	10162.325
840.16066	10129.825
843.99827	10067.825
847.8332	10022.625
851.66546	9978.725
855.49504	9984.825
859.32195	9954.425
863.1462	9904.725
866.96777	9818.225
870.78668	9807.725
874.60293	9813.725
878.41652	9915.725
882.22745	10066.825
886.03573	10176.225
889.84136	10144.525
893.64433	10061.925
897.44466	9988.725
901.24235	10000.925
905.0374	9900.425
908.8298	9770.525
912.61957	9705.125
916.40671	9722.025
920.19121	9851.225
923.97308	10080.925
927.75233	10320.125
931.52895	10414.125
935.30295	10197.125
939.07433	9740.325
942.84309	9390.325
946.60924	9240.025
950.37278	9213.625
954.13371	9191.925
957.89203	9151.325
961.64774	9142.425
965.40086	9119.225
969.15137	9132.225
972.89929	9086.725
976.64461	9062.925
980.38733	9090.825
984.12747	9133.725
987.86502	9225.225
991.59999	9403.525
995.33237	9697.425
999.06217	10188.125
1002.78939	10787.525
1006.51404	11280.725
1010.23611	11623.525
1013.95561	11851.525
1017.67255	11759.825
1021.38692	11281.225
1025.09872	10687.625
1028.80796	10359.225
1032.51465	10337.025
1036.21877	10449.625
1039.92035	10521.525
1043.61937	10540.425
1047.31584	10483.925
1051.00976	10396.525
1054.70114	10286.225
1058.38998	10237.125
1062.07627	10240.225
1065.76003	10285.325
1069.44126	10402.925
1073.11995	10653.925
1076.79611	11007.425
1080.46974	11405.825
1084.14085	11920.025
1087.80943	12436.625
1091.47549	12552.525
1095.13903	12292.525
1098.80005	11704.525
1102.45857	11246.625
1106.11456	11073.525
1109.76805	11220.725
1113.41903	11603.925
1117.06751	12127.225
1120.71348	12779.925
1124.35696	13625.425
1127.99793	14219.125
1131.63641	13996.525
1135.2724	13212.425
1138.90589	12531.625
1142.5369	12217.425
1146.16542	12104.625
1149.79145	12165.725
1153.415	12247.425
1157.03607	12391.025
1160.65467	12743.625
1164.27079	13499.025
1167.88443	14779.125
1171.49561	16730.825
1175.10432	19782.425
1178.71056	23833.225
1182.31434	27348.725
1185.91565	28266.725
1189.51451	26888.225
1193.11091	24510.225
1196.70485	22156.525
1200.29634	20115.525
1203.88538	18418.425
1207.47197	16867.525
1211.05612	15719.925
1214.63782	15299.725
1218.21708	15454.725
1221.79391	16001.725
1225.36829	16462.025
1228.94024	16223.825
1232.50976	15468.425
1236.07685	14693.025
1239.6415	14387.225
1243.20374	14387.025
1246.76355	14398.925
1250.32093	14517.525
1253.8759	14960.025
1257.42845	15703.925
1260.97859	16645.925
1264.52631	17692.025
1268.07163	18614.225
1271.61453	19278.125
1275.15503	19670.625
1278.69312	20052.425
1282.22882	20732.025
1285.76211	22036.725
1289.29301	23810.525
1292.82151	25653.125
1296.34761	27718.825
1299.87133	30181.325
1303.39266	33462.825
1306.9116	37870.425
1310.42815	42411.125
1313.94233	44935.525
1317.45412	43465.725
1320.96354	39596.325
1324.47058	35248.725
1327.97525	31562.825
1331.47754	29216.825
1334.97747	28201.125
1338.47502	28079.825
1341.97022	28061.825
1345.46305	28388.425
1348.95352	29630.025
1352.44163	32321.925
1355.92738	36994.725
1359.41078	43559.025
1362.89183	49152.125
1366.37053	47843.025
1369.84688	39886.625
1373.32088	31774.525
1376.79254	27299.925
1380.26186	25475.925
1383.72883	24440.125
1387.19347	23251.425
1390.65578	22120.225
1394.11575	21699.325
1397.57339	22020.725
1401.0287	22587.225
1404.48168	23015.325
1407.93234	22905.425
1411.38068	22503.125
1414.82669	21897.525
1418.27039	21077.825
1421.71177	20054.925
1425.15083	19253.525
1428.58758	19143.825
1432.02203	19864.025
1435.45416	20708.225
1438.88399	21220.525
1442.31151	21317.125
1445.73673	21331.225
1449.15965	21403.125
1452.58027	21085.425
1455.9986	20468.325
1459.41463	20168.125
1462.82837	20563.125
1466.23982	21512.125
1469.64898	22445.425
1473.05586	23132.825
1476.46045	23633.225
1479.86276	24025.525
1483.26279	24360.025
1486.66054	24778.025
1490.05602	25512.425
1493.44922	26402.825
1496.84016	27304.925
1500.22882	28786.225
1503.61521	31354.025
1506.99934	34774.125
1510.38121	37565.925
1513.76081	37852.825
1517.13816	34862.025
1520.51324	30194.925
1523.88607	26351.725
1527.25665	24279.825
1530.62498	23523.625
1533.99105	23120.425
1537.35488	22666.325
1540.71647	22041.925
1544.07581	21370.625
1547.4329	20544.625
1550.78776	19801.325
1554.14038	19122.225
1557.49077	18675.125
1560.83892	18632.225
1564.18484	19123.425
1567.52853	20073.625
1570.86999	21094.025
1574.20922	21819.025
1577.54624	21850.825
1580.88103	20837.725
1584.2136	19632.025
1587.54395	19540.025
1590.87208	20992.825
1594.19801	23800.025
1597.52172	27191.525
1600.84321	29003.725
1604.16251	27789.725
1607.47959	24327.025
1610.79447	20293.825
1614.10715	16986.425
1617.41763	14841.525
1620.7259	13719.025
1624.03199	13313.925
1627.33587	13441.325
1630.63757	14232.825
1633.93707	15837.525
1637.23439	18770.325
1640.52951	23586.125
1643.82246	30095.125
1647.11321	36180.525
1650.40179	38117.625
1653.68819	34162.025
1656.97241	26773.625
1660.25446	19945.125
1663.53433	15521.325
1666.81203	13006.125
1670.08756	11629.125
1673.36092	10792.225
1676.63211	10307.025
1679.90115	9940.625
1683.16801	9714.225
1686.43272	9531.825
1689.69527	9387.625
1692.95567	9326.225
1696.2139	9265.725
1699.46999	9172.125
1702.72392	9143.325
1705.97571	9117.525
1709.22535	9123.525
1712.47284	9092.025
1715.71819	9076.025
1718.96139	9033.525
1722.20246	8982.325
1725.44139	8921.325
1728.67818	8825.525
1731.91284	8729.625
1735.14537	8645.625
1738.37576	8592.825
1741.60403	8540.625
1744.83017	8504.925
1748.05418	8478.625
1751.27607	8411.225
1754.49584	8403.425
1757.71349	8368.425
1760.92903	8353.525
1764.14244	8348.425
1767.35375	8333.625
1770.56294	8279.225
1773.77002	8248.025
1776.97499	8198.825
1780.17785	8185.225
1783.37861	8166.225
1786.57727	8122.425
1789.77382	8123.425
1792.96828	8092.825
1796.16064	8079.725
1799.3509	8054.225
1802.53907	8064.525
1805.72514	7987.425
1808.90913	7990.525
1812.09102	7950.625
1815.27083	7933.725
1818.44856	7901.025
1821.6242	7881.325
1824.79776	7862.425
1827.96924	7848.025
1831.13864	7845.725
1834.30597	7795.425
1837.47122	7797.425
1840.6344	7783.125
1843.7955	7772.525
1846.95454	7741.725
1850.11151	7743.725
1853.26642	7737.825
1856.41926	7753.525
1859.57004	7750.725
1862.71876	7763.025
1865.86542	7760.825
1869.01003	7753.025
1872.15258	7762.125
1875.29308	7785.325
1878.43152	7803.025
1881.56792	7803.325
1884.70227	7806.925
1887.83457	7828.925
1890.96482	7804.425
1894.09304	7802.225
1897.21921	7832.325
1900.34335	7828.725
1903.46544	7840.525
1906.58551	7823.525
1909.70353	7840.825
1912.81953	7810.125
1915.93349	7785.425
1919.04543	7773.725
1922.15534	7758.125
1925.26322	7710.925
1928.36908	7692.125
1931.47292	7653.025
1934.57473	7652.325
1937.67453	7607.225
1940.77232	7583.325
1943.86808	7570.425
1946.96184	7530.425
1950.05358	7519.225
1953.14331	7491.825
1956.23103	7494.125
1959.31675	7461.325
1962.40046	7417.225
1965.48217	7418.325
1968.56188	7439.525
1971.63959	7400.625
1974.7153	7376.125
1977.78901	7375.825
1980.86073	7343.225
1983.93046	7292.125
1986.99819	7261.725
1990.06394	7205.325
1993.1277	7181.825
1996.18947	7167.025
1999.24925	7135.525
2002.30706	7106.425
2005.36288	7095.225
2008.41672	7069.825
2011.46859	7061.925
2014.51848	7038.925
2017.56639	6974.025
2020.61233	6985.625
2023.6563	6966.725
2026.6983	6945.925
2029.73833	6922.025
2032.7764	6926.125
2035.8125	6899.825
2038.84664	6889.125
2041.87881	6903.025
2044.90903	6870.325
2047.93729	6855.525
2050.96359	6862.925
2053.98794	6850.925
2057.01034	6833.725
2060.03078	6838.725
2063.04927	6821.725
2066.06582	6827.425
2069.08042	6819.225
2072.09307	6805.025
2075.10378	6805.825
2078.11255	6819.125
2081.11938	6820.625
2084.12426	6788.525
2087.12722	6814.325
2090.12824	6805.225
2093.12732	6807.925
2096.12447	6814.225
2099.11969	6801.025
2102.11299	6809.225
2105.10435	6806.025
2108.09379	6800.025
2111.08131	6790.725
2114.0669	6778.725
2117.05057	6786.325
2120.03233	6788.325
2123.01216	6771.425
2125.99008	6796.925
2128.96609	6786.725
2131.94018	6780.525
2134.91236	6778.125
2137.88263	6778.225
2140.851	6760.925
2143.81746	6762.725
2146.78201	6747.225
2149.74466	6725.425
2152.7054	6714.125
2155.66425	6720.825
2158.6212	6727.925
2161.57625	6703.725
2164.52941	6689.425
2167.48067	6669.425
2170.43004	6672.425
2173.37752	6678.825
2176.32311	6669.325
2179.26681	6691.925
2182.20863	6674.225
2185.14856	6673.325
2188.08661	6675.125
2191.02278	6681.425
2193.95707	6678.025
2196.88948	6660.925
2199.82001	6659.625
2202.74867	6643.225
2205.67545	6637.425
2208.60037	6640.225
2211.52341	6599.125
2214.44458	6608.325
2217.36388	6583.725
2220.28132	6568.725
2223.1969	6548.625
2226.11061	6534.725
2229.02246	6513.925
2231.93245	6516.925
2234.84058	6507.425
2237.74686	6509.825
2240.65128	6525.225
2243.55385	6499.925
2246.45456	6508.425
2249.35343	6485.425
2252.25044	6472.025
2255.14561	6444.325
2258.03893	6449.125
2260.93041	6436.525
2263.82004	6426.925
2266.70783	6422.525
2269.59378	6399.125
2272.4779	6351.725
2275.36017	6350.525
2278.24061	6355.825
2281.11922	6311.725
2283.996	6327.025
2286.87094	6312.725
2289.74405	6294.025
2292.61534	6284.525
2295.4848	6265.525
2298.35243	6269.425
2301.21824	6268.225
2304.08223	6264.925
2306.94439	6262.825
2309.80474	6265.125
2312.66327	6260.025
2315.51999	6253.725
2318.37489	6264.525
2321.22797	6241.825
2324.07925	6260.025
2326.92871	6246.025
2329.77637	6231.525
2332.62222	6214.525
2335.46626	6231.625
2338.3085	6213.125
2341.14893	6227.525
2343.98756	6231.425
2346.8244	6240.625
2349.65943	6254.925
2352.49267	6248.225
2355.32411	6241.225
2358.15376	6263.025
2360.98161	6265.325
2363.80768	6271.725
2366.63195	6279.925
2369.45444	6282.725
2372.27514	6296.425
2375.09405	6276.725
2377.91118	6282.725
2380.72652	6245.925
2383.54009	6221.825
2386.35187	6198.625
2389.16188	6153.125
2391.97011	6151.425
2394.77657	6145.325
2397.58125	6116.125
2400.38416	6113.825
2403.18529	6069.825
2405.98466	6082.925
2408.78226	6041.325
2411.57809	6041.525
2414.37216	6021.725
2417.16446	6037.925
2419.955	6029.325
2422.74378	6022.125
2425.5308	6035.625
2428.31606	6039.625
2431.09956	6049.125
2433.88131	6012.025
2436.6613	6020.725
2439.43954	6036.825
2442.21603	6024.225
2444.99077	6022.525
2447.76377	6050.025
2450.53501	6064.525
2453.30451	6064.725
2456.07226	6069.525
2458.83827	6061.025
2461.60254	6078.625
2464.36507	6064.225
2467.12586	6067.025
2469.88492	6060.425
2472.64224	6102.325
2475.39782	6092.125
2478.15167	6109.925
2480.90379	6122.225
2483.65417	6122.425
2486.40283	6146.525
2489.14976	6151.325
2491.89497	6164.825
2494.63845	6175.425
2497.3802	6170.025
2500.12024	6173.625
2502.85855	6170.425
2505.59514	6135.025
2508.33002	6108.925
2511.06318	6093.725
2513.79462	6072.425
2516.52435	6045.025
2519.25237	6030.925
2521.97867	6013.325
2524.70327	6006.125
2527.42616	5994.525
2530.14734	5992.225
2532.86681	5994.325
2535.58458	5986.525
2538.30065	5981.525
2541.01501	5994.725
2543.72768	6009.325
2546.43864	6009.025
2549.14791	5994.125
2551.85548	6011.225
2554.56136	5999.725
2557.26554	5997.225
2559.96803	5995.325
2562.66883	6006.625
2565.36794	5984.525
2568.06536	5990.225
2570.7611	6004.025
2573.45514	5998.225
2576.14751	5979.325
2578.83819	5976.925
2581.52719	5987.725
2584.21451	5991.525
2586.90015	5973.725
2589.58411	5950.525
2592.2664	5960.625
2594.94701	5948.225
2597.62594	5960.625
2600.30321	5941.425
2602.9788	5950.425
2605.65273	5942.325
2608.32498	5957.525
2610.99557	5960.125
2613.66449	5970.225
2616.33175	5975.925
2618.99734	5976.225
2621.66128	5981.525
2624.32355	5968.525
2626.98416	5973.525
2629.64311	5955.725
2632.30041	5950.825
2634.95605	5948.725
2637.61004	5939.125
2640.26238	5930.925
2642.91306	5913.425
2645.56209	5908.125
2648.20948	5927.825
2650.85521	5933.325
2653.4993	5934.125
2656.14175	5943.025
2658.78255	5971.025
2661.42171	5976.125
2664.05923	6010.925
2666.6951	5984.225
2669.32934	6002.225
2671.96194	6018.025
2674.59291	6017.125
2677.22224	5993.625
2679.84993	6011.225
2682.476	5984.325
2685.10043	5998.725
2687.72324	5991.625
2690.34441	5992.725
2692.96396	5973.925
2695.58188	5961.625
2698.19818	5985.825
2700.81285	5971.925
2703.4259	5991.425
2706.03733	5997.325
2708.64714	5999.225
2711.25533	5990.625
2713.86191	6008.125
2716.46687	6025.025
2719.07021	6011.325
2721.67194	6019.225
2724.27206	6026.725
2726.87057	6038.425
2729.46747	6052.425
2732.06276	6060.025
2734.65644	6022.725
2737.24852	6032.425
2739.83899	6010.025
2742.42786	6038.425
2745.01513	6005.425
2747.60079	5989.325
2750.18486	6001.325
2752.76733	6012.425
2755.3482	5993.525
2757.92747	6010.525
2760.50515	5980.925
2763.08123	5994.625
2765.65573	5988.625
2768.22863	6004.625
2770.79994	5989.125
2773.36967	6002.925
2775.9378	6012.525
2778.50435	6027.725
2781.06932	5999.625
2783.6327	6028.325
2786.1945	6022.825
2788.75471	6002.025
2791.31335	6011.525
2793.87041	6023.325
2796.42589	6008.325
2798.97979	6026.225
2801.53212	5996.225
2804.08288	5988.825
2806.63206	5994.325
2809.17967	5973.625
2811.72571	5997.025
2814.27018	5991.025
2816.81308	6006.425
2819.35442	6005.325
2821.89419	6024.225
2824.43239	6032.625
2826.96904	6022.525
2829.50412	6028.325
2832.03763	6019.325
2834.56959	6026.425
2837.1	6021.125
2839.62884	6026.725
2842.15613	6026.525
2844.68186	6025.525
2847.20604	6041.425
2849.72867	6042.825
2852.24974	6063.025
2854.76927	6090.025
2857.28724	6066.625
2859.80367	6093.425
2862.31855	6095.825
2864.83189	6090.725
2867.34368	6108.925
2869.85393	6112.925
2872.36264	6103.325
2874.8698	6095.525
2877.37543	6116.825
2879.87952	6094.725
2882.38207	6080.325
2884.88308	6083.325
2887.38256	6080.025
2889.88051	6066.825
2892.37692	6070.525
2894.8718	6071.325
2897.36515	6080.425
2899.85698	6084.725
2902.34727	6096.925
2904.83604	6094.325
2907.32328	6110.625
2909.809	6114.525
2912.29319	6091.525
2914.77587	6087.025
2917.25702	6071.725
2919.73665	6069.625
2922.21476	6055.125
2924.69136	6041.925
2927.16644	6050.625
2929.64	6038.925
2932.11205	6008.025
2934.58258	5970.725
2937.05161	5983.425
2939.51912	5966.325
2941.98513	5968.725
2944.44962	5930.825
2946.91261	5899.925
2949.37409	5914.625
2951.83407	5925.925
2954.29254	5919.825
2956.74951	5893.625
2959.20498	5882.225
2961.65895	5888.225
2964.11142	5859.125
2966.56239	5822.125
2969.01186	5807.325
2971.45984	5792.925
2973.90632	5760.425
2976.35131	5757.525
2978.7948	5708.225
2981.23681	5707.925
2983.67732	5678.725
2986.11635	5668.325
2988.55388	5669.225
2990.98993	5640.625
2993.4245	5621.025
2995.85758	5621.625
2998.28917	5635.525
3000.71928	5612.325
3003.14791	5602.125
3005.57506	5602.725
3008.00073	5582.925
3010.42493	5582.225
3012.84764	5549.825
3015.26888	5557.125
3017.68865	5535.625
3020.10694	5533.325
3022.52376	5508.025
3024.9391	5474.925
3027.35298	5474.625
3029.76539	5457.225
3032.17632	5441.325
3034.5858	5435.725
3036.9938	5422.225
3039.40034	5398.325
3041.80542	5411.925
3044.20903	5373.125
3046.61118	5396.825
3049.01187	5378.325
3051.4111	5372.025
3053.80888	5365.625
3056.20519	5373.425
3058.60005	5345.825
3060.99345	5332.625
3063.3854	5310.825
3065.7759	5288.825
3068.16494	5285.525
3070.55254	5265.825
3072.93868	5239.425
3075.32338	5240.725
3077.70662	5231.825
3080.08842	5210.625
3082.46878	5203.325
3084.84769	5191.725
3087.22515	5200.725
3089.60118	5186.625
3091.97576	5185.425
3094.3489	5179.325
3096.72061	5170.825
3099.09087	5162.225
3101.4597	5147.425
3103.82709	5120.625
3106.19305	5113.425
3108.55757	5076.525
3110.92066	5083.925
3113.28232	5053.925
3115.64255	5065.725
3118.00134	5058.225
3120.35871	5046.625
3122.71466	5035.625
3125.06917	5033.725
3127.42226	5035.925
3129.77393	5029.225
3132.12417	5022.925
3134.47299	5042.125
3136.82039	5060.525
3139.16636	5047.925
3141.51092	5033.625
3143.85406	5036.725
3146.19579	5010.925
3148.53609	5005.225
3150.87499	5022.125
3153.21246	5031.725
3155.54853	5003.125
3157.88318	5018.225
3160.21642	4991.025
3162.54826	4996.725
3164.87868	4993.225
3167.2077	4979.725
3169.5353	4969.725
3171.86151	4972.925
3174.18631	4974.325
3176.5097	4974.125
3178.83169	4965.025
3181.15228	4981.525
3183.47147	4983.825
3185.78926	4985.225
3188.10565	4969.725
3190.42065	4964.825
3192.73424	4977.225
3195.04645	4983.025
