Data from AgNP_FTO_APTES_UA_100uM_CRN_2uM_R6G_10uM_NaF_0.1M_Addition_RamanShift__21__14-09-20-316.txt Node

Date: Thu Mar 24 14:09:20 GMT 2022
User: TCL
Spectrometer: QEP01345
Trigger mode: 4
Integration Time (sec): 7.000000E0
Scans to average: 10
Electric dark correction enabled: true
Nonlinearity correction enabled: false
Boxcar width: 0
XAxis mode: Raman Shifts
Number of Pixels in Spectrum: 1044
>>>>>Begin Spectral Data<<<<<
46.04893	-1.425
50.45542	-0.025
54.85868	0.275
59.25871	-1.025
63.6555	45.175
68.04907	44.875
72.43941	46.375
76.82654	48.075
81.21044	51.475
85.59113	54.975
89.96862	58.175
94.34289	53.075
98.71396	56.875
103.08183	60.075
107.4465	60.475
111.80798	63.875
116.16626	64.275
120.52136	68.675
124.87327	68.075
129.222	73.175
133.56755	80.375
137.90993	85.375
142.24913	94.575
146.58517	95.575
150.91804	116.175
155.24774	139.275
159.57429	173.375
163.89768	220.175
168.21792	300.275
172.53501	406.475
176.84895	569.875
181.15975	798.275
185.46741	1120.075
189.77193	1537.875
194.07331	2073.175
198.37157	2680.475
202.6667	3331.875
206.9587	3974.575
211.24758	4656.775
215.53334	5399.575
219.81599	6153.475
224.09553	7052.675
228.37195	8067.175
232.64527	9163.575
236.91549	10250.175
241.18261	11213.275
245.44663	11978.475
249.70755	12587.475
253.96539	13068.375
258.22014	13508.975
262.4718	13929.375
266.72039	14256.775
270.96589	14338.275
275.20832	14220.475
279.44768	13924.775
283.68397	13634.975
287.91719	13443.375
292.14735	13466.475
296.37445	13773.775
300.59849	14340.075
304.81948	15054.275
309.03742	15603.775
313.25231	15674.175
317.46415	15061.675
321.67296	13936.875
325.87872	12982.175
330.08145	12452.375
334.28114	12423.075
338.47781	12631.375
342.67145	12994.175
346.86207	13518.675
351.04966	14273.275
355.23424	15151.075
359.4158	15860.475
363.59435	16201.775
367.76989	16287.975
371.94243	16215.375
376.11196	16091.975
380.27849	15962.175
384.44203	15786.075
388.60257	15583.875
392.76012	15451.175
396.91468	15548.075
401.06626	15858.875
405.21485	16145.075
409.36047	15827.175
413.50311	14954.675
417.64277	14079.475
421.77947	13533.575
425.9132	13328.575
430.04396	13268.875
434.17176	13372.975
438.2966	13556.575
442.41849	13883.775
446.53742	14348.275
450.6534	14788.875
454.76644	15012.475
458.87653	15046.075
462.98368	14828.575
467.08789	14562.675
471.18916	14213.475
475.2875	13857.475
479.38291	13555.475
483.4754	13272.175
487.56496	13063.575
491.6516	12994.275
495.73531	12911.575
499.81612	12926.175
503.89401	13125.975
507.96899	13297.275
512.04106	13492.175
516.11023	13697.075
520.1765	13829.475
524.23987	13863.975
528.30034	13738.875
532.35792	13586.875
536.41261	13345.475
540.46441	13035.475
544.51333	12846.875
548.55936	12962.275
552.60252	13296.175
556.64279	13698.975
560.6802	13934.575
564.71473	14147.475
568.7464	14619.375
572.7752	14928.075
576.80114	14549.075
580.82422	14130.175
584.84444	14093.275
588.86181	14212.475
592.87633	14510.575
596.888	14701.575
600.89682	15056.375
604.9028	16789.275
608.90594	21764.375
612.90624	28238.175
616.90371	27094.575
620.89834	18580.375
624.89015	14310.675
628.87913	13541.075
632.86528	13759.175
636.84862	14072.975
640.82913	13823.075
644.80683	13025.375
648.78172	12437.475
652.75379	12412.275
656.72306	13000.775
660.68952	13731.475
664.65319	13566.575
668.61405	12820.575
672.57211	12465.575
676.52738	12459.675
680.47986	12415.175
684.42955	12239.875
688.37646	12098.675
692.32058	12144.075
696.26192	12242.675
700.20048	12438.775
704.13626	12594.175
708.06928	12542.275
711.99952	12411.475
715.927	12391.575
719.85171	12468.975
723.77365	12566.575
727.69284	12466.375
731.60928	12340.075
735.52295	12328.775
739.43388	12388.875
743.34206	12445.075
747.24749	12507.075
751.15017	12526.075
755.05012	12717.775
758.94733	13445.475
762.8418	15278.675
766.73354	18420.575
770.62254	21620.375
774.50882	23154.975
778.39237	21958.575
782.27321	18767.575
786.15132	15546.975
790.02671	13611.075
793.89938	12724.175
797.76935	12363.775
801.6366	12225.375
805.50115	12137.475
809.36299	12076.075
813.22213	11995.775
817.07857	11945.275
820.93231	11931.875
824.78336	11946.575
828.63172	11967.675
832.47738	11994.775
836.32036	11958.075
840.16066	11867.075
843.99827	11865.575
847.8332	11849.275
851.66546	11812.675
855.49504	11819.475
859.32195	11808.275
863.1462	11806.875
866.96777	11753.275
870.78668	11729.875
874.60293	11777.275
878.41652	11807.775
882.22745	11911.275
886.03573	11991.075
889.84136	11973.675
893.64433	11919.775
897.44466	11856.175
901.24235	11789.375
905.0374	11746.075
908.8298	11651.275
912.61957	11562.375
916.40671	11592.175
920.19121	11747.275
923.97308	11930.075
927.75233	12100.475
931.52895	12260.875
935.30295	12107.075
939.07433	11734.075
942.84309	11408.475
946.60924	11250.575
950.37278	11139.375
954.13371	11057.675
957.89203	11012.875
961.64774	10986.775
965.40086	10929.475
969.15137	10906.375
972.89929	10851.475
976.64461	10851.775
980.38733	10861.775
984.12747	10851.575
987.86502	10951.875
991.59999	11079.275
995.33237	11246.175
999.06217	11577.775
1002.78939	11968.375
1006.51404	12334.275
1010.23611	12603.275
1013.95561	12711.975
1017.67255	12727.075
1021.38692	12571.275
1025.09872	12339.675
1028.80796	12253.675
1032.51465	12425.075
1036.21877	12667.075
1039.92035	12742.475
1043.61937	12679.075
1047.31584	12598.975
1051.00976	12394.775
1054.70114	12257.975
1058.38998	12200.875
1062.07627	12246.775
1065.76003	12286.275
1069.44126	12354.375
1073.11995	12512.175
1076.79611	12733.375
1080.46974	13072.975
1084.14085	13501.775
1087.80943	13944.175
1091.47549	14104.675
1095.13903	13861.375
1098.80005	13378.175
1102.45857	12943.775
1106.11456	12863.475
1109.76805	12997.275
1113.41903	13425.775
1117.06751	14048.675
1120.71348	14816.375
1124.35696	15664.975
1127.99793	16231.075
1131.63641	16020.875
1135.2724	15150.575
1138.90589	14314.775
1142.5369	13791.475
1146.16542	13438.175
1149.79145	13197.275
1153.415	13136.175
1157.03607	13276.975
1160.65467	13611.575
1164.27079	14237.975
1167.88443	15187.475
1171.49561	16672.675
1175.10432	18935.375
1178.71056	22015.975
1182.31434	24712.575
1185.91565	25534.675
1189.51451	24672.875
1193.11091	22886.775
1196.70485	20857.975
1200.29634	19307.375
1203.88538	18156.175
1207.47197	16916.775
1211.05612	15746.275
1214.63782	15068.875
1218.21708	14820.175
1221.79391	14826.975
1225.36829	14891.575
1228.94024	14800.075
1232.50976	14627.275
1236.07685	14401.875
1239.6415	14338.175
1243.20374	14370.775
1246.76355	14527.475
1250.32093	14739.775
1253.8759	15085.375
1257.42845	15622.475
1260.97859	16238.975
1264.52631	16933.075
1268.07163	17654.575
1271.61453	18289.875
1275.15503	18806.475
1278.69312	19149.575
1282.22882	19461.975
1285.76211	19981.875
1289.29301	20730.775
1292.82151	21606.675
1296.34761	22594.775
1299.87133	24149.975
1303.39266	26750.275
1306.9116	30515.575
1310.42815	34416.575
1313.94233	36110.375
1317.45412	34486.775
1320.96354	31248.175
1324.47058	28144.875
1327.97525	25543.175
1331.47754	23947.175
1334.97747	23312.975
1338.47502	23410.575
1341.97022	24136.875
1345.46305	25438.175
1348.95352	27330.075
1352.44163	29826.775
1355.92738	33594.275
1359.41078	39288.375
1362.89183	44530.375
1366.37053	42687.375
1369.84688	34787.075
1373.32088	27606.975
1376.79254	23437.475
1380.26186	21293.975
1383.72883	20056.975
1387.19347	19184.975
1390.65578	18351.275
1394.11575	17759.875
1397.57339	17543.975
1401.0287	17541.175
1404.48168	17653.075
1407.93234	17718.275
1411.38068	17761.975
1414.82669	17793.975
1418.27039	17598.875
1421.71177	17230.375
1425.15083	16728.475
1428.58758	16525.275
1432.02203	16694.375
1435.45416	17090.975
1438.88399	17277.575
1442.31151	17330.175
1445.73673	17462.775
1449.15965	17624.175
1452.58027	17614.275
1455.9986	17466.675
1459.41463	17461.675
1462.82837	17723.575
1466.23982	18256.475
1469.64898	18837.675
1473.05586	19251.175
1476.46045	19456.575
1479.86276	19672.575
1483.26279	20023.975
1486.66054	20536.575
1490.05602	21352.575
1493.44922	22609.675
1496.84016	24602.375
1500.22882	27815.975
1503.61521	32433.075
1506.99934	37653.975
1510.38121	41519.175
1513.76081	41587.075
1517.13816	37599.175
1520.51324	31689.975
1523.88607	26648.475
1527.25665	23538.475
1530.62498	21892.575
1533.99105	20920.375
1537.35488	20252.275
1540.71647	19785.275
1544.07581	19488.175
1547.4329	19306.875
1550.78776	19239.275
1554.14038	19236.275
1557.49077	19426.575
1560.83892	19849.775
1564.18484	20503.575
1567.52853	21380.275
1570.86999	22092.375
1574.20922	22519.775
1577.54624	22317.375
1580.88103	20992.975
1584.2136	19197.275
1587.54395	18250.975
1590.87208	18417.175
1594.19801	19620.075
1597.52172	21378.775
1600.84321	22274.975
1604.16251	21559.675
1607.47959	20091.875
1610.79447	18509.275
1614.10715	16948.475
1617.41763	15587.075
1620.7259	14682.175
1624.03199	14236.875
1627.33587	14229.175
1630.63757	14640.075
1633.93707	15589.775
1637.23439	17151.475
1640.52951	19658.375
1643.82246	23244.275
1647.11321	27420.475
1650.40179	29906.675
1653.68819	28561.575
1656.97241	23950.375
1660.25446	19167.675
1663.53433	15851.175
1666.81203	13911.875
1670.08756	12802.775
1673.36092	12147.875
1676.63211	11684.475
1679.90115	11387.875
1683.16801	11174.575
1686.43272	10987.575
1689.69527	10866.375
1692.95567	10749.975
1696.2139	10711.875
1699.46999	10637.675
1702.72392	10615.675
1705.97571	10601.275
1709.22535	10568.775
1712.47284	10549.875
1715.71819	10544.475
1718.96139	10508.075
1722.20246	10466.175
1725.44139	10387.375
1728.67818	10291.275
1731.91284	10177.275
1735.14537	10106.175
1738.37576	10050.075
1741.60403	10005.975
1744.83017	9984.775
1748.05418	9953.275
1751.27607	9935.075
1754.49584	9894.775
1757.71349	9863.175
1760.92903	9852.675
1764.14244	9845.075
1767.35375	9822.075
1770.56294	9802.175
1773.77002	9757.675
1776.97499	9695.275
1780.17785	9692.875
1783.37861	9642.775
1786.57727	9632.775
1789.77382	9595.575
1792.96828	9598.375
1796.16064	9576.775
1799.3509	9567.875
1802.53907	9555.375
1805.72514	9533.075
1808.90913	9479.175
1812.09102	9454.475
1815.27083	9419.875
1818.44856	9436.275
1821.6242	9386.575
1824.79776	9366.875
1827.96924	9330.175
1831.13864	9328.075
1834.30597	9328.975
1837.47122	9303.975
1840.6344	9287.175
1843.7955	9279.475
1846.95454	9274.975
1850.11151	9259.275
1853.26642	9248.775
1856.41926	9237.575
1859.57004	9224.775
1862.71876	9243.875
1865.86542	9230.975
1869.01003	9230.475
1872.15258	9218.775
1875.29308	9200.775
1878.43152	9195.375
1881.56792	9199.675
1884.70227	9200.275
1887.83457	9191.075
1890.96482	9170.875
1894.09304	9174.575
1897.21921	9193.475
1900.34335	9167.975
1903.46544	9158.875
1906.58551	9180.275
1909.70353	9164.475
1912.81953	9158.775
1915.93349	9139.975
1919.04543	9116.575
1922.15534	9118.675
1925.26322	9101.075
1928.36908	9046.675
1931.47292	9050.575
1934.57473	9039.475
1937.67453	8992.075
1940.77232	8969.875
1943.86808	8925.575
1946.96184	8914.775
1950.05358	8902.675
1953.14331	8886.775
1956.23103	8859.275
1959.31675	8832.875
1962.40046	8838.975
1965.48217	8805.375
1968.56188	8797.975
1971.63959	8800.675
1974.7153	8781.475
1977.78901	8738.475
1980.86073	8708.775
1983.93046	8677.475
1986.99819	8635.275
1990.06394	8615.375
1993.1277	8586.775
1996.18947	8534.375
1999.24925	8500.675
2002.30706	8483.575
2005.36288	8432.175
2008.41672	8413.275
2011.46859	8394.975
2014.51848	8394.575
2017.56639	8353.575
2020.61233	8338.675
2023.6563	8322.375
2026.6983	8302.675
2029.73833	8258.675
2032.7764	8241.975
2035.8125	8218.475
2038.84664	8210.575
2041.87881	8197.775
2044.90903	8193.275
2047.93729	8185.875
2050.96359	8188.075
2053.98794	8164.975
2057.01034	8132.375
2060.03078	8108.975
2063.04927	8104.875
2066.06582	8110.375
2069.08042	8106.475
2072.09307	8071.875
2075.10378	8087.475
2078.11255	8076.375
2081.11938	8060.775
2084.12426	8047.275
2087.12722	8050.475
2090.12824	8058.575
2093.12732	8085.475
2096.12447	8075.275
2099.11969	8084.075
2102.11299	8086.875
2105.10435	8089.175
2108.09379	8066.575
2111.08131	8095.275
2114.0669	8118.375
2117.05057	8113.675
2120.03233	8124.275
2123.01216	8124.175
2125.99008	8128.375
2128.96609	8151.275
2131.94018	8162.875
2134.91236	8135.875
2137.88263	8128.275
2140.851	8124.775
2143.81746	8147.175
2146.78201	8126.975
2149.74466	8145.375
2152.7054	8131.375
2155.66425	8129.175
2158.6212	8157.375
2161.57625	8122.475
2164.52941	8103.875
2167.48067	8113.275
2170.43004	8098.375
2173.37752	8104.775
2176.32311	8094.075
2179.26681	8116.375
2182.20863	8116.175
2185.14856	8117.475
2188.08661	8097.575
2191.02278	8088.175
2193.95707	8096.275
2196.88948	8094.075
2199.82001	8048.575
2202.74867	8079.475
2205.67545	8044.575
2208.60037	8060.175
2211.52341	8026.275
2214.44458	8053.275
2217.36388	8040.175
2220.28132	8031.175
2223.1969	8029.575
2226.11061	8002.375
2229.02246	7980.575
2231.93245	7948.275
2234.84058	7938.375
2237.74686	7924.675
2240.65128	7913.275
2243.55385	7907.075
2246.45456	7905.075
2249.35343	7908.275
2252.25044	7913.675
2255.14561	7909.875
2258.03893	7920.275
2260.93041	7907.375
2263.82004	7900.775
2266.70783	7885.375
2269.59378	7863.775
2272.4779	7847.575
2275.36017	7802.875
2278.24061	7792.275
2281.11922	7801.875
2283.996	7769.675
2286.87094	7772.775
2289.74405	7743.875
2292.61534	7737.875
2295.4848	7723.575
2298.35243	7702.375
2301.21824	7700.275
2304.08223	7707.575
2306.94439	7722.675
2309.80474	7727.375
2312.66327	7726.975
2315.51999	7713.275
2318.37489	7714.175
2321.22797	7714.675
2324.07925	7702.475
2326.92871	7698.875
2329.77637	7687.575
2332.62222	7681.175
2335.46626	7696.075
2338.3085	7714.475
2341.14893	7713.475
2343.98756	7707.175
2346.8244	7706.675
2349.65943	7708.775
2352.49267	7720.775
2355.32411	7734.775
2358.15376	7729.475
2360.98161	7726.675
2363.80768	7751.175
2366.63195	7761.075
2369.45444	7770.575
2372.27514	7756.075
2375.09405	7734.575
2377.91118	7714.275
2380.72652	7687.475
2383.54009	7686.475
2386.35187	7638.475
2389.16188	7588.875
2391.97011	7590.475
2394.77657	7581.375
2397.58125	7565.475
2400.38416	7534.575
2403.18529	7504.475
2405.98466	7503.975
2408.78226	7476.975
2411.57809	7476.775
2414.37216	7429.275
2417.16446	7447.275
2419.955	7407.875
2422.74378	7432.275
2425.5308	7411.075
2428.31606	7412.575
2431.09956	7430.475
2433.88131	7414.875
2436.6613	7414.975
2439.43954	7434.075
2442.21603	7424.475
2444.99077	7421.375
2447.76377	7434.475
2450.53501	7438.075
2453.30451	7445.975
2456.07226	7440.875
2458.83827	7417.975
2461.60254	7411.775
2464.36507	7432.175
2467.12586	7428.475
2469.88492	7453.775
2472.64224	7451.675
2475.39782	7446.975
2478.15167	7452.975
2480.90379	7463.975
2483.65417	7486.575
2486.40283	7509.475
2489.14976	7541.875
2491.89497	7537.975
2494.63845	7554.975
2497.3802	7550.775
2500.12024	7529.275
2502.85855	7537.775
2505.59514	7505.975
2508.33002	7458.475
2511.06318	7445.575
2513.79462	7434.875
2516.52435	7400.675
2519.25237	7364.975
2521.97867	7370.675
2524.70327	7343.275
2527.42616	7334.675
2530.14734	7321.375
2532.86681	7317.375
2535.58458	7318.675
2538.30065	7306.275
2541.01501	7325.575
2543.72768	7306.975
2546.43864	7307.975
2549.14791	7294.875
2551.85548	7286.275
2554.56136	7302.275
2557.26554	7295.075
2559.96803	7290.275
2562.66883	7284.475
2565.36794	7298.475
2568.06536	7276.975
2570.7611	7280.975
2573.45514	7252.475
2576.14751	7262.775
2578.83819	7246.175
2581.52719	7233.075
2584.21451	7229.275
2586.90015	7237.875
2589.58411	7201.075
2592.2664	7201.975
2594.94701	7190.675
2597.62594	7186.675
2600.30321	7162.175
2602.9788	7166.275
2605.65273	7181.475
2608.32498	7191.775
2610.99557	7177.275
2613.66449	7169.775
2616.33175	7191.275
2618.99734	7182.875
2621.66128	7182.375
2624.32355	7190.875
2626.98416	7181.475
2629.64311	7182.475
2632.30041	7157.875
2634.95605	7145.075
2637.61004	7136.475
2640.26238	7127.375
2642.91306	7131.475
2645.56209	7129.375
2648.20948	7119.175
2650.85521	7121.975
2653.4993	7102.375
2656.14175	7116.275
2658.78255	7122.775
2661.42171	7121.875
2664.05923	7134.775
2666.6951	7136.075
2669.32934	7164.875
2671.96194	7148.175
2674.59291	7158.175
2677.22224	7154.875
2679.84993	7158.975
2682.476	7141.575
2685.10043	7148.475
2687.72324	7152.475
2690.34441	7145.375
2692.96396	7138.975
2695.58188	7143.975
2698.19818	7137.775
2700.81285	7142.675
2703.4259	7128.375
2706.03733	7129.375
2708.64714	7138.575
2711.25533	7147.675
2713.86191	7149.875
2716.46687	7151.475
2719.07021	7161.575
2721.67194	7148.075
2724.27206	7150.875
2726.87057	7146.775
2729.46747	7139.175
2732.06276	7141.375
2734.65644	7138.975
2737.24852	7131.975
2739.83899	7126.675
2742.42786	7136.075
2745.01513	7090.275
2747.60079	7117.675
2750.18486	7091.075
2752.76733	7088.775
2755.3482	7094.675
2757.92747	7085.475
2760.50515	7093.675
2763.08123	7069.975
2765.65573	7059.875
2768.22863	7052.575
2770.79994	7059.675
2773.36967	7064.875
2775.9378	7076.375
2778.50435	7069.375
2781.06932	7038.575
2783.6327	7034.175
2786.1945	7023.575
2788.75471	7019.475
2791.31335	7007.075
2793.87041	7025.375
2796.42589	7006.075
2798.97979	7027.175
2801.53212	6998.975
2804.08288	6995.275
2806.63206	6999.375
2809.17967	7001.275
2811.72571	7002.375
2814.27018	7019.275
2816.81308	7008.775
2819.35442	7021.075
2821.89419	7016.975
2824.43239	7040.275
2826.96904	7018.375
2829.50412	7033.375
2832.03763	6997.475
2834.56959	6981.675
2837.1	6996.075
2839.62884	6978.975
2842.15613	6979.675
2844.68186	6972.675
2847.20604	6990.175
2849.72867	6981.875
2852.24974	6988.475
2854.76927	6978.975
2857.28724	6979.475
2859.80367	6976.275
2862.31855	6992.075
2864.83189	6996.475
2867.34368	7010.575
2869.85393	7019.475
2872.36264	7006.875
2874.8698	7033.075
2877.37543	7040.875
2879.87952	7024.775
2882.38207	7033.175
2884.88308	7022.275
2887.38256	7037.175
2889.88051	7011.875
2892.37692	7009.575
2894.8718	7018.675
2897.36515	7000.875
2899.85698	7024.475
2902.34727	7012.075
2904.83604	7018.575
2907.32328	7034.875
2909.809	7029.675
2912.29319	7041.575
2914.77587	7019.675
2917.25702	7003.275
2919.73665	7000.175
2922.21476	6997.175
2924.69136	6975.275
2927.16644	6973.975
2929.64	6959.375
2932.11205	6956.175
2934.58258	6921.675
2937.05161	6937.375
2939.51912	6924.175
2941.98513	6933.175
2944.44962	6892.475
2946.91261	6886.075
2949.37409	6899.375
2951.83407	6894.875
2954.29254	6891.775
2956.74951	6891.175
2959.20498	6871.875
2961.65895	6859.275
2964.11142	6847.575
2966.56239	6845.275
2969.01186	6842.775
2971.45984	6811.475
2973.90632	6808.975
2976.35131	6785.975
2978.7948	6762.675
2981.23681	6760.775
2983.67732	6761.275
2986.11635	6712.275
2988.55388	6721.475
2990.98993	6719.175
2993.4245	6702.675
2995.85758	6707.575
2998.28917	6703.175
3000.71928	6682.775
3003.14791	6678.975
3005.57506	6669.875
3008.00073	6669.375
3010.42493	6667.375
3012.84764	6680.675
3015.26888	6647.775
3017.68865	6653.375
3020.10694	6629.075
3022.52376	6584.575
3024.9391	6586.275
3027.35298	6558.875
3029.76539	6566.275
3032.17632	6567.475
3034.5858	6537.875
3036.9938	6550.175
3039.40034	6513.575
3041.80542	6510.175
3044.20903	6492.375
3046.61118	6494.975
3049.01187	6465.075
3051.4111	6456.875
3053.80888	6433.075
3056.20519	6419.675
3058.60005	6413.475
3060.99345	6399.775
3063.3854	6384.875
3065.7759	6376.575
3068.16494	6366.275
3070.55254	6362.575
3072.93868	6346.875
3075.32338	6310.475
3077.70662	6294.875
3080.08842	6297.175
3082.46878	6288.875
3084.84769	6277.775
3087.22515	6285.375
3089.60118	6276.775
3091.97576	6272.175
3094.3489	6266.875
3096.72061	6273.175
3099.09087	6266.875
3101.4597	6251.375
3103.82709	6256.775
3106.19305	6274.675
3108.55757	6266.875
3110.92066	6234.775
3113.28232	6206.675
3115.64255	6209.075
3118.00134	6199.275
3120.35871	6176.475
3122.71466	6167.775
3125.06917	6163.175
3127.42226	6166.975
3129.77393	6182.075
3132.12417	6160.275
3134.47299	6180.075
3136.82039	6178.275
3139.16636	6180.475
3141.51092	6184.275
3143.85406	6180.575
3146.19579	6184.475
3148.53609	6181.875
3150.87499	6176.175
3153.21246	6206.575
3155.54853	6193.175
3157.88318	6203.575
3160.21642	6190.875
3162.54826	6175.075
3164.87868	6200.075
3167.2077	6167.175
3169.5353	6156.875
3171.86151	6168.575
3174.18631	6157.675
3176.5097	6181.275
3178.83169	6153.475
3181.15228	6158.275
3183.47147	6161.575
3185.78926	6166.175
3188.10565	6150.975
