Data from AgNP_FTO_APTES_UA_100uM_CRN_50uM_R6G_10uM_NaF_0.1M_Addition_RamanShift__1__17-09-00-520.txt Node

Date: Thu Mar 24 17:09:00 GMT 2022
User: TCL
Spectrometer: QEP01345
Trigger mode: 4
Integration Time (sec): 7.000000E0
Scans to average: 10
Electric dark correction enabled: true
Nonlinearity correction enabled: false
Boxcar width: 0
XAxis mode: Raman Shifts
Number of Pixels in Spectrum: 1044
>>>>>Begin Spectral Data<<<<<
46.04893	-2.1875
50.45542	0.8125
54.85868	-0.6875
59.25871	0.3125
63.6555	44.4125
68.04907	44.9125
72.43941	45.8125
76.82654	46.4125
81.21044	50.9125
85.59113	51.9125
89.96862	54.0125
94.34289	54.8125
98.71396	56.7125
103.08183	58.1125
107.4465	59.4125
111.80798	64.0125
116.16626	62.6125
120.52136	63.6125
124.87327	66.5125
129.222	73.5125
133.56755	78.3125
137.90993	80.2125
142.24913	95.4125
146.58517	103.8125
150.91804	124.4125
155.24774	154.3125
159.57429	189.0125
163.89768	246.5125
168.21792	330.9125
172.53501	459.7125
176.84895	641.6125
181.15975	911.1125
185.46741	1276.2125
189.77193	1765.8125
194.07331	2356.8125
198.37157	3036.9125
202.6667	3765.5125
206.9587	4490.6125
211.24758	5218.8125
215.53334	5995.2125
219.81599	6812.5125
224.09553	7762.2125
228.37195	8805.7125
232.64527	9955.8125
236.91549	11099.7125
241.18261	12174.4125
245.44663	13057.2125
249.70755	13777.7125
253.96539	14367.6125
258.22014	14889.5125
262.4718	15347.9125
266.72039	15657.4125
270.96589	15800.8125
275.20832	15756.7125
279.44768	15519.0125
283.68397	15234.1125
287.91719	15050.9125
292.14735	15036.0125
296.37445	15162.4125
300.59849	15488.8125
304.81948	15951.4125
309.03742	16301.8125
313.25231	16348.9125
317.46415	16020.6125
321.67296	15447.1125
325.87872	14912.3125
330.08145	14631.8125
334.28114	14668.2125
338.47781	14808.4125
342.67145	15117.1125
346.86207	15504.4125
351.04966	16010.0125
355.23424	16590.6125
359.4158	16968.6125
363.59435	17087.2125
367.76989	17128.2125
371.94243	17102.6125
376.11196	17057.8125
380.27849	17039.0125
384.44203	17029.8125
388.60257	17031.5125
392.76012	17035.8125
396.91468	17178.4125
401.06626	17468.3125
405.21485	17616.2125
409.36047	17338.6125
413.50311	16729.5125
417.64277	16161.6125
421.77947	15924.6125
425.9132	15919.4125
430.04396	16052.2125
434.17176	16258.3125
438.2966	16602.3125
442.41849	17224.9125
446.53742	18054.1125
450.6534	18807.1125
454.76644	19257.5125
458.87653	19197.8125
462.98368	18805.3125
467.08789	18305.0125
471.18916	17806.0125
475.2875	17396.6125
479.38291	17029.8125
483.4754	16668.6125
487.56496	16315.1125
491.6516	16021.2125
495.73531	15786.0125
499.81612	15677.1125
503.89401	15806.7125
507.96899	15892.6125
512.04106	15922.6125
516.11023	15951.7125
520.1765	15951.1125
524.23987	15989.1125
528.30034	15984.0125
532.35792	15928.7125
536.41261	15716.3125
540.46441	15387.2125
544.51333	15256.0125
548.55936	15380.4125
552.60252	15741.9125
556.64279	16294.2125
560.6802	16694.8125
564.71473	16924.6125
568.7464	17383.2125
572.7752	17906.4125
576.80114	18083.7125
580.82422	18179.0125
584.84444	18605.1125
588.86181	19629.0125
592.87633	21314.0125
596.888	22430.1125
600.89682	22065.1125
604.9028	21912.6125
608.90594	24233.6125
612.90624	27758.0125
616.90371	25836.3125
620.89834	19430.4125
624.89015	16393.2125
628.87913	15895.5125
632.86528	16137.1125
636.84862	16321.3125
640.82913	15967.0125
644.80683	15287.0125
648.78172	14824.6125
652.75379	14741.0125
656.72306	15134.3125
660.68952	15668.9125
664.65319	15441.7125
668.61405	14758.1125
672.57211	14491.0125
676.52738	14566.2125
680.47986	14507.4125
684.42955	14303.1125
688.37646	14196.9125
692.32058	14220.0125
696.26192	14436.0125
700.20048	14680.0125
704.13626	14839.9125
708.06928	14815.0125
711.99952	14721.6125
715.927	14725.6125
719.85171	14826.5125
723.77365	14819.5125
727.69284	14764.3125
731.60928	14657.5125
735.52295	14690.0125
739.43388	14812.2125
743.34206	14878.9125
747.24749	14913.4125
751.15017	14969.5125
755.05012	15187.6125
758.94733	15788.9125
762.8418	17259.9125
766.73354	19799.1125
770.62254	22155.8125
774.50882	22934.8125
778.39237	21704.1125
782.27321	19213.7125
786.15132	16891.4125
790.02671	15438.1125
793.89938	14753.8125
797.76935	14395.6125
801.6366	14262.3125
805.50115	14157.0125
809.36299	14075.6125
813.22213	14019.8125
817.07857	13984.1125
820.93231	13990.8125
824.78336	13933.7125
828.63172	13950.6125
832.47738	13940.7125
836.32036	13886.0125
840.16066	13865.6125
843.99827	13825.8125
847.8332	13807.9125
851.66546	13787.9125
855.49504	13799.9125
859.32195	13787.8125
863.1462	13726.7125
866.96777	13693.6125
870.78668	13699.7125
874.60293	13737.0125
878.41652	13772.2125
882.22745	13890.8125
886.03573	13968.3125
889.84136	13950.0125
893.64433	13870.7125
897.44466	13771.1125
901.24235	13736.3125
905.0374	13648.6125
908.8298	13569.2125
912.61957	13543.4125
916.40671	13584.5125
920.19121	13757.5125
923.97308	13923.9125
927.75233	13998.4125
931.52895	13945.0125
935.30295	13711.6125
939.07433	13336.6125
942.84309	13067.7125
946.60924	12907.7125
950.37278	12879.4125
954.13371	12893.4125
957.89203	12841.9125
961.64774	12886.3125
965.40086	12867.5125
969.15137	12835.5125
972.89929	12747.1125
976.64461	12699.0125
980.38733	12682.2125
984.12747	12740.7125
987.86502	12783.1125
991.59999	12937.9125
995.33237	13161.6125
999.06217	13509.7125
1002.78939	14024.3125
1006.51404	14524.8125
1010.23611	14956.2125
1013.95561	15133.3125
1017.67255	15058.9125
1021.38692	14644.6125
1025.09872	14108.0125
1028.80796	13669.2125
1032.51465	13530.7125
1036.21877	13562.6125
1039.92035	13632.3125
1043.61937	13710.3125
1047.31584	13761.6125
1051.00976	13753.2125
1054.70114	13759.9125
1058.38998	13782.5125
1062.07627	13860.3125
1065.76003	13964.5125
1069.44126	14116.5125
1073.11995	14384.5125
1076.79611	14637.7125
1080.46974	14936.3125
1084.14085	15280.9125
1087.80943	15636.1125
1091.47549	15834.8125
1095.13903	15710.6125
1098.80005	15284.0125
1102.45857	14861.9125
1106.11456	14668.7125
1109.76805	14727.6125
1113.41903	14984.5125
1117.06751	15436.3125
1120.71348	15992.0125
1124.35696	16550.3125
1127.99793	17007.5125
1131.63641	16957.4125
1135.2724	16447.6125
1138.90589	16010.8125
1142.5369	15767.5125
1146.16542	15710.9125
1149.79145	15757.6125
1153.415	15849.6125
1157.03607	16025.3125
1160.65467	16439.5125
1164.27079	17181.9125
1167.88443	18410.4125
1171.49561	20215.5125
1175.10432	22823.6125
1178.71056	26144.2125
1182.31434	28906.7125
1185.91565	29485.4125
1189.51451	28193.1125
1193.11091	26327.9125
1196.70485	24462.4125
1200.29634	22919.5125
1203.88538	21705.4125
1207.47197	20575.4125
1211.05612	19685.8125
1214.63782	19135.2125
1218.21708	19067.0125
1221.79391	19229.0125
1225.36829	19368.0125
1228.94024	19237.2125
1232.50976	18670.3125
1236.07685	17982.3125
1239.6415	17668.0125
1243.20374	17665.0125
1246.76355	17685.1125
1250.32093	17852.0125
1253.8759	18193.5125
1257.42845	18739.9125
1260.97859	19485.8125
1264.52631	20238.1125
1268.07163	21028.8125
1271.61453	21681.6125
1275.15503	22153.8125
1278.69312	22558.5125
1282.22882	23187.1125
1285.76211	24251.2125
1289.29301	25668.3125
1292.82151	27296.0125
1296.34761	29136.4125
1299.87133	31377.2125
1303.39266	34159.0125
1306.9116	37605.6125
1310.42815	41092.6125
1313.94233	42952.2125
1317.45412	42295.9125
1320.96354	40075.3125
1324.47058	37489.6125
1327.97525	34925.4125
1331.47754	32921.7125
1334.97747	31786.0125
1338.47502	31309.7125
1341.97022	31366.5125
1345.46305	31764.0125
1348.95352	32620.3125
1352.44163	34370.3125
1355.92738	37460.8125
1359.41078	42021.3125
1362.89183	46126.6125
1366.37053	45146.9125
1369.84688	38856.2125
1373.32088	32144.3125
1376.79254	28332.2125
1380.26186	26897.6125
1383.72883	26254.9125
1387.19347	25576.1125
1390.65578	24883.6125
1394.11575	24571.4125
1397.57339	24824.4125
1401.0287	25419.0125
1404.48168	25867.4125
1407.93234	25816.6125
1411.38068	25383.0125
1414.82669	24726.9125
1418.27039	23796.9125
1421.71177	22690.0125
1425.15083	21622.5125
1428.58758	21197.8125
1432.02203	21501.5125
1435.45416	22322.5125
1438.88399	23073.9125
1442.31151	23539.5125
1445.73673	23769.5125
1449.15965	24020.6125
1452.58027	23893.7125
1455.9986	23564.1125
1459.41463	23369.8125
1462.82837	23701.5125
1466.23982	24567.0125
1469.64898	25535.6125
1473.05586	26382.3125
1476.46045	27030.3125
1479.86276	27467.2125
1483.26279	27624.6125
1486.66054	27796.1125
1490.05602	28331.5125
1493.44922	29066.8125
1496.84016	29824.1125
1500.22882	31014.6125
1503.61521	32932.0125
1506.99934	35324.2125
1510.38121	37048.5125
1513.76081	36853.7125
1517.13816	34286.9125
1520.51324	30751.5125
1523.88607	27939.2125
1527.25665	26452.3125
1530.62498	25881.8125
1533.99105	25561.2125
1537.35488	25133.7125
1540.71647	24524.9125
1544.07581	23782.2125
1547.4329	23041.4125
1550.78776	22316.0125
1554.14038	21817.4125
1557.49077	21529.8125
1560.83892	21649.2125
1564.18484	22072.4125
1567.52853	22784.7125
1570.86999	23590.7125
1574.20922	24228.4125
1577.54624	24338.9125
1580.88103	23579.0125
1584.2136	22585.1125
1587.54395	22581.1125
1590.87208	23737.3125
1594.19801	25990.8125
1597.52172	28610.4125
1600.84321	29969.9125
1604.16251	28861.5125
1607.47959	26130.2125
1610.79447	22964.3125
1614.10715	20280.6125
1617.41763	18267.3125
1620.7259	17039.3125
1624.03199	16464.6125
1627.33587	16544.7125
1630.63757	17185.7125
1633.93707	18613.3125
1637.23439	21256.0125
1640.52951	25549.0125
1643.82246	31224.4125
1647.11321	36356.6125
1650.40179	37983.7125
1653.68819	34695.6125
1656.97241	28415.9125
1660.25446	22447.6125
1663.53433	18373.0125
1666.81203	15982.9125
1670.08756	14612.3125
1673.36092	13737.6125
1676.63211	13183.2125
1679.90115	12825.5125
1683.16801	12540.1125
1686.43272	12310.5125
1689.69527	12161.7125
1692.95567	12024.9125
1696.2139	11944.3125
1699.46999	11854.1125
1702.72392	11756.6125
1705.97571	11708.8125
1709.22535	11659.1125
1712.47284	11660.2125
1715.71819	11614.6125
1718.96139	11532.1125
1722.20246	11494.3125
1725.44139	11428.0125
1728.67818	11311.6125
1731.91284	11217.6125
1735.14537	11114.9125
1738.37576	11043.9125
1741.60403	11007.5125
1744.83017	10950.7125
1748.05418	10913.7125
1751.27607	10864.8125
1754.49584	10835.2125
1757.71349	10834.2125
1760.92903	10796.0125
1764.14244	10759.3125
1767.35375	10783.4125
1770.56294	10719.8125
1773.77002	10659.0125
1776.97499	10636.2125
1780.17785	10590.1125
1783.37861	10571.3125
1786.57727	10530.1125
1789.77382	10516.3125
1792.96828	10488.9125
1796.16064	10464.0125
1799.3509	10410.8125
1802.53907	10409.6125
1805.72514	10349.5125
1808.90913	10323.3125
1812.09102	10299.6125
1815.27083	10242.1125
1818.44856	10228.3125
1821.6242	10207.6125
1824.79776	10165.1125
1827.96924	10146.5125
1831.13864	10119.6125
1834.30597	10089.5125
1837.47122	10066.5125
1840.6344	10061.0125
1843.7955	10032.0125
1846.95454	10025.9125
1850.11151	10015.5125
1853.26642	9991.1125
1856.41926	9989.9125
1859.57004	9994.4125
1862.71876	9959.7125
1865.86542	9954.6125
1869.01003	9942.8125
1872.15258	9951.0125
1875.29308	9935.9125
1878.43152	9910.0125
1881.56792	9939.9125
1884.70227	9917.0125
1887.83457	9934.4125
1890.96482	9950.2125
1894.09304	9902.3125
1897.21921	9899.1125
1900.34335	9883.8125
1903.46544	9866.5125
1906.58551	9901.3125
1909.70353	9870.4125
1912.81953	9855.2125
1915.93349	9860.1125
1919.04543	9815.8125
1922.15534	9766.2125
1925.26322	9743.6125
1928.36908	9718.1125
1931.47292	9690.1125
1934.57473	9666.1125
1937.67453	9615.4125
1940.77232	9611.3125
1943.86808	9585.0125
1946.96184	9535.7125
1950.05358	9522.0125
1953.14331	9466.7125
1956.23103	9437.3125
1959.31675	9418.7125
1962.40046	9375.6125
1965.48217	9341.8125
1968.56188	9330.1125
1971.63959	9310.2125
1974.7153	9261.0125
1977.78901	9243.2125
1980.86073	9198.0125
1983.93046	9156.3125
1986.99819	9119.3125
1990.06394	9078.5125
1993.1277	9058.5125
1996.18947	9039.6125
1999.24925	9012.9125
2002.30706	8978.0125
2005.36288	8920.1125
2008.41672	8886.3125
2011.46859	8844.4125
2014.51848	8828.4125
2017.56639	8793.1125
2020.61233	8775.4125
2023.6563	8733.9125
2026.6983	8726.4125
2029.73833	8710.2125
2032.7764	8660.9125
2035.8125	8636.5125
2038.84664	8625.5125
2041.87881	8621.9125
2044.90903	8592.6125
2047.93729	8575.6125
2050.96359	8566.5125
2053.98794	8555.4125
2057.01034	8539.1125
2060.03078	8516.7125
2063.04927	8506.9125
2066.06582	8486.1125
2069.08042	8471.4125
2072.09307	8488.1125
2075.10378	8480.7125
2078.11255	8452.1125
2081.11938	8472.8125
2084.12426	8443.2125
2087.12722	8462.0125
2090.12824	8458.8125
2093.12732	8441.6125
2096.12447	8445.5125
2099.11969	8420.2125
2102.11299	8432.6125
2105.10435	8424.1125
2108.09379	8418.8125
2111.08131	8417.4125
2114.0669	8401.5125
2117.05057	8416.6125
2120.03233	8405.0125
2123.01216	8416.3125
2125.99008	8420.0125
2128.96609	8425.6125
2131.94018	8407.7125
2134.91236	8400.6125
2137.88263	8389.3125
2140.851	8400.6125
2143.81746	8397.5125
2146.78201	8393.5125
2149.74466	8369.8125
2152.7054	8342.3125
2155.66425	8333.7125
2158.6212	8321.9125
2161.57625	8300.1125
2164.52941	8312.4125
2167.48067	8303.1125
2170.43004	8299.3125
2173.37752	8303.0125
2176.32311	8289.1125
2179.26681	8294.4125
2182.20863	8269.9125
2185.14856	8286.5125
2188.08661	8276.4125
2191.02278	8277.8125
2193.95707	8273.7125
2196.88948	8262.6125
2199.82001	8263.9125
2202.74867	8241.2125
2205.67545	8253.8125
2208.60037	8228.6125
2211.52341	8202.0125
2214.44458	8185.5125
2217.36388	8150.6125
2220.28132	8146.5125
2223.1969	8106.4125
2226.11061	8093.1125
2229.02246	8084.7125
2231.93245	8065.0125
2234.84058	8059.7125
2237.74686	8066.5125
2240.65128	8060.7125
2243.55385	8047.1125
2246.45456	8029.2125
2249.35343	8008.2125
2252.25044	8000.5125
2255.14561	7990.2125
2258.03893	7990.2125
2260.93041	7942.0125
2263.82004	7904.7125
2266.70783	7886.9125
2269.59378	7868.3125
2272.4779	7833.8125
2275.36017	7830.2125
2278.24061	7815.9125
2281.11922	7789.6125
2283.996	7781.3125
2286.87094	7763.2125
2289.74405	7751.2125
2292.61534	7718.0125
2295.4848	7698.6125
2298.35243	7699.2125
2301.21824	7681.9125
2304.08223	7668.0125
2306.94439	7683.5125
2309.80474	7658.0125
2312.66327	7664.0125
2315.51999	7656.4125
2318.37489	7647.3125
2321.22797	7627.4125
2324.07925	7606.7125
2326.92871	7613.7125
2329.77637	7625.3125
2332.62222	7582.1125
2335.46626	7558.9125
2338.3085	7556.6125
2341.14893	7556.0125
2343.98756	7580.7125
2346.8244	7572.9125
2349.65943	7576.2125
2352.49267	7599.5125
2355.32411	7579.9125
2358.15376	7585.0125
2360.98161	7602.4125
2363.80768	7595.6125
2366.63195	7611.4125
2369.45444	7601.1125
2372.27514	7595.8125
2375.09405	7577.5125
2377.91118	7575.5125
2380.72652	7520.9125
2383.54009	7510.3125
2386.35187	7498.0125
2389.16188	7477.4125
2391.97011	7468.9125
2394.77657	7416.3125
2397.58125	7385.0125
2400.38416	7382.0125
2403.18529	7360.1125
2405.98466	7349.1125
2408.78226	7331.4125
2411.57809	7306.4125
2414.37216	7324.1125
2417.16446	7305.9125
2419.955	7313.6125
2422.74378	7315.4125
2425.5308	7276.2125
2428.31606	7272.8125
2431.09956	7255.9125
2433.88131	7271.5125
2436.6613	7269.1125
2439.43954	7278.4125
2442.21603	7261.1125
2444.99077	7255.7125
2447.76377	7248.0125
2450.53501	7261.7125
2453.30451	7259.8125
2456.07226	7271.0125
2458.83827	7258.1125
2461.60254	7282.4125
2464.36507	7267.8125
2467.12586	7262.8125
2469.88492	7249.3125
2472.64224	7260.8125
2475.39782	7260.1125
2478.15167	7296.5125
2480.90379	7303.9125
2483.65417	7331.1125
2486.40283	7327.9125
2489.14976	7348.1125
2491.89497	7329.4125
2494.63845	7324.5125
2497.3802	7321.0125
2500.12024	7317.3125
2502.85855	7283.4125
2505.59514	7286.9125
2508.33002	7255.0125
2511.06318	7222.2125
2513.79462	7219.9125
2516.52435	7191.6125
2519.25237	7179.8125
2521.97867	7172.9125
2524.70327	7170.3125
2527.42616	7151.6125
2530.14734	7140.9125
2532.86681	7141.5125
2535.58458	7149.8125
2538.30065	7128.2125
2541.01501	7142.9125
2543.72768	7137.7125
2546.43864	7128.3125
2549.14791	7127.3125
2551.85548	7118.6125
2554.56136	7102.6125
2557.26554	7080.4125
2559.96803	7084.3125
2562.66883	7082.7125
2565.36794	7073.5125
2568.06536	7079.7125
2570.7611	7082.5125
2573.45514	7059.9125
2576.14751	7054.5125
2578.83819	7034.7125
2581.52719	7044.0125
2584.21451	7036.5125
2586.90015	7037.8125
2589.58411	7017.5125
2592.2664	7016.7125
2594.94701	7013.6125
2597.62594	7009.2125
2600.30321	6981.0125
2602.9788	6999.1125
2605.65273	6994.3125
2608.32498	6998.8125
2610.99557	6975.7125
2613.66449	6990.9125
2616.33175	7009.8125
2618.99734	7016.1125
2621.66128	6985.7125
2624.32355	6993.7125
2626.98416	6973.2125
2629.64311	6992.3125
2632.30041	6989.3125
2634.95605	6965.9125
2637.61004	6952.1125
2640.26238	6941.7125
2642.91306	6958.7125
2645.56209	6938.3125
2648.20948	6946.6125
2650.85521	6965.4125
2653.4993	6975.0125
2656.14175	6978.6125
2658.78255	6979.0125
2661.42171	7003.8125
2664.05923	7021.5125
2666.6951	7013.8125
2669.32934	7039.9125
2671.96194	7018.0125
2674.59291	7023.4125
2677.22224	7023.0125
2679.84993	7005.8125
2682.476	6987.5125
2685.10043	6997.9125
2687.72324	6972.0125
2690.34441	6970.3125
2692.96396	6983.1125
2695.58188	6980.0125
2698.19818	6954.0125
2700.81285	6964.0125
2703.4259	6964.1125
2706.03733	6977.0125
2708.64714	6973.2125
2711.25533	6997.9125
2713.86191	6988.6125
2716.46687	7021.1125
2719.07021	7005.6125
2721.67194	7028.8125
2724.27206	7018.6125
2726.87057	7025.7125
2729.46747	7010.2125
2732.06276	7055.9125
2734.65644	7016.9125
2737.24852	7000.9125
2739.83899	6977.3125
2742.42786	6985.3125
2745.01513	6963.7125
2747.60079	6960.5125
2750.18486	6966.0125
2752.76733	6976.4125
2755.3482	6962.9125
2757.92747	6960.0125
2760.50515	6936.0125
2763.08123	6944.9125
2765.65573	6941.0125
2768.22863	6952.7125
2770.79994	6962.1125
2773.36967	6939.6125
2775.9378	6953.8125
2778.50435	6940.4125
2781.06932	6938.1125
2783.6327	6956.7125
2786.1945	6949.6125
2788.75471	6967.5125
2791.31335	6946.3125
2793.87041	6962.4125
2796.42589	6933.8125
2798.97979	6933.5125
2801.53212	6914.4125
2804.08288	6916.9125
2806.63206	6907.1125
2809.17967	6897.0125
2811.72571	6866.9125
2814.27018	6876.2125
2816.81308	6876.0125
2819.35442	6840.2125
2821.89419	6836.7125
2824.43239	6852.1125
2826.96904	6829.7125
2829.50412	6819.6125
2832.03763	6823.3125
2834.56959	6825.4125
2837.1	6808.9125
2839.62884	6809.2125
2842.15613	6798.8125
2844.68186	6809.8125
2847.20604	6818.1125
2849.72867	6835.1125
2852.24974	6814.2125
2854.76927	6814.5125
2857.28724	6807.7125
2859.80367	6804.8125
2862.31855	6777.0125
2864.83189	6809.4125
2867.34368	6783.8125
2869.85393	6806.8125
2872.36264	6788.0125
2874.8698	6765.8125
2877.37543	6769.4125
2879.87952	6791.8125
2882.38207	6765.2125
2884.88308	6742.9125
2887.38256	6764.7125
2889.88051	6745.4125
2892.37692	6765.1125
2894.8718	6770.9125
2897.36515	6767.1125
2899.85698	6751.7125
2902.34727	6744.8125
2904.83604	6742.9125
2907.32328	6780.6125
2909.809	6763.3125
2912.29319	6779.4125
2914.77587	6774.9125
2917.25702	6773.7125
2919.73665	6753.0125
2922.21476	6761.1125
2924.69136	6755.5125
2927.16644	6753.4125
2929.64	6740.0125
2932.11205	6724.8125
2934.58258	6707.7125
2937.05161	6701.6125
2939.51912	6712.6125
2941.98513	6669.6125
2944.44962	6645.6125
2946.91261	6627.5125
2949.37409	6628.6125
2951.83407	6639.6125
2954.29254	6640.5125
2956.74951	6651.3125
2959.20498	6643.9125
2961.65895	6647.1125
2964.11142	6629.2125
2966.56239	6615.8125
2969.01186	6600.1125
2971.45984	6583.8125
2973.90632	6552.8125
2976.35131	6536.5125
2978.7948	6519.7125
2981.23681	6473.2125
2983.67732	6482.1125
2986.11635	6449.6125
2988.55388	6431.6125
2990.98993	6418.5125
2993.4245	6390.3125
2995.85758	6397.2125
2998.28917	6398.4125
3000.71928	6353.3125
3003.14791	6344.9125
3005.57506	6342.0125
3008.00073	6332.5125
3010.42493	6333.4125
3012.84764	6308.7125
3015.26888	6292.2125
3017.68865	6280.2125
3020.10694	6278.2125
3022.52376	6254.8125
3024.9391	6230.5125
3027.35298	6216.8125
3029.76539	6193.9125
3032.17632	6184.1125
3034.5858	6193.5125
3036.9938	6178.2125
3039.40034	6172.3125
3041.80542	6156.8125
3044.20903	6153.7125
3046.61118	6156.2125
3049.01187	6133.3125
3051.4111	6126.3125
3053.80888	6095.1125
3056.20519	6073.4125
3058.60005	6066.7125
3060.99345	6082.8125
3063.3854	6034.7125
3065.7759	6019.1125
3068.16494	6018.4125
3070.55254	6002.4125
3072.93868	5969.0125
3075.32338	5969.5125
