Data from AgNP_FTO_APTES_UA_100uM_CRN_2uM_R6G_10uM_NaF_0.1M_Addition_RamanShift__1__13-46-00-289.txt Node

Date: Thu Mar 24 13:46:00 GMT 2022
User: TCL
Spectrometer: QEP01345
Trigger mode: 4
Integration Time (sec): 7.000000E0
Scans to average: 10
Electric dark correction enabled: true
Nonlinearity correction enabled: false
Boxcar width: 0
XAxis mode: Raman Shifts
Number of Pixels in Spectrum: 1044
>>>>>Begin Spectral Data<<<<<
46.04893	-0.525
50.45542	0.475
54.85868	0.475
59.25871	-0.725
63.6555	39.975
68.04907	44.775
72.43941	46.075
76.82654	44.675
81.21044	51.775
85.59113	52.675
89.96862	53.475
94.34289	53.175
98.71396	55.875
103.08183	55.775
107.4465	59.075
111.80798	62.875
116.16626	61.675
120.52136	61.575
124.87327	64.475
129.222	68.775
133.56755	72.275
137.90993	76.475
142.24913	90.875
146.58517	97.275
150.91804	115.075
155.24774	138.875
159.57429	173.975
163.89768	221.775
168.21792	298.675
172.53501	409.175
176.84895	569.375
181.15975	800.375
185.46741	1124.675
189.77193	1553.875
194.07331	2085.275
198.37157	2697.375
202.6667	3354.875
206.9587	4007.875
211.24758	4669.775
215.53334	5355.075
219.81599	6130.375
224.09553	6980.675
228.37195	7927.575
232.64527	8974.975
236.91549	9992.775
241.18261	10933.875
245.44663	11629.075
249.70755	12154.875
253.96539	12592.875
258.22014	12969.875
262.4718	13258.175
266.72039	13530.575
270.96589	13641.275
275.20832	13601.675
279.44768	13441.075
283.68397	13284.275
287.91719	13209.275
292.14735	13245.575
296.37445	13481.975
300.59849	13877.275
304.81948	14460.575
309.03742	14924.675
313.25231	15105.475
317.46415	14732.475
321.67296	13880.875
325.87872	13053.175
330.08145	12613.575
334.28114	12564.875
338.47781	12701.475
342.67145	12980.675
346.86207	13386.375
351.04966	13917.875
355.23424	14534.775
359.4158	14924.175
363.59435	15076.075
367.76989	15031.175
371.94243	14886.475
376.11196	14756.375
380.27849	14644.875
384.44203	14530.475
388.60257	14529.975
392.76012	14577.975
396.91468	14726.475
401.06626	15014.075
405.21485	15216.275
409.36047	14916.275
413.50311	14233.675
417.64277	13612.375
421.77947	13271.175
425.9132	13215.975
430.04396	13251.475
434.17176	13336.775
438.2966	13463.075
442.41849	13773.875
446.53742	14276.075
450.6534	14784.275
454.76644	15054.675
458.87653	15074.675
462.98368	14855.875
467.08789	14605.475
471.18916	14295.075
475.2875	13982.675
479.38291	13693.675
483.4754	13503.175
487.56496	13295.875
491.6516	13084.275
495.73531	12920.875
499.81612	12873.875
503.89401	13006.575
507.96899	13113.175
512.04106	13174.275
516.11023	13237.375
520.1765	13164.275
524.23987	13154.675
528.30034	13076.775
532.35792	12932.775
536.41261	12656.075
540.46441	12328.975
544.51333	12166.375
548.55936	12343.175
552.60252	12745.675
556.64279	13265.175
560.6802	13600.575
564.71473	13883.275
568.7464	14457.475
572.7752	15154.475
576.80114	15348.875
580.82422	15395.075
584.84444	15619.175
588.86181	16088.975
592.87633	16730.975
596.888	16879.375
600.89682	16478.275
604.9028	17040.075
608.90594	20442.975
612.90624	25010.075
616.90371	23665.275
620.89834	16673.075
624.89015	13238.575
628.87913	12671.675
632.86528	12971.875
636.84862	13234.775
640.82913	12984.875
644.80683	12237.275
648.78172	11754.375
652.75379	11704.775
656.72306	12193.775
660.68952	12763.275
664.65319	12586.175
668.61405	11923.875
672.57211	11639.975
676.52738	11626.675
680.47986	11598.075
684.42955	11439.475
688.37646	11334.675
692.32058	11390.575
696.26192	11558.175
700.20048	11768.475
704.13626	11936.175
708.06928	12011.475
711.99952	11945.375
715.927	11922.775
719.85171	11960.975
723.77365	11944.175
727.69284	11783.575
731.60928	11592.075
735.52295	11535.875
739.43388	11578.175
743.34206	11689.075
747.24749	11770.075
751.15017	11926.775
755.05012	12217.475
758.94733	12945.375
762.8418	14654.975
766.73354	17533.575
770.62254	20207.175
774.50882	20902.575
778.39237	19385.875
782.27321	16781.375
786.15132	14344.875
790.02671	12822.375
793.89938	12057.575
797.76935	11681.875
801.6366	11528.375
805.50115	11410.375
809.36299	11312.575
813.22213	11227.675
817.07857	11211.975
820.93231	11169.275
824.78336	11183.175
828.63172	11161.975
832.47738	11166.275
836.32036	11118.375
840.16066	11073.575
843.99827	11033.475
847.8332	11021.675
851.66546	11013.875
855.49504	11047.575
859.32195	11029.175
863.1462	10972.375
866.96777	10930.275
870.78668	10921.875
874.60293	10938.075
878.41652	10947.275
882.22745	11038.875
886.03573	11121.475
889.84136	11114.075
893.64433	11050.875
897.44466	11012.475
901.24235	10975.775
905.0374	10881.575
908.8298	10856.575
912.61957	10800.975
916.40671	10872.275
920.19121	11060.075
923.97308	11290.475
927.75233	11390.875
931.52895	11386.775
935.30295	11121.375
939.07433	10692.675
942.84309	10346.475
946.60924	10179.975
950.37278	10103.075
954.13371	10100.375
957.89203	10096.775
961.64774	10080.075
965.40086	10068.075
969.15137	10041.875
972.89929	10006.875
976.64461	9986.275
980.38733	9957.175
984.12747	9997.775
987.86502	10007.875
991.59999	10111.075
995.33237	10237.975
999.06217	10480.275
1002.78939	10855.075
1006.51404	11245.775
1010.23611	11589.875
1013.95561	11784.275
1017.67255	11740.075
1021.38692	11457.075
1025.09872	11107.675
1028.80796	10820.175
1032.51465	10762.375
1036.21877	10838.175
1039.92035	10958.175
1043.61937	11081.575
1047.31584	11132.775
1051.00976	11142.675
1054.70114	11151.175
1058.38998	11184.375
1062.07627	11249.575
1065.76003	11394.675
1069.44126	11615.175
1073.11995	11884.275
1076.79611	12211.875
1080.46974	12430.575
1084.14085	12761.575
1087.80943	13137.675
1091.47549	13378.975
1095.13903	13211.175
1098.80005	12782.875
1102.45857	12263.475
1106.11456	11933.375
1109.76805	11903.975
1113.41903	12077.875
1117.06751	12438.975
1120.71348	12987.375
1124.35696	13584.775
1127.99793	14136.375
1131.63641	14101.975
1135.2724	13497.375
1138.90589	12975.375
1142.5369	12739.475
1146.16542	12582.675
1149.79145	12582.575
1153.415	12709.175
1157.03607	12892.675
1160.65467	13236.175
1164.27079	13899.575
1167.88443	14887.875
1171.49561	16450.775
1175.10432	18833.875
1178.71056	21853.275
1182.31434	24206.575
1185.91565	24671.575
1189.51451	23741.875
1193.11091	22235.675
1196.70485	20595.975
1200.29634	19216.275
1203.88538	18097.675
1207.47197	17007.175
1211.05612	16018.675
1214.63782	15419.775
1218.21708	15082.075
1221.79391	15040.075
1225.36829	15109.675
1228.94024	15051.075
1232.50976	14724.975
1236.07685	14258.575
1239.6415	13996.275
1243.20374	13913.975
1246.76355	14014.475
1250.32093	14251.875
1253.8759	14600.575
1257.42845	15166.075
1260.97859	15817.975
1264.52631	16568.075
1268.07163	17292.575
1271.61453	17921.475
1275.15503	18446.275
1278.69312	18955.675
1282.22882	19535.875
1285.76211	20448.575
1289.29301	21685.575
1292.82151	23018.175
1296.34761	24528.775
1299.87133	26445.375
1303.39266	28901.275
1306.9116	32017.175
1310.42815	35088.675
1313.94233	36397.175
1317.45412	35170.975
1320.96354	32762.975
1324.47058	30398.475
1327.97525	28464.875
1331.47754	27050.875
1334.97747	26173.775
1338.47502	25709.375
1341.97022	25732.575
1345.46305	26195.075
1348.95352	27277.875
1352.44163	28979.075
1355.92738	31698.175
1359.41078	35962.875
1362.89183	40250.475
1366.37053	39636.575
1369.84688	33774.075
1373.32088	27517.475
1376.79254	23651.475
1380.26186	21897.375
1383.72883	21081.775
1387.19347	20541.975
1390.65578	19991.975
1394.11575	19556.275
1397.57339	19432.275
1401.0287	19370.975
1404.48168	19257.275
1407.93234	18879.175
1411.38068	18374.675
1414.82669	17874.575
1418.27039	17317.175
1421.71177	16682.175
1425.15083	16071.075
1428.58758	15770.175
1432.02203	15957.475
1435.45416	16485.775
1438.88399	16874.875
1442.31151	17053.175
1445.73673	17322.275
1449.15965	17574.975
1452.58027	17606.675
1455.9986	17618.475
1459.41463	17681.475
1462.82837	17974.375
1466.23982	18515.175
1469.64898	19024.075
1473.05586	19440.075
1476.46045	19685.975
1479.86276	19869.975
1483.26279	20155.775
1486.66054	20586.075
1490.05602	21319.075
1493.44922	22506.475
1496.84016	24173.675
1500.22882	26736.675
1503.61521	30149.575
1506.99934	33797.075
1510.38121	36463.575
1513.76081	36574.575
1517.13816	33682.175
1520.51324	29414.775
1523.88607	25939.375
1527.25665	23872.575
1530.62498	22800.775
1533.99105	22148.675
1537.35488	21471.075
1540.71647	20688.875
1544.07581	19836.475
1547.4329	19084.375
1550.78776	18524.175
1554.14038	18223.675
1557.49077	18233.575
1560.83892	18561.775
1564.18484	19259.475
1567.52853	20140.775
1570.86999	20895.075
1574.20922	21433.975
1577.54624	21360.075
1580.88103	20240.875
1584.2136	18932.075
1587.54395	18453.975
1590.87208	18974.075
1594.19801	20288.975
1597.52172	21935.275
1600.84321	22470.775
1604.16251	21330.975
1607.47959	19437.775
1610.79447	17481.675
1614.10715	15718.175
1617.41763	14363.075
1620.7259	13466.075
1624.03199	13058.875
1627.33587	13073.775
1630.63757	13518.875
1633.93707	14581.675
1637.23439	16537.875
1640.52951	19693.875
1643.82246	24101.975
1647.11321	28692.975
1650.40179	31006.975
1653.68819	29248.475
1656.97241	24283.075
1660.25446	19074.375
1663.53433	15276.275
1666.81203	12964.075
1670.08756	11656.475
1673.36092	10894.475
1676.63211	10417.975
1679.90115	10090.875
1683.16801	9864.875
1686.43272	9692.575
1689.69527	9541.975
1692.95567	9451.675
1696.2139	9377.975
1699.46999	9327.775
1702.72392	9291.975
1705.97571	9255.875
1709.22535	9202.075
1712.47284	9196.275
1715.71819	9169.475
1718.96139	9144.275
1722.20246	9101.175
1725.44139	9034.675
1728.67818	8927.075
1731.91284	8819.075
1735.14537	8741.975
1738.37576	8681.575
1741.60403	8630.775
1744.83017	8579.975
1748.05418	8539.175
1751.27607	8520.075
1754.49584	8507.475
1757.71349	8490.375
1760.92903	8466.475
1764.14244	8457.875
1767.35375	8432.375
1770.56294	8409.975
1773.77002	8366.475
1776.97499	8310.775
1780.17785	8312.175
1783.37861	8270.175
1786.57727	8234.275
1789.77382	8206.675
1792.96828	8198.575
1796.16064	8174.275
1799.3509	8135.275
1802.53907	8129.075
1805.72514	8083.975
1808.90913	8045.775
1812.09102	8034.575
1815.27083	7983.375
1818.44856	7975.675
1821.6242	7949.875
1824.79776	7944.175
1827.96924	7916.175
1831.13864	7906.675
1834.30597	7897.675
1837.47122	7892.975
1840.6344	7878.775
1843.7955	7860.975
1846.95454	7847.575
1850.11151	7846.175
1853.26642	7827.975
1856.41926	7794.475
1859.57004	7791.475
1862.71876	7792.075
1865.86542	7769.175
1869.01003	7772.675
1872.15258	7771.975
1875.29308	7744.075
1878.43152	7748.775
1881.56792	7736.375
1884.70227	7740.375
1887.83457	7736.275
1890.96482	7720.875
1894.09304	7722.075
1897.21921	7715.175
1900.34335	7720.075
1903.46544	7713.975
1906.58551	7692.175
1909.70353	7710.375
1912.81953	7682.075
1915.93349	7688.575
1919.04543	7664.975
1922.15534	7643.675
1925.26322	7607.675
1928.36908	7574.575
1931.47292	7548.075
1934.57473	7523.475
1937.67453	7496.375
1940.77232	7464.775
1943.86808	7445.475
1946.96184	7446.675
1950.05358	7406.975
1953.14331	7388.375
1956.23103	7393.375
1959.31675	7388.375
1962.40046	7360.275
1965.48217	7356.375
1968.56188	7313.975
1971.63959	7284.575
1974.7153	7285.175
1977.78901	7248.975
1980.86073	7231.475
1983.93046	7194.175
1986.99819	7163.175
1990.06394	7145.975
1993.1277	7094.075
1996.18947	7074.775
1999.24925	7037.875
2002.30706	7027.475
2005.36288	6984.675
2008.41672	6962.775
2011.46859	6930.175
2014.51848	6933.475
2017.56639	6907.675
2020.61233	6884.275
2023.6563	6859.275
2026.6983	6843.575
2029.73833	6822.575
2032.7764	6799.575
2035.8125	6775.075
2038.84664	6755.775
2041.87881	6729.675
2044.90903	6736.175
2047.93729	6716.675
2050.96359	6707.175
2053.98794	6698.575
2057.01034	6674.975
2060.03078	6663.175
2063.04927	6650.375
2066.06582	6649.875
2069.08042	6639.875
2072.09307	6644.675
2075.10378	6626.675
2078.11255	6635.175
2081.11938	6625.075
2084.12426	6626.775
2087.12722	6633.775
2090.12824	6642.975
2093.12732	6618.775
2096.12447	6622.675
2099.11969	6624.575
2102.11299	6631.375
2105.10435	6642.975
2108.09379	6621.975
2111.08131	6639.675
2114.0669	6628.875
2117.05057	6653.175
2120.03233	6650.875
2123.01216	6640.875
2125.99008	6657.575
2128.96609	6663.775
2131.94018	6639.675
2134.91236	6644.475
2137.88263	6639.975
2140.851	6646.875
2143.81746	6643.575
2146.78201	6616.275
2149.74466	6606.775
2152.7054	6617.375
2155.66425	6622.075
2158.6212	6592.675
2161.57625	6587.375
2164.52941	6578.375
2167.48067	6570.375
2170.43004	6571.675
2173.37752	6553.375
2176.32311	6553.375
2179.26681	6563.075
2182.20863	6549.875
2185.14856	6542.075
2188.08661	6536.875
2191.02278	6518.375
2193.95707	6521.975
2196.88948	6511.075
2199.82001	6494.775
2202.74867	6499.975
2205.67545	6473.175
2208.60037	6450.975
2211.52341	6459.175
2214.44458	6446.975
2217.36388	6442.675
2220.28132	6434.475
2223.1969	6426.275
2226.11061	6409.975
2229.02246	6388.075
2231.93245	6370.775
2234.84058	6366.875
2237.74686	6345.675
2240.65128	6359.375
2243.55385	6318.575
2246.45456	6323.475
2249.35343	6301.175
2252.25044	6301.575
2255.14561	6310.475
2258.03893	6293.875
2260.93041	6301.475
2263.82004	6299.575
2266.70783	6271.975
2269.59378	6260.275
2272.4779	6238.775
2275.36017	6227.875
2278.24061	6205.875
2281.11922	6207.875
2283.996	6201.375
2286.87094	6173.475
2289.74405	6165.475
2292.61534	6150.175
2295.4848	6126.575
2298.35243	6141.575
2301.21824	6106.475
2304.08223	6119.175
2306.94439	6104.475
2309.80474	6096.375
2312.66327	6079.575
2315.51999	6073.375
2318.37489	6078.075
2321.22797	6094.375
2324.07925	6066.775
2326.92871	6069.175
2329.77637	6056.375
2332.62222	6052.675
2335.46626	6074.675
2338.3085	6055.475
2341.14893	6056.975
2343.98756	6046.575
2346.8244	6044.575
2349.65943	6051.275
2352.49267	6049.075
2355.32411	6076.475
2358.15376	6066.875
2360.98161	6070.175
2363.80768	6090.075
2366.63195	6107.875
2369.45444	6100.375
2372.27514	6100.275
2375.09405	6084.175
2377.91118	6064.675
2380.72652	6051.075
2383.54009	6031.775
2386.35187	6007.075
2389.16188	5986.475
2391.97011	5957.075
2394.77657	5946.075
2397.58125	5930.675
2400.38416	5923.475
2403.18529	5891.475
2405.98466	5896.975
2408.78226	5877.875
2411.57809	5860.175
2414.37216	5832.375
2417.16446	5842.375
2419.955	5822.575
2422.74378	5842.775
2425.5308	5839.875
2428.31606	5823.875
2431.09956	5827.475
2433.88131	5820.175
2436.6613	5812.775
2439.43954	5829.775
2442.21603	5820.575
2444.99077	5827.475
2447.76377	5837.275
2450.53501	5834.875
2453.30451	5840.775
2456.07226	5839.875
2458.83827	5839.975
2461.60254	5845.775
2464.36507	5829.375
2467.12586	5835.775
2469.88492	5831.175
2472.64224	5830.975
2475.39782	5838.375
2478.15167	5870.575
2480.90379	5856.375
2483.65417	5875.575
2486.40283	5903.175
2489.14976	5896.675
2491.89497	5900.875
2494.63845	5908.475
2497.3802	5893.675
2500.12024	5899.175
2502.85855	5881.375
2505.59514	5872.575
2508.33002	5846.675
2511.06318	5829.675
2513.79462	5796.875
2516.52435	5799.775
2519.25237	5757.975
2521.97867	5751.875
2524.70327	5751.875
2527.42616	5732.375
2530.14734	5709.475
2532.86681	5703.875
2535.58458	5706.275
2538.30065	5694.575
2541.01501	5694.775
2543.72768	5690.075
2546.43864	5693.275
2549.14791	5676.175
2551.85548	5670.475
2554.56136	5669.675
2557.26554	5687.075
2559.96803	5657.675
2562.66883	5677.475
2565.36794	5688.075
2568.06536	5686.575
2570.7611	5652.275
2573.45514	5662.975
2576.14751	5646.975
2578.83819	5641.875
2581.52719	5653.675
2584.21451	5635.375
2586.90015	5617.775
2589.58411	5617.675
2592.2664	5593.675
2594.94701	5599.875
2597.62594	5585.275
2600.30321	5572.175
2602.9788	5577.475
2605.65273	5594.675
2608.32498	5589.875
2610.99557	5567.375
2613.66449	5568.375
2616.33175	5565.275
2618.99734	5583.775
2621.66128	5563.475
2624.32355	5555.575
2626.98416	5565.375
2629.64311	5537.975
2632.30041	5539.275
2634.95605	5532.875
2637.61004	5523.475
2640.26238	5497.675
2642.91306	5515.275
2645.56209	5520.775
2648.20948	5523.575
2650.85521	5522.775
2653.4993	5520.175
2656.14175	5529.475
2658.78255	5524.475
2661.42171	5545.975
2664.05923	5532.775
2666.6951	5551.875
2669.32934	5553.175
2671.96194	5537.575
2674.59291	5540.975
2677.22224	5538.275
2679.84993	5563.575
2682.476	5533.475
2685.10043	5545.875
2687.72324	5535.175
2690.34441	5536.275
2692.96396	5532.775
2695.58188	5529.675
2698.19818	5535.275
2700.81285	5534.075
2703.4259	5525.075
2706.03733	5521.875
2708.64714	5517.775
2711.25533	5524.475
2713.86191	5533.275
2716.46687	5546.375
2719.07021	5542.775
2721.67194	5541.175
2724.27206	5549.475
2726.87057	5542.575
2729.46747	5544.875
2732.06276	5554.375
2734.65644	5522.775
2737.24852	5523.675
2739.83899	5519.875
2742.42786	5512.575
2745.01513	5495.175
2747.60079	5496.175
2750.18486	5493.075
2752.76733	5484.375
2755.3482	5474.075
2757.92747	5465.875
2760.50515	5458.475
2763.08123	5470.775
2765.65573	5445.275
2768.22863	5468.175
2770.79994	5448.875
2773.36967	5448.575
2775.9378	5431.175
2778.50435	5448.775
2781.06932	5442.875
2783.6327	5441.575
2786.1945	5440.075
2788.75471	5423.175
2791.31335	5426.075
2793.87041	5415.875
2796.42589	5417.175
2798.97979	5411.675
2801.53212	5406.575
2804.08288	5407.475
2806.63206	5384.575
2809.17967	5429.075
2811.72571	5426.675
2814.27018	5415.675
2816.81308	5405.975
2819.35442	5410.875
2821.89419	5404.475
2824.43239	5398.775
2826.96904	5414.175
2829.50412	5412.475
2832.03763	5391.175
2834.56959	5395.475
2837.1	5386.475
2839.62884	5399.675
2842.15613	5375.375
2844.68186	5391.175
2847.20604	5381.075
2849.72867	5400.475
2852.24974	5394.475
2854.76927	5394.975
2857.28724	5408.675
2859.80367	5408.575
2862.31855	5398.075
2864.83189	5416.775
2867.34368	5429.075
2869.85393	5432.875
2872.36264	5417.475
2874.8698	5442.775
2877.37543	5446.075
2879.87952	5451.975
2882.38207	5434.475
2884.88308	5435.075
2887.38256	5430.275
2889.88051	5414.575
2892.37692	5410.175
2894.8718	5420.875
2897.36515	5427.675
2899.85698	5433.475
2902.34727	5426.075
2904.83604	5431.275
2907.32328	5440.575
2909.809	5454.575
2912.29319	5455.675
2914.77587	5443.075
2917.25702	5446.475
2919.73665	5437.675
2922.21476	5432.575
2924.69136	5428.775
2927.16644	5401.575
2929.64	5388.975
2932.11205	5398.275
2934.58258	5370.475
2937.05161	5357.575
2939.51912	5367.175
2941.98513	5345.375
2944.44962	5327.775
2946.91261	5301.775
2949.37409	5310.775
2951.83407	5311.175
2954.29254	5283.175
2956.74951	5287.775
2959.20498	5268.475
2961.65895	5260.375
2964.11142	5267.175
2966.56239	5242.575
2969.01186	5236.075
2971.45984	5214.475
2973.90632	5189.075
2976.35131	5191.775
2978.7948	5176.175
2981.23681	5164.775
2983.67732	5139.375
2986.11635	5105.075
2988.55388	5118.075
2990.98993	5096.175
2993.4245	5094.975
2995.85758	5086.675
2998.28917	5073.375
3000.71928	5066.175
3003.14791	5058.575
3005.57506	5052.275
3008.00073	5055.675
3010.42493	5040.775
3012.84764	5034.275
3015.26888	4987.675
3017.68865	5012.575
3020.10694	5010.675
3022.52376	4975.875
3024.9391	4970.575
3027.35298	4950.275
3029.76539	4970.375
3032.17632	4946.875
3034.5858	4941.775
3036.9938	4947.875
3039.40034	4927.175
3041.80542	4909.275
3044.20903	4869.075
3046.61118	4891.975
3049.01187	4868.175
3051.4111	4875.275
3053.80888	4871.475
3056.20519	4855.575
3058.60005	4848.675
3060.99345	4838.175
3063.3854	4816.875
3065.7759	4801.675
3068.16494	4823.475
3070.55254	4789.875
3072.93868	4796.775
3075.32338	4768.475
3077.70662	4758.975
3080.08842	4750.075
3082.46878	4735.875
3084.84769	4721.875
3087.22515	4710.775
3089.60118	4703.475
3091.97576	4711.675
3094.3489	4714.875
3096.72061	4709.575
3099.09087	4699.075
3101.4597	4705.875
3103.82709	4693.875
3106.19305	4672.875
3108.55757	4699.175
3110.92066	4662.175
3113.28232	4648.675
3115.64255	4649.875
3118.00134	4618.975
3120.35871	4635.375
3122.71466	4621.575
3125.06917	4622.275
3127.42226	4612.075
3129.77393	4619.775
3132.12417	4621.975
3134.47299	4614.875
3136.82039	4629.775
3139.16636	4614.275
3141.51092	4620.575
3143.85406	4622.075
3146.19579	4619.975
3148.53609	4622.075
3150.87499	4617.775
3153.21246	4638.275
3155.54853	4633.375
3157.88318	4608.475
3160.21642	4618.975
3162.54826	4612.175
3164.87868	4611.075
3167.2077	4623.375
3169.5353	4605.075
3171.86151	4613.675
3174.18631	4599.075
3176.5097	4604.275
3178.83169	4599.175
3181.15228	4610.975
3183.47147	4606.675
3185.78926	4599.375
3188.10565	4586.975
3190.42065	4583.475
