Data from AgNP_FTO_APTES_UA_100uM_CRN_2uM_R6G_10uM_NaF_0.1M_Addition_RamanShift__42__14-33-50-345.txt Node

Date: Thu Mar 24 14:33:50 GMT 2022
User: TCL
Spectrometer: QEP01345
Trigger mode: 4
Integration Time (sec): 7.000000E0
Scans to average: 10
Electric dark correction enabled: true
Nonlinearity correction enabled: false
Boxcar width: 0
XAxis mode: Raman Shifts
Number of Pixels in Spectrum: 1044
>>>>>Begin Spectral Data<<<<<
46.04893	-0.8125
50.45542	-0.1125
54.85868	-1.5125
59.25871	0.0875
63.6555	49.7875
68.04907	49.7875
72.43941	52.2875
76.82654	48.0875
81.21044	58.2875
85.59113	55.6875
89.96862	60.4875
94.34289	56.1875
98.71396	62.3875
103.08183	64.0875
107.4465	65.6875
111.80798	67.6875
116.16626	69.1875
120.52136	70.6875
124.87327	73.8875
129.222	78.6875
133.56755	82.1875
137.90993	90.2875
142.24913	102.8875
146.58517	108.8875
150.91804	125.0875
155.24774	149.0875
159.57429	189.7875
163.89768	249.0875
168.21792	327.4875
172.53501	448.4875
176.84895	630.9875
181.15975	889.4875
185.46741	1248.9875
189.77193	1718.4875
194.07331	2297.8875
198.37157	2964.6875
202.6667	3676.6875
206.9587	4376.9875
211.24758	5087.3875
215.53334	5812.3875
219.81599	6594.3875
224.09553	7460.6875
228.37195	8446.8875
232.64527	9535.7875
236.91549	10682.9875
241.18261	11709.0875
245.44663	12598.0875
249.70755	13327.5875
253.96539	13934.0875
258.22014	14434.8875
262.4718	14863.8875
266.72039	15160.9875
270.96589	15295.2875
275.20832	15252.1875
279.44768	15057.5875
283.68397	14872.4875
287.91719	14699.8875
292.14735	14615.7875
296.37445	14725.9875
300.59849	14917.4875
304.81948	15244.9875
309.03742	15506.0875
313.25231	15645.1875
317.46415	15390.1875
321.67296	14996.2875
325.87872	14609.6875
330.08145	14445.4875
334.28114	14428.2875
338.47781	14562.1875
342.67145	14827.3875
346.86207	15154.9875
351.04966	15572.6875
355.23424	16011.0875
359.4158	16334.3875
363.59435	16503.0875
367.76989	16532.8875
371.94243	16509.5875
376.11196	16517.3875
380.27849	16478.2875
384.44203	16515.8875
388.60257	16595.7875
392.76012	16664.3875
396.91468	16780.9875
401.06626	17024.0875
405.21485	17217.3875
409.36047	16994.6875
413.50311	16517.9875
417.64277	16090.3875
421.77947	15899.9875
425.9132	15897.7875
430.04396	16004.2875
434.17176	16170.3875
438.2966	16450.0875
442.41849	16928.6875
446.53742	17675.3875
450.6534	18396.8875
454.76644	18821.5875
458.87653	18802.7875
462.98368	18479.2875
467.08789	18019.1875
471.18916	17584.4875
475.2875	17050.2875
479.38291	16611.6875
483.4754	16234.7875
487.56496	15944.1875
491.6516	15759.8875
495.73531	15578.7875
499.81612	15546.3875
503.89401	15670.7875
507.96899	15788.8875
512.04106	15776.8875
516.11023	15808.7875
520.1765	15772.4875
524.23987	15835.8875
528.30034	15865.8875
532.35792	15821.5875
536.41261	15611.5875
540.46441	15286.9875
544.51333	15154.7875
548.55936	15259.2875
552.60252	15608.2875
556.64279	16184.5875
560.6802	16591.9875
564.71473	16700.2875
568.7464	16911.8875
572.7752	17325.7875
576.80114	17614.8875
580.82422	17921.1875
584.84444	18599.1875
588.86181	19854.0875
592.87633	21542.1875
596.888	22446.4875
600.89682	21591.4875
604.9028	21012.7875
608.90594	22972.1875
612.90624	25920.1875
616.90371	24391.9875
620.89834	18977.7875
624.89015	16269.0875
628.87913	15807.3875
632.86528	15970.2875
636.84862	16078.6875
640.82913	15775.3875
644.80683	15166.6875
648.78172	14769.6875
652.75379	14741.0875
656.72306	15078.7875
660.68952	15604.3875
664.65319	15449.7875
668.61405	14841.9875
672.57211	14673.9875
676.52738	14775.1875
680.47986	14758.1875
684.42955	14541.9875
688.37646	14423.1875
692.32058	14517.6875
696.26192	14771.0875
700.20048	15020.8875
704.13626	15219.4875
708.06928	15178.0875
711.99952	15050.8875
715.927	15040.1875
719.85171	15158.6875
723.77365	15167.6875
727.69284	14973.4875
731.60928	14863.9875
735.52295	14870.0875
739.43388	14947.8875
743.34206	15047.1875
747.24749	15110.4875
751.15017	15153.3875
755.05012	15416.2875
758.94733	15984.0875
762.8418	17276.2875
766.73354	19469.3875
770.62254	21582.7875
774.50882	22244.9875
778.39237	21119.9875
782.27321	19009.2875
786.15132	17005.5875
790.02671	15772.6875
793.89938	15120.8875
797.76935	14790.5875
801.6366	14670.1875
805.50115	14531.4875
809.36299	14447.0875
813.22213	14342.0875
817.07857	14273.6875
820.93231	14254.6875
824.78336	14194.5875
828.63172	14200.3875
832.47738	14173.0875
836.32036	14160.9875
840.16066	14113.5875
843.99827	14147.7875
847.8332	14112.2875
851.66546	14143.9875
855.49504	14188.7875
859.32195	14174.8875
863.1462	14101.6875
866.96777	14045.8875
870.78668	14040.0875
874.60293	14081.0875
878.41652	14133.2875
882.22745	14219.0875
886.03573	14307.6875
889.84136	14284.1875
893.64433	14215.5875
897.44466	14155.5875
901.24235	14116.8875
905.0374	14033.4875
908.8298	13971.0875
912.61957	13932.0875
916.40671	14019.4875
920.19121	14159.9875
923.97308	14382.1875
927.75233	14488.3875
931.52895	14410.0875
935.30295	14184.1875
939.07433	13844.7875
942.84309	13549.0875
946.60924	13440.7875
950.37278	13356.1875
954.13371	13346.9875
957.89203	13367.4875
961.64774	13363.1875
965.40086	13384.8875
969.15137	13393.8875
972.89929	13338.4875
976.64461	13314.4875
980.38733	13349.7875
984.12747	13374.2875
987.86502	13409.0875
991.59999	13522.4875
995.33237	13750.6875
999.06217	14085.6875
1002.78939	14580.6875
1006.51404	15074.5875
1010.23611	15465.1875
1013.95561	15671.8875
1017.67255	15656.6875
1021.38692	15355.4875
1025.09872	14839.4875
1028.80796	14468.4875
1032.51465	14405.5875
1036.21877	14501.7875
1039.92035	14538.9875
1043.61937	14590.6875
1047.31584	14547.7875
1051.00976	14548.5875
1054.70114	14491.5875
1058.38998	14548.3875
1062.07627	14601.1875
1065.76003	14778.0875
1069.44126	14941.8875
1073.11995	15228.4875
1076.79611	15548.9875
1080.46974	15832.9875
1084.14085	16137.7875
1087.80943	16434.9875
1091.47549	16639.2875
1095.13903	16509.5875
1098.80005	16098.8875
1102.45857	15696.2875
1106.11456	15541.1875
1109.76805	15514.4875
1113.41903	15725.7875
1117.06751	16025.7875
1120.71348	16481.6875
1124.35696	16942.0875
1127.99793	17300.2875
1131.63641	17282.0875
1135.2724	16942.4875
1138.90589	16623.0875
1142.5369	16469.0875
1146.16542	16425.5875
1149.79145	16507.3875
1153.415	16622.8875
1157.03607	16797.8875
1160.65467	17203.5875
1164.27079	17942.9875
1167.88443	19061.2875
1171.49561	20699.8875
1175.10432	23007.3875
1178.71056	26011.4875
1182.31434	28489.7875
1185.91565	29346.7875
1189.51451	28496.4875
1193.11091	26992.8875
1196.70485	25316.7875
1200.29634	23782.6875
1203.88538	22553.7875
1207.47197	21467.7875
1211.05612	20588.6875
1214.63782	20114.6875
1218.21708	19957.0875
1221.79391	19983.5875
1225.36829	20212.8875
1228.94024	20154.8875
1232.50976	19636.1875
1236.07685	19011.2875
1239.6415	18629.3875
1243.20374	18509.7875
1246.76355	18608.7875
1250.32093	18794.1875
1253.8759	19158.5875
1257.42845	19737.3875
1260.97859	20472.4875
1264.52631	21292.7875
1268.07163	22111.9875
1271.61453	22859.5875
1275.15503	23464.1875
1278.69312	23973.6875
1282.22882	24635.1875
1285.76211	25645.5875
1289.29301	26974.9875
1292.82151	28504.8875
1296.34761	30184.9875
1299.87133	32329.5875
1303.39266	34867.2875
1306.9116	37852.4875
1310.42815	40845.6875
1313.94233	42538.3875
1317.45412	41807.8875
1320.96354	39628.2875
1324.47058	37148.0875
1327.97525	34930.1875
1331.47754	33293.4875
1334.97747	32398.2875
1338.47502	31991.5875
1341.97022	32034.6875
1345.46305	32368.8875
1348.95352	33118.7875
1352.44163	34591.3875
1355.92738	37187.4875
1359.41078	40980.5875
1362.89183	44365.4875
1366.37053	43818.5875
1369.84688	38552.5875
1373.32088	32410.8875
1376.79254	28562.0875
1380.26186	27098.5875
1383.72883	26563.2875
1387.19347	26101.0875
1390.65578	25400.4875
1394.11575	25041.5875
1397.57339	25071.6875
1401.0287	25298.1875
1404.48168	25420.5875
1407.93234	25337.7875
1411.38068	24988.5875
1414.82669	24515.5875
1418.27039	23889.1875
1421.71177	23116.7875
1425.15083	22365.0875
1428.58758	22040.6875
1432.02203	22319.1875
1435.45416	22982.8875
1438.88399	23559.4875
1442.31151	23878.9875
1445.73673	23993.7875
1449.15965	24075.4875
1452.58027	23949.1875
1455.9986	23660.4875
1459.41463	23608.8875
1462.82837	23978.4875
1466.23982	24750.0875
1469.64898	25562.3875
1473.05586	26349.4875
1476.46045	26862.1875
1479.86276	27167.8875
1483.26279	27351.8875
1486.66054	27600.6875
1490.05602	28199.8875
1493.44922	28996.9875
1496.84016	29942.0875
1500.22882	31053.0875
1503.61521	32710.7875
1506.99934	34723.7875
1510.38121	36144.1875
1513.76081	35952.9875
1517.13816	33865.4875
1520.51324	31068.9875
1523.88607	28829.6875
1527.25665	27670.1875
1530.62498	27191.5875
1533.99105	26856.1875
1537.35488	26300.4875
1540.71647	25614.8875
1544.07581	24817.4875
1547.4329	24035.8875
1550.78776	23385.4875
1554.14038	22837.6875
1557.49077	22650.4875
1560.83892	22720.0875
1564.18484	23090.0875
1567.52853	23677.6875
1570.86999	24250.9875
1574.20922	24797.3875
1577.54624	24992.3875
1580.88103	24345.8875
1584.2136	23559.4875
1587.54395	23644.0875
1590.87208	24834.4875
1594.19801	26886.2875
1597.52172	29320.7875
1600.84321	30508.9875
1604.16251	29390.5875
1607.47959	26734.0875
1610.79447	23813.8875
1614.10715	21227.0875
1617.41763	19351.3875
1620.7259	18113.4875
1624.03199	17535.8875
1627.33587	17572.3875
1630.63757	18189.6875
1633.93707	19618.4875
1637.23439	22254.5875
1640.52951	26331.9875
1643.82246	31609.0875
1647.11321	36142.6875
1650.40179	37308.1875
1653.68819	33977.5875
1656.97241	28187.9875
1660.25446	22747.4875
1663.53433	19044.3875
1666.81203	16750.0875
1670.08756	15451.1875
1673.36092	14669.0875
1676.63211	14138.6875
1679.90115	13800.3875
1683.16801	13518.6875
1686.43272	13306.5875
1689.69527	13121.1875
1692.95567	13029.7875
1696.2139	12950.3875
1699.46999	12862.0875
1702.72392	12826.2875
1705.97571	12775.4875
1709.22535	12719.1875
1712.47284	12717.1875
1715.71819	12714.7875
1718.96139	12653.4875
1722.20246	12613.9875
1725.44139	12522.8875
1728.67818	12380.4875
1731.91284	12303.9875
1735.14537	12200.9875
1738.37576	12109.4875
1741.60403	12081.5875
1744.83017	12008.5875
1748.05418	11982.2875
1751.27607	11939.1875
1754.49584	11961.7875
1757.71349	11901.7875
1760.92903	11904.0875
1764.14244	11890.1875
1767.35375	11860.3875
1770.56294	11835.7875
1773.77002	11790.9875
1776.97499	11754.6875
1780.17785	11738.4875
1783.37861	11710.8875
1786.57727	11661.8875
1789.77382	11633.1875
1792.96828	11605.5875
1796.16064	11585.7875
1799.3509	11549.0875
1802.53907	11537.6875
1805.72514	11502.7875
1808.90913	11481.8875
1812.09102	11438.0875
1815.27083	11414.6875
1818.44856	11368.7875
1821.6242	11347.6875
1824.79776	11325.5875
1827.96924	11324.8875
1831.13864	11322.8875
1834.30597	11300.3875
1837.47122	11286.5875
1840.6344	11254.2875
1843.7955	11268.3875
1846.95454	11258.0875
1850.11151	11229.6875
1853.26642	11227.9875
1856.41926	11216.9875
1859.57004	11200.9875
1862.71876	11175.4875
1865.86542	11170.0875
1869.01003	11179.6875
1872.15258	11151.4875
1875.29308	11127.6875
1878.43152	11137.8875
1881.56792	11122.2875
1884.70227	11122.4875
1887.83457	11119.5875
1890.96482	11115.6875
1894.09304	11100.1875
1897.21921	11085.2875
1900.34335	11065.2875
1903.46544	11089.5875
1906.58551	11059.6875
1909.70353	11059.7875
1912.81953	11057.0875
1915.93349	11022.8875
1919.04543	10988.8875
1922.15534	10954.0875
1925.26322	10944.0875
1928.36908	10906.9875
1931.47292	10845.9875
1934.57473	10830.1875
1937.67453	10823.2875
1940.77232	10776.1875
1943.86808	10742.2875
1946.96184	10721.9875
1950.05358	10662.2875
1953.14331	10670.4875
1956.23103	10628.1875
1959.31675	10602.6875
1962.40046	10582.7875
1965.48217	10553.0875
1968.56188	10527.4875
1971.63959	10492.4875
1974.7153	10471.3875
1977.78901	10427.2875
1980.86073	10406.9875
1983.93046	10353.4875
1986.99819	10301.4875
1990.06394	10285.7875
1993.1277	10264.7875
1996.18947	10210.1875
1999.24925	10178.5875
2002.30706	10119.7875
2005.36288	10114.4875
2008.41672	10066.3875
2011.46859	10021.3875
2014.51848	10033.8875
2017.56639	9979.7875
2020.61233	9952.1875
2023.6563	9927.5875
2026.6983	9911.5875
2029.73833	9864.2875
2032.7764	9855.2875
2035.8125	9841.6875
2038.84664	9827.8875
2041.87881	9805.1875
2044.90903	9803.4875
2047.93729	9785.6875
2050.96359	9750.4875
2053.98794	9747.2875
2057.01034	9717.3875
2060.03078	9687.6875
2063.04927	9685.0875
2066.06582	9676.7875
2069.08042	9670.4875
2072.09307	9639.8875
2075.10378	9650.1875
2078.11255	9660.7875
2081.11938	9650.1875
2084.12426	9627.5875
2087.12722	9649.3875
2090.12824	9636.0875
2093.12732	9654.1875
2096.12447	9663.5875
2099.11969	9647.8875
2102.11299	9660.1875
2105.10435	9651.1875
2108.09379	9652.1875
2111.08131	9645.7875
2114.0669	9649.6875
2117.05057	9671.3875
2120.03233	9665.3875
2123.01216	9648.9875
2125.99008	9665.7875
2128.96609	9673.0875
2131.94018	9701.8875
2134.91236	9659.5875
2137.88263	9652.7875
2140.851	9668.6875
2143.81746	9655.8875
2146.78201	9664.4875
2149.74466	9652.4875
2152.7054	9636.2875
2155.66425	9632.0875
2158.6212	9631.7875
2161.57625	9624.3875
2164.52941	9622.1875
2167.48067	9601.4875
2170.43004	9606.4875
2173.37752	9614.7875
2176.32311	9606.8875
2179.26681	9631.4875
2182.20863	9610.0875
2185.14856	9601.1875
2188.08661	9613.4875
2191.02278	9588.2875
2193.95707	9584.3875
2196.88948	9568.2875
2199.82001	9549.1875
2202.74867	9525.1875
2205.67545	9554.2875
2208.60037	9520.2875
2211.52341	9503.7875
2214.44458	9462.0875
2217.36388	9442.5875
2220.28132	9456.0875
2223.1969	9441.6875
2226.11061	9437.2875
2229.02246	9414.9875
2231.93245	9397.0875
2234.84058	9364.3875
2237.74686	9369.6875
2240.65128	9375.0875
2243.55385	9351.9875
2246.45456	9336.9875
2249.35343	9300.1875
2252.25044	9298.4875
2255.14561	9302.3875
2258.03893	9261.8875
2260.93041	9251.4875
2263.82004	9218.4875
2266.70783	9215.2875
2269.59378	9168.0875
2272.4779	9155.0875
2275.36017	9143.6875
2278.24061	9122.4875
2281.11922	9135.6875
2283.996	9087.3875
2286.87094	9072.8875
2289.74405	9072.4875
2292.61534	9049.7875
2295.4848	9036.5875
2298.35243	9065.7875
2301.21824	9035.8875
2304.08223	9019.4875
2306.94439	9002.3875
2309.80474	8996.4875
2312.66327	8993.5875
2315.51999	8966.5875
2318.37489	8964.7875
2321.22797	8980.8875
2324.07925	8961.3875
2326.92871	8973.6875
2329.77637	8958.7875
2332.62222	8948.7875
2335.46626	8933.4875
2338.3085	8940.1875
2341.14893	8925.0875
2343.98756	8936.9875
2346.8244	8934.3875
2349.65943	8932.2875
2352.49267	8908.9875
2355.32411	8937.0875
2358.15376	8930.8875
2360.98161	8919.4875
2363.80768	8926.5875
2366.63195	8927.0875
2369.45444	8923.5875
2372.27514	8918.9875
2375.09405	8888.5875
2377.91118	8872.7875
2380.72652	8868.4875
2383.54009	8847.4875
2386.35187	8812.3875
2389.16188	8778.7875
2391.97011	8768.0875
2394.77657	8773.4875
2397.58125	8747.9875
2400.38416	8714.2875
2403.18529	8704.2875
2405.98466	8692.4875
2408.78226	8708.4875
2411.57809	8674.0875
2414.37216	8664.8875
2417.16446	8637.1875
2419.955	8622.8875
2422.74378	8623.7875
2425.5308	8625.4875
2428.31606	8624.8875
2431.09956	8632.1875
2433.88131	8584.6875
2436.6613	8593.4875
2439.43954	8606.7875
2442.21603	8605.6875
2444.99077	8593.3875
2447.76377	8608.3875
2450.53501	8583.8875
2453.30451	8586.0875
2456.07226	8592.2875
2458.83827	8577.2875
2461.60254	8607.4875
2464.36507	8596.6875
2467.12586	8594.7875
2469.88492	8622.1875
2472.64224	8619.2875
2475.39782	8598.3875
2478.15167	8597.6875
2480.90379	8616.3875
2483.65417	8620.6875
2486.40283	8630.7875
2489.14976	8654.1875
2491.89497	8661.2875
2494.63845	8655.8875
2497.3802	8647.2875
2500.12024	8649.4875
2502.85855	8621.1875
2505.59514	8633.0875
2508.33002	8591.2875
2511.06318	8582.5875
2513.79462	8553.0875
2516.52435	8549.3875
2519.25237	8539.0875
2521.97867	8543.9875
2524.70327	8551.3875
2527.42616	8522.5875
2530.14734	8504.1875
2532.86681	8490.6875
2535.58458	8514.6875
2538.30065	8471.6875
2541.01501	8476.9875
2543.72768	8480.3875
2546.43864	8470.3875
2549.14791	8440.7875
2551.85548	8465.1875
2554.56136	8480.3875
2557.26554	8459.3875
2559.96803	8441.1875
2562.66883	8435.6875
2565.36794	8454.7875
2568.06536	8458.2875
2570.7611	8432.3875
2573.45514	8427.8875
2576.14751	8426.3875
2578.83819	8422.5875
2581.52719	8403.4875
2584.21451	8376.1875
2586.90015	8373.2875
2589.58411	8317.0875
2592.2664	8360.5875
2594.94701	8359.9875
2597.62594	8348.2875
2600.30321	8311.0875
2602.9788	8314.6875
2605.65273	8306.4875
2608.32498	8325.8875
2610.99557	8310.6875
2613.66449	8335.8875
2616.33175	8307.6875
2618.99734	8329.2875
2621.66128	8293.1875
2624.32355	8295.9875
2626.98416	8298.8875
2629.64311	8292.3875
2632.30041	8284.5875
2634.95605	8261.3875
2637.61004	8255.7875
2640.26238	8246.4875
2642.91306	8275.2875
2645.56209	8262.5875
2648.20948	8243.1875
2650.85521	8264.6875
2653.4993	8264.3875
2656.14175	8283.6875
2658.78255	8277.2875
2661.42171	8292.6875
2664.05923	8304.2875
2666.6951	8278.5875
2669.32934	8301.8875
2671.96194	8297.7875
2674.59291	8303.9875
2677.22224	8300.6875
2679.84993	8292.9875
2682.476	8273.5875
2685.10043	8305.3875
2687.72324	8276.1875
2690.34441	8306.7875
2692.96396	8276.6875
2695.58188	8294.0875
2698.19818	8276.7875
2700.81285	8304.3875
2703.4259	8285.0875
2706.03733	8302.6875
2708.64714	8288.5875
2711.25533	8315.5875
2713.86191	8305.6875
2716.46687	8294.9875
2719.07021	8294.3875
2721.67194	8316.0875
2724.27206	8296.8875
2726.87057	8320.5875
2729.46747	8307.0875
2732.06276	8310.3875
2734.65644	8307.3875
2737.24852	8307.1875
2739.83899	8293.5875
2742.42786	8319.7875
2745.01513	8285.5875
2747.60079	8294.5875
2750.18486	8301.5875
2752.76733	8300.3875
2755.3482	8264.3875
2757.92747	8283.1875
2760.50515	8268.5875
2763.08123	8266.8875
2765.65573	8291.8875
2768.22863	8267.9875
2770.79994	8275.3875
2773.36967	8253.3875
2775.9378	8248.1875
2778.50435	8244.4875
2781.06932	8253.7875
2783.6327	8243.8875
2786.1945	8227.3875
2788.75471	8227.3875
2791.31335	8206.2875
2793.87041	8200.5875
2796.42589	8177.3875
2798.97979	8177.0875
2801.53212	8168.4875
2804.08288	8145.2875
2806.63206	8137.6875
2809.17967	8163.7875
2811.72571	8162.7875
2814.27018	8180.0875
2816.81308	8136.5875
2819.35442	8122.9875
2821.89419	8124.1875
2824.43239	8120.5875
2826.96904	8109.0875
2829.50412	8098.8875
2832.03763	8083.2875
2834.56959	8074.8875
2837.1	8081.5875
2839.62884	8078.0875
2842.15613	8030.2875
2844.68186	8068.9875
2847.20604	8063.8875
2849.72867	8064.6875
2852.24974	8054.4875
2854.76927	8062.7875
2857.28724	8034.4875
2859.80367	8035.4875
2862.31855	8008.3875
2864.83189	8036.0875
2867.34368	8021.3875
2869.85393	8020.2875
2872.36264	8023.0875
2874.8698	8016.7875
2877.37543	8017.0875
2879.87952	8041.1875
2882.38207	8024.3875
2884.88308	8011.2875
2887.38256	8041.7875
2889.88051	8001.1875
2892.37692	8004.5875
2894.8718	7990.6875
2897.36515	8014.1875
2899.85698	8012.2875
2902.34727	8035.2875
2904.83604	8046.5875
2907.32328	8056.6875
2909.809	8042.9875
2912.29319	8019.2875
2914.77587	8016.9875
2917.25702	8028.3875
2919.73665	8024.3875
2922.21476	8014.8875
2924.69136	8010.4875
2927.16644	7995.7875
2929.64	7998.0875
2932.11205	7988.1875
2934.58258	7986.7875
2937.05161	7968.6875
2939.51912	7975.4875
2941.98513	7959.1875
2944.44962	7948.6875
2946.91261	7904.9875
2949.37409	7930.7875
2951.83407	7912.6875
2954.29254	7917.2875
2956.74951	7915.4875
2959.20498	7903.4875
2961.65895	7898.2875
2964.11142	7879.0875
2966.56239	7846.1875
2969.01186	7847.0875
2971.45984	7839.9875
2973.90632	7819.1875
2976.35131	7779.3875
2978.7948	7775.8875
2981.23681	7736.5875
2983.67732	7725.7875
2986.11635	7710.1875
2988.55388	7678.9875
2990.98993	7687.7875
2993.4245	7662.5875
2995.85758	7649.6875
2998.28917	7642.2875
3000.71928	7606.4875
3003.14791	7584.7875
3005.57506	7590.7875
3008.00073	7578.7875
3010.42493	7583.3875
3012.84764	7578.0875
3015.26888	7552.7875
3017.68865	7525.7875
3020.10694	7538.8875
3022.52376	7495.4875
3024.9391	7475.5875
3027.35298	7464.3875
3029.76539	7485.6875
3032.17632	7446.5875
3034.5858	7443.1875
3036.9938	7423.8875
3039.40034	7436.0875
3041.80542	7402.6875
3044.20903	7380.8875
3046.61118	7362.0875
3049.01187	7348.0875
3051.4111	7333.6875
3053.80888	7311.4875
3056.20519	7314.6875
3058.60005	7287.3875
3060.99345	7299.1875
3063.3854	7273.9875
3065.7759	7243.3875
3068.16494	7259.7875
