Data from AgNP_FTO_APTES_UA_100uM_CRN_2uM_R6G_10uM_NaF_0.1M_Addition_RamanShift__17__14-04-40-310.txt Node

Date: Thu Mar 24 14:04:40 GMT 2022
User: TCL
Spectrometer: QEP01345
Trigger mode: 4
Integration Time (sec): 7.000000E0
Scans to average: 10
Electric dark correction enabled: true
Nonlinearity correction enabled: false
Boxcar width: 0
XAxis mode: Raman Shifts
Number of Pixels in Spectrum: 1044
>>>>>Begin Spectral Data<<<<<
46.04893	-0.875
50.45542	-0.175
54.85868	-0.575
59.25871	-0.675
63.6555	42.025
68.04907	40.425
72.43941	41.825
76.82654	44.425
81.21044	46.425
85.59113	49.825
89.96862	53.925
94.34289	48.025
98.71396	52.125
103.08183	54.025
107.4465	56.125
111.80798	60.325
116.16626	59.525
120.52136	60.925
124.87327	61.425
129.222	66.525
133.56755	68.925
137.90993	73.825
142.24913	84.125
146.58517	90.025
150.91804	105.325
155.24774	130.325
159.57429	157.325
163.89768	204.225
168.21792	272.825
172.53501	367.625
176.84895	517.425
181.15975	721.325
185.46741	1014.625
189.77193	1399.125
194.07331	1892.325
198.37157	2432.925
202.6667	3021.125
206.9587	3605.325
211.24758	4205.325
215.53334	4809.725
219.81599	5476.325
224.09553	6248.225
228.37195	7085.825
232.64527	8022.125
236.91549	8979.825
241.18261	9860.525
245.44663	10603.525
249.70755	11188.325
253.96539	11690.325
258.22014	12129.725
262.4718	12512.925
266.72039	12784.325
270.96589	12932.525
275.20832	12880.525
279.44768	12670.525
283.68397	12481.225
287.91719	12334.925
292.14735	12322.625
296.37445	12436.525
300.59849	12771.825
304.81948	13182.525
309.03742	13506.025
313.25231	13551.225
317.46415	13132.325
321.67296	12454.525
325.87872	11820.025
330.08145	11490.625
334.28114	11453.625
338.47781	11600.825
342.67145	11812.725
346.86207	12229.925
351.04966	12712.925
355.23424	13259.725
359.4158	13703.925
363.59435	13937.325
367.76989	14057.925
371.94243	14050.025
376.11196	14015.625
380.27849	13995.725
384.44203	13927.825
388.60257	13856.525
392.76012	13828.625
396.91468	13924.725
401.06626	14186.825
405.21485	14358.725
409.36047	14185.625
413.50311	13606.925
417.64277	13016.325
421.77947	12675.225
425.9132	12562.025
430.04396	12523.225
434.17176	12583.925
438.2966	12734.025
442.41849	12987.125
446.53742	13324.625
450.6534	13724.725
454.76644	13940.125
458.87653	13990.825
462.98368	13848.825
467.08789	13667.225
471.18916	13401.425
475.2875	13157.925
479.38291	12909.325
483.4754	12715.425
487.56496	12566.225
491.6516	12457.225
495.73531	12403.525
499.81612	12438.625
503.89401	12603.325
507.96899	12692.725
512.04106	12811.325
516.11023	12911.525
520.1765	12954.025
524.23987	12964.025
528.30034	12890.925
532.35792	12804.025
536.41261	12619.725
540.46441	12425.425
544.51333	12313.025
548.55936	12403.625
552.60252	12612.525
556.64279	12939.225
560.6802	13133.825
564.71473	13234.725
568.7464	13524.625
572.7752	13815.925
576.80114	13693.025
580.82422	13554.825
584.84444	13660.825
588.86181	13826.625
592.87633	14088.225
596.888	14223.025
600.89682	14379.825
604.9028	15479.825
608.90594	18805.125
612.90624	23054.425
616.90371	22081.825
620.89834	16214.025
624.89015	13277.525
628.87913	12773.125
632.86528	12962.525
636.84862	13152.225
640.82913	12995.825
644.80683	12436.325
648.78172	12029.125
652.75379	11976.225
656.72306	12371.825
660.68952	12903.425
664.65319	12777.225
668.61405	12293.425
672.57211	12066.525
676.52738	12093.625
680.47986	12049.025
684.42955	11918.125
688.37646	11801.825
692.32058	11821.225
696.26192	11928.025
700.20048	12101.625
704.13626	12210.325
708.06928	12165.925
711.99952	12070.425
715.927	12058.025
719.85171	12097.325
723.77365	12156.525
727.69284	12071.125
731.60928	11996.425
735.52295	11927.525
739.43388	11960.925
743.34206	12003.725
747.24749	12063.125
751.15017	12066.825
755.05012	12206.425
758.94733	12714.225
762.8418	13954.425
766.73354	16167.025
770.62254	18497.525
774.50882	19586.325
778.39237	18677.825
782.27321	16434.425
786.15132	14260.225
790.02671	12858.225
793.89938	12232.225
797.76935	11916.025
801.6366	11759.925
805.50115	11727.625
809.36299	11625.425
813.22213	11571.425
817.07857	11532.925
820.93231	11500.325
824.78336	11495.325
828.63172	11510.525
832.47738	11520.425
836.32036	11483.225
840.16066	11456.225
843.99827	11438.225
847.8332	11409.525
851.66546	11402.925
855.49504	11432.925
859.32195	11418.625
863.1462	11430.925
866.96777	11385.925
870.78668	11381.125
874.60293	11416.825
878.41652	11423.825
882.22745	11485.025
886.03573	11563.625
889.84136	11555.625
893.64433	11502.525
897.44466	11444.825
901.24235	11374.525
905.0374	11313.725
908.8298	11264.025
912.61957	11222.525
916.40671	11260.925
920.19121	11355.325
923.97308	11490.825
927.75233	11578.825
931.52895	11638.225
935.30295	11525.825
939.07433	11258.725
942.84309	11002.125
946.60924	10869.125
950.37278	10801.125
954.13371	10763.725
957.89203	10725.425
961.64774	10689.725
965.40086	10653.725
969.15137	10632.525
972.89929	10595.825
976.64461	10580.925
980.38733	10622.525
984.12747	10628.525
987.86502	10691.425
991.59999	10764.925
995.33237	10902.325
999.06217	11131.525
1002.78939	11413.825
1006.51404	11681.925
1010.23611	11873.725
1013.95561	12028.425
1017.67255	12066.625
1021.38692	11926.125
1025.09872	11704.225
1028.80796	11569.825
1032.51465	11625.225
1036.21877	11746.225
1039.92035	11814.325
1043.61937	11806.425
1047.31584	11792.225
1051.00976	11721.825
1054.70114	11672.225
1058.38998	11690.525
1062.07627	11712.925
1065.76003	11788.525
1069.44126	11869.725
1073.11995	12047.025
1076.79611	12254.525
1080.46974	12499.325
1084.14085	12749.025
1087.80943	13043.525
1091.47549	13161.725
1095.13903	13026.725
1098.80005	12692.225
1102.45857	12412.225
1106.11456	12260.925
1109.76805	12345.825
1113.41903	12581.625
1117.06751	12929.625
1120.71348	13347.025
1124.35696	13870.725
1127.99793	14309.625
1131.63641	14282.225
1135.2724	13779.725
1138.90589	13273.525
1142.5369	12944.625
1146.16542	12697.925
1149.79145	12527.525
1153.415	12466.325
1157.03607	12619.325
1160.65467	12877.325
1164.27079	13373.425
1167.88443	14133.925
1171.49561	15230.625
1175.10432	16986.025
1178.71056	19226.325
1182.31434	21188.325
1185.91565	21867.825
1189.51451	21352.625
1193.11091	20131.825
1196.70485	18705.125
1200.29634	17541.925
1203.88538	16602.925
1207.47197	15603.425
1211.05612	14742.025
1214.63782	14229.725
1218.21708	13998.125
1221.79391	13962.425
1225.36829	14073.225
1228.94024	14018.025
1232.50976	13824.625
1236.07685	13635.125
1239.6415	13523.025
1243.20374	13535.225
1246.76355	13621.525
1250.32093	13804.025
1253.8759	14081.125
1257.42845	14438.125
1260.97859	14980.925
1264.52631	15523.325
1268.07163	16095.125
1271.61453	16635.925
1275.15503	17126.825
1278.69312	17426.925
1282.22882	17715.625
1285.76211	18065.725
1289.29301	18621.925
1292.82151	19307.125
1296.34761	20156.525
1299.87133	21316.925
1303.39266	23078.425
1306.9116	25659.125
1310.42815	28294.925
1313.94233	29569.425
1317.45412	28726.825
1320.96354	26803.225
1324.47058	24825.725
1327.97525	23160.325
1331.47754	21954.825
1334.97747	21401.725
1338.47502	21285.125
1341.97022	21641.925
1345.46305	22442.625
1348.95352	23689.025
1352.44163	25317.925
1355.92738	27743.725
1359.41078	31314.725
1362.89183	34768.525
1366.37053	33849.425
1369.84688	28716.925
1373.32088	23602.725
1376.79254	20493.725
1380.26186	18944.825
1383.72883	18084.825
1387.19347	17479.225
1390.65578	16900.325
1394.11575	16413.325
1397.57339	16183.225
1401.0287	16176.825
1404.48168	16210.425
1407.93234	16183.925
1411.38068	16129.225
1414.82669	15990.025
1418.27039	15791.125
1421.71177	15447.725
1425.15083	15087.725
1428.58758	14915.525
1432.02203	15025.325
1435.45416	15344.425
1438.88399	15627.025
1442.31151	15729.625
1445.73673	15852.325
1449.15965	15968.825
1452.58027	15983.725
1455.9986	15893.925
1459.41463	15984.025
1462.82837	16221.025
1466.23982	16668.025
1469.64898	17090.125
1473.05586	17473.725
1476.46045	17667.125
1479.86276	17835.425
1483.26279	18022.625
1486.66054	18315.625
1490.05602	18828.125
1493.44922	19631.425
1496.84016	20966.825
1500.22882	23080.425
1503.61521	26071.025
1506.99934	29378.325
1510.38121	31864.525
1513.76081	31997.325
1517.13816	29550.825
1520.51324	25818.325
1523.88607	22521.725
1527.25665	20438.525
1530.62498	19282.525
1533.99105	18640.825
1537.35488	18170.525
1540.71647	17768.925
1544.07581	17411.425
1547.4329	17160.425
1550.78776	16963.225
1554.14038	16943.725
1557.49077	17023.425
1560.83892	17292.725
1564.18484	17776.025
1567.52853	18456.625
1570.86999	18996.625
1574.20922	19337.025
1577.54624	19208.225
1580.88103	18253.725
1584.2136	17039.425
1587.54395	16360.925
1590.87208	16554.125
1594.19801	17481.525
1597.52172	18817.425
1600.84321	19446.025
1604.16251	18831.425
1607.47959	17732.125
1610.79447	16509.425
1614.10715	15282.225
1617.41763	14206.425
1620.7259	13423.225
1624.03199	13020.225
1627.33587	12952.625
1630.63757	13244.925
1633.93707	13936.825
1637.23439	15237.725
1640.52951	17247.525
1643.82246	20075.525
1647.11321	23150.225
1650.40179	24887.425
1653.68819	23872.425
1656.97241	20493.425
1660.25446	16854.725
1663.53433	14253.425
1666.81203	12689.725
1670.08756	11781.525
1673.36092	11209.725
1676.63211	10858.225
1679.90115	10593.925
1683.16801	10448.225
1686.43272	10270.725
1689.69527	10162.025
1692.95567	10082.325
1696.2139	10025.525
1699.46999	9981.125
1702.72392	9962.525
1705.97571	9918.325
1709.22535	9875.825
1712.47284	9889.225
1715.71819	9861.625
1718.96139	9831.825
1722.20246	9822.625
1725.44139	9755.925
1728.67818	9645.525
1731.91284	9589.125
1735.14537	9486.025
1738.37576	9440.525
1741.60403	9416.025
1744.83017	9384.725
1748.05418	9347.625
1751.27607	9327.725
1754.49584	9314.425
1757.71349	9294.725
1760.92903	9286.125
1764.14244	9290.025
1767.35375	9244.125
1770.56294	9211.725
1773.77002	9199.425
1776.97499	9160.325
1780.17785	9153.625
1783.37861	9135.925
1786.57727	9102.825
1789.77382	9038.725
1792.96828	9056.125
1796.16064	9046.425
1799.3509	9020.625
1802.53907	9012.325
1805.72514	9007.325
1808.90913	9014.425
1812.09102	8931.125
1815.27083	8903.625
1818.44856	8904.125
1821.6242	8856.225
1824.79776	8857.925
1827.96924	8832.725
1831.13864	8807.825
1834.30597	8799.625
1837.47122	8780.325
1840.6344	8770.825
1843.7955	8771.125
1846.95454	8762.225
1850.11151	8769.725
1853.26642	8712.525
1856.41926	8725.725
1859.57004	8705.425
1862.71876	8701.825
1865.86542	8685.725
1869.01003	8679.825
1872.15258	8656.425
1875.29308	8658.925
1878.43152	8643.325
1881.56792	8631.825
1884.70227	8641.825
1887.83457	8643.925
1890.96482	8638.125
1894.09304	8618.125
1897.21921	8604.725
1900.34335	8618.225
1903.46544	8611.425
1906.58551	8604.125
1909.70353	8603.625
1912.81953	8598.525
1915.93349	8600.925
1919.04543	8556.225
1922.15534	8524.225
1925.26322	8525.925
1928.36908	8522.025
1931.47292	8477.825
1934.57473	8443.225
1937.67453	8429.725
1940.77232	8404.525
1943.86808	8366.025
1946.96184	8374.525
1950.05358	8337.125
1953.14331	8322.325
1956.23103	8317.425
1959.31675	8310.325
1962.40046	8263.725
1965.48217	8247.325
1968.56188	8241.525
1971.63959	8228.425
1974.7153	8199.725
1977.78901	8176.525
1980.86073	8167.025
1983.93046	8128.525
1986.99819	8083.225
1990.06394	8065.925
1993.1277	8040.425
1996.18947	8006.425
1999.24925	7977.325
2002.30706	7940.025
2005.36288	7904.325
2008.41672	7913.225
2011.46859	7855.525
2014.51848	7833.225
2017.56639	7832.925
2020.61233	7812.625
2023.6563	7779.825
2026.6983	7769.525
2029.73833	7752.325
2032.7764	7714.825
2035.8125	7724.525
2038.84664	7683.625
2041.87881	7670.125
2044.90903	7688.025
2047.93729	7656.425
2050.96359	7640.625
2053.98794	7616.225
2057.01034	7605.125
2060.03078	7587.625
2063.04927	7599.525
2066.06582	7567.325
2069.08042	7588.025
2072.09307	7580.825
2075.10378	7566.625
2078.11255	7564.725
2081.11938	7573.025
2084.12426	7536.625
2087.12722	7550.325
2090.12824	7549.025
2093.12732	7564.825
2096.12447	7566.525
2099.11969	7547.925
2102.11299	7569.725
2105.10435	7557.825
2108.09379	7569.325
2111.08131	7570.925
2114.0669	7570.425
2117.05057	7592.025
2120.03233	7588.725
2123.01216	7578.025
2125.99008	7600.325
2128.96609	7605.225
2131.94018	7601.925
2134.91236	7598.025
2137.88263	7613.225
2140.851	7595.125
2143.81746	7625.725
2146.78201	7618.725
2149.74466	7611.125
2152.7054	7600.725
2155.66425	7580.525
2158.6212	7586.825
2161.57625	7605.325
2164.52941	7590.625
2167.48067	7581.925
2170.43004	7582.925
2173.37752	7551.825
2176.32311	7549.025
2179.26681	7578.825
2182.20863	7567.325
2185.14856	7562.225
2188.08661	7554.925
2191.02278	7545.525
2193.95707	7541.325
2196.88948	7522.025
2199.82001	7549.125
2202.74867	7519.225
2205.67545	7497.925
2208.60037	7511.725
2211.52341	7475.825
2214.44458	7477.925
2217.36388	7465.925
2220.28132	7472.725
2223.1969	7471.625
2226.11061	7444.825
2229.02246	7419.625
2231.93245	7403.525
2234.84058	7386.025
2237.74686	7360.525
2240.65128	7349.625
2243.55385	7331.125
2246.45456	7343.425
2249.35343	7319.725
2252.25044	7351.225
2255.14561	7330.525
2258.03893	7322.625
2260.93041	7318.125
2263.82004	7306.325
2266.70783	7302.125
2269.59378	7284.725
2272.4779	7270.325
2275.36017	7243.625
2278.24061	7231.425
2281.11922	7227.625
2283.996	7213.025
2286.87094	7210.425
2289.74405	7195.325
2292.61534	7169.625
2295.4848	7146.425
2298.35243	7164.225
2301.21824	7160.125
2304.08223	7138.025
2306.94439	7143.225
2309.80474	7147.225
2312.66327	7132.025
2315.51999	7127.525
2318.37489	7156.525
2321.22797	7122.425
2324.07925	7133.925
2326.92871	7089.225
2329.77637	7092.325
2332.62222	7085.025
2335.46626	7094.425
2338.3085	7094.425
2341.14893	7091.625
2343.98756	7096.025
2346.8244	7106.525
2349.65943	7087.925
2352.49267	7096.525
2355.32411	7110.525
2358.15376	7114.025
2360.98161	7110.925
2363.80768	7126.725
2366.63195	7135.425
2369.45444	7122.425
2372.27514	7094.325
2375.09405	7100.925
2377.91118	7079.025
2380.72652	7057.125
2383.54009	7033.825
2386.35187	7021.325
2389.16188	6986.725
2391.97011	6997.425
2394.77657	6983.925
2397.58125	6956.825
2400.38416	6932.725
2403.18529	6901.625
2405.98466	6896.425
2408.78226	6891.925
2411.57809	6876.725
2414.37216	6870.025
2417.16446	6858.325
2419.955	6826.325
2422.74378	6821.225
2425.5308	6849.925
2428.31606	6828.525
2431.09956	6819.425
2433.88131	6832.525
2436.6613	6819.625
2439.43954	6838.225
2442.21603	6825.025
2444.99077	6826.225
2447.76377	6832.025
2450.53501	6835.925
2453.30451	6843.725
2456.07226	6825.925
2458.83827	6816.425
2461.60254	6822.525
2464.36507	6831.825
2467.12586	6831.925
2469.88492	6832.225
2472.64224	6833.625
2475.39782	6822.725
2478.15167	6848.025
2480.90379	6815.225
2483.65417	6851.125
2486.40283	6850.425
2489.14976	6879.125
2491.89497	6882.425
2494.63845	6895.325
2497.3802	6870.325
2500.12024	6885.625
2502.85855	6870.225
2505.59514	6842.225
2508.33002	6843.725
2511.06318	6813.225
2513.79462	6784.625
2516.52435	6766.025
2519.25237	6743.325
2521.97867	6759.025
2524.70327	6759.125
2527.42616	6726.125
2530.14734	6704.925
2532.86681	6690.425
2535.58458	6691.425
2538.30065	6684.725
2541.01501	6699.025
2543.72768	6680.925
2546.43864	6686.525
2549.14791	6666.325
2551.85548	6680.025
2554.56136	6653.125
2557.26554	6646.025
2559.96803	6651.925
2562.66883	6650.625
2565.36794	6653.625
2568.06536	6652.025
2570.7611	6639.525
2573.45514	6643.925
2576.14751	6612.225
2578.83819	6608.425
2581.52719	6599.425
2584.21451	6568.725
2586.90015	6569.525
2589.58411	6556.525
2592.2664	6576.025
2594.94701	6567.125
2597.62594	6545.825
2600.30321	6543.525
2602.9788	6530.325
2605.65273	6542.125
2608.32498	6532.125
2610.99557	6521.725
2613.66449	6543.525
2616.33175	6521.525
2618.99734	6504.725
2621.66128	6513.025
2624.32355	6506.525
2626.98416	6511.625
2629.64311	6499.825
2632.30041	6495.425
2634.95605	6493.225
2637.61004	6498.325
2640.26238	6455.025
2642.91306	6459.825
2645.56209	6475.325
2648.20948	6465.125
2650.85521	6447.825
2653.4993	6452.125
2656.14175	6461.925
2658.78255	6460.925
2661.42171	6449.825
2664.05923	6458.425
2666.6951	6472.525
2669.32934	6478.725
2671.96194	6450.125
2674.59291	6469.925
2677.22224	6479.725
2679.84993	6475.825
2682.476	6467.925
2685.10043	6462.125
2687.72324	6452.425
2690.34441	6492.025
2692.96396	6475.825
2695.58188	6453.325
2698.19818	6442.225
2700.81285	6456.325
2703.4259	6450.725
2706.03733	6452.025
2708.64714	6452.225
2711.25533	6474.525
2713.86191	6460.725
2716.46687	6492.325
2719.07021	6460.725
2721.67194	6462.825
2724.27206	6455.325
2726.87057	6460.225
2729.46747	6458.625
2732.06276	6448.725
2734.65644	6474.425
2737.24852	6468.025
2739.83899	6426.925
2742.42786	6439.525
2745.01513	6418.025
2747.60079	6426.825
2750.18486	6414.425
2752.76733	6420.525
2755.3482	6391.225
2757.92747	6401.425
2760.50515	6395.825
2763.08123	6384.125
2765.65573	6385.425
2768.22863	6394.125
2770.79994	6387.425
2773.36967	6384.125
2775.9378	6383.825
2778.50435	6359.925
2781.06932	6365.425
2783.6327	6352.925
2786.1945	6371.925
2788.75471	6345.225
2791.31335	6319.125
2793.87041	6340.925
2796.42589	6300.925
2798.97979	6320.525
2801.53212	6312.025
2804.08288	6323.225
2806.63206	6305.025
2809.17967	6298.925
2811.72571	6295.225
2814.27018	6299.725
2816.81308	6294.825
2819.35442	6292.925
2821.89419	6273.225
2824.43239	6280.525
2826.96904	6290.425
2829.50412	6277.825
2832.03763	6276.525
2834.56959	6269.225
2837.1	6259.925
2839.62884	6263.825
2842.15613	6234.025
2844.68186	6242.425
2847.20604	6254.625
2849.72867	6256.525
2852.24974	6231.225
2854.76927	6229.725
2857.28724	6252.225
2859.80367	6230.625
2862.31855	6244.825
2864.83189	6265.325
2867.34368	6266.925
2869.85393	6258.225
2872.36264	6255.425
2874.8698	6269.525
2877.37543	6272.625
2879.87952	6270.925
2882.38207	6277.325
2884.88308	6257.725
2887.38256	6251.125
2889.88051	6257.225
2892.37692	6243.225
2894.8718	6238.625
2897.36515	6255.325
2899.85698	6239.925
2902.34727	6282.825
2904.83604	6270.425
2907.32328	6260.325
2909.809	6278.025
2912.29319	6263.425
2914.77587	6275.725
2917.25702	6258.225
2919.73665	6246.325
2922.21476	6278.725
2924.69136	6252.825
2927.16644	6247.925
2929.64	6239.925
2932.11205	6245.925
2934.58258	6203.025
2937.05161	6204.825
2939.51912	6205.125
2941.98513	6199.825
2944.44962	6162.725
2946.91261	6141.625
2949.37409	6177.825
2951.83407	6159.825
2954.29254	6157.225
2956.74951	6143.725
2959.20498	6146.825
2961.65895	6122.325
2964.11142	6128.625
2966.56239	6123.125
2969.01186	6116.125
2971.45984	6102.625
2973.90632	6073.725
2976.35131	6067.125
2978.7948	6055.725
2981.23681	6050.225
2983.67732	6040.425
2986.11635	6024.825
2988.55388	6029.825
2990.98993	6030.625
2993.4245	5989.425
2995.85758	6003.925
2998.28917	5992.625
3000.71928	5976.025
3003.14791	5975.025
3005.57506	5969.225
3008.00073	5948.025
3010.42493	5953.025
3012.84764	5956.525
3015.26888	5945.825
3017.68865	5931.225
3020.10694	5934.225
3022.52376	5914.325
3024.9391	5894.225
3027.35298	5884.525
3029.76539	5887.025
3032.17632	5870.125
3034.5858	5869.525
3036.9938	5870.725
3039.40034	5843.525
3041.80542	5823.725
3044.20903	5803.125
3046.61118	5818.925
3049.01187	5797.225
3051.4111	5774.725
3053.80888	5779.725
3056.20519	5769.125
3058.60005	5755.025
3060.99345	5769.425
3063.3854	5747.825
3065.7759	5730.325
3068.16494	5732.925
3070.55254	5722.625
3072.93868	5698.025
3075.32338	5690.925
3077.70662	5690.325
3080.08842	5672.625
3082.46878	5685.725
3084.84769	5660.925
3087.22515	5655.125
3089.60118	5649.825
3091.97576	5643.325
3094.3489	5658.325
3096.72061	5656.525
3099.09087	5648.425
3101.4597	5636.525
3103.82709	5640.025
3106.19305	5635.625
3108.55757	5650.925
3110.92066	5610.525
3113.28232	5600.825
3115.64255	5591.025
3118.00134	5588.525
3120.35871	5575.725
3122.71466	5564.225
3125.06917	5562.625
3127.42226	5553.925
3129.77393	5587.725
3132.12417	5575.225
3134.47299	5595.925
3136.82039	5575.125
3139.16636	5577.125
3141.51092	5586.925
3143.85406	5599.725
3146.19579	5600.125
3148.53609	5601.225
3150.87499	5573.725
3153.21246	5591.525
3155.54853	5595.325
3157.88318	5597.525
3160.21642	5580.525
3162.54826	5574.925
3164.87868	5585.525
3167.2077	5582.625
3169.5353	5586.725
3171.86151	5582.025
3174.18631	5587.825
3176.5097	5579.325
3178.83169	5578.925
3181.15228	5584.625
3183.47147	5561.225
3185.78926	5578.225
3188.10565	5573.625
3190.42065	5584.425
