Data from AgNP_FTO_APTES_UA_100uM_CRN_5uM_R6G_10uM_NaF_0.1M_Addition_RamanShift__4__14-43-10-355.txt Node

Date: Thu Mar 24 14:43:10 GMT 2022
User: TCL
Spectrometer: QEP01345
Trigger mode: 4
Integration Time (sec): 7.000000E0
Scans to average: 10
Electric dark correction enabled: true
Nonlinearity correction enabled: false
Boxcar width: 0
XAxis mode: Raman Shifts
Number of Pixels in Spectrum: 1044
>>>>>Begin Spectral Data<<<<<
46.04893	-0.8375
50.45542	0.7625
54.85868	-0.4375
59.25871	0.8625
63.6555	29.5625
68.04907	31.8625
72.43941	32.8625
76.82654	31.6625
81.21044	35.7625
85.59113	36.7625
89.96862	37.3625
94.34289	37.7625
98.71396	40.5625
103.08183	41.9625
107.4465	41.7625
111.80798	42.0625
116.16626	40.5625
120.52136	43.4625
124.87327	47.4625
129.222	48.8625
133.56755	51.1625
137.90993	54.3625
142.24913	62.8625
146.58517	66.3625
150.91804	78.2625
155.24774	91.7625
159.57429	116.8625
163.89768	145.2625
168.21792	202.0625
172.53501	266.8625
176.84895	375.7625
181.15975	527.9625
185.46741	748.0625
189.77193	1029.3625
194.07331	1390.7625
198.37157	1783.9625
202.6667	2233.3625
206.9587	2674.7625
211.24758	3121.6625
215.53334	3582.2625
219.81599	4118.4625
224.09553	4701.3625
228.37195	5379.1625
232.64527	6104.1625
236.91549	6781.6625
241.18261	7404.4625
245.44663	7877.5625
249.70755	8212.2625
253.96539	8471.5625
258.22014	8716.1625
262.4718	8925.5625
266.72039	9054.9625
270.96589	9106.5625
275.20832	9008.7625
279.44768	8840.8625
283.68397	8623.7625
287.91719	8509.1625
292.14735	8490.6625
296.37445	8664.4625
300.59849	9077.6625
304.81948	9559.7625
309.03742	9979.9625
313.25231	10110.9625
317.46415	9821.7625
321.67296	9196.6625
325.87872	8589.8625
330.08145	8302.6625
334.28114	8254.1625
338.47781	8390.1625
342.67145	8576.5625
346.86207	8937.1625
351.04966	9392.8625
355.23424	9936.8625
359.4158	10312.4625
363.59435	10454.1625
367.76989	10429.7625
371.94243	10285.1625
376.11196	10162.1625
380.27849	10049.8625
384.44203	9939.8625
388.60257	9860.8625
392.76012	9834.7625
396.91468	9936.3625
401.06626	10181.9625
405.21485	10359.2625
409.36047	10136.1625
413.50311	9588.6625
417.64277	9070.2625
421.77947	8790.2625
425.9132	8663.7625
430.04396	8659.3625
434.17176	8698.1625
438.2966	8845.7625
442.41849	9177.9625
446.53742	9571.2625
450.6534	9960.8625
454.76644	10156.4625
458.87653	10095.1625
462.98368	9894.8625
467.08789	9613.0625
471.18916	9324.9625
475.2875	9009.6625
479.38291	8747.0625
483.4754	8466.6625
487.56496	8316.5625
491.6516	8240.9625
495.73531	8221.6625
499.81612	8244.9625
503.89401	8381.2625
507.96899	8425.9625
512.04106	8522.1625
516.11023	8631.7625
520.1765	8724.6625
524.23987	8749.3625
528.30034	8751.6625
532.35792	8715.7625
536.41261	8555.3625
540.46441	8339.9625
544.51333	8221.3625
548.55936	8262.6625
552.60252	8436.6625
556.64279	8721.2625
560.6802	8876.6625
564.71473	9004.6625
568.7464	9306.7625
572.7752	9515.4625
576.80114	9373.9625
580.82422	9305.2625
584.84444	9539.8625
588.86181	10006.4625
592.87633	10643.2625
596.888	11153.8625
600.89682	11044.3625
604.9028	11570.3625
608.90594	14414.3625
612.90624	18453.3625
616.90371	17602.0625
620.89834	11965.9625
624.89015	9137.7625
628.87913	8606.8625
632.86528	8785.2625
636.84862	8967.4625
640.82913	8763.2625
644.80683	8232.6625
648.78172	7850.8625
652.75379	7857.0625
656.72306	8255.0625
660.68952	8732.0625
664.65319	8586.7625
668.61405	8007.2625
672.57211	7768.1625
676.52738	7777.9625
680.47986	7754.9625
684.42955	7628.6625
688.37646	7529.6625
692.32058	7561.9625
696.26192	7670.2625
700.20048	7853.4625
704.13626	7928.3625
708.06928	7896.9625
711.99952	7847.9625
715.927	7852.0625
719.85171	7929.0625
723.77365	7987.9625
727.69284	7905.3625
731.60928	7855.5625
735.52295	7850.3625
739.43388	7894.0625
743.34206	7919.0625
747.24749	7911.5625
751.15017	7916.6625
755.05012	8050.2625
758.94733	8517.0625
762.8418	9702.8625
766.73354	11733.9625
770.62254	13629.9625
774.50882	14324.5625
778.39237	13668.9625
782.27321	11845.1625
786.15132	9879.8625
790.02671	8637.1625
793.89938	8038.9625
797.76935	7789.9625
801.6366	7686.2625
805.50115	7601.9625
809.36299	7554.9625
813.22213	7519.0625
817.07857	7471.4625
820.93231	7468.6625
824.78336	7460.6625
828.63172	7485.0625
832.47738	7520.3625
836.32036	7468.7625
840.16066	7456.6625
843.99827	7427.9625
847.8332	7405.2625
851.66546	7376.7625
855.49504	7391.1625
859.32195	7402.7625
863.1462	7361.6625
866.96777	7334.0625
870.78668	7318.4625
874.60293	7379.3625
878.41652	7405.3625
882.22745	7494.0625
886.03573	7569.7625
889.84136	7567.0625
893.64433	7510.7625
897.44466	7492.2625
901.24235	7464.6625
905.0374	7392.1625
908.8298	7325.3625
912.61957	7258.2625
916.40671	7252.7625
920.19121	7318.0625
923.97308	7450.9625
927.75233	7635.2625
931.52895	7793.0625
935.30295	7656.9625
939.07433	7340.4625
942.84309	7095.6625
946.60924	6981.8625
950.37278	6910.4625
954.13371	6889.9625
957.89203	6880.9625
961.64774	6849.3625
965.40086	6849.5625
969.15137	6859.0625
972.89929	6854.3625
976.64461	6854.2625
980.38733	6870.5625
984.12747	6883.6625
987.86502	6914.5625
991.59999	7010.1625
995.33237	7143.5625
999.06217	7388.8625
1002.78939	7682.5625
1006.51404	7927.7625
1010.23611	8161.6625
1013.95561	8277.5625
1017.67255	8232.1625
1021.38692	8019.8625
1025.09872	7778.0625
1028.80796	7614.4625
1032.51465	7630.5625
1036.21877	7758.0625
1039.92035	7826.0625
1043.61937	7862.9625
1047.31584	7806.0625
1051.00976	7737.1625
1054.70114	7668.0625
1058.38998	7626.3625
1062.07627	7612.0625
1065.76003	7689.6625
1069.44126	7781.7625
1073.11995	7988.9625
1076.79611	8212.9625
1080.46974	8491.2625
1084.14085	8799.3625
1087.80943	9088.7625
1091.47549	9179.2625
1095.13903	8955.7625
1098.80005	8569.1625
1102.45857	8242.8625
1106.11456	8116.2625
1109.76805	8183.8625
1113.41903	8391.1625
1117.06751	8727.7625
1120.71348	9206.5625
1124.35696	9781.1625
1127.99793	10191.1625
1131.63641	10088.4625
1135.2724	9514.6625
1138.90589	9031.7625
1142.5369	8727.4625
1146.16542	8560.7625
1149.79145	8448.4625
1153.415	8420.3625
1157.03607	8506.0625
1160.65467	8737.3625
1164.27079	9182.3625
1167.88443	9885.0625
1171.49561	10979.8625
1175.10432	12697.0625
1178.71056	14938.8625
1182.31434	16797.8625
1185.91565	17349.1625
1189.51451	16771.7625
1193.11091	15602.8625
1196.70485	14197.4625
1200.29634	13072.2625
1203.88538	12075.9625
1207.47197	11097.7625
1211.05612	10303.9625
1214.63782	9855.2625
1218.21708	9693.2625
1221.79391	9769.7625
1225.36829	9851.9625
1228.94024	9827.6625
1232.50976	9627.1625
1236.07685	9448.2625
1239.6415	9391.4625
1243.20374	9445.9625
1246.76355	9511.3625
1250.32093	9621.0625
1253.8759	9841.9625
1257.42845	10276.5625
1260.97859	10834.1625
1264.52631	11492.5625
1268.07163	12064.8625
1271.61453	12548.8625
1275.15503	12818.2625
1278.69312	12984.2625
1282.22882	13194.4625
1285.76211	13696.7625
1289.29301	14395.2625
1292.82151	15058.6625
1296.34761	15807.6625
1299.87133	16951.4625
1303.39266	18726.5625
1306.9116	21290.0625
1310.42815	24112.7625
1313.94233	25416.0625
1317.45412	24349.3625
1320.96354	22074.7625
1324.47058	19846.1625
1327.97525	17914.3625
1331.47754	16603.9625
1334.97747	15940.5625
1338.47502	15813.4625
1341.97022	16153.4625
1345.46305	16924.2625
1348.95352	18175.0625
1352.44163	19877.2625
1355.92738	22389.9625
1359.41078	26152.3625
1362.89183	29687.0625
1366.37053	28805.8625
1369.84688	23648.5625
1373.32088	18578.3625
1376.79254	15748.2625
1380.26186	14519.4625
1383.72883	13748.1625
1387.19347	12968.7625
1390.65578	12145.4625
1394.11575	11616.6625
1397.57339	11390.2625
1401.0287	11404.2625
1404.48168	11449.3625
1407.93234	11458.4625
1411.38068	11541.0625
1414.82669	11622.2625
1418.27039	11608.6625
1421.71177	11392.7625
1425.15083	11103.3625
1428.58758	11002.3625
1432.02203	11257.2625
1435.45416	11697.8625
1438.88399	11978.6625
1442.31151	12066.4625
1445.73673	12101.9625
1449.15965	12128.1625
1452.58027	12042.2625
1455.9986	11761.3625
1459.41463	11615.8625
1462.82837	11748.5625
1466.23982	12245.0625
1469.64898	12792.5625
1473.05586	13286.4625
1476.46045	13708.8625
1479.86276	14137.1625
1483.26279	14581.8625
1486.66054	15106.8625
1490.05602	15926.3625
1493.44922	17023.2625
1496.84016	18270.2625
1500.22882	19957.0625
1503.61521	22290.9625
1506.99934	25068.6625
1510.38121	27208.9625
1513.76081	27229.9625
1517.13816	24652.1625
1520.51324	20739.8625
1523.88607	17398.8625
1527.25665	15291.9625
1530.62498	14183.0625
1533.99105	13567.7625
1537.35488	13098.2625
1540.71647	12712.2625
1544.07581	12445.3625
1547.4329	12196.7625
1550.78776	12016.4625
1554.14038	11920.6625
1557.49077	11916.0625
1560.83892	12108.1625
1564.18484	12605.0625
1567.52853	13318.7625
1570.86999	13977.4625
1574.20922	14364.8625
1577.54624	14284.6625
1580.88103	13392.9625
1584.2136	12243.4625
1587.54395	11754.6625
1590.87208	12107.0625
1594.19801	13228.4625
1597.52172	14759.3625
1600.84321	15623.6625
1604.16251	15115.8625
1607.47959	13723.8625
1610.79447	12187.0625
1614.10715	10788.1625
1617.41763	9716.8625
1620.7259	9104.4625
1624.03199	8838.1625
1627.33587	8894.0625
1630.63757	9270.3625
1633.93707	10054.9625
1637.23439	11471.6625
1640.52951	13809.7625
1643.82246	17134.9625
1647.11321	20542.5625
1650.40179	22252.8625
1653.68819	20776.8625
1656.97241	16976.9625
1660.25446	13122.8625
1663.53433	10471.9625
1666.81203	8968.4625
1670.08756	8127.4625
1673.36092	7627.9625
1676.63211	7319.7625
1679.90115	7090.9625
1683.16801	6930.1625
1686.43272	6821.0625
1689.69527	6731.6625
1692.95567	6681.0625
1696.2139	6643.0625
1699.46999	6601.9625
1702.72392	6578.3625
1705.97571	6554.3625
1709.22535	6529.7625
1712.47284	6503.3625
1715.71819	6526.9625
1718.96139	6491.2625
1722.20246	6486.4625
1725.44139	6437.3625
1728.67818	6351.2625
1731.91284	6287.5625
1735.14537	6210.5625
1738.37576	6188.9625
1741.60403	6159.7625
1744.83017	6118.4625
1748.05418	6093.2625
1751.27607	6091.8625
1754.49584	6058.3625
1757.71349	6054.9625
1760.92903	6059.5625
1764.14244	6028.8625
1767.35375	6043.9625
1770.56294	6005.4625
1773.77002	5962.9625
1776.97499	5933.0625
1780.17785	5918.4625
1783.37861	5878.0625
1786.57727	5883.0625
1789.77382	5857.1625
1792.96828	5832.2625
1796.16064	5823.8625
1799.3509	5817.9625
1802.53907	5799.3625
1805.72514	5781.5625
1808.90913	5744.3625
1812.09102	5731.0625
1815.27083	5726.7625
1818.44856	5725.0625
1821.6242	5698.2625
1824.79776	5679.3625
1827.96924	5675.6625
1831.13864	5664.9625
1834.30597	5650.5625
1837.47122	5649.3625
1840.6344	5633.1625
1843.7955	5644.7625
1846.95454	5624.3625
1850.11151	5618.5625
1853.26642	5624.4625
1856.41926	5599.8625
1859.57004	5594.1625
1862.71876	5589.0625
1865.86542	5588.3625
1869.01003	5605.1625
1872.15258	5599.8625
1875.29308	5591.9625
1878.43152	5573.2625
1881.56792	5575.2625
1884.70227	5575.2625
1887.83457	5579.8625
1890.96482	5559.7625
1894.09304	5565.0625
1897.21921	5553.6625
1900.34335	5560.0625
1903.46544	5550.9625
1906.58551	5556.1625
1909.70353	5548.8625
1912.81953	5533.9625
1915.93349	5527.1625
1919.04543	5521.8625
1922.15534	5496.4625
1925.26322	5476.3625
1928.36908	5468.6625
1931.47292	5449.4625
1934.57473	5414.0625
1937.67453	5408.5625
1940.77232	5383.3625
1943.86808	5372.9625
1946.96184	5347.0625
1950.05358	5332.4625
1953.14331	5301.2625
1956.23103	5321.6625
1959.31675	5285.4625
1962.40046	5281.7625
1965.48217	5255.1625
1968.56188	5249.5625
1971.63959	5245.1625
1974.7153	5227.2625
1977.78901	5194.7625
1980.86073	5197.9625
1983.93046	5159.9625
1986.99819	5132.2625
1990.06394	5117.2625
1993.1277	5098.2625
1996.18947	5093.2625
1999.24925	5047.3625
2002.30706	5040.1625
2005.36288	5028.5625
2008.41672	5005.5625
2011.46859	4993.7625
2014.51848	4994.6625
2017.56639	4975.9625
2020.61233	4952.2625
2023.6563	4952.0625
2026.6983	4927.9625
2029.73833	4914.3625
2032.7764	4908.2625
2035.8125	4907.3625
2038.84664	4896.9625
2041.87881	4901.0625
2044.90903	4892.1625
2047.93729	4899.2625
2050.96359	4866.1625
2053.98794	4878.1625
2057.01034	4866.8625
2060.03078	4855.5625
2063.04927	4831.2625
2066.06582	4843.6625
2069.08042	4828.1625
2072.09307	4834.3625
2075.10378	4808.2625
2078.11255	4821.3625
2081.11938	4807.6625
2084.12426	4826.7625
2087.12722	4811.9625
2090.12824	4823.4625
2093.12732	4825.7625
2096.12447	4835.7625
2099.11969	4812.7625
2102.11299	4818.9625
2105.10435	4827.5625
2108.09379	4823.3625
2111.08131	4834.2625
2114.0669	4828.0625
2117.05057	4820.6625
2120.03233	4835.8625
2123.01216	4838.1625
2125.99008	4831.5625
2128.96609	4838.2625
2131.94018	4834.7625
2134.91236	4816.4625
2137.88263	4836.9625
2140.851	4810.7625
2143.81746	4826.9625
2146.78201	4819.7625
2149.74466	4815.5625
2152.7054	4818.8625
2155.66425	4803.7625
2158.6212	4808.1625
2161.57625	4797.3625
2164.52941	4791.3625
2167.48067	4799.9625
2170.43004	4789.0625
2173.37752	4795.4625
2176.32311	4795.1625
2179.26681	4798.8625
2182.20863	4786.8625
2185.14856	4782.3625
2188.08661	4782.1625
2191.02278	4780.0625
2193.95707	4772.5625
2196.88948	4777.1625
2199.82001	4760.0625
2202.74867	4750.8625
2205.67545	4758.5625
2208.60037	4757.5625
2211.52341	4753.2625
2214.44458	4746.1625
2217.36388	4735.5625
2220.28132	4730.7625
2223.1969	4717.2625
2226.11061	4710.5625
2229.02246	4697.3625
2231.93245	4691.5625
2234.84058	4674.7625
2237.74686	4689.6625
2240.65128	4676.7625
2243.55385	4682.1625
2246.45456	4669.3625
2249.35343	4657.0625
2252.25044	4653.1625
2255.14561	4654.3625
2258.03893	4666.3625
2260.93041	4662.8625
2263.82004	4661.0625
2266.70783	4634.9625
2269.59378	4638.8625
2272.4779	4613.4625
2275.36017	4605.7625
2278.24061	4595.3625
2281.11922	4590.8625
2283.996	4586.0625
2286.87094	4569.4625
2289.74405	4550.2625
2292.61534	4548.8625
2295.4848	4540.3625
2298.35243	4537.0625
2301.21824	4517.6625
2304.08223	4540.6625
2306.94439	4531.0625
2309.80474	4513.4625
2312.66327	4531.8625
2315.51999	4528.8625
2318.37489	4518.5625
2321.22797	4526.8625
2324.07925	4516.4625
2326.92871	4519.4625
2329.77637	4514.4625
2332.62222	4519.5625
2335.46626	4509.7625
2338.3085	4508.1625
2341.14893	4516.1625
2343.98756	4501.0625
2346.8244	4513.7625
2349.65943	4526.6625
2352.49267	4510.3625
2355.32411	4540.5625
2358.15376	4529.4625
2360.98161	4538.8625
2363.80768	4565.2625
2366.63195	4557.5625
2369.45444	4552.4625
2372.27514	4559.6625
2375.09405	4551.0625
2377.91118	4522.3625
2380.72652	4524.8625
2383.54009	4501.0625
2386.35187	4486.7625
2389.16188	4468.8625
2391.97011	4444.6625
2394.77657	4435.4625
2397.58125	4428.5625
2400.38416	4420.3625
2403.18529	4400.1625
2405.98466	4402.2625
2408.78226	4377.3625
2411.57809	4378.3625
2414.37216	4366.2625
2417.16446	4363.1625
2419.955	4335.9625
2422.74378	4352.5625
2425.5308	4352.4625
2428.31606	4367.7625
2431.09956	4351.4625
2433.88131	4350.3625
2436.6613	4361.3625
2439.43954	4372.3625
2442.21603	4366.7625
2444.99077	4365.4625
2447.76377	4395.6625
2450.53501	4387.1625
2453.30451	4393.3625
2456.07226	4373.7625
2458.83827	4386.7625
2461.60254	4390.7625
2464.36507	4388.1625
2467.12586	4378.0625
2469.88492	4389.8625
2472.64224	4396.9625
2475.39782	4395.0625
2478.15167	4398.5625
2480.90379	4409.4625
2483.65417	4425.8625
2486.40283	4435.7625
2489.14976	4449.7625
2491.89497	4455.8625
2494.63845	4454.4625
2497.3802	4461.7625
2500.12024	4443.1625
2502.85855	4443.1625
2505.59514	4411.3625
2508.33002	4399.3625
2511.06318	4383.9625
2513.79462	4361.6625
2516.52435	4351.1625
2519.25237	4348.1625
2521.97867	4337.0625
2524.70327	4330.4625
2527.42616	4322.0625
2530.14734	4314.8625
2532.86681	4307.3625
2535.58458	4314.3625
2538.30065	4308.6625
2541.01501	4320.6625
2543.72768	4305.9625
2546.43864	4317.8625
2549.14791	4296.7625
2551.85548	4310.2625
2554.56136	4316.9625
2557.26554	4309.0625
2559.96803	4321.4625
2562.66883	4316.0625
2565.36794	4302.0625
2568.06536	4307.4625
2570.7611	4313.8625
2573.45514	4311.1625
2576.14751	4299.8625
2578.83819	4288.1625
2581.52719	4295.7625
2584.21451	4269.5625
2586.90015	4280.5625
2589.58411	4260.4625
2592.2664	4250.8625
2594.94701	4256.5625
2597.62594	4242.2625
2600.30321	4242.3625
2602.9788	4234.9625
2605.65273	4253.8625
2608.32498	4255.6625
2610.99557	4239.4625
2613.66449	4252.5625
2616.33175	4254.7625
2618.99734	4246.6625
2621.66128	4227.6625
2624.32355	4245.6625
2626.98416	4242.9625
2629.64311	4232.8625
2632.30041	4214.2625
2634.95605	4208.0625
2637.61004	4210.2625
2640.26238	4204.1625
2642.91306	4211.9625
2645.56209	4199.3625
2648.20948	4190.9625
2650.85521	4196.3625
2653.4993	4217.9625
2656.14175	4204.8625
2658.78255	4225.2625
2661.42171	4226.5625
2664.05923	4220.5625
2666.6951	4237.9625
2669.32934	4239.9625
2671.96194	4250.5625
2674.59291	4245.6625
2677.22224	4239.2625
2679.84993	4246.3625
2682.476	4224.6625
2685.10043	4232.4625
2687.72324	4227.3625
2690.34441	4217.6625
2692.96396	4220.1625
2695.58188	4226.6625
2698.19818	4224.2625
2700.81285	4224.4625
2703.4259	4239.9625
2706.03733	4232.0625
2708.64714	4227.9625
2711.25533	4234.3625
2713.86191	4225.1625
2716.46687	4235.1625
2719.07021	4253.3625
2721.67194	4245.7625
2724.27206	4237.2625
2726.87057	4249.1625
2729.46747	4244.2625
2732.06276	4253.4625
2734.65644	4235.1625
2737.24852	4239.9625
2739.83899	4216.2625
2742.42786	4239.8625
2745.01513	4227.7625
2747.60079	4217.1625
2750.18486	4212.5625
2752.76733	4210.6625
2755.3482	4199.6625
2757.92747	4212.3625
2760.50515	4203.1625
2763.08123	4201.0625
2765.65573	4185.6625
2768.22863	4196.3625
2770.79994	4186.1625
2773.36967	4182.2625
2775.9378	4193.1625
2778.50435	4182.1625
2781.06932	4173.6625
2783.6327	4176.6625
2786.1945	4181.5625
2788.75471	4169.6625
2791.31335	4189.0625
2793.87041	4179.0625
2796.42589	4166.6625
2798.97979	4182.9625
2801.53212	4182.0625
2804.08288	4190.7625
2806.63206	4168.7625
2809.17967	4177.3625
2811.72571	4173.6625
2814.27018	4180.8625
2816.81308	4181.2625
2819.35442	4173.7625
2821.89419	4181.8625
2824.43239	4187.7625
2826.96904	4186.5625
2829.50412	4195.5625
2832.03763	4188.5625
2834.56959	4194.7625
2837.1	4191.3625
2839.62884	4191.0625
2842.15613	4168.5625
2844.68186	4185.2625
2847.20604	4194.8625
2849.72867	4181.5625
2852.24974	4174.8625
2854.76927	4186.4625
2857.28724	4189.2625
2859.80367	4186.2625
2862.31855	4197.4625
2864.83189	4196.7625
2867.34368	4195.4625
2869.85393	4216.2625
2872.36264	4204.3625
2874.8698	4224.1625
2877.37543	4226.8625
2879.87952	4208.2625
2882.38207	4202.0625
2884.88308	4205.4625
2887.38256	4199.1625
2889.88051	4185.3625
2892.37692	4189.0625
2894.8718	4182.0625
2897.36515	4182.3625
2899.85698	4185.6625
2902.34727	4213.9625
2904.83604	4208.9625
2907.32328	4202.4625
2909.809	4197.8625
2912.29319	4220.5625
2914.77587	4206.2625
2917.25702	4212.6625
2919.73665	4193.5625
2922.21476	4198.6625
2924.69136	4188.0625
2927.16644	4163.4625
2929.64	4174.0625
2932.11205	4166.3625
2934.58258	4161.4625
2937.05161	4145.0625
2939.51912	4143.3625
2941.98513	4147.2625
2944.44962	4122.9625
2946.91261	4130.3625
2949.37409	4119.8625
2951.83407	4122.6625
2954.29254	4138.8625
2956.74951	4116.6625
2959.20498	4127.2625
2961.65895	4096.7625
2964.11142	4106.7625
2966.56239	4090.9625
2969.01186	4096.6625
2971.45984	4081.1625
2973.90632	4075.2625
2976.35131	4055.5625
2978.7948	4057.0625
2981.23681	4034.3625
2983.67732	4028.1625
2986.11635	4014.8625
2988.55388	3998.8625
2990.98993	3987.4625
2993.4245	3991.0625
2995.85758	3980.9625
2998.28917	3972.3625
3000.71928	3967.2625
3003.14791	3950.3625
3005.57506	3965.1625
3008.00073	3952.7625
3010.42493	3960.8625
3012.84764	3944.0625
3015.26888	3955.1625
3017.68865	3928.0625
3020.10694	3936.7625
3022.52376	3913.9625
3024.9391	3900.4625
3027.35298	3911.2625
3029.76539	3909.6625
3032.17632	3903.1625
3034.5858	3881.2625
3036.9938	3861.4625
3039.40034	3869.6625
3041.80542	3854.7625
3044.20903	3844.6625
3046.61118	3844.2625
3049.01187	3844.4625
3051.4111	3838.4625
3053.80888	3838.0625
3056.20519	3837.8625
3058.60005	3828.5625
3060.99345	3821.2625
3063.3854	3821.6625
3065.7759	3800.3625
3068.16494	3799.5625
3070.55254	3798.4625
3072.93868	3784.7625
3075.32338	3777.0625
3077.70662	3767.4625
3080.08842	3778.3625
3082.46878	3773.9625
3084.84769	3756.5625
3087.22515	3755.6625
3089.60118	3754.9625
3091.97576	3769.6625
3094.3489	3747.3625
3096.72061	3755.4625
3099.09087	3757.4625
3101.4597	3772.5625
3103.82709	3753.8625
3106.19305	3749.4625
3108.55757	3755.1625
