Data from AgNP_FTO_APTES_UA_100uM_CRN_1uM_R6G_10uM_NaF_0.1M_Addition_RamanShift__17__12-08-00-175.txt Node

Date: Thu Mar 24 12:08:00 GMT 2022
User: TCL
Spectrometer: QEP01345
Trigger mode: 4
Integration Time (sec): 7.000000E0
Scans to average: 10
Electric dark correction enabled: true
Nonlinearity correction enabled: false
Boxcar width: 0
XAxis mode: Raman Shifts
Number of Pixels in Spectrum: 1044
>>>>>Begin Spectral Data<<<<<
46.04893	-0.5875
50.45542	-0.7875
54.85868	-1.1875
59.25871	-0.3875
63.6555	49.9125
68.04907	53.3125
72.43941	49.9125
76.82654	51.0125
81.21044	58.1125
85.59113	61.3125
89.96862	64.5125
94.34289	63.8125
98.71396	66.5125
103.08183	67.4125
107.4465	70.8125
111.80798	73.9125
116.16626	75.1125
120.52136	75.7125
124.87327	77.6125
129.222	84.3125
133.56755	90.1125
137.90993	92.0125
142.24913	108.8125
146.58517	119.9125
150.91804	139.9125
155.24774	174.5125
159.57429	210.7125
163.89768	278.7125
168.21792	371.7125
172.53501	512.0125
176.84895	726.3125
181.15975	1014.6125
185.46741	1420.6125
189.77193	1949.4125
194.07331	2612.2125
198.37157	3357.8125
202.6667	4168.9125
206.9587	4968.3125
211.24758	5798.5125
215.53334	6652.4125
219.81599	7571.5125
224.09553	8601.3125
228.37195	9796.1125
232.64527	11062.5125
236.91549	12360.5125
241.18261	13599.0125
245.44663	14576.4125
249.70755	15337.0125
253.96539	16006.6125
258.22014	16580.0125
262.4718	17039.7125
266.72039	17450.5125
270.96589	17631.7125
275.20832	17539.7125
279.44768	17352.5125
283.68397	17182.2125
287.91719	17086.7125
292.14735	17082.3125
296.37445	17271.4125
300.59849	17615.8125
304.81948	18072.0125
309.03742	18462.0125
313.25231	18406.7125
317.46415	17914.5125
321.67296	17054.5125
325.87872	16272.3125
330.08145	15876.8125
334.28114	15788.0125
338.47781	15905.5125
342.67145	16189.7125
346.86207	16649.7125
351.04966	17258.3125
355.23424	17905.4125
359.4158	18370.2125
363.59435	18578.4125
367.76989	18635.3125
371.94243	18597.1125
376.11196	18551.8125
380.27849	18539.0125
384.44203	18540.8125
388.60257	18494.4125
392.76012	18559.6125
396.91468	18734.1125
401.06626	19059.2125
405.21485	19291.8125
409.36047	18952.8125
413.50311	18265.1125
417.64277	17680.2125
421.77947	17414.4125
425.9132	17427.4125
430.04396	17538.1125
434.17176	17642.5125
438.2966	17904.8125
442.41849	18378.2125
446.53742	19115.8125
450.6534	19865.5125
454.76644	20306.0125
458.87653	20290.4125
462.98368	19994.0125
467.08789	19644.3125
471.18916	19202.6125
475.2875	18818.4125
479.38291	18521.7125
483.4754	18337.9125
487.56496	18019.2125
491.6516	17645.3125
495.73531	17357.0125
499.81612	17205.9125
503.89401	17284.3125
507.96899	17373.4125
512.04106	17373.8125
516.11023	17329.8125
520.1765	17198.2125
524.23987	17105.1125
528.30034	16989.2125
532.35792	16909.4125
536.41261	16603.7125
540.46441	16273.6125
544.51333	16127.5125
548.55936	16322.2125
552.60252	16863.4125
556.64279	17558.9125
560.6802	18116.6125
564.71473	18538.1125
568.7464	19286.9125
572.7752	20140.2125
576.80114	20446.5125
580.82422	20493.4125
584.84444	20725.2125
588.86181	21324.7125
592.87633	22151.7125
596.888	22340.9125
600.89682	21662.0125
604.9028	22183.6125
608.90594	25861.6125
612.90624	30352.7125
616.90371	28404.8125
620.89834	20885.6125
624.89015	17251.9125
628.87913	16649.9125
632.86528	16902.5125
636.84862	17102.9125
640.82913	16752.9125
644.80683	15964.8125
648.78172	15376.4125
652.75379	15302.9125
656.72306	15816.0125
660.68952	16432.3125
664.65319	16313.8125
668.61405	15605.5125
672.57211	15365.2125
676.52738	15461.6125
680.47986	15431.5125
684.42955	15197.4125
688.37646	15018.4125
692.32058	15111.7125
696.26192	15332.1125
700.20048	15655.8125
704.13626	15898.0125
708.06928	15900.5125
711.99952	15775.6125
715.927	15735.8125
719.85171	15786.6125
723.77365	15775.2125
727.69284	15549.1125
731.60928	15362.9125
735.52295	15335.7125
739.43388	15407.9125
743.34206	15484.1125
747.24749	15603.8125
751.15017	15748.1125
755.05012	16132.9125
758.94733	16936.3125
762.8418	18783.6125
766.73354	21924.5125
770.62254	24865.1125
774.50882	25604.0125
778.39237	23931.9125
782.27321	21059.6125
786.15132	18432.3125
790.02671	16668.2125
793.89938	15813.4125
797.76935	15427.9125
801.6366	15250.7125
805.50115	15117.6125
809.36299	14985.1125
813.22213	14841.6125
817.07857	14773.6125
820.93231	14697.6125
824.78336	14616.7125
828.63172	14624.7125
832.47738	14594.3125
836.32036	14554.4125
840.16066	14506.4125
843.99827	14498.1125
847.8332	14470.0125
851.66546	14473.4125
855.49504	14513.8125
859.32195	14507.0125
863.1462	14444.1125
866.96777	14377.5125
870.78668	14378.5125
874.60293	14374.4125
878.41652	14410.1125
882.22745	14523.7125
886.03573	14612.7125
889.84136	14628.2125
893.64433	14548.7125
897.44466	14457.8125
901.24235	14399.5125
905.0374	14254.4125
908.8298	14151.5125
912.61957	14130.0125
916.40671	14233.8125
920.19121	14480.0125
923.97308	14757.4125
927.75233	14825.9125
931.52895	14758.6125
935.30295	14452.5125
939.07433	14005.8125
942.84309	13680.2125
946.60924	13483.8125
950.37278	13453.2125
954.13371	13436.5125
957.89203	13416.1125
961.64774	13369.7125
965.40086	13388.8125
969.15137	13379.7125
972.89929	13305.8125
976.64461	13274.6125
980.38733	13221.8125
984.12747	13236.8125
987.86502	13360.3125
991.59999	13530.8125
995.33237	13806.0125
999.06217	14217.9125
1002.78939	14794.9125
1006.51404	15359.8125
1010.23611	15810.6125
1013.95561	16076.0125
1017.67255	16067.7125
1021.38692	15703.2125
1025.09872	15146.9125
1028.80796	14749.3125
1032.51465	14732.6125
1036.21877	14893.3125
1039.92035	14989.8125
1043.61937	15015.4125
1047.31584	15006.2125
1051.00976	14937.4125
1054.70114	14936.9125
1058.38998	14966.8125
1062.07627	15090.1125
1065.76003	15256.5125
1069.44126	15538.3125
1073.11995	15901.1125
1076.79611	16229.7125
1080.46974	16540.5125
1084.14085	16917.7125
1087.80943	17396.6125
1091.47549	17642.9125
1095.13903	17506.7125
1098.80005	17023.1125
1102.45857	16455.5125
1106.11456	16145.4125
1109.76805	16081.6125
1113.41903	16318.8125
1117.06751	16707.8125
1120.71348	17243.8125
1124.35696	17885.3125
1127.99793	18389.9125
1131.63641	18366.7125
1135.2724	17858.2125
1138.90589	17409.5125
1142.5369	17165.9125
1146.16542	17048.8125
1149.79145	17032.8125
1153.415	17213.3125
1157.03607	17492.7125
1160.65467	18055.7125
1164.27079	19073.1125
1167.88443	20544.5125
1171.49561	22719.2125
1175.10432	25739.6125
1178.71056	29555.5125
1182.31434	32795.2125
1185.91565	33932.9125
1189.51451	33142.4125
1193.11091	31448.8125
1196.70485	29332.8125
1200.29634	27293.2125
1203.88538	25565.8125
1207.47197	24054.8125
1211.05612	22824.8125
1214.63782	22091.9125
1218.21708	21823.5125
1221.79391	21919.5125
1225.36829	22047.5125
1228.94024	21788.0125
1232.50976	21003.2125
1236.07685	20275.1125
1239.6415	19884.3125
1243.20374	19708.5125
1246.76355	19815.3125
1250.32093	20121.1125
1253.8759	20590.4125
1257.42845	21407.9125
1260.97859	22356.3125
1264.52631	23403.6125
1268.07163	24462.3125
1271.61453	25392.3125
1275.15503	26275.4125
1278.69312	27095.0125
1282.22882	27933.6125
1285.76211	29059.3125
1289.29301	30498.2125
1292.82151	32194.4125
1296.34761	34327.2125
1299.87133	36900.1125
1303.39266	40149.8125
1306.9116	44059.0125
1310.42815	47957.2125
1313.94233	50088.5125
1317.45412	49312.2125
1320.96354	47000.4125
1324.47058	44528.6125
1327.97525	42340.0125
1331.47754	40769.5125
1334.97747	39806.6125
1338.47502	39351.5125
1341.97022	39315.8125
1345.46305	39607.1125
1348.95352	40225.7125
1352.44163	41432.4125
1355.92738	43802.2125
1359.41078	48048.2125
1362.89183	51894.6125
1366.37053	50740.8125
1369.84688	44121.8125
1373.32088	37016.9125
1376.79254	32672.1125
1380.26186	30753.1125
1383.72883	29969.7125
1387.19347	29513.4125
1390.65578	29117.3125
1394.11575	29003.5125
1397.57339	29242.3125
1401.0287	29710.6125
1404.48168	29903.6125
1407.93234	29712.5125
1411.38068	29084.1125
1414.82669	28054.9125
1418.27039	26818.9125
1421.71177	25584.8125
1425.15083	24565.0125
1428.58758	24091.1125
1432.02203	24374.7125
1435.45416	25077.4125
1438.88399	25759.6125
1442.31151	26215.4125
1445.73673	26650.5125
1449.15965	26974.2125
1452.58027	27218.1125
1455.9986	27346.5125
1459.41463	27704.6125
1462.82837	28333.3125
1466.23982	29052.0125
1469.64898	29646.2125
1473.05586	29924.0125
1476.46045	29947.3125
1479.86276	29765.4125
1483.26279	29686.5125
1486.66054	29919.6125
1490.05602	30544.3125
1493.44922	31512.9125
1496.84016	32900.6125
1500.22882	35101.4125
1503.61521	38242.1125
1506.99934	41755.2125
1510.38121	44229.1125
1513.76081	44283.7125
1517.13816	41502.4125
1520.51324	37356.6125
1523.88607	33894.0125
1527.25665	32018.1125
1530.62498	31175.5125
1533.99105	30724.7125
1537.35488	30216.5125
1540.71647	29452.3125
1544.07581	28451.6125
1547.4329	27519.3125
1550.78776	26769.4125
1554.14038	26237.9125
1557.49077	26117.0125
1560.83892	26351.8125
1564.18484	26874.8125
1567.52853	27649.2125
1570.86999	28369.0125
1574.20922	28889.6125
1577.54624	28908.8125
1580.88103	27978.8125
1584.2136	26953.7125
1587.54395	26946.0125
1590.87208	28153.5125
1594.19801	30401.0125
1597.52172	32955.6125
1600.84321	33845.2125
1604.16251	32237.9125
1607.47959	29325.8125
1610.79447	26193.3125
1614.10715	23343.7125
1617.41763	21063.7125
1620.7259	19514.5125
1624.03199	18769.7125
1627.33587	18738.9125
1630.63757	19465.9125
1633.93707	21220.6125
1637.23439	24286.9125
1640.52951	29008.2125
1643.82246	34999.8125
1647.11321	40271.0125
1650.40179	42012.1125
1653.68819	38630.5125
1656.97241	31904.5125
1660.25446	25252.8125
1663.53433	20538.7125
1666.81203	17638.1125
1670.08756	15969.3125
1673.36092	14966.6125
1676.63211	14288.6125
1679.90115	13851.4125
1683.16801	13513.9125
1686.43272	13313.3125
1689.69527	13129.7125
1692.95567	12958.8125
1696.2139	12873.5125
1699.46999	12791.2125
1702.72392	12719.2125
1705.97571	12703.2125
1709.22535	12639.1125
1712.47284	12625.3125
1715.71819	12600.3125
1718.96139	12554.8125
1722.20246	12475.8125
1725.44139	12403.4125
1728.67818	12271.7125
1731.91284	12131.1125
1735.14537	12028.0125
1738.37576	11937.0125
1741.60403	11883.9125
1744.83017	11825.9125
1748.05418	11793.2125
1751.27607	11711.0125
1754.49584	11680.5125
1757.71349	11649.2125
1760.92903	11630.7125
1764.14244	11614.8125
1767.35375	11608.2125
1770.56294	11553.6125
1773.77002	11550.9125
1776.97499	11518.7125
1780.17785	11456.9125
1783.37861	11431.3125
1786.57727	11397.4125
1789.77382	11380.1125
1792.96828	11378.0125
1796.16064	11331.3125
1799.3509	11295.2125
1802.53907	11239.1125
1805.72514	11186.0125
1808.90913	11149.4125
1812.09102	11125.3125
1815.27083	11134.2125
1818.44856	11081.2125
1821.6242	11052.0125
1824.79776	11053.2125
1827.96924	11031.1125
1831.13864	11008.2125
1834.30597	11008.1125
1837.47122	10982.1125
1840.6344	10988.0125
1843.7955	10984.8125
1846.95454	10965.5125
1850.11151	10951.7125
1853.26642	10948.1125
1856.41926	10962.5125
1859.57004	10930.9125
1862.71876	10941.2125
1865.86542	10919.2125
1869.01003	10907.4125
1872.15258	10907.5125
1875.29308	10924.6125
1878.43152	10886.9125
1881.56792	10900.7125
1884.70227	10867.3125
1887.83457	10865.1125
1890.96482	10872.6125
1894.09304	10842.4125
1897.21921	10831.1125
1900.34335	10830.1125
1903.46544	10826.2125
1906.58551	10797.6125
1909.70353	10802.1125
1912.81953	10792.9125
1915.93349	10748.6125
1919.04543	10709.0125
1922.15534	10678.5125
1925.26322	10646.3125
1928.36908	10594.6125
1931.47292	10570.6125
1934.57473	10511.2125
1937.67453	10492.9125
1940.77232	10477.7125
1943.86808	10421.5125
1946.96184	10418.7125
1950.05358	10381.0125
1953.14331	10341.7125
1956.23103	10338.7125
1959.31675	10295.4125
1962.40046	10279.9125
1965.48217	10278.5125
1968.56188	10249.9125
1971.63959	10205.7125
1974.7153	10172.3125
1977.78901	10127.6125
1980.86073	10124.2125
1983.93046	10076.1125
1986.99819	10032.3125
1990.06394	9987.1125
1993.1277	9958.0125
1996.18947	9898.7125
1999.24925	9878.9125
2002.30706	9836.7125
2005.36288	9802.9125
2008.41672	9773.3125
2011.46859	9758.6125
2014.51848	9719.5125
2017.56639	9681.6125
2020.61233	9679.4125
2023.6563	9633.7125
2026.6983	9602.0125
2029.73833	9596.7125
2032.7764	9564.6125
2035.8125	9530.4125
2038.84664	9523.2125
2041.87881	9491.9125
2044.90903	9467.6125
2047.93729	9470.6125
2050.96359	9436.4125
2053.98794	9442.1125
2057.01034	9418.8125
2060.03078	9391.7125
2063.04927	9394.5125
2066.06582	9344.0125
2069.08042	9355.1125
2072.09307	9359.7125
2075.10378	9323.0125
2078.11255	9331.4125
2081.11938	9325.4125
2084.12426	9342.8125
2087.12722	9346.5125
2090.12824	9329.9125
2093.12732	9337.8125
2096.12447	9344.4125
2099.11969	9356.0125
2102.11299	9326.2125
2105.10435	9369.1125
2108.09379	9329.8125
2111.08131	9358.8125
2114.0669	9358.7125
2117.05057	9373.2125
2120.03233	9375.0125
2123.01216	9358.3125
2125.99008	9360.2125
2128.96609	9364.6125
2131.94018	9359.3125
2134.91236	9348.7125
2137.88263	9344.5125
2140.851	9352.6125
2143.81746	9327.0125
2146.78201	9365.5125
2149.74466	9328.6125
2152.7054	9313.9125
2155.66425	9300.9125
2158.6212	9313.6125
2161.57625	9320.4125
2164.52941	9289.2125
2167.48067	9282.8125
2170.43004	9277.0125
2173.37752	9277.4125
2176.32311	9265.9125
2179.26681	9273.6125
2182.20863	9281.9125
2185.14856	9275.3125
2188.08661	9249.8125
2191.02278	9243.5125
2193.95707	9232.6125
2196.88948	9218.4125
2199.82001	9199.9125
2202.74867	9179.6125
2205.67545	9192.7125
2208.60037	9148.7125
2211.52341	9150.8125
2214.44458	9142.8125
2217.36388	9148.4125
2220.28132	9116.5125
2223.1969	9087.5125
2226.11061	9077.2125
2229.02246	9045.8125
2231.93245	9056.8125
2234.84058	9017.3125
2237.74686	8992.0125
2240.65128	9014.6125
2243.55385	8982.5125
2246.45456	8989.2125
2249.35343	8939.2125
2252.25044	8944.7125
2255.14561	8935.0125
2258.03893	8920.1125
2260.93041	8919.9125
2263.82004	8901.5125
2266.70783	8873.0125
2269.59378	8843.1125
2272.4779	8804.3125
2275.36017	8820.6125
2278.24061	8780.4125
2281.11922	8780.4125
2283.996	8766.3125
2286.87094	8742.1125
2289.74405	8711.4125
2292.61534	8688.7125
2295.4848	8700.5125
2298.35243	8705.1125
2301.21824	8687.2125
2304.08223	8666.2125
2306.94439	8675.2125
2309.80474	8679.1125
2312.66327	8679.2125
2315.51999	8661.7125
2318.37489	8675.5125
2321.22797	8648.8125
2324.07925	8639.2125
2326.92871	8655.1125
2329.77637	8653.3125
2332.62222	8612.3125
2335.46626	8598.9125
2338.3085	8603.9125
2341.14893	8621.6125
2343.98756	8639.9125
2346.8244	8627.2125
2349.65943	8645.1125
2352.49267	8647.1125
2355.32411	8652.2125
2358.15376	8648.2125
2360.98161	8662.5125
2363.80768	8664.5125
2366.63195	8646.0125
2369.45444	8645.2125
2372.27514	8633.2125
2375.09405	8646.8125
2377.91118	8634.7125
2380.72652	8592.3125
2383.54009	8548.5125
2386.35187	8515.2125
2389.16188	8501.7125
2391.97011	8476.4125
2394.77657	8452.0125
2397.58125	8426.9125
2400.38416	8417.0125
2403.18529	8396.2125
2405.98466	8372.7125
2408.78226	8362.6125
2411.57809	8351.8125
2414.37216	8334.9125
2417.16446	8341.7125
2419.955	8319.0125
2422.74378	8313.0125
2425.5308	8310.6125
2428.31606	8298.1125
2431.09956	8300.8125
2433.88131	8293.6125
2436.6613	8320.9125
2439.43954	8330.8125
2442.21603	8319.0125
2444.99077	8330.7125
2447.76377	8348.7125
2450.53501	8326.0125
2453.30451	8343.5125
2456.07226	8337.1125
2458.83827	8334.0125
2461.60254	8354.5125
2464.36507	8350.6125
2467.12586	8342.1125
2469.88492	8329.3125
2472.64224	8344.0125
2475.39782	8343.6125
2478.15167	8341.0125
2480.90379	8360.9125
2483.65417	8371.4125
2486.40283	8375.6125
2489.14976	8385.3125
2491.89497	8391.4125
2494.63845	8406.6125
2497.3802	8413.9125
2500.12024	8403.5125
2502.85855	8417.6125
2505.59514	8394.1125
2508.33002	8355.6125
2511.06318	8342.6125
2513.79462	8334.3125
2516.52435	8301.2125
2519.25237	8276.3125
2521.97867	8269.7125
2524.70327	8250.1125
2527.42616	8254.0125
2530.14734	8241.7125
2532.86681	8235.4125
2535.58458	8242.4125
2538.30065	8219.5125
2541.01501	8216.3125
2543.72768	8207.8125
2546.43864	8216.7125
2549.14791	8196.1125
2551.85548	8212.4125
2554.56136	8204.9125
2557.26554	8190.1125
2559.96803	8191.1125
2562.66883	8174.9125
2565.36794	8168.8125
2568.06536	8189.5125
2570.7611	8164.5125
2573.45514	8146.4125
2576.14751	8150.6125
2578.83819	8146.1125
2581.52719	8148.2125
2584.21451	8121.4125
2586.90015	8137.2125
2589.58411	8099.1125
2592.2664	8108.8125
2594.94701	8080.2125
2597.62594	8084.6125
2600.30321	8092.4125
2602.9788	8098.4125
2605.65273	8090.5125
2608.32498	8093.3125
2610.99557	8111.9125
2613.66449	8086.2125
2616.33175	8105.4125
2618.99734	8106.2125
2621.66128	8093.2125
2624.32355	8090.0125
2626.98416	8089.9125
2629.64311	8103.2125
2632.30041	8106.3125
2634.95605	8065.4125
2637.61004	8055.7125
2640.26238	8071.9125
2642.91306	8072.2125
2645.56209	8059.3125
2648.20948	8076.3125
2650.85521	8078.7125
2653.4993	8082.9125
2656.14175	8088.0125
2658.78255	8112.5125
2661.42171	8092.5125
2664.05923	8112.5125
2666.6951	8118.4125
2669.32934	8131.4125
2671.96194	8115.2125
2674.59291	8126.1125
2677.22224	8117.2125
2679.84993	8120.1125
2682.476	8114.3125
2685.10043	8105.7125
2687.72324	8092.9125
2690.34441	8085.8125
2692.96396	8111.6125
2695.58188	8088.1125
2698.19818	8090.5125
2700.81285	8098.0125
2703.4259	8082.9125
2706.03733	8079.9125
2708.64714	8101.4125
2711.25533	8123.4125
2713.86191	8100.9125
2716.46687	8129.8125
2719.07021	8116.9125
2721.67194	8136.9125
2724.27206	8147.6125
2726.87057	8163.3125
2729.46747	8132.0125
2732.06276	8121.2125
2734.65644	8131.5125
2737.24852	8138.5125
2739.83899	8108.6125
2742.42786	8121.7125
2745.01513	8093.3125
2747.60079	8090.7125
2750.18486	8083.2125
2752.76733	8081.1125
2755.3482	8087.4125
2757.92747	8097.3125
2760.50515	8068.2125
2763.08123	8093.3125
2765.65573	8086.2125
2768.22863	8081.8125
2770.79994	8078.1125
2773.36967	8053.2125
2775.9378	8072.0125
2778.50435	8070.1125
2781.06932	8065.2125
2783.6327	8079.4125
2786.1945	8055.6125
2788.75471	8051.6125
2791.31335	8035.0125
2793.87041	8025.5125
2796.42589	8030.0125
2798.97979	8032.6125
2801.53212	8019.6125
2804.08288	8025.8125
2806.63206	8024.4125
2809.17967	7999.3125
2811.72571	8010.6125
2814.27018	7989.2125
2816.81308	7974.4125
2819.35442	7969.4125
2821.89419	7975.5125
2824.43239	7983.3125
2826.96904	7962.7125
2829.50412	7978.2125
2832.03763	7963.8125
2834.56959	7962.9125
2837.1	7944.5125
2839.62884	7947.2125
2842.15613	7923.4125
2844.68186	7940.4125
2847.20604	7951.1125
2849.72867	7941.9125
2852.24974	7944.8125
2854.76927	7962.1125
2857.28724	7950.0125
2859.80367	7973.4125
2862.31855	7951.6125
2864.83189	7949.3125
2867.34368	7957.3125
2869.85393	7953.9125
2872.36264	7957.4125
2874.8698	7975.5125
2877.37543	7969.8125
2879.87952	7969.4125
2882.38207	7970.2125
2884.88308	7963.1125
2887.38256	7955.1125
2889.88051	7965.9125
2892.37692	7949.7125
2894.8718	7951.8125
2897.36515	7966.9125
2899.85698	7972.1125
2902.34727	7982.0125
2904.83604	7989.0125
2907.32328	8005.6125
2909.809	7992.7125
2912.29319	7980.6125
2914.77587	8014.8125
2917.25702	7990.6125
2919.73665	7985.2125
2922.21476	7965.0125
2924.69136	7956.2125
2927.16644	7955.6125
2929.64	7928.4125
2932.11205	7911.6125
2934.58258	7890.4125
2937.05161	7907.1125
2939.51912	7888.0125
2941.98513	7872.9125
2944.44962	7829.3125
2946.91261	7808.7125
2949.37409	7814.3125
2951.83407	7821.4125
2954.29254	7818.1125
2956.74951	7814.4125
2959.20498	7791.4125
2961.65895	7758.0125
2964.11142	7759.1125
2966.56239	7727.1125
2969.01186	7693.9125
2971.45984	7669.9125
2973.90632	7657.0125
2976.35131	7642.5125
2978.7948	7632.3125
2981.23681	7617.6125
2983.67732	7581.2125
2986.11635	7555.7125
2988.55388	7524.4125
2990.98993	7521.7125
2993.4245	7507.4125
2995.85758	7497.3125
2998.28917	7473.8125
3000.71928	7461.1125
3003.14791	7455.8125
3005.57506	7435.0125
3008.00073	7415.9125
3010.42493	7411.5125
3012.84764	7407.4125
3015.26888	7387.0125
3017.68865	7372.1125
3020.10694	7353.8125
3022.52376	7324.6125
3024.9391	7338.0125
3027.35298	7327.2125
3029.76539	7324.3125
3032.17632	7297.0125
3034.5858	7262.7125
3036.9938	7299.8125
3039.40034	7242.3125
3041.80542	7244.3125
3044.20903	7236.1125
3046.61118	7210.0125
3049.01187	7207.6125
3051.4111	7174.3125
3053.80888	7140.6125
3056.20519	7154.0125
3058.60005	7138.9125
3060.99345	7134.6125
3063.3854	7108.5125
3065.7759	7090.9125
3068.16494	7079.4125
