Data from AgNP_FTO_APTES_UA_100uM_CRN_0uM_R6G_10uM_NaF_0.1M_Addition_RamanShift__30__11-20-10-120.txt Node

Date: Thu Mar 24 11:20:10 GMT 2022
User: TCL
Spectrometer: QEP01345
Trigger mode: 4
Integration Time (sec): 7.000000E0
Scans to average: 10
Electric dark correction enabled: true
Nonlinearity correction enabled: false
Boxcar width: 0
XAxis mode: Raman Shifts
Number of Pixels in Spectrum: 1044
>>>>>Begin Spectral Data<<<<<
46.04893	-1.8125
50.45542	-0.5125
54.85868	0.4875
59.25871	0.0875
63.6555	39.5875
68.04907	41.6875
72.43941	38.0875
76.82654	41.5875
81.21044	45.9875
85.59113	47.7875
89.96862	51.0875
94.34289	49.3875
98.71396	53.3875
103.08183	49.4875
107.4465	53.8875
111.80798	57.0875
116.16626	54.9875
120.52136	57.5875
124.87327	56.1875
129.222	65.2875
133.56755	68.9875
137.90993	71.1875
142.24913	82.8875
146.58517	88.1875
150.91804	103.1875
155.24774	124.6875
159.57429	155.9875
163.89768	200.9875
168.21792	273.3875
172.53501	367.5875
176.84895	520.3875
181.15975	732.1875
185.46741	1026.1875
189.77193	1408.6875
194.07331	1886.8875
198.37157	2432.8875
202.6667	2987.3875
206.9587	3555.6875
211.24758	4162.8875
215.53334	4784.5875
219.81599	5476.5875
224.09553	6286.6875
228.37195	7170.3875
232.64527	8131.3875
236.91549	9062.2875
241.18261	9934.6875
245.44663	10616.5875
249.70755	11127.6875
253.96539	11505.5875
258.22014	11843.0875
262.4718	12149.9875
266.72039	12376.7875
270.96589	12452.1875
275.20832	12381.9875
279.44768	12169.2875
283.68397	11969.6875
287.91719	11859.0875
292.14735	11844.2875
296.37445	12071.9875
300.59849	12509.2875
304.81948	13018.3875
309.03742	13454.3875
313.25231	13538.2875
317.46415	13130.1875
321.67296	12329.1875
325.87872	11604.1875
330.08145	11198.3875
334.28114	11105.0875
338.47781	11246.1875
342.67145	11462.9875
346.86207	11841.3875
351.04966	12387.4875
355.23424	13018.0875
359.4158	13505.0875
363.59435	13710.0875
367.76989	13719.4875
371.94243	13632.0875
376.11196	13520.0875
380.27849	13465.4875
384.44203	13414.2875
388.60257	13322.2875
392.76012	13301.4875
396.91468	13368.2875
401.06626	13643.4875
405.21485	13842.6875
409.36047	13536.5875
413.50311	12890.4875
417.64277	12305.7875
421.77947	12034.7875
425.9132	11950.6875
430.04396	11979.7875
434.17176	12042.0875
438.2966	12206.9875
442.41849	12605.5875
446.53742	13209.9875
450.6534	13781.7875
454.76644	14052.8875
458.87653	13986.1875
462.98368	13650.7875
467.08789	13294.7875
471.18916	12935.4875
475.2875	12571.5875
479.38291	12312.0875
483.4754	12096.1875
487.56496	11903.0875
491.6516	11705.2875
495.73531	11516.8875
499.81612	11473.2875
503.89401	11538.2875
507.96899	11640.2875
512.04106	11720.5875
516.11023	11733.1875
520.1765	11715.0875
524.23987	11681.9875
528.30034	11603.6875
532.35792	11497.5875
536.41261	11210.7875
540.46441	10865.6875
544.51333	10654.6875
548.55936	10734.1875
552.60252	11128.9875
556.64279	11725.0875
560.6802	12162.4875
564.71473	12500.7875
568.7464	13130.8875
572.7752	13794.8875
576.80114	13876.6875
580.82422	13713.5875
584.84444	13903.2875
588.86181	14576.7875
592.87633	15433.6875
596.888	15715.4875
600.89682	15057.1875
604.9028	15342.4875
608.90594	18690.2875
612.90624	23203.7875
616.90371	22035.7875
620.89834	15226.1875
624.89015	11709.5875
628.87913	11060.4875
632.86528	11265.0875
636.84862	11440.6875
640.82913	11236.6875
644.80683	10556.1875
648.78172	10054.0875
652.75379	10020.4875
656.72306	10457.9875
660.68952	11054.0875
664.65319	10904.0875
668.61405	10225.0875
672.57211	9984.3875
676.52738	10012.0875
680.47986	10023.8875
684.42955	9843.3875
688.37646	9688.8875
692.32058	9699.0875
696.26192	9904.9875
700.20048	10188.4875
704.13626	10328.5875
708.06928	10345.9875
711.99952	10199.4875
715.927	10205.2875
719.85171	10267.1875
723.77365	10282.9875
727.69284	10129.7875
731.60928	9942.9875
735.52295	9951.6875
739.43388	10024.5875
743.34206	10116.1875
747.24749	10172.1875
751.15017	10273.4875
755.05012	10517.5875
758.94733	11161.5875
762.8418	12717.0875
766.73354	15395.2875
770.62254	18053.8875
774.50882	18981.7875
778.39237	17820.4875
782.27321	15302.1875
786.15132	12815.9875
790.02671	11226.6875
793.89938	10418.0875
797.76935	10072.7875
801.6366	9917.6875
805.50115	9833.6875
809.36299	9725.0875
813.22213	9578.8875
817.07857	9524.7875
820.93231	9452.0875
824.78336	9441.0875
828.63172	9444.2875
832.47738	9418.5875
836.32036	9380.1875
840.16066	9363.1875
843.99827	9336.7875
847.8332	9318.8875
851.66546	9321.4875
855.49504	9325.5875
859.32195	9323.6875
863.1462	9243.3875
866.96777	9211.8875
870.78668	9210.8875
874.60293	9202.1875
878.41652	9228.2875
882.22745	9335.3875
886.03573	9418.0875
889.84136	9448.3875
893.64433	9408.5875
897.44466	9361.4875
901.24235	9333.4875
905.0374	9247.4875
908.8298	9089.5875
912.61957	9029.1875
916.40671	9061.6875
920.19121	9246.6875
923.97308	9441.8875
927.75233	9608.6875
931.52895	9637.6875
935.30295	9456.9875
939.07433	9041.4875
942.84309	8707.7875
946.60924	8553.9875
950.37278	8491.2875
954.13371	8468.8875
957.89203	8444.0875
961.64774	8427.0875
965.40086	8397.6875
969.15137	8373.5875
972.89929	8322.5875
976.64461	8276.2875
980.38733	8250.4875
984.12747	8277.1875
987.86502	8350.2875
991.59999	8456.3875
995.33237	8657.1875
999.06217	8987.8875
1002.78939	9442.3875
1006.51404	9872.8875
1010.23611	10242.5875
1013.95561	10426.0875
1017.67255	10404.8875
1021.38692	10123.0875
1025.09872	9695.9875
1028.80796	9417.8875
1032.51465	9411.8875
1036.21877	9459.4875
1039.92035	9517.3875
1043.61937	9565.4875
1047.31584	9555.9875
1051.00976	9510.5875
1054.70114	9461.8875
1058.38998	9468.5875
1062.07627	9510.0875
1065.76003	9581.3875
1069.44126	9726.0875
1073.11995	10009.0875
1076.79611	10326.6875
1080.46974	10603.9875
1084.14085	10991.3875
1087.80943	11401.4875
1091.47549	11606.1875
1095.13903	11434.0875
1098.80005	10974.8875
1102.45857	10488.1875
1106.11456	10260.9875
1109.76805	10277.0875
1113.41903	10494.8875
1117.06751	10881.0875
1120.71348	11404.0875
1124.35696	12058.6875
1127.99793	12604.2875
1131.63641	12572.6875
1135.2724	12034.9875
1138.90589	11551.6875
1142.5369	11222.6875
1146.16542	11071.1875
1149.79145	11030.8875
1153.415	11078.2875
1157.03607	11266.7875
1160.65467	11645.3875
1164.27079	12413.7875
1167.88443	13586.3875
1171.49561	15280.5875
1175.10432	17792.4875
1178.71056	21080.4875
1182.31434	23867.5875
1185.91565	24780.3875
1189.51451	23919.4875
1193.11091	22230.2875
1196.70485	20392.6875
1200.29634	18664.1875
1203.88538	17229.0875
1207.47197	15915.8875
1211.05612	14885.7875
1214.63782	14337.6875
1218.21708	14212.7875
1221.79391	14418.4875
1225.36829	14663.2875
1228.94024	14520.0875
1232.50976	13931.2875
1236.07685	13327.0875
1239.6415	12984.4875
1243.20374	12857.7875
1246.76355	12840.5875
1250.32093	13029.5875
1253.8759	13390.3875
1257.42845	14009.8875
1260.97859	14755.7875
1264.52631	15620.2875
1268.07163	16476.1875
1271.61453	17280.1875
1275.15503	17926.0875
1278.69312	18511.1875
1282.22882	19148.1875
1285.76211	20069.3875
1289.29301	21305.4875
1292.82151	22666.6875
1296.34761	24288.5875
1299.87133	26393.2875
1303.39266	29099.6875
1306.9116	32539.5875
1310.42815	36152.0875
1313.94233	38077.3875
1317.45412	37053.3875
1320.96354	34419.3875
1324.47058	31634.0875
1327.97525	29310.5875
1331.47754	27672.2875
1334.97747	26785.1875
1338.47502	26356.4875
1341.97022	26269.1875
1345.46305	26552.3875
1348.95352	27486.9875
1352.44163	29028.6875
1355.92738	31845.8875
1359.41078	36272.4875
1362.89183	40517.0875
1366.37053	39770.7875
1369.84688	33637.3875
1373.32088	27181.6875
1376.79254	23229.8875
1380.26186	21377.7875
1383.72883	20457.1875
1387.19347	19831.7875
1390.65578	19323.0875
1394.11575	19172.7875
1397.57339	19402.8875
1401.0287	19712.7875
1404.48168	19889.9875
1407.93234	19701.9875
1411.38068	19208.3875
1414.82669	18535.6875
1418.27039	17770.5875
1421.71177	17026.0875
1425.15083	16359.2875
1428.58758	16068.8875
1432.02203	16307.8875
1435.45416	16804.0875
1438.88399	17105.9875
1442.31151	17294.8875
1445.73673	17508.2875
1449.15965	17783.1875
1452.58027	17913.0875
1455.9986	17931.1875
1459.41463	18143.9875
1462.82837	18588.9875
1466.23982	19122.5875
1469.64898	19568.6875
1473.05586	19834.3875
1476.46045	19793.5875
1479.86276	19739.3875
1483.26279	19722.7875
1486.66054	20011.0875
1490.05602	20650.6875
1493.44922	21533.7875
1496.84016	22864.5875
1500.22882	24956.0875
1503.61521	27969.1875
1506.99934	31393.6875
1510.38121	34182.6875
1513.76081	34677.3875
1517.13816	32190.9875
1520.51324	28089.4875
1523.88607	24549.3875
1527.25665	22416.9875
1530.62498	21430.6875
1533.99105	20877.7875
1537.35488	20325.5875
1540.71647	19653.3875
1544.07581	18943.6875
1547.4329	18258.6875
1550.78776	17715.0875
1554.14038	17388.4875
1557.49077	17369.0875
1560.83892	17632.4875
1564.18484	18115.7875
1567.52853	18894.0875
1570.86999	19609.4875
1574.20922	20061.7875
1577.54624	20076.1875
1580.88103	19197.1875
1584.2136	18080.0875
1587.54395	17827.6875
1590.87208	18664.2875
1594.19801	20465.1875
1597.52172	22576.8875
1600.84321	23361.8875
1604.16251	22068.4875
1607.47959	19675.4875
1610.79447	17166.1875
1614.10715	15011.7875
1617.41763	13369.6875
1620.7259	12314.1875
1624.03199	11829.8875
1627.33587	11887.0875
1630.63757	12422.8875
1633.93707	13734.1875
1637.23439	15969.5875
1640.52951	19597.6875
1643.82246	24363.5875
1647.11321	28864.7875
1650.40179	30792.3875
1653.68819	28399.6875
1656.97241	22916.6875
1660.25446	17464.7875
1663.53433	13630.3875
1666.81203	11392.5875
1670.08756	10147.3875
1673.36092	9345.3875
1676.63211	8872.2875
1679.90115	8536.6875
1683.16801	8304.6875
1686.43272	8145.9875
1689.69527	8024.0875
1692.95567	7938.5875
1696.2139	7860.8875
1699.46999	7808.3875
1702.72392	7748.5875
1705.97571	7726.5875
1709.22535	7699.1875
1712.47284	7696.3875
1715.71819	7673.9875
1718.96139	7623.7875
1722.20246	7560.4875
1725.44139	7503.1875
1728.67818	7409.2875
1731.91284	7323.9875
1735.14537	7252.8875
1738.37576	7171.8875
1741.60403	7149.5875
1744.83017	7096.1875
1748.05418	7072.2875
1751.27607	7039.4875
1754.49584	6996.4875
1757.71349	6988.0875
1760.92903	6961.8875
1764.14244	6970.4875
1767.35375	6919.6875
1770.56294	6912.9875
1773.77002	6886.2875
1776.97499	6842.8875
1780.17785	6832.4875
1783.37861	6811.8875
1786.57727	6788.1875
1789.77382	6748.7875
1792.96828	6724.4875
1796.16064	6720.8875
1799.3509	6695.0875
1802.53907	6674.5875
1805.72514	6653.5875
1808.90913	6623.8875
1812.09102	6601.0875
1815.27083	6577.3875
1818.44856	6555.7875
1821.6242	6540.2875
1824.79776	6516.5875
1827.96924	6528.0875
1831.13864	6521.2875
1834.30597	6521.3875
1837.47122	6489.0875
1840.6344	6499.7875
1843.7955	6509.0875
1846.95454	6479.3875
1850.11151	6468.4875
1853.26642	6468.2875
1856.41926	6481.8875
1859.57004	6480.2875
1862.71876	6471.3875
1865.86542	6469.4875
1869.01003	6476.9875
1872.15258	6474.7875
1875.29308	6480.5875
1878.43152	6480.5875
1881.56792	6506.5875
1884.70227	6510.5875
1887.83457	6522.8875
1890.96482	6517.4875
1894.09304	6506.4875
1897.21921	6506.7875
1900.34335	6497.0875
1903.46544	6500.7875
1906.58551	6504.1875
1909.70353	6493.7875
1912.81953	6460.6875
1915.93349	6446.3875
1919.04543	6437.8875
1922.15534	6400.5875
1925.26322	6361.4875
1928.36908	6343.3875
1931.47292	6308.9875
1934.57473	6280.0875
1937.67453	6246.9875
1940.77232	6220.5875
1943.86808	6208.5875
1946.96184	6191.0875
1950.05358	6151.2875
1953.14331	6146.3875
1956.23103	6140.6875
1959.31675	6115.0875
1962.40046	6084.0875
1965.48217	6099.9875
1968.56188	6070.3875
1971.63959	6076.0875
1974.7153	6048.1875
1977.78901	6030.9875
1980.86073	5996.2875
1983.93046	5997.4875
1986.99819	5950.2875
1990.06394	5925.0875
1993.1277	5893.8875
1996.18947	5886.8875
1999.24925	5855.6875
2002.30706	5854.2875
2005.36288	5817.5875
2008.41672	5793.0875
2011.46859	5788.0875
2014.51848	5759.6875
2017.56639	5749.7875
2020.61233	5712.1875
2023.6563	5710.0875
2026.6983	5669.0875
2029.73833	5645.2875
2032.7764	5638.5875
2035.8125	5621.2875
2038.84664	5610.5875
2041.87881	5595.7875
2044.90903	5581.9875
2047.93729	5568.9875
2050.96359	5560.1875
2053.98794	5545.0875
2057.01034	5539.2875
2060.03078	5548.4875
2063.04927	5541.4875
2066.06582	5545.4875
2069.08042	5553.5875
2072.09307	5572.5875
2075.10378	5545.8875
2078.11255	5557.6875
2081.11938	5584.7875
2084.12426	5568.7875
2087.12722	5574.4875
2090.12824	5582.2875
2093.12732	5568.4875
2096.12447	5570.0875
2099.11969	5560.1875
2102.11299	5560.3875
2105.10435	5551.4875
2108.09379	5555.7875
2111.08131	5530.3875
2114.0669	5519.7875
2117.05057	5525.2875
2120.03233	5515.1875
2123.01216	5506.4875
2125.99008	5501.9875
2128.96609	5490.6875
2131.94018	5485.9875
2134.91236	5489.5875
2137.88263	5495.3875
2140.851	5468.3875
2143.81746	5476.9875
2146.78201	5444.1875
2149.74466	5444.3875
2152.7054	5429.6875
2155.66425	5434.2875
2158.6212	5408.9875
2161.57625	5421.9875
2164.52941	5392.9875
2167.48067	5378.9875
2170.43004	5366.7875
2173.37752	5372.9875
2176.32311	5375.8875
2179.26681	5352.6875
2182.20863	5349.2875
2185.14856	5370.8875
2188.08661	5359.8875
2191.02278	5344.5875
2193.95707	5338.3875
2196.88948	5327.7875
2199.82001	5325.6875
2202.74867	5311.7875
2205.67545	5300.7875
2208.60037	5289.6875
2211.52341	5287.8875
2214.44458	5280.0875
2217.36388	5256.6875
2220.28132	5244.9875
2223.1969	5241.9875
2226.11061	5230.7875
2229.02246	5203.8875
2231.93245	5218.4875
2234.84058	5193.3875
2237.74686	5190.3875
2240.65128	5182.6875
2243.55385	5186.4875
2246.45456	5149.0875
2249.35343	5187.4875
2252.25044	5143.6875
2255.14561	5158.8875
2258.03893	5139.8875
2260.93041	5142.1875
2263.82004	5127.3875
2266.70783	5118.7875
2269.59378	5100.5875
2272.4779	5087.8875
2275.36017	5081.6875
2278.24061	5065.9875
2281.11922	5060.7875
2283.996	5059.4875
2286.87094	5032.2875
2289.74405	5015.8875
2292.61534	5017.4875
2295.4848	5003.5875
2298.35243	4977.8875
2301.21824	4979.8875
2304.08223	4998.1875
2306.94439	4986.7875
2309.80474	4984.3875
2312.66327	4995.7875
2315.51999	4988.1875
2318.37489	4981.1875
2321.22797	4992.1875
2324.07925	4971.0875
2326.92871	4972.4875
2329.77637	4969.7875
2332.62222	4964.6875
2335.46626	4964.5875
2338.3085	4961.0875
2341.14893	4961.9875
2343.98756	4989.2875
2346.8244	4983.6875
2349.65943	4977.1875
2352.49267	4987.1875
2355.32411	4995.4875
2358.15376	5012.4875
2360.98161	5017.7875
2363.80768	5026.8875
2366.63195	5034.3875
2369.45444	5017.3875
2372.27514	5031.9875
2375.09405	5010.0875
2377.91118	4991.4875
2380.72652	5013.0875
2383.54009	4981.4875
2386.35187	4960.7875
2389.16188	4912.6875
2391.97011	4894.4875
2394.77657	4878.6875
2397.58125	4872.0875
2400.38416	4864.6875
2403.18529	4842.9875
2405.98466	4843.4875
2408.78226	4828.1875
2411.57809	4812.7875
2414.37216	4810.3875
2417.16446	4806.4875
2419.955	4798.1875
2422.74378	4794.1875
2425.5308	4805.6875
2428.31606	4808.1875
2431.09956	4803.5875
2433.88131	4795.7875
2436.6613	4782.2875
2439.43954	4800.1875
2442.21603	4796.8875
2444.99077	4807.6875
2447.76377	4815.2875
2450.53501	4814.4875
2453.30451	4829.2875
2456.07226	4840.9875
2458.83827	4833.3875
2461.60254	4841.0875
2464.36507	4835.5875
2467.12586	4831.5875
2469.88492	4837.7875
2472.64224	4850.5875
2475.39782	4853.8875
2478.15167	4865.8875
2480.90379	4855.0875
2483.65417	4883.4875
2486.40283	4896.6875
2489.14976	4905.2875
2491.89497	4890.5875
2494.63845	4909.6875
2497.3802	4910.9875
2500.12024	4891.9875
2502.85855	4910.2875
2505.59514	4877.1875
2508.33002	4850.7875
2511.06318	4848.1875
2513.79462	4826.8875
2516.52435	4792.1875
2519.25237	4773.3875
2521.97867	4756.9875
2524.70327	4752.2875
2527.42616	4767.0875
2530.14734	4744.3875
2532.86681	4747.7875
2535.58458	4745.6875
2538.30065	4750.7875
2541.01501	4747.4875
2543.72768	4750.1875
2546.43864	4751.6875
2549.14791	4750.6875
2551.85548	4753.2875
2554.56136	4761.3875
2557.26554	4748.1875
2559.96803	4748.8875
2562.66883	4742.2875
2565.36794	4742.0875
2568.06536	4735.3875
2570.7611	4724.8875
2573.45514	4747.3875
2576.14751	4721.5875
2578.83819	4702.3875
2581.52719	4708.1875
2584.21451	4720.3875
2586.90015	4706.8875
2589.58411	4712.8875
2592.2664	4702.8875
2594.94701	4700.3875
2597.62594	4693.1875
2600.30321	4683.9875
2602.9788	4690.0875
2605.65273	4703.9875
2608.32498	4699.1875
2610.99557	4710.4875
2613.66449	4704.7875
2616.33175	4710.8875
2618.99734	4725.4875
2621.66128	4714.8875
2624.32355	4704.1875
2626.98416	4702.2875
2629.64311	4702.4875
2632.30041	4705.5875
2634.95605	4694.3875
2637.61004	4698.4875
2640.26238	4672.6875
2642.91306	4695.1875
2645.56209	4663.3875
2648.20948	4680.2875
2650.85521	4673.2875
2653.4993	4684.5875
2656.14175	4698.2875
2658.78255	4694.0875
2661.42171	4695.1875
2664.05923	4705.5875
2666.6951	4729.5875
2669.32934	4717.8875
2671.96194	4722.8875
2674.59291	4723.1875
2677.22224	4719.0875
2679.84993	4713.3875
2682.476	4716.0875
2685.10043	4719.1875
2687.72324	4714.9875
2690.34441	4693.8875
2692.96396	4698.9875
2695.58188	4692.0875
2698.19818	4685.8875
2700.81285	4694.3875
2703.4259	4685.9875
2706.03733	4683.6875
2708.64714	4690.0875
2711.25533	4692.5875
2713.86191	4695.6875
2716.46687	4718.4875
2719.07021	4702.1875
2721.67194	4709.7875
2724.27206	4717.3875
2726.87057	4728.1875
2729.46747	4731.0875
2732.06276	4725.9875
2734.65644	4706.9875
2737.24852	4722.1875
2739.83899	4704.7875
2742.42786	4689.4875
2745.01513	4693.6875
2747.60079	4708.2875
2750.18486	4677.3875
2752.76733	4693.0875
2755.3482	4701.6875
2757.92747	4677.6875
2760.50515	4677.4875
2763.08123	4692.0875
2765.65573	4660.1875
2768.22863	4686.1875
2770.79994	4665.7875
2773.36967	4694.2875
2775.9378	4687.7875
2778.50435	4695.1875
2781.06932	4679.5875
2783.6327	4674.6875
2786.1945	4678.8875
2788.75471	4674.6875
2791.31335	4674.9875
2793.87041	4665.2875
2796.42589	4681.0875
2798.97979	4671.0875
2801.53212	4682.3875
2804.08288	4668.5875
2806.63206	4673.5875
2809.17967	4662.0875
2811.72571	4657.9875
2814.27018	4657.7875
2816.81308	4667.0875
2819.35442	4674.4875
2821.89419	4677.1875
2824.43239	4678.3875
2826.96904	4692.3875
2829.50412	4695.2875
2832.03763	4683.5875
2834.56959	4673.7875
2837.1	4670.9875
2839.62884	4673.3875
2842.15613	4677.2875
2844.68186	4682.8875
2847.20604	4694.0875
2849.72867	4707.8875
2852.24974	4723.0875
2854.76927	4724.3875
2857.28724	4745.0875
2859.80367	4729.1875
2862.31855	4733.9875
2864.83189	4741.7875
2867.34368	4753.1875
2869.85393	4767.0875
2872.36264	4763.6875
2874.8698	4774.1875
2877.37543	4782.5875
2879.87952	4773.5875
2882.38207	4771.4875
2884.88308	4777.2875
2887.38256	4771.9875
2889.88051	4772.4875
2892.37692	4778.3875
2894.8718	4779.5875
2897.36515	4767.7875
2899.85698	4778.8875
2902.34727	4782.0875
2904.83604	4778.0875
2907.32328	4792.4875
2909.809	4791.5875
2912.29319	4788.5875
2914.77587	4770.3875
2917.25702	4792.1875
2919.73665	4753.6875
2922.21476	4766.5875
2924.69136	4755.1875
2927.16644	4762.4875
2929.64	4729.7875
2932.11205	4726.2875
2934.58258	4679.1875
2937.05161	4688.2875
2939.51912	4688.2875
2941.98513	4674.5875
2944.44962	4644.3875
2946.91261	4634.8875
2949.37409	4630.0875
2951.83407	4634.2875
2954.29254	4626.7875
2956.74951	4601.1875
2959.20498	4602.9875
2961.65895	4571.3875
2964.11142	4568.4875
2966.56239	4557.0875
2969.01186	4547.6875
2971.45984	4518.7875
2973.90632	4505.3875
2976.35131	4488.7875
2978.7948	4470.6875
2981.23681	4451.7875
2983.67732	4445.8875
2986.11635	4430.9875
2988.55388	4408.3875
2990.98993	4411.3875
2993.4245	4392.0875
2995.85758	4403.2875
2998.28917	4388.7875
3000.71928	4379.2875
3003.14791	4375.9875
3005.57506	4379.3875
3008.00073	4365.1875
3010.42493	4357.9875
3012.84764	4347.4875
3015.26888	4344.4875
3017.68865	4324.9875
3020.10694	4328.2875
3022.52376	4294.2875
3024.9391	4283.1875
3027.35298	4275.5875
3029.76539	4277.5875
3032.17632	4267.6875
3034.5858	4257.3875
3036.9938	4253.5875
3039.40034	4242.1875
3041.80542	4233.0875
3044.20903	4207.6875
3046.61118	4220.6875
3049.01187	4215.4875
3051.4111	4205.7875
3053.80888	4202.8875
3056.20519	4180.0875
3058.60005	4183.2875
3060.99345	4176.1875
3063.3854	4158.4875
3065.7759	4146.7875
3068.16494	4137.4875
3070.55254	4133.0875
3072.93868	4103.9875
3075.32338	4102.6875
3077.70662	4097.2875
3080.08842	4084.3875
3082.46878	4091.5875
3084.84769	4064.1875
3087.22515	4082.8875
3089.60118	4071.8875
