Data from AgNP_FTO_APTES_UA_100uM_CRN_50uM_R6G_10uM_NaF_0.1M_Addition_RamanShift__19__17-30-00-544.txt Node

Date: Thu Mar 24 17:30:00 GMT 2022
User: TCL
Spectrometer: QEP01345
Trigger mode: 4
Integration Time (sec): 7.000000E0
Scans to average: 10
Electric dark correction enabled: true
Nonlinearity correction enabled: false
Boxcar width: 0
XAxis mode: Raman Shifts
Number of Pixels in Spectrum: 1044
>>>>>Begin Spectral Data<<<<<
46.04893	-1.025
50.45542	-0.825
54.85868	-0.425
59.25871	0.175
63.6555	35.375
68.04907	36.875
72.43941	40.275
76.82654	39.675
81.21044	43.675
85.59113	41.175
89.96862	44.475
94.34289	39.875
98.71396	47.375
103.08183	46.375
107.4465	49.275
111.80798	50.375
116.16626	50.275
120.52136	55.275
124.87327	53.675
129.222	57.675
133.56755	63.275
137.90993	62.675
142.24913	73.275
146.58517	81.475
150.91804	97.775
155.24774	115.375
159.57429	140.375
163.89768	178.975
168.21792	247.575
172.53501	340.875
176.84895	475.975
181.15975	668.475
185.46741	946.475
189.77193	1310.375
194.07331	1748.175
198.37157	2262.875
202.6667	2802.275
206.9587	3362.275
211.24758	3892.375
215.53334	4438.975
219.81599	5012.575
224.09553	5658.675
228.37195	6384.375
232.64527	7210.075
236.91549	8034.475
241.18261	8843.175
245.44663	9562.675
249.70755	10174.275
253.96539	10700.975
258.22014	11152.675
262.4718	11513.875
266.72039	11800.475
270.96589	11945.675
275.20832	11977.875
279.44768	11903.675
283.68397	11779.075
287.91719	11713.875
292.14735	11657.075
296.37445	11707.175
300.59849	11856.175
304.81948	12042.375
309.03742	12128.775
313.25231	12082.875
317.46415	11806.075
321.67296	11408.275
325.87872	11039.275
330.08145	10869.775
334.28114	10839.675
338.47781	10943.875
342.67145	11129.975
346.86207	11323.175
351.04966	11629.375
355.23424	11898.675
359.4158	12132.575
363.59435	12246.875
367.76989	12360.675
371.94243	12399.675
376.11196	12417.575
380.27849	12437.875
384.44203	12412.375
388.60257	12464.775
392.76012	12546.675
396.91468	12655.975
401.06626	12837.775
405.21485	12968.575
409.36047	12834.075
413.50311	12537.275
417.64277	12213.775
421.77947	12062.575
425.9132	12053.875
430.04396	12103.275
434.17176	12171.175
438.2966	12271.975
442.41849	12430.275
446.53742	12686.875
450.6534	12953.675
454.76644	13122.675
458.87653	13170.775
462.98368	13127.375
467.08789	13027.975
471.18916	12936.875
475.2875	12769.375
479.38291	12658.575
483.4754	12529.475
487.56496	12391.075
491.6516	12308.775
495.73531	12239.075
499.81612	12201.375
503.89401	12279.575
507.96899	12306.475
512.04106	12366.075
516.11023	12371.175
520.1765	12366.075
524.23987	12333.875
528.30034	12267.975
532.35792	12163.875
536.41261	12093.275
540.46441	11950.975
544.51333	11953.875
548.55936	12053.275
552.60252	12267.875
556.64279	12506.775
560.6802	12631.575
564.71473	12686.975
568.7464	12833.875
572.7752	13107.575
576.80114	13227.775
580.82422	13333.675
584.84444	13483.775
588.86181	13555.075
592.87633	13692.075
596.888	13809.675
600.89682	13917.975
604.9028	14549.975
608.90594	16382.975
612.90624	18588.175
616.90371	17716.375
620.89834	14229.275
624.89015	12565.275
628.87913	12331.175
632.86528	12521.475
636.84862	12736.475
640.82913	12633.575
644.80683	12248.675
648.78172	11932.575
652.75379	11834.575
656.72306	11996.975
660.68952	12282.975
664.65319	12200.675
668.61405	11849.975
672.57211	11731.875
676.52738	11780.775
680.47986	11768.375
684.42955	11669.375
688.37646	11599.675
692.32058	11616.075
696.26192	11708.675
700.20048	11847.275
704.13626	11923.075
708.06928	11930.675
711.99952	11887.075
715.927	11837.675
719.85171	11866.575
723.77365	11855.275
727.69284	11817.475
731.60928	11761.775
735.52295	11729.175
739.43388	11712.075
743.34206	11756.775
747.24749	11788.575
751.15017	11832.175
755.05012	11957.075
758.94733	12293.375
762.8418	13136.775
766.73354	14583.575
770.62254	16029.375
774.50882	16517.275
778.39237	15745.875
782.27321	14232.675
786.15132	12973.475
790.02671	12183.075
793.89938	11759.775
797.76935	11581.675
801.6366	11498.675
805.50115	11479.075
809.36299	11436.675
813.22213	11371.275
817.07857	11379.675
820.93231	11350.975
824.78336	11315.875
828.63172	11280.775
832.47738	11258.875
836.32036	11227.675
840.16066	11202.875
843.99827	11213.075
847.8332	11191.375
851.66546	11204.375
855.49504	11203.275
859.32195	11209.475
863.1462	11201.875
866.96777	11181.575
870.78668	11174.875
874.60293	11207.275
878.41652	11227.775
882.22745	11252.575
886.03573	11307.375
889.84136	11322.675
893.64433	11275.475
897.44466	11208.975
901.24235	11175.075
905.0374	11129.375
908.8298	11096.975
912.61957	11068.875
916.40671	11105.875
920.19121	11188.875
923.97308	11261.275
927.75233	11267.875
931.52895	11205.475
935.30295	11058.975
939.07433	10890.675
942.84309	10726.575
946.60924	10618.775
950.37278	10585.975
954.13371	10568.975
957.89203	10566.175
961.64774	10563.875
965.40086	10543.475
969.15137	10530.275
972.89929	10469.975
976.64461	10435.375
980.38733	10410.475
984.12747	10432.475
987.86502	10477.575
991.59999	10508.975
995.33237	10566.675
999.06217	10708.375
1002.78939	10877.675
1006.51404	11096.775
1010.23611	11244.075
1013.95561	11377.675
1017.67255	11342.975
1021.38692	11272.575
1025.09872	11101.475
1028.80796	10967.975
1032.51465	10879.375
1036.21877	10891.375
1039.92035	10930.775
1043.61937	10989.875
1047.31584	11064.375
1051.00976	11099.575
1054.70114	11148.675
1058.38998	11177.475
1062.07627	11250.375
1065.76003	11336.675
1069.44126	11460.975
1073.11995	11614.875
1076.79611	11757.075
1080.46974	11882.575
1084.14085	11999.675
1087.80943	12125.975
1091.47549	12224.775
1095.13903	12162.075
1098.80005	11983.175
1102.45857	11736.475
1106.11456	11607.275
1109.76805	11564.375
1113.41903	11674.875
1117.06751	11868.375
1120.71348	12139.475
1124.35696	12418.575
1127.99793	12681.475
1131.63641	12737.475
1135.2724	12490.775
1138.90589	12258.675
1142.5369	12070.375
1146.16542	11956.375
1149.79145	11901.675
1153.415	11850.075
1157.03607	11938.275
1160.65467	12133.375
1164.27079	12507.675
1167.88443	13046.975
1171.49561	13810.575
1175.10432	14970.675
1178.71056	16428.875
1182.31434	17704.875
1185.91565	18239.775
1189.51451	18044.475
1193.11091	17467.575
1196.70485	16725.075
1200.29634	15909.475
1203.88538	15292.775
1207.47197	14586.175
1211.05612	13971.175
1214.63782	13548.875
1218.21708	13276.075
1221.79391	13112.475
1225.36829	13060.875
1228.94024	12975.775
1232.50976	12859.575
1236.07685	12765.475
1239.6415	12694.575
1243.20374	12679.775
1246.76355	12700.075
1250.32093	12795.675
1253.8759	12961.275
1257.42845	13248.175
1260.97859	13578.975
1264.52631	13956.775
1268.07163	14307.775
1271.61453	14630.275
1275.15503	14943.975
1278.69312	15150.575
1282.22882	15366.875
1285.76211	15627.375
1289.29301	16065.775
1292.82151	16590.375
1296.34761	17224.675
1299.87133	18056.475
1303.39266	19169.775
1306.9116	20544.475
1310.42815	21905.775
1313.94233	22566.675
1317.45412	22288.675
1320.96354	21497.375
1324.47058	20678.775
1327.97525	19830.575
1331.47754	19208.775
1334.97747	18920.575
1338.47502	18948.175
1341.97022	19214.375
1345.46305	19797.975
1348.95352	20447.475
1352.44163	21225.975
1355.92738	22360.175
1359.41078	24067.575
1362.89183	25772.775
1366.37053	25337.175
1369.84688	22614.475
1373.32088	19581.175
1376.79254	17554.575
1380.26186	16524.475
1383.72883	16010.975
1387.19347	15659.775
1390.65578	15308.475
1394.11575	14986.275
1397.57339	14773.775
1401.0287	14752.475
1404.48168	14748.675
1407.93234	14647.175
1411.38068	14520.575
1414.82669	14297.375
1418.27039	13973.875
1421.71177	13586.675
1425.15083	13236.075
1428.58758	13043.675
1432.02203	13075.875
1435.45416	13195.675
1438.88399	13373.775
1442.31151	13507.975
1445.73673	13676.475
1449.15965	13791.875
1452.58027	13860.975
1455.9986	13920.375
1459.41463	14006.775
1462.82837	14230.275
1466.23982	14625.375
1469.64898	14973.875
1473.05586	15289.375
1476.46045	15460.575
1479.86276	15593.875
1483.26279	15710.875
1486.66054	15911.675
1490.05602	16252.975
1493.44922	16770.375
1496.84016	17601.575
1500.22882	18925.775
1503.61521	20684.175
1506.99934	22434.375
1510.38121	23511.575
1513.76081	23380.775
1517.13816	22005.975
1520.51324	20101.375
1523.88607	18483.975
1527.25665	17503.475
1530.62498	16973.175
1533.99105	16630.175
1537.35488	16309.575
1540.71647	15951.875
1544.07581	15543.675
1547.4329	15150.675
1550.78776	14890.575
1554.14038	14701.675
1557.49077	14725.175
1560.83892	14860.675
1564.18484	15197.475
1567.52853	15547.375
1570.86999	15898.675
1574.20922	16117.875
1577.54624	16104.675
1580.88103	15585.275
1584.2136	14885.275
1587.54395	14541.875
1590.87208	14704.175
1594.19801	15275.375
1597.52172	16018.575
1600.84321	16244.875
1604.16251	15820.775
1607.47959	15078.075
1610.79447	14244.375
1614.10715	13422.775
1617.41763	12665.575
1620.7259	12057.575
1624.03199	11706.675
1627.33587	11620.375
1630.63757	11786.275
1633.93707	12247.675
1637.23439	13148.175
1640.52951	14572.975
1643.82246	16462.275
1647.11321	18366.275
1650.40179	19342.475
1653.68819	18636.675
1656.97241	16547.475
1660.25446	14233.975
1663.53433	12465.075
1666.81203	11346.575
1670.08756	10671.775
1673.36092	10245.075
1676.63211	9972.575
1679.90115	9744.375
1683.16801	9603.875
1686.43272	9473.575
1689.69527	9386.275
1692.95567	9327.675
1696.2139	9275.875
1699.46999	9215.575
1702.72392	9191.475
1705.97571	9147.475
1709.22535	9099.775
1712.47284	9046.375
1715.71819	9048.375
1718.96139	8997.375
1722.20246	8955.275
1725.44139	8902.375
1728.67818	8858.475
1731.91284	8783.175
1735.14537	8736.975
1738.37576	8679.575
1741.60403	8665.475
1744.83017	8616.375
1748.05418	8610.575
1751.27607	8572.075
1754.49584	8518.075
1757.71349	8513.475
1760.92903	8506.175
1764.14244	8514.375
1767.35375	8517.275
1770.56294	8465.475
1773.77002	8417.575
1776.97499	8390.275
1780.17785	8377.975
1783.37861	8382.675
1786.57727	8338.975
1789.77382	8313.975
1792.96828	8310.775
1796.16064	8276.675
1799.3509	8252.575
1802.53907	8248.575
1805.72514	8215.775
1808.90913	8193.075
1812.09102	8191.475
1815.27083	8117.475
1818.44856	8146.175
1821.6242	8113.175
1824.79776	8084.775
1827.96924	8071.475
1831.13864	8073.975
1834.30597	8045.775
1837.47122	8030.575
1840.6344	8020.275
1843.7955	8023.975
1846.95454	7991.175
1850.11151	7982.775
1853.26642	7980.475
1856.41926	7966.875
1859.57004	7957.775
1862.71876	7931.875
1865.86542	7932.575
1869.01003	7943.875
1872.15258	7911.075
1875.29308	7916.275
1878.43152	7894.775
1881.56792	7898.475
1884.70227	7873.575
1887.83457	7873.375
1890.96482	7852.775
1894.09304	7833.975
1897.21921	7829.075
1900.34335	7821.175
1903.46544	7830.175
1906.58551	7791.475
1909.70353	7798.775
1912.81953	7778.475
1915.93349	7761.975
1919.04543	7754.175
1922.15534	7752.075
1925.26322	7698.875
1928.36908	7672.775
1931.47292	7648.075
1934.57473	7637.375
1937.67453	7633.675
1940.77232	7608.575
1943.86808	7596.275
1946.96184	7564.575
1950.05358	7523.575
1953.14331	7521.675
1956.23103	7484.075
1959.31675	7446.775
1962.40046	7432.775
1965.48217	7424.775
1968.56188	7410.775
1971.63959	7379.175
1974.7153	7352.675
1977.78901	7322.075
1980.86073	7296.675
1983.93046	7281.375
1986.99819	7246.475
1990.06394	7229.575
1993.1277	7206.075
1996.18947	7178.775
1999.24925	7158.775
2002.30706	7124.875
2005.36288	7077.975
2008.41672	7066.575
2011.46859	7047.575
2014.51848	7026.175
2017.56639	7018.575
2020.61233	6978.775
2023.6563	6955.175
2026.6983	6922.275
2029.73833	6912.875
2032.7764	6882.575
2035.8125	6878.475
2038.84664	6842.875
2041.87881	6836.875
2044.90903	6818.275
2047.93729	6784.475
2050.96359	6792.575
2053.98794	6767.075
2057.01034	6769.475
2060.03078	6769.175
2063.04927	6748.775
2066.06582	6737.375
2069.08042	6747.375
2072.09307	6715.275
2075.10378	6728.875
2078.11255	6722.775
2081.11938	6719.275
2084.12426	6720.975
2087.12722	6715.575
2090.12824	6703.075
2093.12732	6700.375
2096.12447	6731.775
2099.11969	6701.375
2102.11299	6693.975
2105.10435	6704.875
2108.09379	6700.175
2111.08131	6698.275
2114.0669	6719.775
2117.05057	6715.375
2120.03233	6749.175
2123.01216	6712.575
2125.99008	6720.875
2128.96609	6715.275
2131.94018	6721.475
2134.91236	6722.275
2137.88263	6715.375
2140.851	6721.875
2143.81746	6734.975
2146.78201	6690.175
2149.74466	6686.275
2152.7054	6710.475
2155.66425	6688.475
2158.6212	6684.275
2161.57625	6677.075
2164.52941	6673.975
2167.48067	6662.475
2170.43004	6664.875
2173.37752	6663.575
2176.32311	6651.075
2179.26681	6655.475
2182.20863	6657.175
2185.14856	6662.675
2188.08661	6629.675
2191.02278	6625.675
2193.95707	6624.375
2196.88948	6618.375
2199.82001	6622.075
2202.74867	6618.275
2205.67545	6605.175
2208.60037	6617.875
2211.52341	6570.875
2214.44458	6563.675
2217.36388	6535.575
2220.28132	6534.075
2223.1969	6505.775
2226.11061	6500.575
2229.02246	6491.975
2231.93245	6471.575
2234.84058	6453.975
2237.74686	6458.075
2240.65128	6440.575
2243.55385	6413.675
2246.45456	6414.775
2249.35343	6407.875
2252.25044	6406.075
2255.14561	6396.175
2258.03893	6388.875
2260.93041	6372.775
2263.82004	6362.375
2266.70783	6345.375
2269.59378	6324.475
2272.4779	6301.775
2275.36017	6288.575
2278.24061	6296.175
2281.11922	6270.075
2283.996	6255.975
2286.87094	6257.575
2289.74405	6238.775
2292.61534	6205.775
2295.4848	6212.275
2298.35243	6200.275
2301.21824	6207.875
2304.08223	6189.075
2306.94439	6196.975
2309.80474	6182.275
2312.66327	6164.675
2315.51999	6155.775
2318.37489	6150.975
2321.22797	6118.175
2324.07925	6131.675
2326.92871	6137.375
2329.77637	6123.275
2332.62222	6115.775
2335.46626	6097.475
2338.3085	6076.375
2341.14893	6098.375
2343.98756	6076.975
2346.8244	6086.375
2349.65943	6080.475
2352.49267	6093.575
2355.32411	6083.275
2358.15376	6078.475
2360.98161	6085.275
2363.80768	6094.775
2366.63195	6094.575
2369.45444	6100.975
2372.27514	6071.975
2375.09405	6068.875
2377.91118	6053.975
2380.72652	6039.275
2383.54009	6015.575
2386.35187	6013.075
2389.16188	5981.475
2391.97011	5972.975
2394.77657	5943.575
2397.58125	5933.875
2400.38416	5905.575
2403.18529	5904.375
2405.98466	5904.575
2408.78226	5884.375
2411.57809	5862.875
2414.37216	5836.175
2417.16446	5861.175
2419.955	5841.275
2422.74378	5845.875
2425.5308	5834.575
2428.31606	5835.975
2431.09956	5835.675
2433.88131	5817.475
2436.6613	5832.175
2439.43954	5833.075
2442.21603	5797.275
2444.99077	5801.675
2447.76377	5802.075
2450.53501	5780.475
2453.30451	5796.575
2456.07226	5792.075
2458.83827	5787.975
2461.60254	5787.175
2464.36507	5764.375
2467.12586	5774.675
2469.88492	5753.275
2472.64224	5779.475
2475.39782	5788.675
2478.15167	5782.675
2480.90379	5765.075
2483.65417	5782.375
2486.40283	5789.075
2489.14976	5776.675
2491.89497	5780.375
2494.63845	5797.875
2497.3802	5789.475
2500.12024	5776.475
2502.85855	5752.075
2505.59514	5734.075
2508.33002	5728.875
2511.06318	5718.475
2513.79462	5694.275
2516.52435	5682.775
2519.25237	5699.675
2521.97867	5668.275
2524.70327	5680.975
2527.42616	5648.875
2530.14734	5641.875
2532.86681	5634.775
2535.58458	5641.975
2538.30065	5619.375
2541.01501	5622.075
2543.72768	5616.475
2546.43864	5601.275
2549.14791	5609.575
2551.85548	5597.275
2554.56136	5566.975
2557.26554	5552.075
2559.96803	5539.775
2562.66883	5540.375
2565.36794	5526.675
2568.06536	5531.575
2570.7611	5502.475
2573.45514	5488.375
2576.14751	5489.375
2578.83819	5486.575
2581.52719	5481.175
2584.21451	5469.975
2586.90015	5455.675
2589.58411	5463.475
2592.2664	5470.475
2594.94701	5447.375
2597.62594	5436.375
2600.30321	5420.175
2602.9788	5417.875
2605.65273	5398.475
2608.32498	5416.075
2610.99557	5407.675
2613.66449	5406.975
2616.33175	5395.175
2618.99734	5392.675
2621.66128	5386.175
2624.32355	5365.575
2626.98416	5361.575
2629.64311	5350.875
2632.30041	5348.675
2634.95605	5343.575
2637.61004	5346.075
2640.26238	5330.075
2642.91306	5337.575
2645.56209	5324.575
2648.20948	5314.175
2650.85521	5314.775
2653.4993	5322.175
2656.14175	5313.875
2658.78255	5339.175
2661.42171	5329.275
2664.05923	5344.275
2666.6951	5315.175
2669.32934	5340.775
2671.96194	5346.175
2674.59291	5333.975
2677.22224	5333.275
2679.84993	5348.675
2682.476	5307.975
2685.10043	5321.475
2687.72324	5301.375
2690.34441	5311.375
2692.96396	5310.575
2695.58188	5332.275
2698.19818	5321.475
2700.81285	5316.275
2703.4259	5319.575
2706.03733	5302.375
2708.64714	5317.475
2711.25533	5318.975
2713.86191	5300.675
2716.46687	5334.775
2719.07021	5316.675
2721.67194	5329.675
2724.27206	5339.575
2726.87057	5314.375
2729.46747	5310.375
2732.06276	5312.275
2734.65644	5312.075
2737.24852	5308.175
2739.83899	5285.175
2742.42786	5294.775
2745.01513	5278.675
2747.60079	5266.475
2750.18486	5255.075
2752.76733	5253.075
2755.3482	5255.175
2757.92747	5235.175
2760.50515	5229.875
2763.08123	5235.475
2765.65573	5218.775
2768.22863	5241.475
2770.79994	5213.075
2773.36967	5237.475
2775.9378	5213.475
2778.50435	5200.675
2781.06932	5179.775
2783.6327	5204.375
2786.1945	5198.575
2788.75471	5183.875
2791.31335	5187.475
2793.87041	5189.075
2796.42589	5160.675
2798.97979	5167.975
2801.53212	5137.875
2804.08288	5145.175
2806.63206	5142.575
2809.17967	5116.875
2811.72571	5131.375
2814.27018	5102.375
2816.81308	5108.475
2819.35442	5099.675
2821.89419	5092.475
2824.43239	5098.775
2826.96904	5096.775
2829.50412	5056.975
2832.03763	5069.275
2834.56959	5058.075
2837.1	5053.675
2839.62884	5081.475
2842.15613	5075.075
2844.68186	5072.575
2847.20604	5084.675
2849.72867	5073.475
2852.24974	5084.375
2854.76927	5072.975
2857.28724	5064.175
2859.80367	5082.175
2862.31855	5063.975
2864.83189	5074.375
2867.34368	5062.275
2869.85393	5058.375
2872.36264	5058.975
2874.8698	5067.075
2877.37543	5047.275
2879.87952	5056.975
2882.38207	5063.275
2884.88308	5044.175
2887.38256	5052.475
2889.88051	5046.275
2892.37692	5033.175
2894.8718	5052.475
2897.36515	5053.775
2899.85698	5046.375
2902.34727	5051.775
2904.83604	5039.075
2907.32328	5065.475
2909.809	5055.375
2912.29319	5073.675
2914.77587	5081.575
2917.25702	5048.475
2919.73665	5060.175
2922.21476	5056.975
2924.69136	5055.575
2927.16644	5036.475
2929.64	5036.175
2932.11205	5011.175
2934.58258	5015.275
2937.05161	5002.875
2939.51912	4999.675
2941.98513	4992.975
2944.44962	4971.275
2946.91261	4956.275
2949.37409	4949.175
2951.83407	4944.975
2954.29254	4961.575
2956.74951	4949.475
2959.20498	4953.075
2961.65895	4949.275
2964.11142	4936.275
2966.56239	4910.675
2969.01186	4938.575
2971.45984	4899.475
2973.90632	4903.775
2976.35131	4870.375
2978.7948	4883.175
2981.23681	4856.175
2983.67732	4865.375
2986.11635	4844.275
2988.55388	4830.175
2990.98993	4818.675
2993.4245	4818.075
2995.85758	4818.375
2998.28917	4815.775
3000.71928	4788.675
3003.14791	4789.275
3005.57506	4780.175
3008.00073	4778.375
3010.42493	4776.775
3012.84764	4771.975
3015.26888	4755.075
3017.68865	4756.875
3020.10694	4766.275
3022.52376	4735.075
3024.9391	4721.375
3027.35298	4730.775
3029.76539	4721.975
3032.17632	4703.875
3034.5858	4703.775
3036.9938	4696.775
3039.40034	4694.275
3041.80542	4693.375
3044.20903	4682.975
3046.61118	4667.875
3049.01187	4665.975
3051.4111	4664.075
3053.80888	4650.475
3056.20519	4625.075
3058.60005	4642.275
3060.99345	4635.975
3063.3854	4629.575
3065.7759	4622.275
3068.16494	4604.075
3070.55254	4569.075
3072.93868	4580.875
3075.32338	4580.775
3077.70662	4564.575
3080.08842	4566.275
3082.46878	4577.375
3084.84769	4542.875
3087.22515	4558.475
3089.60118	4549.975
3091.97576	4555.375
3094.3489	4559.375
3096.72061	4567.075
3099.09087	4546.875
3101.4597	4559.175
3103.82709	4567.675
3106.19305	4544.075
3108.55757	4566.775
3110.92066	4544.075
3113.28232	4541.275
3115.64255	4541.775
3118.00134	4529.175
3120.35871	4521.275
3122.71466	4511.175
3125.06917	4496.975
3127.42226	4491.675
3129.77393	4491.875
3132.12417	4502.875
3134.47299	4497.175
3136.82039	4501.375
3139.16636	4479.775
3141.51092	4480.475
3143.85406	4478.475
3146.19579	4485.475
3148.53609	4510.975
3150.87499	4514.175
3153.21246	4521.475
3155.54853	4531.875
3157.88318	4540.575
3160.21642	4534.875
3162.54826	4519.875
3164.87868	4519.175
3167.2077	4538.275
3169.5353	4531.475
3171.86151	4541.175
3174.18631	4537.575
3176.5097	4532.875
3178.83169	4527.175
3181.15228	4528.775
3183.47147	4526.975
3185.78926	4531.375
3188.10565	4530.175
3190.42065	4514.375
