Data from AgNP_FTO_APTES_UA_100uM_CRN_5uM_R6G_10uM_NaF_0.1M_Addition_RamanShift__14__14-54-50-369.txt Node

Date: Thu Mar 24 14:54:50 GMT 2022
User: TCL
Spectrometer: QEP01345
Trigger mode: 4
Integration Time (sec): 7.000000E0
Scans to average: 10
Electric dark correction enabled: true
Nonlinearity correction enabled: false
Boxcar width: 0
XAxis mode: Raman Shifts
Number of Pixels in Spectrum: 1044
>>>>>Begin Spectral Data<<<<<
46.04893	-0.975
50.45542	0.125
54.85868	-0.675
59.25871	-0.075
63.6555	25.625
68.04907	30.025
72.43941	30.125
76.82654	27.925
81.21044	37.025
85.59113	35.225
89.96862	38.125
94.34289	34.325
98.71396	40.725
103.08183	37.725
107.4465	37.325
111.80798	41.125
116.16626	41.325
120.52136	40.625
124.87327	40.725
129.222	43.925
133.56755	46.225
137.90993	46.325
142.24913	56.825
146.58517	59.325
150.91804	68.725
155.24774	83.525
159.57429	103.025
163.89768	129.525
168.21792	171.025
172.53501	232.425
176.84895	319.925
181.15975	456.925
185.46741	639.625
189.77193	889.725
194.07331	1190.325
198.37157	1545.525
202.6667	1911.125
206.9587	2283.125
211.24758	2668.425
215.53334	3047.425
219.81599	3464.925
224.09553	3941.525
228.37195	4433.625
232.64527	5002.625
236.91549	5556.125
241.18261	6114.325
245.44663	6580.625
249.70755	6950.025
253.96539	7274.925
258.22014	7516.025
262.4718	7762.125
266.72039	7921.725
270.96589	8000.625
275.20832	7983.525
279.44768	7861.025
283.68397	7727.725
287.91719	7625.225
292.14735	7597.525
296.37445	7683.325
300.59849	7848.425
304.81948	8083.925
309.03742	8289.825
313.25231	8301.925
317.46415	8116.125
321.67296	7695.225
325.87872	7358.325
330.08145	7165.925
334.28114	7160.125
338.47781	7257.425
342.67145	7380.925
346.86207	7635.525
351.04966	7926.425
355.23424	8287.725
359.4158	8562.125
363.59435	8695.325
367.76989	8776.125
371.94243	8743.425
376.11196	8727.025
380.27849	8699.925
384.44203	8658.225
388.60257	8623.925
392.76012	8653.925
396.91468	8702.125
401.06626	8893.925
405.21485	8996.225
409.36047	8912.325
413.50311	8552.425
417.64277	8191.725
421.77947	8012.925
425.9132	7928.825
430.04396	7921.925
434.17176	7932.625
438.2966	7982.125
442.41849	8087.525
446.53742	8241.725
450.6534	8386.625
454.76644	8472.325
458.87653	8508.825
462.98368	8486.525
467.08789	8428.125
471.18916	8341.125
475.2875	8186.025
479.38291	8091.125
483.4754	7983.025
487.56496	7932.025
491.6516	7912.725
495.73531	7916.525
499.81612	7936.425
503.89401	8029.025
507.96899	8092.825
512.04106	8166.925
516.11023	8271.425
520.1765	8302.325
524.23987	8338.325
528.30034	8279.225
532.35792	8191.225
536.41261	8087.825
540.46441	7977.825
544.51333	7913.725
548.55936	7939.225
552.60252	8076.325
556.64279	8208.725
560.6802	8271.625
564.71473	8325.325
568.7464	8474.325
572.7752	8616.325
576.80114	8519.325
580.82422	8441.625
584.84444	8516.625
588.86181	8573.025
592.87633	8597.125
596.888	8634.825
600.89682	8810.025
604.9028	9531.825
608.90594	11515.625
612.90624	14124.225
616.90371	13736.425
620.89834	10278.625
624.89015	8530.625
628.87913	8186.725
632.86528	8330.125
636.84862	8499.525
640.82913	8457.925
644.80683	8168.825
648.78172	7925.025
652.75379	7923.825
656.72306	8157.225
660.68952	8474.125
664.65319	8428.625
668.61405	8107.925
672.57211	7992.425
676.52738	7961.425
680.47986	7964.125
684.42955	7880.225
688.37646	7801.725
692.32058	7833.725
696.26192	7897.525
700.20048	7993.225
704.13626	8035.525
708.06928	8039.925
711.99952	7974.425
715.927	7975.425
719.85171	7983.025
723.77365	8007.225
727.69284	7968.625
731.60928	7926.225
735.52295	7896.925
739.43388	7907.525
743.34206	7935.325
747.24749	7928.025
751.15017	7943.525
755.05012	8012.925
758.94733	8303.725
762.8418	8978.925
766.73354	10251.825
770.62254	11544.925
774.50882	12125.525
778.39237	11729.925
782.27321	10534.825
786.15132	9304.625
790.02671	8536.525
793.89938	8130.825
797.76935	7957.125
801.6366	7847.925
805.50115	7843.225
809.36299	7798.425
813.22213	7748.025
817.07857	7748.025
820.93231	7710.525
824.78336	7716.625
828.63172	7730.425
832.47738	7750.225
836.32036	7738.225
840.16066	7692.325
843.99827	7686.025
847.8332	7666.425
851.66546	7687.125
855.49504	7699.725
859.32195	7681.725
863.1462	7678.225
866.96777	7684.025
870.78668	7690.125
874.60293	7692.525
878.41652	7717.825
882.22745	7761.025
886.03573	7799.925
889.84136	7793.425
893.64433	7767.125
897.44466	7741.825
901.24235	7721.025
905.0374	7686.525
908.8298	7667.325
912.61957	7618.525
916.40671	7616.325
920.19121	7627.725
923.97308	7690.425
927.75233	7787.725
931.52895	7844.125
935.30295	7801.425
939.07433	7634.325
942.84309	7483.925
946.60924	7391.625
950.37278	7340.125
954.13371	7332.325
957.89203	7327.725
961.64774	7313.525
965.40086	7309.325
969.15137	7274.125
972.89929	7272.325
976.64461	7277.525
980.38733	7281.325
984.12747	7283.225
987.86502	7296.525
991.59999	7333.225
995.33237	7365.125
999.06217	7426.525
1002.78939	7541.925
1006.51404	7669.325
1010.23611	7793.325
1013.95561	7887.725
1017.67255	7863.525
1021.38692	7819.425
1025.09872	7705.225
1028.80796	7616.725
1032.51465	7560.425
1036.21877	7587.225
1039.92035	7651.525
1043.61937	7690.825
1047.31584	7728.225
1051.00976	7753.925
1054.70114	7782.725
1058.38998	7783.325
1062.07627	7806.825
1065.76003	7846.125
1069.44126	7897.125
1073.11995	8064.425
1076.79611	8215.225
1080.46974	8369.725
1084.14085	8513.625
1087.80943	8680.525
1091.47549	8723.725
1095.13903	8637.225
1098.80005	8458.425
1102.45857	8287.025
1106.11456	8212.625
1109.76805	8211.825
1113.41903	8276.725
1117.06751	8465.425
1120.71348	8698.225
1124.35696	9007.325
1127.99793	9258.425
1131.63641	9272.325
1135.2724	8947.325
1138.90589	8647.825
1142.5369	8463.225
1146.16542	8293.225
1149.79145	8173.825
1153.415	8123.625
1157.03607	8159.425
1160.65467	8262.625
1164.27079	8501.925
1167.88443	8890.825
1171.49561	9432.225
1175.10432	10287.525
1178.71056	11475.025
1182.31434	12481.025
1185.91565	12814.725
1189.51451	12573.725
1193.11091	12029.725
1196.70485	11334.825
1200.29634	10731.925
1203.88538	10212.025
1207.47197	9667.725
1211.05612	9139.925
1214.63782	8835.025
1218.21708	8659.225
1221.79391	8567.825
1225.36829	8564.025
1228.94024	8562.025
1232.50976	8534.425
1236.07685	8513.825
1239.6415	8511.425
1243.20374	8527.925
1246.76355	8576.525
1250.32093	8644.825
1253.8759	8737.525
1257.42845	8941.225
1260.97859	9170.125
1264.52631	9466.625
1268.07163	9764.025
1271.61453	10044.025
1275.15503	10226.025
1278.69312	10309.325
1282.22882	10396.625
1285.76211	10568.325
1289.29301	10868.125
1292.82151	11167.925
1296.34761	11465.725
1299.87133	11955.525
1303.39266	12790.925
1306.9116	14044.725
1310.42815	15389.825
1313.94233	16033.225
1317.45412	15520.725
1320.96354	14459.625
1324.47058	13457.125
1327.97525	12596.525
1331.47754	11989.525
1334.97747	11722.525
1338.47502	11765.325
1341.97022	11933.225
1345.46305	12501.925
1348.95352	13375.325
1352.44163	14465.025
1355.92738	15762.025
1359.41078	17562.825
1362.89183	19414.525
1366.37053	19028.125
1369.84688	16269.825
1373.32088	13440.325
1376.79254	11728.325
1380.26186	10769.225
1383.72883	10259.325
1387.19347	9825.025
1390.65578	9426.725
1394.11575	9124.225
1397.57339	8940.825
1401.0287	8800.125
1404.48168	8739.425
1407.93234	8712.025
1411.38068	8753.125
1414.82669	8802.525
1418.27039	8834.225
1421.71177	8811.525
1425.15083	8740.125
1428.58758	8658.925
1432.02203	8645.825
1435.45416	8739.625
1438.88399	8797.725
1442.31151	8803.525
1445.73673	8853.925
1449.15965	8891.525
1452.58027	8905.825
1455.9986	8868.925
1459.41463	8904.725
1462.82837	9018.625
1466.23982	9212.225
1469.64898	9454.125
1473.05586	9667.925
1476.46045	9800.725
1479.86276	9959.725
1483.26279	10143.525
1486.66054	10400.925
1490.05602	10784.025
1493.44922	11399.625
1496.84016	12361.825
1500.22882	13797.125
1503.61521	15749.525
1506.99934	17850.925
1510.38121	19321.925
1513.76081	19363.025
1517.13816	17755.625
1520.51324	15330.525
1523.88607	13198.225
1527.25665	11805.125
1530.62498	11025.725
1533.99105	10559.625
1537.35488	10245.425
1540.71647	10036.925
1544.07581	9892.825
1547.4329	9780.325
1550.78776	9699.925
1554.14038	9735.325
1557.49077	9840.625
1560.83892	10013.325
1564.18484	10327.325
1567.52853	10781.825
1570.86999	11168.525
1574.20922	11380.125
1577.54624	11278.025
1580.88103	10680.725
1584.2136	9915.825
1587.54395	9397.325
1590.87208	9334.325
1594.19801	9601.025
1597.52172	10166.925
1600.84321	10376.625
1604.16251	10191.925
1607.47959	9796.625
1610.79447	9394.725
1614.10715	8958.425
1617.41763	8497.525
1620.7259	8153.825
1624.03199	7966.425
1627.33587	7942.725
1630.63757	8043.425
1633.93707	8339.025
1637.23439	8861.925
1640.52951	9751.525
1643.82246	11053.225
1647.11321	12678.825
1650.40179	13848.125
1653.68819	13631.325
1656.97241	12020.725
1660.25446	10176.025
1663.53433	8781.625
1666.81203	8002.525
1670.08756	7499.225
1673.36092	7261.425
1676.63211	7068.925
1679.90115	6955.525
1683.16801	6848.425
1686.43272	6767.425
1689.69527	6731.225
1692.95567	6700.025
1696.2139	6664.325
1699.46999	6663.725
1702.72392	6633.725
1705.97571	6629.425
1709.22535	6597.425
1712.47284	6601.325
1715.71819	6606.625
1718.96139	6577.225
1722.20246	6559.325
1725.44139	6537.025
1728.67818	6493.725
1731.91284	6446.425
1735.14537	6383.925
1738.37576	6367.925
1741.60403	6346.625
1744.83017	6325.725
1748.05418	6298.625
1751.27607	6294.325
1754.49584	6278.625
1757.71349	6259.825
1760.92903	6268.725
1764.14244	6260.825
1767.35375	6250.625
1770.56294	6211.725
1773.77002	6210.925
1776.97499	6183.725
1780.17785	6172.125
1783.37861	6158.225
1786.57727	6125.925
1789.77382	6126.325
1792.96828	6108.425
1796.16064	6087.025
1799.3509	6079.625
1802.53907	6074.225
1805.72514	6030.425
1808.90913	6019.925
1812.09102	6013.325
1815.27083	5992.325
1818.44856	5980.125
1821.6242	5969.025
1824.79776	5973.525
1827.96924	5955.125
1831.13864	5956.225
1834.30597	5940.225
1837.47122	5944.225
1840.6344	5935.325
1843.7955	5909.625
1846.95454	5920.625
1850.11151	5906.025
1853.26642	5893.125
1856.41926	5889.225
1859.57004	5870.425
1862.71876	5881.925
1865.86542	5874.425
1869.01003	5884.125
1872.15258	5869.825
1875.29308	5858.725
1878.43152	5824.425
1881.56792	5842.925
1884.70227	5834.325
1887.83457	5838.025
1890.96482	5803.925
1894.09304	5809.225
1897.21921	5805.125
1900.34335	5794.425
1903.46544	5788.325
1906.58551	5797.225
1909.70353	5784.025
1912.81953	5769.125
1915.93349	5750.125
1919.04543	5747.425
1922.15534	5739.625
1925.26322	5734.425
1928.36908	5693.825
1931.47292	5685.425
1934.57473	5668.025
1937.67453	5639.625
1940.77232	5632.125
1943.86808	5637.925
1946.96184	5599.425
1950.05358	5594.025
1953.14331	5570.425
1956.23103	5567.425
1959.31675	5552.925
1962.40046	5532.825
1965.48217	5520.925
1968.56188	5497.825
1971.63959	5479.825
1974.7153	5467.525
1977.78901	5455.525
1980.86073	5426.425
1983.93046	5423.725
1986.99819	5395.525
1990.06394	5367.025
1993.1277	5363.125
1996.18947	5345.525
1999.24925	5294.425
2002.30706	5299.025
2005.36288	5280.125
2008.41672	5279.425
2011.46859	5255.325
2014.51848	5235.025
2017.56639	5226.325
2020.61233	5190.225
2023.6563	5197.325
2026.6983	5165.925
2029.73833	5150.725
2032.7764	5137.925
2035.8125	5138.025
2038.84664	5113.725
2041.87881	5120.125
2044.90903	5101.825
2047.93729	5092.825
2050.96359	5077.025
2053.98794	5079.325
2057.01034	5084.825
2060.03078	5074.125
2063.04927	5053.825
2066.06582	5056.925
2069.08042	5052.025
2072.09307	5037.125
2075.10378	5034.925
2078.11255	5029.925
2081.11938	5039.725
2084.12426	5027.625
2087.12722	5034.525
2090.12824	5054.625
2093.12732	5044.825
2096.12447	5030.925
2099.11969	5025.425
2102.11299	5047.625
2105.10435	5049.425
2108.09379	5039.625
2111.08131	5038.225
2114.0669	5041.425
2117.05057	5040.425
2120.03233	5045.125
2123.01216	5056.425
2125.99008	5048.125
2128.96609	5056.125
2131.94018	5060.925
2134.91236	5058.125
2137.88263	5082.825
2140.851	5065.425
2143.81746	5074.925
2146.78201	5078.725
2149.74466	5067.425
2152.7054	5063.925
2155.66425	5048.125
2158.6212	5082.325
2161.57625	5065.625
2164.52941	5038.825
2167.48067	5031.225
2170.43004	5041.525
2173.37752	5051.925
2176.32311	5031.125
2179.26681	5030.725
2182.20863	5032.125
2185.14856	5024.925
2188.08661	5003.425
2191.02278	5001.625
2193.95707	5003.025
2196.88948	5009.325
2199.82001	5013.425
2202.74867	4989.425
2205.67545	4977.125
2208.60037	4974.625
2211.52341	4971.125
2214.44458	4978.225
2217.36388	4952.625
2220.28132	4932.525
2223.1969	4940.725
2226.11061	4929.025
2229.02246	4907.025
2231.93245	4905.725
2234.84058	4881.725
2237.74686	4894.825
2240.65128	4873.525
2243.55385	4867.025
2246.45456	4875.325
2249.35343	4852.025
2252.25044	4860.225
2255.14561	4849.925
2258.03893	4850.225
2260.93041	4844.125
2263.82004	4850.125
2266.70783	4811.125
2269.59378	4815.825
2272.4779	4812.325
2275.36017	4785.925
2278.24061	4798.725
2281.11922	4773.925
2283.996	4778.325
2286.87094	4752.125
2289.74405	4750.125
2292.61534	4741.125
2295.4848	4737.725
2298.35243	4714.825
2301.21824	4713.025
2304.08223	4704.025
2306.94439	4705.725
2309.80474	4695.825
2312.66327	4692.725
2315.51999	4688.325
2318.37489	4687.525
2321.22797	4674.525
2324.07925	4682.125
2326.92871	4643.825
2329.77637	4684.025
2332.62222	4659.725
2335.46626	4647.925
2338.3085	4641.925
2341.14893	4625.825
2343.98756	4647.125
2346.8244	4638.425
2349.65943	4628.025
2352.49267	4645.325
2355.32411	4646.425
2358.15376	4647.825
2360.98161	4645.925
2363.80768	4650.725
2366.63195	4655.725
2369.45444	4651.825
2372.27514	4662.325
2375.09405	4640.025
2377.91118	4618.125
2380.72652	4626.525
2383.54009	4594.425
2386.35187	4592.725
2389.16188	4570.525
2391.97011	4554.725
2394.77657	4539.325
2397.58125	4543.125
2400.38416	4515.025
2403.18529	4501.625
2405.98466	4502.125
2408.78226	4494.125
2411.57809	4498.525
2414.37216	4467.625
2417.16446	4475.825
2419.955	4453.425
2422.74378	4475.125
2425.5308	4453.825
2428.31606	4453.225
2431.09956	4472.925
2433.88131	4465.825
2436.6613	4438.625
2439.43954	4452.325
2442.21603	4456.925
2444.99077	4448.625
2447.76377	4460.625
2450.53501	4437.525
2453.30451	4438.725
2456.07226	4444.025
2458.83827	4419.925
2461.60254	4448.425
2464.36507	4435.225
2467.12586	4441.025
2469.88492	4444.425
2472.64224	4428.725
2475.39782	4434.925
2478.15167	4423.325
2480.90379	4410.625
2483.65417	4427.425
2486.40283	4436.525
2489.14976	4436.825
2491.89497	4431.225
2494.63845	4416.425
2497.3802	4425.125
2500.12024	4421.925
2502.85855	4413.225
2505.59514	4419.525
2508.33002	4393.225
2511.06318	4389.325
2513.79462	4365.825
2516.52435	4350.225
2519.25237	4345.225
2521.97867	4331.425
2524.70327	4330.125
2527.42616	4321.625
2530.14734	4303.525
2532.86681	4296.325
2535.58458	4287.225
2538.30065	4290.125
2541.01501	4288.625
2543.72768	4278.725
2546.43864	4276.625
2549.14791	4261.425
2551.85548	4249.525
2554.56136	4271.025
2557.26554	4261.425
2559.96803	4258.125
2562.66883	4254.425
2565.36794	4246.125
2568.06536	4242.025
2570.7611	4226.425
2573.45514	4229.425
2576.14751	4216.425
2578.83819	4205.525
2581.52719	4206.525
2584.21451	4191.425
2586.90015	4165.825
2589.58411	4165.425
2592.2664	4147.525
2594.94701	4166.625
2597.62594	4139.325
2600.30321	4139.725
2602.9788	4125.925
2605.65273	4121.125
2608.32498	4121.025
2610.99557	4109.725
2613.66449	4110.225
2616.33175	4105.925
2618.99734	4102.525
2621.66128	4099.425
2624.32355	4091.125
2626.98416	4066.725
2629.64311	4076.225
2632.30041	4071.325
2634.95605	4081.825
2637.61004	4052.625
2640.26238	4032.025
2642.91306	4053.725
2645.56209	4034.325
2648.20948	4027.825
2650.85521	4036.025
2653.4993	4029.225
2656.14175	4035.725
2658.78255	4031.425
2661.42171	4041.425
2664.05923	4042.925
2666.6951	4033.925
2669.32934	4047.025
2671.96194	4037.825
2674.59291	4030.525
2677.22224	4030.925
2679.84993	4031.525
2682.476	4027.225
2685.10043	4025.025
2687.72324	4029.925
2690.34441	4033.925
2692.96396	4038.525
2695.58188	4041.825
2698.19818	4016.525
2700.81285	4019.725
2703.4259	4031.825
2706.03733	4045.025
2708.64714	4018.225
2711.25533	4039.225
2713.86191	4015.925
2716.46687	4036.825
2719.07021	4045.525
2721.67194	4025.825
2724.27206	4023.025
2726.87057	4023.025
2729.46747	4012.825
2732.06276	4020.425
2734.65644	4014.325
2737.24852	3996.225
2739.83899	3985.025
2742.42786	4002.525
2745.01513	3967.825
2747.60079	3979.425
2750.18486	3968.325
2752.76733	3979.125
2755.3482	3978.425
2757.92747	3961.725
2760.50515	3946.625
2763.08123	3953.425
2765.65573	3943.825
2768.22863	3940.725
2770.79994	3914.725
2773.36967	3915.825
2775.9378	3919.125
2778.50435	3916.625
2781.06932	3900.725
2783.6327	3892.025
2786.1945	3899.325
2788.75471	3878.925
2791.31335	3871.725
2793.87041	3882.725
2796.42589	3870.425
2798.97979	3880.325
2801.53212	3862.925
2804.08288	3858.225
2806.63206	3845.025
2809.17967	3855.725
2811.72571	3850.725
2814.27018	3859.025
2816.81308	3847.825
2819.35442	3847.525
2821.89419	3844.825
2824.43239	3839.825
2826.96904	3829.625
2829.50412	3840.725
2832.03763	3830.825
2834.56959	3836.225
2837.1	3814.625
2839.62884	3821.725
2842.15613	3819.125
2844.68186	3822.425
2847.20604	3816.325
2849.72867	3803.025
2852.24974	3805.525
2854.76927	3809.925
2857.28724	3818.325
2859.80367	3825.625
2862.31855	3800.925
2864.83189	3805.325
2867.34368	3817.125
2869.85393	3816.225
2872.36264	3807.625
2874.8698	3816.625
2877.37543	3814.725
2879.87952	3817.325
2882.38207	3811.525
2884.88308	3795.825
2887.38256	3792.625
2889.88051	3794.725
2892.37692	3786.825
2894.8718	3785.025
2897.36515	3792.725
2899.85698	3781.425
2902.34727	3795.025
2904.83604	3800.225
2907.32328	3811.725
2909.809	3807.525
2912.29319	3794.825
2914.77587	3801.225
2917.25702	3800.125
2919.73665	3802.425
2922.21476	3801.825
2924.69136	3786.025
2927.16644	3779.125
2929.64	3768.225
2932.11205	3773.225
2934.58258	3754.125
2937.05161	3752.125
2939.51912	3752.825
2941.98513	3752.325
2944.44962	3758.825
2946.91261	3730.525
2949.37409	3745.325
2951.83407	3742.325
2954.29254	3735.325
2956.74951	3730.825
2959.20498	3720.825
2961.65895	3697.825
2964.11142	3708.425
2966.56239	3707.925
2969.01186	3718.525
2971.45984	3696.625
2973.90632	3683.525
2976.35131	3683.425
2978.7948	3679.225
2981.23681	3657.525
2983.67732	3666.625
2986.11635	3655.825
2988.55388	3650.125
2990.98993	3646.825
2993.4245	3658.725
2995.85758	3646.925
2998.28917	3638.125
3000.71928	3620.925
3003.14791	3617.025
3005.57506	3612.725
3008.00073	3614.125
3010.42493	3606.725
3012.84764	3598.725
3015.26888	3617.325
3017.68865	3598.125
3020.10694	3597.725
3022.52376	3583.725
3024.9391	3576.425
3027.35298	3568.525
3029.76539	3580.625
3032.17632	3559.125
3034.5858	3556.325
3036.9938	3559.125
3039.40034	3538.725
3041.80542	3545.625
3044.20903	3529.725
3046.61118	3520.325
3049.01187	3520.225
3051.4111	3517.425
3053.80888	3526.425
3056.20519	3509.225
3058.60005	3504.625
3060.99345	3511.625
3063.3854	3498.025
3065.7759	3490.025
3068.16494	3504.725
3070.55254	3492.925
3072.93868	3478.925
3075.32338	3474.925
3077.70662	3469.525
3080.08842	3474.125
3082.46878	3463.925
3084.84769	3455.125
3087.22515	3457.525
3089.60118	3455.725
3091.97576	3451.825
3094.3489	3464.125
3096.72061	3456.525
3099.09087	3452.825
3101.4597	3464.625
3103.82709	3458.525
3106.19305	3452.225
3108.55757	3456.225
3110.92066	3447.325
3113.28232	3442.425
3115.64255	3433.025
3118.00134	3428.725
3120.35871	3437.625
3122.71466	3423.225
3125.06917	3444.125
3127.42226	3440.625
3129.77393	3442.125
3132.12417	3433.025
3134.47299	3435.925
3136.82039	3433.525
3139.16636	3430.525
3141.51092	3461.625
3143.85406	3447.525
3146.19579	3458.125
3148.53609	3467.925
3150.87499	3476.225
3153.21246	3478.325
3155.54853	3487.625
3157.88318	3470.125
3160.21642	3473.425
3162.54826	3464.125
3164.87868	3476.325
3167.2077	3460.825
3169.5353	3465.525
3171.86151	3467.625
3174.18631	3461.025
3176.5097	3464.925
3178.83169	3466.325
3181.15228	3462.325
3183.47147	3472.925
3185.78926	3466.325
3188.10565	3483.425
3190.42065	3469.525
3192.73424	3466.225
3195.04645	3475.525
3197.35725	3478.325
3199.66667	3471.425
3201.97469	3496.325
3204.28132	3484.725
3206.58656	3506.825
3208.8904	3499.525
3211.19287	3513.625
3213.49394	3513.725
3215.79363	3510.225
3218.09193	3503.825
3220.38884	3494.325
3222.68438	3506.825
3224.97853	3504.125
3227.2713	3484.025
