Data from AgNP_FTO_APTES_UA_100uM_CRN_10uM_R6G_10uM_NaF_0.1M_Addition_RamanShift__0__15-17-00-395.txt Node

Date: Thu Mar 24 15:17:00 GMT 2022
User: TCL
Spectrometer: QEP01345
Trigger mode: 4
Integration Time (sec): 7.000000E0
Scans to average: 10
Electric dark correction enabled: true
Nonlinearity correction enabled: false
Boxcar width: 0
XAxis mode: Raman Shifts
Number of Pixels in Spectrum: 1044
>>>>>Begin Spectral Data<<<<<
46.04893	-1.875
50.45542	0.625
54.85868	0.925
59.25871	0.125
63.6555	2.225
68.04907	2.025
72.43941	-1.875
76.82654	1.625
81.21044	2.025
85.59113	1.925
89.96862	2.825
94.34289	-0.775
98.71396	1.025
103.08183	-1.175
107.4465	0.725
111.80798	2.125
116.16626	0.425
120.52136	1.425
124.87327	-2.775
129.222	-1.175
133.56755	2.025
137.90993	-0.675
142.24913	1.125
146.58517	0.625
150.91804	0.525
155.24774	2.125
159.57429	1.225
163.89768	0.625
168.21792	0.925
172.53501	5.525
176.84895	5.625
181.15975	5.925
185.46741	6.325
189.77193	9.625
194.07331	11.625
198.37157	16.625
202.6667	21.625
206.9587	22.725
211.24758	31.425
215.53334	37.725
219.81599	39.525
224.09553	47.825
228.37195	49.325
232.64527	52.925
236.91549	56.925
241.18261	63.325
245.44663	74.225
249.70755	78.225
253.96539	83.625
258.22014	91.225
262.4718	95.025
266.72039	98.325
270.96589	98.925
275.20832	97.225
279.44768	98.325
283.68397	99.725
287.91719	98.125
292.14735	92.125
296.37445	95.625
300.59849	89.725
304.81948	92.325
309.03742	92.525
313.25231	92.525
317.46415	94.825
321.67296	94.625
325.87872	87.225
330.08145	86.125
334.28114	88.025
338.47781	89.725
342.67145	91.725
346.86207	89.825
351.04966	93.925
355.23424	93.725
359.4158	97.725
363.59435	95.325
367.76989	101.825
371.94243	100.625
376.11196	104.725
380.27849	105.425
384.44203	103.625
388.60257	105.825
392.76012	110.725
396.91468	116.125
401.06626	121.025
405.21485	132.825
409.36047	145.425
413.50311	165.325
417.64277	198.925
421.77947	243.925
425.9132	314.125
430.04396	353.625
434.17176	353.625
438.2966	306.425
442.41849	255.225
446.53742	213.825
450.6534	196.125
454.76644	187.125
458.87653	170.025
462.98368	150.525
467.08789	142.125
471.18916	137.725
475.2875	137.425
479.38291	148.425
483.4754	167.025
487.56496	180.425
491.6516	198.825
495.73531	192.425
499.81612	179.325
503.89401	167.125
507.96899	152.125
512.04106	143.425
516.11023	140.625
520.1765	131.525
524.23987	131.725
528.30034	130.325
532.35792	129.825
536.41261	130.125
540.46441	126.225
544.51333	127.325
548.55936	122.825
552.60252	120.225
556.64279	123.525
560.6802	122.725
564.71473	117.825
568.7464	116.525
572.7752	120.625
576.80114	119.825
580.82422	120.125
584.84444	122.325
588.86181	127.825
592.87633	131.425
596.888	140.625
600.89682	145.925
604.9028	152.625
608.90594	152.925
612.90624	142.825
616.90371	133.225
620.89834	116.225
624.89015	110.525
628.87913	102.925
632.86528	103.225
636.84862	104.825
640.82913	104.825
644.80683	106.025
648.78172	105.925
652.75379	99.125
656.72306	96.125
660.68952	100.225
664.65319	100.625
668.61405	95.425
672.57211	99.925
676.52738	104.125
680.47986	107.025
684.42955	112.225
688.37646	129.225
692.32058	149.425
696.26192	187.825
700.20048	238.425
704.13626	287.125
708.06928	312.325
711.99952	288.225
715.927	244.925
719.85171	206.825
723.77365	172.525
727.69284	154.125
731.60928	149.625
735.52295	140.225
739.43388	141.125
743.34206	132.225
747.24749	123.125
751.15017	117.125
755.05012	112.925
758.94733	113.725
762.8418	113.325
766.73354	107.425
770.62254	114.525
774.50882	113.225
778.39237	111.425
782.27321	111.025
786.15132	111.725
790.02671	105.725
793.89938	103.525
797.76935	109.625
801.6366	109.625
805.50115	113.325
809.36299	113.525
813.22213	111.425
817.07857	114.725
820.93231	112.125
824.78336	112.825
828.63172	114.325
832.47738	112.325
836.32036	111.225
840.16066	108.925
843.99827	114.225
847.8332	107.525
851.66546	108.525
855.49504	105.425
859.32195	103.825
863.1462	103.325
866.96777	106.025
870.78668	100.025
874.60293	104.425
878.41652	97.825
882.22745	105.725
886.03573	101.225
889.84136	104.625
893.64433	101.925
897.44466	103.725
901.24235	98.125
905.0374	107.825
908.8298	101.925
912.61957	102.825
916.40671	107.925
920.19121	98.925
923.97308	99.025
927.75233	102.625
931.52895	94.725
935.30295	94.025
939.07433	98.025
942.84309	95.325
946.60924	94.125
950.37278	91.825
954.13371	93.825
957.89203	91.125
961.64774	91.525
965.40086	88.225
969.15137	90.025
972.89929	88.625
976.64461	85.125
980.38733	87.725
984.12747	83.325
987.86502	83.825
991.59999	86.125
995.33237	87.725
999.06217	86.525
1002.78939	86.325
1006.51404	85.525
1010.23611	84.025
1013.95561	85.225
1017.67255	81.925
1021.38692	84.925
1025.09872	85.125
1028.80796	79.425
1032.51465	84.025
1036.21877	86.725
1039.92035	89.325
1043.61937	84.925
1047.31584	88.925
1051.00976	88.725
1054.70114	85.725
1058.38998	85.225
1062.07627	93.725
1065.76003	93.825
1069.44126	93.025
1073.11995	92.125
1076.79611	100.525
1080.46974	100.425
1084.14085	100.325
1087.80943	104.225
1091.47549	103.425
1095.13903	106.125
1098.80005	102.525
1102.45857	106.325
1106.11456	110.325
1109.76805	114.225
1113.41903	112.525
1117.06751	114.525
1120.71348	115.925
1124.35696	109.125
1127.99793	112.225
1131.63641	106.725
1135.2724	104.625
1138.90589	99.525
1142.5369	98.725
1146.16542	98.625
1149.79145	94.025
1153.415	91.425
1157.03607	93.425
1160.65467	87.725
1164.27079	93.625
1167.88443	86.525
1171.49561	93.825
1175.10432	94.725
1178.71056	92.825
1182.31434	95.025
1185.91565	96.425
1189.51451	95.825
1193.11091	94.825
1196.70485	93.225
1200.29634	92.425
1203.88538	96.925
1207.47197	100.525
1211.05612	103.725
1214.63782	100.725
1218.21708	105.325
1221.79391	109.525
1225.36829	114.525
1228.94024	117.925
1232.50976	130.025
1236.07685	139.525
1239.6415	153.625
1243.20374	174.525
1246.76355	202.025
1250.32093	225.125
1253.8759	253.925
1257.42845	270.625
1260.97859	288.325
1264.52631	294.625
1268.07163	279.625
1271.61453	262.925
1275.15503	237.525
1278.69312	201.425
1282.22882	174.725
1285.76211	154.625
1289.29301	132.225
1292.82151	119.325
1296.34761	110.125
1299.87133	102.625
1303.39266	94.925
1306.9116	89.925
1310.42815	82.425
1313.94233	76.825
1317.45412	75.325
1320.96354	72.225
1324.47058	109.825
1327.97525	145.925
1331.47754	78.225
1334.97747	64.525
1338.47502	61.325
1341.97022	57.525
1345.46305	54.725
1348.95352	60.225
1352.44163	61.325
1355.92738	64.725
1359.41078	65.825
1362.89183	70.725
1366.37053	78.325
1369.84688	81.725
1373.32088	96.525
1376.79254	122.525
1380.26186	161.525
1383.72883	237.325
1387.19347	307.925
1390.65578	306.125
1394.11575	239.725
1397.57339	167.625
1401.0287	121.525
1404.48168	87.525
1407.93234	70.525
1411.38068	65.825
1414.82669	54.625
1418.27039	52.225
1421.71177	47.925
1425.15083	49.925
1428.58758	48.125
1432.02203	52.225
1435.45416	48.825
1438.88399	47.225
1442.31151	48.925
1445.73673	94.825
1449.15965	106.125
1452.58027	52.925
1455.9986	38.825
1459.41463	42.325
1462.82837	36.625
1466.23982	39.925
1469.64898	36.925
1473.05586	39.825
1476.46045	38.625
1479.86276	37.925
1483.26279	40.525
1486.66054	39.325
1490.05602	42.825
1493.44922	41.725
1496.84016	43.825
1500.22882	43.525
1503.61521	47.025
1506.99934	47.825
1510.38121	46.425
1513.76081	51.725
1517.13816	50.625
1520.51324	48.525
1523.88607	50.425
1527.25665	45.225
1530.62498	48.425
1533.99105	52.625
1537.35488	52.725
1540.71647	66.025
1544.07581	51.325
1547.4329	51.625
1550.78776	47.525
1554.14038	51.325
1557.49077	56.325
1560.83892	54.325
1564.18484	56.325
1567.52853	62.325
1570.86999	59.625
1574.20922	66.125
1577.54624	65.825
1580.88103	71.625
1584.2136	81.325
1587.54395	84.025
1590.87208	87.625
1594.19801	104.825
1597.52172	121.725
1600.84321	129.225
1604.16251	124.225
1607.47959	119.825
1610.79447	115.625
1614.10715	119.125
1617.41763	126.125
1620.7259	143.925
1624.03199	162.925
1627.33587	187.525
1630.63757	218.325
1633.93707	252.825
1637.23439	294.925
1640.52951	342.125
1643.82246	393.925
1647.11321	455.025
1650.40179	535.225
1653.68819	633.525
1656.97241	675.525
1660.25446	668.025
1663.53433	651.425
1666.81203	604.125
1670.08756	530.425
1673.36092	436.325
1676.63211	358.725
1679.90115	306.525
1683.16801	295.025
1686.43272	302.225
1689.69527	366.225
1692.95567	521.625
1696.2139	791.725
1699.46999	1044.325
1702.72392	1079.925
1705.97571	843.925
1709.22535	556.525
1712.47284	361.825
1715.71819	254.325
1718.96139	179.725
1722.20246	153.025
1725.44139	140.725
1728.67818	129.425
1731.91284	130.325
1735.14537	134.925
1738.37576	147.725
1741.60403	169.225
1744.83017	196.225
1748.05418	249.025
1751.27607	326.725
1754.49584	461.125
1757.71349	619.525
1760.92903	711.625
1764.14244	697.525
1767.35375	687.425
1770.56294	696.225
1773.77002	608.725
1776.97499	448.725
1780.17785	298.225
1783.37861	203.625
1786.57727	144.625
1789.77382	112.125
1792.96828	96.325
1796.16064	78.425
1799.3509	71.425
1802.53907	61.525
1805.72514	53.825
1808.90913	55.225
1812.09102	58.025
1815.27083	45.325
1818.44856	44.625
1821.6242	40.625
1824.79776	35.325
1827.96924	33.025
1831.13864	35.925
1834.30597	37.225
1837.47122	33.825
1840.6344	31.625
1843.7955	32.225
1846.95454	31.525
1850.11151	30.025
1853.26642	29.525
1856.41926	28.525
1859.57004	27.025
1862.71876	31.625
1865.86542	26.425
1869.01003	29.125
1872.15258	24.225
1875.29308	26.725
1878.43152	23.825
1881.56792	25.325
1884.70227	22.525
1887.83457	21.125
1890.96482	22.025
1894.09304	24.225
1897.21921	24.825
1900.34335	25.425
1903.46544	27.325
1906.58551	24.025
1909.70353	24.825
1912.81953	21.525
1915.93349	24.025
1919.04543	22.825
1922.15534	24.425
1925.26322	25.925
1928.36908	23.025
1931.47292	22.325
1934.57473	24.525
1937.67453	21.625
1940.77232	26.325
1943.86808	22.225
1946.96184	21.925
1950.05358	24.725
1953.14331	26.825
1956.23103	25.625
1959.31675	21.725
1962.40046	19.525
1965.48217	21.825
1968.56188	18.725
1971.63959	21.525
1974.7153	23.625
1977.78901	19.425
1980.86073	20.425
1983.93046	22.025
1986.99819	21.425
1990.06394	16.825
1993.1277	19.525
1996.18947	24.825
1999.24925	18.525
2002.30706	18.025
2005.36288	23.625
2008.41672	19.625
2011.46859	19.025
2014.51848	20.525
2017.56639	20.425
2020.61233	16.725
2023.6563	22.625
2026.6983	18.925
2029.73833	18.725
2032.7764	19.525
2035.8125	17.325
2038.84664	21.425
2041.87881	20.425
2044.90903	18.725
2047.93729	18.425
2050.96359	21.825
2053.98794	33.225
2057.01034	25.425
2060.03078	19.725
2063.04927	19.225
2066.06582	17.225
2069.08042	22.425
2072.09307	14.025
2075.10378	18.925
2078.11255	16.525
2081.11938	22.025
2084.12426	19.625
2087.12722	16.525
2090.12824	17.425
2093.12732	16.025
2096.12447	18.425
2099.11969	16.225
2102.11299	19.725
2105.10435	16.625
2108.09379	17.025
2111.08131	20.325
2114.0669	18.025
2117.05057	17.025
2120.03233	16.725
2123.01216	19.425
2125.99008	13.125
2128.96609	16.725
2131.94018	13.425
2134.91236	18.125
2137.88263	19.125
2140.851	15.125
2143.81746	16.925
2146.78201	16.525
2149.74466	16.625
2152.7054	13.725
2155.66425	16.325
2158.6212	12.225
2161.57625	17.925
2164.52941	14.525
2167.48067	14.125
2170.43004	11.525
2173.37752	17.325
2176.32311	11.425
2179.26681	12.925
2182.20863	10.925
2185.14856	16.225
2188.08661	12.025
2191.02278	12.125
2193.95707	12.525
2196.88948	14.325
2199.82001	14.125
2202.74867	16.125
2205.67545	12.825
2208.60037	14.225
2211.52341	11.625
2214.44458	14.125
2217.36388	10.325
2220.28132	12.825
2223.1969	11.625
2226.11061	12.325
2229.02246	9.725
2231.93245	14.925
2234.84058	15.125
2237.74686	14.025
2240.65128	15.925
2243.55385	15.525
2246.45456	12.325
2249.35343	12.625
2252.25044	15.925
2255.14561	17.225
2258.03893	52.525
2260.93041	111.125
2263.82004	60.625
2266.70783	33.925
2269.59378	30.725
2272.4779	16.625
2275.36017	14.625
2278.24061	9.725
2281.11922	13.925
2283.996	11.725
2286.87094	13.625
2289.74405	13.325
2292.61534	13.225
2295.4848	16.125
2298.35243	14.625
2301.21824	14.925
2304.08223	14.925
2306.94439	17.025
2309.80474	16.125
2312.66327	17.025
2315.51999	18.125
2318.37489	19.525
2321.22797	22.425
2324.07925	22.925
2326.92871	25.825
2329.77637	29.925
2332.62222	29.425
2335.46626	29.625
2338.3085	32.825
2341.14893	31.925
2343.98756	31.525
2346.8244	30.425
2349.65943	28.325
2352.49267	24.025
2355.32411	22.725
2358.15376	22.125
2360.98161	18.825
2363.80768	16.025
2366.63195	14.625
2369.45444	12.125
2372.27514	11.225
2375.09405	9.725
2377.91118	11.025
2380.72652	11.125
2383.54009	10.425
2386.35187	14.325
2389.16188	10.025
2391.97011	13.125
2394.77657	10.925
2397.58125	13.625
2400.38416	15.625
2403.18529	14.325
2405.98466	18.625
2408.78226	20.225
2411.57809	22.825
2414.37216	22.525
2417.16446	21.225
2419.955	16.625
2422.74378	18.325
2425.5308	13.025
2428.31606	15.025
2431.09956	15.625
2433.88131	12.425
2436.6613	5.025
2439.43954	13.225
2442.21603	11.325
2444.99077	9.225
2447.76377	6.425
2450.53501	6.025
2453.30451	9.725
2456.07226	10.225
2458.83827	9.725
2461.60254	7.325
2464.36507	6.225
2467.12586	11.425
2469.88492	9.025
2472.64224	19.425
2475.39782	61.525
2478.15167	80.925
2480.90379	41.425
2483.65417	27.925
2486.40283	25.425
2489.14976	18.425
2491.89497	21.525
2494.63845	76.825
2497.3802	93.125
2500.12024	48.225
2502.85855	29.425
2505.59514	24.425
2508.33002	17.925
2511.06318	12.525
2513.79462	8.825
2516.52435	8.925
2519.25237	10.925
2521.97867	11.025
2524.70327	12.825
2527.42616	13.825
2530.14734	8.125
2532.86681	11.425
2535.58458	7.925
2538.30065	5.625
2541.01501	5.225
2543.72768	7.725
2546.43864	10.225
2549.14791	8.425
2551.85548	5.725
2554.56136	10.425
2557.26554	4.825
2559.96803	8.225
2562.66883	6.625
2565.36794	10.125
2568.06536	8.825
2570.7611	8.525
2573.45514	7.425
2576.14751	5.625
2578.83819	6.825
2581.52719	6.025
2584.21451	7.825
2586.90015	9.325
2589.58411	7.525
2592.2664	10.725
2594.94701	11.625
2597.62594	8.025
2600.30321	8.025
2602.9788	8.325
2605.65273	9.125
2608.32498	10.325
2610.99557	6.925
2613.66449	5.525
2616.33175	3.725
2618.99734	6.725
2621.66128	9.525
2624.32355	15.425
2626.98416	10.525
2629.64311	6.025
2632.30041	22.825
2634.95605	53.525
2637.61004	11.525
2640.26238	-1.075
2642.91306	7.625
2645.56209	12.325
2648.20948	31.525
2650.85521	23.225
2653.4993	11.325
2656.14175	10.025
2658.78255	8.825
2661.42171	6.125
2664.05923	3.725
2666.6951	2.925
2669.32934	6.725
2671.96194	3.825
2674.59291	4.025
2677.22224	6.225
2679.84993	6.825
2682.476	2.825
2685.10043	1.025
2687.72324	1.325
2690.34441	2.525
2692.96396	5.525
2695.58188	6.625
2698.19818	9.525
2700.81285	18.225
2703.4259	141.425
2706.03733	391.725
2708.64714	222.225
2711.25533	117.525
2713.86191	82.025
2716.46687	65.725
2719.07021	41.025
2721.67194	21.425
2724.27206	10.825
2726.87057	7.725
2729.46747	7.025
2732.06276	8.225
2734.65644	4.925
2737.24852	6.425
2739.83899	6.625
2742.42786	10.225
2745.01513	4.825
2747.60079	4.425
2750.18486	7.125
2752.76733	4.425
2755.3482	7.025
2757.92747	6.625
2760.50515	6.525
2763.08123	6.925
2765.65573	3.225
2768.22863	7.025
2770.79994	2.125
2773.36967	7.225
2775.9378	7.025
2778.50435	4.225
2781.06932	6.725
2783.6327	8.025
2786.1945	7.625
2788.75471	6.025
2791.31335	4.625
2793.87041	7.725
2796.42589	9.025
2798.97979	9.225
2801.53212	5.025
2804.08288	6.025
2806.63206	9.825
2809.17967	8.925
2811.72571	6.825
2814.27018	9.925
2816.81308	9.925
2819.35442	6.625
2821.89419	8.025
2824.43239	8.125
2826.96904	5.525
2829.50412	4.925
2832.03763	9.425
2834.56959	4.925
2837.1	9.025
2839.62884	7.525
2842.15613	8.325
2844.68186	8.125
2847.20604	9.425
2849.72867	9.225
2852.24974	13.625
2854.76927	70.525
2857.28724	132.725
2859.80367	71.725
2862.31855	48.225
2864.83189	40.825
2867.34368	33.525
2869.85393	24.225
2872.36264	16.425
2874.8698	14.425
2877.37543	13.225
2879.87952	10.625
2882.38207	4.225
2884.88308	7.425
2887.38256	8.425
2889.88051	7.125
2892.37692	6.925
2894.8718	8.425
2897.36515	6.725
2899.85698	4.625
2902.34727	6.625
2904.83604	4.325
2907.32328	5.125
2909.809	7.025
2912.29319	6.425
2914.77587	2.825
2917.25702	6.325
2919.73665	3.525
2922.21476	9.825
2924.69136	8.125
2927.16644	9.425
2929.64	8.725
2932.11205	2.425
2934.58258	5.025
2937.05161	4.525
2939.51912	3.625
2941.98513	6.525
2944.44962	8.225
2946.91261	6.725
2949.37409	4.625
2951.83407	3.725
2954.29254	8.025
2956.74951	6.825
2959.20498	6.325
2961.65895	3.325
2964.11142	7.425
2966.56239	8.425
2969.01186	6.125
2971.45984	4.325
2973.90632	4.025
2976.35131	2.825
2978.7948	8.425
2981.23681	1.325
2983.67732	8.725
2986.11635	3.725
2988.55388	6.725
2990.98993	2.725
2993.4245	6.925
2995.85758	7.925
2998.28917	10.025
3000.71928	5.125
3003.14791	7.125
3005.57506	8.825
3008.00073	6.025
3010.42493	5.725
3012.84764	5.625
3015.26888	5.525
3017.68865	4.425
3020.10694	7.025
3022.52376	4.725
3024.9391	1.725
3027.35298	5.025
3029.76539	7.825
3032.17632	2.225
3034.5858	5.225
3036.9938	7.625
3039.40034	4.625
3041.80542	2.725
3044.20903	4.425
3046.61118	7.225
3049.01187	7.225
3051.4111	6.625
3053.80888	5.025
3056.20519	3.525
3058.60005	4.525
3060.99345	9.725
3063.3854	4.825
3065.7759	2.325
3068.16494	8.125
3070.55254	6.525
3072.93868	11.125
3075.32338	6.025
3077.70662	6.025
3080.08842	4.225
3082.46878	5.925
3084.84769	2.825
3087.22515	5.025
3089.60118	4.825
3091.97576	6.125
3094.3489	4.525
3096.72061	2.025
3099.09087	5.625
3101.4597	7.925
3103.82709	4.825
3106.19305	3.525
3108.55757	7.825
3110.92066	5.525
3113.28232	5.925
3115.64255	4.825
3118.00134	4.725
3120.35871	3.125
3122.71466	6.925
3125.06917	2.225
3127.42226	7.325
3129.77393	2.825
3132.12417	3.925
3134.47299	3.425
3136.82039	5.225
3139.16636	2.625
3141.51092	5.925
3143.85406	6.625
3146.19579	6.025
3148.53609	1.125
3150.87499	3.125
3153.21246	4.125
3155.54853	3.425
3157.88318	2.525
3160.21642	0.025
3162.54826	4.725
3164.87868	4.925
3167.2077	1.925
3169.5353	2.125
3171.86151	3.625
3174.18631	3.025
3176.5097	7.625
3178.83169	5.425
3181.15228	2.525
3183.47147	4.825
3185.78926	4.325
3188.10565	3.325
3190.42065	4.825
3192.73424	4.825
3195.04645	3.625
3197.35725	4.225
3199.66667	1.825
3201.97469	2.825
3204.28132	3.825
3206.58656	5.825
3208.8904	5.325
3211.19287	4.325
3213.49394	7.425
3215.79363	6.925
3218.09193	11.425
3220.38884	65.425
3222.68438	120.525
3224.97853	64.225
3227.2713	36.425
3229.56269	28.525
3231.8527	24.825
3234.14133	23.325
3236.42858	16.825
3238.71446	11.125
3240.99896	7.025
3243.28209	5.125
3245.56384	3.725
3247.84423	3.525
3250.12324	4.625
3252.40088	5.225
3254.67715	3.225
3256.95205	3.525
3259.22558	3.725
3261.49775	5.425
3263.76855	5.025
3266.03799	4.725
3268.30606	9.425
3270.57277	2.225
3272.83812	2.325
3275.10211	5.325
3277.36474	5.125
3279.62601	4.625
3281.88593	6.125
3284.14448	4.125
3286.40168	7.725
3288.65753	6.625
3290.91202	5.825
3293.16516	7.325
3295.41695	4.525
3297.66738	3.725
3299.91647	8.125
3302.16421	5.825
3304.4106	8.125
3306.65564	9.925
3308.89933	3.925
3311.14169	23.125
3313.38269	59.525
3315.62236	39.125
3317.86068	24.925
3320.09766	21.525
3322.3333	19.025
3324.5676	59.225
3326.80056	133.525
3329.03219	91.425
3331.26248	0.125
3333.49143	-1.075
3335.71905	0.925
