Data from AgNP_FTO_APTES_UA_100uM_CRN_50uM_R6G_10uM_NaF_0.1M_Addition_RamanShift__2__17-10-10-522.txt Node

Date: Thu Mar 24 17:10:10 GMT 2022
User: TCL
Spectrometer: QEP01345
Trigger mode: 4
Integration Time (sec): 7.000000E0
Scans to average: 10
Electric dark correction enabled: true
Nonlinearity correction enabled: false
Boxcar width: 0
XAxis mode: Raman Shifts
Number of Pixels in Spectrum: 1044
>>>>>Begin Spectral Data<<<<<
46.04893	-2.675
50.45542	0.025
54.85868	-0.775
59.25871	0.525
63.6555	40.825
68.04907	46.725
72.43941	46.225
76.82654	49.725
81.21044	52.125
85.59113	50.425
89.96862	55.525
94.34289	53.625
98.71396	55.525
103.08183	55.425
107.4465	59.225
111.80798	61.725
116.16626	62.025
120.52136	61.925
124.87327	66.625
129.222	69.825
133.56755	74.725
137.90993	80.625
142.24913	91.025
146.58517	103.925
150.91804	119.225
155.24774	145.125
159.57429	186.225
163.89768	239.825
168.21792	321.025
172.53501	443.325
176.84895	625.225
181.15975	881.425
185.46741	1235.325
189.77193	1702.425
194.07331	2279.425
198.37157	2927.125
202.6667	3646.325
206.9587	4343.125
211.24758	5047.325
215.53334	5778.725
219.81599	6570.625
224.09553	7450.325
228.37195	8453.425
232.64527	9566.125
236.91549	10678.825
241.18261	11686.725
245.44663	12599.525
249.70755	13263.525
253.96539	13881.125
258.22014	14377.525
262.4718	14780.125
266.72039	15114.125
270.96589	15252.525
275.20832	15213.825
279.44768	15026.825
283.68397	14787.225
287.91719	14588.225
292.14735	14571.925
296.37445	14695.625
300.59849	14979.025
304.81948	15394.325
309.03742	15666.925
313.25231	15716.625
317.46415	15415.325
321.67296	14885.825
325.87872	14394.625
330.08145	14167.425
334.28114	14171.525
338.47781	14327.425
342.67145	14574.425
346.86207	14938.925
351.04966	15405.125
355.23424	15927.725
359.4158	16314.525
363.59435	16419.125
367.76989	16437.425
371.94243	16411.625
376.11196	16392.025
380.27849	16382.825
384.44203	16384.125
388.60257	16393.025
392.76012	16446.225
396.91468	16565.325
401.06626	16830.725
405.21485	16989.625
409.36047	16724.125
413.50311	16198.625
417.64277	15672.825
421.77947	15460.525
425.9132	15449.525
430.04396	15567.025
434.17176	15738.725
438.2966	16042.725
442.41849	16585.425
446.53742	17293.325
450.6534	18013.625
454.76644	18411.825
458.87653	18370.325
462.98368	18040.225
467.08789	17599.525
471.18916	17176.425
475.2875	16822.125
479.38291	16465.725
483.4754	16169.625
487.56496	15822.625
491.6516	15594.425
495.73531	15403.525
499.81612	15286.325
503.89401	15356.925
507.96899	15466.425
512.04106	15496.825
516.11023	15567.925
520.1765	15530.125
524.23987	15536.925
528.30034	15518.825
532.35792	15451.825
536.41261	15261.825
540.46441	14986.925
544.51333	14846.925
548.55936	14979.425
552.60252	15325.925
556.64279	15832.425
560.6802	16206.525
564.71473	16418.325
568.7464	16802.325
572.7752	17278.625
576.80114	17494.825
580.82422	17631.725
584.84444	18013.325
588.86181	18983.625
592.87633	20419.425
596.888	21302.425
600.89682	20956.225
604.9028	20859.325
608.90594	23013.625
612.90624	26206.925
616.90371	24505.825
620.89834	18683.025
624.89015	15929.325
628.87913	15476.725
632.86528	15664.425
636.84862	15849.525
640.82913	15591.925
644.80683	14957.425
648.78172	14485.025
652.75379	14454.625
656.72306	14793.425
660.68952	15265.525
664.65319	15063.625
668.61405	14448.525
672.57211	14218.225
676.52738	14264.225
680.47986	14242.025
684.42955	14071.325
688.37646	13947.825
692.32058	13973.625
696.26192	14193.725
700.20048	14407.425
704.13626	14513.025
708.06928	14501.725
711.99952	14434.525
715.927	14472.825
719.85171	14519.825
723.77365	14554.325
727.69284	14457.325
731.60928	14365.725
735.52295	14420.825
739.43388	14496.525
743.34206	14554.025
747.24749	14567.325
751.15017	14644.525
755.05012	14851.925
758.94733	15420.125
762.8418	16793.825
766.73354	19122.925
770.62254	21301.825
774.50882	21993.025
778.39237	20863.825
782.27321	18559.825
786.15132	16426.925
790.02671	15123.725
793.89938	14447.025
797.76935	14126.425
801.6366	13996.325
805.50115	13924.725
809.36299	13828.125
813.22213	13771.325
817.07857	13762.425
820.93231	13707.325
824.78336	13683.725
828.63172	13710.025
832.47738	13683.125
836.32036	13628.825
840.16066	13593.825
843.99827	13611.725
847.8332	13577.425
851.66546	13552.225
855.49504	13569.225
859.32195	13536.125
863.1462	13505.725
866.96777	13497.425
870.78668	13473.525
874.60293	13508.825
878.41652	13534.425
882.22745	13632.925
886.03573	13724.325
889.84136	13720.425
893.64433	13610.025
897.44466	13557.525
901.24235	13496.325
905.0374	13437.225
908.8298	13357.325
912.61957	13333.525
916.40671	13375.525
920.19121	13540.625
923.97308	13689.925
927.75233	13762.625
931.52895	13731.625
935.30295	13447.125
939.07433	13144.025
942.84309	12866.825
946.60924	12755.125
950.37278	12690.125
954.13371	12672.325
957.89203	12664.825
961.64774	12657.225
965.40086	12657.625
969.15137	12635.525
972.89929	12597.525
976.64461	12541.525
980.38733	12514.025
984.12747	12546.025
987.86502	12609.725
991.59999	12714.225
995.33237	12922.325
999.06217	13208.925
1002.78939	13666.425
1006.51404	14134.825
1010.23611	14494.225
1013.95561	14736.225
1017.67255	14630.525
1021.38692	14272.425
1025.09872	13780.825
1028.80796	13407.925
1032.51465	13282.725
1036.21877	13307.525
1039.92035	13361.225
1043.61937	13441.425
1047.31584	13494.425
1051.00976	13544.325
1054.70114	13541.625
1058.38998	13581.325
1062.07627	13645.225
1065.76003	13753.125
1069.44126	13917.125
1073.11995	14143.625
1076.79611	14413.125
1080.46974	14654.525
1084.14085	14959.825
1087.80943	15272.325
1091.47549	15486.325
1095.13903	15337.425
1098.80005	14965.125
1102.45857	14593.025
1106.11456	14409.825
1109.76805	14433.425
1113.41903	14701.625
1117.06751	15063.825
1120.71348	15573.025
1124.35696	16086.825
1127.99793	16480.025
1131.63641	16454.525
1135.2724	16015.125
1138.90589	15627.125
1142.5369	15415.225
1146.16542	15338.825
1149.79145	15367.225
1153.415	15440.425
1157.03607	15624.425
1160.65467	16006.025
1164.27079	16735.325
1167.88443	17827.425
1171.49561	19455.225
1175.10432	21813.525
1178.71056	24791.725
1182.31434	27266.125
1185.91565	27840.125
1189.51451	26697.825
1193.11091	25070.325
1196.70485	23432.525
1200.29634	22066.825
1203.88538	20921.425
1207.47197	19898.925
1211.05612	19032.225
1214.63782	18566.625
1218.21708	18409.125
1221.79391	18559.325
1225.36829	18652.225
1228.94024	18533.025
1232.50976	18015.325
1236.07685	17399.525
1239.6415	17126.425
1243.20374	17057.225
1246.76355	17079.125
1250.32093	17253.025
1253.8759	17596.225
1257.42845	18069.025
1260.97859	18754.125
1264.52631	19422.125
1268.07163	20168.225
1271.61453	20716.125
1275.15503	21220.125
1278.69312	21658.125
1282.22882	22193.725
1285.76211	23186.125
1289.29301	24485.425
1292.82151	25925.825
1296.34761	27640.225
1299.87133	29719.325
1303.39266	32288.525
1306.9116	35328.325
1310.42815	38447.525
1313.94233	40102.625
1317.45412	39485.625
1320.96354	37432.725
1324.47058	35120.525
1327.97525	32889.025
1331.47754	31109.425
1334.97747	30072.725
1338.47502	29691.825
1341.97022	29737.325
1345.46305	30103.625
1348.95352	30988.825
1352.44163	32490.925
1355.92738	35230.625
1359.41078	39262.425
1362.89183	42871.025
1366.37053	42055.825
1369.84688	36349.525
1373.32088	30315.125
1376.79254	26807.825
1380.26186	25391.225
1383.72883	24850.825
1387.19347	24244.925
1390.65578	23636.025
1394.11575	23404.025
1397.57339	23564.425
1401.0287	24044.625
1404.48168	24385.525
1407.93234	24341.725
1411.38068	23921.925
1414.82669	23298.425
1418.27039	22447.925
1421.71177	21393.825
1425.15083	20472.025
1428.58758	20064.525
1432.02203	20342.325
1435.45416	20987.425
1438.88399	21637.725
1442.31151	22013.325
1445.73673	22286.725
1449.15965	22479.925
1452.58027	22420.225
1455.9986	22196.825
1459.41463	22055.825
1462.82837	22435.925
1466.23982	23192.625
1469.64898	24063.725
1473.05586	24770.225
1476.46045	25340.425
1479.86276	25677.725
1483.26279	25781.525
1486.66054	25981.525
1490.05602	26447.325
1493.44922	27158.425
1496.84016	27969.425
1500.22882	29196.925
1503.61521	31064.325
1506.99934	33346.525
1510.38121	34907.825
1513.76081	34674.725
1517.13816	32385.225
1520.51324	29255.625
1523.88607	26683.025
1527.25665	25344.425
1530.62498	24847.325
1533.99105	24504.125
1537.35488	24095.425
1540.71647	23457.125
1544.07581	22714.225
1547.4329	22026.325
1550.78776	21367.725
1554.14038	20873.125
1557.49077	20695.025
1560.83892	20777.425
1564.18484	21225.025
1567.52853	21868.325
1570.86999	22585.125
1574.20922	23144.425
1577.54624	23249.325
1580.88103	22567.325
1584.2136	21676.525
1587.54395	21630.725
1590.87208	22632.725
1594.19801	24599.525
1597.52172	26899.525
1600.84321	27973.725
1604.16251	26939.725
1607.47959	24513.025
1610.79447	21757.825
1614.10715	19380.325
1617.41763	17567.825
1620.7259	16455.525
1624.03199	15943.525
1627.33587	15979.425
1630.63757	16560.025
1633.93707	17822.025
1637.23439	20241.225
1640.52951	24052.725
1643.82246	29161.925
1647.11321	33688.725
1650.40179	35175.325
1653.68819	32245.225
1656.97241	26694.025
1660.25446	21316.225
1663.53433	17625.925
1666.81203	15432.925
1670.08756	14144.125
1673.36092	13337.525
1676.63211	12862.325
1679.90115	12523.625
1683.16801	12239.025
1686.43272	12059.725
1689.69527	11882.425
1692.95567	11783.025
1696.2139	11686.625
1699.46999	11609.225
1702.72392	11551.125
1705.97571	11495.325
1709.22535	11448.425
1712.47284	11425.025
1715.71819	11389.025
1718.96139	11328.225
1722.20246	11276.625
1725.44139	11172.325
1728.67818	11093.725
1731.91284	11006.725
1735.14537	10908.125
1738.37576	10881.325
1741.60403	10803.525
1744.83017	10759.725
1748.05418	10734.025
1751.27607	10690.225
1754.49584	10647.025
1757.71349	10654.525
1760.92903	10595.725
1764.14244	10596.025
1767.35375	10582.625
1770.56294	10510.625
1773.77002	10516.025
1776.97499	10451.025
1780.17785	10417.025
1783.37861	10393.225
1786.57727	10377.025
1789.77382	10325.925
1792.96828	10313.025
1796.16064	10292.925
1799.3509	10259.725
1802.53907	10221.425
1805.72514	10203.425
1808.90913	10138.125
1812.09102	10114.825
1815.27083	10091.025
1818.44856	10060.025
1821.6242	10055.625
1824.79776	9996.425
1827.96924	9980.025
1831.13864	9955.225
1834.30597	9952.025
1837.47122	9905.625
1840.6344	9908.525
1843.7955	9888.725
1846.95454	9863.825
1850.11151	9843.225
1853.26642	9872.725
1856.41926	9852.225
1859.57004	9856.625
1862.71876	9809.125
1865.86542	9806.925
1869.01003	9797.125
1872.15258	9783.125
1875.29308	9775.925
1878.43152	9778.125
1881.56792	9762.225
1884.70227	9772.725
1887.83457	9789.025
1890.96482	9749.925
1894.09304	9721.625
1897.21921	9723.425
1900.34335	9724.325
1903.46544	9734.425
1906.58551	9718.425
1909.70353	9703.225
1912.81953	9696.525
1915.93349	9663.325
1919.04543	9650.425
1922.15534	9599.325
1925.26322	9598.525
1928.36908	9567.525
1931.47292	9501.425
1934.57473	9498.625
1937.67453	9464.925
1940.77232	9464.725
1943.86808	9407.225
1946.96184	9380.925
1950.05358	9347.225
1953.14331	9307.525
1956.23103	9261.825
1959.31675	9245.625
1962.40046	9218.925
1965.48217	9195.025
1968.56188	9199.325
1971.63959	9140.125
1974.7153	9121.625
1977.78901	9101.925
1980.86073	9050.825
1983.93046	9020.025
1986.99819	8974.325
1990.06394	8944.125
1993.1277	8938.625
1996.18947	8896.725
1999.24925	8870.825
2002.30706	8824.925
2005.36288	8776.525
2008.41672	8733.125
2011.46859	8708.725
2014.51848	8686.225
2017.56639	8668.525
2020.61233	8644.625
2023.6563	8616.025
2026.6983	8598.125
2029.73833	8569.025
2032.7764	8543.325
2035.8125	8509.825
2038.84664	8478.225
2041.87881	8458.025
2044.90903	8467.225
2047.93729	8438.725
2050.96359	8420.825
2053.98794	8408.525
2057.01034	8394.525
2060.03078	8384.225
2063.04927	8367.025
2066.06582	8347.625
2069.08042	8370.125
2072.09307	8330.525
2075.10378	8337.725
2078.11255	8344.325
2081.11938	8355.225
2084.12426	8301.425
2087.12722	8332.025
2090.12824	8328.125
2093.12732	8295.625
2096.12447	8305.625
2099.11969	8301.925
2102.11299	8305.925
2105.10435	8285.925
2108.09379	8289.025
2111.08131	8288.125
2114.0669	8272.925
2117.05057	8300.725
2120.03233	8276.725
2123.01216	8296.525
2125.99008	8286.325
2128.96609	8276.525
2131.94018	8270.725
2134.91236	8276.625
2137.88263	8284.925
2140.851	8295.625
2143.81746	8283.425
2146.78201	8268.725
2149.74466	8239.425
2152.7054	8245.925
2155.66425	8207.125
2158.6212	8211.525
2161.57625	8190.825
2164.52941	8178.925
2167.48067	8188.225
2170.43004	8202.225
2173.37752	8182.825
2176.32311	8191.525
2179.26681	8173.925
2182.20863	8181.825
2185.14856	8177.525
2188.08661	8158.325
2191.02278	8168.325
2193.95707	8146.125
2196.88948	8149.425
2199.82001	8134.625
2202.74867	8135.625
2205.67545	8131.525
2208.60037	8122.525
2211.52341	8088.525
2214.44458	8068.925
2217.36388	8027.825
2220.28132	8036.825
2223.1969	8032.225
2226.11061	7978.125
2229.02246	7954.725
2231.93245	7943.225
2234.84058	7963.925
2237.74686	7962.425
2240.65128	7948.625
2243.55385	7954.225
2246.45456	7916.825
2249.35343	7913.725
2252.25044	7899.425
2255.14561	7881.725
2258.03893	7862.025
2260.93041	7844.025
2263.82004	7814.125
2266.70783	7781.025
2269.59378	7756.125
2272.4779	7739.525
2275.36017	7730.525
2278.24061	7715.725
2281.11922	7704.825
2283.996	7661.725
2286.87094	7655.525
2289.74405	7627.525
2292.61534	7626.425
2295.4848	7611.025
2298.35243	7561.925
2301.21824	7589.725
2304.08223	7574.725
2306.94439	7578.525
2309.80474	7561.025
2312.66327	7563.425
2315.51999	7558.725
2318.37489	7549.125
2321.22797	7518.625
2324.07925	7511.025
2326.92871	7496.425
2329.77637	7497.325
2332.62222	7493.125
2335.46626	7477.925
2338.3085	7482.025
2341.14893	7469.725
2343.98756	7468.525
2346.8244	7475.025
2349.65943	7470.025
2352.49267	7479.925
2355.32411	7475.825
2358.15376	7488.925
2360.98161	7488.225
2363.80768	7519.825
2366.63195	7503.125
2369.45444	7496.025
2372.27514	7481.425
2375.09405	7453.725
2377.91118	7452.525
2380.72652	7418.625
2383.54009	7387.425
2386.35187	7393.025
2389.16188	7356.025
2391.97011	7327.025
2394.77657	7321.925
2397.58125	7296.225
2400.38416	7280.925
2403.18529	7275.525
2405.98466	7253.525
2408.78226	7220.125
2411.57809	7219.725
2414.37216	7198.425
2417.16446	7210.425
2419.955	7218.925
2422.74378	7184.025
2425.5308	7196.525
2428.31606	7167.025
2431.09956	7161.425
2433.88131	7176.025
2436.6613	7171.925
2439.43954	7158.625
2442.21603	7165.425
2444.99077	7128.025
2447.76377	7146.025
2450.53501	7154.525
2453.30451	7155.125
2456.07226	7141.325
2458.83827	7132.125
2461.60254	7167.125
2464.36507	7137.225
2467.12586	7145.725
2469.88492	7152.925
2472.64224	7149.225
2475.39782	7138.425
2478.15167	7172.825
2480.90379	7173.425
2483.65417	7186.425
2486.40283	7210.825
2489.14976	7203.925
2491.89497	7197.325
2494.63845	7195.025
2497.3802	7202.725
2500.12024	7182.225
2502.85855	7175.825
2505.59514	7161.025
2508.33002	7133.425
2511.06318	7117.425
2513.79462	7104.925
2516.52435	7090.325
2519.25237	7056.625
2521.97867	7067.025
2524.70327	7054.825
2527.42616	7039.525
2530.14734	7049.125
2532.86681	7009.125
2535.58458	7041.925
2538.30065	7022.125
2541.01501	7034.425
2543.72768	7009.125
2546.43864	7006.025
2549.14791	7001.625
2551.85548	7009.525
2554.56136	6983.525
2557.26554	6980.925
2559.96803	6956.325
2562.66883	6951.525
2565.36794	6958.025
2568.06536	6947.525
2570.7611	6919.625
2573.45514	6919.325
2576.14751	6917.625
2578.83819	6916.525
2581.52719	6904.925
2584.21451	6894.225
2586.90015	6889.025
2589.58411	6912.425
2592.2664	6909.225
2594.94701	6883.725
2597.62594	6875.225
2600.30321	6860.425
2602.9788	6850.025
2605.65273	6863.425
2608.32498	6839.125
2610.99557	6859.725
2613.66449	6836.725
2616.33175	6856.425
2618.99734	6858.525
2621.66128	6858.925
2624.32355	6832.525
2626.98416	6838.125
2629.64311	6825.025
2632.30041	6824.825
2634.95605	6807.025
2637.61004	6823.325
2640.26238	6800.725
2642.91306	6825.425
2645.56209	6813.925
2648.20948	6802.825
2650.85521	6812.325
2653.4993	6811.225
2656.14175	6803.425
2658.78255	6824.925
2661.42171	6846.225
2664.05923	6855.225
2666.6951	6855.125
2669.32934	6864.325
2671.96194	6867.325
2674.59291	6855.725
2677.22224	6858.325
2679.84993	6843.625
2682.476	6843.825
2685.10043	6840.625
2687.72324	6791.825
2690.34441	6810.625
2692.96396	6836.825
2695.58188	6815.225
2698.19818	6825.925
2700.81285	6804.225
2703.4259	6786.325
2706.03733	6829.025
2708.64714	6820.825
2711.25533	6836.525
2713.86191	6813.425
2716.46687	6856.025
2719.07021	6853.425
2721.67194	6861.925
2724.27206	6843.725
2726.87057	6853.125
2729.46747	6859.425
2732.06276	6871.525
2734.65644	6870.225
2737.24852	6845.825
2739.83899	6835.725
2742.42786	6829.425
2745.01513	6811.225
2747.60079	6788.625
2750.18486	6808.625
2752.76733	6800.925
2755.3482	6802.125
2757.92747	6778.225
2760.50515	6781.125
2763.08123	6768.325
2765.65573	6782.725
2768.22863	6796.625
2770.79994	6784.125
2773.36967	6802.725
2775.9378	6785.225
2778.50435	6766.725
2781.06932	6760.525
2783.6327	6777.925
2786.1945	6764.325
2788.75471	6781.125
2791.31335	6764.825
2793.87041	6777.725
2796.42589	6779.525
2798.97979	6749.025
2801.53212	6736.225
2804.08288	6740.425
2806.63206	6700.625
2809.17967	6704.325
2811.72571	6690.625
2814.27018	6696.425
2816.81308	6694.425
2819.35442	6686.625
2821.89419	6662.625
2824.43239	6670.025
2826.96904	6652.725
2829.50412	6649.625
2832.03763	6612.125
2834.56959	6623.125
2837.1	6628.725
2839.62884	6629.425
2842.15613	6643.725
2844.68186	6643.725
2847.20604	6658.025
2849.72867	6648.625
2852.24974	6635.925
2854.76927	6641.925
2857.28724	6620.725
2859.80367	6639.525
2862.31855	6614.025
2864.83189	6612.825
2867.34368	6609.825
2869.85393	6619.525
2872.36264	6602.325
2874.8698	6585.725
2877.37543	6604.125
2879.87952	6584.525
2882.38207	6582.125
2884.88308	6572.325
2887.38256	6599.625
2889.88051	6566.325
2892.37692	6566.625
2894.8718	6578.825
2897.36515	6590.225
2899.85698	6593.125
2902.34727	6584.225
2904.83604	6567.025
2907.32328	6616.025
2909.809	6605.025
2912.29319	6609.825
2914.77587	6615.925
2917.25702	6610.725
2919.73665	6587.525
2922.21476	6586.625
2924.69136	6568.125
2927.16644	6562.625
2929.64	6553.825
2932.11205	6563.925
2934.58258	6508.825
2937.05161	6524.925
2939.51912	6517.525
2941.98513	6501.325
2944.44962	6476.625
2946.91261	6457.525
2949.37409	6469.625
2951.83407	6471.525
2954.29254	6475.325
2956.74951	6468.425
2959.20498	6462.825
2961.65895	6461.825
2964.11142	6452.425
2966.56239	6434.625
2969.01186	6418.825
2971.45984	6384.125
2973.90632	6397.925
2976.35131	6359.425
2978.7948	6348.925
2981.23681	6318.025
2983.67732	6324.425
2986.11635	6293.625
2988.55388	6268.825
2990.98993	6264.125
2993.4245	6229.725
2995.85758	6222.725
2998.28917	6198.825
3000.71928	6196.525
3003.14791	6200.425
3005.57506	6189.525
3008.00073	6185.025
3010.42493	6168.125
3012.84764	6155.625
3015.26888	6140.125
3017.68865	6125.825
3020.10694	6134.125
3022.52376	6113.025
3024.9391	6068.525
3027.35298	6062.225
3029.76539	6057.025
3032.17632	6032.525
3034.5858	6038.625
3036.9938	6019.925
3039.40034	6021.325
3041.80542	6031.425
3044.20903	5998.825
3046.61118	6032.125
3049.01187	5991.225
3051.4111	5959.625
3053.80888	5966.525
3056.20519	5958.725
3058.60005	5923.125
3060.99345	5923.125
3063.3854	5889.425
3065.7759	5867.825
3068.16494	5875.325
3070.55254	5853.225
3072.93868	5843.225
3075.32338	5817.725
3077.70662	5814.825
3080.08842	5794.025
3082.46878	5776.525
3084.84769	5777.125
3087.22515	5773.725
3089.60118	5781.525
3091.97576	5794.325
3094.3489	5775.925
3096.72061	5762.025
3099.09087	5763.425
3101.4597	5744.225
3103.82709	5750.225
3106.19305	5735.225
3108.55757	5723.725
3110.92066	5720.025
3113.28232	5711.625
3115.64255	5684.825
3118.00134	5665.025
3120.35871	5659.425
3122.71466	5667.625
3125.06917	5651.425
3127.42226	5648.825
3129.77393	5642.125
3132.12417	5626.025
3134.47299	5632.325
3136.82039	5626.125
3139.16636	5606.025
3141.51092	5601.325
3143.85406	5607.725
3146.19579	5613.725
3148.53609	5614.225
3150.87499	5594.125
3153.21246	5591.925
3155.54853	5609.025
3157.88318	5595.525
3160.21642	5606.525
3162.54826	5591.025
3164.87868	5569.725
3167.2077	5583.325
3169.5353	5598.625
3171.86151	5589.725
3174.18631	5586.125
3176.5097	5585.025
3178.83169	5582.325
3181.15228	5554.425
3183.47147	5548.925
3185.78926	5551.025
