Data from AgNP_FTO_APTES_UA_100uM_CRN_5uM_R6G_10uM_NaF_0.1M_Addition_RamanShift__6__14-45-30-357.txt Node

Date: Thu Mar 24 14:45:30 GMT 2022
User: TCL
Spectrometer: QEP01345
Trigger mode: 4
Integration Time (sec): 7.000000E0
Scans to average: 10
Electric dark correction enabled: true
Nonlinearity correction enabled: false
Boxcar width: 0
XAxis mode: Raman Shifts
Number of Pixels in Spectrum: 1044
>>>>>Begin Spectral Data<<<<<
46.04893	-1.625
50.45542	-0.425
54.85868	-0.125
59.25871	-0.225
63.6555	27.475
68.04907	34.575
72.43941	28.875
76.82654	29.575
81.21044	33.875
85.59113	36.775
89.96862	39.475
94.34289	39.075
98.71396	39.375
103.08183	43.375
107.4465	41.375
111.80798	41.175
116.16626	45.375
120.52136	44.075
124.87327	44.475
129.222	50.675
133.56755	47.875
137.90993	52.675
142.24913	62.475
146.58517	64.075
150.91804	75.175
155.24774	92.675
159.57429	110.675
163.89768	143.775
168.21792	188.575
172.53501	260.675
176.84895	363.875
181.15975	517.475
185.46741	722.775
189.77193	1001.975
194.07331	1346.775
198.37157	1732.675
202.6667	2170.275
206.9587	2587.775
211.24758	3008.175
215.53334	3440.275
219.81599	3924.175
224.09553	4480.975
228.37195	5085.175
232.64527	5747.075
236.91549	6382.475
241.18261	7000.975
245.44663	7501.375
249.70755	7885.075
253.96539	8205.975
258.22014	8427.875
262.4718	8659.175
266.72039	8795.875
270.96589	8855.975
275.20832	8823.275
279.44768	8661.175
283.68397	8514.975
287.91719	8382.575
292.14735	8352.075
296.37445	8495.075
300.59849	8742.875
304.81948	9050.575
309.03742	9334.775
313.25231	9429.275
317.46415	9253.175
321.67296	8812.575
325.87872	8414.775
330.08145	8199.375
334.28114	8182.475
338.47781	8274.675
342.67145	8471.075
346.86207	8720.975
351.04966	9056.175
355.23424	9442.775
359.4158	9747.475
363.59435	9866.075
367.76989	9866.575
371.94243	9762.075
376.11196	9707.075
380.27849	9640.275
384.44203	9587.275
388.60257	9568.875
392.76012	9578.175
396.91468	9700.075
401.06626	9910.075
405.21485	10052.975
409.36047	9889.475
413.50311	9492.075
417.64277	9078.775
421.77947	8873.275
425.9132	8807.675
430.04396	8825.475
434.17176	8890.075
438.2966	9027.275
442.41849	9279.275
446.53742	9642.975
450.6534	9950.775
454.76644	10150.175
458.87653	10129.275
462.98368	9950.275
467.08789	9761.475
471.18916	9502.575
475.2875	9230.775
479.38291	8992.075
483.4754	8785.775
487.56496	8644.375
491.6516	8586.075
495.73531	8565.975
499.81612	8573.475
503.89401	8657.075
507.96899	8727.375
512.04106	8796.875
516.11023	8842.375
520.1765	8907.475
524.23987	8959.475
528.30034	8954.175
532.35792	8917.575
536.41261	8833.675
540.46441	8624.375
544.51333	8512.275
548.55936	8552.775
552.60252	8712.575
556.64279	8947.875
560.6802	9112.175
564.71473	9156.975
568.7464	9319.775
572.7752	9544.475
576.80114	9497.675
580.82422	9569.975
584.84444	9848.675
588.86181	10354.675
592.87633	11009.675
596.888	11555.475
600.89682	11440.575
604.9028	11605.775
608.90594	13652.075
612.90624	16519.475
616.90371	15789.775
620.89834	11467.875
624.89015	9258.275
628.87913	8849.075
632.86528	8978.075
636.84862	9196.275
640.82913	9030.275
644.80683	8590.575
648.78172	8285.375
652.75379	8285.275
656.72306	8578.975
660.68952	8956.975
664.65319	8844.975
668.61405	8413.275
672.57211	8249.675
676.52738	8231.475
680.47986	8244.075
684.42955	8114.875
688.37646	8019.375
692.32058	8052.575
696.26192	8166.475
700.20048	8334.575
704.13626	8433.675
708.06928	8402.475
711.99952	8347.075
715.927	8352.875
719.85171	8424.875
723.77365	8451.375
727.69284	8386.875
731.60928	8331.575
735.52295	8335.675
739.43388	8378.175
743.34206	8391.275
747.24749	8409.675
751.15017	8423.275
755.05012	8544.275
758.94733	8886.775
762.8418	9830.775
766.73354	11415.775
770.62254	12921.575
774.50882	13469.275
778.39237	12915.775
782.27321	11476.375
786.15132	9980.975
790.02671	8982.975
793.89938	8499.675
797.76935	8298.075
801.6366	8180.975
805.50115	8121.475
809.36299	8062.175
813.22213	8007.875
817.07857	7987.075
820.93231	7948.975
824.78336	7971.175
828.63172	8011.775
832.47738	8005.075
836.32036	7981.275
840.16066	7940.575
843.99827	7910.075
847.8332	7909.275
851.66546	7903.975
855.49504	7925.075
859.32195	7927.975
863.1462	7916.175
866.96777	7899.375
870.78668	7889.075
874.60293	7924.375
878.41652	7946.675
882.22745	8037.475
886.03573	8073.875
889.84136	8079.275
893.64433	8055.575
897.44466	8031.075
901.24235	8005.575
905.0374	7953.175
908.8298	7880.475
912.61957	7827.875
916.40671	7826.575
920.19121	7890.975
923.97308	7997.975
927.75233	8156.475
931.52895	8234.175
935.30295	8107.775
939.07433	7845.375
942.84309	7662.175
946.60924	7548.375
950.37278	7499.475
954.13371	7483.975
957.89203	7481.175
961.64774	7457.775
965.40086	7477.075
969.15137	7467.975
972.89929	7459.275
976.64461	7458.075
980.38733	7455.875
984.12747	7464.575
987.86502	7521.575
991.59999	7554.175
995.33237	7677.175
999.06217	7831.875
1002.78939	8062.775
1006.51404	8322.875
1010.23611	8493.475
1013.95561	8649.375
1017.67255	8622.575
1021.38692	8442.675
1025.09872	8200.075
1028.80796	8004.375
1032.51465	7957.975
1036.21877	7980.275
1039.92035	8027.975
1043.61937	8053.675
1047.31584	8101.375
1051.00976	8103.875
1054.70114	8103.575
1058.38998	8103.075
1062.07627	8126.475
1065.76003	8196.475
1069.44126	8322.575
1073.11995	8494.575
1076.79611	8768.475
1080.46974	8949.975
1084.14085	9174.875
1087.80943	9403.375
1091.47549	9494.875
1095.13903	9347.875
1098.80005	9044.075
1102.45857	8810.875
1106.11456	8649.675
1109.76805	8659.375
1113.41903	8790.875
1117.06751	9009.975
1120.71348	9391.075
1124.35696	9813.975
1127.99793	10157.675
1131.63641	10103.175
1135.2724	9717.475
1138.90589	9361.775
1142.5369	9131.275
1146.16542	9029.375
1149.79145	8984.375
1153.415	8955.675
1157.03607	9012.975
1160.65467	9198.175
1164.27079	9558.975
1167.88443	10156.475
1171.49561	11080.575
1175.10432	12449.275
1178.71056	14304.075
1182.31434	15832.575
1185.91565	16350.575
1189.51451	15956.375
1193.11091	15124.875
1196.70485	14080.775
1200.29634	13101.275
1203.88538	12224.675
1207.47197	11350.475
1211.05612	10715.275
1214.63782	10339.075
1218.21708	10211.375
1221.79391	10228.375
1225.36829	10316.575
1228.94024	10310.875
1232.50976	10139.575
1236.07685	9977.275
1239.6415	9870.475
1243.20374	9937.375
1246.76355	9951.475
1250.32093	9999.575
1253.8759	10182.875
1257.42845	10558.675
1260.97859	11013.075
1264.52631	11539.575
1268.07163	12052.775
1271.61453	12432.975
1275.15503	12656.475
1278.69312	12816.475
1282.22882	13034.275
1285.76211	13544.875
1289.29301	14139.475
1292.82151	14777.275
1296.34761	15407.875
1299.87133	16313.275
1303.39266	17665.375
1306.9116	19548.975
1310.42815	21634.775
1313.94233	22736.775
1317.45412	22097.975
1320.96354	20520.775
1324.47058	18857.875
1327.97525	17405.875
1331.47754	16358.975
1334.97747	15840.775
1338.47502	15741.275
1341.97022	16014.375
1345.46305	16651.175
1348.95352	17559.775
1352.44163	18843.775
1355.92738	20698.575
1359.41078	23391.875
1362.89183	26013.475
1366.37053	25565.175
1369.84688	21751.875
1373.32088	17660.275
1376.79254	15228.275
1380.26186	14189.175
1383.72883	13562.875
1387.19347	12929.675
1390.65578	12264.775
1394.11575	11830.875
1397.57339	11654.875
1401.0287	11664.575
1404.48168	11702.475
1407.93234	11778.875
1411.38068	11772.075
1414.82669	11839.675
1418.27039	11753.075
1421.71177	11552.075
1425.15083	11267.575
1428.58758	11142.875
1432.02203	11316.675
1435.45416	11630.775
1438.88399	11860.175
1442.31151	11940.975
1445.73673	12025.975
1449.15965	12049.875
1452.58027	12008.675
1455.9986	11806.375
1459.41463	11681.375
1462.82837	11853.875
1466.23982	12278.175
1469.64898	12785.575
1473.05586	13202.575
1476.46045	13548.675
1479.86276	13940.275
1483.26279	14281.075
1486.66054	14720.375
1490.05602	15386.075
1493.44922	16273.475
1496.84016	17293.975
1500.22882	18548.375
1503.61521	20259.075
1506.99934	22162.475
1510.38121	23691.675
1513.76081	23621.875
1517.13816	21707.075
1520.51324	18832.075
1523.88607	16425.475
1527.25665	14852.975
1530.62498	14078.175
1533.99105	13571.175
1537.35488	13177.475
1540.71647	12833.175
1544.07581	12518.175
1547.4329	12251.875
1550.78776	12032.975
1554.14038	11888.975
1557.49077	11876.575
1560.83892	11986.275
1564.18484	12340.775
1567.52853	12891.375
1570.86999	13415.875
1574.20922	13748.875
1577.54624	13702.475
1580.88103	13046.875
1584.2136	12208.275
1587.54395	11818.975
1590.87208	12114.775
1594.19801	13055.375
1597.52172	14360.275
1600.84321	15095.475
1604.16251	14651.775
1607.47959	13527.675
1610.79447	12203.175
1614.10715	11010.175
1617.41763	10074.875
1620.7259	9484.575
1624.03199	9174.875
1627.33587	9189.675
1630.63757	9498.275
1633.93707	10152.875
1637.23439	11383.075
1640.52951	13408.675
1643.82246	16190.175
1647.11321	18995.775
1650.40179	20305.275
1653.68819	19064.975
1656.97241	15921.175
1660.25446	12729.575
1663.53433	10547.575
1666.81203	9243.875
1670.08756	8501.375
1673.36092	8080.875
1676.63211	7793.375
1679.90115	7617.375
1683.16801	7466.475
1686.43272	7334.075
1689.69527	7254.075
1692.95567	7193.275
1696.2139	7148.575
1699.46999	7122.875
1702.72392	7097.975
1705.97571	7062.875
1709.22535	7042.775
1712.47284	7025.475
1715.71819	7004.175
1718.96139	7008.775
1722.20246	6970.975
1725.44139	6941.175
1728.67818	6873.875
1731.91284	6810.175
1735.14537	6761.275
1738.37576	6725.975
1741.60403	6692.575
1744.83017	6668.275
1748.05418	6629.875
1751.27607	6622.975
1754.49584	6618.475
1757.71349	6610.475
1760.92903	6620.575
1764.14244	6595.475
1767.35375	6562.775
1770.56294	6533.975
1773.77002	6528.875
1776.97499	6498.475
1780.17785	6485.175
1783.37861	6458.575
1786.57727	6427.675
1789.77382	6403.875
1792.96828	6385.775
1796.16064	6374.975
1799.3509	6371.975
1802.53907	6352.375
1805.72514	6326.375
1808.90913	6315.375
1812.09102	6295.075
1815.27083	6279.475
1818.44856	6256.775
1821.6242	6254.575
1824.79776	6236.175
1827.96924	6231.975
1831.13864	6232.575
1834.30597	6241.175
1837.47122	6202.075
1840.6344	6202.975
1843.7955	6189.575
1846.95454	6187.675
1850.11151	6167.475
1853.26642	6170.075
1856.41926	6170.475
1859.57004	6171.675
1862.71876	6168.775
1865.86542	6161.275
1869.01003	6146.975
1872.15258	6118.375
1875.29308	6139.875
1878.43152	6116.275
1881.56792	6134.375
1884.70227	6125.775
1887.83457	6115.875
1890.96482	6127.175
1894.09304	6094.475
1897.21921	6088.575
1900.34335	6083.275
1903.46544	6097.275
1906.58551	6096.675
1909.70353	6090.875
1912.81953	6088.275
1915.93349	6061.375
1919.04543	6048.875
1922.15534	6038.475
1925.26322	6011.975
1928.36908	5988.175
1931.47292	5970.575
1934.57473	5926.075
1937.67453	5938.875
1940.77232	5912.475
1943.86808	5887.575
1946.96184	5879.275
1950.05358	5854.475
1953.14331	5844.975
1956.23103	5832.575
1959.31675	5815.975
1962.40046	5804.775
1965.48217	5791.375
1968.56188	5759.775
1971.63959	5750.075
1974.7153	5729.975
1977.78901	5711.875
1980.86073	5686.975
1983.93046	5676.775
1986.99819	5658.475
1990.06394	5620.275
1993.1277	5594.775
1996.18947	5589.075
1999.24925	5545.475
2002.30706	5541.375
2005.36288	5515.275
2008.41672	5508.975
2011.46859	5495.075
2014.51848	5487.375
2017.56639	5463.875
2020.61233	5443.875
2023.6563	5433.375
2026.6983	5416.475
2029.73833	5408.875
2032.7764	5384.275
2035.8125	5381.875
2038.84664	5376.775
2041.87881	5368.675
2044.90903	5364.575
2047.93729	5361.275
2050.96359	5352.875
2053.98794	5340.075
2057.01034	5329.875
2060.03078	5309.875
2063.04927	5317.675
2066.06582	5306.775
2069.08042	5305.975
2072.09307	5297.475
2075.10378	5277.975
2078.11255	5281.875
2081.11938	5290.275
2084.12426	5276.675
2087.12722	5288.075
2090.12824	5290.875
2093.12732	5303.275
2096.12447	5292.575
2099.11969	5309.175
2102.11299	5300.075
2105.10435	5283.175
2108.09379	5283.975
2111.08131	5294.175
2114.0669	5306.675
2117.05057	5299.375
2120.03233	5299.875
2123.01216	5300.275
2125.99008	5311.075
2128.96609	5320.775
2131.94018	5306.575
2134.91236	5299.575
2137.88263	5303.575
2140.851	5304.775
2143.81746	5311.875
2146.78201	5295.275
2149.74466	5309.075
2152.7054	5290.075
2155.66425	5270.675
2158.6212	5281.875
2161.57625	5282.075
2164.52941	5279.375
2167.48067	5277.175
2170.43004	5262.175
2173.37752	5259.475
2176.32311	5259.175
2179.26681	5264.075
2182.20863	5261.175
2185.14856	5255.175
2188.08661	5252.575
2191.02278	5248.975
2193.95707	5250.075
2196.88948	5236.475
2199.82001	5233.175
2202.74867	5220.175
2205.67545	5238.675
2208.60037	5205.375
2211.52341	5203.275
2214.44458	5207.475
2217.36388	5196.975
2220.28132	5195.775
2223.1969	5160.675
2226.11061	5152.475
2229.02246	5139.275
2231.93245	5149.775
2234.84058	5133.075
2237.74686	5132.675
2240.65128	5115.075
2243.55385	5132.475
2246.45456	5127.075
2249.35343	5105.075
2252.25044	5112.675
2255.14561	5103.275
2258.03893	5094.975
2260.93041	5099.875
2263.82004	5087.475
2266.70783	5067.575
2269.59378	5044.675
2272.4779	5057.375
2275.36017	5040.475
2278.24061	5018.675
2281.11922	5021.075
2283.996	5003.875
2286.87094	4987.975
2289.74405	4968.775
2292.61534	4975.375
2295.4848	4971.475
2298.35243	4958.675
2301.21824	4939.075
2304.08223	4955.875
2306.94439	4937.175
2309.80474	4946.075
2312.66327	4926.775
2315.51999	4914.275
2318.37489	4931.275
2321.22797	4926.175
2324.07925	4914.975
2326.92871	4913.075
2329.77637	4920.675
2332.62222	4904.375
2335.46626	4910.975
2338.3085	4893.075
2341.14893	4891.275
2343.98756	4905.275
2346.8244	4885.475
2349.65943	4884.775
2352.49267	4901.975
2355.32411	4901.375
2358.15376	4892.675
2360.98161	4922.175
2363.80768	4919.475
2366.63195	4908.075
2369.45444	4921.975
2372.27514	4920.975
2375.09405	4922.375
2377.91118	4891.775
2380.72652	4892.775
2383.54009	4867.475
2386.35187	4873.775
2389.16188	4831.775
2391.97011	4832.475
2394.77657	4814.475
2397.58125	4802.675
2400.38416	4771.975
2403.18529	4769.775
2405.98466	4771.975
2408.78226	4763.375
2411.57809	4745.975
2414.37216	4737.175
2417.16446	4729.375
2419.955	4732.675
2422.74378	4731.975
2425.5308	4712.575
2428.31606	4717.675
2431.09956	4735.475
2433.88131	4735.975
2436.6613	4726.075
2439.43954	4730.175
2442.21603	4715.875
2444.99077	4734.075
2447.76377	4733.175
2450.53501	4737.575
2453.30451	4724.375
2456.07226	4718.675
2458.83827	4711.275
2461.60254	4730.975
2464.36507	4739.675
2467.12586	4721.175
2469.88492	4730.575
2472.64224	4723.775
2475.39782	4746.075
2478.15167	4741.775
2480.90379	4739.675
2483.65417	4736.875
2486.40283	4752.675
2489.14976	4777.475
2491.89497	4746.875
2494.63845	4771.875
2497.3802	4761.675
2500.12024	4765.275
2502.85855	4741.875
2505.59514	4730.275
2508.33002	4716.275
2511.06318	4699.975
2513.79462	4689.275
2516.52435	4674.675
2519.25237	4674.175
2521.97867	4655.375
2524.70327	4651.875
2527.42616	4632.075
2530.14734	4640.475
2532.86681	4627.675
2535.58458	4619.675
2538.30065	4612.475
2541.01501	4633.675
2543.72768	4621.875
2546.43864	4616.275
2549.14791	4613.375
2551.85548	4616.175
2554.56136	4616.575
2557.26554	4614.575
2559.96803	4607.175
2562.66883	4600.975
2565.36794	4613.375
2568.06536	4598.575
2570.7611	4594.375
2573.45514	4575.075
2576.14751	4587.775
2578.83819	4573.875
2581.52719	4570.175
2584.21451	4552.675
2586.90015	4537.875
2589.58411	4540.875
2592.2664	4525.175
2594.94701	4534.575
2597.62594	4523.475
2600.30321	4505.175
2602.9788	4504.575
2605.65273	4499.275
2608.32498	4522.675
2610.99557	4485.275
2613.66449	4517.075
2616.33175	4502.075
2618.99734	4513.475
2621.66128	4489.475
2624.32355	4485.375
2626.98416	4487.275
2629.64311	4482.875
2632.30041	4471.275
2634.95605	4468.075
2637.61004	4452.975
2640.26238	4458.275
2642.91306	4461.175
2645.56209	4461.575
2648.20948	4466.675
2650.85521	4450.475
2653.4993	4454.175
2656.14175	4452.675
2658.78255	4463.875
2661.42171	4483.975
2664.05923	4475.075
2666.6951	4474.575
2669.32934	4485.375
2671.96194	4473.075
2674.59291	4481.475
2677.22224	4480.875
2679.84993	4481.675
2682.476	4474.875
2685.10043	4474.275
2687.72324	4462.975
2690.34441	4487.175
2692.96396	4479.675
2695.58188	4480.575
2698.19818	4471.875
2700.81285	4473.675
2703.4259	4486.375
2706.03733	4497.475
2708.64714	4473.075
2711.25533	4479.075
2713.86191	4479.275
2716.46687	4494.575
2719.07021	4494.075
2721.67194	4501.275
2724.27206	4484.575
2726.87057	4495.975
2729.46747	4475.975
2732.06276	4485.975
2734.65644	4487.875
2737.24852	4479.775
2739.83899	4461.275
2742.42786	4470.475
2745.01513	4453.475
2747.60079	4454.775
2750.18486	4462.975
2752.76733	4440.075
2755.3482	4453.975
2757.92747	4437.075
2760.50515	4436.075
2763.08123	4438.975
2765.65573	4445.775
2768.22863	4420.075
2770.79994	4411.775
2773.36967	4408.275
2775.9378	4413.775
2778.50435	4401.075
2781.06932	4403.375
2783.6327	4399.775
2786.1945	4395.075
2788.75471	4383.075
2791.31335	4378.575
2793.87041	4390.675
2796.42589	4369.675
2798.97979	4376.575
2801.53212	4355.875
2804.08288	4371.875
2806.63206	4384.175
2809.17967	4374.875
2811.72571	4372.475
2814.27018	4380.275
2816.81308	4371.975
2819.35442	4375.375
2821.89419	4376.875
2824.43239	4362.875
2826.96904	4352.975
2829.50412	4359.875
2832.03763	4356.375
2834.56959	4360.475
2837.1	4345.775
2839.62884	4350.275
2842.15613	4333.175
2844.68186	4350.275
2847.20604	4346.375
2849.72867	4336.475
2852.24974	4336.875
2854.76927	4342.175
2857.28724	4347.775
2859.80367	4335.275
2862.31855	4344.775
2864.83189	4329.475
2867.34368	4352.275
2869.85393	4341.475
2872.36264	4354.475
2874.8698	4345.775
2877.37543	4348.275
2879.87952	4352.475
2882.38207	4342.275
2884.88308	4322.875
2887.38256	4334.375
2889.88051	4331.375
2892.37692	4324.375
2894.8718	4323.475
2897.36515	4357.075
2899.85698	4335.575
2902.34727	4333.575
2904.83604	4342.175
2907.32328	4350.875
2909.809	4334.675
2912.29319	4340.975
2914.77587	4351.575
2917.25702	4338.275
2919.73665	4329.275
2922.21476	4328.775
2924.69136	4324.875
2927.16644	4315.075
2929.64	4310.875
2932.11205	4305.875
2934.58258	4286.475
2937.05161	4296.275
2939.51912	4295.875
2941.98513	4282.475
2944.44962	4269.375
2946.91261	4267.175
2949.37409	4274.375
2951.83407	4268.075
2954.29254	4257.375
2956.74951	4265.175
2959.20498	4249.975
2961.65895	4254.075
2964.11142	4259.075
2966.56239	4239.875
2969.01186	4237.975
2971.45984	4206.675
2973.90632	4208.375
2976.35131	4202.375
2978.7948	4182.775
2981.23681	4177.075
2983.67732	4165.575
2986.11635	4155.775
2988.55388	4147.375
2990.98993	4142.275
2993.4245	4132.475
2995.85758	4128.975
2998.28917	4121.875
3000.71928	4105.675
3003.14791	4107.375
3005.57506	4104.575
3008.00073	4088.075
3010.42493	4091.875
3012.84764	4087.775
3015.26888	4082.175
3017.68865	4067.475
3020.10694	4069.175
3022.52376	4045.175
3024.9391	4048.275
3027.35298	4044.775
3029.76539	4047.575
3032.17632	4033.275
3034.5858	4016.275
3036.9938	4005.375
3039.40034	4005.175
3041.80542	3982.675
3044.20903	3975.375
3046.61118	3982.875
3049.01187	3953.175
3051.4111	3959.475
3053.80888	3966.575
3056.20519	3974.875
3058.60005	3951.475
3060.99345	3952.475
3063.3854	3951.575
3065.7759	3938.075
3068.16494	3951.575
3070.55254	3919.975
3072.93868	3906.875
3075.32338	3898.375
3077.70662	3903.075
3080.08842	3896.175
3082.46878	3891.075
3084.84769	3883.475
3087.22515	3882.875
3089.60118	3886.875
3091.97576	3873.075
3094.3489	3892.075
3096.72061	3875.575
3099.09087	3882.675
3101.4597	3882.375
3103.82709	3883.975
3106.19305	3869.275
3108.55757	3860.475
3110.92066	3857.075
3113.28232	3846.675
3115.64255	3843.775
3118.00134	3828.375
3120.35871	3833.675
3122.71466	3831.475
3125.06917	3827.075
3127.42226	3838.875
3129.77393	3830.175
3132.12417	3828.875
3134.47299	3829.575
3136.82039	3831.775
3139.16636	3835.675
3141.51092	3840.075
3143.85406	3849.075
3146.19579	3856.775
3148.53609	3839.375
3150.87499	3854.875
3153.21246	3863.075
3155.54853	3854.175
3157.88318	3842.675
3160.21642	3854.475
3162.54826	3844.175
3164.87868	3838.975
3167.2077	3829.275
3169.5353	3842.875
3171.86151	3834.375
3174.18631	3848.675
3176.5097	3849.075
3178.83169	3839.275
3181.15228	3835.775
3183.47147	3821.675
3185.78926	3829.975
3188.10565	3845.175
3190.42065	3834.175
3192.73424	3823.375
3195.04645	3830.075
3197.35725	3820.075
3199.66667	3837.975
3201.97469	3846.775
3204.28132	3831.475
3206.58656	3845.875
3208.8904	3847.175
3211.19287	3836.975
3213.49394	3844.275
3215.79363	3861.075
3218.09193	3850.975
