Data from AgNP_FTO_APTES_UA_100uM_CRN_1uM_R6G_10uM_NaF_0.1M_Addition_RamanShift__20__12-11-30-179.txt Node

Date: Thu Mar 24 12:11:30 GMT 2022
User: TCL
Spectrometer: QEP01345
Trigger mode: 4
Integration Time (sec): 7.000000E0
Scans to average: 10
Electric dark correction enabled: true
Nonlinearity correction enabled: false
Boxcar width: 0
XAxis mode: Raman Shifts
Number of Pixels in Spectrum: 1044
>>>>>Begin Spectral Data<<<<<
46.04893	-1.4875
50.45542	-0.3875
54.85868	-0.1875
59.25871	0.1125
63.6555	50.1125
68.04907	52.9125
72.43941	54.1125
76.82654	53.8125
81.21044	62.1125
85.59113	60.7125
89.96862	62.0125
94.34289	63.9125
98.71396	66.9125
103.08183	71.1125
107.4465	67.9125
111.80798	73.5125
116.16626	75.5125
120.52136	75.3125
124.87327	78.1125
129.222	85.4125
133.56755	89.8125
137.90993	93.8125
142.24913	110.9125
146.58517	118.8125
150.91804	141.6125
155.24774	169.3125
159.57429	213.4125
163.89768	282.2125
168.21792	373.2125
172.53501	518.1125
176.84895	723.5125
181.15975	1013.8125
185.46741	1421.3125
189.77193	1951.8125
194.07331	2612.2125
198.37157	3378.7125
202.6667	4181.9125
206.9587	4977.3125
211.24758	5827.7125
215.53334	6659.3125
219.81599	7638.3125
224.09553	8696.3125
228.37195	9910.9125
232.64527	11207.5125
236.91549	12532.7125
241.18261	13756.0125
245.44663	14754.3125
249.70755	15535.6125
253.96539	16211.5125
258.22014	16795.6125
262.4718	17320.5125
266.72039	17665.9125
270.96589	17777.1125
275.20832	17693.9125
279.44768	17490.8125
283.68397	17322.5125
287.91719	17206.9125
292.14735	17236.6125
296.37445	17461.8125
300.59849	17854.8125
304.81948	18380.7125
309.03742	18744.0125
313.25231	18715.1125
317.46415	18181.6125
321.67296	17241.0125
325.87872	16357.0125
330.08145	15920.6125
334.28114	15818.5125
338.47781	15983.7125
342.67145	16324.0125
346.86207	16808.7125
351.04966	17463.7125
355.23424	18191.0125
359.4158	18721.9125
363.59435	18999.2125
367.76989	19065.5125
371.94243	19014.3125
376.11196	18924.0125
380.27849	18899.5125
384.44203	18824.5125
388.60257	18801.0125
392.76012	18816.0125
396.91468	18952.0125
401.06626	19312.2125
405.21485	19575.4125
409.36047	19289.4125
413.50311	18515.5125
417.64277	17849.4125
421.77947	17548.2125
425.9132	17568.3125
430.04396	17655.2125
434.17176	17819.9125
438.2966	18094.3125
442.41849	18621.6125
446.53742	19476.8125
450.6534	20308.8125
454.76644	20765.8125
458.87653	20749.1125
462.98368	20358.6125
467.08789	19894.2125
471.18916	19395.5125
475.2875	18948.8125
479.38291	18628.5125
483.4754	18397.9125
487.56496	18045.4125
491.6516	17653.6125
495.73531	17322.9125
499.81612	17176.2125
503.89401	17322.4125
507.96899	17398.6125
512.04106	17422.1125
516.11023	17359.1125
520.1765	17267.9125
524.23987	17184.0125
528.30034	17082.7125
532.35792	16967.1125
536.41261	16713.0125
540.46441	16313.9125
544.51333	16107.6125
548.55936	16340.0125
552.60252	16950.4125
556.64279	17753.8125
560.6802	18330.0125
564.71473	18728.7125
568.7464	19494.8125
572.7752	20368.6125
576.80114	20552.1125
580.82422	20455.5125
584.84444	20631.2125
588.86181	21263.4125
592.87633	22230.5125
596.888	22514.6125
600.89682	21801.3125
604.9028	22481.7125
608.90594	26611.4125
612.90624	31755.0125
616.90371	29694.3125
620.89834	21402.3125
624.89015	17426.6125
628.87913	16776.2125
632.86528	17017.5125
636.84862	17184.3125
640.82913	16818.7125
644.80683	15945.2125
648.78172	15300.0125
652.75379	15227.8125
656.72306	15786.3125
660.68952	16496.5125
664.65319	16302.0125
668.61405	15565.3125
672.57211	15311.2125
676.52738	15349.6125
680.47986	15335.5125
684.42955	15079.9125
688.37646	14917.0125
692.32058	15005.8125
696.26192	15238.7125
700.20048	15606.8125
704.13626	15861.3125
708.06928	15839.2125
711.99952	15676.2125
715.927	15642.2125
719.85171	15721.4125
723.77365	15692.1125
727.69284	15510.0125
731.60928	15302.4125
735.52295	15274.9125
739.43388	15386.2125
743.34206	15485.0125
747.24749	15574.3125
751.15017	15744.8125
755.05012	16124.0125
758.94733	17038.8125
762.8418	19076.5125
766.73354	22471.8125
770.62254	25726.3125
774.50882	26601.5125
778.39237	24794.1125
782.27321	21582.1125
786.15132	18557.3125
790.02671	16686.0125
793.89938	15740.3125
797.76935	15342.4125
801.6366	15145.1125
805.50115	15050.2125
809.36299	14882.5125
813.22213	14748.4125
817.07857	14692.6125
820.93231	14582.0125
824.78336	14561.9125
828.63172	14528.9125
832.47738	14547.4125
836.32036	14525.0125
840.16066	14484.8125
843.99827	14471.7125
847.8332	14427.4125
851.66546	14398.1125
855.49504	14424.2125
859.32195	14448.1125
863.1462	14363.2125
866.96777	14277.8125
870.78668	14239.7125
874.60293	14280.8125
878.41652	14318.3125
882.22745	14424.6125
886.03573	14546.5125
889.84136	14568.4125
893.64433	14457.5125
897.44466	14396.6125
901.24235	14291.2125
905.0374	14168.4125
908.8298	14067.6125
912.61957	14017.3125
916.40671	14161.9125
920.19121	14414.2125
923.97308	14693.9125
927.75233	14829.4125
931.52895	14783.3125
935.30295	14452.6125
939.07433	13962.1125
942.84309	13599.3125
946.60924	13405.4125
950.37278	13370.9125
954.13371	13352.1125
957.89203	13323.3125
961.64774	13273.0125
965.40086	13250.2125
969.15137	13245.9125
972.89929	13169.8125
976.64461	13116.5125
980.38733	13064.4125
984.12747	13114.9125
987.86502	13240.5125
991.59999	13464.4125
995.33237	13758.0125
999.06217	14270.2125
1002.78939	14948.7125
1006.51404	15577.9125
1010.23611	16035.5125
1013.95561	16317.4125
1017.67255	16251.2125
1021.38692	15872.6125
1025.09872	15310.8125
1028.80796	15031.6125
1032.51465	15058.6125
1036.21877	15282.7125
1039.92035	15412.3125
1043.61937	15411.5125
1047.31584	15284.6125
1051.00976	15160.3125
1054.70114	15067.4125
1058.38998	15062.6125
1062.07627	15162.5125
1065.76003	15317.9125
1069.44126	15533.4125
1073.11995	15883.1125
1076.79611	16200.3125
1080.46974	16546.1125
1084.14085	16990.9125
1087.80943	17455.2125
1091.47549	17695.9125
1095.13903	17520.0125
1098.80005	17005.0125
1102.45857	16420.9125
1106.11456	16086.5125
1109.76805	16067.5125
1113.41903	16395.9125
1117.06751	16889.1125
1120.71348	17545.4125
1124.35696	18257.1125
1127.99793	18852.5125
1131.63641	18754.8125
1135.2724	18121.3125
1138.90589	17557.0125
1142.5369	17235.8125
1146.16542	17089.1125
1149.79145	17101.3125
1153.415	17212.3125
1157.03607	17562.0125
1160.65467	18140.6125
1164.27079	19221.6125
1167.88443	20774.6125
1171.49561	23132.3125
1175.10432	26387.5125
1178.71056	30546.7125
1182.31434	34170.5125
1185.91565	35350.9125
1189.51451	34478.6125
1193.11091	32571.7125
1196.70485	30273.2125
1200.29634	28004.6125
1203.88538	26178.6125
1207.47197	24508.3125
1211.05612	23141.2125
1214.63782	22342.4125
1218.21708	22191.2125
1221.79391	22356.9125
1225.36829	22509.9125
1228.94024	22090.4125
1232.50976	21242.4125
1236.07685	20505.7125
1239.6415	20134.5125
1243.20374	19980.4125
1246.76355	20078.9125
1250.32093	20439.2125
1253.8759	20967.2125
1257.42845	21864.9125
1260.97859	22834.3125
1264.52631	23919.6125
1268.07163	24978.3125
1271.61453	26001.9125
1275.15503	26954.7125
1278.69312	27814.1125
1282.22882	28651.3125
1285.76211	29859.0125
1289.29301	31276.0125
1292.82151	33084.3125
1296.34761	35249.1125
1299.87133	38083.9125
1303.39266	41662.0125
1306.9116	46228.9125
1310.42815	50721.8125
1313.94233	53224.5125
1317.45412	52304.9125
1320.96354	49643.7125
1324.47058	46591.8125
1327.97525	43961.1125
1331.47754	42173.5125
1334.97747	41223.6125
1338.47502	40930.4125
1341.97022	41081.6125
1345.46305	41420.4125
1348.95352	42104.4125
1352.44163	43490.5125
1355.92738	46407.6125
1359.41078	51339.3125
1362.89183	55728.5125
1366.37053	54103.4125
1369.84688	46492.7125
1373.32088	38658.0125
1376.79254	34020.5125
1380.26186	31858.5125
1383.72883	31012.8125
1387.19347	30497.7125
1390.65578	30082.8125
1394.11575	30036.6125
1397.57339	30483.0125
1401.0287	31098.6125
1404.48168	31516.7125
1407.93234	31449.0125
1411.38068	30893.5125
1414.82669	29853.2125
1418.27039	28475.2125
1421.71177	27021.1125
1425.15083	25818.6125
1428.58758	25278.9125
1432.02203	25629.1125
1435.45416	26378.2125
1438.88399	27012.3125
1442.31151	27488.9125
1445.73673	27904.1125
1449.15965	28269.3125
1452.58027	28518.7125
1455.9986	28576.6125
1459.41463	28861.0125
1462.82837	29604.0125
1466.23982	30441.0125
1469.64898	31086.7125
1473.05586	31377.4125
1476.46045	31356.5125
1479.86276	31170.3125
1483.26279	31047.8125
1486.66054	31292.3125
1490.05602	32017.4125
1493.44922	33023.9125
1496.84016	34455.5125
1500.22882	36828.1125
1503.61521	40355.3125
1506.99934	44194.8125
1510.38121	46950.9125
1513.76081	46954.2125
1517.13816	43816.9125
1520.51324	39109.9125
1523.88607	35330.0125
1527.25665	33142.1125
1530.62498	32280.6125
1533.99105	31869.1125
1537.35488	31369.7125
1540.71647	30665.5125
1544.07581	29733.1125
1547.4329	28775.3125
1550.78776	27979.6125
1554.14038	27456.4125
1557.49077	27328.1125
1560.83892	27529.2125
1564.18484	28086.8125
1567.52853	28838.8125
1570.86999	29478.8125
1574.20922	30003.6125
1577.54624	30043.0125
1580.88103	29034.5125
1584.2136	27910.9125
1587.54395	27865.7125
1590.87208	29281.2125
1594.19801	31933.0125
1597.52172	34881.0125
1600.84321	36080.0125
1604.16251	34451.4125
1607.47959	31189.1125
1610.79447	27631.1125
1614.10715	24421.9125
1617.41763	21889.9125
1620.7259	20160.8125
1624.03199	19368.5125
1627.33587	19338.5125
1630.63757	20182.8125
1633.93707	22067.7125
1637.23439	25312.7125
1640.52951	30281.4125
1643.82246	36568.3125
1647.11321	42135.1125
1650.40179	43951.0125
1653.68819	40247.0125
1656.97241	33044.8125
1660.25446	25987.9125
1663.53433	21012.1125
1666.81203	17998.8125
1670.08756	16234.2125
1673.36092	15208.7125
1676.63211	14537.5125
1679.90115	14048.4125
1683.16801	13726.3125
1686.43272	13481.7125
1689.69527	13312.3125
1692.95567	13140.9125
1696.2139	13028.9125
1699.46999	12936.1125
1702.72392	12889.0125
1705.97571	12864.9125
1709.22535	12820.8125
1712.47284	12780.1125
1715.71819	12762.9125
1718.96139	12683.9125
1722.20246	12633.5125
1725.44139	12516.8125
1728.67818	12408.1125
1731.91284	12275.1125
1735.14537	12183.8125
1738.37576	12069.3125
1741.60403	12028.1125
1744.83017	11961.0125
1748.05418	11906.0125
1751.27607	11852.9125
1754.49584	11789.8125
1757.71349	11805.0125
1760.92903	11781.2125
1764.14244	11775.7125
1767.35375	11753.5125
1770.56294	11708.9125
1773.77002	11691.2125
1776.97499	11648.6125
1780.17785	11610.9125
1783.37861	11583.1125
1786.57727	11568.4125
1789.77382	11525.6125
1792.96828	11494.3125
1796.16064	11466.3125
1799.3509	11462.2125
1802.53907	11408.7125
1805.72514	11349.9125
1808.90913	11302.4125
1812.09102	11266.6125
1815.27083	11259.1125
1818.44856	11226.2125
1821.6242	11224.0125
1824.79776	11204.1125
1827.96924	11161.9125
1831.13864	11157.7125
1834.30597	11162.7125
1837.47122	11151.9125
1840.6344	11146.7125
1843.7955	11156.2125
1846.95454	11099.1125
1850.11151	11121.3125
1853.26642	11103.7125
1856.41926	11119.2125
1859.57004	11126.7125
1862.71876	11066.7125
1865.86542	11066.1125
1869.01003	11054.8125
1872.15258	11074.4125
1875.29308	11090.5125
1878.43152	11074.0125
1881.56792	11096.4125
1884.70227	11061.5125
1887.83457	11083.2125
1890.96482	11071.6125
1894.09304	11055.2125
1897.21921	11038.4125
1900.34335	11069.7125
1903.46544	11046.0125
1906.58551	11054.0125
1909.70353	11013.1125
1912.81953	11005.2125
1915.93349	10990.1125
1919.04543	10937.2125
1922.15534	10903.7125
1925.26322	10855.9125
1928.36908	10822.1125
1931.47292	10787.3125
1934.57473	10731.6125
1937.67453	10691.6125
1940.77232	10675.4125
1943.86808	10638.5125
1946.96184	10619.2125
1950.05358	10576.6125
1953.14331	10565.3125
1956.23103	10536.8125
1959.31675	10494.0125
1962.40046	10463.2125
1965.48217	10470.9125
1968.56188	10447.0125
1971.63959	10426.4125
1974.7153	10374.0125
1977.78901	10329.9125
1980.86073	10339.6125
1983.93046	10291.7125
1986.99819	10246.0125
1990.06394	10204.4125
1993.1277	10167.7125
1996.18947	10110.9125
1999.24925	10069.8125
2002.30706	10046.7125
2005.36288	10002.0125
2008.41672	9993.3125
2011.46859	9929.0125
2014.51848	9926.2125
2017.56639	9886.1125
2020.61233	9863.4125
2023.6563	9825.6125
2026.6983	9795.6125
2029.73833	9781.1125
2032.7764	9780.5125
2035.8125	9735.2125
2038.84664	9712.6125
2041.87881	9710.1125
2044.90903	9682.2125
2047.93729	9680.0125
2050.96359	9672.5125
2053.98794	9643.4125
2057.01034	9649.1125
2060.03078	9595.6125
2063.04927	9593.6125
2066.06582	9561.6125
2069.08042	9570.0125
2072.09307	9558.7125
2075.10378	9560.3125
2078.11255	9553.8125
2081.11938	9555.6125
2084.12426	9546.1125
2087.12722	9565.9125
2090.12824	9559.1125
2093.12732	9536.3125
2096.12447	9541.7125
2099.11969	9566.5125
2102.11299	9555.6125
2105.10435	9551.9125
2108.09379	9554.6125
2111.08131	9541.2125
2114.0669	9564.7125
2117.05057	9552.5125
2120.03233	9575.5125
2123.01216	9567.8125
2125.99008	9551.0125
2128.96609	9580.5125
2131.94018	9589.0125
2134.91236	9578.9125
2137.88263	9573.1125
2140.851	9556.2125
2143.81746	9554.3125
2146.78201	9570.8125
2149.74466	9561.8125
2152.7054	9521.0125
2155.66425	9533.9125
2158.6212	9507.7125
2161.57625	9509.3125
2164.52941	9528.1125
2167.48067	9507.5125
2170.43004	9503.4125
2173.37752	9486.9125
2176.32311	9494.2125
2179.26681	9498.6125
2182.20863	9483.7125
2185.14856	9484.0125
2188.08661	9497.3125
2191.02278	9484.7125
2193.95707	9458.9125
2196.88948	9477.2125
2199.82001	9427.2125
2202.74867	9423.8125
2205.67545	9417.3125
2208.60037	9412.2125
2211.52341	9380.3125
2214.44458	9405.3125
2217.36388	9383.1125
2220.28132	9390.4125
2223.1969	9323.5125
2226.11061	9319.4125
2229.02246	9308.4125
2231.93245	9291.2125
2234.84058	9284.8125
2237.74686	9235.4125
2240.65128	9238.2125
2243.55385	9224.6125
2246.45456	9221.6125
2249.35343	9214.9125
2252.25044	9187.4125
2255.14561	9191.2125
2258.03893	9206.0125
2260.93041	9169.8125
2263.82004	9165.1125
2266.70783	9120.9125
2269.59378	9098.8125
2272.4779	9078.8125
2275.36017	9069.1125
2278.24061	9041.2125
2281.11922	9019.5125
2283.996	9013.1125
2286.87094	8993.9125
2289.74405	8982.3125
2292.61534	8954.2125
2295.4848	8943.6125
2298.35243	8940.4125
2301.21824	8934.8125
2304.08223	8928.2125
2306.94439	8945.8125
2309.80474	8944.7125
2312.66327	8944.6125
2315.51999	8939.4125
2318.37489	8931.4125
2321.22797	8959.1125
2324.07925	8927.2125
2326.92871	8911.1125
2329.77637	8893.0125
2332.62222	8897.9125
2335.46626	8882.8125
2338.3085	8900.8125
2341.14893	8913.4125
2343.98756	8935.0125
2346.8244	8949.9125
2349.65943	8940.6125
2352.49267	8920.0125
2355.32411	8976.4125
2358.15376	8951.8125
2360.98161	8989.2125
2363.80768	8970.4125
2366.63195	8962.9125
2369.45444	8974.9125
2372.27514	8948.0125
2375.09405	8955.4125
2377.91118	8919.4125
2380.72652	8875.1125
2383.54009	8872.4125
2386.35187	8834.2125
2389.16188	8812.8125
2391.97011	8764.7125
2394.77657	8752.4125
2397.58125	8742.7125
2400.38416	8707.5125
2403.18529	8694.7125
2405.98466	8674.8125
2408.78226	8651.1125
2411.57809	8655.0125
2414.37216	8634.9125
2417.16446	8617.5125
2419.955	8608.3125
2422.74378	8605.5125
2425.5308	8581.1125
2428.31606	8608.7125
2431.09956	8579.2125
2433.88131	8572.0125
2436.6613	8600.0125
2439.43954	8601.7125
2442.21603	8619.7125
2444.99077	8630.8125
2447.76377	8622.3125
2450.53501	8627.9125
2453.30451	8636.1125
2456.07226	8654.6125
2458.83827	8642.1125
2461.60254	8644.0125
2464.36507	8652.9125
2467.12586	8627.7125
2469.88492	8625.8125
2472.64224	8644.9125
2475.39782	8655.2125
2478.15167	8672.8125
2480.90379	8686.3125
2483.65417	8682.7125
2486.40283	8709.2125
2489.14976	8707.3125
2491.89497	8723.2125
2494.63845	8740.0125
2497.3802	8730.5125
2500.12024	8759.3125
2502.85855	8750.5125
2505.59514	8714.0125
2508.33002	8707.0125
2511.06318	8688.6125
2513.79462	8662.0125
2516.52435	8624.2125
2519.25237	8642.2125
2521.97867	8607.1125
2524.70327	8588.0125
2527.42616	8578.9125
2530.14734	8588.8125
2532.86681	8593.7125
2535.58458	8572.3125
2538.30065	8568.8125
2541.01501	8575.4125
2543.72768	8551.5125
2546.43864	8564.8125
2549.14791	8552.4125
2551.85548	8555.0125
2554.56136	8534.0125
2557.26554	8532.5125
2559.96803	8528.9125
2562.66883	8533.1125
2565.36794	8548.6125
2568.06536	8533.6125
2570.7611	8514.4125
2573.45514	8533.3125
2576.14751	8517.0125
2578.83819	8507.2125
2581.52719	8524.9125
2584.21451	8524.0125
2586.90015	8515.8125
2589.58411	8472.0125
2592.2664	8473.4125
2594.94701	8459.7125
2597.62594	8482.9125
2600.30321	8454.1125
2602.9788	8461.3125
2605.65273	8458.5125
2608.32498	8489.0125
2610.99557	8468.7125
2613.66449	8512.0125
2616.33175	8499.0125
2618.99734	8521.5125
2621.66128	8509.2125
2624.32355	8520.1125
2626.98416	8513.8125
2629.64311	8503.0125
2632.30041	8515.9125
2634.95605	8496.9125
2637.61004	8485.3125
2640.26238	8487.7125
2642.91306	8459.6125
2645.56209	8483.3125
2648.20948	8486.9125
2650.85521	8479.5125
2653.4993	8482.1125
2656.14175	8495.1125
2658.78255	8503.8125
2661.42171	8512.1125
2664.05923	8549.6125
2666.6951	8524.3125
2669.32934	8536.4125
2671.96194	8549.0125
2674.59291	8559.7125
2677.22224	8554.2125
2679.84993	8556.5125
2682.476	8546.0125
2685.10043	8556.2125
2687.72324	8515.6125
2690.34441	8508.9125
2692.96396	8523.9125
2695.58188	8533.5125
2698.19818	8516.8125
2700.81285	8528.8125
2703.4259	8521.7125
2706.03733	8517.8125
2708.64714	8517.5125
2711.25533	8519.3125
2713.86191	8535.5125
2716.46687	8556.0125
2719.07021	8564.8125
2721.67194	8543.6125
2724.27206	8552.2125
2726.87057	8566.6125
2729.46747	8561.0125
2732.06276	8580.3125
2734.65644	8555.7125
2737.24852	8556.1125
2739.83899	8543.9125
2742.42786	8559.3125
2745.01513	8511.7125
2747.60079	8504.0125
2750.18486	8525.1125
2752.76733	8532.3125
2755.3482	8533.7125
2757.92747	8535.4125
2760.50515	8535.0125
2763.08123	8551.0125
2765.65573	8532.9125
2768.22863	8542.3125
2770.79994	8544.3125
2773.36967	8537.1125
2775.9378	8543.6125
2778.50435	8536.6125
2781.06932	8527.5125
2783.6327	8547.0125
2786.1945	8541.7125
2788.75471	8519.7125
2791.31335	8510.0125
2793.87041	8506.4125
2796.42589	8501.5125
2798.97979	8472.4125
2801.53212	8481.0125
2804.08288	8504.7125
2806.63206	8502.5125
2809.17967	8481.9125
2811.72571	8451.0125
2814.27018	8476.1125
2816.81308	8459.1125
2819.35442	8462.1125
2821.89419	8470.4125
2824.43239	8456.4125
2826.96904	8453.5125
2829.50412	8465.6125
2832.03763	8432.0125
2834.56959	8456.4125
2837.1	8432.4125
2839.62884	8426.6125
2842.15613	8418.8125
2844.68186	8423.5125
2847.20604	8424.4125
2849.72867	8425.6125
2852.24974	8438.1125
2854.76927	8432.3125
2857.28724	8423.0125
2859.80367	8433.9125
2862.31855	8439.1125
2864.83189	8444.7125
2867.34368	8452.1125
2869.85393	8462.6125
2872.36264	8470.3125
2874.8698	8479.6125
2877.37543	8479.6125
2879.87952	8468.4125
2882.38207	8462.3125
2884.88308	8468.7125
2887.38256	8475.2125
2889.88051	8456.7125
2892.37692	8442.7125
2894.8718	8460.8125
2897.36515	8466.0125
2899.85698	8467.3125
2902.34727	8488.4125
2904.83604	8506.0125
2907.32328	8497.8125
2909.809	8493.3125
2912.29319	8488.9125
2914.77587	8497.3125
2917.25702	8495.5125
2919.73665	8472.6125
2922.21476	8452.8125
2924.69136	8465.9125
2927.16644	8473.7125
2929.64	8434.8125
2932.11205	8405.3125
2934.58258	8370.2125
2937.05161	8375.2125
2939.51912	8377.0125
2941.98513	8387.3125
2944.44962	8345.2125
2946.91261	8292.4125
2949.37409	8344.8125
2951.83407	8326.3125
2954.29254	8320.9125
2956.74951	8295.3125
2959.20498	8266.5125
2961.65895	8242.7125
2964.11142	8228.5125
2966.56239	8209.8125
2969.01186	8208.9125
2971.45984	8174.2125
2973.90632	8167.3125
2976.35131	8146.3125
2978.7948	8105.1125
2981.23681	8098.7125
2983.67732	8062.7125
2986.11635	8052.9125
2988.55388	8016.5125
2990.98993	7989.7125
2993.4245	7988.1125
2995.85758	7954.7125
2998.28917	7957.1125
3000.71928	7940.9125
3003.14791	7944.5125
3005.57506	7914.4125
3008.00073	7920.3125
3010.42493	7909.7125
3012.84764	7886.0125
3015.26888	7872.3125
3017.68865	7859.5125
3020.10694	7825.0125
3022.52376	7816.9125
3024.9391	7803.1125
3027.35298	7783.0125
3029.76539	7786.4125
3032.17632	7764.8125
3034.5858	7750.9125
3036.9938	7745.2125
3039.40034	7723.8125
3041.80542	7716.3125
3044.20903	7687.7125
3046.61118	7697.0125
3049.01187	7677.7125
3051.4111	7658.2125
3053.80888	7646.9125
3056.20519	7633.6125
3058.60005	7598.1125
3060.99345	7590.9125
3063.3854	7561.6125
3065.7759	7532.5125
3068.16494	7544.8125
