Data from AgNP_FTO_APTES_UA_100uM_CRN_20uM_R6G_10uM_NaF_0.1M_Addition_RamanShift__7__16-34-00-482.txt Node

Date: Thu Mar 24 16:34:00 GMT 2022
User: TCL
Spectrometer: QEP01345
Trigger mode: 4
Integration Time (sec): 7.000000E0
Scans to average: 10
Electric dark correction enabled: true
Nonlinearity correction enabled: false
Boxcar width: 0
XAxis mode: Raman Shifts
Number of Pixels in Spectrum: 1044
>>>>>Begin Spectral Data<<<<<
46.04893	-1.8
50.45542	0.1
54.85868	-0.7
59.25871	0.5
63.6555	47.5
68.04907	48.9
72.43941	45.3
76.82654	50.7
81.21044	52.1
85.59113	54.2
89.96862	59.2
94.34289	56.6
98.71396	59.5
103.08183	58.8
107.4465	61.8
111.80798	64.5
116.16626	70.3
120.52136	68
124.87327	68.5
129.222	77
133.56755	77.8
137.90993	82.1
142.24913	96
146.58517	107.2
150.91804	128.2
155.24774	156
159.57429	194.5
163.89768	247.8
168.21792	335.7
172.53501	461.9
176.84895	648.2
181.15975	914.2
185.46741	1291.8
189.77193	1782.8
194.07331	2390.7
198.37157	3101.7
202.6667	3847.2
206.9587	4578.4
211.24758	5316.9
215.53334	6084.5
219.81599	6915.5
224.09553	7839.9
228.37195	8861.6
232.64527	9994.1
236.91549	11138.1
241.18261	12215.2
245.44663	13133.7
249.70755	13886.9
253.96539	14508.1
258.22014	15055.3
262.4718	15468.5
266.72039	15790.6
270.96589	15970.2
275.20832	15924
279.44768	15729.1
283.68397	15524.3
287.91719	15340.4
292.14735	15315.7
296.37445	15401.7
300.59849	15741.1
304.81948	16179.7
309.03742	16511.9
313.25231	16558
317.46415	16248.7
321.67296	15650.8
325.87872	15061.5
330.08145	14840.3
334.28114	14812.4
338.47781	14986.1
342.67145	15260.4
346.86207	15640.9
351.04966	16151.2
355.23424	16693.1
359.4158	17089.8
363.59435	17265.2
367.76989	17347.5
371.94243	17337.6
376.11196	17276
380.27849	17256.8
384.44203	17200.3
388.60257	17214.4
392.76012	17256.3
396.91468	17420.3
401.06626	17736.1
405.21485	17933.9
409.36047	17700.6
413.50311	17119.5
417.64277	16584.1
421.77947	16285.8
425.9132	16213.8
430.04396	16272.5
434.17176	16376.3
438.2966	16586.5
442.41849	17001.5
446.53742	17558.2
450.6534	18104.1
454.76644	18433
458.87653	18434.1
462.98368	18215.6
467.08789	17963
471.18916	17611
475.2875	17250.7
479.38291	16918.5
483.4754	16671.3
487.56496	16421.5
491.6516	16264.9
495.73531	16211.1
499.81612	16138.7
503.89401	16254.1
507.96899	16358.2
512.04106	16432.1
516.11023	16486
520.1765	16528.4
524.23987	16566.3
528.30034	16532.4
532.35792	16471.1
536.41261	16208.1
540.46441	15981
544.51333	15845.4
548.55936	15965.1
552.60252	16256.5
556.64279	16671.1
560.6802	16958.9
564.71473	17128.6
568.7464	17467.6
572.7752	17932.4
576.80114	18005.2
580.82422	18064.5
584.84444	18438.2
588.86181	19140
592.87633	20016.5
596.888	20508.8
600.89682	20188.6
604.9028	20516.4
608.90594	23521.2
612.90624	27416.7
616.90371	25834.8
620.89834	19819.9
624.89015	16952.1
628.87913	16495.6
632.86528	16742.7
636.84862	16997
640.82913	16719.6
644.80683	16066.6
648.78172	15632.8
652.75379	15563.8
656.72306	16043.6
660.68952	16543.7
664.65319	16396.6
668.61405	15780.1
672.57211	15557.1
676.52738	15666.9
680.47986	15615.2
684.42955	15466.2
688.37646	15361.9
692.32058	15393.2
696.26192	15580.7
700.20048	15823.8
704.13626	15992.3
708.06928	15954.2
711.99952	15882.5
715.927	15864.6
719.85171	15928.1
723.77365	15978.4
727.69284	15851.1
731.60928	15705.5
735.52295	15720.4
739.43388	15777.8
743.34206	15820.2
747.24749	15854.5
751.15017	15957.4
755.05012	16156
758.94733	16736.2
762.8418	18113
766.73354	20439.9
770.62254	22604.3
774.50882	23365.4
778.39237	22238.6
782.27321	20069
786.15132	17935.9
790.02671	16638.2
793.89938	15931.3
797.76935	15629.6
801.6366	15494.1
805.50115	15413.5
809.36299	15309.9
813.22213	15268.3
817.07857	15253.1
820.93231	15191.9
824.78336	15206.9
828.63172	15192.7
832.47738	15209.5
836.32036	15156.4
840.16066	15121.2
843.99827	15088.9
847.8332	15108.2
851.66546	15119
855.49504	15131.7
859.32195	15137
863.1462	15077.8
866.96777	15071.5
870.78668	15056.9
874.60293	15110.2
878.41652	15163.7
882.22745	15231.5
886.03573	15292.9
889.84136	15345.7
893.64433	15249.6
897.44466	15189.7
901.24235	15130.8
905.0374	15080.2
908.8298	15001.7
912.61957	14967.3
916.40671	15002.8
920.19121	15121.9
923.97308	15311.4
927.75233	15413
931.52895	15404.7
935.30295	15204
939.07433	14829.5
942.84309	14600.8
946.60924	14433.6
950.37278	14401.4
954.13371	14383.6
957.89203	14361.5
961.64774	14338.2
965.40086	14374.5
969.15137	14328.4
972.89929	14299.1
976.64461	14260.9
980.38733	14296.4
984.12747	14330.7
987.86502	14408.7
991.59999	14484.4
995.33237	14634.4
999.06217	14847.2
1002.78939	15245.2
1006.51404	15637
1010.23611	15930.2
1013.95561	16119.5
1017.67255	16056.5
1021.38692	15797.6
1025.09872	15475.3
1028.80796	15207.1
1032.51465	15101.7
1036.21877	15148.1
1039.92035	15236
1043.61937	15276.6
1047.31584	15348.1
1051.00976	15361.6
1054.70114	15369.3
1058.38998	15392.8
1062.07627	15475
1065.76003	15598.3
1069.44126	15789.6
1073.11995	16101.3
1076.79611	16412.2
1080.46974	16673.8
1084.14085	16961.8
1087.80943	17261.1
1091.47549	17422.9
1095.13903	17276.7
1098.80005	16890.3
1102.45857	16508.4
1106.11456	16289.4
1109.76805	16274.7
1113.41903	16459.4
1117.06751	16771
1120.71348	17230.5
1124.35696	17768.6
1127.99793	18196.2
1131.63641	18160
1135.2724	17733.7
1138.90589	17287.7
1142.5369	17012.3
1146.16542	16928
1149.79145	16884.9
1153.415	16887
1157.03607	16990.1
1160.65467	17285
1164.27079	17862.6
1167.88443	18785.5
1171.49561	20156.2
1175.10432	22187.3
1178.71056	24775.4
1182.31434	27057.9
1185.91565	27642.9
1189.51451	26927
1193.11091	25612.1
1196.70485	24215.6
1200.29634	22952.8
1203.88538	21926
1207.47197	20889.2
1211.05612	19997.9
1214.63782	19479.9
1218.21708	19193.7
1221.79391	19153.2
1225.36829	19194
1228.94024	19118.2
1232.50976	18782.4
1236.07685	18445.7
1239.6415	18244.3
1243.20374	18238.3
1246.76355	18347.3
1250.32093	18509.6
1253.8759	18789.4
1257.42845	19318.1
1260.97859	19934.6
1264.52631	20613.1
1268.07163	21333.3
1271.61453	21876.6
1275.15503	22302.6
1278.69312	22645.6
1282.22882	23110.4
1285.76211	23858.6
1289.29301	24898.7
1292.82151	26065.3
1296.34761	27332.8
1299.87133	28978.4
1303.39266	31099.3
1306.9116	33782
1310.42815	36487.7
1313.94233	37681.3
1317.45412	36685.8
1320.96354	34571.9
1324.47058	32458.2
1327.97525	30528.8
1331.47754	29151.1
1334.97747	28441.3
1338.47502	28226.6
1341.97022	28516.2
1345.46305	29235.8
1348.95352	30344
1352.44163	32016.3
1355.92738	34528
1359.41078	38184.6
1362.89183	41611.7
1366.37053	40737.3
1369.84688	35430.6
1373.32088	29812.3
1376.79254	26472.7
1380.26186	25020.8
1383.72883	24341.7
1387.19347	23659.8
1390.65578	22991.4
1394.11575	22513.9
1397.57339	22323.3
1401.0287	22273.6
1404.48168	22254.9
1407.93234	22121.6
1411.38068	21901.6
1414.82669	21666.1
1418.27039	21230.9
1421.71177	20733.4
1425.15083	20197.5
1428.58758	19926.7
1432.02203	20153.2
1435.45416	20557
1438.88399	20898.8
1442.31151	21050.3
1445.73673	21204.9
1449.15965	21344.8
1452.58027	21300.2
1455.9986	21159.9
1459.41463	21135.4
1462.82837	21445.8
1466.23982	22037.4
1469.64898	22664.6
1473.05586	23234.7
1476.46045	23632.6
1479.86276	23889.1
1483.26279	24148
1486.66054	24515.8
1490.05602	25158
1493.44922	26210.3
1496.84016	27590.1
1500.22882	29509
1503.61521	32125.5
1506.99934	34891
1510.38121	36815.9
1513.76081	36621.3
1517.13816	34076.5
1520.51324	30557.3
1523.88607	27648.3
1527.25665	26038.5
1530.62498	25137.5
1533.99105	24611.3
1537.35488	24100.8
1540.71647	23502.7
1544.07581	22822.1
1547.4329	22275.2
1550.78776	21871.1
1554.14038	21639.3
1557.49077	21581.1
1560.83892	21800.1
1564.18484	22271.7
1567.52853	22949.7
1570.86999	23652
1574.20922	24111
1577.54624	24073.9
1580.88103	23196.1
1584.2136	22118.9
1587.54395	21757.5
1590.87208	22325.9
1594.19801	23714.1
1597.52172	25425.6
1600.84321	26161.7
1604.16251	25220.4
1607.47959	23469.8
1610.79447	21504.3
1614.10715	19763.8
1617.41763	18394.7
1620.7259	17478.3
1624.03199	17040.3
1627.33587	17037.2
1630.63757	17463.4
1633.93707	18479.8
1637.23439	20290.4
1640.52951	23304.9
1643.82246	27309.9
1647.11321	31162.9
1650.40179	32643.2
1653.68819	30582.1
1656.97241	26053.8
1660.25446	21541.2
1663.53433	18455.5
1666.81203	16626.9
1670.08756	15538.1
1673.36092	14875.9
1676.63211	14445.8
1679.90115	14169.6
1683.16801	13932.3
1686.43272	13765
1689.69527	13582.8
1692.95567	13468.7
1696.2139	13395
1699.46999	13319.3
1702.72392	13267.9
1705.97571	13220.1
1709.22535	13210.7
1712.47284	13180.5
1715.71819	13198.7
1718.96139	13147.1
1722.20246	13093
1725.44139	13004.3
1728.67818	12918.3
1731.91284	12823.2
1735.14537	12739
1738.37576	12669.6
1741.60403	12616
1744.83017	12564.2
1748.05418	12530.8
1751.27607	12488.3
1754.49584	12471.2
1757.71349	12426.6
1760.92903	12410.9
1764.14244	12415
1767.35375	12404.9
1770.56294	12348.7
1773.77002	12316.3
1776.97499	12306.4
1780.17785	12246.7
1783.37861	12206.2
1786.57727	12194.4
1789.77382	12152.9
1792.96828	12159.1
1796.16064	12112.8
1799.3509	12096.2
1802.53907	12083.2
1805.72514	12020.7
1808.90913	11983.7
1812.09102	11964.8
1815.27083	11907.2
1818.44856	11924.9
1821.6242	11866
1824.79776	11820.3
1827.96924	11838.4
1831.13864	11824.8
1834.30597	11787.8
1837.47122	11795.2
1840.6344	11772.7
1843.7955	11766.8
1846.95454	11714.8
1850.11151	11686
1853.26642	11681.5
1856.41926	11712.7
1859.57004	11694.8
1862.71876	11652.1
1865.86542	11657.4
1869.01003	11650.2
1872.15258	11594
1875.29308	11613.1
1878.43152	11614.1
1881.56792	11609.7
1884.70227	11604.5
1887.83457	11587.9
1890.96482	11609.9
1894.09304	11557.2
1897.21921	11547.4
1900.34335	11534.7
1903.46544	11556.9
1906.58551	11547.2
1909.70353	11517.8
1912.81953	11485.9
1915.93349	11453
1919.04543	11443
1922.15534	11409.2
1925.26322	11392.1
1928.36908	11342
1931.47292	11302.2
1934.57473	11278.9
1937.67453	11244.6
1940.77232	11248.1
1943.86808	11203.4
1946.96184	11179.6
1950.05358	11124
1953.14331	11105.2
1956.23103	11068.8
1959.31675	11047.2
1962.40046	11016.7
1965.48217	10960.5
1968.56188	10963
1971.63959	10909
1974.7153	10906.3
1977.78901	10855.5
1980.86073	10837
1983.93046	10788.5
1986.99819	10735.5
1990.06394	10713.2
1993.1277	10670
1996.18947	10646.1
1999.24925	10601.9
2002.30706	10533.5
2005.36288	10502
2008.41672	10498.6
2011.46859	10433.1
2014.51848	10426.8
2017.56639	10394.1
2020.61233	10344.1
2023.6563	10325.3
2026.6983	10293.3
2029.73833	10254.7
2032.7764	10248
2035.8125	10226.3
2038.84664	10197
2041.87881	10157
2044.90903	10167.5
2047.93729	10150.3
2050.96359	10123.1
2053.98794	10119.2
2057.01034	10093.2
2060.03078	10066.9
2063.04927	10034.2
2066.06582	10042.4
2069.08042	10043.1
2072.09307	10040.2
2075.10378	10007.1
2078.11255	10021.9
2081.11938	10022.3
2084.12426	10015.9
2087.12722	10010.2
2090.12824	10022.3
2093.12732	10001.6
2096.12447	10015.9
2099.11969	10019.7
2102.11299	10023.5
2105.10435	10026.9
2108.09379	10024.8
2111.08131	10040.1
2114.0669	10026.1
2117.05057	10032.3
2120.03233	10035.3
2123.01216	10028.9
2125.99008	10064.4
2128.96609	10057.2
2131.94018	10054.1
2134.91236	10041.7
2137.88263	10057.4
2140.851	10061.9
2143.81746	10045.7
2146.78201	10038.4
2149.74466	10030.7
2152.7054	10032.2
2155.66425	10031.9
2158.6212	10000.6
2161.57625	10004.7
2164.52941	9977.1
2167.48067	9998
2170.43004	9987.1
2173.37752	9997.3
2176.32311	9976.8
2179.26681	9981.7
2182.20863	9974.8
2185.14856	10004.4
2188.08661	9942.2
2191.02278	9967.7
2193.95707	9965.5
2196.88948	9934.3
2199.82001	9921.7
2202.74867	9897
2205.67545	9901.8
2208.60037	9904.6
2211.52341	9894.8
2214.44458	9852
2217.36388	9819.5
2220.28132	9827.1
2223.1969	9811.4
2226.11061	9781.3
2229.02246	9740.7
2231.93245	9718.9
2234.84058	9692.6
2237.74686	9728.1
2240.65128	9727.1
2243.55385	9684.5
2246.45456	9682.5
2249.35343	9651.8
2252.25044	9644.9
2255.14561	9630.9
2258.03893	9625.4
2260.93041	9616.9
2263.82004	9600
2266.70783	9586.7
2269.59378	9529.9
2272.4779	9520.3
2275.36017	9500.5
2278.24061	9471
2281.11922	9489.5
2283.996	9455.6
2286.87094	9424.8
2289.74405	9394.1
2292.61534	9400.8
2295.4848	9377.4
2298.35243	9357.6
2301.21824	9358.8
2304.08223	9353.2
2306.94439	9350.5
2309.80474	9355.6
2312.66327	9330.1
2315.51999	9315.5
2318.37489	9303.1
2321.22797	9278.7
2324.07925	9285.9
2326.92871	9275.4
2329.77637	9265.3
2332.62222	9228.9
2335.46626	9212.4
2338.3085	9193
2341.14893	9210.3
2343.98756	9203.3
2346.8244	9203.7
2349.65943	9218.5
2352.49267	9201.7
2355.32411	9220.5
2358.15376	9208.2
2360.98161	9207.8
2363.80768	9197.2
2366.63195	9225.6
2369.45444	9235.2
2372.27514	9216.2
2375.09405	9182.9
2377.91118	9187.6
2380.72652	9170.5
2383.54009	9147.3
2386.35187	9118.4
2389.16188	9088.9
2391.97011	9065.2
2394.77657	9052
2397.58125	9017.5
2400.38416	8980.8
2403.18529	8982.3
2405.98466	8967
2408.78226	8961.8
2411.57809	8932.9
2414.37216	8929.7
2417.16446	8925.3
2419.955	8864.5
2422.74378	8889.7
2425.5308	8875.3
2428.31606	8861.6
2431.09956	8882.4
2433.88131	8882.4
2436.6613	8872
2439.43954	8848.8
2442.21603	8839.2
2444.99077	8817.4
2447.76377	8835.5
2450.53501	8856.3
2453.30451	8857
2456.07226	8791.8
2458.83827	8806.1
2461.60254	8818.3
2464.36507	8843.6
2467.12586	8831.5
2469.88492	8803.5
2472.64224	8810.1
2475.39782	8837.6
2478.15167	8827.5
2480.90379	8847.6
2483.65417	8848.7
2486.40283	8855.2
2489.14976	8866.4
2491.89497	8851.4
2494.63845	8852.7
2497.3802	8834
2500.12024	8828.7
2502.85855	8829.4
2505.59514	8797.4
2508.33002	8778.5
2511.06318	8764.6
2513.79462	8757.5
2516.52435	8730.1
2519.25237	8721.9
2521.97867	8709
2524.70327	8684.7
2527.42616	8667.1
2530.14734	8699.3
2532.86681	8671.5
2535.58458	8647.7
2538.30065	8616.4
2541.01501	8622.1
2543.72768	8648.6
2546.43864	8617.9
2549.14791	8600.3
2551.85548	8592
2554.56136	8591.8
2557.26554	8589.5
2559.96803	8565
2562.66883	8551.9
2565.36794	8536.5
2568.06536	8536.5
2570.7611	8510.8
2573.45514	8504.7
2576.14751	8512.9
2578.83819	8485
2581.52719	8460.7
2584.21451	8470.3
2586.90015	8450.3
2589.58411	8434.6
2592.2664	8453.7
2594.94701	8439.7
2597.62594	8423.7
2600.30321	8401.4
2602.9788	8397.6
2605.65273	8391.3
2608.32498	8379.5
2610.99557	8368.1
2613.66449	8363
2616.33175	8368.7
2618.99734	8379.1
2621.66128	8353.9
2624.32355	8330.7
2626.98416	8311.7
2629.64311	8304.3
2632.30041	8279.2
2634.95605	8299.1
2637.61004	8295.9
2640.26238	8269.2
2642.91306	8277.9
2645.56209	8261.7
2648.20948	8274.3
2650.85521	8270.2
2653.4993	8298.9
2656.14175	8298.6
2658.78255	8309.4
2661.42171	8315.2
2664.05923	8303.6
2666.6951	8303.4
2669.32934	8340.1
2671.96194	8330.3
2674.59291	8320.8
2677.22224	8301
2679.84993	8306.9
2682.476	8276.3
2685.10043	8284.8
2687.72324	8263.2
2690.34441	8272.1
2692.96396	8286.3
2695.58188	8291.7
2698.19818	8268.6
2700.81285	8300.4
2703.4259	8274.3
2706.03733	8260.9
2708.64714	8266.4
2711.25533	8276.1
2713.86191	8275.8
2716.46687	8310.5
2719.07021	8294.3
2721.67194	8288
2724.27206	8309.1
2726.87057	8316
2729.46747	8301.5
2732.06276	8294.6
2734.65644	8257.7
2737.24852	8262.8
2739.83899	8246
2742.42786	8269.3
2745.01513	8224.2
2747.60079	8230.6
2750.18486	8221.6
2752.76733	8217.4
2755.3482	8201.2
2757.92747	8199.3
2760.50515	8166.1
2763.08123	8167.9
2765.65573	8160.3
2768.22863	8166.3
2770.79994	8143.1
2773.36967	8163.2
2775.9378	8144
2778.50435	8134.2
2781.06932	8122.9
2783.6327	8125.5
2786.1945	8140.6
2788.75471	8133.2
2791.31335	8126.7
2793.87041	8101.3
2796.42589	8097.8
2798.97979	8073
2801.53212	8053.6
2804.08288	8040.1
2806.63206	8054.3
2809.17967	8030.6
2811.72571	8016.7
2814.27018	8022.9
2816.81308	7988.7
2819.35442	7984.5
2821.89419	7991.1
2824.43239	7993.8
2826.96904	7960
2829.50412	7967.1
2832.03763	7944.2
2834.56959	7957.2
2837.1	7938.6
2839.62884	7966.9
2842.15613	7955.3
2844.68186	7951.9
2847.20604	7954.2
2849.72867	7973.1
2852.24974	7954.5
2854.76927	7945.2
2857.28724	7943.3
2859.80367	7926.1
2862.31855	7933.6
2864.83189	7908.7
2867.34368	7911.1
2869.85393	7918.3
2872.36264	7914.9
2874.8698	7918.1
2877.37543	7904.9
2879.87952	7890.3
2882.38207	7882.1
2884.88308	7891.2
2887.38256	7900
2889.88051	7868.5
2892.37692	7866.9
2894.8718	7862.9
2897.36515	7856.8
2899.85698	7881.4
2902.34727	7864.9
2904.83604	7880.2
2907.32328	7894.3
2909.809	7890.5
2912.29319	7904.2
2914.77587	7902.1
2917.25702	7903.6
2919.73665	7903
2922.21476	7878.7
2924.69136	7875.3
2927.16644	7863.8
2929.64	7867.5
2932.11205	7828.5
2934.58258	7803.5
2937.05161	7809.7
2939.51912	7794.3
2941.98513	7773.8
2944.44962	7755.6
2946.91261	7738.6
2949.37409	7760.7
2951.83407	7728.6
2954.29254	7749.5
2956.74951	7759.8
2959.20498	7754.9
2961.65895	7755.9
2964.11142	7716.7
2966.56239	7703.4
2969.01186	7688.4
2971.45984	7684.5
2973.90632	7689.2
2976.35131	7676.3
2978.7948	7641.5
2981.23681	7622.6
2983.67732	7629.4
2986.11635	7611.7
2988.55388	7581.1
2990.98993	7555.6
2993.4245	7525.4
2995.85758	7520.6
2998.28917	7505.5
3000.71928	7488.1
3003.14791	7473.5
3005.57506	7475.5
3008.00073	7463.2
3010.42493	7457.7
3012.84764	7451.4
3015.26888	7423
3017.68865	7401.3
3020.10694	7409.1
3022.52376	7395
3024.9391	7364
3027.35298	7357.4
3029.76539	7329.4
3032.17632	7332.2
3034.5858	7316.5
3036.9938	7328.3
3039.40034	7299
3041.80542	7298.6
3044.20903	7286.5
3046.61118	7288.6
3049.01187	7238.3
3051.4111	7231.3
3053.80888	7214.8
3056.20519	7200.9
3058.60005	7193.2
3060.99345	7198.7
3063.3854	7174.9
3065.7759	7140
3068.16494	7128.4
3070.55254	7121
3072.93868	7098.4
3075.32338	7091.4
3077.70662	7082.8
3080.08842	7043.8
3082.46878	7038.3
3084.84769	7043
3087.22515	7032.4
3089.60118	7069
3091.97576	7033.7
3094.3489	7046.3
3096.72061	7034.8
3099.09087	7019.5
3101.4597	7022.8
3103.82709	7030.6
3106.19305	7010.2
3108.55757	7005.6
3110.92066	6990.6
3113.28232	7000.6
3115.64255	6970.4
3118.00134	6962
3120.35871	6935.5
3122.71466	6900.3
3125.06917	6902.4
3127.42226	6893.9
3129.77393	6903.5
3132.12417	6884.7
3134.47299	6883.8
3136.82039	6860
3139.16636	6864.9
3141.51092	6859.4
3143.85406	6867.3
3146.19579	6862.7
3148.53609	6882.8
3150.87499	6868
3153.21246	6890.8
3155.54853	6874.3
3157.88318	6881.1
3160.21642	6894.7
3162.54826	6864.1
3164.87868	6877
3167.2077	6848.9
3169.5353	6849.3
3171.86151	6850.9
3174.18631	6859.8
3176.5097	6852.6
3178.83169	6841.7
3181.15228	6824.2
3183.47147	6843.2
3185.78926	6819.4
3188.10565	6815.5
3190.42065	6805.2
3192.73424	6805.1
3195.04645	6787.2
3197.35725	6787.3
3199.66667	6793.7
3201.97469	6800.2
3204.28132	6791.5
3206.58656	6800.2
3208.8904	6795.3
3211.19287	6817.9
3213.49394	6817.2
3215.79363	6794.1
3218.09193	6813.8
3220.38884	6803.2
3222.68438	6814
3224.97853	6816.7
3227.2713	6794.1
3229.56269	6789.1
3231.8527	6811.6
3234.14133	6792.6
3236.42858	6762.1
3238.71446	6764.1
3240.99896	6750.6
3243.28209	6741.3
3245.56384	6730.8
3247.84423	6713.1
3250.12324	6721.4
3252.40088	6714.3
3254.67715	6686.2
3256.95205	6704.6
3259.22558	6702.3
3261.49775	6685.2
3263.76855	6676.5
3266.03799	6651.9
3268.30606	6643
3270.57277	6636.4
3272.83812	6639.4
3275.10211	6606.6
3277.36474	6603.6
3279.62601	6620.6
3281.88593	6604.8
3284.14448	6598.8
3286.40168	6618.6
3288.65753	6639.4
3290.91202	6616.6
3293.16516	6590.7
3295.41695	6583.7
3297.66738	6549.6
3299.91647	6528.2
3302.16421	6482.2
3304.4106	6475.1
3306.65564	6422.7
3308.89933	6401.7
3311.14169	6356.9
3313.38269	6297.9
3315.62236	6265.7
3317.86068	6196.7
3320.09766	6174.2
3322.3333	6104.9
3324.5676	6121.3
3326.80056	6010.4
3329.03219	5979.2
3331.26248	1.7
3333.49143	-0.8
3335.71905	1.5
