Data from AgNP_FTO_APTES_UA_100uM_CRN_50uM_R6G_10uM_NaF_0.1M_Addition_RamanShift__28__17-40-30-555.txt Node

Date: Thu Mar 24 17:40:30 GMT 2022
User: TCL
Spectrometer: QEP01345
Trigger mode: 4
Integration Time (sec): 7.000000E0
Scans to average: 10
Electric dark correction enabled: true
Nonlinearity correction enabled: false
Boxcar width: 0
XAxis mode: Raman Shifts
Number of Pixels in Spectrum: 1044
>>>>>Begin Spectral Data<<<<<
46.04893	-0.475
50.45542	-0.775
54.85868	-1.075
59.25871	-0.675
63.6555	37.725
68.04907	40.225
72.43941	38.825
76.82654	38.125
81.21044	43.625
85.59113	42.825
89.96862	45.325
94.34289	44.825
98.71396	49.325
103.08183	48.425
107.4465	51.225
111.80798	50.825
116.16626	53.025
120.52136	53.925
124.87327	54.725
129.222	57.725
133.56755	61.725
137.90993	64.825
142.24913	74.125
146.58517	80.225
150.91804	96.825
155.24774	113.825
159.57429	144.025
163.89768	180.525
168.21792	247.025
172.53501	338.625
176.84895	477.225
181.15975	669.125
185.46741	933.725
189.77193	1293.825
194.07331	1731.725
198.37157	2230.925
202.6667	2772.625
206.9587	3294.825
211.24758	3840.825
215.53334	4388.925
219.81599	4976.225
224.09553	5666.825
228.37195	6383.925
232.64527	7218.625
236.91549	8070.825
241.18261	8870.825
245.44663	9569.025
249.70755	10135.525
253.96539	10582.425
258.22014	10985.725
262.4718	11353.625
266.72039	11604.525
270.96589	11744.225
275.20832	11780.225
279.44768	11692.825
283.68397	11552.625
287.91719	11470.025
292.14735	11434.725
296.37445	11539.725
300.59849	11741.325
304.81948	11988.225
309.03742	12127.025
313.25231	12089.225
317.46415	11768.425
321.67296	11286.725
325.87872	10855.325
330.08145	10625.325
334.28114	10628.925
338.47781	10736.125
342.67145	10934.225
346.86207	11164.125
351.04966	11502.325
355.23424	11797.825
359.4158	12084.825
363.59435	12220.925
367.76989	12284.125
371.94243	12289.325
376.11196	12311.325
380.27849	12300.025
384.44203	12287.425
388.60257	12305.925
392.76012	12328.125
396.91468	12442.125
401.06626	12642.625
405.21485	12736.825
409.36047	12614.725
413.50311	12183.825
417.64277	11823.425
421.77947	11621.925
425.9132	11616.625
430.04396	11684.425
434.17176	11787.325
438.2966	11897.425
442.41849	12130.425
446.53742	12505.025
450.6534	12869.225
454.76644	13087.125
458.87653	13151.025
462.98368	13029.825
467.08789	12860.825
471.18916	12652.925
475.2875	12464.225
479.38291	12330.125
483.4754	12133.825
487.56496	11943.125
491.6516	11796.425
495.73531	11694.825
499.81612	11644.225
503.89401	11708.725
507.96899	11775.225
512.04106	11798.425
516.11023	11830.325
520.1765	11813.325
524.23987	11780.625
528.30034	11700.525
532.35792	11606.825
536.41261	11484.225
540.46441	11338.825
544.51333	11329.225
548.55936	11405.725
552.60252	11663.425
556.64279	11950.225
560.6802	12149.225
564.71473	12245.825
568.7464	12478.125
572.7752	12798.825
576.80114	12979.625
580.82422	13043.325
584.84444	13187.825
588.86181	13414.925
592.87633	13756.325
596.888	13985.025
600.89682	14035.625
604.9028	14624.025
608.90594	16650.925
612.90624	19240.325
616.90371	18134.925
620.89834	14010.925
624.89015	12021.525
628.87913	11747.925
632.86528	11936.125
636.84862	12119.825
640.82913	11953.425
644.80683	11479.425
648.78172	11082.325
652.75379	11025.625
656.72306	11208.425
660.68952	11547.525
664.65319	11449.725
668.61405	11014.025
672.57211	10877.825
676.52738	10900.325
680.47986	10844.525
684.42955	10796.425
688.37646	10709.725
692.32058	10738.125
696.26192	10863.025
700.20048	10992.725
704.13626	11076.625
708.06928	11076.925
711.99952	10979.725
715.927	10968.725
719.85171	10978.725
723.77365	11009.225
727.69284	10973.925
731.60928	10886.125
735.52295	10876.625
739.43388	10918.025
743.34206	10919.525
747.24749	10942.825
751.15017	11011.125
755.05012	11170.725
758.94733	11604.925
762.8418	12618.125
766.73354	14314.825
770.62254	16038.925
774.50882	16575.125
778.39237	15652.425
782.27321	13884.825
786.15132	12321.525
790.02671	11395.125
793.89938	10942.725
797.76935	10721.025
801.6366	10603.625
805.50115	10555.325
809.36299	10529.825
813.22213	10491.625
817.07857	10466.925
820.93231	10408.625
824.78336	10382.825
828.63172	10350.825
832.47738	10337.725
836.32036	10294.925
840.16066	10315.625
843.99827	10278.625
847.8332	10276.225
851.66546	10270.325
855.49504	10266.925
859.32195	10273.625
863.1462	10229.925
866.96777	10244.025
870.78668	10227.225
874.60293	10257.325
878.41652	10257.625
882.22745	10328.425
886.03573	10388.525
889.84136	10380.725
893.64433	10345.125
897.44466	10279.525
901.24235	10226.425
905.0374	10172.925
908.8298	10128.625
912.61957	10117.625
916.40671	10183.625
920.19121	10270.025
923.97308	10405.125
927.75233	10430.025
931.52895	10367.725
935.30295	10192.825
939.07433	9988.925
942.84309	9796.225
946.60924	9703.725
950.37278	9663.425
954.13371	9620.325
957.89203	9594.725
961.64774	9597.625
965.40086	9575.625
969.15137	9571.225
972.89929	9527.625
976.64461	9485.825
980.38733	9477.325
984.12747	9478.325
987.86502	9525.125
991.59999	9585.425
995.33237	9707.925
999.06217	9912.425
1002.78939	10183.925
1006.51404	10447.525
1010.23611	10666.525
1013.95561	10810.925
1017.67255	10770.125
1021.38692	10622.625
1025.09872	10415.625
1028.80796	10272.225
1032.51465	10258.825
1036.21877	10329.425
1039.92035	10389.125
1043.61937	10391.825
1047.31584	10400.325
1051.00976	10394.725
1054.70114	10384.125
1058.38998	10391.825
1062.07627	10481.325
1065.76003	10547.525
1069.44126	10642.225
1073.11995	10766.325
1076.79611	10918.425
1080.46974	11083.225
1084.14085	11230.925
1087.80943	11462.425
1091.47549	11543.325
1095.13903	11471.025
1098.80005	11219.125
1102.45857	10979.725
1106.11456	10820.425
1109.76805	10844.925
1113.41903	11002.525
1117.06751	11254.625
1120.71348	11584.825
1124.35696	11942.925
1127.99793	12252.725
1131.63641	12250.925
1135.2724	11998.925
1138.90589	11726.725
1142.5369	11499.425
1146.16542	11378.425
1149.79145	11312.925
1153.415	11333.125
1157.03607	11449.325
1160.65467	11726.925
1164.27079	12199.125
1167.88443	12941.225
1171.49561	13959.425
1175.10432	15467.325
1178.71056	17366.425
1182.31434	19023.425
1185.91565	19582.025
1189.51451	19165.525
1193.11091	18271.125
1196.70485	17183.625
1200.29634	16152.625
1203.88538	15377.525
1207.47197	14608.725
1211.05612	13901.425
1214.63782	13447.225
1218.21708	13211.925
1221.79391	13138.125
1225.36829	13168.125
1228.94024	13064.625
1232.50976	12807.725
1236.07685	12553.025
1239.6415	12430.025
1243.20374	12387.725
1246.76355	12458.625
1250.32093	12581.325
1253.8759	12796.425
1257.42845	13138.525
1260.97859	13542.425
1264.52631	13967.725
1268.07163	14430.825
1271.61453	14898.325
1275.15503	15267.925
1278.69312	15614.525
1282.22882	15957.725
1285.76211	16385.225
1289.29301	16983.525
1292.82151	17717.125
1296.34761	18574.525
1299.87133	19767.925
1303.39266	21327.225
1306.9116	23272.025
1310.42815	25219.625
1313.94233	26257.125
1317.45412	25806.425
1320.96354	24642.125
1324.47058	23399.225
1327.97525	22224.725
1331.47754	21299.325
1334.97747	20836.125
1338.47502	20730.625
1341.97022	20952.425
1345.46305	21443.225
1348.95352	22146.525
1352.44163	23068.025
1355.92738	24525.825
1359.41078	26883.125
1362.89183	29119.325
1366.37053	28611.425
1369.84688	25011.325
1373.32088	21155.325
1376.79254	18798.925
1380.26186	17606.925
1383.72883	17104.425
1387.19347	16743.025
1390.65578	16398.025
1394.11575	16129.925
1397.57339	16046.325
1401.0287	16142.725
1404.48168	16207.925
1407.93234	16156.825
1411.38068	15934.925
1414.82669	15570.025
1418.27039	15060.225
1421.71177	14528.325
1425.15083	14018.325
1428.58758	13768.425
1432.02203	13841.825
1435.45416	14075.825
1438.88399	14372.425
1442.31151	14598.725
1445.73673	14782.625
1449.15965	14972.625
1452.58027	15077.225
1455.9986	15131.925
1459.41463	15209.625
1462.82837	15532.425
1466.23982	15996.725
1469.64898	16492.125
1473.05586	16888.125
1476.46045	17099.725
1479.86276	17240.525
1483.26279	17281.025
1486.66054	17417.125
1490.05602	17748.525
1493.44922	18348.225
1496.84016	19192.225
1500.22882	20509.825
1503.61521	22377.525
1506.99934	24369.825
1510.38121	25644.325
1513.76081	25515.525
1517.13816	23836.925
1520.51324	21596.625
1523.88607	19659.525
1527.25665	18496.525
1530.62498	17941.425
1533.99105	17612.225
1537.35488	17250.725
1540.71647	16857.825
1544.07581	16335.325
1547.4329	15924.725
1550.78776	15557.525
1554.14038	15383.625
1557.49077	15414.325
1560.83892	15570.325
1564.18484	15901.125
1567.52853	16349.225
1570.86999	16754.625
1574.20922	17058.025
1577.54624	17037.825
1580.88103	16436.725
1584.2136	15714.125
1587.54395	15449.925
1590.87208	15806.125
1594.19801	16753.825
1597.52172	17885.825
1600.84321	18311.725
1604.16251	17640.625
1607.47959	16478.325
1610.79447	15202.025
1614.10715	13997.225
1617.41763	12972.225
1620.7259	12230.925
1624.03199	11800.725
1627.33587	11749.625
1630.63757	12064.225
1633.93707	12768.325
1637.23439	14063.525
1640.52951	16119.225
1643.82246	18685.225
1647.11321	21217.625
1650.40179	22315.725
1653.68819	21114.525
1656.97241	18145.625
1660.25446	15012.025
1663.53433	12771.325
1666.81203	11373.725
1670.08756	10515.325
1673.36092	9989.025
1676.63211	9656.425
1679.90115	9411.525
1683.16801	9215.825
1686.43272	9055.625
1689.69527	8943.925
1692.95567	8881.425
1696.2139	8810.225
1699.46999	8751.225
1702.72392	8708.025
1705.97571	8667.625
1709.22535	8616.625
1712.47284	8608.525
1715.71819	8563.125
1718.96139	8493.025
1722.20246	8452.525
1725.44139	8431.225
1728.67818	8353.325
1731.91284	8262.425
1735.14537	8214.425
1738.37576	8187.925
1741.60403	8161.625
1744.83017	8106.825
1748.05418	8099.325
1751.27607	8058.625
1754.49584	8019.925
1757.71349	8014.325
1760.92903	8005.025
1764.14244	8010.525
1767.35375	8000.725
1770.56294	7958.125
1773.77002	7922.725
1776.97499	7914.425
1780.17785	7848.925
1783.37861	7847.725
1786.57727	7832.325
1789.77382	7803.425
1792.96828	7801.125
1796.16064	7779.925
1799.3509	7759.825
1802.53907	7735.225
1805.72514	7706.525
1808.90913	7692.825
1812.09102	7661.125
1815.27083	7648.125
1818.44856	7630.025
1821.6242	7594.325
1824.79776	7572.725
1827.96924	7571.125
1831.13864	7563.925
1834.30597	7544.325
1837.47122	7521.825
1840.6344	7505.325
1843.7955	7519.725
1846.95454	7489.625
1850.11151	7495.225
1853.26642	7466.225
1856.41926	7475.425
1859.57004	7467.925
1862.71876	7440.825
1865.86542	7439.425
1869.01003	7461.225
1872.15258	7432.925
1875.29308	7432.125
1878.43152	7443.325
1881.56792	7399.825
1884.70227	7414.425
1887.83457	7423.325
1890.96482	7428.325
1894.09304	7404.725
1897.21921	7384.125
1900.34335	7359.725
1903.46544	7354.925
1906.58551	7344.125
1909.70353	7353.525
1912.81953	7343.425
1915.93349	7314.825
1919.04543	7300.725
1922.15534	7296.425
1925.26322	7269.925
1928.36908	7252.725
1931.47292	7224.525
1934.57473	7221.325
1937.67453	7225.125
1940.77232	7194.825
1943.86808	7169.725
1946.96184	7137.625
1950.05358	7101.525
1953.14331	7092.225
1956.23103	7060.925
1959.31675	7041.625
1962.40046	7034.425
1965.48217	7003.525
1968.56188	6991.725
1971.63959	6973.325
1974.7153	6961.225
1977.78901	6953.325
1980.86073	6908.125
1983.93046	6875.925
1986.99819	6848.725
1990.06394	6822.925
1993.1277	6804.025
1996.18947	6792.825
1999.24925	6781.125
2002.30706	6749.425
2005.36288	6715.525
2008.41672	6675.425
2011.46859	6655.725
2014.51848	6651.325
2017.56639	6638.325
2020.61233	6604.625
2023.6563	6572.925
2026.6983	6580.725
2029.73833	6567.325
2032.7764	6529.125
2035.8125	6509.325
2038.84664	6511.425
2041.87881	6497.025
2044.90903	6485.125
2047.93729	6457.925
2050.96359	6461.825
2053.98794	6453.625
2057.01034	6436.825
2060.03078	6425.825
2063.04927	6416.025
2066.06582	6393.825
2069.08042	6411.725
2072.09307	6390.325
2075.10378	6395.425
2078.11255	6405.325
2081.11938	6434.125
2084.12426	6395.525
2087.12722	6394.725
2090.12824	6384.525
2093.12732	6382.525
2096.12447	6405.525
2099.11969	6390.025
2102.11299	6386.925
2105.10435	6364.425
2108.09379	6384.025
2111.08131	6399.125
2114.0669	6390.925
2117.05057	6394.425
2120.03233	6381.925
2123.01216	6403.425
2125.99008	6406.425
2128.96609	6414.025
2131.94018	6408.125
2134.91236	6392.325
2137.88263	6401.725
2140.851	6425.725
2143.81746	6403.325
2146.78201	6398.725
2149.74466	6399.425
2152.7054	6394.525
2155.66425	6376.825
2158.6212	6383.525
2161.57625	6376.025
2164.52941	6363.825
2167.48067	6358.725
2170.43004	6360.325
2173.37752	6359.325
2176.32311	6344.125
2179.26681	6349.525
2182.20863	6341.425
2185.14856	6371.125
2188.08661	6329.525
2191.02278	6339.225
2193.95707	6331.825
2196.88948	6330.425
2199.82001	6329.925
2202.74867	6303.025
2205.67545	6316.425
2208.60037	6312.325
2211.52341	6292.725
2214.44458	6286.025
2217.36388	6245.525
2220.28132	6272.325
2223.1969	6245.425
2226.11061	6238.925
2229.02246	6220.625
2231.93245	6198.425
2234.84058	6197.725
2237.74686	6202.525
2240.65128	6188.625
2243.55385	6166.225
2246.45456	6172.325
2249.35343	6173.925
2252.25044	6153.925
2255.14561	6145.125
2258.03893	6138.425
2260.93041	6115.325
2263.82004	6111.825
2266.70783	6081.625
2269.59378	6079.725
2272.4779	6061.725
2275.36017	6071.425
2278.24061	6037.525
2281.11922	6039.325
2283.996	6004.125
2286.87094	6006.225
2289.74405	5989.525
2292.61534	6000.225
2295.4848	5979.225
2298.35243	5972.825
2301.21824	5965.925
2304.08223	5940.325
2306.94439	5976.125
2309.80474	5961.825
2312.66327	5968.525
2315.51999	5948.525
2318.37489	5937.625
2321.22797	5961.825
2324.07925	5941.425
2326.92871	5922.025
2329.77637	5927.425
2332.62222	5929.225
2335.46626	5908.125
2338.3085	5876.325
2341.14893	5892.125
2343.98756	5905.825
2346.8244	5926.625
2349.65943	5912.525
2352.49267	5938.325
2355.32411	5922.325
2358.15376	5928.325
2360.98161	5926.425
2363.80768	5918.725
2366.63195	5937.025
2369.45444	5935.325
2372.27514	5929.125
2375.09405	5906.425
2377.91118	5903.125
2380.72652	5880.425
2383.54009	5841.525
2386.35187	5855.425
2389.16188	5819.925
2391.97011	5821.825
2394.77657	5798.925
2397.58125	5756.325
2400.38416	5751.925
2403.18529	5750.425
2405.98466	5737.225
2408.78226	5742.825
2411.57809	5725.725
2414.37216	5717.225
2417.16446	5711.925
2419.955	5698.225
2422.74378	5701.525
2425.5308	5709.725
2428.31606	5698.325
2431.09956	5686.525
2433.88131	5686.625
2436.6613	5693.025
2439.43954	5682.225
2442.21603	5684.825
2444.99077	5666.825
2447.76377	5682.425
2450.53501	5675.025
2453.30451	5684.625
2456.07226	5678.725
2458.83827	5692.825
2461.60254	5678.025
2464.36507	5672.425
2467.12586	5665.625
2469.88492	5670.425
2472.64224	5686.625
2475.39782	5672.525
2478.15167	5689.725
2480.90379	5696.225
2483.65417	5706.925
2486.40283	5708.425
2489.14976	5704.425
2491.89497	5720.325
2494.63845	5723.525
2497.3802	5713.125
2500.12024	5718.425
2502.85855	5704.825
2505.59514	5697.625
2508.33002	5684.325
2511.06318	5641.925
2513.79462	5656.925
2516.52435	5624.625
2519.25237	5608.425
2521.97867	5618.025
2524.70327	5602.025
2527.42616	5619.025
2530.14734	5593.825
2532.86681	5586.325
2535.58458	5589.825
2538.30065	5573.825
2541.01501	5582.125
2543.72768	5571.325
2546.43864	5586.125
2549.14791	5561.725
2551.85548	5565.025
2554.56136	5558.525
2557.26554	5533.525
2559.96803	5537.825
2562.66883	5520.625
2565.36794	5527.625
2568.06536	5520.625
2570.7611	5508.525
2573.45514	5484.925
2576.14751	5475.325
2578.83819	5482.525
2581.52719	5487.625
2584.21451	5486.625
2586.90015	5474.825
2589.58411	5474.325
2592.2664	5493.025
2594.94701	5461.325
2597.62594	5463.925
2600.30321	5440.525
2602.9788	5449.125
2605.65273	5445.725
2608.32498	5433.225
2610.99557	5446.625
2613.66449	5449.525
2616.33175	5444.225
2618.99734	5454.425
2621.66128	5456.825
2624.32355	5439.625
2626.98416	5428.525
2629.64311	5437.425
2632.30041	5414.225
2634.95605	5425.225
2637.61004	5417.725
2640.26238	5418.625
2642.91306	5425.625
2645.56209	5400.125
2648.20948	5382.525
2650.85521	5411.625
2653.4993	5410.925
2656.14175	5401.525
2658.78255	5427.925
2661.42171	5410.225
2664.05923	5431.825
2666.6951	5432.625
2669.32934	5443.525
2671.96194	5440.125
2674.59291	5448.325
2677.22224	5434.925
2679.84993	5437.225
2682.476	5422.625
2685.10043	5430.425
2687.72324	5405.925
2690.34441	5393.825
2692.96396	5417.325
2695.58188	5403.625
2698.19818	5413.725
2700.81285	5403.825
2703.4259	5395.725
2706.03733	5391.925
2708.64714	5431.725
2711.25533	5430.425
2713.86191	5430.225
2716.46687	5435.125
2719.07021	5432.825
2721.67194	5454.425
2724.27206	5440.425
2726.87057	5443.725
2729.46747	5428.925
2732.06276	5453.525
2734.65644	5428.825
2737.24852	5438.225
2739.83899	5416.225
2742.42786	5430.525
2745.01513	5394.425
2747.60079	5397.225
2750.18486	5380.425
2752.76733	5396.325
2755.3482	5386.825
2757.92747	5405.525
2760.50515	5360.625
2763.08123	5374.525
2765.65573	5351.925
2768.22863	5382.425
2770.79994	5373.125
2773.36967	5378.725
2775.9378	5369.225
2778.50435	5370.825
2781.06932	5371.025
2783.6327	5361.025
2786.1945	5375.525
2788.75471	5374.125
2791.31335	5355.725
2793.87041	5352.225
2796.42589	5340.225
2798.97979	5343.625
2801.53212	5326.425
2804.08288	5334.225
2806.63206	5314.225
2809.17967	5303.425
2811.72571	5306.125
2814.27018	5310.925
2816.81308	5302.425
2819.35442	5286.725
2821.89419	5281.625
2824.43239	5296.825
2826.96904	5278.225
2829.50412	5278.425
2832.03763	5261.825
2834.56959	5263.125
2837.1	5268.925
2839.62884	5281.625
2842.15613	5261.325
2844.68186	5273.525
2847.20604	5275.925
2849.72867	5285.025
2852.24974	5280.825
2854.76927	5275.325
2857.28724	5277.925
2859.80367	5288.725
2862.31855	5287.025
2864.83189	5284.225
2867.34368	5284.625
2869.85393	5281.825
2872.36264	5272.525
2874.8698	5272.125
2877.37543	5281.625
2879.87952	5275.325
2882.38207	5267.625
2884.88308	5273.325
2887.38256	5262.925
2889.88051	5252.225
2892.37692	5271.625
2894.8718	5276.225
2897.36515	5274.425
2899.85698	5279.025
2902.34727	5282.325
2904.83604	5282.125
2907.32328	5296.925
2909.809	5318.925
2912.29319	5301.725
2914.77587	5298.725
2917.25702	5295.425
2919.73665	5300.025
2922.21476	5303.925
2924.69136	5288.025
2927.16644	5290.225
2929.64	5269.125
2932.11205	5265.225
2934.58258	5250.425
2937.05161	5241.325
2939.51912	5251.925
2941.98513	5223.525
2944.44962	5200.125
2946.91261	5193.425
2949.37409	5199.225
2951.83407	5200.725
2954.29254	5207.825
2956.74951	5202.325
2959.20498	5214.625
2961.65895	5195.925
2964.11142	5186.525
2966.56239	5163.625
2969.01186	5161.325
2971.45984	5154.425
2973.90632	5132.025
2976.35131	5133.625
2978.7948	5111.725
2981.23681	5096.825
2983.67732	5096.225
2986.11635	5082.125
2988.55388	5087.625
2990.98993	5060.225
2993.4245	5051.325
2995.85758	5060.425
2998.28917	5054.825
3000.71928	5016.025
3003.14791	5034.725
3005.57506	5023.525
3008.00073	5014.225
3010.42493	5016.425
3012.84764	5002.425
3015.26888	5001.325
3017.68865	4990.025
3020.10694	4976.525
3022.52376	4968.125
3024.9391	4965.925
3027.35298	4948.225
3029.76539	4950.025
3032.17632	4930.325
3034.5858	4941.625
3036.9938	4943.025
3039.40034	4932.525
3041.80542	4932.925
3044.20903	4937.225
3046.61118	4924.025
3049.01187	4916.825
3051.4111	4925.025
3053.80888	4902.325
3056.20519	4885.925
3058.60005	4881.225
3060.99345	4871.025
3063.3854	4858.625
3065.7759	4847.625
3068.16494	4845.225
3070.55254	4821.925
3072.93868	4828.225
3075.32338	4802.425
3077.70662	4816.525
3080.08842	4798.325
3082.46878	4797.325
3084.84769	4790.025
3087.22515	4792.525
3089.60118	4805.625
3091.97576	4797.925
3094.3489	4802.725
3096.72061	4792.925
3099.09087	4792.825
3101.4597	4791.825
3103.82709	4783.925
3106.19305	4791.425
3108.55757	4779.525
3110.92066	4797.025
3113.28232	4782.525
3115.64255	4766.325
3118.00134	4760.325
3120.35871	4748.725
3122.71466	4753.825
3125.06917	4725.525
3127.42226	4728.825
3129.77393	4740.125
3132.12417	4735.325
3134.47299	4744.525
3136.82039	4736.025
3139.16636	4725.125
3141.51092	4731.825
3143.85406	4733.525
3146.19579	4735.925
3148.53609	4727.925
3150.87499	4741.425
3153.21246	4771.725
3155.54853	4779.625
3157.88318	4769.625
3160.21642	4765.225
3162.54826	4762.325
3164.87868	4764.325
3167.2077	4770.325
3169.5353	4772.725
3171.86151	4779.125
3174.18631	4759.825
3176.5097	4766.925
3178.83169	4765.325
3181.15228	4766.225
3183.47147	4753.325
3185.78926	4769.925
3188.10565	4754.325
3190.42065	4762.225
3192.73424	4754.225
