Data from AgNP_FTO_APTES_UA_100uM_CRN_2uM_R6G_10uM_NaF_0.1M_Addition_RamanShift__5__13-50-40-294.txt Node

Date: Thu Mar 24 13:50:40 GMT 2022
User: TCL
Spectrometer: QEP01345
Trigger mode: 4
Integration Time (sec): 7.000000E0
Scans to average: 10
Electric dark correction enabled: true
Nonlinearity correction enabled: false
Boxcar width: 0
XAxis mode: Raman Shifts
Number of Pixels in Spectrum: 1044
>>>>>Begin Spectral Data<<<<<
46.04893	-2.075
50.45542	0.625
54.85868	0.125
59.25871	1.025
63.6555	41.925
68.04907	43.425
72.43941	47.325
76.82654	46.525
81.21044	52.925
85.59113	52.925
89.96862	56.125
94.34289	50.625
98.71396	59.325
103.08183	56.325
107.4465	61.125
111.80798	59.425
116.16626	64.425
120.52136	63.925
124.87327	66.725
129.222	70.125
133.56755	76.825
137.90993	77.025
142.24913	93.425
146.58517	97.525
150.91804	114.625
155.24774	139.825
159.57429	170.125
163.89768	224.725
168.21792	296.925
172.53501	406.325
176.84895	571.025
181.15975	802.825
185.46741	1122.725
189.77193	1546.625
194.07331	2070.025
198.37157	2665.825
202.6667	3307.525
206.9587	3958.425
211.24758	4608.025
215.53334	5283.225
219.81599	5991.525
224.09553	6786.725
228.37195	7689.825
232.64527	8684.225
236.91549	9684.425
241.18261	10602.325
245.44663	11376.025
249.70755	11990.725
253.96539	12474.725
258.22014	12878.025
262.4718	13230.925
266.72039	13453.125
270.96589	13547.725
275.20832	13569.025
279.44768	13487.625
283.68397	13341.525
287.91719	13278.125
292.14735	13301.725
296.37445	13438.325
300.59849	13707.225
304.81948	14047.225
309.03742	14382.825
313.25231	14424.425
317.46415	14170.625
321.67296	13595.025
325.87872	13036.425
330.08145	12734.125
334.28114	12662.325
338.47781	12768.325
342.67145	13039.025
346.86207	13351.925
351.04966	13758.125
355.23424	14143.325
359.4158	14460.725
363.59435	14520.325
367.76989	14502.225
371.94243	14402.325
376.11196	14344.625
380.27849	14267.625
384.44203	14259.125
388.60257	14289.025
392.76012	14371.725
396.91468	14522.725
401.06626	14798.225
405.21485	14976.625
409.36047	14733.625
413.50311	14175.125
417.64277	13773.025
421.77947	13561.625
425.9132	13560.125
430.04396	13633.125
434.17176	13727.425
438.2966	13858.525
442.41849	14155.225
446.53742	14682.525
450.6534	15196.025
454.76644	15553.425
458.87653	15550.925
462.98368	15385.025
467.08789	15139.025
471.18916	14869.625
475.2875	14592.625
479.38291	14326.025
483.4754	14157.825
487.56496	13954.625
491.6516	13733.325
495.73531	13546.725
499.81612	13433.725
503.89401	13484.625
507.96899	13604.625
512.04106	13610.125
516.11023	13575.925
520.1765	13469.425
524.23987	13450.925
528.30034	13394.425
532.35792	13274.325
536.41261	13028.625
540.46441	12760.025
544.51333	12674.925
548.55936	12789.425
552.60252	13169.925
556.64279	13669.925
560.6802	14069.325
564.71473	14300.225
568.7464	14800.025
572.7752	15518.025
576.80114	16014.725
580.82422	16321.225
584.84444	16621.825
588.86181	17217.325
592.87633	18047.125
596.888	18396.425
600.89682	17703.825
604.9028	17630.025
608.90594	19855.125
612.90624	22823.925
616.90371	21403.325
620.89834	16115.825
624.89015	13507.025
628.87913	13112.625
632.86528	13396.725
636.84862	13583.525
640.82913	13338.725
644.80683	12708.025
648.78172	12291.325
652.75379	12226.525
656.72306	12554.425
660.68952	12986.225
664.65319	12860.625
668.61405	12396.225
672.57211	12128.525
676.52738	12147.925
680.47986	12164.125
684.42955	12018.925
688.37646	11920.225
692.32058	11981.925
696.26192	12135.925
700.20048	12333.725
704.13626	12549.025
708.06928	12594.125
711.99952	12565.325
715.927	12538.425
719.85171	12591.425
723.77365	12508.525
727.69284	12319.925
731.60928	12154.125
735.52295	12099.925
739.43388	12202.725
743.34206	12246.525
747.24749	12375.225
751.15017	12517.225
755.05012	12815.925
758.94733	13458.725
762.8418	14868.525
766.73354	17199.925
770.62254	19337.125
774.50882	19720.025
778.39237	18313.925
782.27321	16207.325
786.15132	14326.925
790.02671	13163.925
793.89938	12484.225
797.76935	12204.825
801.6366	12038.725
805.50115	11916.725
809.36299	11817.625
813.22213	11779.925
817.07857	11736.425
820.93231	11728.725
824.78336	11692.725
828.63172	11669.825
832.47738	11641.725
836.32036	11637.325
840.16066	11558.125
843.99827	11535.825
847.8332	11543.625
851.66546	11551.125
855.49504	11612.625
859.32195	11601.825
863.1462	11547.725
866.96777	11486.625
870.78668	11478.525
874.60293	11484.025
878.41652	11503.025
882.22745	11580.325
886.03573	11654.225
889.84136	11648.625
893.64433	11577.025
897.44466	11542.825
901.24235	11522.825
905.0374	11452.225
908.8298	11412.825
912.61957	11394.225
916.40671	11494.225
920.19121	11685.425
923.97308	11887.225
927.75233	11973.125
931.52895	11851.725
935.30295	11567.225
939.07433	11213.125
942.84309	10931.825
946.60924	10759.625
950.37278	10713.825
954.13371	10701.725
957.89203	10729.925
961.64774	10698.225
965.40086	10694.925
969.15137	10671.625
972.89929	10642.525
976.64461	10602.225
980.38733	10581.125
984.12747	10574.725
987.86502	10625.725
991.59999	10716.525
995.33237	10822.125
999.06217	11067.125
1002.78939	11363.325
1006.51404	11781.925
1010.23611	12123.325
1013.95561	12295.925
1017.67255	12283.325
1021.38692	11991.425
1025.09872	11638.325
1028.80796	11321.625
1032.51465	11186.525
1036.21877	11251.125
1039.92035	11337.225
1043.61937	11465.325
1047.31584	11532.925
1051.00976	11597.625
1054.70114	11649.325
1058.38998	11661.325
1062.07627	11791.825
1065.76003	11942.425
1069.44126	12180.225
1073.11995	12464.725
1076.79611	12770.925
1080.46974	12946.025
1084.14085	13216.425
1087.80943	13499.125
1091.47549	13699.425
1095.13903	13629.025
1098.80005	13265.725
1102.45857	12797.825
1106.11456	12480.925
1109.76805	12384.325
1113.41903	12492.725
1117.06751	12811.625
1120.71348	13165.425
1124.35696	13627.925
1127.99793	14043.225
1131.63641	14080.025
1135.2724	13715.425
1138.90589	13378.525
1142.5369	13242.825
1146.16542	13196.325
1149.79145	13282.525
1153.415	13480.925
1157.03607	13658.525
1160.65467	13971.525
1164.27079	14586.725
1167.88443	15534.825
1171.49561	16995.525
1175.10432	19127.725
1178.71056	21736.325
1182.31434	23833.025
1185.91565	24299.225
1189.51451	23590.825
1193.11091	22418.225
1196.70485	21076.725
1200.29634	19794.625
1203.88538	18726.125
1207.47197	17755.125
1211.05612	16982.925
1214.63782	16456.425
1218.21708	16171.325
1221.79391	16074.225
1225.36829	16151.725
1228.94024	16073.825
1232.50976	15697.625
1236.07685	15204.625
1239.6415	14821.325
1243.20374	14723.525
1246.76355	14766.825
1250.32093	14930.025
1253.8759	15278.725
1257.42845	15755.825
1260.97859	16409.525
1264.52631	17103.825
1268.07163	17776.825
1271.61453	18375.325
1275.15503	18930.225
1278.69312	19488.525
1282.22882	20164.725
1285.76211	21137.725
1289.29301	22423.825
1292.82151	23826.725
1296.34761	25355.325
1299.87133	27269.025
1303.39266	29454.825
1306.9116	31980.225
1310.42815	34262.125
1313.94233	35344.825
1317.45412	34597.925
1320.96354	32845.425
1324.47058	31118.025
1327.97525	29629.725
1331.47754	28475.225
1334.97747	27632.025
1338.47502	27153.425
1341.97022	27042.325
1345.46305	27344.525
1348.95352	27949.925
1352.44163	29065.625
1355.92738	30918.525
1359.41078	33962.825
1362.89183	37064.325
1366.37053	36780.225
1369.84688	32420.225
1373.32088	27262.225
1376.79254	23943.425
1380.26186	22521.625
1383.72883	21941.425
1387.19347	21573.125
1390.65578	21054.525
1394.11575	20825.725
1397.57339	20711.025
1401.0287	20710.025
1404.48168	20598.825
1407.93234	20217.325
1411.38068	19665.225
1414.82669	19032.525
1418.27039	18309.425
1421.71177	17586.525
1425.15083	16903.525
1428.58758	16584.325
1432.02203	16713.125
1435.45416	17148.525
1438.88399	17548.425
1442.31151	17856.525
1445.73673	18124.025
1449.15965	18396.525
1452.58027	18488.125
1455.9986	18518.525
1459.41463	18650.725
1462.82837	18981.025
1466.23982	19509.325
1469.64898	20063.225
1473.05586	20468.225
1476.46045	20695.625
1479.86276	20865.325
1483.26279	21101.325
1486.66054	21395.625
1490.05602	22030.325
1493.44922	22923.925
1496.84016	24225.025
1500.22882	25990.425
1503.61521	28287.025
1506.99934	30703.125
1510.38121	32347.425
1513.76081	32355.925
1517.13816	30371.425
1520.51324	27573.525
1523.88607	25376.625
1527.25665	24088.725
1530.62498	23462.025
1533.99105	23016.125
1537.35488	22423.625
1540.71647	21641.225
1544.07581	20669.925
1547.4329	19796.925
1550.78776	19098.825
1554.14038	18727.925
1557.49077	18635.625
1560.83892	18850.425
1564.18484	19302.425
1567.52853	19939.225
1570.86999	20526.825
1574.20922	21003.225
1577.54624	20994.925
1580.88103	20287.025
1584.2136	19423.525
1587.54395	19318.225
1590.87208	19982.125
1594.19801	21338.725
1597.52172	22889.125
1600.84321	23360.925
1604.16251	22182.825
1607.47959	20239.525
1610.79447	18254.825
1614.10715	16476.625
1617.41763	15056.425
1620.7259	14089.325
1624.03199	13650.725
1627.33587	13650.225
1630.63757	14067.825
1633.93707	15140.225
1637.23439	17151.825
1640.52951	20377.125
1643.82246	24671.925
1647.11321	28843.825
1650.40179	30599.925
1653.68819	28625.725
1656.97241	23981.525
1660.25446	19134.025
1663.53433	15590.125
1666.81203	13420.825
1670.08756	12118.125
1673.36092	11347.625
1676.63211	10908.325
1679.90115	10597.725
1683.16801	10350.425
1686.43272	10180.225
1689.69527	10016.025
1692.95567	9890.925
1696.2139	9843.825
1699.46999	9762.225
1702.72392	9714.425
1705.97571	9663.425
1709.22535	9616.525
1712.47284	9607.125
1715.71819	9606.625
1718.96139	9534.125
1722.20246	9514.425
1725.44139	9411.125
1728.67818	9325.125
1731.91284	9221.925
1735.14537	9125.725
1738.37576	9078.625
1741.60403	9045.525
1744.83017	8988.225
1748.05418	8961.325
1751.27607	8960.025
1754.49584	8929.525
1757.71349	8903.825
1760.92903	8875.225
1764.14244	8873.225
1767.35375	8851.725
1770.56294	8804.825
1773.77002	8769.325
1776.97499	8759.425
1780.17785	8736.325
1783.37861	8683.125
1786.57727	8654.225
1789.77382	8623.725
1792.96828	8620.225
1796.16064	8584.125
1799.3509	8567.325
1802.53907	8537.625
1805.72514	8500.825
1808.90913	8458.525
1812.09102	8443.525
1815.27083	8409.125
1818.44856	8380.025
1821.6242	8356.925
1824.79776	8355.625
1827.96924	8334.425
1831.13864	8310.125
1834.30597	8303.825
1837.47122	8270.825
1840.6344	8280.125
1843.7955	8264.725
1846.95454	8245.825
1850.11151	8238.025
1853.26642	8228.625
1856.41926	8192.925
1859.57004	8195.525
1862.71876	8192.225
1865.86542	8181.325
1869.01003	8150.725
1872.15258	8154.925
1875.29308	8138.825
1878.43152	8128.925
1881.56792	8123.925
1884.70227	8106.225
1887.83457	8138.525
1890.96482	8111.725
1894.09304	8087.725
1897.21921	8088.825
1900.34335	8088.325
1903.46544	8088.225
1906.58551	8092.125
1909.70353	8079.825
1912.81953	8052.225
1915.93349	8039.025
1919.04543	8009.925
1922.15534	7987.125
1925.26322	7965.525
1928.36908	7938.325
1931.47292	7912.125
1934.57473	7882.525
1937.67453	7870.925
1940.77232	7826.725
1943.86808	7815.725
1946.96184	7781.225
1950.05358	7770.125
1953.14331	7744.525
1956.23103	7711.925
1959.31675	7730.325
1962.40046	7687.025
1965.48217	7680.625
1968.56188	7645.125
1971.63959	7626.525
1974.7153	7601.525
1977.78901	7577.425
1980.86073	7543.325
1983.93046	7525.425
1986.99819	7481.425
1990.06394	7442.925
1993.1277	7426.625
1996.18947	7389.125
1999.24925	7355.825
2002.30706	7347.825
2005.36288	7294.825
2008.41672	7255.425
2011.46859	7249.925
2014.51848	7225.725
2017.56639	7217.825
2020.61233	7164.625
2023.6563	7159.825
2026.6983	7127.625
2029.73833	7124.125
2032.7764	7110.225
2035.8125	7071.225
2038.84664	7055.725
2041.87881	7036.525
2044.90903	7040.125
2047.93729	7008.025
2050.96359	6998.025
2053.98794	6987.725
2057.01034	6968.725
2060.03078	6980.925
2063.04927	6942.025
2066.06582	6951.725
2069.08042	6953.325
2072.09307	6904.725
2075.10378	6914.725
2078.11255	6898.225
2081.11938	6913.725
2084.12426	6897.325
2087.12722	6895.225
2090.12824	6910.125
2093.12732	6908.425
2096.12447	6929.825
2099.11969	6898.825
2102.11299	6908.625
2105.10435	6915.525
2108.09379	6903.325
2111.08131	6909.425
2114.0669	6912.025
2117.05057	6900.525
2120.03233	6900.425
2123.01216	6894.925
2125.99008	6905.425
2128.96609	6913.525
2131.94018	6893.425
2134.91236	6903.925
2137.88263	6896.325
2140.851	6892.325
2143.81746	6889.625
2146.78201	6873.925
2149.74466	6852.425
2152.7054	6870.525
2155.66425	6856.925
2158.6212	6849.425
2161.57625	6842.425
2164.52941	6850.525
2167.48067	6828.625
2170.43004	6807.925
2173.37752	6809.325
2176.32311	6800.025
2179.26681	6822.625
2182.20863	6794.125
2185.14856	6787.425
2188.08661	6766.625
2191.02278	6775.925
2193.95707	6769.425
2196.88948	6745.625
2199.82001	6732.225
2202.74867	6727.525
2205.67545	6727.325
2208.60037	6699.925
2211.52341	6690.925
2214.44458	6668.325
2217.36388	6671.025
2220.28132	6649.425
2223.1969	6654.125
2226.11061	6651.125
2229.02246	6605.725
2231.93245	6617.925
2234.84058	6606.225
2237.74686	6563.525
2240.65128	6562.425
2243.55385	6567.725
2246.45456	6555.625
2249.35343	6535.725
2252.25044	6509.425
2255.14561	6503.825
2258.03893	6493.525
2260.93041	6495.525
2263.82004	6493.125
2266.70783	6465.525
2269.59378	6455.225
2272.4779	6432.725
2275.36017	6412.425
2278.24061	6398.125
2281.11922	6382.125
2283.996	6380.525
2286.87094	6353.925
2289.74405	6329.825
2292.61534	6305.725
2295.4848	6329.525
2298.35243	6300.925
2301.21824	6296.625
2304.08223	6300.625
2306.94439	6275.825
2309.80474	6283.225
2312.66327	6252.825
2315.51999	6261.525
2318.37489	6249.225
2321.22797	6245.425
2324.07925	6239.525
2326.92871	6215.825
2329.77637	6221.625
2332.62222	6207.425
2335.46626	6196.125
2338.3085	6205.725
2341.14893	6205.925
2343.98756	6203.725
2346.8244	6208.625
2349.65943	6199.925
2352.49267	6202.025
2355.32411	6178.025
2358.15376	6202.125
2360.98161	6215.425
2363.80768	6218.325
2366.63195	6231.525
2369.45444	6227.125
2372.27514	6207.025
2375.09405	6204.225
2377.91118	6177.925
2380.72652	6169.625
2383.54009	6150.925
2386.35187	6132.625
2389.16188	6091.325
2391.97011	6099.025
2394.77657	6058.925
2397.58125	6052.825
2400.38416	6051.025
2403.18529	6032.825
2405.98466	6003.525
2408.78226	5997.625
2411.57809	5992.225
2414.37216	5968.925
2417.16446	5965.725
2419.955	5958.725
2422.74378	5952.625
2425.5308	5963.825
2428.31606	5958.125
2431.09956	5946.925
2433.88131	5938.525
2436.6613	5935.825
2439.43954	5941.725
2442.21603	5936.825
2444.99077	5934.525
2447.76377	5934.725
2450.53501	5942.125
2453.30451	5935.425
2456.07226	5926.125
2458.83827	5933.025
2461.60254	5930.325
2464.36507	5927.325
2467.12586	5916.825
2469.88492	5946.625
2472.64224	5943.525
2475.39782	5951.325
2478.15167	5943.225
2480.90379	5934.625
2483.65417	5955.825
2486.40283	5962.725
2489.14976	5981.325
2491.89497	5976.025
2494.63845	5996.125
2497.3802	5957.125
2500.12024	5961.325
2502.85855	5940.825
2505.59514	5936.725
2508.33002	5928.125
2511.06318	5912.325
2513.79462	5871.225
2516.52435	5865.625
2519.25237	5867.525
2521.97867	5856.525
2524.70327	5834.325
2527.42616	5842.125
2530.14734	5812.125
2532.86681	5798.825
2535.58458	5813.925
2538.30065	5782.125
2541.01501	5791.725
2543.72768	5791.325
2546.43864	5774.725
2549.14791	5768.625
2551.85548	5781.425
2554.56136	5772.825
2557.26554	5758.525
2559.96803	5758.125
2562.66883	5744.725
2565.36794	5742.525
2568.06536	5759.225
2570.7611	5745.125
2573.45514	5738.125
2576.14751	5719.525
2578.83819	5727.025
2581.52719	5716.125
2584.21451	5694.625
2586.90015	5705.225
2589.58411	5692.225
2592.2664	5681.225
2594.94701	5663.325
2597.62594	5658.425
2600.30321	5655.925
2602.9788	5653.025
2605.65273	5648.225
2608.32498	5657.625
2610.99557	5635.125
2613.66449	5631.225
2616.33175	5643.425
2618.99734	5640.825
2621.66128	5629.725
2624.32355	5621.625
2626.98416	5600.425
2629.64311	5599.025
2632.30041	5593.125
2634.95605	5601.025
2637.61004	5575.825
2640.26238	5574.925
2642.91306	5600.225
2645.56209	5584.425
2648.20948	5591.925
2650.85521	5592.325
2653.4993	5576.125
2656.14175	5588.925
2658.78255	5593.425
2661.42171	5601.025
2664.05923	5604.925
2666.6951	5587.625
2669.32934	5604.525
2671.96194	5601.025
2674.59291	5604.925
2677.22224	5601.525
2679.84993	5604.825
2682.476	5591.425
2685.10043	5620.425
2687.72324	5590.825
2690.34441	5591.225
2692.96396	5602.225
2695.58188	5592.825
2698.19818	5593.425
2700.81285	5576.525
2703.4259	5579.525
2706.03733	5587.125
2708.64714	5581.025
2711.25533	5583.025
2713.86191	5572.125
2716.46687	5610.825
2719.07021	5573.725
2721.67194	5590.525
2724.27206	5580.025
2726.87057	5588.625
2729.46747	5596.325
2732.06276	5578.225
2734.65644	5574.525
2737.24852	5568.325
2739.83899	5580.925
2742.42786	5569.125
2745.01513	5556.725
2747.60079	5548.825
2750.18486	5560.225
2752.76733	5559.925
2755.3482	5523.725
2757.92747	5538.325
2760.50515	5534.725
2763.08123	5514.425
2765.65573	5511.425
2768.22863	5513.825
2770.79994	5504.025
2773.36967	5517.125
2775.9378	5501.125
2778.50435	5500.325
2781.06932	5505.125
2783.6327	5504.825
2786.1945	5478.025
2788.75471	5490.125
2791.31335	5462.025
2793.87041	5466.625
2796.42589	5461.025
2798.97979	5469.825
2801.53212	5453.325
2804.08288	5461.625
2806.63206	5466.425
2809.17967	5451.425
2811.72571	5448.325
2814.27018	5452.625
2816.81308	5432.725
2819.35442	5435.225
2821.89419	5439.225
2824.43239	5437.925
2826.96904	5433.325
2829.50412	5425.425
2832.03763	5400.125
2834.56959	5414.025
2837.1	5399.325
2839.62884	5397.425
2842.15613	5391.225
2844.68186	5405.225
2847.20604	5407.825
2849.72867	5412.225
2852.24974	5415.425
2854.76927	5412.025
2857.28724	5421.725
2859.80367	5403.125
2862.31855	5378.725
2864.83189	5407.625
2867.34368	5419.425
2869.85393	5420.525
2872.36264	5424.025
2874.8698	5415.125
2877.37543	5417.425
2879.87952	5401.225
2882.38207	5398.825
2884.88308	5404.625
2887.38256	5390.525
2889.88051	5400.725
2892.37692	5393.725
2894.8718	5389.725
2897.36515	5401.125
2899.85698	5407.525
2902.34727	5409.725
2904.83604	5413.825
2907.32328	5422.825
2909.809	5427.525
2912.29319	5416.425
2914.77587	5405.625
2917.25702	5415.425
2919.73665	5420.625
2922.21476	5415.625
2924.69136	5387.125
2927.16644	5388.825
2929.64	5389.425
2932.11205	5382.525
2934.58258	5337.525
2937.05161	5344.025
2939.51912	5349.825
2941.98513	5328.225
2944.44962	5313.725
2946.91261	5290.425
2949.37409	5296.925
2951.83407	5261.525
2954.29254	5275.425
2956.74951	5266.325
2959.20498	5266.925
2961.65895	5244.325
2964.11142	5233.425
2966.56239	5237.325
2969.01186	5206.525
2971.45984	5186.825
2973.90632	5176.125
2976.35131	5159.025
2978.7948	5136.425
2981.23681	5135.625
2983.67732	5130.425
2986.11635	5110.925
2988.55388	5110.525
2990.98993	5080.925
2993.4245	5077.325
2995.85758	5056.225
2998.28917	5052.625
3000.71928	5035.025
3003.14791	5026.525
3005.57506	5012.025
3008.00073	5003.725
3010.42493	5011.425
3012.84764	4994.225
3015.26888	4977.925
3017.68865	4962.025
3020.10694	4970.825
3022.52376	4953.025
3024.9391	4929.025
3027.35298	4937.325
3029.76539	4910.725
3032.17632	4906.325
3034.5858	4907.225
3036.9938	4912.225
3039.40034	4892.525
3041.80542	4891.225
3044.20903	4862.425
3046.61118	4864.725
3049.01187	4850.825
3051.4111	4833.525
3053.80888	4812.325
3056.20519	4815.725
3058.60005	4802.425
3060.99345	4790.925
3063.3854	4782.225
3065.7759	4763.225
3068.16494	4772.425
3070.55254	4751.625
3072.93868	4734.425
3075.32338	4726.625
3077.70662	4716.525
3080.08842	4712.725
3082.46878	4698.225
3084.84769	4701.925
3087.22515	4680.425
3089.60118	4678.525
3091.97576	4673.425
3094.3489	4659.725
3096.72061	4653.725
3099.09087	4657.125
3101.4597	4646.425
3103.82709	4651.525
3106.19305	4650.325
3108.55757	4656.325
3110.92066	4623.825
3113.28232	4601.625
3115.64255	4593.525
3118.00134	4574.525
3120.35871	4578.825
3122.71466	4571.925
3125.06917	4571.125
3127.42226	4561.625
3129.77393	4574.925
3132.12417	4570.025
3134.47299	4579.025
3136.82039	4566.325
3139.16636	4570.525
3141.51092	4571.025
3143.85406	4576.825
3146.19579	4573.425
3148.53609	4561.225
3150.87499	4557.425
3153.21246	4555.325
3155.54853	4567.825
3157.88318	4557.025
3160.21642	4560.825
3162.54826	4559.925
3164.87868	4559.625
3167.2077	4553.425
3169.5353	4546.025
3171.86151	4549.225
3174.18631	4537.525
3176.5097	4543.325
3178.83169	4544.725
3181.15228	4535.225
3183.47147	4532.525
3185.78926	4528.125
3188.10565	4517.125
3190.42065	4524.625
