Data from AgNP_FTO_APTES_UA_100uM_CRN_10uM_R6G_10uM_NaF_0.1M_Addition_RamanShift__26__15-47-20-429.txt Node

Date: Thu Mar 24 15:47:20 GMT 2022
User: TCL
Spectrometer: QEP01345
Trigger mode: 4
Integration Time (sec): 7.000000E0
Scans to average: 10
Electric dark correction enabled: true
Nonlinearity correction enabled: false
Boxcar width: 0
XAxis mode: Raman Shifts
Number of Pixels in Spectrum: 1044
>>>>>Begin Spectral Data<<<<<
46.04893	-1.725
50.45542	1.075
54.85868	-0.025
59.25871	0.575
63.6555	24.975
68.04907	29.475
72.43941	29.175
76.82654	29.775
81.21044	31.575
85.59113	31.475
89.96862	34.875
94.34289	31.275
98.71396	35.875
103.08183	33.275
107.4465	40.275
111.80798	38.475
116.16626	38.375
120.52136	39.175
124.87327	39.575
129.222	41.875
133.56755	44.175
137.90993	45.475
142.24913	53.875
146.58517	55.375
150.91804	64.375
155.24774	78.875
159.57429	91.675
163.89768	116.475
168.21792	160.075
172.53501	215.175
176.84895	299.075
181.15975	421.475
185.46741	590.875
189.77193	814.975
194.07331	1093.875
198.37157	1410.375
202.6667	1754.775
206.9587	2096.075
211.24758	2443.175
215.53334	2812.675
219.81599	3213.275
224.09553	3673.175
228.37195	4185.775
232.64527	4734.975
236.91549	5290.175
241.18261	5790.875
245.44663	6177.775
249.70755	6477.375
253.96539	6742.175
258.22014	6966.175
262.4718	7172.575
266.72039	7288.475
270.96589	7358.275
275.20832	7281.875
279.44768	7139.575
283.68397	6992.475
287.91719	6882.075
292.14735	6847.975
296.37445	6954.575
300.59849	7190.275
304.81948	7505.675
309.03742	7796.875
313.25231	7871.775
317.46415	7681.775
321.67296	7251.475
325.87872	6858.675
330.08145	6664.875
334.28114	6629.675
338.47781	6751.975
342.67145	6901.275
346.86207	7146.875
351.04966	7490.175
355.23424	7843.975
359.4158	8128.975
363.59435	8237.775
367.76989	8220.075
371.94243	8199.375
376.11196	8117.275
380.27849	8093.575
384.44203	8011.975
388.60257	7985.175
392.76012	7946.275
396.91468	8008.175
401.06626	8189.575
405.21485	8320.675
409.36047	8152.075
413.50311	7765.575
417.64277	7435.175
421.77947	7214.675
425.9132	7161.275
430.04396	7162.675
434.17176	7214.175
438.2966	7380.875
442.41849	7660.175
446.53742	8004.875
450.6534	8324.675
454.76644	8506.075
458.87653	8491.275
462.98368	8318.875
467.08789	8074.275
471.18916	7858.575
475.2875	7594.175
479.38291	7373.675
483.4754	7149.475
487.56496	6979.575
491.6516	6924.875
495.73531	6883.975
499.81612	6896.275
503.89401	6975.275
507.96899	7039.175
512.04106	7106.275
516.11023	7179.175
520.1765	7240.075
524.23987	7280.075
528.30034	7345.875
532.35792	7310.175
536.41261	7182.575
540.46441	7048.975
544.51333	6966.975
548.55936	6958.975
552.60252	7069.475
556.64279	7295.575
560.6802	7421.075
564.71473	7500.475
568.7464	7688.575
572.7752	7833.175
576.80114	7758.575
580.82422	7655.975
584.84444	7813.575
588.86181	8202.075
592.87633	8874.475
596.888	9377.775
600.89682	9264.775
604.9028	9473.275
608.90594	11439.975
612.90624	14326.875
616.90371	13635.775
620.89834	9584.075
624.89015	7563.375
628.87913	7180.375
632.86528	7280.375
636.84862	7395.575
640.82913	7255.975
644.80683	6886.175
648.78172	6609.075
652.75379	6596.975
656.72306	6889.075
660.68952	7256.075
664.65319	7167.775
668.61405	6738.675
672.57211	6597.075
676.52738	6603.875
680.47986	6591.775
684.42955	6487.275
688.37646	6416.975
692.32058	6441.575
696.26192	6527.575
700.20048	6649.575
704.13626	6730.475
708.06928	6724.075
711.99952	6657.175
715.927	6664.675
719.85171	6722.775
723.77365	6770.275
727.69284	6720.075
731.60928	6688.975
735.52295	6758.875
739.43388	6794.975
743.34206	6798.775
747.24749	6770.775
751.15017	6776.175
755.05012	6854.275
758.94733	7130.375
762.8418	7884.975
766.73354	9281.375
770.62254	10663.675
774.50882	11312.475
778.39237	10872.375
782.27321	9518.675
786.15132	8150.075
790.02671	7255.375
793.89938	6798.675
797.76935	6619.175
801.6366	6533.575
805.50115	6481.375
809.36299	6458.875
813.22213	6419.775
817.07857	6389.575
820.93231	6396.675
824.78336	6413.575
828.63172	6438.375
832.47738	6460.975
836.32036	6453.075
840.16066	6426.275
843.99827	6374.875
847.8332	6366.875
851.66546	6366.075
855.49504	6373.675
859.32195	6371.875
863.1462	6379.075
866.96777	6336.775
870.78668	6354.175
874.60293	6374.975
878.41652	6405.975
882.22745	6466.975
886.03573	6514.975
889.84136	6520.675
893.64433	6470.075
897.44466	6450.175
901.24235	6428.275
905.0374	6364.475
908.8298	6326.075
912.61957	6271.875
916.40671	6271.475
920.19121	6309.075
923.97308	6383.175
927.75233	6512.275
931.52895	6584.875
935.30295	6502.575
939.07433	6301.975
942.84309	6148.175
946.60924	6054.175
950.37278	6020.875
954.13371	6001.675
957.89203	6002.275
961.64774	5994.575
965.40086	5996.275
969.15137	5970.675
972.89929	5941.375
976.64461	5969.775
980.38733	5971.575
984.12747	5974.775
987.86502	6001.975
991.59999	6069.375
995.33237	6177.475
999.06217	6357.475
1002.78939	6562.175
1006.51404	6763.075
1010.23611	6943.975
1013.95561	7053.475
1017.67255	7005.275
1021.38692	6832.175
1025.09872	6593.175
1028.80796	6454.475
1032.51465	6427.875
1036.21877	6495.675
1039.92035	6515.575
1043.61937	6544.875
1047.31584	6555.975
1051.00976	6532.875
1054.70114	6497.475
1058.38998	6504.775
1062.07627	6525.975
1065.76003	6539.375
1069.44126	6602.775
1073.11995	6734.075
1076.79611	6878.675
1080.46974	7066.675
1084.14085	7283.875
1087.80943	7486.575
1091.47549	7556.575
1095.13903	7444.375
1098.80005	7179.075
1102.45857	6975.375
1106.11456	6890.975
1109.76805	6948.175
1113.41903	7099.775
1117.06751	7359.475
1120.71348	7687.675
1124.35696	8055.975
1127.99793	8357.075
1131.63641	8265.975
1135.2724	7927.175
1138.90589	7593.575
1142.5369	7399.175
1146.16542	7317.175
1149.79145	7216.975
1153.415	7178.875
1157.03607	7247.175
1160.65467	7382.275
1164.27079	7692.775
1167.88443	8184.875
1171.49561	8975.475
1175.10432	10187.375
1178.71056	11848.575
1182.31434	13268.075
1185.91565	13678.375
1189.51451	13178.475
1193.11091	12207.075
1196.70485	11205.675
1200.29634	10358.575
1203.88538	9639.275
1207.47197	8960.075
1211.05612	8422.275
1214.63782	8140.075
1218.21708	8059.075
1221.79391	8157.775
1225.36829	8232.275
1228.94024	8197.575
1232.50976	8041.275
1236.07685	7905.975
1239.6415	7886.775
1243.20374	7938.175
1246.76355	8009.375
1250.32093	8072.275
1253.8759	8216.975
1257.42845	8538.575
1260.97859	8946.775
1264.52631	9409.675
1268.07163	9873.975
1271.61453	10162.275
1275.15503	10303.375
1278.69312	10314.875
1282.22882	10481.675
1285.76211	10817.875
1289.29301	11394.675
1292.82151	11945.275
1296.34761	12573.775
1299.87133	13358.675
1303.39266	14623.275
1306.9116	16408.375
1310.42815	18284.975
1313.94233	19221.775
1317.45412	18513.275
1320.96354	17040.875
1324.47058	15532.175
1327.97525	14138.575
1331.47754	13104.175
1334.97747	12576.475
1338.47502	12484.175
1341.97022	12696.975
1345.46305	13195.375
1348.95352	14039.275
1352.44163	15325.075
1355.92738	17288.075
1359.41078	20136.675
1362.89183	22701.975
1366.37053	22079.475
1369.84688	18349.675
1373.32088	14644.775
1376.79254	12627.775
1380.26186	11795.575
1383.72883	11326.675
1387.19347	10733.675
1390.65578	10089.675
1394.11575	9654.175
1397.57339	9498.475
1401.0287	9485.975
1404.48168	9543.675
1407.93234	9594.475
1411.38068	9625.275
1414.82669	9700.675
1418.27039	9660.275
1421.71177	9460.075
1425.15083	9175.875
1428.58758	9100.775
1432.02203	9315.375
1435.45416	9718.475
1438.88399	9969.175
1442.31151	10052.775
1445.73673	10066.675
1449.15965	10120.575
1452.58027	10007.175
1455.9986	9731.175
1459.41463	9565.775
1462.82837	9654.075
1466.23982	10018.575
1469.64898	10484.175
1473.05586	10903.075
1476.46045	11272.775
1479.86276	11627.175
1483.26279	11925.475
1486.66054	12324.175
1490.05602	12925.475
1493.44922	13604.575
1496.84016	14317.475
1500.22882	15200.375
1503.61521	16564.875
1506.99934	18286.375
1510.38121	19643.275
1513.76081	19597.275
1517.13816	17757.575
1520.51324	15205.775
1523.88607	13022.975
1527.25665	11739.275
1530.62498	11068.875
1533.99105	10728.175
1537.35488	10446.575
1540.71647	10211.575
1544.07581	10014.275
1547.4329	9880.875
1550.78776	9746.575
1554.14038	9600.475
1557.49077	9552.875
1560.83892	9631.875
1564.18484	9949.475
1567.52853	10443.475
1570.86999	10905.975
1574.20922	11205.975
1577.54624	11132.375
1580.88103	10508.375
1584.2136	9770.575
1587.54395	9468.275
1590.87208	9799.875
1594.19801	10731.075
1597.52172	11987.775
1600.84321	12737.375
1604.16251	12397.475
1607.47959	11289.375
1610.79447	9927.975
1614.10715	8748.075
1617.41763	7979.275
1620.7259	7515.775
1624.03199	7325.375
1627.33587	7369.475
1630.63757	7652.575
1633.93707	8233.775
1637.23439	9269.375
1640.52951	11078.275
1643.82246	13615.575
1647.11321	16143.175
1650.40179	17256.975
1653.68819	15859.575
1656.97241	12953.375
1660.25446	10202.475
1663.53433	8387.275
1666.81203	7379.675
1670.08756	6804.775
1673.36092	6442.075
1676.63211	6248.875
1679.90115	6085.375
1683.16801	5969.475
1686.43272	5881.275
1689.69527	5799.075
1692.95567	5771.475
1696.2139	5767.475
1699.46999	5745.375
1702.72392	5714.875
1705.97571	5689.975
1709.22535	5663.075
1712.47284	5656.175
1715.71819	5643.575
1718.96139	5606.075
1722.20246	5589.575
1725.44139	5553.975
1728.67818	5510.975
1731.91284	5463.075
1735.14537	5426.675
1738.37576	5386.575
1741.60403	5364.075
1744.83017	5325.475
1748.05418	5330.475
1751.27607	5285.675
1754.49584	5288.075
1757.71349	5300.375
1760.92903	5296.475
1764.14244	5307.475
1767.35375	5281.875
1770.56294	5276.675
1773.77002	5258.175
1776.97499	5214.075
1780.17785	5176.575
1783.37861	5175.275
1786.57727	5151.675
1789.77382	5130.375
1792.96828	5119.675
1796.16064	5108.675
1799.3509	5096.475
1802.53907	5092.075
1805.72514	5077.875
1808.90913	5068.575
1812.09102	5039.375
1815.27083	4999.475
1818.44856	4998.475
1821.6242	5004.675
1824.79776	5005.575
1827.96924	4981.175
1831.13864	4978.475
1834.30597	4976.975
1837.47122	4947.475
1840.6344	4955.275
1843.7955	4936.775
1846.95454	4935.975
1850.11151	4932.975
1853.26642	4926.475
1856.41926	4905.175
1859.57004	4918.975
1862.71876	4899.175
1865.86542	4898.975
1869.01003	4910.475
1872.15258	4921.175
1875.29308	4914.275
1878.43152	4912.875
1881.56792	4895.675
1884.70227	4896.475
1887.83457	4895.475
1890.96482	4904.975
1894.09304	4896.775
1897.21921	4888.675
1900.34335	4889.775
1903.46544	4885.475
1906.58551	4881.275
1909.70353	4888.275
1912.81953	4847.275
1915.93349	4837.675
1919.04543	4852.075
1922.15534	4835.275
1925.26322	4823.875
1928.36908	4803.075
1931.47292	4796.375
1934.57473	4781.175
1937.67453	4777.875
1940.77232	4758.275
1943.86808	4723.875
1946.96184	4726.975
1950.05358	4709.775
1953.14331	4701.975
1956.23103	4686.375
1959.31675	4684.275
1962.40046	4651.975
1965.48217	4641.775
1968.56188	4642.475
1971.63959	4624.475
1974.7153	4632.275
1977.78901	4599.975
1980.86073	4564.375
1983.93046	4563.075
1986.99819	4521.775
1990.06394	4531.875
1993.1277	4519.075
1996.18947	4492.775
1999.24925	4488.175
2002.30706	4451.675
2005.36288	4441.575
2008.41672	4424.775
2011.46859	4410.975
2014.51848	4417.475
2017.56639	4382.675
2020.61233	4368.775
2023.6563	4383.675
2026.6983	4363.675
2029.73833	4365.275
2032.7764	4343.375
2035.8125	4336.075
2038.84664	4324.575
2041.87881	4324.875
2044.90903	4324.175
2047.93729	4303.375
2050.96359	4303.975
2053.98794	4302.675
2057.01034	4298.275
2060.03078	4287.575
2063.04927	4272.475
2066.06582	4285.375
2069.08042	4269.875
2072.09307	4260.675
2075.10378	4254.475
2078.11255	4259.575
2081.11938	4256.875
2084.12426	4251.175
2087.12722	4254.175
2090.12824	4249.475
2093.12732	4257.875
2096.12447	4266.875
2099.11969	4271.775
2102.11299	4265.775
2105.10435	4264.575
2108.09379	4254.575
2111.08131	4251.675
2114.0669	4256.975
2117.05057	4254.075
2120.03233	4263.475
2123.01216	4269.275
2125.99008	4271.675
2128.96609	4275.975
2131.94018	4266.775
2134.91236	4277.575
2137.88263	4279.475
2140.851	4268.375
2143.81746	4287.075
2146.78201	4260.975
2149.74466	4259.375
2152.7054	4260.275
2155.66425	4252.175
2158.6212	4254.375
2161.57625	4248.675
2164.52941	4251.375
2167.48067	4244.275
2170.43004	4245.575
2173.37752	4247.575
2176.32311	4248.475
2179.26681	4242.875
2182.20863	4236.475
2185.14856	4244.675
2188.08661	4251.275
2191.02278	4269.075
2193.95707	4247.475
2196.88948	4241.275
2199.82001	4234.875
2202.74867	4222.475
2205.67545	4224.875
2208.60037	4224.475
2211.52341	4199.475
2214.44458	4197.975
2217.36388	4190.375
2220.28132	4184.075
2223.1969	4171.875
2226.11061	4157.175
2229.02246	4173.175
2231.93245	4150.975
2234.84058	4151.275
2237.74686	4152.475
2240.65128	4137.575
2243.55385	4147.475
2246.45456	4144.575
2249.35343	4137.175
2252.25044	4146.175
2255.14561	4136.375
2258.03893	4135.875
2260.93041	4139.175
2263.82004	4124.975
2266.70783	4118.175
2269.59378	4105.875
2272.4779	4077.175
2275.36017	4075.875
2278.24061	4080.375
2281.11922	4072.675
2283.996	4053.075
2286.87094	4058.175
2289.74405	4030.475
2292.61534	4021.475
2295.4848	4022.675
2298.35243	4019.675
2301.21824	4012.875
2304.08223	4008.275
2306.94439	4005.775
2309.80474	3992.375
2312.66327	4008.175
2315.51999	3996.975
2318.37489	3992.975
2321.22797	3995.575
2324.07925	3995.975
2326.92871	3990.975
2329.77637	3985.575
2332.62222	3985.075
2335.46626	3972.475
2338.3085	3975.975
2341.14893	3960.975
2343.98756	3979.275
2346.8244	3974.875
2349.65943	3977.575
2352.49267	3981.975
2355.32411	3980.475
2358.15376	3994.775
2360.98161	3996.975
2363.80768	3986.075
2366.63195	4003.275
2369.45444	4008.675
2372.27514	4004.175
2375.09405	4003.375
2377.91118	3998.675
2380.72652	3964.875
2383.54009	3955.575
2386.35187	3958.575
2389.16188	3924.175
2391.97011	3922.975
2394.77657	3900.575
2397.58125	3904.875
2400.38416	3898.375
2403.18529	3889.675
2405.98466	3886.575
2408.78226	3849.975
2411.57809	3855.175
2414.37216	3865.275
2417.16446	3856.275
2419.955	3844.175
2422.74378	3844.375
2425.5308	3839.375
2428.31606	3870.475
2431.09956	3836.875
2433.88131	3849.875
2436.6613	3853.175
2439.43954	3856.775
2442.21603	3852.675
2444.99077	3862.175
2447.76377	3863.975
2450.53501	3865.375
2453.30451	3856.475
2456.07226	3854.775
2458.83827	3863.675
2461.60254	3859.875
2464.36507	3859.675
2467.12586	3856.875
2469.88492	3859.175
2472.64224	3874.875
2475.39782	3869.075
2478.15167	3874.575
2480.90379	3872.975
2483.65417	3888.075
2486.40283	3891.475
2489.14976	3896.375
2491.89497	3898.875
2494.63845	3919.275
2497.3802	3909.975
2500.12024	3907.875
2502.85855	3903.775
2505.59514	3888.975
2508.33002	3871.275
2511.06318	3854.775
2513.79462	3838.875
2516.52435	3829.775
2519.25237	3825.375
2521.97867	3797.775
2524.70327	3811.975
2527.42616	3799.275
2530.14734	3781.475
2532.86681	3783.375
2535.58458	3787.775
2538.30065	3786.375
2541.01501	3793.775
2543.72768	3792.675
2546.43864	3806.575
2549.14791	3798.575
2551.85548	3801.775
2554.56136	3789.875
2557.26554	3787.475
2559.96803	3785.475
2562.66883	3789.975
2565.36794	3778.275
2568.06536	3779.375
2570.7611	3761.275
2573.45514	3751.375
2576.14751	3750.975
2578.83819	3739.875
2581.52719	3737.175
2584.21451	3724.875
2586.90015	3725.775
2589.58411	3734.475
2592.2664	3723.075
2594.94701	3717.975
2597.62594	3725.075
2600.30321	3723.875
2602.9788	3724.675
2605.65273	3729.875
2608.32498	3715.075
2610.99557	3711.575
2613.66449	3717.775
2616.33175	3719.875
2618.99734	3713.375
2621.66128	3707.275
2624.32355	3707.875
2626.98416	3707.975
2629.64311	3709.475
2632.30041	3697.575
2634.95605	3709.075
2637.61004	3691.575
2640.26238	3674.675
2642.91306	3668.575
2645.56209	3674.275
2648.20948	3693.675
2650.85521	3680.475
2653.4993	3703.275
2656.14175	3686.375
2658.78255	3703.175
2661.42171	3698.075
2664.05923	3707.275
2666.6951	3719.875
2669.32934	3724.075
2671.96194	3721.975
2674.59291	3712.275
2677.22224	3726.575
2679.84993	3711.275
2682.476	3705.675
2685.10043	3708.375
2687.72324	3704.875
2690.34441	3706.875
2692.96396	3694.175
2695.58188	3712.175
2698.19818	3687.275
2700.81285	3706.275
2703.4259	3711.075
2706.03733	3715.575
2708.64714	3707.575
2711.25533	3732.275
2713.86191	3709.875
2716.46687	3713.875
2719.07021	3719.175
2721.67194	3720.375
2724.27206	3731.875
2726.87057	3724.775
2729.46747	3722.475
2732.06276	3736.775
2734.65644	3720.875
2737.24852	3721.575
2739.83899	3724.675
2742.42786	3708.675
2745.01513	3707.575
2747.60079	3691.475
2750.18486	3683.175
2752.76733	3700.675
2755.3482	3686.575
2757.92747	3693.775
2760.50515	3673.075
2763.08123	3691.675
2765.65573	3691.275
2768.22863	3671.075
2770.79994	3663.075
2773.36967	3671.875
2775.9378	3674.775
2778.50435	3679.375
2781.06932	3668.375
2783.6327	3670.675
2786.1945	3666.275
2788.75471	3654.575
2791.31335	3664.775
2793.87041	3680.375
2796.42589	3665.975
2798.97979	3658.675
2801.53212	3649.575
2804.08288	3647.675
2806.63206	3652.575
2809.17967	3648.175
2811.72571	3647.675
2814.27018	3639.375
2816.81308	3652.475
2819.35442	3654.575
2821.89419	3645.475
2824.43239	3650.975
2826.96904	3639.475
2829.50412	3649.275
2832.03763	3651.375
2834.56959	3636.675
2837.1	3645.375
2839.62884	3629.375
2842.15613	3633.875
2844.68186	3647.575
2847.20604	3634.875
2849.72867	3648.375
2852.24974	3646.875
2854.76927	3660.575
2857.28724	3650.175
2859.80367	3650.275
2862.31855	3658.875
2864.83189	3664.775
2867.34368	3649.275
2869.85393	3656.575
2872.36264	3643.375
2874.8698	3639.575
2877.37543	3644.575
2879.87952	3640.575
2882.38207	3620.775
2884.88308	3616.875
2887.38256	3629.275
2889.88051	3639.375
2892.37692	3627.475
2894.8718	3620.575
2897.36515	3624.275
2899.85698	3626.875
2902.34727	3626.575
2904.83604	3637.875
2907.32328	3651.175
2909.809	3658.875
2912.29319	3647.075
2914.77587	3660.775
2917.25702	3631.975
2919.73665	3632.675
2922.21476	3628.175
2924.69136	3634.875
2927.16644	3634.975
2929.64	3629.575
2932.11205	3616.975
2934.58258	3603.775
2937.05161	3619.975
2939.51912	3598.075
2941.98513	3591.575
2944.44962	3597.675
2946.91261	3575.975
2949.37409	3583.275
2951.83407	3588.175
2954.29254	3586.975
2956.74951	3565.875
2959.20498	3572.175
2961.65895	3560.575
2964.11142	3570.275
2966.56239	3567.575
2969.01186	3574.175
2971.45984	3549.175
2973.90632	3547.875
2976.35131	3550.475
2978.7948	3538.975
2981.23681	3532.775
2983.67732	3517.475
2986.11635	3502.175
2988.55388	3499.175
2990.98993	3504.675
2993.4245	3483.175
2995.85758	3485.075
2998.28917	3472.075
3000.71928	3475.275
3003.14791	3471.575
3005.57506	3463.875
3008.00073	3446.175
3010.42493	3460.375
3012.84764	3446.475
3015.26888	3441.375
3017.68865	3445.775
3020.10694	3458.575
3022.52376	3431.875
3024.9391	3427.875
3027.35298	3425.175
3029.76539	3424.575
3032.17632	3399.175
3034.5858	3400.775
3036.9938	3407.775
3039.40034	3399.975
3041.80542	3388.775
3044.20903	3387.775
3046.61118	3381.675
3049.01187	3377.075
3051.4111	3372.775
3053.80888	3360.275
3056.20519	3363.675
3058.60005	3351.575
3060.99345	3349.175
3063.3854	3336.975
3065.7759	3343.575
3068.16494	3338.475
3070.55254	3335.075
3072.93868	3324.775
3075.32338	3325.675
3077.70662	3309.175
3080.08842	3321.275
3082.46878	3310.575
3084.84769	3310.175
3087.22515	3313.375
3089.60118	3307.775
3091.97576	3311.275
3094.3489	3318.075
3096.72061	3319.075
3099.09087	3320.275
3101.4597	3315.275
3103.82709	3313.175
3106.19305	3328.175
3108.55757	3308.175
3110.92066	3298.375
3113.28232	3303.975
3115.64255	3295.075
3118.00134	3296.175
3120.35871	3287.075
3122.71466	3278.175
3125.06917	3289.275
3127.42226	3277.775
3129.77393	3289.975
3132.12417	3303.575
3134.47299	3295.175
3136.82039	3295.275
3139.16636	3294.175
3141.51092	3305.575
3143.85406	3305.375
3146.19579	3296.475
3148.53609	3294.475
3150.87499	3321.975
3153.21246	3313.675
3155.54853	3305.575
3157.88318	3321.175
3160.21642	3302.675
3162.54826	3318.675
3164.87868	3316.575
3167.2077	3311.375
3169.5353	3330.375
3171.86151	3328.875
3174.18631	3327.375
3176.5097	3334.575
3178.83169	3314.075
3181.15228	3337.975
3183.47147	3318.375
3185.78926	3311.175
3188.10565	3321.275
3190.42065	3323.075
3192.73424	3313.975
3195.04645	3323.475
3197.35725	3319.675
3199.66667	3317.275
3201.97469	3318.575
3204.28132	3333.475
3206.58656	3344.075
3208.8904	3337.275
3211.19287	3348.975
3213.49394	3347.475
3215.79363	3356.075
3218.09193	3363.475
3220.38884	3367.475
3222.68438	3370.875
3224.97853	3358.175
