Data from AgNP_FTO_APTES_UA_100uM_CRN_2uM_R6G_10uM_NaF_0.1M_Addition_RamanShift__35__14-25-40-335.txt Node

Date: Thu Mar 24 14:25:40 GMT 2022
User: TCL
Spectrometer: QEP01345
Trigger mode: 4
Integration Time (sec): 7.000000E0
Scans to average: 10
Electric dark correction enabled: true
Nonlinearity correction enabled: false
Boxcar width: 0
XAxis mode: Raman Shifts
Number of Pixels in Spectrum: 1044
>>>>>Begin Spectral Data<<<<<
46.04893	-2.5375
50.45542	-0.9375
54.85868	-0.8375
59.25871	0.8625
63.6555	49.6625
68.04907	50.9625
72.43941	50.4625
76.82654	54.3625
81.21044	60.1625
85.59113	58.2625
89.96862	65.2625
94.34289	62.1625
98.71396	61.2625
103.08183	63.3625
107.4465	66.9625
111.80798	69.3625
116.16626	69.6625
120.52136	71.7625
124.87327	73.0625
129.222	82.0625
133.56755	83.3625
137.90993	88.8625
142.24913	103.7625
146.58517	112.9625
150.91804	130.4625
155.24774	158.2625
159.57429	193.4625
163.89768	254.3625
168.21792	338.5625
172.53501	460.8625
176.84895	654.8625
181.15975	912.8625
185.46741	1287.6625
189.77193	1760.8625
194.07331	2350.9625
198.37157	3028.6625
202.6667	3759.2625
206.9587	4471.8625
211.24758	5215.5625
215.53334	5971.4625
219.81599	6810.3625
224.09553	7743.5625
228.37195	8814.0625
232.64527	9960.3625
236.91549	11112.3625
241.18261	12160.8625
245.44663	13042.0625
249.70755	13747.6625
253.96539	14343.2625
258.22014	14793.6625
262.4718	15255.8625
266.72039	15551.6625
270.96589	15685.5625
275.20832	15567.2625
279.44768	15333.9625
283.68397	15064.5625
287.91719	14860.5625
292.14735	14778.8625
296.37445	14923.0625
300.59849	15257.5625
304.81948	15730.9625
309.03742	16149.9625
313.25231	16322.5625
317.46415	16060.9625
321.67296	15515.7625
325.87872	15024.5625
330.08145	14773.9625
334.28114	14801.4625
338.47781	14991.6625
342.67145	15218.1625
346.86207	15645.6625
351.04966	16160.8625
355.23424	16724.9625
359.4158	17117.0625
363.59435	17313.9625
367.76989	17354.5625
371.94243	17290.4625
376.11196	17268.5625
380.27849	17240.9625
384.44203	17259.0625
388.60257	17261.8625
392.76012	17252.1625
396.91468	17353.8625
401.06626	17633.6625
405.21485	17826.0625
409.36047	17598.7625
413.50311	16983.1625
417.64277	16421.4625
421.77947	16172.4625
425.9132	16135.6625
430.04396	16239.2625
434.17176	16455.5625
438.2966	16857.2625
442.41849	17528.1625
446.53742	18503.8625
450.6534	19455.8625
454.76644	19975.6625
458.87653	19876.6625
462.98368	19332.4625
467.08789	18689.3625
471.18916	18065.8625
475.2875	17450.5625
479.38291	16871.6625
483.4754	16375.0625
487.56496	15973.1625
491.6516	15758.3625
495.73531	15615.1625
499.81612	15618.0625
503.89401	15771.9625
507.96899	15867.1625
512.04106	15867.7625
516.11023	15904.3625
520.1765	15978.9625
524.23987	16038.9625
528.30034	16116.0625
532.35792	16144.0625
536.41261	15911.1625
540.46441	15517.1625
544.51333	15349.9625
548.55936	15427.3625
552.60252	15785.6625
556.64279	16435.0625
560.6802	16936.8625
564.71473	17088.0625
568.7464	17331.2625
572.7752	17775.5625
576.80114	17897.8625
580.82422	18048.4625
584.84444	18731.4625
588.86181	20291.2625
592.87633	22498.9625
596.888	23816.1625
600.89682	22892.6625
604.9028	22192.2625
608.90594	24748.2625
612.90624	28661.5625
616.90371	26983.6625
620.89834	20133.2625
624.89015	16708.9625
628.87913	16092.9625
632.86528	16223.1625
636.84862	16294.6625
640.82913	15893.4625
644.80683	15154.7625
648.78172	14684.5625
652.75379	14690.6625
656.72306	15190.2625
660.68952	15803.2625
664.65319	15603.0625
668.61405	14890.4625
672.57211	14628.5625
676.52738	14763.0625
680.47986	14678.7625
684.42955	14432.9625
688.37646	14326.0625
692.32058	14446.6625
696.26192	14702.1625
700.20048	15045.4625
704.13626	15206.8625
708.06928	15129.7625
711.99952	14963.3625
715.927	15038.8625
719.85171	15189.4625
723.77365	15220.0625
727.69284	15048.8625
731.60928	14933.3625
735.52295	14987.2625
739.43388	15120.1625
743.34206	15208.6625
747.24749	15203.5625
751.15017	15287.8625
755.05012	15492.1625
758.94733	16112.7625
762.8418	17643.6625
766.73354	20217.5625
770.62254	22726.5625
774.50882	23613.1625
778.39237	22486.0625
782.27321	20025.0625
786.15132	17581.9625
790.02671	16026.1625
793.89938	15248.5625
797.76935	14846.6625
801.6366	14719.7625
805.50115	14566.2625
809.36299	14471.9625
813.22213	14364.9625
817.07857	14322.4625
820.93231	14273.5625
824.78336	14278.5625
828.63172	14307.2625
832.47738	14332.5625
836.32036	14302.4625
840.16066	14283.1625
843.99827	14289.1625
847.8332	14267.1625
851.66546	14241.0625
855.49504	14281.2625
859.32195	14231.6625
863.1462	14185.6625
866.96777	14080.9625
870.78668	14121.1625
874.60293	14170.3625
878.41652	14226.2625
882.22745	14342.7625
886.03573	14446.0625
889.84136	14416.3625
893.64433	14343.2625
897.44466	14262.4625
901.24235	14232.9625
905.0374	14128.9625
908.8298	14026.9625
912.61957	13987.7625
916.40671	14064.8625
920.19121	14224.9625
923.97308	14450.3625
927.75233	14630.9625
931.52895	14657.8625
935.30295	14392.8625
939.07433	14013.5625
942.84309	13691.0625
946.60924	13542.8625
950.37278	13482.7625
954.13371	13446.2625
957.89203	13429.9625
961.64774	13401.2625
965.40086	13419.1625
969.15137	13410.5625
972.89929	13402.1625
976.64461	13410.3625
980.38733	13435.3625
984.12747	13475.9625
987.86502	13601.3625
991.59999	13711.6625
995.33237	14027.3625
999.06217	14548.6625
1002.78939	15158.2625
1006.51404	15682.8625
1010.23611	16085.5625
1013.95561	16351.2625
1017.67255	16321.6625
1021.38692	15898.6625
1025.09872	15306.8625
1028.80796	14942.6625
1032.51465	14988.6625
1036.21877	15190.3625
1039.92035	15262.8625
1043.61937	15228.0625
1047.31584	15125.9625
1051.00976	14931.1625
1054.70114	14829.1625
1058.38998	14792.3625
1062.07627	14837.9625
1065.76003	14894.6625
1069.44126	15061.5625
1073.11995	15360.9625
1076.79611	15675.6625
1080.46974	16075.8625
1084.14085	16462.2625
1087.80943	16877.6625
1091.47549	17080.6625
1095.13903	16902.8625
1098.80005	16350.4625
1102.45857	15899.0625
1106.11456	15733.8625
1109.76805	15840.0625
1113.41903	16114.7625
1117.06751	16559.0625
1120.71348	17093.3625
1124.35696	17711.9625
1127.99793	18142.8625
1131.63641	18100.5625
1135.2724	17571.5625
1138.90589	17060.3625
1142.5369	16850.9625
1146.16542	16818.6625
1149.79145	16865.9625
1153.415	16940.3625
1157.03607	17133.8625
1160.65467	17583.1625
1164.27079	18423.7625
1167.88443	19718.9625
1171.49561	21696.0625
1175.10432	24544.8625
1178.71056	28260.9625
1182.31434	31457.0625
1185.91565	32342.3625
1189.51451	31111.0625
1193.11091	28985.4625
1196.70485	26771.7625
1200.29634	24887.9625
1203.88538	23473.1625
1207.47197	22077.6625
1211.05612	21092.1625
1214.63782	20570.6625
1218.21708	20533.4625
1221.79391	20818.4625
1225.36829	21186.7625
1228.94024	21091.5625
1232.50976	20471.2625
1236.07685	19662.7625
1239.6415	19305.6625
1243.20374	19288.9625
1246.76355	19429.5625
1250.32093	19621.7625
1253.8759	19969.2625
1257.42845	20690.9625
1260.97859	21636.4625
1264.52631	22692.0625
1268.07163	23676.2625
1271.61453	24477.0625
1275.15503	24998.7625
1278.69312	25516.1625
1282.22882	26179.8625
1285.76211	27305.5625
1289.29301	28902.1625
1292.82151	30728.3625
1296.34761	32723.1625
1299.87133	35187.9625
1303.39266	38365.9625
1306.9116	42258.5625
1310.42815	46270.0625
1313.94233	48467.2625
1317.45412	47503.9625
1320.96354	44431.5625
1324.47058	40979.0625
1327.97525	37916.4625
1331.47754	35572.3625
1334.97747	34294.6625
1338.47502	33873.5625
1341.97022	33860.7625
1345.46305	34206.1625
1348.95352	35137.0625
1352.44163	37266.6625
1355.92738	41085.8625
1359.41078	46588.0625
1362.89183	51399.9625
1366.37053	50648.3625
1369.84688	43706.1625
1373.32088	35886.3625
1376.79254	31305.5625
1380.26186	29601.5625
1383.72883	29007.2625
1387.19347	28209.3625
1390.65578	27192.0625
1394.11575	26642.1625
1397.57339	26681.6625
1401.0287	27134.4625
1404.48168	27341.4625
1407.93234	27294.0625
1411.38068	27002.3625
1414.82669	26609.0625
1418.27039	25986.5625
1421.71177	25097.3625
1425.15083	24133.0625
1428.58758	23825.3625
1432.02203	24356.2625
1435.45416	25358.7625
1438.88399	26108.9625
1442.31151	26445.2625
1445.73673	26544.5625
1449.15965	26560.7625
1452.58027	26217.8625
1455.9986	25607.8625
1459.41463	25289.9625
1462.82837	25578.8625
1466.23982	26467.8625
1469.64898	27582.6625
1473.05586	28549.2625
1476.46045	29302.8625
1479.86276	29847.4625
1483.26279	30203.2625
1486.66054	30608.7625
1490.05602	31464.4625
1493.44922	32453.4625
1496.84016	33262.7625
1500.22882	34268.1625
1503.61521	36004.2625
1506.99934	38398.1625
1510.38121	40378.8625
1513.76081	40284.0625
1517.13816	37673.0625
1520.51324	33945.8625
1523.88607	30848.2625
1527.25665	29217.0625
1530.62498	28569.9625
1533.99105	28253.7625
1537.35488	27754.4625
1540.71647	27081.9625
1544.07581	26290.1625
1547.4329	25519.5625
1550.78776	24739.5625
1554.14038	24116.1625
1557.49077	23741.0625
1560.83892	23727.6625
1564.18484	24150.6625
1567.52853	24956.3625
1570.86999	25753.0625
1574.20922	26448.2625
1577.54624	26583.2625
1580.88103	25766.4625
1584.2136	24813.6625
1587.54395	24913.7625
1590.87208	26399.6625
1594.19801	29222.8625
1597.52172	32470.5625
1600.84321	34293.9625
1604.16251	33146.5625
1607.47959	29727.1625
1610.79447	25799.7625
1614.10715	22467.8625
1617.41763	20128.5625
1620.7259	18808.2625
1624.03199	18269.4625
1627.33587	18372.0625
1630.63757	19135.2625
1633.93707	20828.1625
1637.23439	23880.8625
1640.52951	28761.4625
1643.82246	35203.3625
1647.11321	40994.1625
1650.40179	42538.2625
1653.68819	38441.3625
1656.97241	31206.3625
1660.25446	24574.8625
1663.53433	20146.3625
1666.81203	17612.1625
1670.08756	16106.8625
1673.36092	15258.8625
1676.63211	14692.1625
1679.90115	14299.3625
1683.16801	14029.0625
1686.43272	13833.5625
1689.69527	13624.3625
1692.95567	13494.7625
1696.2139	13428.3625
1699.46999	13336.4625
1702.72392	13307.5625
1705.97571	13236.5625
1709.22535	13233.2625
1712.47284	13198.2625
1715.71819	13151.0625
1718.96139	13155.5625
1722.20246	13102.6625
1725.44139	13036.3625
1728.67818	12843.0625
1731.91284	12769.4625
1735.14537	12657.5625
1738.37576	12575.4625
1741.60403	12502.6625
1744.83017	12468.1625
1748.05418	12445.9625
1751.27607	12403.7625
1754.49584	12372.7625
1757.71349	12388.8625
1760.92903	12330.9625
1764.14244	12337.1625
1767.35375	12306.7625
1770.56294	12264.2625
1773.77002	12222.4625
1776.97499	12220.1625
1780.17785	12166.9625
1783.37861	12134.6625
1786.57727	12089.4625
1789.77382	12043.7625
1792.96828	12044.3625
1796.16064	12013.8625
1799.3509	11984.3625
1802.53907	11983.5625
1805.72514	11929.1625
1808.90913	11913.7625
1812.09102	11871.3625
1815.27083	11851.1625
1818.44856	11814.5625
1821.6242	11783.7625
1824.79776	11768.5625
1827.96924	11744.3625
1831.13864	11738.1625
1834.30597	11704.5625
1837.47122	11686.5625
1840.6344	11682.1625
1843.7955	11705.6625
1846.95454	11680.8625
1850.11151	11689.5625
1853.26642	11648.4625
1856.41926	11620.9625
1859.57004	11620.8625
1862.71876	11591.3625
1865.86542	11598.7625
1869.01003	11581.8625
1872.15258	11575.2625
1875.29308	11585.2625
1878.43152	11576.4625
1881.56792	11541.5625
1884.70227	11573.6625
1887.83457	11573.5625
1890.96482	11578.1625
1894.09304	11545.3625
1897.21921	11548.7625
1900.34335	11560.2625
1903.46544	11558.1625
1906.58551	11535.2625
1909.70353	11550.7625
1912.81953	11529.1625
1915.93349	11522.5625
1919.04543	11491.8625
1922.15534	11457.8625
1925.26322	11404.5625
1928.36908	11368.1625
1931.47292	11368.1625
1934.57473	11306.4625
1937.67453	11278.4625
1940.77232	11258.5625
1943.86808	11227.2625
1946.96184	11186.1625
1950.05358	11170.6625
1953.14331	11139.8625
1956.23103	11137.7625
1959.31675	11086.8625
1962.40046	11069.0625
1965.48217	11038.4625
1968.56188	11005.0625
1971.63959	10984.5625
1974.7153	10950.0625
1977.78901	10953.8625
1980.86073	10885.0625
1983.93046	10861.0625
1986.99819	10790.4625
1990.06394	10749.7625
1993.1277	10740.6625
1996.18947	10684.8625
1999.24925	10652.3625
2002.30706	10613.8625
2005.36288	10558.3625
2008.41672	10517.7625
2011.46859	10478.6625
2014.51848	10497.4625
2017.56639	10456.5625
2020.61233	10434.8625
2023.6563	10400.1625
2026.6983	10390.4625
2029.73833	10355.8625
2032.7764	10329.0625
2035.8125	10300.7625
2038.84664	10298.2625
2041.87881	10283.7625
2044.90903	10290.4625
2047.93729	10250.3625
2050.96359	10254.3625
2053.98794	10226.6625
2057.01034	10207.4625
2060.03078	10183.0625
2063.04927	10173.9625
2066.06582	10184.4625
2069.08042	10162.2625
2072.09307	10155.4625
2075.10378	10146.4625
2078.11255	10134.4625
2081.11938	10130.5625
2084.12426	10126.9625
2087.12722	10140.1625
2090.12824	10143.7625
2093.12732	10163.8625
2096.12447	10140.6625
2099.11969	10148.4625
2102.11299	10144.9625
2105.10435	10143.4625
2108.09379	10150.4625
2111.08131	10123.3625
2114.0669	10138.7625
2117.05057	10137.5625
2120.03233	10118.9625
2123.01216	10147.5625
2125.99008	10158.3625
2128.96609	10177.2625
2131.94018	10171.8625
2134.91236	10167.3625
2137.88263	10156.7625
2140.851	10176.7625
2143.81746	10169.8625
2146.78201	10172.2625
2149.74466	10157.3625
2152.7054	10156.1625
2155.66425	10134.6625
2158.6212	10148.0625
2161.57625	10127.3625
2164.52941	10112.8625
2167.48067	10116.2625
2170.43004	10130.1625
2173.37752	10090.9625
2176.32311	10103.1625
2179.26681	10125.4625
2182.20863	10097.5625
2185.14856	10118.6625
2188.08661	10109.1625
2191.02278	10094.4625
2193.95707	10097.1625
2196.88948	10113.7625
2199.82001	10071.6625
2202.74867	10093.3625
2205.67545	10064.0625
2208.60037	10051.0625
2211.52341	10050.2625
2214.44458	10033.0625
2217.36388	10011.5625
2220.28132	10004.9625
2223.1969	9976.3625
2226.11061	9964.2625
2229.02246	9941.6625
2231.93245	9939.5625
2234.84058	9907.8625
2237.74686	9890.9625
2240.65128	9881.9625
2243.55385	9886.4625
2246.45456	9867.9625
2249.35343	9858.5625
2252.25044	9829.1625
2255.14561	9828.6625
2258.03893	9810.6625
2260.93041	9781.1625
2263.82004	9769.6625
2266.70783	9737.8625
2269.59378	9703.7625
2272.4779	9691.1625
2275.36017	9685.1625
2278.24061	9624.1625
2281.11922	9670.7625
2283.996	9641.8625
2286.87094	9609.6625
2289.74405	9601.4625
2292.61534	9577.4625
2295.4848	9571.1625
2298.35243	9580.4625
2301.21824	9577.9625
2304.08223	9579.3625
2306.94439	9550.1625
2309.80474	9544.5625
2312.66327	9564.6625
2315.51999	9540.8625
2318.37489	9525.2625
2321.22797	9525.7625
2324.07925	9519.0625
2326.92871	9511.0625
2329.77637	9511.4625
2332.62222	9485.7625
2335.46626	9508.8625
2338.3085	9509.6625
2341.14893	9517.0625
2343.98756	9494.3625
2346.8244	9488.2625
2349.65943	9510.3625
2352.49267	9475.1625
2355.32411	9494.7625
2358.15376	9502.4625
2360.98161	9488.9625
2363.80768	9477.3625
2366.63195	9496.6625
2369.45444	9514.1625
2372.27514	9494.1625
2375.09405	9475.2625
2377.91118	9467.3625
2380.72652	9451.3625
2383.54009	9428.7625
2386.35187	9422.8625
2389.16188	9363.9625
2391.97011	9374.3625
2394.77657	9366.5625
2397.58125	9322.8625
2400.38416	9305.4625
2403.18529	9287.1625
2405.98466	9267.2625
2408.78226	9263.6625
2411.57809	9238.1625
2414.37216	9201.7625
2417.16446	9174.6625
2419.955	9163.2625
2422.74378	9202.7625
2425.5308	9184.0625
2428.31606	9169.9625
2431.09956	9214.1625
2433.88131	9174.8625
2436.6613	9169.5625
2439.43954	9160.7625
2442.21603	9179.8625
2444.99077	9185.1625
2447.76377	9172.4625
2450.53501	9194.6625
2453.30451	9175.1625
2456.07226	9185.6625
2458.83827	9182.0625
2461.60254	9180.4625
2464.36507	9167.3625
2467.12586	9205.9625
2469.88492	9211.3625
2472.64224	9235.6625
2475.39782	9224.6625
2478.15167	9246.9625
2480.90379	9247.7625
2483.65417	9252.2625
2486.40283	9260.9625
2489.14976	9267.1625
2491.89497	9314.5625
2494.63845	9306.0625
2497.3802	9301.3625
2500.12024	9308.4625
2502.85855	9292.2625
2505.59514	9268.7625
2508.33002	9262.3625
2511.06318	9242.0625
2513.79462	9191.0625
2516.52435	9198.3625
2519.25237	9168.3625
2521.97867	9169.6625
2524.70327	9164.9625
2527.42616	9148.4625
2530.14734	9130.1625
2532.86681	9103.0625
2535.58458	9129.4625
2538.30065	9128.1625
2541.01501	9142.2625
2543.72768	9119.3625
2546.43864	9112.8625
2549.14791	9108.1625
2551.85548	9117.1625
2554.56136	9130.6625
2557.26554	9097.1625
2559.96803	9089.8625
2562.66883	9103.5625
2565.36794	9102.5625
2568.06536	9117.8625
2570.7611	9093.3625
2573.45514	9087.9625
2576.14751	9070.0625
2578.83819	9085.3625
2581.52719	9058.3625
2584.21451	9058.0625
2586.90015	9035.3625
2589.58411	9024.4625
2592.2664	9048.5625
2594.94701	9023.4625
2597.62594	9006.7625
2600.30321	9001.7625
2602.9788	8994.4625
2605.65273	8993.1625
2608.32498	9001.1625
2610.99557	8988.3625
2613.66449	8997.5625
2616.33175	9016.0625
2618.99734	9021.3625
2621.66128	9018.2625
2624.32355	9007.7625
2626.98416	9011.6625
2629.64311	8998.9625
2632.30041	8984.0625
2634.95605	8997.9625
2637.61004	8953.3625
2640.26238	8974.6625
2642.91306	8949.1625
2645.56209	8955.3625
2648.20948	8961.1625
2650.85521	8967.8625
2653.4993	8961.9625
2656.14175	8988.0625
2658.78255	8973.0625
2661.42171	9013.4625
2664.05923	9020.9625
2666.6951	9021.5625
2669.32934	9034.5625
2671.96194	9028.7625
2674.59291	9031.4625
2677.22224	9038.3625
2679.84993	9034.3625
2682.476	9011.8625
2685.10043	9032.6625
2687.72324	9024.2625
2690.34441	9024.3625
2692.96396	9018.7625
2695.58188	9012.0625
2698.19818	9024.8625
2700.81285	9020.6625
2703.4259	9009.0625
2706.03733	9003.1625
2708.64714	9025.9625
2711.25533	9043.6625
2713.86191	9036.1625
2716.46687	9054.1625
2719.07021	9055.2625
2721.67194	9058.8625
2724.27206	9049.5625
2726.87057	9065.1625
2729.46747	9056.4625
2732.06276	9083.9625
2734.65644	9064.7625
2737.24852	9075.0625
2739.83899	9069.2625
2742.42786	9072.4625
2745.01513	9034.4625
2747.60079	9022.6625
2750.18486	9024.9625
2752.76733	9039.7625
2755.3482	9029.9625
2757.92747	9024.6625
2760.50515	9017.0625
2763.08123	9008.5625
2765.65573	9031.8625
2768.22863	9036.8625
2770.79994	9009.7625
2773.36967	9009.6625
2775.9378	9013.5625
2778.50435	9008.8625
2781.06932	9002.4625
2783.6327	9016.7625
2786.1945	9002.5625
2788.75471	9002.4625
2791.31335	8976.8625
2793.87041	8997.1625
2796.42589	8954.9625
2798.97979	8978.1625
2801.53212	8939.5625
2804.08288	8965.6625
2806.63206	8941.4625
2809.17967	8946.6625
2811.72571	8934.0625
2814.27018	8943.9625
2816.81308	8906.6625
2819.35442	8946.6625
2821.89419	8919.6625
2824.43239	8928.9625
2826.96904	8921.6625
2829.50412	8899.5625
2832.03763	8931.7625
2834.56959	8906.6625
2837.1	8898.2625
2839.62884	8877.9625
2842.15613	8876.9625
2844.68186	8853.7625
2847.20604	8856.5625
2849.72867	8850.7625
2852.24974	8860.5625
2854.76927	8845.1625
2857.28724	8831.7625
2859.80367	8808.0625
2862.31855	8820.3625
2864.83189	8823.5625
2867.34368	8860.4625
2869.85393	8857.6625
2872.36264	8840.7625
2874.8698	8850.1625
2877.37543	8846.2625
2879.87952	8827.5625
2882.38207	8829.5625
2884.88308	8827.0625
2887.38256	8835.9625
2889.88051	8810.8625
2892.37692	8816.2625
2894.8718	8820.7625
2897.36515	8829.4625
2899.85698	8850.1625
2902.34727	8851.7625
2904.83604	8849.1625
2907.32328	8866.8625
2909.809	8872.3625
2912.29319	8885.2625
2914.77587	8856.5625
2917.25702	8852.9625
2919.73665	8819.0625
2922.21476	8836.3625
2924.69136	8836.9625
2927.16644	8816.5625
2929.64	8812.8625
2932.11205	8812.8625
2934.58258	8804.5625
2937.05161	8799.6625
2939.51912	8797.9625
2941.98513	8774.6625
2944.44962	8744.5625
2946.91261	8750.9625
2949.37409	8744.1625
2951.83407	8747.8625
2954.29254	8743.2625
2956.74951	8722.9625
2959.20498	8737.7625
2961.65895	8699.7625
2964.11142	8685.7625
2966.56239	8700.7625
2969.01186	8675.6625
2971.45984	8653.6625
2973.90632	8636.9625
2976.35131	8607.8625
2978.7948	8574.3625
2981.23681	8585.0625
2983.67732	8552.0625
2986.11635	8522.9625
2988.55388	8524.6625
2990.98993	8481.8625
2993.4245	8450.3625
2995.85758	8460.3625
2998.28917	8433.9625
3000.71928	8417.9625
3003.14791	8418.7625
3005.57506	8401.1625
3008.00073	8396.3625
3010.42493	8407.5625
3012.84764	8374.0625
3015.26888	8373.4625
3017.68865	8310.7625
3020.10694	8324.7625
3022.52376	8291.1625
3024.9391	8262.8625
3027.35298	8245.5625
3029.76539	8235.1625
3032.17632	8236.3625
3034.5858	8220.7625
3036.9938	8222.4625
3039.40034	8177.1625
3041.80542	8195.7625
3044.20903	8165.1625
3046.61118	8139.2625
3049.01187	8138.7625
3051.4111	8117.3625
3053.80888	8065.9625
3056.20519	8086.5625
3058.60005	8077.9625
3060.99345	8078.5625
