Data from AgNP_FTO_APTES_UA_100uM_CRN_20uM_R6G_10uM_NaF_0.1M_Addition_RamanShift__34__17-05-30-517.txt Node

Date: Thu Mar 24 17:05:30 GMT 2022
User: TCL
Spectrometer: QEP01345
Trigger mode: 4
Integration Time (sec): 7.000000E0
Scans to average: 10
Electric dark correction enabled: true
Nonlinearity correction enabled: false
Boxcar width: 0
XAxis mode: Raman Shifts
Number of Pixels in Spectrum: 1044
>>>>>Begin Spectral Data<<<<<
46.04893	-2.025
50.45542	-0.725
54.85868	-0.825
59.25871	-0.125
63.6555	44.275
68.04907	51.575
72.43941	47.575
76.82654	50.075
81.21044	53.875
85.59113	53.675
89.96862	58.475
94.34289	55.875
98.71396	61.075
103.08183	61.875
107.4465	62.575
111.80798	64.375
116.16626	67.575
120.52136	70.375
124.87327	69.475
129.222	75.875
133.56755	86.975
137.90993	85.175
142.24913	101.775
146.58517	110.575
150.91804	130.375
155.24774	158.375
159.57429	199.575
163.89768	261.575
168.21792	350.075
172.53501	478.775
176.84895	679.975
181.15975	950.875
185.46741	1329.075
189.77193	1842.375
194.07331	2468.475
198.37157	3195.775
202.6667	3957.275
206.9587	4727.775
211.24758	5524.575
215.53334	6362.175
219.81599	7309.875
224.09553	8379.475
228.37195	9577.575
232.64527	10872.275
236.91549	12121.875
241.18261	13237.875
245.44663	14097.775
249.70755	14759.675
253.96539	15339.275
258.22014	15851.075
262.4718	16331.275
266.72039	16702.375
270.96589	16857.775
275.20832	16703.075
279.44768	16317.675
283.68397	15954.575
287.91719	15703.475
292.14735	15706.075
296.37445	16034.575
300.59849	16662.575
304.81948	17537.875
309.03742	18145.675
313.25231	18295.675
317.46415	17693.775
321.67296	16563.875
325.87872	15633.875
330.08145	15152.475
334.28114	15070.275
338.47781	15303.675
342.67145	15706.075
346.86207	16294.375
351.04966	17117.675
355.23424	18063.675
359.4158	18722.775
363.59435	18923.375
367.76989	18910.375
371.94243	18742.075
376.11196	18609.875
380.27849	18510.275
384.44203	18354.475
388.60257	18175.975
392.76012	18087.475
396.91468	18220.975
401.06626	18570.875
405.21485	18866.775
409.36047	18402.375
413.50311	17393.475
417.64277	16455.075
421.77947	15966.875
425.9132	15846.675
430.04396	15909.575
434.17176	16113.775
438.2966	16491.075
442.41849	17193.175
446.53742	18073.975
450.6534	18881.875
454.76644	19323.575
458.87653	19272.075
462.98368	18819.375
467.08789	18237.875
471.18916	17714.175
475.2875	17223.375
479.38291	16753.675
483.4754	16350.675
487.56496	15906.475
491.6516	15613.575
495.73531	15392.575
499.81612	15322.575
503.89401	15472.275
507.96899	15612.875
512.04106	15771.375
516.11023	15960.375
520.1765	16060.175
524.23987	16108.375
528.30034	16023.775
532.35792	15919.275
536.41261	15629.975
540.46441	15260.675
544.51333	15072.975
548.55936	15177.475
552.60252	15639.875
556.64279	16232.475
560.6802	16681.075
564.71473	17058.075
568.7464	17736.875
572.7752	18292.875
576.80114	18029.875
580.82422	17663.275
584.84444	17821.375
588.86181	18666.875
592.87633	20040.975
596.888	21058.275
600.89682	21255.975
604.9028	22243.075
608.90594	26761.375
612.90624	33160.775
616.90371	31054.675
620.89834	21356.475
624.89015	16741.675
628.87913	15948.875
632.86528	16221.775
636.84862	16452.775
640.82913	16082.775
644.80683	15143.875
648.78172	14514.975
652.75379	14481.575
656.72306	15062.475
660.68952	15809.275
664.65319	15486.875
668.61405	14544.675
672.57211	14072.175
676.52738	14078.375
680.47986	14013.175
684.42955	13774.975
688.37646	13642.275
692.32058	13721.175
696.26192	13893.475
700.20048	14162.275
704.13626	14331.475
708.06928	14260.075
711.99952	14123.875
715.927	14128.075
719.85171	14268.075
723.77365	14345.275
727.69284	14237.275
731.60928	14101.175
735.52295	14175.275
739.43388	14295.175
743.34206	14346.875
747.24749	14374.875
751.15017	14415.375
755.05012	14673.575
758.94733	15507.375
762.8418	17643.375
766.73354	21231.775
770.62254	24638.975
774.50882	25990.975
778.39237	24517.175
782.27321	20935.675
786.15132	17472.375
790.02671	15408.775
793.89938	14449.675
797.76935	14018.575
801.6366	13831.475
805.50115	13704.075
809.36299	13601.675
813.22213	13570.875
817.07857	13505.775
820.93231	13503.775
824.78336	13527.975
828.63172	13615.175
832.47738	13573.575
836.32036	13521.175
840.16066	13473.075
843.99827	13419.475
847.8332	13380.875
851.66546	13318.675
855.49504	13319.975
859.32195	13303.675
863.1462	13247.275
866.96777	13181.775
870.78668	13174.375
874.60293	13241.275
878.41652	13306.775
882.22745	13455.975
886.03573	13544.475
889.84136	13528.475
893.64433	13402.175
897.44466	13349.575
901.24235	13304.975
905.0374	13218.575
908.8298	13104.375
912.61957	13038.375
916.40671	13049.975
920.19121	13224.475
923.97308	13434.275
927.75233	13603.975
931.52895	13715.975
935.30295	13469.875
939.07433	13025.075
942.84309	12638.875
946.60924	12465.675
950.37278	12368.575
954.13371	12322.175
957.89203	12268.075
961.64774	12270.375
965.40086	12274.275
969.15137	12231.375
972.89929	12165.275
976.64461	12107.475
980.38733	12115.675
984.12747	12172.175
987.86502	12279.475
991.59999	12426.275
995.33237	12708.775
999.06217	13199.975
1002.78939	13793.975
1006.51404	14285.675
1010.23611	14684.175
1013.95561	14929.575
1017.67255	14824.375
1021.38692	14374.075
1025.09872	13830.775
1028.80796	13489.075
1032.51465	13476.875
1036.21877	13609.075
1039.92035	13705.275
1043.61937	13722.375
1047.31584	13660.775
1051.00976	13576.575
1054.70114	13466.775
1058.38998	13404.075
1062.07627	13473.475
1065.76003	13546.375
1069.44126	13657.875
1073.11995	13869.575
1076.79611	14203.775
1080.46974	14610.175
1084.14085	15172.075
1087.80943	15701.175
1091.47549	15890.275
1095.13903	15620.275
1098.80005	14996.475
1102.45857	14507.475
1106.11456	14349.675
1109.76805	14547.275
1113.41903	15032.275
1117.06751	15738.975
1120.71348	16617.775
1124.35696	17548.575
1127.99793	18271.475
1131.63641	17956.375
1135.2724	16983.075
1138.90589	16136.175
1142.5369	15641.975
1146.16542	15415.775
1149.79145	15323.875
1153.415	15387.175
1157.03607	15598.975
1160.65467	16072.075
1164.27079	16941.575
1167.88443	18317.675
1171.49561	20437.975
1175.10432	23682.275
1178.71056	27950.475
1182.31434	31549.975
1185.91565	32321.175
1189.51451	30638.575
1193.11091	28054.575
1196.70485	25502.475
1200.29634	23591.675
1203.88538	22087.375
1207.47197	20490.275
1211.05612	19219.075
1214.63782	18551.175
1218.21708	18437.075
1221.79391	18663.675
1225.36829	18873.575
1228.94024	18709.075
1232.50976	18091.475
1236.07685	17491.275
1239.6415	17216.475
1243.20374	17258.575
1246.76355	17351.375
1250.32093	17573.175
1253.8759	17970.675
1257.42845	18630.875
1260.97859	19507.275
1264.52631	20482.575
1268.07163	21431.675
1271.61453	22231.975
1275.15503	22764.875
1278.69312	23108.275
1282.22882	23571.375
1285.76211	24596.975
1289.29301	26029.175
1292.82151	27661.775
1296.34761	29566.475
1299.87133	32069.675
1303.39266	35682.375
1306.9116	40528.375
1310.42815	45551.275
1313.94233	48021.675
1317.45412	46606.375
1320.96354	43096.275
1324.47058	39278.575
1327.97525	35782.075
1331.47754	33213.975
1334.97747	31908.675
1338.47502	31666.975
1341.97022	32013.375
1345.46305	33028.075
1348.95352	34770.175
1352.44163	37584.675
1355.92738	42304.275
1359.41078	49332.875
1362.89183	55501.975
1366.37053	53374.775
1369.84688	43948.475
1373.32088	35018.275
1376.79254	30133.575
1380.26186	28019.675
1383.72883	26885.475
1387.19347	25783.775
1390.65578	24769.075
1394.11575	24296.975
1397.57339	24517.775
1401.0287	25132.275
1404.48168	25674.575
1407.93234	25737.675
1411.38068	25403.375
1414.82669	24903.075
1418.27039	24041.875
1421.71177	22921.975
1425.15083	21833.775
1428.58758	21427.775
1432.02203	21970.775
1435.45416	22933.375
1438.88399	23708.175
1442.31151	24072.075
1445.73673	24321.575
1449.15965	24537.375
1452.58027	24383.775
1455.9986	23905.875
1459.41463	23656.675
1462.82837	24012.675
1466.23982	24959.675
1469.64898	26002.675
1473.05586	26806.475
1476.46045	27380.375
1479.86276	27814.275
1483.26279	28154.675
1486.66054	28556.775
1490.05602	29393.375
1493.44922	30536.375
1496.84016	31939.175
1500.22882	34303.775
1503.61521	38132.075
1506.99934	42846.375
1510.38121	46508.175
1513.76081	46586.575
1517.13816	42366.775
1520.51324	36248.175
1523.88607	31123.475
1527.25665	28163.475
1530.62498	26843.075
1533.99105	26201.275
1537.35488	25607.175
1540.71647	24974.775
1544.07581	24320.375
1547.4329	23701.975
1550.78776	23119.975
1554.14038	22758.175
1557.49077	22637.275
1560.83892	22876.475
1564.18484	23617.375
1567.52853	24743.375
1570.86999	25807.275
1574.20922	26524.075
1577.54624	26479.675
1580.88103	25119.775
1584.2136	23350.775
1587.54395	22837.075
1590.87208	23836.275
1594.19801	26303.775
1597.52172	29343.975
1600.84321	30969.975
1604.16251	29826.675
1607.47959	26929.875
1610.79447	23598.775
1614.10715	20625.475
1617.41763	18509.175
1620.7259	17170.475
1624.03199	16555.075
1627.33587	16681.775
1630.63757	17399.375
1633.93707	19011.275
1637.23439	21867.075
1640.52951	26501.075
1643.82246	32913.375
1647.11321	39188.375
1650.40179	41918.475
1653.68819	38536.175
1656.97241	31046.275
1660.25446	23812.975
1663.53433	18996.975
1666.81203	16253.675
1670.08756	14693.775
1673.36092	13710.375
1676.63211	13078.975
1679.90115	12681.975
1683.16801	12397.875
1686.43272	12151.775
1689.69527	11965.475
1692.95567	11839.775
1696.2139	11745.175
1699.46999	11677.875
1702.72392	11603.575
1705.97571	11589.675
1709.22535	11518.275
1712.47284	11515.075
1715.71819	11459.475
1718.96139	11438.075
1722.20246	11391.775
1725.44139	11287.475
1728.67818	11157.175
1731.91284	11048.475
1735.14537	10942.975
1738.37576	10879.875
1741.60403	10808.575
1744.83017	10779.775
1748.05418	10726.975
1751.27607	10689.075
1754.49584	10654.975
1757.71349	10614.475
1760.92903	10586.675
1764.14244	10588.075
1767.35375	10562.475
1770.56294	10522.875
1773.77002	10439.375
1776.97499	10413.275
1780.17785	10376.375
1783.37861	10344.175
1786.57727	10289.475
1789.77382	10266.375
1792.96828	10256.175
1796.16064	10210.675
1799.3509	10202.675
1802.53907	10163.375
1805.72514	10144.475
1808.90913	10074.075
1812.09102	10049.175
1815.27083	10008.275
1818.44856	9996.875
1821.6242	9960.975
1824.79776	9927.575
1827.96924	9900.175
1831.13864	9861.175
1834.30597	9861.975
1837.47122	9820.175
1840.6344	9813.075
1843.7955	9795.675
1846.95454	9781.775
1850.11151	9757.675
1853.26642	9759.175
1856.41926	9760.575
1859.57004	9755.275
1862.71876	9700.075
1865.86542	9721.475
1869.01003	9700.875
1872.15258	9712.375
1875.29308	9706.075
1878.43152	9707.275
1881.56792	9723.475
1884.70227	9713.675
1887.83457	9718.375
1890.96482	9710.875
1894.09304	9692.875
1897.21921	9696.775
1900.34335	9693.275
1903.46544	9708.275
1906.58551	9699.575
1909.70353	9707.575
1912.81953	9665.075
1915.93349	9662.175
1919.04543	9614.775
1922.15534	9595.775
1925.26322	9554.375
1928.36908	9526.075
1931.47292	9519.075
1934.57473	9477.375
1937.67453	9445.775
1940.77232	9435.275
1943.86808	9400.175
1946.96184	9369.575
1950.05358	9310.275
1953.14331	9279.275
1956.23103	9276.475
1959.31675	9239.075
1962.40046	9201.575
1965.48217	9204.375
1968.56188	9179.775
1971.63959	9171.475
1974.7153	9132.575
1977.78901	9075.375
1980.86073	9050.675
1983.93046	9006.275
1986.99819	8954.475
1990.06394	8914.075
1993.1277	8887.075
1996.18947	8875.575
1999.24925	8836.975
2002.30706	8792.075
2005.36288	8768.675
2008.41672	8734.775
2011.46859	8700.675
2014.51848	8678.775
2017.56639	8634.575
2020.61233	8625.275
2023.6563	8598.575
2026.6983	8559.375
2029.73833	8534.375
2032.7764	8530.675
2035.8125	8505.375
2038.84664	8511.475
2041.87881	8504.175
2044.90903	8471.675
2047.93729	8437.575
2050.96359	8436.675
2053.98794	8422.275
2057.01034	8423.775
2060.03078	8388.375
2063.04927	8382.975
2066.06582	8356.575
2069.08042	8356.175
2072.09307	8357.375
2075.10378	8356.675
2078.11255	8334.575
2081.11938	8341.075
2084.12426	8336.475
2087.12722	8324.375
2090.12824	8333.575
2093.12732	8313.475
2096.12447	8321.775
2099.11969	8336.975
2102.11299	8336.375
2105.10435	8323.975
2108.09379	8301.975
2111.08131	8309.375
2114.0669	8309.975
2117.05057	8303.375
2120.03233	8310.175
2123.01216	8307.175
2125.99008	8329.475
2128.96609	8324.075
2131.94018	8315.875
2134.91236	8308.675
2137.88263	8290.575
2140.851	8292.175
2143.81746	8307.875
2146.78201	8303.275
2149.74466	8255.875
2152.7054	8223.375
2155.66425	8225.975
2158.6212	8210.475
2161.57625	8206.775
2164.52941	8204.475
2167.48067	8178.875
2170.43004	8183.275
2173.37752	8204.475
2176.32311	8180.375
2179.26681	8199.875
2182.20863	8177.375
2185.14856	8197.275
2188.08661	8173.975
2191.02278	8210.475
2193.95707	8197.775
2196.88948	8184.575
2199.82001	8169.375
2202.74867	8168.075
2205.67545	8156.775
2208.60037	8161.675
2211.52341	8132.675
2214.44458	8115.375
2217.36388	8110.175
2220.28132	8079.675
2223.1969	8053.375
2226.11061	8040.875
2229.02246	8022.975
2231.93245	8014.675
2234.84058	7997.075
2237.74686	7994.275
2240.65128	7976.075
2243.55385	7980.075
2246.45456	7987.575
2249.35343	7961.275
2252.25044	7966.775
2255.14561	7954.275
2258.03893	7948.275
2260.93041	7925.075
2263.82004	7883.675
2266.70783	7890.375
2269.59378	7877.375
2272.4779	7822.175
2275.36017	7827.875
2278.24061	7798.275
2281.11922	7783.075
2283.996	7751.475
2286.87094	7751.475
2289.74405	7712.075
2292.61534	7697.775
2295.4848	7673.875
2298.35243	7679.975
2301.21824	7679.875
2304.08223	7670.275
2306.94439	7665.775
2309.80474	7642.275
2312.66327	7659.775
2315.51999	7645.075
2318.37489	7646.775
2321.22797	7648.275
2324.07925	7638.475
2326.92871	7630.775
2329.77637	7624.775
2332.62222	7602.975
2335.46626	7604.475
2338.3085	7601.275
2341.14893	7614.375
2343.98756	7620.075
2346.8244	7626.675
2349.65943	7635.075
2352.49267	7643.475
2355.32411	7653.075
2358.15376	7664.975
2360.98161	7648.575
2363.80768	7690.075
2366.63195	7712.775
2369.45444	7709.075
2372.27514	7680.075
2375.09405	7680.375
2377.91118	7645.775
2380.72652	7628.075
2383.54009	7579.075
2386.35187	7562.675
2389.16188	7533.775
2391.97011	7512.475
2394.77657	7475.475
2397.58125	7437.275
2400.38416	7426.275
2403.18529	7410.075
2405.98466	7399.275
2408.78226	7378.175
2411.57809	7368.775
2414.37216	7343.475
2417.16446	7364.175
2419.955	7353.175
2422.74378	7355.575
2425.5308	7308.375
2428.31606	7310.975
2431.09956	7317.475
2433.88131	7322.375
2436.6613	7340.975
2439.43954	7337.775
2442.21603	7319.375
2444.99077	7328.675
2447.76377	7323.075
2450.53501	7345.375
2453.30451	7361.175
2456.07226	7338.975
2458.83827	7343.275
2461.60254	7356.275
2464.36507	7368.375
2467.12586	7361.075
2469.88492	7360.275
2472.64224	7356.175
2475.39782	7381.575
2478.15167	7414.475
2480.90379	7434.975
2483.65417	7449.275
2486.40283	7465.475
2489.14976	7496.475
2491.89497	7500.975
2494.63845	7503.875
2497.3802	7465.375
2500.12024	7457.875
2502.85855	7442.875
2505.59514	7443.575
2508.33002	7404.775
2511.06318	7361.675
2513.79462	7339.075
2516.52435	7309.775
2519.25237	7304.475
2521.97867	7247.375
2524.70327	7272.875
2527.42616	7252.575
2530.14734	7238.275
2532.86681	7247.575
2535.58458	7251.275
2538.30065	7232.175
2541.01501	7240.075
2543.72768	7265.775
2546.43864	7254.775
2549.14791	7253.875
2551.85548	7238.375
2554.56136	7218.275
2557.26554	7216.675
2559.96803	7199.975
2562.66883	7213.075
2565.36794	7207.575
2568.06536	7196.975
2570.7611	7187.175
2573.45514	7190.675
2576.14751	7187.675
2578.83819	7175.975
2581.52719	7162.675
2584.21451	7167.175
2586.90015	7182.475
2589.58411	7149.275
2592.2664	7169.375
2594.94701	7152.075
2597.62594	7146.875
2600.30321	7116.475
2602.9788	7143.575
2605.65273	7152.375
2608.32498	7146.075
2610.99557	7123.575
2613.66449	7151.375
2616.33175	7165.775
2618.99734	7187.575
2621.66128	7172.875
2624.32355	7176.775
2626.98416	7168.175
2629.64311	7164.375
2632.30041	7148.075
2634.95605	7129.175
2637.61004	7127.075
2640.26238	7125.475
2642.91306	7126.475
2645.56209	7124.375
2648.20948	7108.575
2650.85521	7120.975
2653.4993	7132.975
2656.14175	7135.675
2658.78255	7150.675
2661.42171	7162.875
2664.05923	7188.275
2666.6951	7210.275
2669.32934	7215.475
2671.96194	7227.675
2674.59291	7227.575
2677.22224	7197.075
2679.84993	7202.575
2682.476	7166.675
2685.10043	7164.975
2687.72324	7146.375
2690.34441	7142.375
2692.96396	7130.575
2695.58188	7151.375
2698.19818	7138.575
2700.81285	7136.875
2703.4259	7133.375
2706.03733	7148.475
2708.64714	7134.975
2711.25533	7154.075
2713.86191	7156.875
2716.46687	7202.275
2719.07021	7194.875
2721.67194	7198.075
2724.27206	7188.975
2726.87057	7203.875
2729.46747	7198.075
2732.06276	7215.675
2734.65644	7211.175
2737.24852	7177.975
2739.83899	7150.675
2742.42786	7173.475
2745.01513	7152.875
2747.60079	7127.675
2750.18486	7117.175
2752.76733	7133.775
2755.3482	7105.775
2757.92747	7128.975
2760.50515	7110.475
2763.08123	7111.375
2765.65573	7106.275
2768.22863	7131.675
2770.79994	7133.775
2773.36967	7119.275
2775.9378	7124.275
2778.50435	7137.075
2781.06932	7125.875
2783.6327	7125.175
2786.1945	7158.475
2788.75471	7165.075
2791.31335	7140.375
2793.87041	7138.075
2796.42589	7126.075
2798.97979	7124.575
2801.53212	7125.475
2804.08288	7108.675
2806.63206	7085.375
2809.17967	7104.575
2811.72571	7098.475
2814.27018	7113.775
2816.81308	7092.675
2819.35442	7094.975
2821.89419	7099.175
2824.43239	7125.975
2826.96904	7082.475
2829.50412	7087.275
2832.03763	7080.375
2834.56959	7053.975
2837.1	7045.875
2839.62884	7064.075
2842.15613	7069.775
2844.68186	7059.675
2847.20604	7060.975
2849.72867	7056.175
2852.24974	7061.375
2854.76927	7079.975
2857.28724	7071.975
2859.80367	7069.875
2862.31855	7073.075
2864.83189	7104.475
2867.34368	7104.375
2869.85393	7089.375
2872.36264	7077.475
2874.8698	7077.775
2877.37543	7087.475
2879.87952	7087.975
2882.38207	7070.275
2884.88308	7088.675
2887.38256	7072.875
2889.88051	7050.875
2892.37692	7051.075
2894.8718	7046.275
2897.36515	7071.075
2899.85698	7062.275
2902.34727	7055.375
2904.83604	7054.275
2907.32328	7069.175
2909.809	7072.275
2912.29319	7090.575
2914.77587	7099.675
2917.25702	7091.875
2919.73665	7056.075
2922.21476	7033.575
2924.69136	7045.375
2927.16644	7010.375
2929.64	7005.675
2932.11205	6984.275
2934.58258	6960.875
2937.05161	6975.475
2939.51912	6944.975
2941.98513	6939.575
2944.44962	6904.275
2946.91261	6894.575
2949.37409	6911.375
2951.83407	6910.275
2954.29254	6906.275
2956.74951	6916.275
2959.20498	6926.175
2961.65895	6930.875
2964.11142	6909.175
2966.56239	6887.175
2969.01186	6865.675
2971.45984	6871.875
2973.90632	6830.475
2976.35131	6804.575
2978.7948	6773.675
2981.23681	6759.175
2983.67732	6740.775
2986.11635	6729.475
2988.55388	6709.375
2990.98993	6693.575
2993.4245	6664.875
2995.85758	6649.875
2998.28917	6642.975
3000.71928	6634.875
3003.14791	6625.275
3005.57506	6627.875
3008.00073	6619.775
3010.42493	6615.675
3012.84764	6599.975
3015.26888	6587.675
3017.68865	6565.175
3020.10694	6588.075
3022.52376	6548.175
3024.9391	6545.275
3027.35298	6498.475
3029.76539	6491.375
3032.17632	6445.675
3034.5858	6446.675
3036.9938	6433.475
3039.40034	6444.875
3041.80542	6438.875
3044.20903	6426.275
3046.61118	6413.675
3049.01187	6396.475
3051.4111	6403.475
3053.80888	6353.675
3056.20519	6349.875
3058.60005	6353.675
3060.99345	6331.375
3063.3854	6308.675
3065.7759	6289.775
3068.16494	6275.475
3070.55254	6252.375
3072.93868	6231.375
3075.32338	6212.675
3077.70662	6216.175
3080.08842	6179.375
3082.46878	6183.375
3084.84769	6186.575
3087.22515	6159.475
3089.60118	6178.775
3091.97576	6184.275
3094.3489	6155.675
3096.72061	6154.575
3099.09087	6160.075
3101.4597	6150.375
3103.82709	6133.575
3106.19305	6135.975
3108.55757	6111.975
3110.92066	6087.875
3113.28232	6094.675
3115.64255	6078.775
3118.00134	6056.475
3120.35871	6062.375
3122.71466	6043.475
3125.06917	6034.675
3127.42226	6013.775
3129.77393	6000.275
3132.12417	6001.975
3134.47299	6013.475
3136.82039	6013.975
3139.16636	5986.475
3141.51092	5986.375
3143.85406	5982.775
3146.19579	5962.275
3148.53609	5980.575
3150.87499	5984.475
3153.21246	5975.375
3155.54853	5976.775
3157.88318	5965.575
3160.21642	5958.475
3162.54826	5966.075
3164.87868	5961.175
3167.2077	5946.075
3169.5353	5955.575
3171.86151	5932.975
3174.18631	5936.975
3176.5097	5933.675
3178.83169	5916.975
3181.15228	5922.675
3183.47147	5919.975
3185.78926	5913.675
