Data from AgNP_FTO_APTES_UA_100uM_CRN_1uM_R6G_10uM_NaF_0.1M_Addition_RamanShift__16__12-06-50-174.txt Node

Date: Thu Mar 24 12:06:50 GMT 2022
User: TCL
Spectrometer: QEP01345
Trigger mode: 4
Integration Time (sec): 7.000000E0
Scans to average: 10
Electric dark correction enabled: true
Nonlinearity correction enabled: false
Boxcar width: 0
XAxis mode: Raman Shifts
Number of Pixels in Spectrum: 1044
>>>>>Begin Spectral Data<<<<<
46.04893	-1.825
50.45542	-0.725
54.85868	-1.725
59.25871	0.175
63.6555	47.875
68.04907	54.375
72.43941	56.675
76.82654	55.175
81.21044	56.175
85.59113	61.175
89.96862	60.175
94.34289	60.975
98.71396	65.375
103.08183	66.475
107.4465	67.875
111.80798	72.275
116.16626	72.875
120.52136	74.975
124.87327	74.275
129.222	83.775
133.56755	87.875
137.90993	92.975
142.24913	106.275
146.58517	120.475
150.91804	141.175
155.24774	169.475
159.57429	217.475
163.89768	271.975
168.21792	370.075
172.53501	503.775
176.84895	709.175
181.15975	996.675
185.46741	1408.675
189.77193	1927.475
194.07331	2590.275
198.37157	3354.075
202.6667	4155.175
206.9587	4951.175
211.24758	5756.875
215.53334	6604.475
219.81599	7505.675
224.09553	8563.475
228.37195	9695.675
232.64527	10954.275
236.91549	12213.875
241.18261	13416.675
245.44663	14419.975
249.70755	15216.475
253.96539	15884.275
258.22014	16464.375
262.4718	16921.775
266.72039	17308.175
270.96589	17463.575
275.20832	17440.875
279.44768	17283.675
283.68397	17110.075
287.91719	16994.575
292.14735	16997.075
296.37445	17175.575
300.59849	17515.275
304.81948	17929.875
309.03742	18276.875
313.25231	18252.475
317.46415	17728.675
321.67296	16899.275
325.87872	16172.675
330.08145	15746.875
334.28114	15677.875
338.47781	15798.575
342.67145	16072.775
346.86207	16478.575
351.04966	17084.775
355.23424	17651.175
359.4158	18136.975
363.59435	18342.375
367.76989	18429.475
371.94243	18390.375
376.11196	18371.975
380.27849	18306.775
384.44203	18291.775
388.60257	18322.875
392.76012	18349.275
396.91468	18549.675
401.06626	18904.775
405.21485	19106.875
409.36047	18838.275
413.50311	18157.675
417.64277	17547.575
421.77947	17301.675
425.9132	17335.975
430.04396	17380.375
434.17176	17503.675
438.2966	17691.775
442.41849	18086.475
446.53742	18715.675
450.6534	19401.275
454.76644	19734.875
458.87653	19780.575
462.98368	19545.675
467.08789	19257.775
471.18916	18915.975
475.2875	18532.975
479.38291	18259.675
483.4754	18082.175
487.56496	17782.175
491.6516	17508.275
495.73531	17235.175
499.81612	17135.075
503.89401	17248.575
507.96899	17294.575
512.04106	17323.875
516.11023	17255.475
520.1765	17199.575
524.23987	17113.375
528.30034	16979.475
532.35792	16866.675
536.41261	16560.475
540.46441	16274.675
544.51333	16162.875
548.55936	16364.775
552.60252	16857.775
556.64279	17517.575
560.6802	17953.575
564.71473	18321.275
568.7464	18946.675
572.7752	19720.175
576.80114	20047.675
580.82422	20100.275
584.84444	20346.875
588.86181	20762.375
592.87633	21343.575
596.888	21432.975
600.89682	20964.275
604.9028	21709.775
608.90594	25316.375
612.90624	29681.075
616.90371	27856.575
620.89834	20728.575
624.89015	17223.175
628.87913	16646.275
632.86528	16901.375
636.84862	17152.475
640.82913	16883.375
644.80683	16123.875
648.78172	15564.075
652.75379	15499.175
656.72306	15941.575
660.68952	16603.075
664.65319	16466.175
668.61405	15822.475
672.57211	15584.275
676.52738	15625.675
680.47986	15581.075
684.42955	15398.375
688.37646	15247.975
692.32058	15281.275
696.26192	15510.175
700.20048	15834.275
704.13626	16040.075
708.06928	16067.075
711.99952	15928.375
715.927	15865.775
719.85171	15961.075
723.77365	15904.475
727.69284	15739.575
731.60928	15509.175
735.52295	15454.775
739.43388	15531.675
743.34206	15642.275
747.24749	15708.575
751.15017	15844.375
755.05012	16188.175
758.94733	16992.975
762.8418	18695.275
766.73354	21721.075
770.62254	24541.375
774.50882	25237.175
778.39237	23711.075
782.27321	20952.375
786.15132	18416.575
790.02671	16814.675
793.89938	15958.075
797.76935	15587.375
801.6366	15417.975
805.50115	15294.775
809.36299	15146.675
813.22213	15032.475
817.07857	14961.575
820.93231	14867.375
824.78336	14811.175
828.63172	14785.775
832.47738	14771.875
836.32036	14724.175
840.16066	14693.975
843.99827	14661.275
847.8332	14691.675
851.66546	14710.275
855.49504	14715.475
859.32195	14705.175
863.1462	14635.875
866.96777	14619.075
870.78668	14592.575
874.60293	14616.175
878.41652	14642.775
882.22745	14716.475
886.03573	14841.575
889.84136	14863.475
893.64433	14792.575
897.44466	14703.875
901.24235	14636.675
905.0374	14497.775
908.8298	14403.375
912.61957	14343.775
916.40671	14462.875
920.19121	14687.175
923.97308	14933.375
927.75233	15010.175
931.52895	14944.875
935.30295	14677.975
939.07433	14248.575
942.84309	13926.275
946.60924	13728.875
950.37278	13691.275
954.13371	13695.575
957.89203	13651.075
961.64774	13631.975
965.40086	13637.475
969.15137	13623.875
972.89929	13579.175
976.64461	13544.875
980.38733	13509.475
984.12747	13540.975
987.86502	13629.375
991.59999	13772.175
995.33237	14000.475
999.06217	14385.175
1002.78939	14797.475
1006.51404	15325.675
1010.23611	15751.675
1013.95561	16044.575
1017.67255	16026.475
1021.38692	15753.575
1025.09872	15240.175
1028.80796	14869.675
1032.51465	14796.075
1036.21877	14894.775
1039.92035	14996.575
1043.61937	15072.775
1047.31584	15080.675
1051.00976	15095.775
1054.70114	15104.975
1058.38998	15145.175
1062.07627	15266.075
1065.76003	15475.675
1069.44126	15745.775
1073.11995	16081.575
1076.79611	16415.375
1080.46974	16706.675
1084.14085	17085.975
1087.80943	17504.675
1091.47549	17701.575
1095.13903	17597.875
1098.80005	17146.975
1102.45857	16626.175
1106.11456	16291.375
1109.76805	16202.775
1113.41903	16408.275
1117.06751	16759.575
1120.71348	17267.275
1124.35696	17854.775
1127.99793	18322.575
1131.63641	18364.675
1135.2724	17912.775
1138.90589	17456.275
1142.5369	17173.975
1146.16542	17077.575
1149.79145	17031.175
1153.415	17143.975
1157.03607	17402.775
1160.65467	17944.875
1164.27079	18864.975
1167.88443	20186.175
1171.49561	22195.675
1175.10432	24907.975
1178.71056	28351.075
1182.31434	31406.175
1185.91565	32484.075
1189.51451	31918.075
1193.11091	30482.575
1196.70485	28569.875
1200.29634	26651.975
1203.88538	24998.475
1207.47197	23492.375
1211.05612	22314.975
1214.63782	21541.775
1218.21708	21183.675
1221.79391	21212.075
1225.36829	21275.875
1228.94024	21070.875
1232.50976	20544.475
1236.07685	19981.475
1239.6415	19626.675
1243.20374	19502.975
1246.76355	19549.175
1250.32093	19815.275
1253.8759	20283.175
1257.42845	21005.575
1260.97859	21874.575
1264.52631	22946.575
1268.07163	23879.075
1271.61453	24701.675
1275.15503	25547.875
1278.69312	26222.875
1282.22882	26941.875
1285.76211	27930.675
1289.29301	29174.475
1292.82151	30673.075
1296.34761	32474.975
1299.87133	34767.975
1303.39266	37624.175
1306.9116	41061.275
1310.42815	44456.075
1313.94233	46270.375
1317.45412	45582.475
1320.96354	43577.575
1324.47058	41499.575
1327.97525	39543.575
1331.47754	38258.075
1334.97747	37399.475
1338.47502	37067.775
1341.97022	37118.975
1345.46305	37586.875
1348.95352	38304.075
1352.44163	39435.075
1355.92738	41607.975
1359.41078	45328.775
1362.89183	48936.875
1366.37053	47907.075
1369.84688	41849.575
1373.32088	35327.575
1376.79254	31218.575
1380.26186	29338.775
1383.72883	28520.275
1387.19347	28053.175
1390.65578	27619.475
1394.11575	27379.975
1397.57339	27457.675
1401.0287	27692.975
1404.48168	27801.275
1407.93234	27608.975
1411.38068	27089.075
1414.82669	26230.975
1418.27039	25215.175
1421.71177	24263.175
1425.15083	23428.875
1428.58758	22980.375
1432.02203	23207.975
1435.45416	23839.475
1438.88399	24418.575
1442.31151	24791.575
1445.73673	25124.375
1449.15965	25471.375
1452.58027	25701.375
1455.9986	25828.975
1459.41463	26172.275
1462.82837	26718.275
1466.23982	27417.375
1469.64898	27897.075
1473.05586	28211.475
1476.46045	28275.075
1479.86276	28213.375
1483.26279	28207.975
1486.66054	28521.675
1490.05602	29116.975
1493.44922	30227.475
1496.84016	31604.275
1500.22882	33896.375
1503.61521	37067.375
1506.99934	40447.975
1510.38121	42878.275
1513.76081	42915.175
1517.13816	40253.175
1520.51324	36243.975
1523.88607	32918.275
1527.25665	30919.575
1530.62498	30078.675
1533.99105	29534.175
1537.35488	28967.875
1540.71647	28208.175
1544.07581	27287.675
1547.4329	26406.575
1550.78776	25753.875
1554.14038	25356.875
1557.49077	25228.275
1560.83892	25526.275
1564.18484	26097.675
1567.52853	26823.975
1570.86999	27475.675
1574.20922	27967.175
1577.54624	27935.675
1580.88103	27050.675
1584.2136	25928.575
1587.54395	25721.775
1590.87208	26672.275
1594.19801	28575.775
1597.52172	30712.875
1600.84321	31484.475
1604.16251	30067.475
1607.47959	27632.975
1610.79447	25049.975
1614.10715	22607.675
1617.41763	20548.175
1620.7259	19119.575
1624.03199	18409.775
1627.33587	18343.675
1630.63757	18961.375
1633.93707	20501.275
1637.23439	23163.075
1640.52951	27341.875
1643.82246	32609.775
1647.11321	37338.675
1650.40179	39149.375
1653.68819	36458.475
1656.97241	30509.875
1660.25446	24496.575
1663.53433	20105.075
1666.81203	17442.375
1670.08756	15870.275
1673.36092	14949.175
1676.63211	14313.075
1679.90115	13897.975
1683.16801	13607.075
1686.43272	13419.275
1689.69527	13256.875
1692.95567	13098.875
1696.2139	13013.075
1699.46999	12941.275
1702.72392	12854.375
1705.97571	12840.375
1709.22535	12801.175
1712.47284	12790.775
1715.71819	12762.975
1718.96139	12701.075
1722.20246	12641.275
1725.44139	12558.475
1728.67818	12462.275
1731.91284	12327.875
1735.14537	12217.775
1738.37576	12122.875
1741.60403	12030.375
1744.83017	12036.975
1748.05418	11947.575
1751.27607	11899.975
1754.49584	11876.775
1757.71349	11854.775
1760.92903	11824.975
1764.14244	11840.175
1767.35375	11788.675
1770.56294	11772.175
1773.77002	11740.475
1776.97499	11717.375
1780.17785	11691.875
1783.37861	11655.175
1786.57727	11620.975
1789.77382	11597.775
1792.96828	11608.475
1796.16064	11507.875
1799.3509	11537.575
1802.53907	11469.775
1805.72514	11420.675
1808.90913	11377.575
1812.09102	11375.375
1815.27083	11344.175
1818.44856	11303.075
1821.6242	11267.475
1824.79776	11252.275
1827.96924	11248.875
1831.13864	11221.375
1834.30597	11214.275
1837.47122	11200.175
1840.6344	11207.975
1843.7955	11214.775
1846.95454	11187.075
1850.11151	11177.175
1853.26642	11166.975
1856.41926	11180.575
1859.57004	11168.575
1862.71876	11148.775
1865.86542	11137.475
1869.01003	11106.975
1872.15258	11104.375
1875.29308	11106.675
1878.43152	11098.475
1881.56792	11109.775
1884.70227	11069.175
1887.83457	11062.575
1890.96482	11087.575
1894.09304	11045.775
1897.21921	11029.575
1900.34335	11035.875
1903.46544	11038.375
1906.58551	11018.275
1909.70353	10988.075
1912.81953	10967.475
1915.93349	10930.875
1919.04543	10913.275
1922.15534	10855.775
1925.26322	10840.775
1928.36908	10803.975
1931.47292	10774.575
1934.57473	10729.575
1937.67453	10678.275
1940.77232	10657.675
1943.86808	10642.975
1946.96184	10602.175
1950.05358	10582.975
1953.14331	10558.175
1956.23103	10519.875
1959.31675	10497.075
1962.40046	10466.875
1965.48217	10446.375
1968.56188	10438.275
1971.63959	10410.675
1974.7153	10383.175
1977.78901	10352.175
1980.86073	10308.075
1983.93046	10264.175
1986.99819	10217.975
1990.06394	10175.775
1993.1277	10143.075
1996.18947	10097.875
1999.24925	10082.475
2002.30706	10024.775
2005.36288	10001.875
2008.41672	9978.875
2011.46859	9917.875
2014.51848	9921.475
2017.56639	9877.575
2020.61233	9843.875
2023.6563	9803.175
2026.6983	9784.475
2029.73833	9785.575
2032.7764	9738.475
2035.8125	9715.675
2038.84664	9675.075
2041.87881	9675.875
2044.90903	9659.775
2047.93729	9624.975
2050.96359	9637.575
2053.98794	9608.775
2057.01034	9604.075
2060.03078	9565.075
2063.04927	9555.975
2066.06582	9521.875
2069.08042	9534.375
2072.09307	9496.675
2075.10378	9510.575
2078.11255	9494.575
2081.11938	9512.575
2084.12426	9503.875
2087.12722	9529.975
2090.12824	9529.275
2093.12732	9510.875
2096.12447	9517.575
2099.11969	9525.975
2102.11299	9536.175
2105.10435	9535.175
2108.09379	9559.275
2111.08131	9528.975
2114.0669	9516.475
2117.05057	9518.075
2120.03233	9551.075
2123.01216	9562.875
2125.99008	9541.975
2128.96609	9549.475
2131.94018	9533.275
2134.91236	9540.875
2137.88263	9541.075
2140.851	9545.075
2143.81746	9524.875
2146.78201	9522.875
2149.74466	9531.075
2152.7054	9530.175
2155.66425	9491.675
2158.6212	9485.275
2161.57625	9481.275
2164.52941	9468.575
2167.48067	9460.475
2170.43004	9460.475
2173.37752	9473.075
2176.32311	9444.675
2179.26681	9446.475
2182.20863	9445.175
2185.14856	9429.775
2188.08661	9442.475
2191.02278	9415.175
2193.95707	9415.275
2196.88948	9406.775
2199.82001	9378.275
2202.74867	9370.175
2205.67545	9340.675
2208.60037	9327.275
2211.52341	9322.575
2214.44458	9333.475
2217.36388	9312.475
2220.28132	9308.475
2223.1969	9254.275
2226.11061	9258.275
2229.02246	9225.275
2231.93245	9213.975
2234.84058	9195.875
2237.74686	9170.075
2240.65128	9169.275
2243.55385	9157.275
2246.45456	9144.675
2249.35343	9116.175
2252.25044	9122.075
2255.14561	9110.875
2258.03893	9109.975
2260.93041	9099.875
2263.82004	9090.575
2266.70783	9037.275
2269.59378	9047.275
2272.4779	9011.275
2275.36017	8969.275
2278.24061	8979.575
2281.11922	8948.175
2283.996	8929.575
2286.87094	8929.175
2289.74405	8895.975
2292.61534	8859.075
2295.4848	8856.875
2298.35243	8870.475
2301.21824	8839.575
2304.08223	8850.575
2306.94439	8836.775
2309.80474	8816.175
2312.66327	8813.975
2315.51999	8828.875
2318.37489	8807.775
2321.22797	8822.675
2324.07925	8799.275
2326.92871	8790.375
2329.77637	8800.675
2332.62222	8781.375
2335.46626	8774.675
2338.3085	8760.775
2341.14893	8752.475
2343.98756	8779.075
2346.8244	8762.575
2349.65943	8765.775
2352.49267	8762.175
2355.32411	8789.175
2358.15376	8800.775
2360.98161	8804.675
2363.80768	8799.075
2366.63195	8786.075
2369.45444	8798.075
2372.27514	8790.375
2375.09405	8758.475
2377.91118	8768.975
2380.72652	8720.475
2383.54009	8696.775
2386.35187	8661.675
2389.16188	8621.675
2391.97011	8623.875
2394.77657	8589.175
2397.58125	8562.675
2400.38416	8543.175
2403.18529	8538.575
2405.98466	8512.675
2408.78226	8497.275
2411.57809	8511.575
2414.37216	8460.175
2417.16446	8477.575
2419.955	8446.775
2422.74378	8460.775
2425.5308	8429.375
2428.31606	8440.575
2431.09956	8443.775
2433.88131	8425.875
2436.6613	8441.575
2439.43954	8449.575
2442.21603	8441.575
2444.99077	8461.975
2447.76377	8472.075
2450.53501	8446.375
2453.30451	8469.275
2456.07226	8464.075
2458.83827	8458.675
2461.60254	8471.475
2464.36507	8463.775
2467.12586	8446.175
2469.88492	8440.075
2472.64224	8443.075
2475.39782	8452.275
2478.15167	8466.275
2480.90379	8458.375
2483.65417	8454.375
2486.40283	8465.375
2489.14976	8491.075
2491.89497	8497.875
2494.63845	8502.575
2497.3802	8488.275
2500.12024	8497.075
2502.85855	8510.475
2505.59514	8488.075
2508.33002	8444.275
2511.06318	8431.675
2513.79462	8407.475
2516.52435	8409.975
2519.25237	8378.175
2521.97867	8352.275
2524.70327	8362.675
2527.42616	8327.975
2530.14734	8343.175
2532.86681	8312.475
2535.58458	8317.175
2538.30065	8303.875
2541.01501	8300.575
2543.72768	8301.375
2546.43864	8303.375
2549.14791	8271.375
2551.85548	8273.675
2554.56136	8279.375
2557.26554	8258.175
2559.96803	8250.975
2562.66883	8241.575
2565.36794	8254.475
2568.06536	8254.275
2570.7611	8213.475
2573.45514	8221.675
2576.14751	8206.975
2578.83819	8202.675
2581.52719	8204.275
2584.21451	8218.575
2586.90015	8185.075
2589.58411	8144.575
2592.2664	8157.875
2594.94701	8150.775
2597.62594	8127.575
2600.30321	8129.575
2602.9788	8104.075
2605.65273	8103.175
2608.32498	8107.775
2610.99557	8139.175
2613.66449	8129.275
2616.33175	8132.475
2618.99734	8133.475
2621.66128	8125.975
2624.32355	8122.675
2626.98416	8120.375
2629.64311	8107.875
2632.30041	8105.975
2634.95605	8080.475
2637.61004	8066.575
2640.26238	8085.775
2642.91306	8083.175
2645.56209	8095.075
2648.20948	8075.575
2650.85521	8076.075
2653.4993	8076.475
2656.14175	8084.375
2658.78255	8116.075
2661.42171	8114.675
2664.05923	8136.275
2666.6951	8110.375
2669.32934	8112.875
2671.96194	8120.475
2674.59291	8138.175
2677.22224	8112.975
2679.84993	8106.675
2682.476	8120.675
2685.10043	8106.975
2687.72324	8101.475
2690.34441	8101.575
2692.96396	8084.275
2695.58188	8100.775
2698.19818	8107.875
2700.81285	8113.275
2703.4259	8091.075
2706.03733	8113.375
2708.64714	8088.775
2711.25533	8097.075
2713.86191	8091.375
2716.46687	8121.175
2719.07021	8089.075
2721.67194	8123.675
2724.27206	8122.175
2726.87057	8118.175
2729.46747	8111.775
2732.06276	8123.475
2734.65644	8103.075
2737.24852	8100.675
2739.83899	8117.475
2742.42786	8108.375
2745.01513	8082.875
2747.60079	8075.275
2750.18486	8077.075
2752.76733	8073.575
2755.3482	8087.275
2757.92747	8066.575
2760.50515	8058.675
2763.08123	8065.375
2765.65573	8055.675
2768.22863	8048.875
2770.79994	8063.275
2773.36967	8071.675
2775.9378	8042.975
2778.50435	8016.875
2781.06932	8022.375
2783.6327	8021.675
2786.1945	8000.875
2788.75471	8006.775
2791.31335	7989.375
2793.87041	7976.875
2796.42589	7984.775
2798.97979	7976.475
2801.53212	7956.975
2804.08288	7969.075
2806.63206	7962.775
2809.17967	7968.975
2811.72571	7957.975
2814.27018	7960.975
2816.81308	7915.875
2819.35442	7923.075
2821.89419	7906.875
2824.43239	7926.075
2826.96904	7901.975
2829.50412	7923.675
2832.03763	7905.775
2834.56959	7904.975
2837.1	7892.075
2839.62884	7891.975
2842.15613	7871.275
2844.68186	7894.975
2847.20604	7881.175
2849.72867	7891.475
2852.24974	7888.875
2854.76927	7905.875
2857.28724	7878.775
2859.80367	7886.475
2862.31855	7898.975
2864.83189	7889.275
2867.34368	7878.375
2869.85393	7882.575
2872.36264	7896.175
2874.8698	7904.875
2877.37543	7904.375
2879.87952	7899.775
2882.38207	7899.575
2884.88308	7890.575
2887.38256	7899.475
2889.88051	7870.375
2892.37692	7899.575
2894.8718	7885.275
2897.36515	7916.675
2899.85698	7895.975
2902.34727	7896.675
2904.83604	7929.975
2907.32328	7935.875
2909.809	7903.975
2912.29319	7906.675
2914.77587	7940.475
2917.25702	7916.475
2919.73665	7890.675
2922.21476	7916.575
2924.69136	7891.375
2927.16644	7881.275
2929.64	7850.975
2932.11205	7840.475
2934.58258	7796.675
2937.05161	7804.075
2939.51912	7788.475
2941.98513	7829.075
2944.44962	7760.775
2946.91261	7737.775
2949.37409	7758.775
2951.83407	7734.575
2954.29254	7749.675
2956.74951	7727.475
2959.20498	7692.775
2961.65895	7670.875
2964.11142	7666.275
2966.56239	7655.675
2969.01186	7647.075
2971.45984	7625.475
2973.90632	7598.675
2976.35131	7584.875
2978.7948	7565.375
2981.23681	7541.275
2983.67732	7534.475
2986.11635	7498.975
2988.55388	7479.675
2990.98993	7462.775
2993.4245	7448.575
2995.85758	7435.875
2998.28917	7414.375
3000.71928	7426.475
3003.14791	7388.675
3005.57506	7394.475
3008.00073	7377.575
3010.42493	7366.875
3012.84764	7346.275
3015.26888	7320.975
3017.68865	7321.975
3020.10694	7317.975
3022.52376	7297.575
3024.9391	7281.975
3027.35298	7275.575
3029.76539	7258.675
3032.17632	7243.375
3034.5858	7236.475
3036.9938	7216.875
3039.40034	7214.675
3041.80542	7198.975
3044.20903	7179.875
3046.61118	7178.375
3049.01187	7136.875
3051.4111	7138.875
3053.80888	7111.775
3056.20519	7104.675
3058.60005	7091.175
3060.99345	7087.075
3063.3854	7051.175
3065.7759	7046.775
3068.16494	7048.575
3070.55254	6997.575
3072.93868	6995.975
3075.32338	6965.075
3077.70662	6945.375
3080.08842	6937.875
3082.46878	6934.975
3084.84769	6939.075
3087.22515	6921.275
3089.60118	6895.575
3091.97576	6888.275
3094.3489	6869.475
3096.72061	6883.475
3099.09087	6875.575
3101.4597	6853.375
3103.82709	6869.275
3106.19305	6850.675
3108.55757	6827.275
3110.92066	6822.075
3113.28232	6798.775
3115.64255	6784.675
3118.00134	6761.975
3120.35871	6745.675
3122.71466	6737.675
3125.06917	6734.275
3127.42226	6725.875
3129.77393	6707.975
3132.12417	6711.175
3134.47299	6712.275
3136.82039	6727.675
3139.16636	6741.975
3141.51092	6719.475
3143.85406	6720.475
3146.19579	6714.975
3148.53609	6702.275
3150.87499	6706.875
3153.21246	6721.475
3155.54853	6709.175
3157.88318	6699.475
3160.21642	6700.775
3162.54826	6682.675
3164.87868	6674.875
3167.2077	6675.275
3169.5353	6662.475
3171.86151	6653.475
3174.18631	6668.675
3176.5097	6657.175
3178.83169	6650.475
