Data from AgNP_FTO_APTES_UA_100uM_CRN_0uM_R6G_10uM_NaF_0.1M_Addition_RamanShift__41__11-33-00-135.txt Node

Date: Thu Mar 24 11:33:00 GMT 2022
User: TCL
Spectrometer: QEP01345
Trigger mode: 4
Integration Time (sec): 7.000000E0
Scans to average: 10
Electric dark correction enabled: true
Nonlinearity correction enabled: false
Boxcar width: 0
XAxis mode: Raman Shifts
Number of Pixels in Spectrum: 1044
>>>>>Begin Spectral Data<<<<<
46.04893	-1.8375
50.45542	0.8625
54.85868	0.3625
59.25871	-0.1375
63.6555	38.5625
68.04907	44.2625
72.43941	45.3625
76.82654	40.6625
81.21044	46.7625
85.59113	48.9625
89.96862	54.6625
94.34289	49.3625
98.71396	56.4625
103.08183	55.2625
107.4465	57.1625
111.80798	58.9625
116.16626	58.6625
120.52136	62.5625
124.87327	65.9625
129.222	68.4625
133.56755	72.9625
137.90993	76.7625
142.24913	90.3625
146.58517	96.9625
150.91804	112.0625
155.24774	140.9625
159.57429	167.8625
163.89768	218.3625
168.21792	295.2625
172.53501	400.6625
176.84895	568.3625
181.15975	797.2625
185.46741	1133.6625
189.77193	1545.5625
194.07331	2112.3625
198.37157	2725.2625
202.6667	3409.6625
206.9587	4097.6625
211.24758	4817.1625
215.53334	5604.8625
219.81599	6513.2625
224.09553	7555.7625
228.37195	8743.8625
232.64527	9984.7625
236.91549	11172.6625
241.18261	12197.9625
245.44663	12919.6625
249.70755	13480.1625
253.96539	13868.1625
258.22014	14200.8625
262.4718	14380.6625
266.72039	14329.7625
270.96589	14065.1625
275.20832	13689.5625
279.44768	13244.9625
283.68397	12894.0625
287.91719	12747.7625
292.14735	12948.7625
296.37445	13494.1625
300.59849	14537.4625
304.81948	15809.3625
309.03742	16931.2625
313.25231	17289.6625
317.46415	16387.9625
321.67296	14563.7625
325.87872	12909.6625
330.08145	12058.6625
334.28114	11980.9625
338.47781	12306.3625
342.67145	12844.9625
346.86207	13681.5625
351.04966	15024.3625
355.23424	16584.0625
359.4158	17766.2625
363.59435	18161.6625
367.76989	18011.7625
371.94243	17550.2625
376.11196	17003.0625
380.27849	16499.2625
384.44203	15985.1625
388.60257	15485.9625
392.76012	15208.4625
396.91468	15313.9625
401.06626	15851.2625
405.21485	16184.7625
409.36047	15687.3625
413.50311	14292.2625
417.64277	12930.7625
421.77947	12104.7625
425.9132	11739.4625
430.04396	11651.4625
434.17176	11684.8625
438.2966	11945.9625
442.41849	12388.4625
446.53742	12975.0625
450.6534	13442.6625
454.76644	13604.6625
458.87653	13380.2625
462.98368	12952.0625
467.08789	12561.7625
471.18916	12064.4625
475.2875	11554.8625
479.38291	11108.4625
483.4754	10802.7625
487.56496	10633.8625
491.6516	10527.7625
495.73531	10504.2625
499.81612	10616.2625
503.89401	10795.1625
507.96899	11069.7625
512.04106	11409.4625
516.11023	11755.2625
520.1765	11967.1625
524.23987	12007.8625
528.30034	11810.1625
532.35792	11549.8625
536.41261	11140.0625
540.46441	10635.9625
544.51333	10318.4625
548.55936	10367.0625
552.60252	10816.2625
556.64279	11385.1625
560.6802	11700.3625
564.71473	12233.0625
568.7464	13380.1625
572.7752	13980.3625
576.80114	13009.5625
580.82422	11888.9625
584.84444	11468.8625
588.86181	11428.0625
592.87633	11499.0625
596.888	11681.8625
600.89682	12261.1625
604.9028	15047.3625
608.90594	22874.6625
612.90624	33055.0625
616.90371	31890.7625
620.89834	18858.2625
624.89015	12254.2625
628.87913	11107.0625
632.86528	11463.4625
636.84862	11943.1625
640.82913	11460.5625
644.80683	10274.8625
648.78172	9484.2625
652.75379	9541.4625
656.72306	10479.6625
660.68952	11617.3625
664.65319	11342.4625
668.61405	10105.6625
672.57211	9492.1625
676.52738	9401.3625
680.47986	9337.7625
684.42955	9064.2625
688.37646	8906.4625
692.32058	8972.5625
696.26192	9210.4625
700.20048	9508.3625
704.13626	9771.6625
708.06928	9798.3625
711.99952	9636.2625
715.927	9560.0625
719.85171	9652.4625
723.77365	9704.0625
727.69284	9496.1625
731.60928	9325.7625
735.52295	9279.8625
739.43388	9365.2625
743.34206	9472.0625
747.24749	9490.8625
751.15017	9607.7625
755.05012	10004.8625
758.94733	11246.6625
762.8418	14292.0625
766.73354	19028.5625
770.62254	23179.9625
774.50882	25082.8625
778.39237	23961.3625
782.27321	19460.4625
786.15132	14447.3625
790.02671	11471.0625
793.89938	10178.6625
797.76935	9624.6625
801.6366	9352.4625
805.50115	9240.8625
809.36299	9132.2625
813.22213	9020.9625
817.07857	9006.8625
820.93231	8978.3625
824.78336	9088.0625
828.63172	9240.7625
832.47738	9313.5625
836.32036	9191.0625
840.16066	9055.7625
843.99827	8949.5625
847.8332	8841.9625
851.66546	8853.5625
855.49504	8848.2625
859.32195	8809.8625
863.1462	8732.4625
866.96777	8652.6625
870.78668	8639.6625
874.60293	8688.9625
878.41652	8766.3625
882.22745	8940.9625
886.03573	9032.2625
889.84136	9021.5625
893.64433	8976.1625
897.44466	9006.2625
901.24235	9003.2625
905.0374	8916.0625
908.8298	8734.2625
912.61957	8600.1625
916.40671	8630.3625
920.19121	8757.7625
923.97308	9035.2625
927.75233	9413.0625
931.52895	9687.4625
935.30295	9442.7625
939.07433	8755.2625
942.84309	8238.7625
946.60924	7942.4625
950.37278	7856.1625
954.13371	7763.0625
957.89203	7766.9625
961.64774	7731.3625
965.40086	7702.2625
969.15137	7656.7625
972.89929	7638.4625
976.64461	7641.1625
980.38733	7616.3625
984.12747	7637.4625
987.86502	7700.9625
991.59999	7749.8625
995.33237	7918.1625
999.06217	8214.1625
1002.78939	8568.2625
1006.51404	8968.3625
1010.23611	9279.0625
1013.95561	9417.4625
1017.67255	9323.9625
1021.38692	9098.5625
1025.09872	8775.1625
1028.80796	8625.8625
1032.51465	8709.1625
1036.21877	8908.2625
1039.92035	9062.3625
1043.61937	9169.2625
1047.31584	9196.1625
1051.00976	9145.3625
1054.70114	9047.9625
1058.38998	9004.5625
1062.07627	9028.4625
1065.76003	9085.0625
1069.44126	9263.9625
1073.11995	9587.5625
1076.79611	9975.6625
1080.46974	10511.2625
1084.14085	11223.9625
1087.80943	11824.2625
1091.47549	11919.8625
1095.13903	11433.2625
1098.80005	10630.6625
1102.45857	9990.6625
1106.11456	9770.0625
1109.76805	9972.6625
1113.41903	10556.6625
1117.06751	11544.6625
1120.71348	13000.7625
1124.35696	14739.3625
1127.99793	15666.5625
1131.63641	14712.6625
1135.2724	12916.3625
1138.90589	11590.8625
1142.5369	10813.3625
1146.16542	10310.6625
1149.79145	10055.9625
1153.415	10013.5625
1157.03607	10128.5625
1160.65467	10520.8625
1164.27079	11257.4625
1167.88443	12463.6625
1171.49561	14465.7625
1175.10432	17732.8625
1178.71056	21830.6625
1182.31434	24748.2625
1185.91565	25153.9625
1189.51451	23860.1625
1193.11091	21790.1625
1196.70485	19515.1625
1200.29634	17700.2625
1203.88538	16109.4625
1207.47197	14222.8625
1211.05612	12623.2625
1214.63782	11740.8625
1218.21708	11458.0625
1221.79391	11410.5625
1225.36829	11383.8625
1228.94024	11246.7625
1232.50976	11087.1625
1236.07685	11054.6625
1239.6415	11123.9625
1243.20374	11240.1625
1246.76355	11347.2625
1250.32093	11532.2625
1253.8759	11962.1625
1257.42845	12630.1625
1260.97859	13462.2625
1264.52631	14361.7625
1268.07163	15183.6625
1271.61453	15806.5625
1275.15503	16124.6625
1278.69312	16294.3625
1282.22882	16706.3625
1285.76211	17567.9625
1289.29301	18576.4625
1292.82151	19501.6625
1296.34761	20661.7625
1299.87133	22583.6625
1303.39266	26000.0625
1306.9116	31413.7625
1310.42815	36942.9625
1313.94233	38740.0625
1317.45412	35669.3625
1320.96354	30554.7625
1324.47058	25803.9625
1327.97525	22284.6625
1331.47754	20392.8625
1334.97747	19829.2625
1338.47502	20293.2625
1341.97022	21655.2625
1345.46305	23942.5625
1348.95352	26938.4625
1352.44163	30646.9625
1355.92738	36520.1625
1359.41078	45039.7625
1362.89183	50956.3625
1366.37053	46536.4625
1369.84688	36294.8625
1373.32088	27870.4625
1376.79254	22884.8625
1380.26186	19970.5625
1383.72883	18008.1625
1387.19347	16534.4625
1390.65578	15303.1625
1394.11575	14429.9625
1397.57339	14056.4625
1401.0287	13941.1625
1404.48168	14023.3625
1407.93234	14081.9625
1411.38068	14300.3625
1414.82669	14388.0625
1418.27039	14261.7625
1421.71177	13891.7625
1425.15083	13535.2625
1428.58758	13545.5625
1432.02203	13891.6625
1435.45416	14066.9625
1438.88399	13954.2625
1442.31151	13842.5625
1445.73673	13903.6625
1449.15965	14039.0625
1452.58027	13933.8625
1455.9986	13744.8625
1459.41463	13766.2625
1462.82837	14150.7625
1466.23982	14770.0625
1469.64898	15276.3625
1473.05586	15532.0625
1476.46045	15723.7625
1479.86276	16067.2625
1483.26279	16719.2625
1486.66054	17695.0625
1490.05602	19146.1625
1493.44922	21300.5625
1496.84016	24633.6625
1500.22882	29767.4625
1503.61521	36705.4625
1506.99934	44126.6625
1510.38121	49702.6625
1513.76081	50074.3625
1517.13816	44124.0625
1520.51324	35264.1625
1523.88607	27709.7625
1527.25665	23201.0625
1530.62498	20800.8625
1533.99105	19398.0625
1537.35488	18388.6625
1540.71647	17784.6625
1544.07581	17441.4625
1547.4329	17282.2625
1550.78776	17230.2625
1554.14038	17280.7625
1557.49077	17515.7625
1560.83892	18121.2625
1564.18484	19242.3625
1567.52853	20704.5625
1570.86999	21763.9625
1574.20922	22199.4625
1577.54624	21670.1625
1580.88103	19461.0625
1584.2136	16716.5625
1587.54395	15200.4625
1590.87208	15191.6625
1594.19801	16574.2625
1597.52172	18534.5625
1600.84321	19512.1625
1604.16251	18732.3625
1607.47959	16992.6625
1610.79447	15022.4625
1614.10715	13234.1625
1617.41763	11912.9625
1620.7259	11135.1625
1624.03199	10811.1625
1627.33587	10925.9625
1630.63757	11421.8625
1633.93707	12441.8625
1637.23439	14294.1625
1640.52951	17345.9625
1643.82246	22064.8625
1647.11321	27566.2625
1650.40179	30916.6625
1653.68819	29054.8625
1656.97241	23116.7625
1660.25446	17107.3625
1663.53433	13080.7625
1666.81203	10803.5625
1670.08756	9544.1625
1673.36092	8841.6625
1676.63211	8379.8625
1679.90115	8114.5625
1683.16801	7887.3625
1686.43272	7733.5625
1689.69527	7627.0625
1692.95567	7574.6625
1696.2139	7514.9625
1699.46999	7494.0625
1702.72392	7440.5625
1705.97571	7430.2625
1709.22535	7438.7625
1712.47284	7453.4625
1715.71819	7456.4625
1718.96139	7405.1625
1722.20246	7385.6625
1725.44139	7315.5625
1728.67818	7184.0625
1731.91284	7086.2625
1735.14537	6984.8625
1738.37576	6941.4625
1741.60403	6904.8625
1744.83017	6845.0625
1748.05418	6812.6625
1751.27607	6785.7625
1754.49584	6745.3625
1757.71349	6723.4625
1760.92903	6691.6625
1764.14244	6681.8625
1767.35375	6635.5625
1770.56294	6604.9625
1773.77002	6527.6625
1776.97499	6493.7625
1780.17785	6458.8625
1783.37861	6446.2625
1786.57727	6389.3625
1789.77382	6374.6625
1792.96828	6378.5625
1796.16064	6371.0625
1799.3509	6360.9625
1802.53907	6329.0625
1805.72514	6293.1625
1808.90913	6286.2625
1812.09102	6258.7625
1815.27083	6233.6625
1818.44856	6199.5625
1821.6242	6193.9625
1824.79776	6157.8625
1827.96924	6155.7625
1831.13864	6138.4625
1834.30597	6131.3625
1837.47122	6105.9625
1840.6344	6104.9625
1843.7955	6107.0625
1846.95454	6096.1625
1850.11151	6089.9625
1853.26642	6097.7625
1856.41926	6091.6625
1859.57004	6104.6625
1862.71876	6099.4625
1865.86542	6081.3625
1869.01003	6102.7625
1872.15258	6115.0625
1875.29308	6089.1625
1878.43152	6090.0625
1881.56792	6126.5625
1884.70227	6112.9625
1887.83457	6119.9625
1890.96482	6088.3625
1894.09304	6100.2625
1897.21921	6081.9625
1900.34335	6084.1625
1903.46544	6097.2625
1906.58551	6075.5625
1909.70353	6100.5625
1912.81953	6087.5625
1915.93349	6057.9625
1919.04543	6076.1625
1922.15534	6050.9625
1925.26322	6005.3625
1928.36908	5983.7625
1931.47292	5951.3625
1934.57473	5908.9625
1937.67453	5882.3625
1940.77232	5820.3625
1943.86808	5809.0625
1946.96184	5798.7625
1950.05358	5791.0625
1953.14331	5753.7625
1956.23103	5749.3625
1959.31675	5762.9625
1962.40046	5735.0625
1965.48217	5747.8625
1968.56188	5755.6625
1971.63959	5750.3625
1974.7153	5759.3625
1977.78901	5720.8625
1980.86073	5683.6625
1983.93046	5653.1625
1986.99819	5594.5625
1990.06394	5568.6625
1993.1277	5530.6625
1996.18947	5515.7625
1999.24925	5467.0625
2002.30706	5460.0625
2005.36288	5433.5625
2008.41672	5421.9625
2011.46859	5395.9625
2014.51848	5363.9625
2017.56639	5351.3625
2020.61233	5320.3625
2023.6563	5309.8625
2026.6983	5281.1625
2029.73833	5274.2625
2032.7764	5255.4625
2035.8125	5258.6625
2038.84664	5236.5625
2041.87881	5255.3625
2044.90903	5232.5625
2047.93729	5225.3625
2050.96359	5218.1625
2053.98794	5206.0625
2057.01034	5200.9625
2060.03078	5178.3625
2063.04927	5161.2625
2066.06582	5149.9625
2069.08042	5152.5625
2072.09307	5151.9625
2075.10378	5151.3625
2078.11255	5144.8625
2081.11938	5138.0625
2084.12426	5135.7625
2087.12722	5113.2625
2090.12824	5135.8625
2093.12732	5126.8625
2096.12447	5126.7625
2099.11969	5136.5625
2102.11299	5110.3625
2105.10435	5130.0625
2108.09379	5122.7625
2111.08131	5133.6625
2114.0669	5137.0625
2117.05057	5149.8625
2120.03233	5159.7625
2123.01216	5149.2625
2125.99008	5161.2625
2128.96609	5168.9625
2131.94018	5165.9625
2134.91236	5163.9625
2137.88263	5155.9625
2140.851	5133.8625
2143.81746	5130.2625
2146.78201	5112.9625
2149.74466	5091.9625
2152.7054	5081.5625
2155.66425	5059.4625
2158.6212	5057.7625
2161.57625	5036.5625
2164.52941	5026.8625
2167.48067	5005.4625
2170.43004	5011.7625
2173.37752	4997.6625
2176.32311	5005.1625
2179.26681	5013.1625
2182.20863	5007.5625
2185.14856	5019.8625
2188.08661	4991.7625
2191.02278	4993.4625
2193.95707	4974.2625
2196.88948	4969.7625
2199.82001	4959.3625
2202.74867	4937.8625
2205.67545	4939.3625
2208.60037	4933.1625
2211.52341	4935.2625
2214.44458	4925.8625
2217.36388	4885.1625
2220.28132	4891.4625
2223.1969	4863.1625
2226.11061	4857.5625
2229.02246	4842.2625
2231.93245	4837.0625
2234.84058	4806.8625
2237.74686	4807.1625
2240.65128	4834.2625
2243.55385	4825.2625
2246.45456	4809.1625
2249.35343	4799.8625
2252.25044	4824.6625
2255.14561	4832.3625
2258.03893	4833.6625
2260.93041	4863.2625
2263.82004	4851.1625
2266.70783	4833.2625
2269.59378	4838.1625
2272.4779	4812.5625
2275.36017	4792.7625
2278.24061	4785.2625
2281.11922	4776.7625
2283.996	4759.8625
2286.87094	4748.9625
2289.74405	4712.2625
2292.61534	4707.7625
2295.4848	4685.4625
2298.35243	4685.4625
2301.21824	4659.8625
2304.08223	4652.0625
2306.94439	4662.1625
2309.80474	4677.7625
2312.66327	4660.5625
2315.51999	4679.6625
2318.37489	4666.7625
2321.22797	4660.6625
2324.07925	4641.4625
2326.92871	4644.9625
2329.77637	4639.3625
2332.62222	4638.0625
2335.46626	4634.1625
2338.3085	4635.3625
2341.14893	4641.7625
2343.98756	4634.1625
2346.8244	4664.9625
2349.65943	4668.2625
2352.49267	4683.4625
2355.32411	4708.3625
2358.15376	4736.0625
2360.98161	4731.3625
2363.80768	4762.6625
2366.63195	4772.8625
2369.45444	4775.7625
2372.27514	4794.1625
2375.09405	4782.2625
2377.91118	4757.7625
2380.72652	4736.0625
2383.54009	4698.7625
2386.35187	4676.8625
2389.16188	4641.8625
2391.97011	4613.7625
2394.77657	4594.0625
2397.58125	4554.9625
2400.38416	4539.9625
2403.18529	4520.7625
2405.98466	4514.4625
2408.78226	4494.3625
2411.57809	4488.9625
2414.37216	4463.9625
2417.16446	4478.8625
2419.955	4474.1625
2422.74378	4458.7625
2425.5308	4467.1625
2428.31606	4476.0625
2431.09956	4490.2625
2433.88131	4482.0625
2436.6613	4475.8625
2439.43954	4490.6625
2442.21603	4491.0625
2444.99077	4501.9625
2447.76377	4530.8625
2450.53501	4508.2625
2453.30451	4531.4625
2456.07226	4528.8625
2458.83827	4523.0625
2461.60254	4526.0625
2464.36507	4528.6625
2467.12586	4511.2625
2469.88492	4531.4625
2472.64224	4532.6625
2475.39782	4539.9625
2478.15167	4568.2625
2480.90379	4584.2625
2483.65417	4605.9625
2486.40283	4640.1625
2489.14976	4660.2625
2491.89497	4671.8625
2494.63845	4658.9625
2497.3802	4657.1625
2500.12024	4647.3625
2502.85855	4630.9625
2505.59514	4593.4625
2508.33002	4563.5625
2511.06318	4503.9625
2513.79462	4480.9625
2516.52435	4449.5625
2519.25237	4418.8625
2521.97867	4403.5625
2524.70327	4388.0625
2527.42616	4373.0625
2530.14734	4356.6625
2532.86681	4359.0625
2535.58458	4366.5625
2538.30065	4364.1625
2541.01501	4356.5625
2543.72768	4374.2625
2546.43864	4383.2625
2549.14791	4382.9625
2551.85548	4377.4625
2554.56136	4389.1625
2557.26554	4369.5625
2559.96803	4377.2625
2562.66883	4363.4625
2565.36794	4367.6625
2568.06536	4355.9625
2570.7611	4355.2625
2573.45514	4365.4625
2576.14751	4343.6625
2578.83819	4322.8625
2581.52719	4319.5625
2584.21451	4315.4625
2586.90015	4296.5625
2589.58411	4296.8625
2592.2664	4305.4625
2594.94701	4284.4625
2597.62594	4305.2625
2600.30321	4286.2625
2602.9788	4271.7625
2605.65273	4275.8625
2608.32498	4292.2625
2610.99557	4292.9625
2613.66449	4280.2625
2616.33175	4293.8625
2618.99734	4303.4625
2621.66128	4290.2625
2624.32355	4294.3625
2626.98416	4281.9625
2629.64311	4272.7625
2632.30041	4269.5625
2634.95605	4258.6625
2637.61004	4244.0625
2640.26238	4207.6625
2642.91306	4211.6625
2645.56209	4213.0625
2648.20948	4221.0625
2650.85521	4218.3625
2653.4993	4209.5625
2656.14175	4220.4625
2658.78255	4221.8625
2661.42171	4243.6625
2664.05923	4255.7625
2666.6951	4251.8625
2669.32934	4279.0625
2671.96194	4281.8625
2674.59291	4266.5625
2677.22224	4283.0625
2679.84993	4281.2625
2682.476	4289.5625
2685.10043	4274.6625
2687.72324	4270.3625
2690.34441	4263.0625
2692.96396	4248.4625
2695.58188	4256.6625
2698.19818	4253.0625
2700.81285	4270.0625
2703.4259	4256.0625
2706.03733	4264.8625
2708.64714	4265.4625
2711.25533	4286.8625
2713.86191	4272.8625
2716.46687	4291.7625
2719.07021	4287.2625
2721.67194	4288.6625
2724.27206	4292.1625
2726.87057	4294.2625
2729.46747	4286.5625
2732.06276	4263.1625
2734.65644	4265.8625
2737.24852	4244.1625
2739.83899	4237.0625
2742.42786	4239.1625
2745.01513	4214.9625
2747.60079	4212.4625
2750.18486	4180.4625
2752.76733	4192.9625
2755.3482	4189.2625
2757.92747	4190.5625
2760.50515	4170.0625
2763.08123	4176.4625
2765.65573	4173.0625
2768.22863	4185.5625
2770.79994	4158.0625
2773.36967	4186.2625
2775.9378	4185.2625
2778.50435	4181.9625
2781.06932	4183.0625
2783.6327	4190.8625
2786.1945	4210.5625
2788.75471	4204.8625
2791.31335	4197.5625
2793.87041	4204.5625
2796.42589	4221.8625
2798.97979	4229.2625
2801.53212	4222.3625
2804.08288	4253.5625
2806.63206	4256.0625
2809.17967	4271.7625
2811.72571	4268.3625
2814.27018	4305.0625
2816.81308	4321.4625
2819.35442	4344.2625
2821.89419	4364.8625
2824.43239	4366.2625
2826.96904	4385.9625
2829.50412	4393.5625
2832.03763	4386.3625
2834.56959	4366.2625
2837.1	4364.2625
2839.62884	4378.3625
2842.15613	4380.3625
2844.68186	4420.9625
2847.20604	4438.5625
2849.72867	4472.0625
2852.24974	4490.5625
2854.76927	4509.2625
2857.28724	4520.5625
2859.80367	4535.1625
2862.31855	4542.4625
2864.83189	4556.6625
2867.34368	4568.2625
2869.85393	4569.7625
2872.36264	4580.2625
2874.8698	4568.8625
2877.37543	4567.9625
2879.87952	4560.2625
2882.38207	4550.4625
2884.88308	4530.3625
2887.38256	4533.2625
2889.88051	4505.7625
2892.37692	4512.8625
2894.8718	4506.4625
2897.36515	4505.1625
2899.85698	4478.8625
2902.34727	4495.3625
2904.83604	4477.7625
2907.32328	4473.4625
2909.809	4457.5625
2912.29319	4432.4625
2914.77587	4422.8625
2917.25702	4409.8625
2919.73665	4391.4625
2922.21476	4396.5625
2924.69136	4381.4625
2927.16644	4357.8625
2929.64	4323.9625
2932.11205	4317.1625
2934.58258	4290.5625
2937.05161	4295.6625
2939.51912	4277.4625
2941.98513	4252.2625
2944.44962	4235.8625
2946.91261	4196.9625
2949.37409	4202.0625
2951.83407	4194.0625
2954.29254	4192.2625
2956.74951	4170.0625
2959.20498	4152.6625
2961.65895	4136.6625
2964.11142	4132.9625
2966.56239	4113.7625
2969.01186	4078.6625
2971.45984	4065.1625
2973.90632	4056.7625
2976.35131	4021.2625
2978.7948	4020.6625
2981.23681	4002.4625
2983.67732	3990.6625
2986.11635	3979.9625
2988.55388	3966.6625
2990.98993	3974.8625
2993.4245	3966.8625
2995.85758	3962.2625
2998.28917	3962.0625
3000.71928	3973.4625
3003.14791	3966.5625
3005.57506	3964.8625
3008.00073	3940.8625
3010.42493	3944.8625
3012.84764	3939.8625
3015.26888	3926.1625
3017.68865	3924.3625
3020.10694	3930.0625
3022.52376	3898.9625
3024.9391	3885.9625
3027.35298	3880.3625
3029.76539	3866.9625
3032.17632	3856.6625
3034.5858	3833.1625
3036.9938	3821.7625
3039.40034	3819.5625
3041.80542	3787.1625
3044.20903	3770.7625
3046.61118	3773.9625
3049.01187	3765.8625
3051.4111	3755.2625
3053.80888	3747.1625
3056.20519	3736.3625
3058.60005	3731.7625
3060.99345	3718.9625
3063.3854	3721.1625
3065.7759	3694.5625
3068.16494	3691.1625
3070.55254	3678.0625
3072.93868	3673.5625
3075.32338	3641.0625
3077.70662	3627.5625
3080.08842	3641.9625
3082.46878	3622.3625
3084.84769	3612.6625
3087.22515	3604.1625
3089.60118	3615.0625
3091.97576	3591.4625
