Data from AgNP_FTO_APTES_UA_100uM_CRN_2uM_R6G_10uM_NaF_0.1M_Addition_RamanShift__39__14-30-20-340.txt Node

Date: Thu Mar 24 14:30:20 GMT 2022
User: TCL
Spectrometer: QEP01345
Trigger mode: 4
Integration Time (sec): 7.000000E0
Scans to average: 10
Electric dark correction enabled: true
Nonlinearity correction enabled: false
Boxcar width: 0
XAxis mode: Raman Shifts
Number of Pixels in Spectrum: 1044
>>>>>Begin Spectral Data<<<<<
46.04893	-0.2125
50.45542	-0.4125
54.85868	-0.7125
59.25871	0.1875
63.6555	47.6875
68.04907	51.5875
72.43941	51.4875
76.82654	52.1875
81.21044	56.4875
85.59113	56.6875
89.96862	62.9875
94.34289	59.9875
98.71396	65.9875
103.08183	62.1875
107.4465	66.4875
111.80798	70.6875
116.16626	70.2875
120.52136	74.3875
124.87327	72.0875
129.222	78.6875
133.56755	85.2875
137.90993	94.6875
142.24913	101.4875
146.58517	108.4875
150.91804	127.5875
155.24774	155.8875
159.57429	194.7875
163.89768	251.2875
168.21792	340.2875
172.53501	464.1875
176.84895	648.2875
181.15975	908.0875
185.46741	1286.5875
189.77193	1763.0875
194.07331	2347.7875
198.37157	3024.6875
202.6667	3756.5875
206.9587	4486.3875
211.24758	5211.7875
215.53334	5963.2875
219.81599	6787.8875
224.09553	7669.6875
228.37195	8692.5875
232.64527	9817.4875
236.91549	10954.9875
241.18261	12055.9875
245.44663	12957.5875
249.70755	13652.6875
253.96539	14262.8875
258.22014	14790.9875
262.4718	15220.3875
266.72039	15537.9875
270.96589	15658.7875
275.20832	15608.2875
279.44768	15404.4875
283.68397	15152.1875
287.91719	14964.4875
292.14735	14893.0875
296.37445	14983.3875
300.59849	15253.4875
304.81948	15637.8875
309.03742	15917.2875
313.25231	16015.2875
317.46415	15834.2875
321.67296	15403.6875
325.87872	14983.8875
330.08145	14803.0875
334.28114	14780.4875
338.47781	14952.3875
342.67145	15196.9875
346.86207	15568.6875
351.04966	15997.8875
355.23424	16454.5875
359.4158	16818.3875
363.59435	16989.9875
367.76989	17037.8875
371.94243	17013.1875
376.11196	17002.5875
380.27849	17014.0875
384.44203	17027.5875
388.60257	17048.7875
392.76012	17125.5875
396.91468	17243.0875
401.06626	17498.3875
405.21485	17702.4875
409.36047	17475.2875
413.50311	16934.5875
417.64277	16488.9875
421.77947	16307.0875
425.9132	16245.4875
430.04396	16368.7875
434.17176	16572.4875
438.2966	16875.4875
442.41849	17426.9875
446.53742	18270.2875
450.6534	19091.9875
454.76644	19559.0875
458.87653	19530.4875
462.98368	19123.3875
467.08789	18600.2875
471.18916	18074.8875
475.2875	17511.4875
479.38291	16998.9875
483.4754	16548.8875
487.56496	16200.9875
491.6516	16017.3875
495.73531	15871.9875
499.81612	15830.4875
503.89401	15962.8875
507.96899	16108.7875
512.04106	16079.7875
516.11023	16096.1875
520.1765	16100.9875
524.23987	16149.6875
528.30034	16216.6875
532.35792	16195.5875
536.41261	15927.0875
540.46441	15620.4875
544.51333	15428.2875
548.55936	15579.6875
552.60252	15937.0875
556.64279	16497.9875
560.6802	16981.6875
564.71473	17111.9875
568.7464	17325.8875
572.7752	17735.6875
576.80114	18020.6875
580.82422	18317.3875
584.84444	19089.6875
588.86181	20512.4875
592.87633	22474.6875
596.888	23596.3875
600.89682	22570.8875
604.9028	21819.5875
608.90594	23881.3875
612.90624	27054.8875
616.90371	25450.7875
620.89834	19570.8875
624.89015	16670.4875
628.87913	16159.1875
632.86528	16313.7875
636.84862	16383.9875
640.82913	16035.2875
644.80683	15382.1875
648.78172	14968.5875
652.75379	14940.2875
656.72306	15332.9875
660.68952	15861.4875
664.65319	15717.1875
668.61405	15100.0875
672.57211	14890.7875
676.52738	14988.9875
680.47986	14946.1875
684.42955	14731.2875
688.37646	14611.4875
692.32058	14712.1875
696.26192	14964.8875
700.20048	15262.4875
704.13626	15447.4875
708.06928	15384.9875
711.99952	15267.6875
715.927	15270.2875
719.85171	15429.5875
723.77365	15413.6875
727.69284	15241.5875
731.60928	15136.9875
735.52295	15134.3875
739.43388	15233.0875
743.34206	15307.2875
747.24749	15370.1875
751.15017	15448.3875
755.05012	15657.4875
758.94733	16277.5875
762.8418	17651.4875
766.73354	19977.0875
770.62254	22218.3875
774.50882	22942.9875
778.39237	21778.9875
782.27321	19524.6875
786.15132	17441.4875
790.02671	16082.1875
793.89938	15382.4875
797.76935	15054.1875
801.6366	14871.9875
805.50115	14733.4875
809.36299	14647.3875
813.22213	14574.2875
817.07857	14486.7875
820.93231	14463.1875
824.78336	14406.0875
828.63172	14422.8875
832.47738	14424.1875
836.32036	14407.0875
840.16066	14364.5875
843.99827	14366.9875
847.8332	14359.2875
851.66546	14359.0875
855.49504	14389.6875
859.32195	14380.6875
863.1462	14348.2875
866.96777	14304.0875
870.78668	14234.3875
874.60293	14316.6875
878.41652	14369.8875
882.22745	14494.4875
886.03573	14530.0875
889.84136	14553.1875
893.64433	14457.6875
897.44466	14374.2875
901.24235	14333.8875
905.0374	14268.9875
908.8298	14179.2875
912.61957	14144.6875
916.40671	14185.1875
920.19121	14390.4875
923.97308	14574.9875
927.75233	14730.2875
931.52895	14666.1875
935.30295	14427.4875
939.07433	14028.1875
942.84309	13780.5875
946.60924	13631.4875
950.37278	13594.3875
954.13371	13575.0875
957.89203	13579.8875
961.64774	13567.7875
965.40086	13567.6875
969.15137	13586.5875
972.89929	13532.9875
976.64461	13538.9875
980.38733	13546.5875
984.12747	13568.0875
987.86502	13640.5875
991.59999	13776.3875
995.33237	13985.8875
999.06217	14448.6875
1002.78939	14962.7875
1006.51404	15502.6875
1010.23611	15893.8875
1013.95561	16139.6875
1017.67255	16125.1875
1021.38692	15768.3875
1025.09872	15188.5875
1028.80796	14811.9875
1032.51465	14747.4875
1036.21877	14876.1875
1039.92035	14935.6875
1043.61937	14963.5875
1047.31584	14933.0875
1051.00976	14814.9875
1054.70114	14801.2875
1058.38998	14811.1875
1062.07627	14879.9875
1065.76003	15008.3875
1069.44126	15197.2875
1073.11995	15500.2875
1076.79611	15827.1875
1080.46974	16134.7875
1084.14085	16490.6875
1087.80943	16827.9875
1091.47549	17006.1875
1095.13903	16839.9875
1098.80005	16406.3875
1102.45857	15999.7875
1106.11456	15795.7875
1109.76805	15846.1875
1113.41903	16054.0875
1117.06751	16456.5875
1120.71348	16873.8875
1124.35696	17345.7875
1127.99793	17787.0875
1131.63641	17771.1875
1135.2724	17357.0875
1138.90589	16986.5875
1142.5369	16806.3875
1146.16542	16839.6875
1149.79145	16902.2875
1153.415	17013.4875
1157.03607	17224.9875
1160.65467	17653.5875
1164.27079	18424.6875
1167.88443	19616.3875
1171.49561	21408.8875
1175.10432	23939.0875
1178.71056	27174.5875
1182.31434	29987.2875
1185.91565	30808.9875
1189.51451	29785.9875
1193.11091	28060.4875
1196.70485	26207.4875
1200.29634	24510.3875
1203.88538	23176.6875
1207.47197	22042.7875
1211.05612	21172.5875
1214.63782	20666.5875
1218.21708	20515.1875
1221.79391	20691.7875
1225.36829	20976.0875
1228.94024	20845.2875
1232.50976	20310.0875
1236.07685	19568.1875
1239.6415	19190.6875
1243.20374	19098.7875
1246.76355	19149.6875
1250.32093	19390.5875
1253.8759	19777.9875
1257.42845	20384.9875
1260.97859	21198.6875
1264.52631	22090.4875
1268.07163	23005.5875
1271.61453	23766.5875
1275.15503	24357.7875
1278.69312	24946.5875
1282.22882	25603.8875
1285.76211	26731.1875
1289.29301	28187.6875
1292.82151	29859.8875
1296.34761	31758.9875
1299.87133	33969.4875
1303.39266	36814.3875
1306.9116	40155.9875
1310.42815	43485.6875
1313.94233	45399.2875
1317.45412	44670.3875
1320.96354	42101.3875
1324.47058	39267.7875
1327.97525	36702.3875
1331.47754	34804.0875
1334.97747	33771.6875
1338.47502	33333.5875
1341.97022	33328.9875
1345.46305	33643.7875
1348.95352	34372.0875
1352.44163	36105.2875
1355.92738	39076.0875
1359.41078	43404.0875
1362.89183	47365.8875
1366.37053	46756.7875
1369.84688	40911.2875
1373.32088	34137.0875
1376.79254	30002.7875
1380.26186	28416.0875
1383.72883	27875.6875
1387.19347	27326.2875
1390.65578	26551.7875
1394.11575	26133.9875
1397.57339	26173.9875
1401.0287	26489.8875
1404.48168	26676.1875
1407.93234	26581.1875
1411.38068	26256.5875
1414.82669	25800.0875
1418.27039	25125.7875
1421.71177	24298.2875
1425.15083	23446.6875
1428.58758	23132.7875
1432.02203	23515.3875
1435.45416	24250.3875
1438.88399	24945.7875
1442.31151	25271.2875
1445.73673	25369.5875
1449.15965	25400.2875
1452.58027	25199.7875
1455.9986	24798.7875
1459.41463	24696.5875
1462.82837	25048.9875
1466.23982	25907.8875
1469.64898	26839.0875
1473.05586	27712.7875
1476.46045	28264.6875
1479.86276	28703.7875
1483.26279	28943.4875
1486.66054	29200.1875
1490.05602	29821.7875
1493.44922	30751.0875
1496.84016	31597.0875
1500.22882	32664.6875
1503.61521	34283.8875
1506.99934	36341.3875
1510.38121	37908.8875
1513.76081	37682.9875
1517.13816	35465.7875
1520.51324	32393.0875
1523.88607	30004.5875
1527.25665	28672.4875
1530.62498	28205.5875
1533.99105	27868.0875
1537.35488	27312.4875
1540.71647	26586.1875
1544.07581	25754.9875
1547.4329	24932.7875
1550.78776	24224.4875
1554.14038	23699.2875
1557.49077	23445.2875
1560.83892	23419.6875
1564.18484	23849.8875
1567.52853	24470.9875
1570.86999	25169.7875
1574.20922	25762.0875
1577.54624	25890.3875
1580.88103	25219.6875
1584.2136	24470.3875
1587.54395	24575.7875
1590.87208	25899.3875
1594.19801	28324.0875
1597.52172	31076.7875
1600.84321	32445.3875
1604.16251	31265.0875
1607.47959	28239.1875
1610.79447	24929.5875
1614.10715	22058.0875
1617.41763	19906.9875
1620.7259	18657.1875
1624.03199	18098.0875
1627.33587	18152.5875
1630.63757	18833.5875
1633.93707	20402.5875
1637.23439	23214.0875
1640.52951	27742.1875
1643.82246	33563.5875
1647.11321	38644.2875
1650.40179	39864.7875
1653.68819	36204.0875
1656.97241	29722.4875
1660.25446	23775.9875
1663.53433	19710.3875
1666.81203	17321.5875
1670.08756	15893.2875
1673.36092	15054.7875
1676.63211	14536.2875
1679.90115	14152.8875
1683.16801	13860.9875
1686.43272	13665.5875
1689.69527	13486.5875
1692.95567	13358.7875
1696.2139	13285.9875
1699.46999	13176.7875
1702.72392	13156.8875
1705.97571	13087.8875
1709.22535	13048.0875
1712.47284	13032.7875
1715.71819	13008.2875
1718.96139	12962.1875
1722.20246	12948.5875
1725.44139	12862.9875
1728.67818	12717.5875
1731.91284	12605.2875
1735.14537	12504.1875
1738.37576	12428.9875
1741.60403	12372.3875
1744.83017	12324.0875
1748.05418	12284.6875
1751.27607	12228.8875
1754.49584	12238.4875
1757.71349	12194.0875
1760.92903	12177.4875
1764.14244	12180.3875
1767.35375	12137.3875
1770.56294	12116.2875
1773.77002	12081.6875
1776.97499	12036.2875
1780.17785	12026.5875
1783.37861	11971.6875
1786.57727	11967.8875
1789.77382	11914.1875
1792.96828	11890.0875
1796.16064	11852.3875
1799.3509	11835.3875
1802.53907	11812.8875
1805.72514	11767.8875
1808.90913	11722.1875
1812.09102	11734.9875
1815.27083	11691.2875
1818.44856	11677.8875
1821.6242	11639.9875
1824.79776	11610.6875
1827.96924	11603.3875
1831.13864	11588.6875
1834.30597	11570.9875
1837.47122	11540.0875
1840.6344	11555.3875
1843.7955	11554.2875
1846.95454	11527.9875
1850.11151	11538.4875
1853.26642	11526.3875
1856.41926	11481.9875
1859.57004	11462.6875
1862.71876	11469.7875
1865.86542	11450.5875
1869.01003	11444.1875
1872.15258	11411.5875
1875.29308	11404.2875
1878.43152	11402.0875
1881.56792	11375.8875
1884.70227	11397.6875
1887.83457	11405.7875
1890.96482	11398.9875
1894.09304	11406.3875
1897.21921	11389.3875
1900.34335	11396.8875
1903.46544	11377.2875
1906.58551	11371.9875
1909.70353	11337.4875
1912.81953	11344.0875
1915.93349	11329.6875
1919.04543	11279.7875
1922.15534	11265.3875
1925.26322	11238.3875
1928.36908	11200.3875
1931.47292	11146.5875
1934.57473	11112.9875
1937.67453	11064.5875
1940.77232	11045.5875
1943.86808	11015.6875
1946.96184	11003.0875
1950.05358	10971.7875
1953.14331	10918.5875
1956.23103	10923.8875
1959.31675	10906.7875
1962.40046	10848.6875
1965.48217	10827.0875
1968.56188	10804.3875
1971.63959	10773.1875
1974.7153	10743.6875
1977.78901	10715.9875
1980.86073	10659.6875
1983.93046	10638.7875
1986.99819	10586.7875
1990.06394	10556.0875
1993.1277	10507.5875
1996.18947	10467.7875
1999.24925	10464.4875
2002.30706	10407.4875
2005.36288	10369.1875
2008.41672	10322.5875
2011.46859	10307.7875
2014.51848	10287.6875
2017.56639	10246.4875
2020.61233	10230.8875
2023.6563	10188.1875
2026.6983	10178.2875
2029.73833	10133.3875
2032.7764	10133.6875
2035.8125	10117.4875
2038.84664	10083.8875
2041.87881	10103.6875
2044.90903	10062.4875
2047.93729	10038.8875
2050.96359	10017.7875
2053.98794	10008.0875
2057.01034	9981.3875
2060.03078	9990.8875
2063.04927	9954.9875
2066.06582	9957.8875
2069.08042	9945.9875
2072.09307	9925.2875
2075.10378	9929.9875
2078.11255	9926.4875
2081.11938	9929.3875
2084.12426	9928.5875
2087.12722	9924.9875
2090.12824	9926.6875
2093.12732	9935.3875
2096.12447	9951.4875
2099.11969	9927.7875
2102.11299	9923.9875
2105.10435	9919.9875
2108.09379	9916.4875
2111.08131	9898.2875
2114.0669	9896.9875
2117.05057	9920.6875
2120.03233	9924.0875
2123.01216	9934.6875
2125.99008	9920.7875
2128.96609	9943.6875
2131.94018	9955.0875
2134.91236	9953.6875
2137.88263	9935.0875
2140.851	9944.9875
2143.81746	9948.4875
2146.78201	9914.2875
2149.74466	9926.0875
2152.7054	9913.7875
2155.66425	9931.4875
2158.6212	9901.6875
2161.57625	9904.4875
2164.52941	9883.7875
2167.48067	9873.5875
2170.43004	9896.4875
2173.37752	9892.2875
2176.32311	9879.0875
2179.26681	9890.9875
2182.20863	9866.9875
2185.14856	9882.4875
2188.08661	9883.5875
2191.02278	9885.5875
2193.95707	9878.0875
2196.88948	9857.2875
2199.82001	9849.1875
2202.74867	9831.5875
2205.67545	9846.6875
2208.60037	9804.7875
2211.52341	9779.0875
2214.44458	9748.1875
2217.36388	9773.8875
2220.28132	9756.9875
2223.1969	9723.2875
2226.11061	9721.2875
2229.02246	9689.1875
2231.93245	9674.4875
2234.84058	9664.6875
2237.74686	9655.4875
2240.65128	9637.3875
2243.55385	9627.9875
2246.45456	9618.0875
2249.35343	9599.9875
2252.25044	9590.4875
2255.14561	9574.8875
2258.03893	9554.4875
2260.93041	9541.8875
2263.82004	9522.3875
2266.70783	9491.8875
2269.59378	9465.6875
2272.4779	9439.9875
2275.36017	9404.0875
2278.24061	9391.2875
2281.11922	9372.5875
2283.996	9368.6875
2286.87094	9360.4875
2289.74405	9348.2875
2292.61534	9337.6875
2295.4848	9319.1875
2298.35243	9307.6875
2301.21824	9298.2875
2304.08223	9291.4875
2306.94439	9309.0875
2309.80474	9302.7875
2312.66327	9297.7875
2315.51999	9276.8875
2318.37489	9270.9875
2321.22797	9242.2875
2324.07925	9249.6875
2326.92871	9250.6875
2329.77637	9230.7875
2332.62222	9206.9875
2335.46626	9210.3875
2338.3085	9236.5875
2341.14893	9232.5875
2343.98756	9210.4875
2346.8244	9219.6875
2349.65943	9205.6875
2352.49267	9183.7875
2355.32411	9220.0875
2358.15376	9195.8875
2360.98161	9231.8875
2363.80768	9217.1875
2366.63195	9206.3875
2369.45444	9209.2875
2372.27514	9191.2875
2375.09405	9185.6875
2377.91118	9178.4875
2380.72652	9143.5875
2383.54009	9124.3875
2386.35187	9121.8875
2389.16188	9057.3875
2391.97011	9087.0875
2394.77657	9061.0875
2397.58125	9030.5875
2400.38416	8998.1875
2403.18529	8985.8875
2405.98466	8984.8875
2408.78226	8954.9875
2411.57809	8954.8875
2414.37216	8937.8875
2417.16446	8925.1875
2419.955	8886.4875
2422.74378	8895.0875
2425.5308	8898.0875
2428.31606	8912.4875
2431.09956	8909.7875
2433.88131	8881.6875
2436.6613	8874.8875
2439.43954	8880.0875
2442.21603	8892.3875
2444.99077	8863.3875
2447.76377	8884.0875
2450.53501	8876.8875
2453.30451	8889.9875
2456.07226	8889.6875
2458.83827	8906.9875
2461.60254	8887.6875
2464.36507	8906.7875
2467.12586	8891.5875
2469.88492	8899.7875
2472.64224	8907.4875
2475.39782	8913.9875
2478.15167	8920.6875
2480.90379	8892.6875
2483.65417	8901.3875
2486.40283	8966.0875
2489.14976	8932.1875
2491.89497	8945.6875
2494.63845	8976.6875
2497.3802	8927.6875
2500.12024	8957.6875
2502.85855	8938.6875
2505.59514	8939.6875
2508.33002	8924.4875
2511.06318	8912.4875
2513.79462	8902.1875
2516.52435	8854.5875
2519.25237	8868.5875
2521.97867	8819.0875
2524.70327	8855.0875
2527.42616	8816.8875
2530.14734	8823.9875
2532.86681	8803.3875
2535.58458	8789.9875
2538.30065	8785.7875
2541.01501	8793.7875
2543.72768	8794.9875
2546.43864	8772.1875
2549.14791	8769.7875
2551.85548	8782.4875
2554.56136	8777.7875
2557.26554	8760.7875
2559.96803	8755.6875
2562.66883	8753.6875
2565.36794	8774.8875
2568.06536	8764.1875
2570.7611	8759.2875
2573.45514	8728.9875
2576.14751	8739.3875
2578.83819	8729.2875
2581.52719	8720.0875
2584.21451	8697.9875
2586.90015	8676.5875
2589.58411	8674.4875
2592.2664	8674.3875
2594.94701	8669.7875
2597.62594	8660.9875
2600.30321	8661.9875
2602.9788	8621.6875
2605.65273	8634.2875
2608.32498	8653.9875
2610.99557	8661.5875
2613.66449	8650.8875
2616.33175	8642.9875
2618.99734	8654.4875
2621.66128	8650.6875
2624.32355	8634.5875
2626.98416	8629.8875
2629.64311	8624.6875
2632.30041	8614.7875
2634.95605	8609.7875
2637.61004	8593.6875
2640.26238	8589.8875
2642.91306	8602.6875
2645.56209	8588.6875
2648.20948	8584.3875
2650.85521	8616.0875
2653.4993	8585.3875
2656.14175	8621.1875
2658.78255	8621.5875
2661.42171	8619.2875
2664.05923	8636.9875
2666.6951	8623.1875
2669.32934	8646.6875
2671.96194	8638.8875
2674.59291	8628.4875
2677.22224	8626.0875
2679.84993	8650.0875
2682.476	8633.0875
2685.10043	8635.8875
2687.72324	8614.0875
2690.34441	8635.8875
2692.96396	8635.9875
2695.58188	8635.5875
2698.19818	8627.6875
2700.81285	8632.8875
2703.4259	8630.1875
2706.03733	8616.5875
2708.64714	8635.0875
2711.25533	8668.1875
2713.86191	8654.4875
2716.46687	8655.3875
2719.07021	8640.2875
2721.67194	8672.0875
2724.27206	8652.1875
2726.87057	8663.1875
2729.46747	8642.1875
2732.06276	8656.4875
2734.65644	8662.9875
2737.24852	8657.7875
2739.83899	8662.3875
2742.42786	8661.6875
2745.01513	8633.0875
2747.60079	8652.5875
2750.18486	8644.2875
2752.76733	8649.8875
2755.3482	8650.2875
2757.92747	8620.4875
2760.50515	8627.1875
2763.08123	8627.9875
2765.65573	8595.6875
2768.22863	8598.7875
2770.79994	8617.4875
2773.36967	8611.0875
2775.9378	8616.6875
2778.50435	8615.1875
2781.06932	8611.5875
2783.6327	8602.5875
2786.1945	8593.3875
2788.75471	8586.2875
2791.31335	8599.3875
2793.87041	8580.8875
2796.42589	8559.3875
2798.97979	8542.7875
2801.53212	8553.4875
2804.08288	8518.0875
2806.63206	8541.2875
2809.17967	8536.4875
2811.72571	8528.8875
2814.27018	8515.3875
2816.81308	8482.2875
2819.35442	8483.1875
2821.89419	8492.1875
2824.43239	8503.1875
2826.96904	8478.7875
2829.50412	8496.5875
2832.03763	8472.7875
2834.56959	8459.2875
2837.1	8433.8875
2839.62884	8447.4875
2842.15613	8419.4875
2844.68186	8441.7875
2847.20604	8418.1875
2849.72867	8435.1875
2852.24974	8417.8875
2854.76927	8397.8875
2857.28724	8398.3875
2859.80367	8396.7875
2862.31855	8380.4875
2864.83189	8387.8875
2867.34368	8414.9875
2869.85393	8391.6875
2872.36264	8411.7875
2874.8698	8406.8875
2877.37543	8384.6875
2879.87952	8397.0875
2882.38207	8397.2875
2884.88308	8393.4875
2887.38256	8401.1875
2889.88051	8375.4875
2892.37692	8373.0875
2894.8718	8369.2875
2897.36515	8406.1875
2899.85698	8409.8875
2902.34727	8401.6875
2904.83604	8410.7875
2907.32328	8418.2875
2909.809	8407.5875
2912.29319	8418.5875
2914.77587	8419.6875
2917.25702	8407.2875
2919.73665	8380.9875
2922.21476	8399.4875
2924.69136	8373.4875
2927.16644	8354.1875
2929.64	8370.7875
2932.11205	8347.0875
2934.58258	8354.9875
2937.05161	8336.3875
2939.51912	8350.0875
2941.98513	8353.8875
2944.44962	8321.1875
2946.91261	8293.5875
2949.37409	8299.9875
2951.83407	8325.0875
2954.29254	8305.7875
2956.74951	8282.3875
2959.20498	8271.8875
2961.65895	8259.6875
2964.11142	8248.3875
2966.56239	8237.6875
2969.01186	8245.2875
2971.45984	8190.4875
2973.90632	8195.1875
2976.35131	8160.5875
2978.7948	8139.1875
2981.23681	8113.8875
2983.67732	8096.4875
2986.11635	8066.3875
2988.55388	8048.6875
2990.98993	8058.6875
2993.4245	8034.9875
2995.85758	8013.2875
2998.28917	7996.3875
3000.71928	7980.8875
3003.14791	7949.5875
3005.57506	7953.4875
3008.00073	7937.8875
3010.42493	7923.8875
3012.84764	7909.3875
3015.26888	7911.8875
3017.68865	7898.3875
3020.10694	7876.1875
3022.52376	7841.8875
3024.9391	7827.0875
3027.35298	7826.6875
3029.76539	7804.9875
3032.17632	7800.4875
3034.5858	7795.0875
3036.9938	7792.1875
3039.40034	7766.6875
3041.80542	7760.1875
3044.20903	7735.3875
3046.61118	7718.2875
3049.01187	7711.1875
3051.4111	7673.4875
3053.80888	7663.1875
3056.20519	7661.8875
3058.60005	7643.5875
3060.99345	7639.7875
3063.3854	7604.8875
3065.7759	7581.5875
