Data from AgNP_FTO_APTES_UA_100uM_CRN_100uM_R6G_10uM_NaF_0.1M_Addition_RamanShift__12__18-01-30-578.txt Node

Date: Thu Mar 24 18:01:30 GMT 2022
User: TCL
Spectrometer: QEP01345
Trigger mode: 4
Integration Time (sec): 7.000000E0
Scans to average: 10
Electric dark correction enabled: true
Nonlinearity correction enabled: false
Boxcar width: 0
XAxis mode: Raman Shifts
Number of Pixels in Spectrum: 1044
>>>>>Begin Spectral Data<<<<<
46.04893	-1.275
50.45542	0.025
54.85868	-0.475
59.25871	0.525
63.6555	30.225
68.04907	33.725
72.43941	33.325
76.82654	35.425
81.21044	38.325
85.59113	43.925
89.96862	45.025
94.34289	41.125
98.71396	46.525
103.08183	42.525
107.4465	47.725
111.80798	49.925
116.16626	46.825
120.52136	47.425
124.87327	48.625
129.222	54.725
133.56755	55.925
137.90993	56.425
142.24913	61.325
146.58517	66.325
150.91804	77.225
155.24774	91.125
159.57429	110.125
163.89768	139.425
168.21792	180.825
172.53501	245.225
176.84895	340.425
181.15975	485.925
185.46741	674.425
189.77193	926.325
194.07331	1242.525
198.37157	1610.725
202.6667	1988.425
206.9587	2379.125
211.24758	2776.725
215.53334	3153.025
219.81599	3571.225
224.09553	4055.725
228.37195	4567.725
232.64527	5132.225
236.91549	5732.425
241.18261	6293.725
245.44663	6797.425
249.70755	7201.225
253.96539	7573.625
258.22014	7847.125
262.4718	8100.825
266.72039	8251.325
270.96589	8337.425
275.20832	8324.525
279.44768	8259.125
283.68397	8172.025
287.91719	8105.525
292.14735	8064.825
296.37445	8130.125
300.59849	8235.025
304.81948	8431.125
309.03742	8549.725
313.25231	8541.725
317.46415	8362.425
321.67296	8024.025
325.87872	7748.825
330.08145	7569.525
334.28114	7558.025
338.47781	7657.025
342.67145	7763.225
346.86207	7939.825
351.04966	8167.925
355.23424	8424.225
359.4158	8612.225
363.59435	8705.325
367.76989	8739.425
371.94243	8757.725
376.11196	8723.725
380.27849	8709.625
384.44203	8715.025
388.60257	8707.125
392.76012	8754.925
396.91468	8833.225
401.06626	9009.225
405.21485	9107.225
409.36047	9008.625
413.50311	8718.625
417.64277	8481.925
421.77947	8359.925
425.9132	8348.125
430.04396	8351.525
434.17176	8372.325
438.2966	8450.025
442.41849	8586.725
446.53742	8783.325
450.6534	8963.925
454.76644	9059.225
458.87653	9086.025
462.98368	9035.825
467.08789	8941.325
471.18916	8876.325
475.2875	8751.725
479.38291	8665.225
483.4754	8569.925
487.56496	8494.825
491.6516	8427.325
495.73531	8392.325
499.81612	8384.425
503.89401	8450.425
507.96899	8467.225
512.04106	8492.425
516.11023	8516.825
520.1765	8525.425
524.23987	8488.525
528.30034	8449.625
532.35792	8394.025
536.41261	8318.525
540.46441	8215.825
544.51333	8153.425
548.55936	8235.825
552.60252	8366.225
556.64279	8546.825
560.6802	8646.125
564.71473	8686.125
568.7464	8856.125
572.7752	9044.225
576.80114	9136.825
580.82422	9234.225
584.84444	9374.825
588.86181	9530.025
592.87633	9692.525
596.888	9780.125
600.89682	9813.625
604.9028	10200.725
608.90594	11580.325
612.90624	13420.125
616.90371	12726.325
620.89834	9976.625
624.89015	8655.825
628.87913	8444.325
632.86528	8594.625
636.84862	8769.225
640.82913	8678.725
644.80683	8392.125
648.78172	8108.525
652.75379	8056.325
656.72306	8211.425
660.68952	8448.825
664.65319	8378.925
668.61405	8096.125
672.57211	7991.425
676.52738	7999.025
680.47986	7973.625
684.42955	7931.425
688.37646	7868.825
692.32058	7875.925
696.26192	7945.125
700.20048	8017.825
704.13626	8096.525
708.06928	8115.525
711.99952	8083.525
715.927	8073.025
719.85171	8077.825
723.77365	8098.525
727.69284	8060.325
731.60928	8014.025
735.52295	7966.525
739.43388	7996.725
743.34206	7998.425
747.24749	8027.525
751.15017	8043.025
755.05012	8146.425
758.94733	8419.525
762.8418	9069.125
766.73354	10174.225
770.62254	11254.625
774.50882	11591.825
778.39237	11056.725
782.27321	9971.025
786.15132	8935.725
790.02671	8329.025
793.89938	7991.125
797.76935	7860.125
801.6366	7797.025
805.50115	7768.125
809.36299	7731.325
813.22213	7715.325
817.07857	7707.925
820.93231	7676.525
824.78336	7667.925
828.63172	7669.625
832.47738	7667.725
836.32036	7625.025
840.16066	7607.025
843.99827	7588.025
847.8332	7543.425
851.66546	7585.525
855.49504	7566.925
859.32195	7565.925
863.1462	7543.025
866.96777	7566.125
870.78668	7550.925
874.60293	7570.125
878.41652	7584.325
882.22745	7633.425
886.03573	7648.025
889.84136	7646.925
893.64433	7623.425
897.44466	7589.225
901.24235	7552.925
905.0374	7515.825
908.8298	7504.825
912.61957	7478.525
916.40671	7471.125
920.19121	7537.225
923.97308	7602.625
927.75233	7629.025
931.52895	7640.425
935.30295	7538.425
939.07433	7353.125
942.84309	7218.425
946.60924	7155.525
950.37278	7102.225
954.13371	7104.525
957.89203	7085.825
961.64774	7080.125
965.40086	7064.125
969.15137	7057.825
972.89929	7018.625
976.64461	7008.025
980.38733	6988.825
984.12747	6985.925
987.86502	7011.925
991.59999	7054.425
995.33237	7106.225
999.06217	7163.325
1002.78939	7309.425
1006.51404	7452.325
1010.23611	7580.225
1013.95561	7666.625
1017.67255	7637.225
1021.38692	7562.725
1025.09872	7451.425
1028.80796	7323.725
1032.51465	7279.225
1036.21877	7287.025
1039.92035	7335.725
1043.61937	7357.725
1047.31584	7415.025
1051.00976	7442.025
1054.70114	7447.425
1058.38998	7475.625
1062.07627	7530.325
1065.76003	7593.225
1069.44126	7683.925
1073.11995	7794.525
1076.79611	7937.825
1080.46974	8026.325
1084.14085	8134.425
1087.80943	8238.825
1091.47549	8306.425
1095.13903	8257.825
1098.80005	8090.425
1102.45857	7909.925
1106.11456	7751.425
1109.76805	7724.925
1113.41903	7804.325
1117.06751	7955.525
1120.71348	8177.225
1124.35696	8459.425
1127.99793	8648.525
1131.63641	8685.025
1135.2724	8472.425
1138.90589	8260.925
1142.5369	8107.525
1146.16542	8010.125
1149.79145	7955.425
1153.415	7940.825
1157.03607	7967.225
1160.65467	8127.525
1164.27079	8359.925
1167.88443	8775.125
1171.49561	9374.725
1175.10432	10273.725
1178.71056	11422.625
1182.31434	12318.225
1185.91565	12644.125
1189.51451	12416.325
1193.11091	11909.125
1196.70485	11256.425
1200.29634	10668.925
1203.88538	10229.725
1207.47197	9683.225
1211.05612	9242.125
1214.63782	8957.025
1218.21708	8799.525
1221.79391	8736.825
1225.36829	8705.325
1228.94024	8672.025
1232.50976	8589.725
1236.07685	8515.025
1239.6415	8472.125
1243.20374	8447.525
1246.76355	8477.525
1250.32093	8518.225
1253.8759	8641.125
1257.42845	8840.625
1260.97859	9115.725
1264.52631	9365.425
1268.07163	9667.425
1271.61453	9906.625
1275.15503	10116.025
1278.69312	10279.325
1282.22882	10480.225
1285.76211	10780.525
1289.29301	11158.125
1292.82151	11569.025
1296.34761	12065.625
1299.87133	12706.525
1303.39266	13576.425
1306.9116	14670.825
1310.42815	15791.825
1313.94233	16331.925
1317.45412	15977.125
1320.96354	15196.825
1324.47058	14424.925
1327.97525	13691.125
1331.47754	13182.825
1334.97747	12881.125
1338.47502	12807.025
1341.97022	12954.825
1345.46305	13225.825
1348.95352	13706.825
1352.44163	14382.625
1355.92738	15364.625
1359.41078	16868.425
1362.89183	18316.525
1366.37053	18104.325
1369.84688	15922.125
1373.32088	13527.825
1376.79254	12012.325
1380.26186	11246.025
1383.72883	10812.125
1387.19347	10465.725
1390.65578	10163.425
1394.11575	9949.525
1397.57339	9827.425
1401.0287	9811.625
1404.48168	9815.425
1407.93234	9752.425
1411.38068	9656.325
1414.82669	9478.725
1418.27039	9301.025
1421.71177	9044.725
1425.15083	8832.125
1428.58758	8678.325
1432.02203	8681.525
1435.45416	8814.525
1438.88399	8922.325
1442.31151	9022.925
1445.73673	9089.325
1449.15965	9179.525
1452.58027	9241.725
1455.9986	9233.425
1459.41463	9275.725
1462.82837	9436.925
1466.23982	9687.625
1469.64898	9959.525
1473.05586	10181.325
1476.46045	10332.225
1479.86276	10487.325
1483.26279	10606.725
1486.66054	10815.125
1490.05602	11158.425
1493.44922	11655.625
1496.84016	12378.625
1500.22882	13468.425
1503.61521	14891.125
1506.99934	16346.525
1510.38121	17317.225
1513.76081	17178.125
1517.13816	15983.725
1520.51324	14279.625
1523.88607	12873.525
1527.25665	11940.325
1530.62498	11469.225
1533.99105	11117.725
1537.35488	10852.525
1540.71647	10561.525
1544.07581	10278.425
1547.4329	10042.025
1550.78776	9868.025
1554.14038	9754.825
1557.49077	9782.025
1560.83892	9876.325
1564.18484	10115.825
1567.52853	10473.425
1570.86999	10773.525
1574.20922	10971.725
1577.54624	10965.525
1580.88103	10519.625
1584.2136	9979.025
1587.54395	9734.225
1590.87208	9823.025
1594.19801	10260.425
1597.52172	10826.125
1600.84321	11000.625
1604.16251	10651.125
1607.47959	10042.025
1610.79447	9423.825
1614.10715	8833.425
1617.41763	8299.325
1620.7259	7913.625
1624.03199	7725.025
1627.33587	7658.225
1630.63757	7779.925
1633.93707	8163.125
1637.23439	8830.025
1640.52951	9921.525
1643.82246	11508.125
1647.11321	13083.725
1650.40179	14025.325
1653.68819	13481.525
1656.97241	11827.325
1660.25446	9932.425
1663.53433	8518.725
1666.81203	7617.725
1670.08756	7106.925
1673.36092	6795.625
1676.63211	6614.425
1679.90115	6446.125
1683.16801	6347.125
1686.43272	6254.725
1689.69527	6188.225
1692.95567	6104.925
1696.2139	6062.525
1699.46999	6043.725
1702.72392	6018.325
1705.97571	5998.325
1709.22535	5973.825
1712.47284	5937.825
1715.71819	5918.125
1718.96139	5872.525
1722.20246	5847.225
1725.44139	5829.425
1728.67818	5766.225
1731.91284	5720.925
1735.14537	5676.125
1738.37576	5654.025
1741.60403	5636.025
1744.83017	5578.225
1748.05418	5588.025
1751.27607	5562.425
1754.49584	5531.125
1757.71349	5532.025
1760.92903	5528.425
1764.14244	5516.925
1767.35375	5501.925
1770.56294	5473.725
1773.77002	5443.425
1776.97499	5426.125
1780.17785	5428.125
1783.37861	5399.125
1786.57727	5391.625
1789.77382	5384.525
1792.96828	5364.125
1796.16064	5357.625
1799.3509	5330.725
1802.53907	5314.625
1805.72514	5300.125
1808.90913	5288.925
1812.09102	5268.225
1815.27083	5258.725
1818.44856	5247.325
1821.6242	5230.025
1824.79776	5207.725
1827.96924	5189.825
1831.13864	5196.025
1834.30597	5191.025
1837.47122	5179.125
1840.6344	5178.125
1843.7955	5146.225
1846.95454	5141.625
1850.11151	5152.425
1853.26642	5143.925
1856.41926	5109.025
1859.57004	5117.725
1862.71876	5105.825
1865.86542	5098.825
1869.01003	5102.425
1872.15258	5084.725
1875.29308	5093.325
1878.43152	5075.325
1881.56792	5075.125
1884.70227	5067.725
1887.83457	5063.525
1890.96482	5052.025
1894.09304	5050.325
1897.21921	5036.325
1900.34335	5011.625
1903.46544	5002.925
1906.58551	5013.825
1909.70353	5002.925
1912.81953	4999.825
1915.93349	4984.525
1919.04543	4970.225
1922.15534	4965.425
1925.26322	4924.825
1928.36908	4932.025
1931.47292	4888.525
1934.57473	4897.825
1937.67453	4884.825
1940.77232	4869.325
1943.86808	4836.825
1946.96184	4828.425
1950.05358	4813.425
1953.14331	4804.425
1956.23103	4774.025
1959.31675	4753.725
1962.40046	4741.725
1965.48217	4756.025
1968.56188	4716.225
1971.63959	4714.925
1974.7153	4694.925
1977.78901	4684.725
1980.86073	4648.825
1983.93046	4645.925
1986.99819	4616.525
1990.06394	4611.625
1993.1277	4584.225
1996.18947	4581.825
1999.24925	4561.525
2002.30706	4548.225
2005.36288	4524.425
2008.41672	4493.725
2011.46859	4490.125
2014.51848	4486.225
2017.56639	4452.525
2020.61233	4451.825
2023.6563	4443.725
2026.6983	4417.725
2029.73833	4404.625
2032.7764	4373.125
2035.8125	4362.825
2038.84664	4377.725
2041.87881	4363.225
2044.90903	4339.025
2047.93729	4336.925
2050.96359	4340.025
2053.98794	4321.925
2057.01034	4304.225
2060.03078	4297.225
2063.04927	4299.125
2066.06582	4280.125
2069.08042	4286.825
2072.09307	4278.125
2075.10378	4282.025
2078.11255	4278.925
2081.11938	4271.925
2084.12426	4267.725
2087.12722	4261.225
2090.12824	4266.525
2093.12732	4253.725
2096.12447	4253.925
2099.11969	4245.125
2102.11299	4255.625
2105.10435	4262.025
2108.09379	4249.025
2111.08131	4259.725
2114.0669	4257.725
2117.05057	4275.725
2120.03233	4249.525
2123.01216	4256.325
2125.99008	4261.425
2128.96609	4266.525
2131.94018	4253.625
2134.91236	4257.025
2137.88263	4255.825
2140.851	4269.025
2143.81746	4260.725
2146.78201	4245.725
2149.74466	4241.725
2152.7054	4250.725
2155.66425	4229.925
2158.6212	4225.425
2161.57625	4234.425
2164.52941	4219.025
2167.48067	4218.325
2170.43004	4197.125
2173.37752	4232.425
2176.32311	4196.625
2179.26681	4185.225
2182.20863	4201.325
2185.14856	4207.525
2188.08661	4178.225
2191.02278	4201.125
2193.95707	4204.225
2196.88948	4167.725
2199.82001	4174.025
2202.74867	4174.125
2205.67545	4160.725
2208.60037	4142.325
2211.52341	4138.425
2214.44458	4126.925
2217.36388	4115.525
2220.28132	4096.525
2223.1969	4109.925
2226.11061	4078.625
2229.02246	4083.725
2231.93245	4075.725
2234.84058	4067.525
2237.74686	4061.425
2240.65128	4051.725
2243.55385	4037.025
2246.45456	4029.625
2249.35343	4041.325
2252.25044	4034.725
2255.14561	4031.625
2258.03893	4027.925
2260.93041	4018.125
2263.82004	4000.725
2266.70783	3985.425
2269.59378	3969.725
2272.4779	3975.525
2275.36017	3957.125
2278.24061	3958.625
2281.11922	3937.225
2283.996	3928.825
2286.87094	3928.425
2289.74405	3925.325
2292.61534	3915.825
2295.4848	3890.625
2298.35243	3888.425
2301.21824	3887.025
2304.08223	3884.325
2306.94439	3882.125
2309.80474	3879.125
2312.66327	3856.525
2315.51999	3862.425
2318.37489	3863.925
2321.22797	3840.125
2324.07925	3834.625
2326.92871	3832.025
2329.77637	3854.225
2332.62222	3833.425
2335.46626	3820.025
2338.3085	3808.325
2341.14893	3801.525
2343.98756	3808.625
2346.8244	3817.025
2349.65943	3812.025
2352.49267	3807.225
2355.32411	3810.425
2358.15376	3804.425
2360.98161	3817.525
2363.80768	3813.025
2366.63195	3820.725
2369.45444	3819.725
2372.27514	3816.825
2375.09405	3810.225
2377.91118	3795.325
2380.72652	3773.725
2383.54009	3755.025
2386.35187	3760.625
2389.16188	3752.625
2391.97011	3735.725
2394.77657	3715.425
2397.58125	3696.525
2400.38416	3705.325
2403.18529	3693.825
2405.98466	3688.725
2408.78226	3662.525
2411.57809	3672.625
2414.37216	3642.525
2417.16446	3652.225
2419.955	3653.925
2422.74378	3664.725
2425.5308	3649.425
2428.31606	3633.025
2431.09956	3632.525
2433.88131	3642.325
2436.6613	3622.525
2439.43954	3626.625
2442.21603	3625.825
2444.99077	3621.025
2447.76377	3624.725
2450.53501	3612.825
2453.30451	3619.425
2456.07226	3604.625
2458.83827	3618.825
2461.60254	3602.725
2464.36507	3607.525
2467.12586	3604.725
2469.88492	3614.725
2472.64224	3604.825
2475.39782	3597.225
2478.15167	3606.925
2480.90379	3607.525
2483.65417	3621.525
2486.40283	3619.825
2489.14976	3614.525
2491.89497	3618.925
2494.63845	3608.625
2497.3802	3608.825
2500.12024	3608.525
2502.85855	3594.725
2505.59514	3578.225
2508.33002	3568.525
2511.06318	3566.125
2513.79462	3542.325
2516.52435	3525.125
2519.25237	3538.625
2521.97867	3514.525
2524.70327	3511.625
2527.42616	3519.025
2530.14734	3490.525
2532.86681	3492.125
2535.58458	3491.225
2538.30065	3486.325
2541.01501	3490.425
2543.72768	3492.825
2546.43864	3482.625
2549.14791	3480.725
2551.85548	3466.125
2554.56136	3468.425
2557.26554	3452.025
2559.96803	3450.025
2562.66883	3436.625
2565.36794	3446.225
2568.06536	3426.825
2570.7611	3423.725
2573.45514	3418.125
2576.14751	3412.725
2578.83819	3402.125
2581.52719	3410.125
2584.21451	3395.225
2586.90015	3406.225
2589.58411	3395.225
2592.2664	3391.125
2594.94701	3376.325
2597.62594	3384.825
2600.30321	3362.125
2602.9788	3370.525
2605.65273	3354.725
2608.32498	3354.425
2610.99557	3347.325
2613.66449	3339.125
2616.33175	3338.525
2618.99734	3348.325
2621.66128	3332.825
2624.32355	3347.025
2626.98416	3327.725
2629.64311	3314.725
2632.30041	3316.225
2634.95605	3312.525
2637.61004	3307.725
2640.26238	3303.725
2642.91306	3300.625
2645.56209	3292.325
2648.20948	3302.125
2650.85521	3307.925
2653.4993	3303.525
2656.14175	3288.725
2658.78255	3290.025
2661.42171	3300.025
2664.05923	3297.725
2666.6951	3308.825
2669.32934	3305.225
2671.96194	3306.925
2674.59291	3313.825
2677.22224	3302.625
2679.84993	3302.525
2682.476	3289.525
2685.10043	3285.525
2687.72324	3286.525
2690.34441	3281.825
2692.96396	3279.325
2695.58188	3290.825
2698.19818	3285.425
2700.81285	3277.125
2703.4259	3279.525
2706.03733	3274.225
2708.64714	3275.825
2711.25533	3284.125
2713.86191	3291.525
2716.46687	3295.325
2719.07021	3283.025
2721.67194	3278.625
2724.27206	3284.725
2726.87057	3291.425
2729.46747	3288.525
2732.06276	3288.225
2734.65644	3275.325
2737.24852	3284.025
2739.83899	3266.625
2742.42786	3266.325
2745.01513	3258.725
2747.60079	3248.625
2750.18486	3253.225
2752.76733	3238.725
2755.3482	3238.525
2757.92747	3237.425
2760.50515	3221.625
2763.08123	3224.525
2765.65573	3211.625
2768.22863	3232.125
2770.79994	3211.325
2773.36967	3219.125
2775.9378	3206.525
2778.50435	3188.525
2781.06932	3210.925
2783.6327	3212.725
2786.1945	3207.625
2788.75471	3212.525
2791.31335	3193.425
2793.87041	3179.825
2796.42589	3184.925
2798.97979	3181.225
2801.53212	3176.025
2804.08288	3166.125
2806.63206	3172.325
2809.17967	3165.225
2811.72571	3163.325
2814.27018	3153.225
2816.81308	3155.125
2819.35442	3139.825
2821.89419	3139.925
2824.43239	3143.225
2826.96904	3131.725
2829.50412	3138.825
2832.03763	3128.525
2834.56959	3126.125
2837.1	3123.425
2839.62884	3127.525
2842.15613	3132.625
2844.68186	3131.425
2847.20604	3136.125
2849.72867	3143.625
2852.24974	3144.525
2854.76927	3139.525
2857.28724	3121.425
2859.80367	3127.625
2862.31855	3135.325
2864.83189	3136.325
2867.34368	3139.525
2869.85393	3140.525
2872.36264	3134.225
2874.8698	3132.825
2877.37543	3124.525
2879.87952	3124.125
2882.38207	3117.925
2884.88308	3113.225
2887.38256	3110.525
2889.88051	3122.325
2892.37692	3125.325
2894.8718	3116.025
2897.36515	3127.625
2899.85698	3117.525
2902.34727	3129.525
2904.83604	3104.425
2907.32328	3135.425
2909.809	3120.125
2912.29319	3128.025
2914.77587	3130.525
2917.25702	3133.025
2919.73665	3115.425
2922.21476	3127.125
2924.69136	3111.025
2927.16644	3114.925
2929.64	3118.025
2932.11205	3101.825
2934.58258	3082.925
2937.05161	3093.225
2939.51912	3085.025
2941.98513	3085.725
2944.44962	3068.225
2946.91261	3054.225
2949.37409	3055.725
2951.83407	3067.125
2954.29254	3064.325
2956.74951	3067.525
2959.20498	3066.125
2961.65895	3050.325
2964.11142	3045.525
2966.56239	3035.325
2969.01186	3030.925
2971.45984	3025.525
2973.90632	3021.025
2976.35131	3013.925
2978.7948	2995.625
2981.23681	2993.125
2983.67732	2992.525
2986.11635	2986.325
2988.55388	2976.525
2990.98993	2985.525
2993.4245	2970.125
2995.85758	2965.625
2998.28917	2969.125
3000.71928	2957.925
3003.14791	2943.725
3005.57506	2944.825
3008.00073	2946.925
3010.42493	2928.925
3012.84764	2938.025
3015.26888	2927.625
3017.68865	2926.325
3020.10694	2929.225
3022.52376	2919.525
3024.9391	2911.725
3027.35298	2917.225
3029.76539	2891.025
3032.17632	2899.525
3034.5858	2890.425
3036.9938	2887.625
3039.40034	2878.225
3041.80542	2873.825
3044.20903	2869.525
3046.61118	2881.025
3049.01187	2881.225
3051.4111	2879.625
3053.80888	2859.425
3056.20519	2861.625
3058.60005	2852.125
3060.99345	2848.025
3063.3854	2846.225
3065.7759	2828.425
3068.16494	2841.425
3070.55254	2833.125
3072.93868	2832.225
3075.32338	2808.925
3077.70662	2814.825
3080.08842	2818.625
3082.46878	2815.725
3084.84769	2806.725
3087.22515	2816.325
3089.60118	2814.625
3091.97576	2818.825
3094.3489	2822.125
3096.72061	2819.625
3099.09087	2821.325
3101.4597	2819.725
3103.82709	2819.425
3106.19305	2829.525
3108.55757	2817.025
3110.92066	2813.525
3113.28232	2816.625
3115.64255	2805.925
3118.00134	2805.425
3120.35871	2798.925
3122.71466	2807.325
3125.06917	2802.225
3127.42226	2788.425
3129.77393	2797.825
3132.12417	2802.825
3134.47299	2793.825
3136.82039	2803.225
3139.16636	2795.425
3141.51092	2791.725
3143.85406	2803.025
3146.19579	2796.225
3148.53609	2813.325
3150.87499	2825.625
3153.21246	2825.225
3155.54853	2829.625
3157.88318	2842.525
3160.21642	2834.025
3162.54826	2846.325
3164.87868	2861.325
3167.2077	2850.825
3169.5353	2856.825
3171.86151	2857.025
3174.18631	2859.125
3176.5097	2863.725
3178.83169	2847.825
3181.15228	2842.425
3183.47147	2847.325
3185.78926	2853.625
3188.10565	2857.225
3190.42065	2841.125
3192.73424	2846.725
3195.04645	2843.425
3197.35725	2850.425
3199.66667	2848.125
3201.97469	2856.725
3204.28132	2851.225
3206.58656	2874.825
3208.8904	2870.225
3211.19287	2855.325
3213.49394	2880.825
3215.79363	2873.025
3218.09193	2872.125
3220.38884	2889.825
3222.68438	2888.825
3224.97853	2869.325
