Data from AgNP_FTO_APTES_UA_100uM_CRN_0uM_R6G_10uM_NaF_0.1M_Addition_RamanShift__47__11-40-00-143.txt Node

Date: Thu Mar 24 11:40:00 GMT 2022
User: TCL
Spectrometer: QEP01345
Trigger mode: 4
Integration Time (sec): 7.000000E0
Scans to average: 10
Electric dark correction enabled: true
Nonlinearity correction enabled: false
Boxcar width: 0
XAxis mode: Raman Shifts
Number of Pixels in Spectrum: 1044
>>>>>Begin Spectral Data<<<<<
46.04893	-0.7875
50.45542	0.9125
54.85868	-0.8875
59.25871	-0.0875
63.6555	46.8125
68.04907	48.6125
72.43941	47.1125
76.82654	48.0125
81.21044	55.8125
85.59113	53.6125
89.96862	56.9125
94.34289	57.5125
98.71396	61.9125
103.08183	60.2125
107.4465	63.0125
111.80798	65.9125
116.16626	64.9125
120.52136	65.1125
124.87327	69.0125
129.222	75.0125
133.56755	81.0125
137.90993	84.1125
142.24913	94.2125
146.58517	102.4125
150.91804	123.3125
155.24774	148.8125
159.57429	182.0125
163.89768	234.7125
168.21792	314.2125
172.53501	426.9125
176.84895	600.9125
181.15975	840.0125
185.46741	1174.5125
189.77193	1615.6125
194.07331	2152.8125
198.37157	2782.0125
202.6667	3437.6125
206.9587	4105.5125
211.24758	4789.1125
215.53334	5486.4125
219.81599	6280.8125
224.09553	7207.2125
228.37195	8195.1125
232.64527	9285.0125
236.91549	10329.0125
241.18261	11280.1125
245.44663	12053.5125
249.70755	12653.3125
253.96539	13142.3125
258.22014	13553.1125
262.4718	13910.7125
266.72039	14179.8125
270.96589	14282.7125
275.20832	14133.0125
279.44768	13879.2125
283.68397	13608.1125
287.91719	13344.1125
292.14735	13302.3125
296.37445	13444.4125
300.59849	13782.4125
304.81948	14311.2125
309.03742	14784.2125
313.25231	15016.9125
317.46415	14808.1125
321.67296	14341.4125
325.87872	13842.3125
330.08145	13663.6125
334.28114	13611.2125
338.47781	13795.3125
342.67145	13995.2125
346.86207	14350.0125
351.04966	14829.6125
355.23424	15392.5125
359.4158	15738.7125
363.59435	15866.4125
367.76989	15862.9125
371.94243	15818.2125
376.11196	15770.5125
380.27849	15778.8125
384.44203	15777.6125
388.60257	15752.1125
392.76012	15683.1125
396.91468	15760.7125
401.06626	16020.8125
405.21485	16206.9125
409.36047	15954.1125
413.50311	15378.5125
417.64277	14943.3125
421.77947	14715.6125
425.9132	14701.2125
430.04396	14858.3125
434.17176	15066.8125
438.2966	15538.9125
442.41849	16376.5125
446.53742	17565.5125
450.6534	18687.1125
454.76644	19210.2125
458.87653	18971.7125
462.98368	18233.7125
467.08789	17477.4125
471.18916	16785.1125
475.2875	16080.9125
479.38291	15479.5125
483.4754	14994.7125
487.56496	14657.2125
491.6516	14315.1125
495.73531	14104.5125
499.81612	14009.4125
503.89401	14088.7125
507.96899	14110.9125
512.04106	14129.9125
516.11023	14126.0125
520.1765	14143.2125
524.23987	14271.1125
528.30034	14458.6125
532.35792	14531.3125
536.41261	14220.8125
540.46441	13740.2125
544.51333	13470.0125
548.55936	13542.2125
552.60252	13938.9125
556.64279	14744.0125
560.6802	15373.5125
564.71473	15663.2125
568.7464	16121.8125
572.7752	16835.5125
576.80114	16931.3125
580.82422	16958.1125
584.84444	17649.0125
588.86181	19655.3125
592.87633	22580.6125
596.888	24234.4125
600.89682	22631.6125
604.9028	21065.6125
608.90594	23210.4125
612.90624	27004.3125
616.90371	25252.7125
620.89834	18331.0125
624.89015	14844.2125
628.87913	14220.8125
632.86528	14338.4125
636.84862	14316.5125
640.82913	13803.8125
644.80683	13063.0125
648.78172	12590.8125
652.75379	12627.6125
656.72306	13186.4125
660.68952	13816.9125
664.65319	13607.8125
668.61405	12904.4125
672.57211	12654.3125
676.52738	12734.8125
680.47986	12684.5125
684.42955	12443.8125
688.37646	12278.2125
692.32058	12438.9125
696.26192	12767.1125
700.20048	13134.9125
704.13626	13315.2125
708.06928	13223.3125
711.99952	13112.2125
715.927	13197.1125
719.85171	13375.5125
723.77365	13382.8125
727.69284	13134.7125
731.60928	13002.9125
735.52295	13140.3125
739.43388	13298.7125
743.34206	13392.6125
747.24749	13442.3125
751.15017	13514.3125
755.05012	13725.8125
758.94733	14388.0125
762.8418	15950.5125
766.73354	18500.9125
770.62254	20987.7125
774.50882	21783.1125
778.39237	20683.3125
782.27321	18283.3125
786.15132	15859.9125
790.02671	14257.8125
793.89938	13436.7125
797.76935	13074.7125
801.6366	12918.5125
805.50115	12826.6125
809.36299	12689.4125
813.22213	12586.5125
817.07857	12540.9125
820.93231	12456.8125
824.78336	12472.4125
828.63172	12472.6125
832.47738	12530.7125
836.32036	12537.4125
840.16066	12523.3125
843.99827	12527.9125
847.8332	12462.6125
851.66546	12439.9125
855.49504	12439.6125
859.32195	12411.9125
863.1462	12337.5125
866.96777	12275.9125
870.78668	12226.0125
874.60293	12272.5125
878.41652	12367.1125
882.22745	12489.9125
886.03573	12631.5125
889.84136	12590.7125
893.64433	12491.2125
897.44466	12456.1125
901.24235	12444.4125
905.0374	12313.6125
908.8298	12208.9125
912.61957	12137.3125
916.40671	12184.0125
920.19121	12379.0125
923.97308	12637.9125
927.75233	12874.9125
931.52895	12898.2125
935.30295	12601.9125
939.07433	12119.7125
942.84309	11778.3125
946.60924	11642.1125
950.37278	11608.6125
954.13371	11605.3125
957.89203	11566.6125
961.64774	11587.1125
965.40086	11564.3125
969.15137	11577.3125
972.89929	11542.3125
976.64461	11524.0125
980.38733	11542.0125
984.12747	11609.7125
987.86502	11722.3125
991.59999	11893.2125
995.33237	12212.6125
999.06217	12797.7125
1002.78939	13512.1125
1006.51404	14102.0125
1010.23611	14559.0125
1013.95561	14829.1125
1017.67255	14780.3125
1021.38692	14248.3125
1025.09872	13546.1125
1028.80796	13122.1125
1032.51465	13093.6125
1036.21877	13246.9125
1039.92035	13324.6125
1043.61937	13350.4125
1047.31584	13237.3125
1051.00976	13083.4125
1054.70114	12999.2125
1058.38998	12926.4125
1062.07627	12978.3125
1065.76003	13015.7125
1069.44126	13169.5125
1073.11995	13508.8125
1076.79611	13895.0125
1080.46974	14253.8125
1084.14085	14720.4125
1087.80943	15165.3125
1091.47549	15388.5125
1095.13903	15159.3125
1098.80005	14580.7125
1102.45857	14043.9125
1106.11456	13869.3125
1109.76805	13965.3125
1113.41903	14266.7125
1117.06751	14693.5125
1120.71348	15234.3125
1124.35696	15849.3125
1127.99793	16338.3125
1131.63641	16263.2125
1135.2724	15747.5125
1138.90589	15320.4125
1142.5369	15125.7125
1146.16542	15175.1125
1149.79145	15379.6125
1153.415	15564.6125
1157.03607	15750.2125
1160.65467	16193.1125
1164.27079	17034.0125
1167.88443	18538.9125
1171.49561	20702.6125
1175.10432	23976.5125
1178.71056	28279.5125
1182.31434	31986.0125
1185.91565	32988.9125
1189.51451	31395.2125
1193.11091	28798.5125
1196.70485	26268.2125
1200.29634	24087.1125
1203.88538	22323.3125
1207.47197	20882.5125
1211.05612	19892.1125
1214.63782	19465.1125
1218.21708	19664.2125
1221.79391	20331.9125
1225.36829	20976.9125
1228.94024	20852.9125
1232.50976	19956.8125
1236.07685	18856.9125
1239.6415	18286.3125
1243.20374	18204.7125
1246.76355	18179.5125
1250.32093	18334.1125
1253.8759	18774.7125
1257.42845	19533.1125
1260.97859	20612.1125
1264.52631	21742.2125
1268.07163	22842.6125
1271.61453	23630.1125
1275.15503	24197.9125
1278.69312	24826.0125
1282.22882	25849.6125
1285.76211	27450.3125
1289.29301	29615.2125
1292.82151	31883.6125
1296.34761	34385.8125
1299.87133	37280.8125
1303.39266	40821.3125
1306.9116	45056.4125
1310.42815	49500.7125
1313.94233	52163.7125
1317.45412	51034.5125
1320.96354	47348.9125
1324.47058	43159.7125
1327.97525	39370.8125
1331.47754	36699.9125
1334.97747	35269.8125
1338.47502	34624.5125
1341.97022	34146.0125
1345.46305	33952.6125
1348.95352	34800.1125
1352.44163	37254.1125
1355.92738	41763.2125
1359.41078	48024.6125
1362.89183	53436.8125
1366.37053	52995.5125
1369.84688	45684.4125
1373.32088	37271.6125
1376.79254	32382.2125
1380.26186	30642.3125
1383.72883	29901.1125
1387.19347	28825.0125
1390.65578	27693.4125
1394.11575	27366.4125
1397.57339	27752.0125
1401.0287	28428.5125
1404.48168	28849.2125
1407.93234	28651.5125
1411.38068	28075.2125
1414.82669	27270.6125
1418.27039	26307.6125
1421.71177	25102.1125
1425.15083	24092.1125
1428.58758	23818.5125
1432.02203	24519.2125
1435.45416	25561.1125
1438.88399	26264.7125
1442.31151	26469.2125
1445.73673	26561.8125
1449.15965	26585.2125
1452.58027	26245.7125
1455.9986	25506.0125
1459.41463	25115.6125
1462.82837	25580.3125
1466.23982	26602.2125
1469.64898	27687.2125
1473.05586	28544.7125
1476.46045	29162.4125
1479.86276	29673.8125
1483.26279	30014.5125
1486.66054	30446.4125
1490.05602	31242.8125
1493.44922	32123.9125
1496.84016	32672.4125
1500.22882	33314.1125
1503.61521	34616.3125
1506.99934	36735.2125
1510.38121	38601.4125
1513.76081	38661.5125
1517.13816	36357.1125
1520.51324	32990.2125
1523.88607	30247.3125
1527.25665	28996.1125
1530.62498	28724.0125
1533.99105	28586.1125
1537.35488	28091.9125
1540.71647	27200.4125
1544.07581	26239.0125
1547.4329	25137.6125
1550.78776	24106.2125
1554.14038	23207.6125
1557.49077	22635.6125
1560.83892	22496.0125
1564.18484	22806.2125
1567.52853	23576.4125
1570.86999	24484.6125
1574.20922	25250.3125
1577.54624	25448.4125
1580.88103	24827.7125
1584.2136	24057.0125
1587.54395	24531.0125
1590.87208	26602.5125
1594.19801	29989.3125
1597.52172	33860.3125
1600.84321	35843.8125
1604.16251	34252.5125
1607.47959	29946.0125
1610.79447	25093.5125
1614.10715	21159.5125
1617.41763	18556.4125
1620.7259	17242.3125
1624.03199	16759.0125
1627.33587	16980.9125
1630.63757	17924.0125
1633.93707	19918.5125
1637.23439	23509.6125
1640.52951	29264.6125
1643.82246	36957.3125
1647.11321	43594.1125
1650.40179	44985.8125
1653.68819	39874.1125
1656.97241	31377.2125
1660.25446	23866.4125
1663.53433	18958.2125
1666.81203	16145.9125
1670.08756	14604.9125
1673.36092	13671.1125
1676.63211	13111.6125
1679.90115	12735.9125
1683.16801	12431.2125
1686.43272	12198.6125
1689.69527	12085.4125
1692.95567	11963.6125
1696.2139	11876.8125
1699.46999	11812.2125
1702.72392	11753.1125
1705.97571	11687.0125
1709.22535	11670.3125
1712.47284	11697.3125
1715.71819	11649.6125
1718.96139	11595.8125
1722.20246	11538.8125
1725.44139	11430.9125
1728.67818	11358.3125
1731.91284	11261.0125
1735.14537	11175.8125
1738.37576	11081.7125
1741.60403	11016.1125
1744.83017	10982.6125
1748.05418	10955.4125
1751.27607	10902.3125
1754.49584	10861.4125
1757.71349	10845.7125
1760.92903	10827.2125
1764.14244	10818.8125
1767.35375	10808.3125
1770.56294	10768.8125
1773.77002	10727.0125
1776.97499	10685.6125
1780.17785	10674.8125
1783.37861	10655.0125
1786.57727	10608.3125
1789.77382	10553.0125
1792.96828	10576.9125
1796.16064	10528.5125
1799.3509	10504.6125
1802.53907	10491.9125
1805.72514	10443.6125
1808.90913	10433.9125
1812.09102	10396.8125
1815.27083	10363.0125
1818.44856	10339.6125
1821.6242	10320.3125
1824.79776	10306.9125
1827.96924	10274.7125
1831.13864	10269.5125
1834.30597	10246.0125
1837.47122	10233.1125
1840.6344	10218.8125
1843.7955	10201.5125
1846.95454	10212.1125
1850.11151	10188.3125
1853.26642	10193.4125
1856.41926	10181.2125
1859.57004	10169.4125
1862.71876	10166.6125
1865.86542	10161.8125
1869.01003	10189.6125
1872.15258	10178.0125
1875.29308	10184.3125
1878.43152	10203.8125
1881.56792	10231.2125
1884.70227	10228.4125
1887.83457	10232.4125
1890.96482	10241.0125
1894.09304	10247.2125
1897.21921	10232.5125
1900.34335	10224.2125
1903.46544	10260.5125
1906.58551	10257.2125
1909.70353	10232.2125
1912.81953	10242.5125
1915.93349	10206.8125
1919.04543	10187.6125
1922.15534	10156.6125
1925.26322	10119.0125
1928.36908	10090.0125
1931.47292	10056.3125
1934.57473	10020.2125
1937.67453	9978.1125
1940.77232	9951.8125
1943.86808	9938.7125
1946.96184	9917.5125
1950.05358	9877.4125
1953.14331	9831.8125
1956.23103	9828.2125
1959.31675	9808.1125
1962.40046	9767.7125
1965.48217	9743.5125
1968.56188	9743.5125
1971.63959	9716.0125
1974.7153	9678.7125
1977.78901	9640.8125
1980.86073	9596.0125
1983.93046	9570.5125
1986.99819	9493.6125
1990.06394	9488.2125
1993.1277	9460.5125
1996.18947	9402.7125
1999.24925	9384.1125
2002.30706	9360.6125
2005.36288	9332.6125
2008.41672	9314.4125
2011.46859	9281.8125
2014.51848	9267.2125
2017.56639	9215.5125
2020.61233	9213.5125
2023.6563	9167.4125
2026.6983	9175.6125
2029.73833	9138.8125
2032.7764	9125.3125
2035.8125	9115.9125
2038.84664	9103.2125
2041.87881	9089.6125
2044.90903	9090.3125
2047.93729	9046.4125
2050.96359	9025.1125
2053.98794	9024.3125
2057.01034	9028.1125
2060.03078	9015.8125
2063.04927	9010.5125
2066.06582	9009.6125
2069.08042	8996.1125
2072.09307	9006.2125
2075.10378	8998.3125
2078.11255	9004.0125
2081.11938	9023.0125
2084.12426	8989.3125
2087.12722	9017.7125
2090.12824	8993.0125
2093.12732	8997.6125
2096.12447	9003.7125
2099.11969	9020.1125
2102.11299	9026.2125
2105.10435	9012.2125
2108.09379	8999.2125
2111.08131	9005.3125
2114.0669	8986.2125
2117.05057	8991.0125
2120.03233	8984.9125
2123.01216	8991.6125
2125.99008	8941.9125
2128.96609	8961.5125
2131.94018	8954.0125
2134.91236	8965.2125
2137.88263	8961.0125
2140.851	8943.7125
2143.81746	8972.9125
2146.78201	8963.9125
2149.74466	8934.7125
2152.7054	8940.0125
2155.66425	8924.3125
2158.6212	8914.1125
2161.57625	8911.3125
2164.52941	8892.7125
2167.48067	8866.7125
2170.43004	8853.2125
2173.37752	8854.9125
2176.32311	8860.6125
2179.26681	8863.0125
2182.20863	8880.0125
2185.14856	8889.8125
2188.08661	8871.6125
2191.02278	8854.6125
2193.95707	8850.7125
2196.88948	8865.4125
2199.82001	8843.7125
2202.74867	8833.5125
2205.67545	8836.6125
2208.60037	8817.3125
2211.52341	8832.3125
2214.44458	8798.5125
2217.36388	8772.4125
2220.28132	8743.1125
2223.1969	8704.0125
2226.11061	8719.2125
2229.02246	8685.7125
2231.93245	8694.5125
2234.84058	8694.1125
2237.74686	8697.2125
2240.65128	8714.8125
2243.55385	8664.9125
2246.45456	8654.8125
2249.35343	8636.2125
2252.25044	8620.8125
2255.14561	8587.7125
2258.03893	8585.2125
2260.93041	8566.4125
2263.82004	8554.3125
2266.70783	8535.0125
2269.59378	8500.7125
2272.4779	8473.8125
2275.36017	8479.8125
2278.24061	8446.2125
2281.11922	8442.8125
2283.996	8415.7125
2286.87094	8396.8125
2289.74405	8379.8125
2292.61534	8366.2125
2295.4848	8365.0125
2298.35243	8348.7125
2301.21824	8337.1125
2304.08223	8376.5125
2306.94439	8350.0125
2309.80474	8353.3125
2312.66327	8365.9125
2315.51999	8367.3125
2318.37489	8356.0125
2321.22797	8344.0125
2324.07925	8350.2125
2326.92871	8336.7125
2329.77637	8330.1125
2332.62222	8320.8125
2335.46626	8307.8125
2338.3085	8314.8125
2341.14893	8315.3125
2343.98756	8308.6125
2346.8244	8332.8125
2349.65943	8312.0125
2352.49267	8303.7125
2355.32411	8326.2125
2358.15376	8318.2125
2360.98161	8321.8125
2363.80768	8295.3125
2366.63195	8329.2125
2369.45444	8327.2125
2372.27514	8325.4125
2375.09405	8334.9125
2377.91118	8295.6125
2380.72652	8297.7125
2383.54009	8260.5125
2386.35187	8251.0125
2389.16188	8205.4125
2391.97011	8205.0125
2394.77657	8187.2125
2397.58125	8163.3125
2400.38416	8141.7125
2403.18529	8136.9125
2405.98466	8119.4125
2408.78226	8098.1125
2411.57809	8085.5125
2414.37216	8064.8125
2417.16446	8082.6125
2419.955	8062.8125
2422.74378	8053.2125
2425.5308	8048.7125
2428.31606	8045.7125
2431.09956	8062.2125
2433.88131	8035.6125
2436.6613	8026.0125
2439.43954	8033.1125
2442.21603	8041.6125
2444.99077	8059.5125
2447.76377	8067.9125
2450.53501	8065.1125
2453.30451	8089.7125
2456.07226	8075.1125
2458.83827	8085.1125
2461.60254	8109.2125
2464.36507	8097.1125
2467.12586	8079.2125
2469.88492	8109.1125
2472.64224	8107.7125
2475.39782	8124.7125
2478.15167	8125.8125
2480.90379	8138.4125
2483.65417	8152.1125
2486.40283	8158.6125
2489.14976	8180.5125
2491.89497	8180.3125
2494.63845	8193.6125
2497.3802	8185.2125
2500.12024	8190.1125
2502.85855	8183.4125
2505.59514	8176.5125
2508.33002	8118.7125
2511.06318	8114.2125
2513.79462	8111.0125
2516.52435	8092.4125
2519.25237	8060.5125
2521.97867	8053.5125
2524.70327	8059.6125
2527.42616	8036.9125
2530.14734	8023.3125
2532.86681	8027.0125
2535.58458	8013.1125
2538.30065	8021.4125
2541.01501	8055.2125
2543.72768	8056.2125
2546.43864	8058.9125
2549.14791	8032.6125
2551.85548	8046.5125
2554.56136	8060.9125
2557.26554	8048.3125
2559.96803	8043.1125
2562.66883	8018.8125
2565.36794	8035.7125
2568.06536	7997.0125
2570.7611	8023.2125
2573.45514	8018.3125
2576.14751	8001.3125
2578.83819	7990.6125
2581.52719	8021.7125
2584.21451	8014.2125
2586.90015	7993.7125
2589.58411	7984.0125
2592.2664	8009.4125
2594.94701	7982.4125
2597.62594	7979.7125
2600.30321	7972.2125
2602.9788	7972.9125
2605.65273	7997.0125
2608.32498	7975.8125
2610.99557	7977.9125
2613.66449	7993.5125
2616.33175	8012.4125
2618.99734	8018.1125
2621.66128	8001.2125
2624.32355	8002.5125
2626.98416	7996.8125
2629.64311	7981.8125
2632.30041	7997.6125
2634.95605	7964.0125
2637.61004	7975.5125
2640.26238	7959.8125
2642.91306	7936.2125
2645.56209	7944.5125
2648.20948	7945.1125
2650.85521	7963.6125
2653.4993	7987.9125
2656.14175	7984.9125
2658.78255	7990.2125
2661.42171	8027.0125
2664.05923	8041.4125
2666.6951	8039.8125
2669.32934	8060.9125
2671.96194	8037.6125
2674.59291	8052.3125
2677.22224	8063.4125
2679.84993	8048.6125
2682.476	8043.8125
2685.10043	8057.6125
2687.72324	8031.7125
2690.34441	8024.5125
2692.96396	8030.9125
2695.58188	8018.2125
2698.19818	7999.0125
2700.81285	8023.5125
2703.4259	8023.9125
2706.03733	8041.0125
2708.64714	8043.1125
2711.25533	8038.3125
2713.86191	8044.1125
2716.46687	8054.6125
2719.07021	8070.6125
2721.67194	8055.7125
2724.27206	8083.7125
2726.87057	8094.2125
2729.46747	8111.5125
2732.06276	8118.2125
2734.65644	8091.9125
2737.24852	8107.7125
2739.83899	8071.3125
2742.42786	8074.1125
2745.01513	8057.2125
2747.60079	8043.6125
2750.18486	8061.1125
2752.76733	8051.3125
2755.3482	8056.2125
2757.92747	8095.3125
2760.50515	8063.5125
2763.08123	8060.8125
2765.65573	8062.6125
2768.22863	8071.1125
2770.79994	8057.5125
2773.36967	8077.9125
2775.9378	8076.3125
2778.50435	8062.7125
2781.06932	8074.1125
2783.6327	8059.4125
2786.1945	8076.0125
2788.75471	8067.7125
2791.31335	8051.1125
2793.87041	8078.9125
2796.42589	8057.6125
2798.97979	8052.2125
2801.53212	8023.9125
2804.08288	8018.4125
2806.63206	8023.3125
2809.17967	8006.0125
2811.72571	8016.4125
2814.27018	8025.0125
2816.81308	7988.9125
2819.35442	8017.6125
2821.89419	8019.3125
2824.43239	8022.4125
2826.96904	8041.2125
2829.50412	8026.8125
2832.03763	8041.0125
2834.56959	8037.4125
2837.1	8014.0125
2839.62884	7989.5125
2842.15613	7980.8125
2844.68186	7991.2125
2847.20604	7989.9125
2849.72867	8032.1125
2852.24974	8010.9125
2854.76927	8023.6125
2857.28724	8020.8125
2859.80367	8012.3125
2862.31855	8019.4125
2864.83189	8033.5125
2867.34368	8020.5125
2869.85393	8038.1125
2872.36264	8026.3125
2874.8698	8022.9125
2877.37543	8037.3125
2879.87952	8022.9125
2882.38207	8016.1125
2884.88308	8005.9125
2887.38256	8020.3125
2889.88051	8005.5125
2892.37692	8016.2125
2894.8718	8015.2125
2897.36515	8024.5125
2899.85698	8013.0125
2902.34727	8027.1125
2904.83604	8034.4125
2907.32328	8050.7125
2909.809	8059.5125
2912.29319	8046.9125
2914.77587	8028.6125
2917.25702	8026.0125
2919.73665	8007.6125
2922.21476	8009.7125
2924.69136	8005.1125
2927.16644	8000.6125
2929.64	7985.6125
2932.11205	7957.1125
2934.58258	7926.0125
2937.05161	7966.2125
2939.51912	7931.0125
2941.98513	7914.0125
2944.44962	7911.4125
2946.91261	7860.7125
2949.37409	7900.6125
2951.83407	7888.3125
2954.29254	7895.3125
2956.74951	7875.0125
2959.20498	7857.1125
2961.65895	7856.7125
2964.11142	7835.1125
2966.56239	7818.9125
2969.01186	7794.7125
2971.45984	7754.2125
2973.90632	7752.6125
2976.35131	7698.3125
2978.7948	7684.8125
2981.23681	7641.6125
2983.67732	7626.7125
2986.11635	7629.5125
2988.55388	7594.9125
2990.98993	7582.7125
2993.4245	7566.6125
2995.85758	7544.6125
2998.28917	7536.0125
3000.71928	7538.0125
3003.14791	7524.2125
3005.57506	7521.9125
3008.00073	7489.8125
3010.42493	7503.4125
3012.84764	7466.3125
3015.26888	7437.5125
3017.68865	7438.9125
3020.10694	7409.2125
3022.52376	7394.1125
3024.9391	7364.0125
3027.35298	7329.5125
3029.76539	7332.1125
3032.17632	7323.9125
3034.5858	7303.0125
3036.9938	7308.9125
3039.40034	7271.2125
3041.80542	7275.6125
3044.20903	7247.4125
3046.61118	7263.3125
3049.01187	7235.0125
3051.4111	7260.0125
3053.80888	7229.3125
3056.20519	7199.0125
3058.60005	7189.9125
3060.99345	7175.1125
3063.3854	7153.8125
3065.7759	7113.8125
3068.16494	7110.0125
3070.55254	7097.4125
