Data from AgNP_FTO_APTES_UA_100uM_CRN_50uM_R6G_10uM_NaF_0.1M_Addition_RamanShift__17__17-27-40-541.txt Node

Date: Thu Mar 24 17:27:40 GMT 2022
User: TCL
Spectrometer: QEP01345
Trigger mode: 4
Integration Time (sec): 7.000000E0
Scans to average: 10
Electric dark correction enabled: true
Nonlinearity correction enabled: false
Boxcar width: 0
XAxis mode: Raman Shifts
Number of Pixels in Spectrum: 1044
>>>>>Begin Spectral Data<<<<<
46.04893	-1.975
50.45542	0.125
54.85868	-0.675
59.25871	0.125
63.6555	39.425
68.04907	40.425
72.43941	39.325
76.82654	39.825
81.21044	43.825
85.59113	43.625
89.96862	46.025
94.34289	40.925
98.71396	48.025
103.08183	47.525
107.4465	52.325
111.80798	52.025
116.16626	52.625
120.52136	54.925
124.87327	54.225
129.222	56.625
133.56755	62.825
137.90993	68.425
142.24913	76.525
146.58517	84.725
150.91804	96.825
155.24774	112.125
159.57429	146.425
163.89768	185.125
168.21792	249.625
172.53501	341.525
176.84895	477.125
181.15975	678.325
185.46741	944.425
189.77193	1318.425
194.07331	1765.925
198.37157	2292.425
202.6667	2829.725
206.9587	3387.725
211.24758	3930.625
215.53334	4483.225
219.81599	5070.025
224.09553	5725.525
228.37195	6436.725
232.64527	7240.325
236.91549	8087.025
241.18261	8905.225
245.44663	9628.125
249.70755	10285.225
253.96539	10812.825
258.22014	11271.825
262.4718	11655.125
266.72039	11913.625
270.96589	12067.025
275.20832	12107.725
279.44768	12048.625
283.68397	11911.125
287.91719	11833.425
292.14735	11783.525
296.37445	11849.225
300.59849	11988.325
304.81948	12148.525
309.03742	12239.925
313.25231	12170.525
317.46415	11924.225
321.67296	11531.925
325.87872	11158.725
330.08145	11017.725
334.28114	10994.225
338.47781	11090.925
342.67145	11268.125
346.86207	11476.925
351.04966	11758.225
355.23424	12049.125
359.4158	12283.325
363.59435	12410.725
367.76989	12490.525
371.94243	12557.225
376.11196	12601.625
380.27849	12614.725
384.44203	12614.225
388.60257	12659.325
392.76012	12716.225
396.91468	12832.125
401.06626	13029.225
405.21485	13177.325
409.36047	13044.325
413.50311	12732.125
417.64277	12410.925
421.77947	12248.225
425.9132	12248.125
430.04396	12295.125
434.17176	12361.125
438.2966	12459.325
442.41849	12599.225
446.53742	12839.225
450.6534	13111.025
454.76644	13274.125
458.87653	13284.825
462.98368	13248.425
467.08789	13181.925
471.18916	13094.125
475.2875	12946.825
479.38291	12806.225
483.4754	12681.425
487.56496	12568.025
491.6516	12477.425
495.73531	12437.625
499.81612	12439.425
503.89401	12519.325
507.96899	12547.125
512.04106	12614.525
516.11023	12629.525
520.1765	12647.525
524.23987	12589.325
528.30034	12533.325
532.35792	12478.225
536.41261	12324.725
540.46441	12231.425
544.51333	12226.325
548.55936	12320.325
552.60252	12530.325
556.64279	12763.225
560.6802	12865.725
564.71473	12913.425
568.7464	13049.425
572.7752	13283.925
576.80114	13385.625
580.82422	13430.925
584.84444	13582.925
588.86181	13646.925
592.87633	13750.725
596.888	13842.825
600.89682	13996.325
604.9028	14650.825
608.90594	16517.525
612.90624	18776.225
616.90371	17922.925
620.89834	14500.425
624.89015	12854.225
628.87913	12606.825
632.86528	12775.625
636.84862	13030.425
640.82913	12939.325
644.80683	12537.925
648.78172	12256.125
652.75379	12161.425
656.72306	12312.925
660.68952	12604.225
664.65319	12530.025
668.61405	12188.725
672.57211	12062.625
676.52738	12107.525
680.47986	12101.625
684.42955	12040.825
688.37646	11953.625
692.32058	11954.125
696.26192	12060.325
700.20048	12197.725
704.13626	12253.525
708.06928	12272.925
711.99952	12229.625
715.927	12167.825
719.85171	12212.825
723.77365	12248.625
727.69284	12197.725
731.60928	12083.725
735.52295	12038.625
739.43388	12069.725
743.34206	12071.325
747.24749	12125.525
751.15017	12169.225
755.05012	12283.625
758.94733	12630.225
762.8418	13440.625
766.73354	14870.925
770.62254	16305.125
774.50882	16767.325
778.39237	16045.125
782.27321	14597.725
786.15132	13331.825
790.02671	12537.425
793.89938	12160.825
797.76935	11944.025
801.6366	11871.525
805.50115	11812.925
809.36299	11774.325
813.22213	11739.325
817.07857	11753.025
820.93231	11719.925
824.78336	11681.925
828.63172	11675.525
832.47738	11657.125
836.32036	11609.425
840.16066	11595.425
843.99827	11585.325
847.8332	11576.525
851.66546	11591.925
855.49504	11600.225
859.32195	11584.225
863.1462	11602.725
866.96777	11576.525
870.78668	11590.725
874.60293	11597.525
878.41652	11585.025
882.22745	11653.225
886.03573	11708.825
889.84136	11711.425
893.64433	11659.325
897.44466	11619.725
901.24235	11590.725
905.0374	11552.825
908.8298	11512.625
912.61957	11441.825
916.40671	11509.725
920.19121	11579.825
923.97308	11635.125
927.75233	11638.325
931.52895	11604.425
935.30295	11477.325
939.07433	11295.025
942.84309	11149.625
946.60924	11038.825
950.37278	10993.825
954.13371	10965.525
957.89203	10949.125
961.64774	10963.425
965.40086	10965.625
969.15137	10921.825
972.89929	10893.825
976.64461	10861.125
980.38733	10840.425
984.12747	10861.125
987.86502	10903.425
991.59999	10930.825
995.33237	10994.325
999.06217	11092.225
1002.78939	11243.725
1006.51404	11417.525
1010.23611	11594.725
1013.95561	11681.225
1017.67255	11730.825
1021.38692	11627.625
1025.09872	11503.725
1028.80796	11354.725
1032.51465	11263.125
1036.21877	11284.225
1039.92035	11322.325
1043.61937	11376.325
1047.31584	11450.025
1051.00976	11521.225
1054.70114	11540.425
1058.38998	11566.725
1062.07627	11655.725
1065.76003	11770.425
1069.44126	11848.125
1073.11995	12023.125
1076.79611	12180.925
1080.46974	12282.825
1084.14085	12399.125
1087.80943	12543.025
1091.47549	12617.225
1095.13903	12555.225
1098.80005	12393.925
1102.45857	12163.225
1106.11456	12018.925
1109.76805	11979.025
1113.41903	12055.825
1117.06751	12259.425
1120.71348	12490.225
1124.35696	12783.625
1127.99793	13031.625
1131.63641	13075.225
1135.2724	12878.225
1138.90589	12628.625
1142.5369	12441.625
1146.16542	12297.625
1149.79145	12226.125
1153.415	12210.625
1157.03607	12264.325
1160.65467	12409.525
1164.27079	12798.725
1167.88443	13291.425
1171.49561	14039.625
1175.10432	15150.225
1178.71056	16530.825
1182.31434	17778.625
1185.91565	18308.125
1189.51451	18171.225
1193.11091	17645.825
1196.70485	16895.325
1200.29634	16121.425
1203.88538	15497.425
1207.47197	14809.425
1211.05612	14185.525
1214.63782	13746.225
1218.21708	13480.625
1221.79391	13340.325
1225.36829	13250.225
1228.94024	13199.025
1232.50976	13125.925
1236.07685	13019.525
1239.6415	12972.825
1243.20374	12962.425
1246.76355	12991.625
1250.32093	13079.325
1253.8759	13251.925
1257.42845	13500.825
1260.97859	13835.725
1264.52631	14201.925
1268.07163	14549.525
1271.61453	14895.825
1275.15503	15106.425
1278.69312	15316.825
1282.22882	15488.625
1285.76211	15765.525
1289.29301	16127.025
1292.82151	16630.325
1296.34761	17198.625
1299.87133	17953.925
1303.39266	19018.225
1306.9116	20300.525
1310.42815	21583.325
1313.94233	22236.725
1317.45412	21909.325
1320.96354	21159.825
1324.47058	20330.425
1327.97525	19575.025
1331.47754	18978.025
1334.97747	18713.625
1338.47502	18759.325
1341.97022	19071.625
1345.46305	19621.725
1348.95352	20341.925
1352.44163	21174.725
1355.92738	22263.025
1359.41078	23904.125
1362.89183	25585.525
1366.37053	25206.725
1369.84688	22529.825
1373.32088	19566.825
1376.79254	17590.125
1380.26186	16547.625
1383.72883	16031.525
1387.19347	15665.525
1390.65578	15272.025
1394.11575	14957.825
1397.57339	14715.125
1401.0287	14608.725
1404.48168	14584.925
1407.93234	14496.625
1411.38068	14357.425
1414.82669	14184.625
1418.27039	13928.925
1421.71177	13611.725
1425.15083	13296.925
1428.58758	13108.525
1432.02203	13120.025
1435.45416	13270.725
1438.88399	13390.825
1442.31151	13519.025
1445.73673	13654.025
1449.15965	13765.025
1452.58027	13830.725
1455.9986	13865.325
1459.41463	13951.725
1462.82837	14171.225
1466.23982	14503.925
1469.64898	14875.125
1473.05586	15119.625
1476.46045	15330.525
1479.86276	15493.025
1483.26279	15631.625
1486.66054	15841.225
1490.05602	16183.625
1493.44922	16707.525
1496.84016	17569.725
1500.22882	18971.625
1503.61521	20733.825
1506.99934	22532.925
1510.38121	23649.625
1513.76081	23487.825
1517.13816	22126.825
1520.51324	20203.525
1523.88607	18573.425
1527.25665	17584.025
1530.62498	17026.625
1533.99105	16666.825
1537.35488	16360.025
1540.71647	15960.025
1544.07581	15573.925
1547.4329	15277.825
1550.78776	15003.025
1554.14038	14834.925
1557.49077	14844.425
1560.83892	15030.425
1564.18484	15324.325
1567.52853	15681.125
1570.86999	16020.825
1574.20922	16259.425
1577.54624	16235.325
1580.88103	15677.925
1584.2136	14964.225
1587.54395	14598.925
1590.87208	14685.925
1594.19801	15181.425
1597.52172	15863.425
1600.84321	16153.425
1604.16251	15740.025
1607.47959	15075.625
1610.79447	14359.125
1614.10715	13581.225
1617.41763	12837.425
1620.7259	12272.825
1624.03199	11959.325
1627.33587	11841.825
1630.63757	12008.725
1633.93707	12395.325
1637.23439	13195.425
1640.52951	14490.325
1643.82246	16254.225
1647.11321	18053.925
1650.40179	19053.625
1653.68819	18475.725
1656.97241	16526.825
1660.25446	14315.125
1663.53433	12668.525
1666.81203	11589.125
1670.08756	10966.525
1673.36092	10537.025
1676.63211	10255.025
1679.90115	10101.225
1683.16801	9956.825
1686.43272	9831.825
1689.69527	9736.625
1692.95567	9665.425
1696.2139	9602.325
1699.46999	9571.125
1702.72392	9535.925
1705.97571	9512.825
1709.22535	9460.025
1712.47284	9421.325
1715.71819	9413.925
1718.96139	9356.425
1722.20246	9319.625
1725.44139	9270.125
1728.67818	9238.425
1731.91284	9156.925
1735.14537	9087.225
1738.37576	9044.325
1741.60403	9024.825
1744.83017	8980.125
1748.05418	8959.925
1751.27607	8927.525
1754.49584	8918.525
1757.71349	8892.125
1760.92903	8880.025
1764.14244	8874.825
1767.35375	8883.025
1770.56294	8842.225
1773.77002	8815.025
1776.97499	8765.725
1780.17785	8752.125
1783.37861	8729.425
1786.57727	8711.425
1789.77382	8682.325
1792.96828	8681.725
1796.16064	8652.625
1799.3509	8638.325
1802.53907	8616.925
1805.72514	8555.925
1808.90913	8551.225
1812.09102	8545.425
1815.27083	8523.525
1818.44856	8482.025
1821.6242	8471.525
1824.79776	8440.225
1827.96924	8452.725
1831.13864	8428.025
1834.30597	8399.225
1837.47122	8376.025
1840.6344	8374.125
1843.7955	8391.025
1846.95454	8353.425
1850.11151	8336.825
1853.26642	8334.625
1856.41926	8341.125
1859.57004	8338.925
1862.71876	8306.525
1865.86542	8291.825
1869.01003	8294.625
1872.15258	8270.025
1875.29308	8257.525
1878.43152	8271.625
1881.56792	8242.525
1884.70227	8229.225
1887.83457	8247.725
1890.96482	8225.425
1894.09304	8206.125
1897.21921	8176.325
1900.34335	8133.025
1903.46544	8166.425
1906.58551	8164.325
1909.70353	8148.725
1912.81953	8120.725
1915.93349	8112.025
1919.04543	8098.025
1922.15534	8071.625
1925.26322	8053.925
1928.36908	8021.425
1931.47292	8008.825
1934.57473	7996.625
1937.67453	7994.425
1940.77232	7951.025
1943.86808	7936.525
1946.96184	7898.725
1950.05358	7875.425
1953.14331	7835.125
1956.23103	7828.425
1959.31675	7792.425
1962.40046	7757.025
1965.48217	7751.425
1968.56188	7720.425
1971.63959	7716.025
1974.7153	7697.925
1977.78901	7667.225
1980.86073	7632.925
1983.93046	7610.325
1986.99819	7575.925
1990.06394	7558.525
1993.1277	7539.225
1996.18947	7507.425
1999.24925	7488.325
2002.30706	7462.325
2005.36288	7428.125
2008.41672	7399.025
2011.46859	7361.025
2014.51848	7355.725
2017.56639	7337.225
2020.61233	7322.125
2023.6563	7301.225
2026.6983	7261.825
2029.73833	7236.225
2032.7764	7221.025
2035.8125	7179.325
2038.84664	7181.025
2041.87881	7133.225
2044.90903	7131.725
2047.93729	7110.125
2050.96359	7120.825
2053.98794	7108.025
2057.01034	7081.825
2060.03078	7065.725
2063.04927	7043.425
2066.06582	7061.225
2069.08042	7064.625
2072.09307	7043.625
2075.10378	7052.725
2078.11255	7028.125
2081.11938	7059.925
2084.12426	7023.125
2087.12722	7037.625
2090.12824	7046.925
2093.12732	7025.325
2096.12447	7005.525
2099.11969	7034.325
2102.11299	7010.025
2105.10435	7022.925
2108.09379	7011.525
2111.08131	7029.425
2114.0669	7025.625
2117.05057	7030.725
2120.03233	7022.025
2123.01216	7020.225
2125.99008	7044.625
2128.96609	7062.925
2131.94018	7033.125
2134.91236	7022.725
2137.88263	7021.625
2140.851	7044.625
2143.81746	7046.925
2146.78201	7043.725
2149.74466	7044.125
2152.7054	7015.125
2155.66425	7006.025
2158.6212	7020.425
2161.57625	7007.325
2164.52941	6985.425
2167.48067	6977.125
2170.43004	6974.725
2173.37752	6981.425
2176.32311	6969.625
2179.26681	6978.525
2182.20863	6965.225
2185.14856	6971.025
2188.08661	6953.825
2191.02278	6956.925
2193.95707	6950.625
2196.88948	6929.925
2199.82001	6943.825
2202.74867	6913.825
2205.67545	6920.625
2208.60037	6914.825
2211.52341	6893.825
2214.44458	6867.825
2217.36388	6864.325
2220.28132	6838.925
2223.1969	6835.225
2226.11061	6820.125
2229.02246	6778.925
2231.93245	6793.225
2234.84058	6774.625
2237.74686	6769.625
2240.65128	6765.925
2243.55385	6757.225
2246.45456	6726.125
2249.35343	6733.525
2252.25044	6717.725
2255.14561	6720.525
2258.03893	6714.425
2260.93041	6681.425
2263.82004	6654.225
2266.70783	6657.125
2269.59378	6634.925
2272.4779	6632.325
2275.36017	6601.725
2278.24061	6593.325
2281.11922	6570.925
2283.996	6576.925
2286.87094	6563.425
2289.74405	6561.725
2292.61534	6540.525
2295.4848	6514.625
2298.35243	6516.925
2301.21824	6481.125
2304.08223	6480.125
2306.94439	6491.625
2309.80474	6473.225
2312.66327	6463.925
2315.51999	6464.625
2318.37489	6444.925
2321.22797	6447.825
2324.07925	6426.225
2326.92871	6429.625
2329.77637	6416.925
2332.62222	6395.225
2335.46626	6370.925
2338.3085	6380.825
2341.14893	6377.425
2343.98756	6361.525
2346.8244	6377.225
2349.65943	6357.925
2352.49267	6362.625
2355.32411	6386.925
2358.15376	6376.025
2360.98161	6379.225
2363.80768	6383.525
2366.63195	6388.225
2369.45444	6377.125
2372.27514	6345.425
2375.09405	6350.225
2377.91118	6331.725
2380.72652	6324.325
2383.54009	6292.825
2386.35187	6285.625
2389.16188	6269.425
2391.97011	6253.525
2394.77657	6236.625
2397.58125	6208.825
2400.38416	6193.025
2403.18529	6194.825
2405.98466	6181.525
2408.78226	6156.325
2411.57809	6150.325
2414.37216	6130.325
2417.16446	6142.825
2419.955	6137.925
2422.74378	6135.725
2425.5308	6125.425
2428.31606	6103.625
2431.09956	6111.025
2433.88131	6111.325
2436.6613	6090.825
2439.43954	6098.225
2442.21603	6074.425
2444.99077	6068.425
2447.76377	6076.025
2450.53501	6088.825
2453.30451	6083.025
2456.07226	6067.225
2458.83827	6058.725
2461.60254	6052.325
2464.36507	6062.525
2467.12586	6031.525
2469.88492	6032.025
2472.64224	6040.025
2475.39782	6047.025
2478.15167	6044.825
2480.90379	6028.025
2483.65417	6050.025
2486.40283	6050.425
2489.14976	6035.125
2491.89497	6050.925
2494.63845	6062.725
2497.3802	6045.525
2500.12024	6024.325
2502.85855	6011.125
2505.59514	6029.025
2508.33002	6002.025
2511.06318	5984.425
2513.79462	5974.025
2516.52435	5944.725
2519.25237	5929.425
2521.97867	5943.325
2524.70327	5929.925
2527.42616	5918.625
2530.14734	5895.325
2532.86681	5888.825
2535.58458	5902.225
2538.30065	5875.725
2541.01501	5881.225
2543.72768	5867.825
2546.43864	5857.425
2549.14791	5860.725
2551.85548	5853.825
2554.56136	5836.725
2557.26554	5807.825
2559.96803	5791.825
2562.66883	5787.125
2565.36794	5791.025
2568.06536	5785.525
2570.7611	5747.525
2573.45514	5748.925
2576.14751	5729.725
2578.83819	5737.725
2581.52719	5717.225
2584.21451	5744.725
2586.90015	5724.825
2589.58411	5706.625
2592.2664	5706.925
2594.94701	5686.125
2597.62594	5675.425
2600.30321	5668.725
2602.9788	5659.625
2605.65273	5648.825
2608.32498	5642.925
2610.99557	5627.025
2613.66449	5632.725
2616.33175	5628.925
2618.99734	5641.025
2621.66128	5625.525
2624.32355	5609.025
2626.98416	5594.225
2629.64311	5595.925
2632.30041	5579.225
2634.95605	5585.125
2637.61004	5574.325
2640.26238	5577.825
2642.91306	5553.725
2645.56209	5555.425
2648.20948	5549.025
2650.85521	5550.425
2653.4993	5540.925
2656.14175	5550.925
2658.78255	5538.825
2661.42171	5559.825
2664.05923	5548.425
2666.6951	5559.425
2669.32934	5569.925
2671.96194	5572.125
2674.59291	5565.725
2677.22224	5551.825
2679.84993	5554.725
2682.476	5548.325
2685.10043	5534.925
2687.72324	5525.525
2690.34441	5530.725
2692.96396	5528.325
2695.58188	5522.825
2698.19818	5534.225
2700.81285	5533.025
2703.4259	5521.325
2706.03733	5522.125
2708.64714	5533.425
2711.25533	5534.525
2713.86191	5528.425
2716.46687	5545.225
2719.07021	5536.825
2721.67194	5557.425
2724.27206	5518.125
2726.87057	5535.125
2729.46747	5540.325
2732.06276	5550.725
2734.65644	5528.925
2737.24852	5518.425
2739.83899	5497.125
2742.42786	5511.525
2745.01513	5490.825
2747.60079	5476.725
2750.18486	5464.725
2752.76733	5476.425
2755.3482	5468.825
2757.92747	5458.325
2760.50515	5443.325
2763.08123	5438.925
2765.65573	5420.125
2768.22863	5433.525
2770.79994	5431.125
2773.36967	5433.025
2775.9378	5417.925
2778.50435	5410.125
2781.06932	5392.925
2783.6327	5411.825
2786.1945	5399.225
2788.75471	5396.725
2791.31335	5381.125
2793.87041	5385.025
2796.42589	5370.325
2798.97979	5342.525
2801.53212	5341.325
2804.08288	5339.225
2806.63206	5330.725
2809.17967	5324.525
2811.72571	5306.925
2814.27018	5335.025
2816.81308	5308.925
2819.35442	5290.925
2821.89419	5292.625
2824.43239	5268.925
2826.96904	5280.525
2829.50412	5268.625
2832.03763	5250.425
2834.56959	5260.525
2837.1	5248.325
2839.62884	5260.625
2842.15613	5270.225
2844.68186	5268.125
2847.20604	5272.225
2849.72867	5293.425
2852.24974	5276.625
2854.76927	5274.425
2857.28724	5265.325
2859.80367	5254.225
2862.31855	5260.225
2864.83189	5261.725
2867.34368	5241.125
2869.85393	5247.525
2872.36264	5244.425
2874.8698	5235.225
2877.37543	5254.825
2879.87952	5246.925
2882.38207	5244.025
2884.88308	5227.125
2887.38256	5221.025
2889.88051	5223.225
2892.37692	5222.125
2894.8718	5242.425
2897.36515	5236.125
2899.85698	5235.325
2902.34727	5235.725
2904.83604	5222.025
2907.32328	5226.225
2909.809	5248.125
2912.29319	5260.325
2914.77587	5251.525
2917.25702	5256.525
2919.73665	5238.725
2922.21476	5259.525
2924.69136	5220.825
2927.16644	5234.525
2929.64	5230.725
2932.11205	5211.425
2934.58258	5174.925
2937.05161	5181.325
2939.51912	5179.125
2941.98513	5170.425
2944.44962	5157.925
2946.91261	5118.025
2949.37409	5139.325
2951.83407	5126.325
2954.29254	5129.725
2956.74951	5119.025
2959.20498	5125.325
2961.65895	5130.525
2964.11142	5114.925
2966.56239	5094.525
2969.01186	5089.625
2971.45984	5079.925
2973.90632	5080.725
2976.35131	5081.225
2978.7948	5064.625
2981.23681	5033.825
2983.67732	5048.125
2986.11635	5036.125
2988.55388	5017.725
2990.98993	5001.025
2993.4245	4992.825
2995.85758	4997.725
2998.28917	4984.225
3000.71928	4964.225
3003.14791	4967.525
3005.57506	4958.825
3008.00073	4954.925
3010.42493	4955.525
3012.84764	4947.725
3015.26888	4931.825
3017.68865	4924.325
3020.10694	4946.025
3022.52376	4902.925
3024.9391	4906.025
3027.35298	4906.125
3029.76539	4893.125
3032.17632	4880.925
3034.5858	4858.425
3036.9938	4860.525
3039.40034	4871.625
3041.80542	4861.325
3044.20903	4857.525
3046.61118	4850.625
3049.01187	4833.225
3051.4111	4828.925
3053.80888	4834.325
3056.20519	4827.925
3058.60005	4799.825
3060.99345	4799.025
3063.3854	4788.025
3065.7759	4769.925
3068.16494	4777.425
3070.55254	4756.125
3072.93868	4745.525
3075.32338	4751.925
3077.70662	4748.925
3080.08842	4740.025
3082.46878	4730.825
3084.84769	4708.725
3087.22515	4730.825
3089.60118	4734.825
3091.97576	4739.825
3094.3489	4711.625
3096.72061	4718.925
3099.09087	4723.325
3101.4597	4721.125
3103.82709	4719.425
3106.19305	4714.625
3108.55757	4726.125
3110.92066	4712.525
3113.28232	4700.925
3115.64255	4708.125
3118.00134	4683.625
3120.35871	4686.525
3122.71466	4666.525
3125.06917	4661.325
3127.42226	4672.225
3129.77393	4676.425
3132.12417	4667.325
3134.47299	4665.425
3136.82039	4652.625
3139.16636	4654.825
3141.51092	4651.925
3143.85406	4665.325
3146.19579	4670.925
3148.53609	4672.625
3150.87499	4692.725
3153.21246	4694.325
3155.54853	4697.625
3157.88318	4708.025
3160.21642	4708.225
3162.54826	4700.925
3164.87868	4691.725
3167.2077	4698.225
3169.5353	4693.625
3171.86151	4703.625
3174.18631	4703.025
3176.5097	4704.125
3178.83169	4705.425
3181.15228	4688.425
3183.47147	4685.825
3185.78926	4695.225
3188.10565	4695.625
3190.42065	4688.125
