Data from AgNP_FTO_APTES_UA_100uM_CRN_2uM_R6G_10uM_NaF_0.1M_Addition_RamanShift__15__14-02-20-308.txt Node

Date: Thu Mar 24 14:02:20 GMT 2022
User: TCL
Spectrometer: QEP01345
Trigger mode: 4
Integration Time (sec): 7.000000E0
Scans to average: 10
Electric dark correction enabled: true
Nonlinearity correction enabled: false
Boxcar width: 0
XAxis mode: Raman Shifts
Number of Pixels in Spectrum: 1044
>>>>>Begin Spectral Data<<<<<
46.04893	-1.4375
50.45542	0.0625
54.85868	0.4625
59.25871	-0.0375
63.6555	40.4625
68.04907	44.0625
72.43941	42.4625
76.82654	43.8625
81.21044	50.9625
85.59113	51.4625
89.96862	54.5625
94.34289	51.0625
98.71396	54.8625
103.08183	54.0625
107.4465	54.6625
111.80798	59.4625
116.16626	61.0625
120.52136	63.3625
124.87327	63.1625
129.222	64.8625
133.56755	73.0625
137.90993	74.4625
142.24913	84.9625
146.58517	90.6625
150.91804	106.5625
155.24774	129.5625
159.57429	162.3625
163.89768	204.2625
168.21792	272.6625
172.53501	370.7625
176.84895	524.5625
181.15975	739.8625
185.46741	1039.8625
189.77193	1426.4625
194.07331	1927.9625
198.37157	2494.1625
202.6667	3081.4625
206.9587	3704.4625
211.24758	4283.9625
215.53334	4916.3625
219.81599	5588.8625
224.09553	6366.4625
228.37195	7218.6625
232.64527	8176.8625
236.91549	9111.6625
241.18261	10039.6625
245.44663	10773.4625
249.70755	11403.7625
253.96539	11907.9625
258.22014	12362.6625
262.4718	12763.4625
266.72039	13072.1625
270.96589	13206.9625
275.20832	13140.8625
279.44768	12984.4625
283.68397	12765.0625
287.91719	12622.0625
292.14735	12574.7625
296.37445	12738.0625
300.59849	13036.6625
304.81948	13453.9625
309.03742	13742.5625
313.25231	13781.4625
317.46415	13365.7625
321.67296	12684.0625
325.87872	12041.3625
330.08145	11707.8625
334.28114	11695.8625
338.47781	11860.8625
342.67145	12136.6625
346.86207	12461.8625
351.04966	12942.9625
355.23424	13506.5625
359.4158	13965.4625
363.59435	14192.4625
367.76989	14292.1625
371.94243	14282.1625
376.11196	14300.2625
380.27849	14245.9625
384.44203	14216.8625
388.60257	14163.0625
392.76012	14160.9625
396.91468	14239.2625
401.06626	14480.1625
405.21485	14698.7625
409.36047	14502.2625
413.50311	13928.1625
417.64277	13339.4625
421.77947	13012.0625
425.9132	12869.6625
430.04396	12867.6625
434.17176	12910.7625
438.2966	13046.1625
442.41849	13293.9625
446.53742	13632.9625
450.6534	13917.8625
454.76644	14169.0625
458.87653	14200.1625
462.98368	14107.3625
467.08789	13945.5625
471.18916	13746.1625
475.2875	13466.2625
479.38291	13264.9625
483.4754	13073.8625
487.56496	12909.8625
491.6516	12864.4625
495.73531	12849.3625
499.81612	12856.4625
503.89401	13009.4625
507.96899	13105.7625
512.04106	13194.6625
516.11023	13320.6625
520.1765	13378.7625
524.23987	13377.5625
528.30034	13276.6625
532.35792	13185.5625
536.41261	13031.7625
540.46441	12819.6625
544.51333	12702.1625
548.55936	12789.2625
552.60252	13047.2625
556.64279	13339.6625
560.6802	13497.6625
564.71473	13588.4625
568.7464	13869.5625
572.7752	14104.9625
576.80114	14000.1625
580.82422	13875.4625
584.84444	13961.1625
588.86181	14061.3625
592.87633	14221.4625
596.888	14344.8625
600.89682	14543.4625
604.9028	15732.4625
608.90594	19057.3625
612.90624	23198.3625
616.90371	22253.5625
620.89834	16527.2625
624.89015	13683.4625
628.87913	13158.0625
632.86528	13346.3625
636.84862	13589.8625
640.82913	13446.9625
644.80683	12887.5625
648.78172	12498.2625
652.75379	12477.0625
656.72306	12861.2625
660.68952	13360.4625
664.65319	13273.2625
668.61405	12785.2625
672.57211	12601.4625
676.52738	12624.9625
680.47986	12593.0625
684.42955	12434.8625
688.37646	12316.0625
692.32058	12341.8625
696.26192	12441.3625
700.20048	12595.3625
704.13626	12746.2625
708.06928	12702.1625
711.99952	12603.6625
715.927	12544.7625
719.85171	12653.6625
723.77365	12657.0625
727.69284	12579.0625
731.60928	12460.0625
735.52295	12438.1625
739.43388	12462.4625
743.34206	12496.0625
747.24749	12546.9625
751.15017	12572.2625
755.05012	12715.7625
758.94733	13174.8625
762.8418	14431.3625
766.73354	16595.3625
770.62254	18843.2625
774.50882	19881.5625
778.39237	19032.0625
782.27321	16854.0625
786.15132	14713.2625
790.02671	13379.3625
793.89938	12732.1625
797.76935	12438.7625
801.6366	12314.0625
805.50115	12246.7625
809.36299	12162.4625
813.22213	12114.2625
817.07857	12067.2625
820.93231	12017.5625
824.78336	12020.4625
828.63172	12037.4625
832.47738	12032.2625
836.32036	12023.7625
840.16066	11967.0625
843.99827	11952.7625
847.8332	11929.2625
851.66546	11922.3625
855.49504	11951.6625
859.32195	11981.3625
863.1462	11962.6625
866.96777	11921.8625
870.78668	11919.0625
874.60293	11943.6625
878.41652	11982.5625
882.22745	12075.0625
886.03573	12099.4625
889.84136	12098.7625
893.64433	12060.0625
897.44466	11967.1625
901.24235	11931.4625
905.0374	11876.2625
908.8298	11823.6625
912.61957	11783.3625
916.40671	11794.4625
920.19121	11893.1625
923.97308	12005.6625
927.75233	12109.0625
931.52895	12169.9625
935.30295	12060.5625
939.07433	11790.0625
942.84309	11575.0625
946.60924	11416.2625
950.37278	11334.5625
954.13371	11336.3625
957.89203	11261.7625
961.64774	11282.0625
965.40086	11224.1625
969.15137	11212.1625
972.89929	11192.3625
976.64461	11184.7625
980.38733	11178.8625
984.12747	11193.4625
987.86502	11258.2625
991.59999	11338.8625
995.33237	11461.8625
999.06217	11636.5625
1002.78939	11903.3625
1006.51404	12133.5625
1010.23611	12360.2625
1013.95561	12506.2625
1017.67255	12518.3625
1021.38692	12388.4625
1025.09872	12188.4625
1028.80796	12041.9625
1032.51465	12069.2625
1036.21877	12178.9625
1039.92035	12258.3625
1043.61937	12251.9625
1047.31584	12254.4625
1051.00976	12217.4625
1054.70114	12207.6625
1058.38998	12198.1625
1062.07627	12240.3625
1065.76003	12327.4625
1069.44126	12452.0625
1073.11995	12621.7625
1076.79611	12854.5625
1080.46974	13064.2625
1084.14085	13325.2625
1087.80943	13584.6625
1091.47549	13721.6625
1095.13903	13601.3625
1098.80005	13283.1625
1102.45857	13001.9625
1106.11456	12866.6625
1109.76805	12906.7625
1113.41903	13110.1625
1117.06751	13441.5625
1120.71348	13890.7625
1124.35696	14352.8625
1127.99793	14780.7625
1131.63641	14744.1625
1135.2724	14251.7625
1138.90589	13757.3625
1142.5369	13421.2625
1146.16542	13192.2625
1149.79145	13033.9625
1153.415	12974.1625
1157.03607	13027.2625
1160.65467	13312.4625
1164.27079	13780.1625
1167.88443	14482.6625
1171.49561	15594.2625
1175.10432	17179.3625
1178.71056	19311.4625
1182.31434	21200.5625
1185.91565	21834.5625
1189.51451	21385.9625
1193.11091	20296.1625
1196.70485	18919.4625
1200.29634	17788.7625
1203.88538	16903.8625
1207.47197	15963.1625
1211.05612	15129.7625
1214.63782	14581.3625
1218.21708	14336.5625
1221.79391	14279.7625
1225.36829	14315.6625
1228.94024	14304.5625
1232.50976	14131.2625
1236.07685	13994.4625
1239.6415	13936.5625
1243.20374	13951.5625
1246.76355	14046.8625
1250.32093	14219.6625
1253.8759	14476.7625
1257.42845	14847.5625
1260.97859	15309.0625
1264.52631	15848.8625
1268.07163	16430.3625
1271.61453	16938.0625
1275.15503	17332.0625
1278.69312	17608.2625
1282.22882	17841.7625
1285.76211	18152.2625
1289.29301	18637.8625
1292.82151	19296.9625
1296.34761	20019.8625
1299.87133	21123.2625
1303.39266	22744.4625
1306.9116	25044.7625
1310.42815	27435.3625
1313.94233	28760.9625
1317.45412	27951.2625
1320.96354	26203.6625
1324.47058	24361.9625
1327.97525	22818.2625
1331.47754	21710.4625
1334.97747	21223.9625
1338.47502	21179.7625
1341.97022	21513.2625
1345.46305	22318.6625
1348.95352	23541.6625
1352.44163	25184.3625
1355.92738	27445.2625
1359.41078	30819.8625
1362.89183	34059.4625
1366.37053	33178.1625
1369.84688	28360.6625
1373.32088	23471.8625
1376.79254	20524.8625
1380.26186	18961.0625
1383.72883	18095.4625
1387.19347	17480.4625
1390.65578	16905.6625
1394.11575	16411.6625
1397.57339	16155.2625
1401.0287	16065.8625
1404.48168	16046.7625
1407.93234	16019.0625
1411.38068	15981.3625
1414.82669	15898.7625
1418.27039	15758.7625
1421.71177	15513.1625
1425.15083	15195.9625
1428.58758	15029.0625
1432.02203	15111.6625
1435.45416	15405.7625
1438.88399	15636.5625
1442.31151	15711.1625
1445.73673	15835.5625
1449.15965	15956.7625
1452.58027	15971.8625
1455.9986	15929.3625
1459.41463	15999.4625
1462.82837	16240.0625
1466.23982	16641.9625
1469.64898	17046.6625
1473.05586	17405.8625
1476.46045	17619.4625
1479.86276	17769.8625
1483.26279	17994.6625
1486.66054	18309.6625
1490.05602	18781.0625
1493.44922	19634.8625
1496.84016	20969.6625
1500.22882	23091.6625
1503.61521	26024.0625
1506.99934	29268.4625
1510.38121	31719.7625
1513.76081	31903.3625
1517.13816	29487.2625
1520.51324	25827.8625
1523.88607	22614.3625
1527.25665	20529.9625
1530.62498	19377.2625
1533.99105	18669.4625
1537.35488	18207.2625
1540.71647	17836.4625
1544.07581	17543.6625
1547.4329	17279.6625
1550.78776	17108.1625
1554.14038	17073.2625
1557.49077	17177.0625
1560.83892	17469.6625
1564.18484	17988.4625
1567.52853	18606.1625
1570.86999	19107.5625
1574.20922	19477.9625
1577.54624	19316.9625
1580.88103	18379.6625
1584.2136	17164.2625
1587.54395	16451.2625
1590.87208	16520.1625
1594.19801	17341.7625
1597.52172	18536.4625
1600.84321	19108.5625
1604.16251	18597.7625
1607.47959	17624.0625
1610.79447	16592.8625
1614.10715	15453.1625
1617.41763	14470.5625
1620.7259	13751.7625
1624.03199	13348.2625
1627.33587	13277.4625
1630.63757	13499.0625
1633.93707	14126.1625
1637.23439	15264.3625
1640.52951	17138.7625
1643.82246	19744.5625
1647.11321	22649.5625
1650.40179	24393.7625
1653.68819	23542.0625
1656.97241	20416.8625
1660.25446	17004.0625
1663.53433	14522.9625
1666.81203	13053.0625
1670.08756	12171.2625
1673.36092	11645.6625
1676.63211	11303.0625
1679.90115	11073.8625
1683.16801	10891.1625
1686.43272	10737.6625
1689.69527	10657.6625
1692.95567	10571.5625
1696.2139	10526.4625
1699.46999	10494.1625
1702.72392	10426.4625
1705.97571	10423.7625
1709.22535	10414.8625
1712.47284	10404.6625
1715.71819	10367.9625
1718.96139	10341.1625
1722.20246	10307.2625
1725.44139	10263.0625
1728.67818	10150.1625
1731.91284	10087.5625
1735.14537	10009.1625
1738.37576	9952.5625
1741.60403	9904.1625
1744.83017	9874.1625
1748.05418	9857.8625
1751.27607	9840.5625
1754.49584	9823.4625
1757.71349	9797.5625
1760.92903	9775.7625
1764.14244	9772.8625
1767.35375	9759.4625
1770.56294	9729.6625
1773.77002	9708.2625
1776.97499	9657.1625
1780.17785	9673.1625
1783.37861	9633.6625
1786.57727	9621.3625
1789.77382	9579.4625
1792.96828	9562.2625
1796.16064	9547.6625
1799.3509	9541.4625
1802.53907	9517.3625
1805.72514	9461.9625
1808.90913	9467.7625
1812.09102	9421.2625
1815.27083	9405.0625
1818.44856	9370.4625
1821.6242	9366.6625
1824.79776	9341.9625
1827.96924	9343.1625
1831.13864	9322.2625
1834.30597	9296.7625
1837.47122	9296.5625
1840.6344	9257.2625
1843.7955	9264.7625
1846.95454	9251.4625
1850.11151	9234.6625
1853.26642	9218.4625
1856.41926	9193.5625
1859.57004	9192.9625
1862.71876	9194.4625
1865.86542	9190.4625
1869.01003	9182.7625
1872.15258	9156.9625
1875.29308	9159.4625
1878.43152	9133.0625
1881.56792	9130.4625
1884.70227	9140.6625
1887.83457	9128.0625
1890.96482	9135.2625
1894.09304	9128.4625
1897.21921	9089.7625
1900.34335	9109.0625
1903.46544	9103.8625
1906.58551	9091.9625
1909.70353	9098.5625
1912.81953	9067.4625
1915.93349	9054.1625
1919.04543	9038.6625
1922.15534	9021.4625
1925.26322	8997.1625
1928.36908	8987.2625
1931.47292	8945.2625
1934.57473	8915.2625
1937.67453	8902.3625
1940.77232	8897.4625
1943.86808	8874.3625
1946.96184	8831.0625
1950.05358	8819.2625
1953.14331	8805.3625
1956.23103	8770.3625
1959.31675	8754.0625
1962.40046	8742.0625
1965.48217	8730.6625
1968.56188	8736.3625
1971.63959	8692.6625
1974.7153	8678.3625
1977.78901	8625.8625
1980.86073	8604.3625
1983.93046	8587.2625
1986.99819	8545.9625
1990.06394	8507.8625
1993.1277	8465.2625
1996.18947	8442.6625
1999.24925	8418.1625
2002.30706	8388.0625
2005.36288	8350.3625
2008.41672	8327.7625
2011.46859	8278.7625
2014.51848	8296.4625
2017.56639	8280.1625
2020.61233	8243.0625
2023.6563	8222.5625
2026.6983	8199.3625
2029.73833	8186.8625
2032.7764	8154.2625
2035.8125	8146.4625
2038.84664	8109.0625
2041.87881	8106.7625
2044.90903	8089.1625
2047.93729	8086.0625
2050.96359	8070.6625
2053.98794	8048.0625
2057.01034	8038.2625
2060.03078	8000.9625
2063.04927	8005.4625
2066.06582	7996.7625
2069.08042	7974.5625
2072.09307	7976.0625
2075.10378	7969.4625
2078.11255	7978.4625
2081.11938	7995.9625
2084.12426	7954.9625
2087.12722	7976.5625
2090.12824	7975.9625
2093.12732	7981.9625
2096.12447	8002.8625
2099.11969	7971.0625
2102.11299	7972.3625
2105.10435	7978.3625
2108.09379	7969.2625
2111.08131	7990.5625
2114.0669	8002.9625
2117.05057	8007.2625
2120.03233	8003.2625
2123.01216	8015.0625
2125.99008	8018.8625
2128.96609	8005.9625
2131.94018	8028.7625
2134.91236	8048.0625
2137.88263	8011.8625
2140.851	8019.3625
2143.81746	8037.2625
2146.78201	8031.1625
2149.74466	8043.3625
2152.7054	8011.0625
2155.66425	8034.7625
2158.6212	8020.2625
2161.57625	8022.2625
2164.52941	8025.6625
2167.48067	8014.6625
2170.43004	7999.3625
2173.37752	8001.1625
2176.32311	7984.4625
2179.26681	7987.9625
2182.20863	7965.2625
2185.14856	7985.6625
2188.08661	7968.6625
2191.02278	7992.8625
2193.95707	7968.3625
2196.88948	7944.3625
2199.82001	7939.8625
2202.74867	7936.6625
2205.67545	7935.9625
2208.60037	7941.1625
2211.52341	7910.7625
2214.44458	7902.5625
2217.36388	7888.3625
2220.28132	7887.8625
2223.1969	7884.0625
2226.11061	7846.7625
2229.02246	7833.5625
2231.93245	7831.6625
2234.84058	7789.4625
2237.74686	7766.1625
2240.65128	7742.2625
2243.55385	7769.7625
2246.45456	7747.8625
2249.35343	7750.7625
2252.25044	7740.4625
2255.14561	7742.6625
2258.03893	7744.2625
2260.93041	7756.9625
2263.82004	7727.7625
2266.70783	7700.5625
2269.59378	7686.7625
2272.4779	7659.3625
2275.36017	7651.1625
2278.24061	7651.4625
2281.11922	7617.1625
2283.996	7605.3625
2286.87094	7604.6625
2289.74405	7560.0625
2292.61534	7579.6625
2295.4848	7552.7625
2298.35243	7551.7625
2301.21824	7529.2625
2304.08223	7532.8625
2306.94439	7535.9625
2309.80474	7513.2625
2312.66327	7511.8625
2315.51999	7513.4625
2318.37489	7497.4625
2321.22797	7511.0625
2324.07925	7494.9625
2326.92871	7486.2625
2329.77637	7501.8625
2332.62222	7471.5625
2335.46626	7453.9625
2338.3085	7462.5625
2341.14893	7481.3625
2343.98756	7462.9625
2346.8244	7464.1625
2349.65943	7446.9625
2352.49267	7448.5625
2355.32411	7454.3625
2358.15376	7468.3625
2360.98161	7481.6625
2363.80768	7482.3625
2366.63195	7491.3625
2369.45444	7487.2625
2372.27514	7466.4625
2375.09405	7461.2625
2377.91118	7453.1625
2380.72652	7425.9625
2383.54009	7391.8625
2386.35187	7384.7625
2389.16188	7346.4625
2391.97011	7347.3625
2394.77657	7338.5625
2397.58125	7314.5625
2400.38416	7297.5625
2403.18529	7274.4625
2405.98466	7263.8625
2408.78226	7229.1625
2411.57809	7226.6625
2414.37216	7213.1625
2417.16446	7200.7625
2419.955	7200.8625
2422.74378	7194.0625
2425.5308	7195.5625
2428.31606	7199.8625
2431.09956	7211.4625
2433.88131	7179.9625
2436.6613	7175.6625
2439.43954	7172.7625
2442.21603	7173.9625
2444.99077	7170.8625
2447.76377	7191.2625
2450.53501	7176.8625
2453.30451	7186.8625
2456.07226	7170.8625
2458.83827	7173.6625
2461.60254	7134.9625
2464.36507	7159.9625
2467.12586	7155.9625
2469.88492	7171.8625
2472.64224	7169.5625
2475.39782	7177.5625
2478.15167	7190.2625
2480.90379	7157.6625
2483.65417	7179.0625
2486.40283	7198.1625
2489.14976	7208.2625
2491.89497	7203.1625
2494.63845	7201.7625
2497.3802	7192.8625
2500.12024	7195.7625
2502.85855	7176.6625
2505.59514	7167.9625
2508.33002	7145.5625
2511.06318	7128.8625
2513.79462	7115.7625
2516.52435	7096.4625
2519.25237	7071.3625
2521.97867	7049.1625
2524.70327	7071.0625
2527.42616	7060.1625
2530.14734	7044.4625
2532.86681	7019.8625
2535.58458	7020.4625
2538.30065	6998.9625
2541.01501	7007.8625
2543.72768	7000.7625
2546.43864	6977.0625
2549.14791	6984.8625
2551.85548	6975.6625
2554.56136	6973.9625
2557.26554	6949.9625
2559.96803	6954.0625
2562.66883	6942.8625
2565.36794	6943.6625
2568.06536	6942.6625
2570.7611	6944.3625
2573.45514	6918.2625
2576.14751	6909.9625
2578.83819	6908.9625
2581.52719	6897.4625
2584.21451	6858.7625
2586.90015	6870.7625
2589.58411	6848.5625
2592.2664	6845.1625
2594.94701	6845.2625
2597.62594	6831.1625
2600.30321	6811.6625
2602.9788	6807.6625
2605.65273	6801.6625
2608.32498	6815.9625
2610.99557	6803.2625
2613.66449	6780.4625
2616.33175	6790.6625
2618.99734	6782.4625
2621.66128	6780.0625
2624.32355	6761.5625
2626.98416	6779.5625
2629.64311	6754.5625
2632.30041	6762.9625
2634.95605	6755.0625
2637.61004	6742.5625
2640.26238	6719.4625
2642.91306	6729.9625
2645.56209	6716.2625
2648.20948	6718.7625
2650.85521	6705.4625
2653.4993	6721.4625
2656.14175	6724.3625
2658.78255	6731.5625
2661.42171	6709.1625
2664.05923	6709.4625
2666.6951	6739.4625
2669.32934	6747.1625
2671.96194	6731.6625
2674.59291	6713.5625
2677.22224	6715.0625
2679.84993	6728.6625
2682.476	6726.8625
2685.10043	6727.3625
2687.72324	6715.5625
2690.34441	6718.3625
2692.96396	6737.5625
2695.58188	6720.2625
2698.19818	6708.7625
2700.81285	6703.8625
2703.4259	6691.1625
2706.03733	6715.6625
2708.64714	6706.3625
2711.25533	6741.1625
2713.86191	6722.4625
2716.46687	6711.0625
2719.07021	6724.0625
2721.67194	6710.3625
2724.27206	6702.9625
2726.87057	6725.2625
2729.46747	6714.7625
2732.06276	6726.7625
2734.65644	6690.1625
2737.24852	6713.7625
2739.83899	6706.7625
2742.42786	6703.9625
2745.01513	6676.1625
2747.60079	6670.1625
2750.18486	6661.5625
2752.76733	6675.7625
2755.3482	6646.2625
2757.92747	6650.3625
2760.50515	6631.1625
2763.08123	6612.8625
2765.65573	6620.8625
2768.22863	6651.9625
2770.79994	6615.3625
2773.36967	6620.8625
2775.9378	6604.1625
2778.50435	6613.8625
2781.06932	6593.3625
2783.6327	6579.7625
2786.1945	6578.8625
2788.75471	6562.0625
2791.31335	6554.0625
2793.87041	6573.9625
2796.42589	6523.2625
2798.97979	6542.1625
2801.53212	6518.0625
2804.08288	6528.9625
2806.63206	6512.7625
2809.17967	6522.9625
2811.72571	6518.0625
2814.27018	6515.3625
2816.81308	6514.5625
2819.35442	6492.4625
2821.89419	6507.6625
2824.43239	6512.2625
2826.96904	6501.5625
2829.50412	6483.8625
2832.03763	6480.2625
2834.56959	6485.9625
2837.1	6449.9625
2839.62884	6453.3625
2842.15613	6448.6625
2844.68186	6460.5625
2847.20604	6469.2625
2849.72867	6470.3625
2852.24974	6471.4625
2854.76927	6450.5625
2857.28724	6436.4625
2859.80367	6437.7625
2862.31855	6422.4625
2864.83189	6452.6625
2867.34368	6469.2625
2869.85393	6468.4625
2872.36264	6448.9625
2874.8698	6462.1625
2877.37543	6472.8625
2879.87952	6474.8625
2882.38207	6454.8625
2884.88308	6451.5625
2887.38256	6465.9625
2889.88051	6451.7625
2892.37692	6455.8625
2894.8718	6457.1625
2897.36515	6437.2625
2899.85698	6447.8625
2902.34727	6443.6625
2904.83604	6462.5625
2907.32328	6481.2625
2909.809	6469.6625
2912.29319	6462.0625
2914.77587	6470.8625
2917.25702	6461.4625
2919.73665	6442.3625
2922.21476	6441.1625
2924.69136	6440.2625
2927.16644	6448.7625
2929.64	6423.2625
2932.11205	6408.5625
2934.58258	6393.9625
2937.05161	6398.3625
2939.51912	6394.9625
2941.98513	6385.2625
2944.44962	6365.3625
2946.91261	6366.1625
2949.37409	6357.9625
2951.83407	6364.3625
2954.29254	6353.0625
2956.74951	6334.3625
2959.20498	6332.6625
2961.65895	6321.6625
2964.11142	6317.1625
2966.56239	6315.8625
2969.01186	6295.1625
2971.45984	6279.6625
2973.90632	6281.8625
2976.35131	6250.7625
2978.7948	6262.3625
2981.23681	6251.2625
2983.67732	6235.5625
2986.11635	6225.3625
2988.55388	6211.7625
2990.98993	6210.9625
2993.4245	6190.7625
2995.85758	6193.5625
2998.28917	6185.8625
3000.71928	6162.9625
3003.14791	6149.1625
3005.57506	6155.5625
3008.00073	6148.5625
3010.42493	6152.2625
3012.84764	6163.7625
3015.26888	6132.4625
3017.68865	6124.4625
3020.10694	6125.3625
3022.52376	6101.3625
3024.9391	6091.3625
3027.35298	6085.5625
3029.76539	6077.8625
3032.17632	6057.4625
3034.5858	6068.8625
3036.9938	6064.2625
3039.40034	6032.0625
3041.80542	6019.8625
3044.20903	5996.7625
3046.61118	6002.7625
3049.01187	5987.2625
3051.4111	5958.3625
3053.80888	5968.1625
3056.20519	5962.3625
3058.60005	5935.3625
3060.99345	5950.9625
3063.3854	5936.9625
3065.7759	5907.3625
3068.16494	5914.1625
3070.55254	5904.4625
3072.93868	5885.9625
3075.32338	5858.2625
3077.70662	5874.3625
3080.08842	5868.3625
