Data from AgNP_FTO_APTES_UA_100uM_CRN_0uM_R6G_10uM_NaF_0.1M_Addition_RamanShift__4__10-49-50-085.txt Node

Date: Thu Mar 24 10:49:50 GMT 2022
User: TCL
Spectrometer: QEP01345
Trigger mode: 4
Integration Time (sec): 7.000000E0
Scans to average: 10
Electric dark correction enabled: true
Nonlinearity correction enabled: false
Boxcar width: 0
XAxis mode: Raman Shifts
Number of Pixels in Spectrum: 1044
>>>>>Begin Spectral Data<<<<<
46.04893	-1.1625
50.45542	0.8375
54.85868	-0.2625
59.25871	0.0375
63.6555	37.8375
68.04907	40.6375
72.43941	43.1375
76.82654	41.8375
81.21044	46.9375
85.59113	46.5375
89.96862	51.6375
94.34289	49.1375
98.71396	53.0375
103.08183	52.7375
107.4465	53.4375
111.80798	57.2375
116.16626	55.6375
120.52136	59.8375
124.87327	59.9375
129.222	62.9375
133.56755	68.8375
137.90993	74.3375
142.24913	81.9375
146.58517	88.1375
150.91804	107.5375
155.24774	128.8375
159.57429	160.8375
163.89768	207.9375
168.21792	277.0375
172.53501	381.6375
176.84895	530.9375
181.15975	747.8375
185.46741	1039.8375
189.77193	1444.7375
194.07331	1925.5375
198.37157	2487.0375
202.6667	3085.4375
206.9587	3661.5375
211.24758	4260.2375
215.53334	4903.0375
219.81599	5617.1375
224.09553	6441.8375
228.37195	7362.7375
232.64527	8379.2375
236.91549	9372.8375
241.18261	10238.5375
245.44663	10889.6375
249.70755	11366.5375
253.96539	11680.2375
258.22014	11921.5375
262.4718	12184.9375
266.72039	12280.1375
270.96589	12264.2375
275.20832	12101.7375
279.44768	11863.1375
283.68397	11561.7375
287.91719	11421.2375
292.14735	11449.0375
296.37445	11763.3375
300.59849	12376.7375
304.81948	13181.7375
309.03742	13886.2375
313.25231	14148.4375
317.46415	13737.2375
321.67296	12775.8375
325.87872	11863.2375
330.08145	11362.3375
334.28114	11336.3375
338.47781	11537.7375
342.67145	11851.1375
346.86207	12284.2375
351.04966	13002.9375
355.23424	13855.1375
359.4158	14455.2375
363.59435	14693.4375
367.76989	14715.8375
371.94243	14574.5375
376.11196	14431.1375
380.27849	14268.0375
384.44203	14084.2375
388.60257	13845.9375
392.76012	13653.3375
396.91468	13733.1375
401.06626	14084.2375
405.21485	14369.8375
409.36047	14048.8375
413.50311	13114.3375
417.64277	12193.8375
421.77947	11743.7375
425.9132	11550.7375
430.04396	11589.1375
434.17176	11736.6375
438.2966	12070.7375
442.41849	12730.3375
446.53742	13673.6375
450.6534	14531.0375
454.76644	14845.4375
458.87653	14460.2375
462.98368	13623.9375
467.08789	12839.9375
471.18916	12219.4375
475.2875	11634.8375
479.38291	11135.9375
483.4754	10793.0375
487.56496	10569.8375
491.6516	10428.1375
495.73531	10395.8375
499.81612	10464.2375
503.89401	10613.4375
507.96899	10834.5375
512.04106	11015.8375
516.11023	11239.6375
520.1765	11477.1375
524.23987	11624.7375
528.30034	11645.3375
532.35792	11593.3375
536.41261	11202.1375
540.46441	10663.3375
544.51333	10303.0375
548.55936	10264.1375
552.60252	10625.5375
556.64279	11205.8375
560.6802	11623.7375
564.71473	11797.5375
568.7464	12215.9375
572.7752	12651.2375
576.80114	12312.1375
580.82422	11851.3375
584.84444	12159.9375
588.86181	13338.2375
592.87633	15125.2375
596.888	16015.7375
600.89682	14941.0375
604.9028	14910.6375
608.90594	19087.7375
612.90624	25428.6375
616.90371	24899.9375
620.89834	16148.0375
624.89015	11422.8375
628.87913	10518.1375
632.86528	10639.1375
636.84862	10886.5375
640.82913	10604.5375
644.80683	9854.2375
648.78172	9285.0375
652.75379	9251.0375
656.72306	9778.9375
660.68952	10542.7375
664.65319	10507.3375
668.61405	9752.8375
672.57211	9402.0375
676.52738	9451.8375
680.47986	9404.8375
684.42955	9141.6375
688.37646	8918.6375
692.32058	8892.7375
696.26192	9082.6375
700.20048	9306.2375
704.13626	9498.6375
708.06928	9505.5375
711.99952	9382.7375
715.927	9358.9375
719.85171	9426.3375
723.77365	9483.4375
727.69284	9337.4375
731.60928	9207.7375
735.52295	9253.9375
739.43388	9371.7375
743.34206	9470.3375
747.24749	9483.6375
751.15017	9536.8375
755.05012	9706.9375
758.94733	10373.7375
762.8418	12098.7375
766.73354	15262.2375
770.62254	18676.8375
774.50882	20436.6375
778.39237	19554.5375
782.27321	16453.5375
786.15132	13040.7375
790.02671	10886.8375
793.89938	9853.5375
797.76935	9418.6375
801.6366	9223.0375
805.50115	9065.7375
809.36299	8978.3375
813.22213	8825.6375
817.07857	8774.7375
820.93231	8731.0375
824.78336	8758.4375
828.63172	8870.2375
832.47738	8914.6375
836.32036	8883.5375
840.16066	8800.4375
843.99827	8762.7375
847.8332	8718.8375
851.66546	8717.0375
855.49504	8716.2375
859.32195	8718.8375
863.1462	8677.7375
866.96777	8627.1375
870.78668	8617.0375
874.60293	8640.3375
878.41652	8651.7375
882.22745	8744.7375
886.03573	8850.4375
889.84136	8847.7375
893.64433	8790.5375
897.44466	8750.4375
901.24235	8708.1375
905.0374	8633.6375
908.8298	8532.3375
912.61957	8432.1375
916.40671	8466.9375
920.19121	8564.2375
923.97308	8805.0375
927.75233	9066.3375
931.52895	9230.8375
935.30295	9048.6375
939.07433	8591.3375
942.84309	8189.5375
946.60924	7982.8375
950.37278	7863.8375
954.13371	7807.0375
957.89203	7730.5375
961.64774	7693.2375
965.40086	7616.7375
969.15137	7567.7375
972.89929	7518.3375
976.64461	7499.1375
980.38733	7518.1375
984.12747	7523.5375
987.86502	7575.1375
991.59999	7701.4375
995.33237	7929.3375
999.06217	8347.7375
1002.78939	8816.9375
1006.51404	9164.8375
1010.23611	9375.6375
1013.95561	9544.2375
1017.67255	9533.3375
1021.38692	9200.2375
1025.09872	8725.5375
1028.80796	8441.9375
1032.51465	8413.0375
1036.21877	8538.7375
1039.92035	8602.9375
1043.61937	8625.2375
1047.31584	8650.8375
1051.00976	8621.7375
1054.70114	8595.2375
1058.38998	8541.3375
1062.07627	8503.0375
1065.76003	8495.2375
1069.44126	8538.2375
1073.11995	8797.8375
1076.79611	9139.2375
1080.46974	9496.7375
1084.14085	9981.3375
1087.80943	10539.1375
1091.47549	10668.6375
1095.13903	10344.3375
1098.80005	9696.0375
1102.45857	9209.6375
1106.11456	9029.3375
1109.76805	9168.7375
1113.41903	9512.7375
1117.06751	10038.8375
1120.71348	10770.0375
1124.35696	11633.5375
1127.99793	12342.1375
1131.63641	12235.6375
1135.2724	11396.8375
1138.90589	10551.6375
1142.5369	10088.1375
1146.16542	9810.9375
1149.79145	9661.6375
1153.415	9573.6375
1157.03607	9602.9375
1160.65467	9815.3375
1164.27079	10412.8375
1167.88443	11534.7375
1171.49561	13363.4375
1175.10432	16220.7375
1178.71056	19864.5375
1182.31434	22753.5375
1185.91565	23339.1375
1189.51451	22023.5375
1193.11091	20054.5375
1196.70485	18040.7375
1200.29634	16318.2375
1203.88538	14677.0375
1207.47197	13030.2375
1211.05612	11856.4375
1214.63782	11429.7375
1218.21708	11674.6375
1221.79391	12250.5375
1225.36829	12498.1375
1228.94024	12053.8375
1232.50976	11312.1375
1236.07685	10774.3375
1239.6415	10581.6375
1243.20374	10514.6375
1246.76355	10532.0375
1250.32093	10677.8375
1253.8759	11008.8375
1257.42845	11565.7375
1260.97859	12271.0375
1264.52631	13071.6375
1268.07163	13859.8375
1271.61453	14495.8375
1275.15503	15012.5375
1278.69312	15382.9375
1282.22882	15824.8375
1285.76211	16657.9375
1289.29301	17879.4375
1292.82151	19183.1375
1296.34761	20625.6375
1299.87133	22494.8375
1303.39266	25133.0375
1306.9116	28985.9375
1310.42815	33514.4375
1313.94233	36286.7375
1317.45412	35183.3375
1320.96354	31197.4375
1324.47058	26650.5375
1327.97525	23095.1375
1331.47754	21061.7375
1334.97747	20368.8375
1338.47502	20345.9375
1341.97022	20651.3375
1345.46305	21328.9375
1348.95352	23044.6375
1352.44163	26093.9375
1355.92738	30605.8375
1359.41078	36709.3375
1362.89183	41862.8375
1366.37053	40738.6375
1369.84688	33566.4375
1373.32088	25940.9375
1376.79254	21132.1375
1380.26186	18763.6375
1383.72883	17417.0375
1387.19347	16380.9375
1390.65578	15443.5375
1394.11575	15010.1375
1397.57339	15103.4375
1401.0287	15444.1375
1404.48168	15747.4375
1407.93234	15814.2375
1411.38068	15607.5375
1414.82669	15253.1375
1418.27039	14758.8375
1421.71177	14181.4375
1425.15083	13702.6375
1428.58758	13566.5375
1432.02203	13909.6375
1435.45416	14362.8375
1438.88399	14594.8375
1442.31151	14614.3375
1445.73673	14641.2375
1449.15965	14744.6375
1452.58027	14634.2375
1455.9986	14240.5375
1459.41463	14103.7375
1462.82837	14474.0375
1466.23982	15166.4375
1469.64898	15866.8375
1473.05586	16346.6375
1476.46045	16597.0375
1479.86276	16799.2375
1483.26279	17004.6375
1486.66054	17308.2375
1490.05602	17935.5375
1493.44922	18802.6375
1496.84016	20043.9375
1500.22882	22204.9375
1503.61521	25492.5375
1506.99934	29482.5375
1510.38121	33305.6375
1513.76081	34919.6375
1517.13816	32463.7375
1520.51324	27268.4375
1523.88607	22469.3375
1527.25665	19579.6375
1530.62498	18218.6375
1533.99105	17470.6375
1537.35488	16855.0375
1540.71647	16282.7375
1544.07581	15719.5375
1547.4329	15240.1375
1550.78776	14818.4375
1554.14038	14499.0375
1557.49077	14388.1375
1560.83892	14561.1375
1564.18484	15137.5375
1567.52853	15956.6375
1570.86999	16768.7375
1574.20922	17220.1375
1577.54624	17193.4375
1580.88103	16094.6375
1584.2136	14399.7375
1587.54395	13581.2375
1590.87208	14057.7375
1594.19801	15928.9375
1597.52172	18568.3375
1600.84321	20322.8375
1604.16251	19781.0375
1607.47959	17507.6375
1610.79447	14632.1375
1614.10715	12273.8375
1617.41763	10666.9375
1620.7259	9763.7375
1624.03199	9341.2375
1627.33587	9399.8375
1630.63757	9825.1375
1633.93707	10793.6375
1637.23439	12598.8375
1640.52951	15704.5375
1643.82246	20189.8375
1647.11321	24933.5375
1650.40179	27406.1375
1653.68819	25525.9375
1656.97241	20419.5375
1660.25446	15107.0375
1663.53433	11456.8375
1666.81203	9414.4375
1670.08756	8289.1375
1673.36092	7652.7375
1676.63211	7247.4375
1679.90115	6972.9375
1683.16801	6793.8375
1686.43272	6663.2375
1689.69527	6563.6375
1692.95567	6516.0375
1696.2139	6476.7375
1699.46999	6453.6375
1702.72392	6418.8375
1705.97571	6398.6375
1709.22535	6367.3375
1712.47284	6364.1375
1715.71819	6358.1375
1718.96139	6328.6375
1722.20246	6268.4375
1725.44139	6256.1375
1728.67818	6149.6375
1731.91284	6068.9375
1735.14537	6009.8375
1738.37576	5947.7375
1741.60403	5925.0375
1744.83017	5887.1375
1748.05418	5859.7375
1751.27607	5814.6375
1754.49584	5790.4375
1757.71349	5785.4375
1760.92903	5766.4375
1764.14244	5745.1375
1767.35375	5755.6375
1770.56294	5715.8375
1773.77002	5670.5375
1776.97499	5627.6375
1780.17785	5594.5375
1783.37861	5568.0375
1786.57727	5548.2375
1789.77382	5527.5375
1792.96828	5521.7375
1796.16064	5513.4375
1799.3509	5504.8375
1802.53907	5473.4375
1805.72514	5452.6375
1808.90913	5427.4375
1812.09102	5409.8375
1815.27083	5371.6375
1818.44856	5369.5375
1821.6242	5347.4375
1824.79776	5330.3375
1827.96924	5307.1375
1831.13864	5294.9375
1834.30597	5284.4375
1837.47122	5296.0375
1840.6344	5255.4375
1843.7955	5251.2375
1846.95454	5246.7375
1850.11151	5237.5375
1853.26642	5258.1375
1856.41926	5248.0375
1859.57004	5248.0375
1862.71876	5259.9375
1865.86542	5244.7375
1869.01003	5274.6375
1872.15258	5265.1375
1875.29308	5276.1375
1878.43152	5279.7375
1881.56792	5294.3375
1884.70227	5275.7375
1887.83457	5268.3375
1890.96482	5286.0375
1894.09304	5285.8375
1897.21921	5306.0375
1900.34335	5296.8375
1903.46544	5292.2375
1906.58551	5306.7375
1909.70353	5287.7375
1912.81953	5265.3375
1915.93349	5244.7375
1919.04543	5227.8375
1922.15534	5201.2375
1925.26322	5177.0375
1928.36908	5133.3375
1931.47292	5111.3375
1934.57473	5091.8375
1937.67453	5042.3375
1940.77232	5033.9375
1943.86808	5005.4375
1946.96184	4984.7375
1950.05358	4961.4375
1953.14331	4929.9375
1956.23103	4930.0375
1959.31675	4892.2375
1962.40046	4891.1375
1965.48217	4882.8375
1968.56188	4885.1375
1971.63959	4881.0375
1974.7153	4885.1375
1977.78901	4858.3375
1980.86073	4849.2375
1983.93046	4825.9375
1986.99819	4816.0375
1990.06394	4781.5375
1993.1277	4781.6375
1996.18947	4762.9375
1999.24925	4746.6375
2002.30706	4738.3375
2005.36288	4722.3375
2008.41672	4709.4375
2011.46859	4686.4375
2014.51848	4670.3375
2017.56639	4641.9375
2020.61233	4625.1375
2023.6563	4598.9375
2026.6983	4584.7375
2029.73833	4546.1375
2032.7764	4536.3375
2035.8125	4528.2375
2038.84664	4523.0375
2041.87881	4511.3375
2044.90903	4493.8375
2047.93729	4482.1375
2050.96359	4482.4375
2053.98794	4477.6375
2057.01034	4461.9375
2060.03078	4446.6375
2063.04927	4451.9375
2066.06582	4459.3375
2069.08042	4458.6375
2072.09307	4468.4375
2075.10378	4455.3375
2078.11255	4445.3375
2081.11938	4465.0375
2084.12426	4450.9375
2087.12722	4461.9375
2090.12824	4466.8375
2093.12732	4458.5375
2096.12447	4471.3375
2099.11969	4465.4375
2102.11299	4502.4375
2105.10435	4474.8375
2108.09379	4464.6375
2111.08131	4460.0375
2114.0669	4449.2375
2117.05057	4434.0375
2120.03233	4427.8375
2123.01216	4408.0375
2125.99008	4383.1375
2128.96609	4390.1375
2131.94018	4377.9375
2134.91236	4357.6375
2137.88263	4353.2375
2140.851	4355.3375
2143.81746	4355.3375
2146.78201	4331.0375
2149.74466	4334.8375
2152.7054	4323.2375
2155.66425	4294.6375
2158.6212	4313.5375
2161.57625	4278.0375
2164.52941	4271.5375
2167.48067	4279.7375
2170.43004	4256.7375
2173.37752	4263.8375
2176.32311	4247.8375
2179.26681	4251.7375
2182.20863	4264.3375
2185.14856	4261.3375
2188.08661	4268.2375
2191.02278	4259.6375
2193.95707	4258.5375
2196.88948	4261.2375
2199.82001	4244.1375
2202.74867	4235.9375
2205.67545	4238.3375
2208.60037	4219.7375
2211.52341	4213.5375
2214.44458	4214.5375
2217.36388	4192.4375
2220.28132	4195.8375
2223.1969	4169.9375
2226.11061	4146.5375
2229.02246	4146.5375
2231.93245	4137.5375
2234.84058	4141.8375
2237.74686	4132.8375
2240.65128	4121.2375
2243.55385	4135.6375
2246.45456	4118.1375
2249.35343	4112.3375
2252.25044	4108.9375
2255.14561	4091.1375
2258.03893	4113.7375
2260.93041	4092.7375
2263.82004	4107.6375
2266.70783	4080.3375
2269.59378	4076.6375
2272.4779	4060.9375
2275.36017	4051.7375
2278.24061	4044.3375
2281.11922	4016.6375
2283.996	4029.4375
2286.87094	4008.1375
2289.74405	4000.6375
2292.61534	3984.5375
2295.4848	3961.6375
2298.35243	3959.1375
2301.21824	3953.1375
2304.08223	3955.6375
2306.94439	3954.6375
2309.80474	3956.1375
2312.66327	3968.3375
2315.51999	3964.8375
2318.37489	3960.7375
2321.22797	3946.1375
2324.07925	3945.9375
2326.92871	3947.5375
2329.77637	3936.4375
2332.62222	3927.0375
2335.46626	3922.2375
2338.3085	3922.4375
2341.14893	3937.8375
2343.98756	3953.1375
2346.8244	3954.5375
2349.65943	3960.8375
2352.49267	3965.7375
2355.32411	3977.6375
2358.15376	3984.0375
2360.98161	4009.6375
2363.80768	4012.5375
2366.63195	4025.3375
2369.45444	4044.8375
2372.27514	4043.4375
2375.09405	4031.5375
2377.91118	4022.0375
2380.72652	3997.6375
2383.54009	3972.2375
2386.35187	3951.8375
2389.16188	3920.6375
2391.97011	3897.1375
2394.77657	3878.7375
2397.58125	3870.1375
2400.38416	3860.8375
2403.18529	3851.0375
2405.98466	3830.2375
2408.78226	3814.3375
2411.57809	3801.6375
2414.37216	3794.7375
2417.16446	3812.7375
2419.955	3785.5375
2422.74378	3793.7375
2425.5308	3786.1375
2428.31606	3797.4375
2431.09956	3788.9375
2433.88131	3788.9375
2436.6613	3781.0375
2439.43954	3802.9375
2442.21603	3796.7375
2444.99077	3805.6375
2447.76377	3822.0375
2450.53501	3814.2375
2453.30451	3834.0375
2456.07226	3832.1375
2458.83827	3853.4375
2461.60254	3834.5375
2464.36507	3837.7375
2467.12586	3846.2375
2469.88492	3839.6375
2472.64224	3839.1375
2475.39782	3856.6375
2478.15167	3872.0375
2480.90379	3867.7375
2483.65417	3874.3375
2486.40283	3901.0375
2489.14976	3916.7375
2491.89497	3913.9375
2494.63845	3934.7375
2497.3802	3934.4375
2500.12024	3914.1375
2502.85855	3910.6375
2505.59514	3893.0375
2508.33002	3854.1375
2511.06318	3836.0375
2513.79462	3796.1375
2516.52435	3769.0375
2519.25237	3756.8375
2521.97867	3735.4375
2524.70327	3731.0375
2527.42616	3717.2375
2530.14734	3718.0375
2532.86681	3711.4375
2535.58458	3702.9375
2538.30065	3718.2375
2541.01501	3716.3375
2543.72768	3720.2375
2546.43864	3731.7375
2549.14791	3730.3375
2551.85548	3731.9375
2554.56136	3721.8375
2557.26554	3719.5375
2559.96803	3728.9375
2562.66883	3723.6375
2565.36794	3715.4375
2568.06536	3720.9375
2570.7611	3726.8375
2573.45514	3709.5375
2576.14751	3707.7375
2578.83819	3685.6375
2581.52719	3696.0375
2584.21451	3686.1375
2586.90015	3680.9375
2589.58411	3670.7375
2592.2664	3691.0375
2594.94701	3670.1375
2597.62594	3683.0375
2600.30321	3671.3375
2602.9788	3665.0375
2605.65273	3680.1375
2608.32498	3673.9375
2610.99557	3659.4375
2613.66449	3673.0375
2616.33175	3671.7375
2618.99734	3676.4375
2621.66128	3673.6375
2624.32355	3678.3375
2626.98416	3674.8375
2629.64311	3660.5375
2632.30041	3662.0375
2634.95605	3636.3375
2637.61004	3648.8375
2640.26238	3626.6375
2642.91306	3613.1375
2645.56209	3617.4375
2648.20948	3622.7375
2650.85521	3616.6375
2653.4993	3613.5375
2656.14175	3617.6375
2658.78255	3635.5375
2661.42171	3642.5375
2664.05923	3650.5375
2666.6951	3673.6375
2669.32934	3665.0375
2671.96194	3664.8375
2674.59291	3678.2375
2677.22224	3684.5375
2679.84993	3668.0375
2682.476	3657.9375
2685.10043	3657.1375
2687.72324	3645.5375
2690.34441	3642.9375
2692.96396	3631.3375
2695.58188	3647.6375
2698.19818	3636.8375
2700.81285	3633.2375
2703.4259	3641.6375
2706.03733	3640.3375
2708.64714	3652.7375
2711.25533	3644.0375
2713.86191	3645.8375
2716.46687	3674.1375
2719.07021	3667.8375
2721.67194	3674.6375
2724.27206	3671.7375
2726.87057	3685.7375
2729.46747	3690.5375
2732.06276	3665.3375
2734.65644	3647.3375
2737.24852	3640.6375
2739.83899	3646.2375
2742.42786	3629.8375
2745.01513	3623.9375
2747.60079	3620.0375
2750.18486	3624.2375
2752.76733	3616.1375
2755.3482	3625.7375
2757.92747	3635.8375
2760.50515	3623.9375
2763.08123	3621.8375
2765.65573	3622.8375
2768.22863	3625.0375
2770.79994	3613.7375
2773.36967	3620.7375
2775.9378	3631.0375
2778.50435	3633.3375
2781.06932	3625.0375
2783.6327	3633.7375
2786.1945	3636.2375
2788.75471	3645.7375
2791.31335	3638.7375
2793.87041	3653.2375
2796.42589	3645.1375
2798.97979	3664.7375
2801.53212	3648.5375
2804.08288	3646.2375
2806.63206	3650.5375
2809.17967	3663.2375
2811.72571	3650.3375
2814.27018	3677.7375
2816.81308	3672.1375
2819.35442	3709.3375
2821.89419	3717.9375
2824.43239	3717.9375
2826.96904	3727.6375
2829.50412	3744.7375
2832.03763	3727.5375
2834.56959	3746.8375
2837.1	3742.5375
2839.62884	3758.3375
2842.15613	3790.7375
2844.68186	3818.0375
2847.20604	3852.8375
2849.72867	3896.2375
2852.24974	3920.3375
2854.76927	3928.3375
2857.28724	3927.8375
2859.80367	3937.2375
2862.31855	3956.1375
2864.83189	3946.3375
2867.34368	3975.8375
2869.85393	3976.8375
2872.36264	3976.7375
2874.8698	4001.2375
2877.37543	3994.5375
2879.87952	3997.3375
2882.38207	3988.5375
2884.88308	3985.8375
2887.38256	3973.6375
2889.88051	3974.4375
2892.37692	3976.1375
2894.8718	3972.3375
2897.36515	3969.5375
2899.85698	3974.1375
2902.34727	3970.3375
2904.83604	3969.8375
2907.32328	3970.5375
2909.809	3990.3375
2912.29319	3978.3375
2914.77587	3967.1375
2917.25702	3968.7375
2919.73665	3971.1375
2922.21476	3965.7375
2924.69136	3956.4375
2927.16644	3932.2375
2929.64	3925.7375
2932.11205	3900.2375
2934.58258	3887.4375
2937.05161	3873.3375
2939.51912	3836.4375
2941.98513	3812.0375
2944.44962	3789.8375
2946.91261	3743.3375
2949.37409	3727.2375
2951.83407	3713.8375
2954.29254	3690.6375
2956.74951	3674.2375
2959.20498	3653.3375
2961.65895	3644.4375
2964.11142	3618.2375
2966.56239	3599.3375
2969.01186	3590.2375
2971.45984	3551.2375
2973.90632	3542.2375
2976.35131	3517.3375
2978.7948	3497.7375
2981.23681	3470.6375
2983.67732	3469.5375
2986.11635	3456.8375
2988.55388	3426.4375
2990.98993	3432.3375
2993.4245	3424.2375
2995.85758	3411.9375
2998.28917	3417.3375
3000.71928	3415.6375
3003.14791	3406.6375
3005.57506	3415.8375
3008.00073	3403.2375
3010.42493	3410.4375
3012.84764	3410.6375
3015.26888	3394.5375
3017.68865	3380.7375
3020.10694	3381.9375
3022.52376	3350.4375
3024.9391	3328.5375
3027.35298	3325.8375
3029.76539	3322.7375
3032.17632	3326.7375
3034.5858	3311.9375
3036.9938	3297.1375
3039.40034	3286.0375
3041.80542	3284.5375
3044.20903	3271.0375
3046.61118	3267.5375
3049.01187	3259.6375
3051.4111	3257.2375
3053.80888	3255.1375
3056.20519	3255.7375
3058.60005	3249.1375
3060.99345	3254.3375
3063.3854	3238.4375
3065.7759	3225.9375
3068.16494	3217.7375
3070.55254	3215.6375
3072.93868	3203.2375
3075.32338	3187.9375
3077.70662	3177.2375
3080.08842	3170.2375
3082.46878	3171.1375
3084.84769	3162.2375
3087.22515	3164.4375
3089.60118	3165.2375
3091.97576	3160.1375
3094.3489	3159.5375
