Data from AgNP_FTO_APTES_UA_100uM_CRN_100uM_R6G_10uM_NaF_0.1M_Addition_RamanShift__16__18-06-10-584.txt Node

Date: Thu Mar 24 18:06:10 GMT 2022
User: TCL
Spectrometer: QEP01345
Trigger mode: 4
Integration Time (sec): 7.000000E0
Scans to average: 10
Electric dark correction enabled: true
Nonlinearity correction enabled: false
Boxcar width: 0
XAxis mode: Raman Shifts
Number of Pixels in Spectrum: 1044
>>>>>Begin Spectral Data<<<<<
46.04893	-0.975
50.45542	0.425
54.85868	0.925
59.25871	-0.575
63.6555	30.825
68.04907	32.925
72.43941	32.125
76.82654	34.925
81.21044	38.625
85.59113	39.625
89.96862	41.925
94.34289	40.825
98.71396	45.525
103.08183	41.525
107.4465	45.225
111.80798	47.725
116.16626	46.225
120.52136	48.525
124.87327	46.425
129.222	51.025
133.56755	51.125
137.90993	52.925
142.24913	63.025
146.58517	64.325
150.91804	73.725
155.24774	87.025
159.57429	106.225
163.89768	135.925
168.21792	177.625
172.53501	240.225
176.84895	333.325
181.15975	467.725
185.46741	660.425
189.77193	906.825
194.07331	1211.025
198.37157	1571.625
202.6667	1941.725
206.9587	2331.825
211.24758	2705.725
215.53334	3076.625
219.81599	3498.625
224.09553	3921.025
228.37195	4437.325
232.64527	4989.125
236.91549	5567.725
241.18261	6115.625
245.44663	6612.225
249.70755	7001.125
253.96539	7374.425
258.22014	7658.225
262.4718	7897.025
266.72039	8066.525
270.96589	8147.125
275.20832	8148.625
279.44768	8077.625
283.68397	7963.225
287.91719	7914.525
292.14735	7891.225
296.37445	7927.825
300.59849	8063.125
304.81948	8222.725
309.03742	8323.025
313.25231	8301.125
317.46415	8124.425
321.67296	7798.825
325.87872	7531.525
330.08145	7400.825
334.28114	7394.325
338.47781	7454.025
342.67145	7567.025
346.86207	7724.825
351.04966	7968.325
355.23424	8171.325
359.4158	8334.125
363.59435	8460.325
367.76989	8499.725
371.94243	8514.425
376.11196	8496.525
380.27849	8472.425
384.44203	8463.325
388.60257	8494.825
392.76012	8540.925
396.91468	8626.525
401.06626	8764.125
405.21485	8859.525
409.36047	8770.225
413.50311	8540.025
417.64277	8310.325
421.77947	8177.125
425.9132	8151.625
430.04396	8163.125
434.17176	8185.125
438.2966	8284.625
442.41849	8388.725
446.53742	8538.925
450.6534	8701.125
454.76644	8816.925
458.87653	8842.925
462.98368	8795.025
467.08789	8753.125
471.18916	8626.225
475.2875	8573.725
479.38291	8447.325
483.4754	8376.725
487.56496	8309.325
491.6516	8253.125
495.73531	8250.725
499.81612	8233.125
503.89401	8267.125
507.96899	8306.125
512.04106	8329.725
516.11023	8390.925
520.1765	8353.925
524.23987	8337.625
528.30034	8304.525
532.35792	8253.825
536.41261	8171.925
540.46441	8073.625
544.51333	8015.325
548.55936	8104.025
552.60252	8231.725
556.64279	8390.425
560.6802	8465.025
564.71473	8520.725
568.7464	8636.125
572.7752	8828.825
576.80114	8906.625
580.82422	9029.325
584.84444	9150.625
588.86181	9249.125
592.87633	9377.325
596.888	9455.025
600.89682	9475.625
604.9028	9876.725
608.90594	11202.725
612.90624	12889.825
616.90371	12299.525
620.89834	9713.425
624.89015	8465.025
628.87913	8267.325
632.86528	8463.225
636.84862	8595.325
640.82913	8543.025
644.80683	8241.525
648.78172	8019.025
652.75379	7929.425
656.72306	8070.225
660.68952	8300.025
664.65319	8218.125
668.61405	7991.625
672.57211	7871.025
676.52738	7883.825
680.47986	7866.825
684.42955	7806.125
688.37646	7783.625
692.32058	7775.425
696.26192	7819.225
700.20048	7897.625
704.13626	7974.725
708.06928	7998.825
711.99952	7962.225
715.927	7928.825
719.85171	7966.425
723.77365	7981.625
727.69284	7922.925
731.60928	7866.525
735.52295	7868.125
739.43388	7868.025
743.34206	7879.625
747.24749	7902.325
751.15017	7921.825
755.05012	8000.425
758.94733	8257.825
762.8418	8869.225
766.73354	9915.625
770.62254	10920.425
774.50882	11246.325
778.39237	10720.225
782.27321	9694.825
786.15132	8730.125
790.02671	8145.125
793.89938	7884.425
797.76935	7734.725
801.6366	7674.625
805.50115	7652.425
809.36299	7613.825
813.22213	7609.125
817.07857	7603.425
820.93231	7565.625
824.78336	7529.425
828.63172	7541.325
832.47738	7518.825
836.32036	7508.225
840.16066	7492.025
843.99827	7470.325
847.8332	7445.425
851.66546	7443.025
855.49504	7453.025
859.32195	7467.225
863.1462	7434.125
866.96777	7436.825
870.78668	7447.425
874.60293	7449.525
878.41652	7455.625
882.22745	7484.725
886.03573	7525.125
889.84136	7528.425
893.64433	7518.925
897.44466	7479.625
901.24235	7454.825
905.0374	7403.125
908.8298	7371.325
912.61957	7349.025
916.40671	7370.125
920.19121	7413.525
923.97308	7477.625
927.75233	7503.125
931.52895	7495.625
935.30295	7391.925
939.07433	7228.325
942.84309	7124.725
946.60924	7049.325
950.37278	7002.525
954.13371	6991.225
957.89203	6977.125
961.64774	6977.425
965.40086	6975.525
969.15137	6936.525
972.89929	6922.825
976.64461	6904.325
980.38733	6888.325
984.12747	6870.025
987.86502	6907.725
991.59999	6941.725
995.33237	6978.625
999.06217	7052.625
1002.78939	7158.125
1006.51404	7287.125
1010.23611	7399.425
1013.95561	7474.325
1017.67255	7464.625
1021.38692	7425.325
1025.09872	7300.025
1028.80796	7217.625
1032.51465	7144.125
1036.21877	7154.525
1039.92035	7184.525
1043.61937	7228.325
1047.31584	7261.825
1051.00976	7309.425
1054.70114	7343.325
1058.38998	7346.925
1062.07627	7387.725
1065.76003	7450.025
1069.44126	7531.225
1073.11995	7643.925
1076.79611	7768.625
1080.46974	7850.225
1084.14085	7960.725
1087.80943	8057.525
1091.47549	8137.625
1095.13903	8075.825
1098.80005	7910.625
1102.45857	7741.125
1106.11456	7617.225
1109.76805	7567.325
1113.41903	7653.125
1117.06751	7796.925
1120.71348	7984.325
1124.35696	8203.125
1127.99793	8425.225
1131.63641	8440.725
1135.2724	8271.125
1138.90589	8081.725
1142.5369	7926.825
1146.16542	7807.125
1149.79145	7750.425
1153.415	7757.725
1157.03607	7784.325
1160.65467	7906.325
1164.27079	8145.725
1167.88443	8530.625
1171.49561	9097.125
1175.10432	9884.825
1178.71056	10901.025
1182.31434	11795.925
1185.91565	12102.525
1189.51451	11927.425
1193.11091	11447.225
1196.70485	10913.525
1200.29634	10346.125
1203.88538	9879.225
1207.47197	9397.125
1211.05612	8966.625
1214.63782	8694.525
1218.21708	8527.325
1221.79391	8465.925
1225.36829	8445.525
1228.94024	8409.325
1232.50976	8332.125
1236.07685	8266.925
1239.6415	8237.925
1243.20374	8213.325
1246.76355	8226.625
1250.32093	8287.025
1253.8759	8398.825
1257.42845	8584.525
1260.97859	8813.525
1264.52631	9083.725
1268.07163	9334.225
1271.61453	9566.725
1275.15503	9776.125
1278.69312	9923.125
1282.22882	10080.725
1285.76211	10336.625
1289.29301	10682.025
1292.82151	11062.525
1296.34761	11464.625
1299.87133	12065.325
1303.39266	12853.725
1306.9116	13850.125
1310.42815	14859.825
1313.94233	15360.025
1317.45412	15056.525
1320.96354	14344.725
1324.47058	13637.325
1327.97525	13010.525
1331.47754	12538.925
1334.97747	12289.725
1338.47502	12254.025
1341.97022	12364.125
1345.46305	12676.425
1348.95352	13141.725
1352.44163	13753.825
1355.92738	14624.225
1359.41078	15956.525
1362.89183	17326.625
1366.37053	17119.025
1369.84688	15138.525
1373.32088	12933.925
1376.79254	11500.025
1380.26186	10741.725
1383.72883	10325.925
1387.19347	10010.225
1390.65578	9727.725
1394.11575	9493.825
1397.57339	9364.925
1401.0287	9320.525
1404.48168	9336.725
1407.93234	9250.125
1411.38068	9173.225
1414.82669	9041.125
1418.27039	8867.025
1421.71177	8646.725
1425.15083	8436.625
1428.58758	8326.225
1432.02203	8335.525
1435.45416	8436.425
1438.88399	8536.025
1442.31151	8593.025
1445.73673	8680.025
1449.15965	8754.625
1452.58027	8796.625
1455.9986	8818.525
1459.41463	8860.925
1462.82837	9005.425
1466.23982	9213.625
1469.64898	9487.725
1473.05586	9679.725
1476.46045	9818.325
1479.86276	9960.325
1483.26279	10091.525
1486.66054	10314.625
1490.05602	10594.925
1493.44922	11088.025
1496.84016	11781.325
1500.22882	12842.825
1503.61521	14161.625
1506.99934	15569.025
1510.38121	16442.525
1513.76081	16377.525
1517.13816	15244.125
1520.51324	13661.625
1523.88607	12322.325
1527.25665	11477.825
1530.62498	10997.325
1533.99105	10704.625
1537.35488	10411.225
1540.71647	10151.825
1544.07581	9880.725
1547.4329	9671.225
1550.78776	9495.125
1554.14038	9398.725
1557.49077	9413.425
1560.83892	9537.725
1564.18484	9747.525
1567.52853	10055.825
1570.86999	10333.425
1574.20922	10547.725
1577.54624	10526.125
1580.88103	10109.025
1584.2136	9583.625
1587.54395	9325.525
1590.87208	9399.625
1594.19801	9747.325
1597.52172	10246.725
1600.84321	10432.125
1604.16251	10125.825
1607.47959	9587.225
1610.79447	9032.325
1614.10715	8512.125
1617.41763	8044.225
1620.7259	7683.325
1624.03199	7481.625
1627.33587	7414.225
1630.63757	7529.625
1633.93707	7847.925
1637.23439	8423.125
1640.52951	9429.825
1643.82246	10801.525
1647.11321	12271.825
1650.40179	13121.025
1653.68819	12699.625
1656.97241	11212.025
1660.25446	9488.425
1663.53433	8188.325
1666.81203	7374.225
1670.08756	6909.325
1673.36092	6621.625
1676.63211	6410.525
1679.90115	6276.625
1683.16801	6181.825
1686.43272	6090.325
1689.69527	6026.025
1692.95567	5968.525
1696.2139	5920.425
1699.46999	5905.425
1702.72392	5861.225
1705.97571	5843.125
1709.22535	5811.825
1712.47284	5804.725
1715.71819	5771.825
1718.96139	5727.925
1722.20246	5696.425
1725.44139	5669.425
1728.67818	5635.325
1731.91284	5580.125
1735.14537	5522.825
1738.37576	5505.325
1741.60403	5490.225
1744.83017	5447.825
1748.05418	5435.425
1751.27607	5422.825
1754.49584	5418.125
1757.71349	5397.425
1760.92903	5362.425
1764.14244	5378.825
1767.35375	5356.125
1770.56294	5335.225
1773.77002	5319.625
1776.97499	5299.925
1780.17785	5268.225
1783.37861	5268.025
1786.57727	5265.125
1789.77382	5253.125
1792.96828	5247.425
1796.16064	5208.725
1799.3509	5204.125
1802.53907	5202.325
1805.72514	5162.125
1808.90913	5160.725
1812.09102	5136.925
1815.27083	5143.825
1818.44856	5114.925
1821.6242	5108.825
1824.79776	5086.025
1827.96924	5068.325
1831.13864	5057.425
1834.30597	5049.625
1837.47122	5050.025
1840.6344	5028.825
1843.7955	5021.325
1846.95454	5025.825
1850.11151	5021.425
1853.26642	5020.325
1856.41926	5006.525
1859.57004	5001.725
1862.71876	4966.425
1865.86542	4957.425
1869.01003	4968.125
1872.15258	4966.525
1875.29308	4944.025
1878.43152	4933.825
1881.56792	4947.225
1884.70227	4926.125
1887.83457	4919.525
1890.96482	4910.925
1894.09304	4914.725
1897.21921	4880.525
1900.34335	4886.625
1903.46544	4893.625
1906.58551	4868.825
1909.70353	4886.025
1912.81953	4850.425
1915.93349	4856.125
1919.04543	4830.425
1922.15534	4823.425
1925.26322	4808.325
1928.36908	4787.125
1931.47292	4777.525
1934.57473	4770.425
1937.67453	4754.425
1940.77232	4741.325
1943.86808	4730.425
1946.96184	4706.225
1950.05358	4690.525
1953.14331	4676.725
1956.23103	4651.325
1959.31675	4639.625
1962.40046	4621.325
1965.48217	4619.625
1968.56188	4602.925
1971.63959	4587.025
1974.7153	4570.925
1977.78901	4545.125
1980.86073	4539.325
1983.93046	4518.925
1986.99819	4484.125
1990.06394	4474.225
1993.1277	4472.925
1996.18947	4443.425
1999.24925	4446.325
2002.30706	4432.625
2005.36288	4397.625
2008.41672	4385.525
2011.46859	4365.525
2014.51848	4365.225
2017.56639	4346.725
2020.61233	4331.425
2023.6563	4311.425
2026.6983	4297.825
2029.73833	4298.125
2032.7764	4267.025
2035.8125	4249.125
2038.84664	4252.025
2041.87881	4220.925
2044.90903	4227.025
2047.93729	4215.925
2050.96359	4222.425
2053.98794	4203.625
2057.01034	4185.125
2060.03078	4180.525
2063.04927	4170.925
2066.06582	4165.725
2069.08042	4171.125
2072.09307	4159.725
2075.10378	4143.625
2078.11255	4143.925
2081.11938	4143.525
2084.12426	4145.925
2087.12722	4142.025
2090.12824	4141.025
2093.12732	4139.025
2096.12447	4145.525
2099.11969	4137.925
2102.11299	4143.625
2105.10435	4138.625
2108.09379	4137.225
2111.08131	4145.125
2114.0669	4135.425
2117.05057	4143.325
2120.03233	4136.425
2123.01216	4146.125
2125.99008	4136.525
2128.96609	4137.125
2131.94018	4145.825
2134.91236	4127.525
2137.88263	4131.125
2140.851	4127.925
2143.81746	4142.325
2146.78201	4126.525
2149.74466	4143.625
2152.7054	4121.025
2155.66425	4103.125
2158.6212	4115.925
2161.57625	4125.225
2164.52941	4109.525
2167.48067	4096.925
2170.43004	4079.725
2173.37752	4091.025
2176.32311	4090.925
2179.26681	4091.125
2182.20863	4083.125
2185.14856	4077.325
2188.08661	4071.225
2191.02278	4079.025
2193.95707	4072.325
2196.88948	4055.425
2199.82001	4050.325
2202.74867	4043.925
2205.67545	4053.425
2208.60037	4048.625
2211.52341	4028.325
2214.44458	4011.925
2217.36388	3998.725
2220.28132	3991.125
2223.1969	3986.025
2226.11061	3970.125
2229.02246	3963.225
2231.93245	3956.625
2234.84058	3934.925
2237.74686	3931.625
2240.65128	3929.925
2243.55385	3929.825
2246.45456	3929.725
2249.35343	3923.525
2252.25044	3919.725
2255.14561	3917.225
2258.03893	3915.125
2260.93041	3893.625
2263.82004	3869.125
2266.70783	3869.525
2269.59378	3853.125
2272.4779	3848.425
2275.36017	3853.325
2278.24061	3829.125
2281.11922	3827.525
2283.996	3823.725
2286.87094	3808.625
2289.74405	3798.125
2292.61534	3783.525
2295.4848	3777.625
2298.35243	3772.125
2301.21824	3774.725
2304.08223	3762.525
2306.94439	3772.325
2309.80474	3757.025
2312.66327	3738.625
2315.51999	3743.225
2318.37489	3749.925
2321.22797	3734.525
2324.07925	3734.925
2326.92871	3721.725
2329.77637	3721.825
2332.62222	3719.425
2335.46626	3693.325
2338.3085	3695.525
2341.14893	3687.625
2343.98756	3698.225
2346.8244	3687.725
2349.65943	3689.025
2352.49267	3688.525
2355.32411	3699.525
2358.15376	3692.325
2360.98161	3703.825
2363.80768	3706.125
2366.63195	3695.525
2369.45444	3689.125
2372.27514	3687.725
2375.09405	3682.825
2377.91118	3681.125
2380.72652	3671.725
2383.54009	3662.625
2386.35187	3656.625
2389.16188	3631.125
2391.97011	3610.025
2394.77657	3591.225
2397.58125	3585.225
2400.38416	3577.325
2403.18529	3570.425
2405.98466	3555.825
2408.78226	3551.425
2411.57809	3531.225
2414.37216	3535.925
2417.16446	3550.525
2419.955	3519.325
2422.74378	3526.225
2425.5308	3521.925
2428.31606	3516.025
2431.09956	3509.025
2433.88131	3510.725
2436.6613	3518.925
2439.43954	3524.725
2442.21603	3505.925
2444.99077	3503.225
2447.76377	3500.525
2450.53501	3498.025
2453.30451	3489.725
2456.07226	3484.225
2458.83827	3488.725
2461.60254	3501.925
2464.36507	3487.325
2467.12586	3478.925
2469.88492	3473.625
2472.64224	3493.325
2475.39782	3487.025
2478.15167	3483.025
2480.90379	3496.325
2483.65417	3491.325
2486.40283	3498.725
2489.14976	3492.325
2491.89497	3498.225
2494.63845	3489.925
2497.3802	3473.025
2500.12024	3465.525
2502.85855	3474.125
2505.59514	3475.225
2508.33002	3439.825
2511.06318	3423.725
2513.79462	3424.625
2516.52435	3416.825
2519.25237	3402.625
2521.97867	3407.725
2524.70327	3388.525
2527.42616	3388.325
2530.14734	3382.425
2532.86681	3386.825
2535.58458	3385.425
2538.30065	3359.225
2541.01501	3360.725
2543.72768	3367.825
2546.43864	3373.025
2549.14791	3360.525
2551.85548	3353.025
2554.56136	3349.425
2557.26554	3332.325
2559.96803	3331.425
2562.66883	3339.125
2565.36794	3327.025
2568.06536	3317.125
2570.7611	3303.825
2573.45514	3299.025
2576.14751	3292.325
2578.83819	3287.325
2581.52719	3285.225
2584.21451	3292.325
2586.90015	3271.125
2589.58411	3262.925
2592.2664	3269.225
2594.94701	3240.025
2597.62594	3259.025
2600.30321	3243.225
2602.9788	3244.725
2605.65273	3218.425
2608.32498	3239.025
2610.99557	3228.025
2613.66449	3223.425
2616.33175	3233.525
2618.99734	3217.425
2621.66128	3210.725
2624.32355	3214.525
2626.98416	3209.825
2629.64311	3193.525
2632.30041	3195.625
2634.95605	3183.125
2637.61004	3174.225
2640.26238	3179.725
2642.91306	3176.225
2645.56209	3181.525
2648.20948	3173.025
2650.85521	3168.825
2653.4993	3185.325
2656.14175	3170.025
2658.78255	3175.925
2661.42171	3173.725
2664.05923	3180.925
2666.6951	3182.425
2669.32934	3182.025
2671.96194	3164.825
2674.59291	3179.925
2677.22224	3172.525
2679.84993	3169.425
2682.476	3166.125
2685.10043	3165.025
2687.72324	3157.525
2690.34441	3159.925
2692.96396	3161.925
2695.58188	3161.125
2698.19818	3146.325
2700.81285	3152.625
2703.4259	3153.325
2706.03733	3147.725
2708.64714	3144.725
2711.25533	3155.825
2713.86191	3157.525
2716.46687	3159.725
2719.07021	3157.725
2721.67194	3148.725
2724.27206	3156.025
2726.87057	3181.225
2729.46747	3161.125
2732.06276	3163.925
2734.65644	3141.925
2737.24852	3150.625
2739.83899	3131.325
2742.42786	3137.825
2745.01513	3120.625
2747.60079	3134.325
2750.18486	3125.925
2752.76733	3115.625
2755.3482	3109.925
2757.92747	3107.825
2760.50515	3102.425
2763.08123	3093.425
2765.65573	3077.425
2768.22863	3091.125
2770.79994	3091.725
2773.36967	3097.025
2775.9378	3080.325
2778.50435	3078.525
2781.06932	3084.725
2783.6327	3079.925
2786.1945	3077.325
2788.75471	3060.625
2791.31335	3062.925
2793.87041	3051.625
2796.42589	3042.225
2798.97979	3042.925
2801.53212	3042.425
2804.08288	3048.725
2806.63206	3033.525
2809.17967	3041.125
2811.72571	3019.525
2814.27018	3033.125
2816.81308	3014.625
2819.35442	3006.925
2821.89419	3006.325
2824.43239	3021.225
2826.96904	2990.825
2829.50412	3009.425
2832.03763	3006.725
2834.56959	3000.025
2837.1	3001.425
2839.62884	3002.825
2842.15613	2999.225
2844.68186	3012.725
2847.20604	3021.125
2849.72867	3017.625
2852.24974	3011.825
2854.76927	3011.325
2857.28724	3006.725
2859.80367	3002.425
2862.31855	3000.725
2864.83189	2997.425
2867.34368	2983.025
2869.85393	2995.825
2872.36264	3005.125
2874.8698	2995.025
2877.37543	3001.425
2879.87952	3002.225
2882.38207	2984.525
2884.88308	2978.525
2887.38256	2975.425
2889.88051	2986.925
2892.37692	2995.025
2894.8718	2991.125
2897.36515	2982.925
2899.85698	2991.125
2902.34727	2988.825
2904.83604	2989.625
2907.32328	2981.125
2909.809	2993.425
2912.29319	3006.225
2914.77587	2995.225
2917.25702	2989.625
2919.73665	2986.125
2922.21476	2988.425
2924.69136	2985.625
2927.16644	2989.925
2929.64	2983.125
2932.11205	2962.225
2934.58258	2963.225
2937.05161	2964.125
2939.51912	2952.125
2941.98513	2959.425
2944.44962	2941.725
2946.91261	2931.225
2949.37409	2929.525
2951.83407	2935.825
2954.29254	2935.725
2956.74951	2927.125
2959.20498	2935.625
2961.65895	2924.225
2964.11142	2916.425
2966.56239	2908.525
2969.01186	2901.725
2971.45984	2892.425
2973.90632	2878.725
2976.35131	2896.025
2978.7948	2875.725
2981.23681	2881.025
2983.67732	2880.725
2986.11635	2861.125
2988.55388	2856.625
2990.98993	2855.725
2993.4245	2855.625
2995.85758	2841.225
2998.28917	2833.025
3000.71928	2833.525
3003.14791	2834.825
3005.57506	2831.625
3008.00073	2823.525
3010.42493	2820.425
3012.84764	2823.325
3015.26888	2807.625
3017.68865	2802.425
3020.10694	2797.225
3022.52376	2787.725
3024.9391	2799.025
3027.35298	2779.425
3029.76539	2773.125
3032.17632	2779.125
3034.5858	2773.625
3036.9938	2773.925
3039.40034	2771.625
3041.80542	2768.025
3044.20903	2764.625
3046.61118	2781.725
3049.01187	2770.425
3051.4111	2762.025
3053.80888	2749.325
3056.20519	2740.425
3058.60005	2731.925
3060.99345	2739.825
3063.3854	2727.825
3065.7759	2726.925
3068.16494	2724.025
3070.55254	2715.825
3072.93868	2723.425
3075.32338	2714.525
3077.70662	2715.225
3080.08842	2708.925
3082.46878	2697.825
3084.84769	2706.225
3087.22515	2710.125
3089.60118	2698.025
3091.97576	2708.525
3094.3489	2706.025
3096.72061	2711.025
3099.09087	2715.325
3101.4597	2711.825
3103.82709	2719.525
3106.19305	2713.625
3108.55757	2710.125
3110.92066	2708.625
3113.28232	2703.325
3115.64255	2699.025
3118.00134	2705.525
3120.35871	2706.125
3122.71466	2691.025
3125.06917	2683.125
3127.42226	2691.225
3129.77393	2698.925
3132.12417	2692.925
3134.47299	2696.625
3136.82039	2697.225
3139.16636	2681.825
3141.51092	2699.125
3143.85406	2706.025
3146.19579	2705.225
3148.53609	2722.325
3150.87499	2715.025
3153.21246	2726.625
3155.54853	2739.125
3157.88318	2742.825
3160.21642	2742.125
3162.54826	2729.025
3164.87868	2753.525
3167.2077	2742.325
3169.5353	2752.425
3171.86151	2761.725
3174.18631	2738.325
3176.5097	2746.125
3178.83169	2737.425
3181.15228	2758.225
3183.47147	2752.525
3185.78926	2756.625
3188.10565	2751.525
3190.42065	2748.425
3192.73424	2756.025
3195.04645	2755.825
3197.35725	2761.625
3199.66667	2749.925
3201.97469	2762.225
3204.28132	2759.325
3206.58656	2758.925
3208.8904	2762.525
3211.19287	2757.625
3213.49394	2778.325
3215.79363	2776.625
3218.09193	2785.525
3220.38884	2788.525
3222.68438	2792.425
3224.97853	2791.125
3227.2713	2783.325
