Data from AgNP_FTO_APTES_UA_100uM_CRN_2uM_R6G_10uM_NaF_0.1M_Addition_RamanShift__40__14-31-30-342.txt Node

Date: Thu Mar 24 14:31:30 GMT 2022
User: TCL
Spectrometer: QEP01345
Trigger mode: 4
Integration Time (sec): 7.000000E0
Scans to average: 10
Electric dark correction enabled: true
Nonlinearity correction enabled: false
Boxcar width: 0
XAxis mode: Raman Shifts
Number of Pixels in Spectrum: 1044
>>>>>Begin Spectral Data<<<<<
46.04893	-1.1
50.45542	-0.4
54.85868	0
59.25871	-1.2
63.6555	46.7
68.04907	49.4
72.43941	51.3
76.82654	52.3
81.21044	54.6
85.59113	57.5
89.96862	62.9
94.34289	59.6
98.71396	62.4
103.08183	62.8
107.4465	66.3
111.80798	66.2
116.16626	70.9
120.52136	70.9
124.87327	72.9
129.222	75.8
133.56755	85.6
137.90993	87.4
142.24913	101.7
146.58517	109.3
150.91804	130.4
155.24774	153.9
159.57429	194.8
163.89768	250.1
168.21792	332.9
172.53501	459.3
176.84895	639.3
181.15975	900
185.46741	1268.3
189.77193	1736.9
194.07331	2339.9
198.37157	3024.7
202.6667	3731.1
206.9587	4443.5
211.24758	5169.1
215.53334	5891.7
219.81599	6687
224.09553	7590.6
228.37195	8590.5
232.64527	9700
236.91549	10824.4
241.18261	11900.3
245.44663	12829.4
249.70755	13536.5
253.96539	14143.1
258.22014	14651.9
262.4718	15085
266.72039	15389.3
270.96589	15492.4
275.20832	15434
279.44768	15272.6
283.68397	15027.9
287.91719	14855.9
292.14735	14800.2
296.37445	14867.8
300.59849	15116
304.81948	15466.5
309.03742	15761.6
313.25231	15871.3
317.46415	15674.4
321.67296	15250.4
325.87872	14833.6
330.08145	14669
334.28114	14652.9
338.47781	14790.6
342.67145	15075.9
346.86207	15379.7
351.04966	15832.1
355.23424	16288
359.4158	16642.8
363.59435	16814
367.76989	16849.1
371.94243	16803.7
376.11196	16774.6
380.27849	16796.5
384.44203	16797.4
388.60257	16900.9
392.76012	16933.2
396.91468	17044.8
401.06626	17320.5
405.21485	17518.1
409.36047	17293.9
413.50311	16791.9
417.64277	16357.5
421.77947	16167.7
425.9132	16120.2
430.04396	16253.1
434.17176	16422.1
438.2966	16702.2
442.41849	17242.3
446.53742	18027.6
450.6534	18847.6
454.76644	19312.8
458.87653	19264.7
462.98368	18863.9
467.08789	18352.9
471.18916	17846.4
475.2875	17330.9
479.38291	16848.8
483.4754	16409
487.56496	16110.8
491.6516	15891.9
495.73531	15765.5
499.81612	15738.9
503.89401	15855.6
507.96899	15967.5
512.04106	15994.3
516.11023	15985.9
520.1765	15972.8
524.23987	16030.2
528.30034	16055.2
532.35792	16025.3
536.41261	15809.5
540.46441	15457
544.51333	15304.8
548.55936	15441.6
552.60252	15786.6
556.64279	16388.3
560.6802	16844.4
564.71473	16951.1
568.7464	17170.6
572.7752	17591.6
576.80114	17840.5
580.82422	18187.7
584.84444	18896.7
588.86181	20259.6
592.87633	22139.6
596.888	23174.2
600.89682	22227.8
604.9028	21475.5
608.90594	23527.7
612.90624	26650.4
616.90371	25016.4
620.89834	19324.2
624.89015	16510.8
628.87913	15999.9
632.86528	16188.9
636.84862	16266.8
640.82913	15934.4
644.80683	15278.6
648.78172	14865.3
652.75379	14829.5
656.72306	15214.1
660.68952	15733
664.65319	15585.7
668.61405	14983.2
672.57211	14827.6
676.52738	14900.7
680.47986	14863.2
684.42955	14670.3
688.37646	14548.6
692.32058	14594.8
696.26192	14877.6
700.20048	15171
704.13626	15313.5
708.06928	15299.9
711.99952	15176.8
715.927	15185.3
719.85171	15328.7
723.77365	15342.8
727.69284	15146.7
731.60928	15012.1
735.52295	15027.6
739.43388	15123
743.34206	15180.1
747.24749	15231.9
751.15017	15339.9
755.05012	15547.5
758.94733	16146.1
762.8418	17506.8
766.73354	19739.5
770.62254	21989.9
774.50882	22642.7
778.39237	21530.9
782.27321	19329.9
786.15132	17282
790.02671	15955.2
793.89938	15265.5
797.76935	14932.4
801.6366	14779.8
805.50115	14667.7
809.36299	14572.8
813.22213	14461.9
817.07857	14408
820.93231	14374.7
824.78336	14301.2
828.63172	14333.3
832.47738	14301.6
836.32036	14294.3
840.16066	14292.6
843.99827	14278.9
847.8332	14259.7
851.66546	14267
855.49504	14281.8
859.32195	14301.2
863.1462	14240.1
866.96777	14199.9
870.78668	14162.8
874.60293	14218.4
878.41652	14264.5
882.22745	14370.4
886.03573	14421.1
889.84136	14468.4
893.64433	14391.8
897.44466	14279.2
901.24235	14238.2
905.0374	14148.4
908.8298	14108.3
912.61957	14049.7
916.40671	14129.6
920.19121	14294.5
923.97308	14505.1
927.75233	14640.7
931.52895	14582.2
935.30295	14333.1
939.07433	13957.6
942.84309	13689.8
946.60924	13560.2
950.37278	13492.8
954.13371	13480.6
957.89203	13492.1
961.64774	13490.1
965.40086	13476.4
969.15137	13497
972.89929	13461.3
976.64461	13459.5
980.38733	13455.6
984.12747	13475.4
987.86502	13575.3
991.59999	13691.6
995.33237	13911.6
999.06217	14323
1002.78939	14808.7
1006.51404	15318.6
1010.23611	15713.8
1013.95561	15960.5
1017.67255	15918.8
1021.38692	15583.3
1025.09872	15056.4
1028.80796	14675.3
1032.51465	14609.5
1036.21877	14715.2
1039.92035	14754.4
1043.61937	14815.9
1047.31584	14781.1
1051.00976	14724.5
1054.70114	14681
1058.38998	14706.1
1062.07627	14768.6
1065.76003	14912.1
1069.44126	15088.2
1073.11995	15372.4
1076.79611	15703.8
1080.46974	16001.6
1084.14085	16349.4
1087.80943	16664.3
1091.47549	16877.5
1095.13903	16735.3
1098.80005	16289.1
1102.45857	15864.4
1106.11456	15651.4
1109.76805	15709.8
1113.41903	15935.7
1117.06751	16286.3
1120.71348	16723.3
1124.35696	17204.6
1127.99793	17593.9
1131.63641	17574
1135.2724	17231
1138.90589	16847.4
1142.5369	16673.6
1146.16542	16659.1
1149.79145	16774.9
1153.415	16871.2
1157.03607	17056.1
1160.65467	17484.6
1164.27079	18260.2
1167.88443	19396.8
1171.49561	21126.6
1175.10432	23596.5
1178.71056	26729.9
1182.31434	29465.1
1185.91565	30212.3
1189.51451	29308.2
1193.11091	27666.9
1196.70485	25868.5
1200.29634	24265.4
1203.88538	22958.5
1207.47197	21832.4
1211.05612	20973.9
1214.63782	20460.7
1218.21708	20329.5
1221.79391	20401.2
1225.36829	20656
1228.94024	20611.2
1232.50976	20032.9
1236.07685	19341
1239.6415	18984.7
1243.20374	18902.8
1246.76355	18998.6
1250.32093	19150
1253.8759	19528.5
1257.42845	20098.4
1260.97859	20902.8
1264.52631	21816
1268.07163	22689.5
1271.61453	23427.1
1275.15503	24038.9
1278.69312	24552.8
1282.22882	25265.1
1285.76211	26309.1
1289.29301	27718
1292.82151	29346.1
1296.34761	31187.4
1299.87133	33413.5
1303.39266	36136.9
1306.9116	39326.9
1310.42815	42548
1313.94233	44344.6
1317.45412	43628.7
1320.96354	41186.3
1324.47058	38493
1327.97525	36022.7
1331.47754	34308.9
1334.97747	33267
1338.47502	32872.1
1341.97022	32853.7
1345.46305	33182.8
1348.95352	33933.2
1352.44163	35543
1355.92738	38389
1359.41078	42522
1362.89183	46198.3
1366.37053	45606.3
1369.84688	40023.3
1373.32088	33540.3
1376.79254	29502.8
1380.26186	27956.2
1383.72883	27411.4
1387.19347	26864.8
1390.65578	26157.6
1394.11575	25771.9
1397.57339	25811.9
1401.0287	26069.3
1404.48168	26192.9
1407.93234	26152.3
1411.38068	25761
1414.82669	25359
1418.27039	24691.8
1421.71177	23852.3
1425.15083	23033
1428.58758	22720.8
1432.02203	23046.7
1435.45416	23835.6
1438.88399	24458.6
1442.31151	24738.5
1445.73673	24860
1449.15965	25002.6
1452.58027	24748.1
1455.9986	24417.1
1459.41463	24295.5
1462.82837	24668.1
1466.23982	25494.6
1469.64898	26396.8
1473.05586	27154.8
1476.46045	27761.4
1479.86276	28117.3
1483.26279	28342.2
1486.66054	28580
1490.05602	29233.5
1493.44922	30089.5
1496.84016	30951.1
1500.22882	32050.9
1503.61521	33729.1
1506.99934	35695.1
1510.38121	37172.6
1513.76081	37022.1
1517.13816	34843.8
1520.51324	31924.1
1523.88607	29545.8
1527.25665	28348.8
1530.62498	27816
1533.99105	27508.9
1537.35488	26964.5
1540.71647	26232.2
1544.07581	25377.6
1547.4329	24578.5
1550.78776	23889.1
1554.14038	23406.1
1557.49077	23159.1
1560.83892	23222.6
1564.18484	23535.7
1567.52853	24182.5
1570.86999	24791.8
1574.20922	25408.6
1577.54624	25556.8
1580.88103	24873.4
1584.2136	24104.7
1587.54395	24265.1
1590.87208	25497.1
1594.19801	27804.2
1597.52172	30421.8
1600.84321	31749.9
1604.16251	30601.9
1607.47959	27724.1
1610.79447	24523.4
1614.10715	21772.3
1617.41763	19706.6
1620.7259	18457.5
1624.03199	17868.6
1627.33587	17950.6
1630.63757	18595.7
1633.93707	20119.8
1637.23439	22871
1640.52951	27212.4
1643.82246	32858.5
1647.11321	37758.3
1650.40179	38998.5
1653.68819	35390.4
1656.97241	29167.7
1660.25446	23404.9
1663.53433	19444.8
1666.81203	17130
1670.08756	15744.5
1673.36092	14955.3
1676.63211	14382.5
1679.90115	14040.9
1683.16801	13767.8
1686.43272	13526
1689.69527	13364.4
1692.95567	13229
1696.2139	13123.3
1699.46999	13071
1702.72392	13039.5
1705.97571	12951.4
1709.22535	12926.7
1712.47284	12915.4
1715.71819	12872
1718.96139	12869.6
1722.20246	12813.3
1725.44139	12739.8
1728.67818	12593.5
1731.91284	12505.3
1735.14537	12385.8
1738.37576	12322.5
1741.60403	12286.1
1744.83017	12220.4
1748.05418	12187.1
1751.27607	12145.4
1754.49584	12125.9
1757.71349	12088.5
1760.92903	12080
1764.14244	12091.7
1767.35375	12055.2
1770.56294	11985.7
1773.77002	11975.7
1776.97499	11942.1
1780.17785	11929.2
1783.37861	11866.9
1786.57727	11846.2
1789.77382	11808.8
1792.96828	11775.4
1796.16064	11741.3
1799.3509	11738.6
1802.53907	11689.5
1805.72514	11664.9
1808.90913	11663.9
1812.09102	11600.3
1815.27083	11594.4
1818.44856	11546
1821.6242	11536.9
1824.79776	11507.3
1827.96924	11511
1831.13864	11504.1
1834.30597	11481.2
1837.47122	11446.6
1840.6344	11439
1843.7955	11443.6
1846.95454	11416.9
1850.11151	11417
1853.26642	11411.7
1856.41926	11377.7
1859.57004	11376.1
1862.71876	11389.4
1865.86542	11343.3
1869.01003	11344.6
1872.15258	11325.7
1875.29308	11320.5
1878.43152	11315.4
1881.56792	11291.3
1884.70227	11292.2
1887.83457	11292.2
1890.96482	11284.6
1894.09304	11286.8
1897.21921	11281.2
1900.34335	11256.6
1903.46544	11248
1906.58551	11264.2
1909.70353	11253.7
1912.81953	11225
1915.93349	11190.1
1919.04543	11168.4
1922.15534	11158.9
1925.26322	11102.9
1928.36908	11081.6
1931.47292	11039.5
1934.57473	11022.2
1937.67453	10995.1
1940.77232	10960.7
1943.86808	10919.9
1946.96184	10873.2
1950.05358	10854.6
1953.14331	10834.6
1956.23103	10799
1959.31675	10784.6
1962.40046	10746.5
1965.48217	10731.7
1968.56188	10694.8
1971.63959	10678.1
1974.7153	10625.6
1977.78901	10605.9
1980.86073	10575.6
1983.93046	10538.4
1986.99819	10480.9
1990.06394	10465.3
1993.1277	10408.8
1996.18947	10368.5
1999.24925	10348
2002.30706	10293.7
2005.36288	10260.6
2008.41672	10242.3
2011.46859	10172.7
2014.51848	10192.6
2017.56639	10159.8
2020.61233	10116.4
2023.6563	10101
2026.6983	10070.8
2029.73833	10056
2032.7764	10034.7
2035.8125	10011.3
2038.84664	9973.5
2041.87881	9973.3
2044.90903	9958.9
2047.93729	9951.3
2050.96359	9918.6
2053.98794	9920.7
2057.01034	9876.8
2060.03078	9868.6
2063.04927	9871
2066.06582	9870.3
2069.08042	9845.9
2072.09307	9830.3
2075.10378	9827.3
2078.11255	9817.1
2081.11938	9829.8
2084.12426	9800.7
2087.12722	9809.9
2090.12824	9830.9
2093.12732	9809.4
2096.12447	9828.8
2099.11969	9804.6
2102.11299	9825
2105.10435	9830.6
2108.09379	9813.3
2111.08131	9825.1
2114.0669	9807.9
2117.05057	9846.6
2120.03233	9822.9
2123.01216	9796.8
2125.99008	9828.4
2128.96609	9839.9
2131.94018	9831.9
2134.91236	9835.2
2137.88263	9827
2140.851	9818
2143.81746	9837.6
2146.78201	9836.6
2149.74466	9827.1
2152.7054	9839.2
2155.66425	9797.6
2158.6212	9811.7
2161.57625	9791.1
2164.52941	9795.6
2167.48067	9805.7
2170.43004	9772.3
2173.37752	9786.4
2176.32311	9755.6
2179.26681	9799.3
2182.20863	9763.4
2185.14856	9760.9
2188.08661	9760.7
2191.02278	9758.2
2193.95707	9774.8
2196.88948	9749.6
2199.82001	9734.7
2202.74867	9737.9
2205.67545	9728.5
2208.60037	9695.1
2211.52341	9657.4
2214.44458	9648.8
2217.36388	9637.3
2220.28132	9654.5
2223.1969	9621.5
2226.11061	9616
2229.02246	9577.9
2231.93245	9573.3
2234.84058	9557.1
2237.74686	9552.4
2240.65128	9528.8
2243.55385	9511.1
2246.45456	9505.3
2249.35343	9506.9
2252.25044	9517.8
2255.14561	9461.6
2258.03893	9444.9
2260.93041	9436.3
2263.82004	9418.2
2266.70783	9381.1
2269.59378	9361.1
2272.4779	9334
2275.36017	9298.1
2278.24061	9321
2281.11922	9267.8
2283.996	9255.4
2286.87094	9273
2289.74405	9240.8
2292.61534	9206.1
2295.4848	9212
2298.35243	9206.4
2301.21824	9209.2
2304.08223	9198.6
2306.94439	9196.5
2309.80474	9170.4
2312.66327	9154.7
2315.51999	9157.9
2318.37489	9169.9
2321.22797	9144.2
2324.07925	9134.7
2326.92871	9137.6
2329.77637	9139.8
2332.62222	9122.7
2335.46626	9097.2
2338.3085	9134.9
2341.14893	9099.5
2343.98756	9100.8
2346.8244	9100
2349.65943	9100.6
2352.49267	9079.6
2355.32411	9099.5
2358.15376	9114.9
2360.98161	9120.8
2363.80768	9107
2366.63195	9118.4
2369.45444	9096
2372.27514	9110.7
2375.09405	9088.5
2377.91118	9069.7
2380.72652	9044.1
2383.54009	9027.9
2386.35187	9000.8
2389.16188	8969.9
2391.97011	8962.7
2394.77657	8951.4
2397.58125	8916.7
2400.38416	8908.1
2403.18529	8872.2
2405.98466	8885.1
2408.78226	8865.8
2411.57809	8847.4
2414.37216	8817.2
2417.16446	8809.6
2419.955	8792
2422.74378	8820.8
2425.5308	8802.7
2428.31606	8804.3
2431.09956	8803.4
2433.88131	8767.9
2436.6613	8771.4
2439.43954	8768.1
2442.21603	8782.3
2444.99077	8768.6
2447.76377	8768.2
2450.53501	8780.4
2453.30451	8775.8
2456.07226	8778.6
2458.83827	8783.8
2461.60254	8782.5
2464.36507	8782.8
2467.12586	8793.9
2469.88492	8777.8
2472.64224	8798.4
2475.39782	8801.4
2478.15167	8803.8
2480.90379	8778.8
2483.65417	8817.4
2486.40283	8834.7
2489.14976	8832.8
2491.89497	8851.7
2494.63845	8858.3
2497.3802	8848.3
2500.12024	8826.8
2502.85855	8843.1
2505.59514	8824.3
2508.33002	8784.1
2511.06318	8781.1
2513.79462	8767
2516.52435	8719.8
2519.25237	8718
2521.97867	8702.5
2524.70327	8730.3
2527.42616	8718.3
2530.14734	8716.8
2532.86681	8684
2535.58458	8687
2538.30065	8687.3
2541.01501	8689.1
2543.72768	8681.5
2546.43864	8667.4
2549.14791	8652.6
2551.85548	8634.9
2554.56136	8645.4
2557.26554	8644.6
2559.96803	8645
2562.66883	8649.1
2565.36794	8658.6
2568.06536	8630.3
2570.7611	8621.6
2573.45514	8640.5
2576.14751	8617.8
2578.83819	8603.8
2581.52719	8596.2
2584.21451	8565.8
2586.90015	8572.6
2589.58411	8544.9
2592.2664	8526.3
2594.94701	8540.8
2597.62594	8541.3
2600.30321	8500.7
2602.9788	8520.3
2605.65273	8499.8
2608.32498	8527.5
2610.99557	8516.3
2613.66449	8513.7
2616.33175	8524.4
2618.99734	8537.4
2621.66128	8519.5
2624.32355	8539.4
2626.98416	8511.9
2629.64311	8504.5
2632.30041	8487.3
2634.95605	8488.2
2637.61004	8466.5
2640.26238	8461.9
2642.91306	8457.5
2645.56209	8450.9
2648.20948	8478.3
2650.85521	8476.4
2653.4993	8481.7
2656.14175	8479.6
2658.78255	8508.4
2661.42171	8505.3
2664.05923	8504.9
2666.6951	8498.7
2669.32934	8507.3
2671.96194	8526.8
2674.59291	8515.5
2677.22224	8502.7
2679.84993	8485.1
2682.476	8500.3
2685.10043	8513.8
2687.72324	8500.8
2690.34441	8504.8
2692.96396	8509.6
2695.58188	8502.1
2698.19818	8476.3
2700.81285	8512.3
2703.4259	8496.3
2706.03733	8514.5
2708.64714	8500.7
2711.25533	8520.8
2713.86191	8507.3
2716.46687	8538.3
2719.07021	8539.4
2721.67194	8529.4
2724.27206	8531.6
2726.87057	8545.5
2729.46747	8530.3
2732.06276	8540.4
2734.65644	8542.1
2737.24852	8540.2
2739.83899	8539.6
2742.42786	8538.6
2745.01513	8522.9
2747.60079	8498.9
2750.18486	8503.3
2752.76733	8512.3
2755.3482	8489.8
2757.92747	8503
2760.50515	8480.4
2763.08123	8476.1
2765.65573	8495.7
2768.22863	8485.6
2770.79994	8462.1
2773.36967	8472.7
2775.9378	8492.2
2778.50435	8466.4
2781.06932	8474.2
2783.6327	8484.7
2786.1945	8452.2
2788.75471	8436.1
2791.31335	8430.4
2793.87041	8438
2796.42589	8416.4
2798.97979	8430.4
2801.53212	8396
2804.08288	8409
2806.63206	8380.6
2809.17967	8385
2811.72571	8385.1
2814.27018	8374.6
2816.81308	8362.6
2819.35442	8359.1
2821.89419	8348.5
2824.43239	8356
2826.96904	8337.3
2829.50412	8342.8
2832.03763	8314.8
2834.56959	8334.8
2837.1	8303.7
2839.62884	8316.1
2842.15613	8281.9
2844.68186	8286.6
2847.20604	8286.8
2849.72867	8298.5
2852.24974	8291.8
2854.76927	8249.9
2857.28724	8232.1
2859.80367	8247.3
2862.31855	8232.3
2864.83189	8256
2867.34368	8256.5
2869.85393	8265.3
2872.36264	8252
2874.8698	8265.8
2877.37543	8271
2879.87952	8255.2
2882.38207	8240
2884.88308	8242.5
2887.38256	8243.9
2889.88051	8241.3
2892.37692	8225.6
2894.8718	8222
2897.36515	8229.1
2899.85698	8221
2902.34727	8280
2904.83604	8267.9
2907.32328	8274.1
2909.809	8284
2912.29319	8270.2
2914.77587	8242.1
2917.25702	8277.8
2919.73665	8268.8
2922.21476	8278.9
2924.69136	8247.9
2927.16644	8218.8
2929.64	8224.9
2932.11205	8204
2934.58258	8179.3
2937.05161	8211.7
2939.51912	8188.7
2941.98513	8198.3
2944.44962	8157.3
2946.91261	8132.1
2949.37409	8176.3
2951.83407	8161.9
2954.29254	8148.5
2956.74951	8139.4
2959.20498	8120.6
2961.65895	8114.4
2964.11142	8110.1
2966.56239	8085.8
2969.01186	8097.9
2971.45984	8063.8
2973.90632	8033.9
2976.35131	7999.5
2978.7948	7989.8
2981.23681	7975.1
2983.67732	7957.2
2986.11635	7920.6
2988.55388	7921.4
2990.98993	7901.3
2993.4245	7882
2995.85758	7887.8
2998.28917	7840.8
3000.71928	7842.8
3003.14791	7803.4
3005.57506	7806.9
3008.00073	7785.5
3010.42493	7807.6
3012.84764	7812.8
3015.26888	7792.8
3017.68865	7745.6
3020.10694	7749.3
3022.52376	7708
3024.9391	7689.2
3027.35298	7680.8
3029.76539	7663.3
3032.17632	7678
3034.5858	7657.8
3036.9938	7645.2
3039.40034	7639.4
3041.80542	7622
3044.20903	7592.5
3046.61118	7581.8
3049.01187	7575.9
3051.4111	7554.9
3053.80888	7535.1
3056.20519	7528.4
3058.60005	7513.9
3060.99345	7533.9
3063.3854	7495
3065.7759	7477.7
3068.16494	7460.6
3070.55254	7426.3
3072.93868	7428.8
3075.32338	7388.3
3077.70662	7383
3080.08842	7369.7
3082.46878	7357.6
3084.84769	7332.4
3087.22515	7326.2
3089.60118	7336.2
3091.97576	7321.4
3094.3489	7303.5
3096.72061	7306.4
3099.09087	7300.8
3101.4597	7318.5
3103.82709	7300.7
3106.19305	7285
3108.55757	7295.8
3110.92066	7235.4
3113.28232	7228.9
3115.64255	7193.1
3118.00134	7184.6
3120.35871	7165.5
3122.71466	7155.8
3125.06917	7135.5
3127.42226	7156.2
3129.77393	7155.3
3132.12417	7163.5
3134.47299	7164.2
3136.82039	7144.6
3139.16636	7159.1
3141.51092	7170.4
3143.85406	7155.6
3146.19579	7150
3148.53609	7131.5
3150.87499	7158.2
3153.21246	7138.2
3155.54853	7143.4
3157.88318	7119.8
3160.21642	7091.7
3162.54826	7092.3
3164.87868	7091.6
3167.2077	7080.1
3169.5353	7086.7
3171.86151	7078.4
3174.18631	7075.4
3176.5097	7065.4
3178.83169	7072.6
3181.15228	7073.3
3183.47147	7045.8
3185.78926	7055.4
3188.10565	7046.7
3190.42065	7055.8
3192.73424	7061.7
3195.04645	7055.4
3197.35725	7063.8
3199.66667	7055.1
3201.97469	7042.2
3204.28132	7046.2
3206.58656	7065.5
3208.8904	7055.8
3211.19287	7035.8
3213.49394	7053.5
3215.79363	7048.9
3218.09193	7035.4
3220.38884	7015.5
3222.68438	7017.3
3224.97853	7018.1
3227.2713	6996.3
3229.56269	6992.2
3231.8527	6990
3234.14133	6980.7
3236.42858	6967.1
3238.71446	6989.1
3240.99896	6983.6
3243.28209	6974.4
3245.56384	6961.8
3247.84423	6956.3
3250.12324	6940.1
3252.40088	6927.1
3254.67715	6923.6
3256.95205	6914.8
3259.22558	6889.6
3261.49775	6877.8
3263.76855	6859
3266.03799	6839.2
3268.30606	6847.2
3270.57277	6828.3
3272.83812	6817.6
3275.10211	6807.5
3277.36474	6824.3
3279.62601	6814.5
3281.88593	6814.3
3284.14448	6833.1
3286.40168	6819
3288.65753	6805.1
3290.91202	6821.6
3293.16516	6802.5
3295.41695	6774.3
3297.66738	6736.9
3299.91647	6740
3302.16421	6700.4
3304.4106	6681.3
3306.65564	6640.8
3308.89933	6595.2
3311.14169	6573.4
3313.38269	6520.2
3315.62236	6474.5
3317.86068	6426.3
3320.09766	6344.3
3322.3333	6286.6
3324.5676	6292.3
3326.80056	6174.4
3329.03219	6155.5
3331.26248	3.1
3333.49143	-0.9
3335.71905	0.6
