Data from AgNP_FTO_APTES_UA_100uM_CRN_50uM_R6G_10uM_NaF_0.1M_Addition_RamanShift__18__17-28-50-542.txt Node

Date: Thu Mar 24 17:28:50 GMT 2022
User: TCL
Spectrometer: QEP01345
Trigger mode: 4
Integration Time (sec): 7.000000E0
Scans to average: 10
Electric dark correction enabled: true
Nonlinearity correction enabled: false
Boxcar width: 0
XAxis mode: Raman Shifts
Number of Pixels in Spectrum: 1044
>>>>>Begin Spectral Data<<<<<
46.04893	-2.775
50.45542	-0.675
54.85868	0.425
59.25871	0.125
63.6555	37.725
68.04907	37.325
72.43941	40.825
76.82654	40.025
81.21044	42.925
85.59113	43.625
89.96862	46.725
94.34289	45.225
98.71396	46.225
103.08183	48.325
107.4465	47.825
111.80798	50.825
116.16626	52.025
120.52136	50.725
124.87327	53.525
129.222	58.925
133.56755	63.325
137.90993	64.025
142.24913	76.125
146.58517	81.025
150.91804	94.925
155.24774	115.625
159.57429	142.525
163.89768	185.525
168.21792	248.425
172.53501	332.925
176.84895	474.625
181.15975	665.825
185.46741	942.925
189.77193	1301.925
194.07331	1750.125
198.37157	2274.025
202.6667	2792.725
206.9587	3338.625
211.24758	3887.125
215.53334	4415.225
219.81599	5000.525
224.09553	5649.625
228.37195	6354.025
232.64527	7171.325
236.91549	8005.825
241.18261	8834.825
245.44663	9542.125
249.70755	10149.625
253.96539	10671.625
258.22014	11102.825
262.4718	11503.725
266.72039	11754.125
270.96589	11942.625
275.20832	11957.225
279.44768	11881.825
283.68397	11774.525
287.91719	11668.925
292.14735	11636.225
296.37445	11701.325
300.59849	11845.125
304.81948	11999.025
309.03742	12095.725
313.25231	12042.825
317.46415	11775.625
321.67296	11388.325
325.87872	11047.025
330.08145	10862.825
334.28114	10846.625
338.47781	10952.025
342.67145	11110.925
346.86207	11339.025
351.04966	11572.225
355.23424	11883.325
359.4158	12108.725
363.59435	12236.325
367.76989	12319.625
371.94243	12380.425
376.11196	12414.125
380.27849	12425.025
384.44203	12443.525
388.60257	12478.325
392.76012	12547.425
396.91468	12650.225
401.06626	12837.125
405.21485	12953.725
409.36047	12859.325
413.50311	12538.225
417.64277	12237.425
421.77947	12095.225
425.9132	12056.725
430.04396	12086.925
434.17176	12182.625
438.2966	12271.325
442.41849	12419.425
446.53742	12661.125
450.6534	12935.225
454.76644	13095.225
458.87653	13143.025
462.98368	13103.225
467.08789	13018.225
471.18916	12904.625
475.2875	12750.125
479.38291	12635.525
483.4754	12506.225
487.56496	12394.725
491.6516	12308.225
495.73531	12267.225
499.81612	12218.825
503.89401	12292.625
507.96899	12354.325
512.04106	12391.925
516.11023	12396.425
520.1765	12407.825
524.23987	12344.825
528.30034	12304.125
532.35792	12204.625
536.41261	12111.425
540.46441	12037.925
544.51333	11971.525
548.55936	12075.225
552.60252	12312.625
556.64279	12512.625
560.6802	12667.725
564.71473	12687.325
568.7464	12863.425
572.7752	13073.425
576.80114	13219.525
580.82422	13305.725
584.84444	13414.425
588.86181	13495.725
592.87633	13611.225
596.888	13742.625
600.89682	13860.325
604.9028	14499.125
608.90594	16321.425
612.90624	18556.625
616.90371	17707.925
620.89834	14262.125
624.89015	12597.525
628.87913	12358.725
632.86528	12557.325
636.84862	12769.925
640.82913	12671.625
644.80683	12284.325
648.78172	12005.725
652.75379	11883.825
656.72306	12048.725
660.68952	12348.625
664.65319	12249.025
668.61405	11946.225
672.57211	11815.825
676.52738	11840.025
680.47986	11796.125
684.42955	11739.325
688.37646	11675.925
692.32058	11713.925
696.26192	11795.925
700.20048	11912.625
704.13626	12027.325
708.06928	11996.925
711.99952	11948.025
715.927	11891.125
719.85171	11946.725
723.77365	11951.625
727.69284	11922.325
731.60928	11831.625
735.52295	11775.825
739.43388	11801.225
743.34206	11846.025
747.24749	11827.625
751.15017	11900.625
755.05012	12016.325
758.94733	12352.625
762.8418	13207.625
766.73354	14619.025
770.62254	16045.425
774.50882	16521.225
778.39237	15754.625
782.27321	14299.425
786.15132	13035.225
790.02671	12267.925
793.89938	11861.025
797.76935	11663.325
801.6366	11550.125
805.50115	11549.725
809.36299	11502.725
813.22213	11448.825
817.07857	11465.625
820.93231	11400.925
824.78336	11405.025
828.63172	11374.525
832.47738	11361.625
836.32036	11330.425
840.16066	11306.125
843.99827	11299.225
847.8332	11285.625
851.66546	11286.525
855.49504	11328.325
859.32195	11304.325
863.1462	11308.225
866.96777	11303.525
870.78668	11267.225
874.60293	11290.825
878.41652	11311.225
882.22745	11343.225
886.03573	11413.825
889.84136	11420.525
893.64433	11353.725
897.44466	11305.025
901.24235	11271.825
905.0374	11224.325
908.8298	11197.325
912.61957	11146.725
916.40671	11207.525
920.19121	11285.825
923.97308	11358.125
927.75233	11354.625
931.52895	11286.625
935.30295	11191.625
939.07433	11005.225
942.84309	10839.225
946.60924	10739.625
950.37278	10699.925
954.13371	10678.225
957.89203	10682.125
961.64774	10658.625
965.40086	10637.025
969.15137	10598.625
972.89929	10574.925
976.64461	10577.025
980.38733	10529.025
984.12747	10538.725
987.86502	10589.225
991.59999	10630.025
995.33237	10676.525
999.06217	10810.025
1002.78939	10956.925
1006.51404	11149.425
1010.23611	11328.525
1013.95561	11445.825
1017.67255	11470.025
1021.38692	11358.725
1025.09872	11227.725
1028.80796	11074.925
1032.51465	10991.125
1036.21877	10992.125
1039.92035	11054.325
1043.61937	11094.125
1047.31584	11160.425
1051.00976	11206.625
1054.70114	11242.125
1058.38998	11272.825
1062.07627	11341.225
1065.76003	11435.925
1069.44126	11559.125
1073.11995	11682.725
1076.79611	11870.925
1080.46974	11979.225
1084.14085	12078.025
1087.80943	12242.525
1091.47549	12322.225
1095.13903	12275.825
1098.80005	12059.125
1102.45857	11873.725
1106.11456	11687.825
1109.76805	11673.425
1113.41903	11763.525
1117.06751	11946.425
1120.71348	12209.625
1124.35696	12496.125
1127.99793	12781.325
1131.63641	12788.825
1135.2724	12572.725
1138.90589	12351.025
1142.5369	12160.425
1146.16542	12032.925
1149.79145	11956.125
1153.415	11936.125
1157.03607	11979.425
1160.65467	12173.825
1164.27079	12549.625
1167.88443	13073.125
1171.49561	13866.825
1175.10432	14903.125
1178.71056	16360.725
1182.31434	17619.725
1185.91565	18165.125
1189.51451	17998.425
1193.11091	17437.725
1196.70485	16668.425
1200.29634	15899.925
1203.88538	15285.025
1207.47197	14613.425
1211.05612	13976.725
1214.63782	13534.625
1218.21708	13303.525
1221.79391	13106.925
1225.36829	13048.325
1228.94024	12997.925
1232.50976	12902.225
1236.07685	12772.425
1239.6415	12716.925
1243.20374	12735.025
1246.76355	12740.725
1250.32093	12843.525
1253.8759	13009.325
1257.42845	13274.325
1260.97859	13603.125
1264.52631	13956.725
1268.07163	14294.625
1271.61453	14628.625
1275.15503	14870.725
1278.69312	15080.725
1282.22882	15287.725
1285.76211	15598.025
1289.29301	15963.225
1292.82151	16502.225
1296.34761	17067.025
1299.87133	17903.225
1303.39266	18959.625
1306.9116	20303.525
1310.42815	21585.425
1313.94233	22270.125
1317.45412	21959.125
1320.96354	21196.925
1324.47058	20397.325
1327.97525	19573.525
1331.47754	18971.325
1334.97747	18704.725
1338.47502	18730.625
1341.97022	19036.225
1345.46305	19566.725
1348.95352	20254.425
1352.44163	21065.025
1355.92738	22191.025
1359.41078	23860.825
1362.89183	25491.625
1366.37053	25155.625
1369.84688	22439.025
1373.32088	19427.325
1376.79254	17461.125
1380.26186	16432.025
1383.72883	15883.525
1387.19347	15581.225
1390.65578	15203.825
1394.11575	14852.025
1397.57339	14657.925
1401.0287	14586.025
1404.48168	14573.125
1407.93234	14504.125
1411.38068	14345.125
1414.82669	14144.925
1418.27039	13829.025
1421.71177	13523.625
1425.15083	13158.125
1428.58758	12979.825
1432.02203	12989.225
1435.45416	13150.225
1438.88399	13296.225
1442.31151	13428.625
1445.73673	13532.425
1449.15965	13680.725
1452.58027	13763.625
1455.9986	13773.225
1459.41463	13880.025
1462.82837	14089.625
1466.23982	14467.525
1469.64898	14827.125
1473.05586	15114.825
1476.46045	15298.425
1479.86276	15439.625
1483.26279	15581.125
1486.66054	15761.825
1490.05602	16070.525
1493.44922	16642.525
1496.84016	17504.925
1500.22882	18806.825
1503.61521	20563.225
1506.99934	22325.025
1510.38121	23448.825
1513.76081	23284.725
1517.13816	21911.125
1520.51324	20012.625
1523.88607	18383.925
1527.25665	17398.225
1530.62498	16889.625
1533.99105	16548.725
1537.35488	16209.525
1540.71647	15816.725
1544.07581	15447.625
1547.4329	15075.325
1550.78776	14846.825
1554.14038	14665.625
1557.49077	14691.325
1560.83892	14866.125
1564.18484	15131.325
1567.52853	15513.425
1570.86999	15834.825
1574.20922	16097.125
1577.54624	16070.525
1580.88103	15543.025
1584.2136	14825.025
1587.54395	14458.125
1590.87208	14569.025
1594.19801	15119.125
1597.52172	15858.925
1600.84321	16097.925
1604.16251	15674.225
1607.47959	14963.825
1610.79447	14202.225
1614.10715	13412.025
1617.41763	12670.825
1620.7259	12074.225
1624.03199	11727.825
1627.33587	11636.425
1630.63757	11795.125
1633.93707	12213.325
1637.23439	13068.525
1640.52951	14426.625
1643.82246	16276.225
1647.11321	18084.225
1650.40179	19081.325
1653.68819	18448.025
1656.97241	16436.525
1660.25446	14165.025
1663.53433	12465.125
1666.81203	11373.525
1670.08756	10760.225
1673.36092	10287.925
1676.63211	10028.625
1679.90115	9832.925
1683.16801	9663.425
1686.43272	9569.125
1689.69527	9462.925
1692.95567	9394.925
1696.2139	9345.625
1699.46999	9313.325
1702.72392	9253.025
1705.97571	9246.225
1709.22535	9193.925
1712.47284	9163.525
1715.71819	9137.525
1718.96139	9062.525
1722.20246	9030.025
1725.44139	8998.925
1728.67818	8939.925
1731.91284	8879.525
1735.14537	8814.125
1738.37576	8789.825
1741.60403	8739.325
1744.83017	8711.825
1748.05418	8698.425
1751.27607	8656.925
1754.49584	8650.925
1757.71349	8637.825
1760.92903	8601.025
1764.14244	8627.125
1767.35375	8590.425
1770.56294	8562.725
1773.77002	8524.825
1776.97499	8494.625
1780.17785	8475.525
1783.37861	8459.725
1786.57727	8436.325
1789.77382	8419.125
1792.96828	8420.925
1796.16064	8371.325
1799.3509	8360.125
1802.53907	8353.725
1805.72514	8310.025
1808.90913	8297.525
1812.09102	8273.525
1815.27083	8236.025
1818.44856	8245.825
1821.6242	8194.025
1824.79776	8179.225
1827.96924	8166.725
1831.13864	8158.325
1834.30597	8146.925
1837.47122	8111.025
1840.6344	8132.525
1843.7955	8117.125
1846.95454	8094.025
1850.11151	8075.225
1853.26642	8082.125
1856.41926	8084.825
1859.57004	8061.125
1862.71876	8016.025
1865.86542	8017.125
1869.01003	8031.625
1872.15258	8010.525
1875.29308	7989.925
1878.43152	7986.825
1881.56792	7991.325
1884.70227	7977.425
1887.83457	7977.925
1890.96482	7946.225
1894.09304	7937.325
1897.21921	7921.925
1900.34335	7890.925
1903.46544	7901.425
1906.58551	7905.525
1909.70353	7906.025
1912.81953	7872.225
1915.93349	7868.125
1919.04543	7855.325
1922.15534	7820.625
1925.26322	7802.525
1928.36908	7783.425
1931.47292	7766.225
1934.57473	7733.025
1937.67453	7728.825
1940.77232	7701.625
1943.86808	7695.125
1946.96184	7655.825
1950.05358	7620.825
1953.14331	7603.325
1956.23103	7559.025
1959.31675	7554.125
1962.40046	7522.225
1965.48217	7504.025
1968.56188	7490.225
1971.63959	7467.225
1974.7153	7446.725
1977.78901	7421.325
1980.86073	7393.425
1983.93046	7377.325
1986.99819	7332.525
1990.06394	7319.925
1993.1277	7314.125
1996.18947	7278.225
1999.24925	7258.325
2002.30706	7211.025
2005.36288	7193.925
2008.41672	7157.225
2011.46859	7108.625
2014.51848	7123.325
2017.56639	7089.125
2020.61233	7077.225
2023.6563	7050.625
2026.6983	7037.525
2029.73833	7014.425
2032.7764	6963.425
2035.8125	6974.425
2038.84664	6931.425
2041.87881	6938.225
2044.90903	6920.225
2047.93729	6889.925
2050.96359	6864.425
2053.98794	6869.725
2057.01034	6854.925
2060.03078	6838.125
2063.04927	6835.425
2066.06582	6817.725
2069.08042	6825.625
2072.09307	6822.125
2075.10378	6811.725
2078.11255	6811.225
2081.11938	6826.225
2084.12426	6802.425
2087.12722	6798.725
2090.12824	6789.625
2093.12732	6795.225
2096.12447	6785.325
2099.11969	6798.725
2102.11299	6788.525
2105.10435	6776.325
2108.09379	6797.525
2111.08131	6803.925
2114.0669	6795.525
2117.05057	6801.125
2120.03233	6798.725
2123.01216	6803.825
2125.99008	6804.825
2128.96609	6801.425
2131.94018	6808.725
2134.91236	6816.125
2137.88263	6813.325
2140.851	6812.025
2143.81746	6816.725
2146.78201	6792.725
2149.74466	6796.825
2152.7054	6801.425
2155.66425	6778.225
2158.6212	6775.925
2161.57625	6757.225
2164.52941	6758.225
2167.48067	6759.425
2170.43004	6754.125
2173.37752	6755.125
2176.32311	6740.825
2179.26681	6731.425
2182.20863	6735.825
2185.14856	6748.425
2188.08661	6740.225
2191.02278	6726.125
2193.95707	6729.725
2196.88948	6711.025
2199.82001	6707.425
2202.74867	6691.925
2205.67545	6691.125
2208.60037	6696.925
2211.52341	6668.025
2214.44458	6657.725
2217.36388	6622.625
2220.28132	6625.225
2223.1969	6597.025
2226.11061	6594.825
2229.02246	6569.825
2231.93245	6553.525
2234.84058	6531.725
2237.74686	6555.625
2240.65128	6540.425
2243.55385	6512.025
2246.45456	6514.125
2249.35343	6497.125
2252.25044	6522.625
2255.14561	6483.425
2258.03893	6470.325
2260.93041	6458.825
2263.82004	6451.825
2266.70783	6431.725
2269.59378	6409.725
2272.4779	6390.325
2275.36017	6390.625
2278.24061	6371.725
2281.11922	6353.025
2283.996	6343.625
2286.87094	6339.225
2289.74405	6326.725
2292.61534	6293.925
2295.4848	6299.225
2298.35243	6286.725
2301.21824	6266.025
2304.08223	6271.525
2306.94439	6264.525
2309.80474	6265.525
2312.66327	6255.725
2315.51999	6239.525
2318.37489	6224.925
2321.22797	6215.225
2324.07925	6249.325
2326.92871	6203.925
2329.77637	6206.425
2332.62222	6181.525
2335.46626	6181.325
2338.3085	6169.025
2341.14893	6144.225
2343.98756	6147.925
2346.8244	6156.325
2349.65943	6165.325
2352.49267	6148.525
2355.32411	6156.825
2358.15376	6161.725
2360.98161	6166.925
2363.80768	6156.425
2366.63195	6191.825
2369.45444	6181.425
2372.27514	6152.325
2375.09405	6137.425
2377.91118	6136.825
2380.72652	6095.825
2383.54009	6081.625
2386.35187	6090.525
2389.16188	6061.425
2391.97011	6048.625
2394.77657	6016.925
2397.58125	5996.525
2400.38416	5990.525
2403.18529	5972.325
2405.98466	5974.025
2408.78226	5961.025
2411.57809	5951.025
2414.37216	5931.325
2417.16446	5933.225
2419.955	5941.325
2422.74378	5941.425
2425.5308	5912.225
2428.31606	5911.025
2431.09956	5919.825
2433.88131	5885.425
2436.6613	5907.025
2439.43954	5879.125
2442.21603	5877.625
2444.99077	5863.725
2447.76377	5881.625
2450.53501	5868.125
2453.30451	5862.325
2456.07226	5866.325
2458.83827	5868.725
2461.60254	5853.825
2464.36507	5867.925
2467.12586	5860.725
2469.88492	5843.625
2472.64224	5844.425
2475.39782	5847.025
2478.15167	5835.325
2480.90379	5846.925
2483.65417	5847.225
2486.40283	5841.825
2489.14976	5867.925
2491.89497	5852.425
2494.63845	5871.725
2497.3802	5848.525
2500.12024	5841.525
2502.85855	5822.725
2505.59514	5836.225
2508.33002	5796.825
2511.06318	5773.225
2513.79462	5779.125
2516.52435	5762.825
2519.25237	5766.225
2521.97867	5747.225
2524.70327	5746.725
2527.42616	5718.425
2530.14734	5711.625
2532.86681	5697.425
2535.58458	5704.125
2538.30065	5701.025
2541.01501	5705.225
2543.72768	5692.225
2546.43864	5686.225
2549.14791	5676.825
2551.85548	5655.925
2554.56136	5649.225
2557.26554	5633.925
2559.96803	5624.025
2562.66883	5608.225
2565.36794	5604.425
2568.06536	5604.225
2570.7611	5580.525
2573.45514	5573.225
2576.14751	5573.125
2578.83819	5544.925
2581.52719	5538.725
2584.21451	5537.325
2586.90015	5532.525
2589.58411	5520.625
2592.2664	5518.525
2594.94701	5513.425
2597.62594	5506.725
2600.30321	5494.325
2602.9788	5489.525
2605.65273	5474.925
2608.32498	5481.625
2610.99557	5444.525
2613.66449	5463.425
2616.33175	5463.225
2618.99734	5463.225
2621.66128	5452.025
2624.32355	5449.225
2626.98416	5438.425
2629.64311	5421.225
2632.30041	5421.325
2634.95605	5421.925
2637.61004	5410.125
2640.26238	5392.725
2642.91306	5406.725
2645.56209	5376.325
2648.20948	5401.725
2650.85521	5371.525
2653.4993	5371.125
2656.14175	5383.025
2658.78255	5385.225
2661.42171	5399.325
2664.05923	5389.325
2666.6951	5401.925
2669.32934	5391.425
2671.96194	5411.925
2674.59291	5395.025
2677.22224	5387.425
2679.84993	5391.525
2682.476	5387.725
2685.10043	5375.025
2687.72324	5352.925
2690.34441	5366.625
2692.96396	5377.425
2695.58188	5378.325
2698.19818	5368.625
2700.81285	5387.325
2703.4259	5371.525
2706.03733	5369.625
2708.64714	5385.325
2711.25533	5368.625
2713.86191	5369.025
2716.46687	5390.825
2719.07021	5380.725
2721.67194	5365.725
2724.27206	5380.625
2726.87057	5379.725
2729.46747	5363.725
2732.06276	5386.425
2734.65644	5370.025
2737.24852	5378.825
2739.83899	5339.725
2742.42786	5358.925
2745.01513	5330.625
2747.60079	5329.725
2750.18486	5308.425
2752.76733	5311.325
2755.3482	5309.825
2757.92747	5301.025
2760.50515	5285.425
2763.08123	5296.825
2765.65573	5279.525
2768.22863	5298.825
2770.79994	5268.725
2773.36967	5270.725
2775.9378	5269.625
2778.50435	5244.725
2781.06932	5245.625
2783.6327	5263.725
2786.1945	5261.825
2788.75471	5248.325
2791.31335	5227.425
2793.87041	5234.925
2796.42589	5216.325
2798.97979	5229.525
2801.53212	5193.825
2804.08288	5187.825
2806.63206	5172.625
2809.17967	5165.925
2811.72571	5165.325
2814.27018	5176.925
2816.81308	5160.425
2819.35442	5148.025
2821.89419	5137.525
2824.43239	5148.825
2826.96904	5116.125
2829.50412	5119.825
2832.03763	5129.425
2834.56959	5118.225
2837.1	5116.825
2839.62884	5121.725
2842.15613	5112.625
2844.68186	5127.725
2847.20604	5126.525
2849.72867	5129.225
2852.24974	5134.625
2854.76927	5118.425
2857.28724	5118.925
2859.80367	5113.525
2862.31855	5125.425
2864.83189	5118.925
2867.34368	5119.825
2869.85393	5114.225
2872.36264	5111.425
2874.8698	5095.725
2877.37543	5103.525
2879.87952	5099.225
2882.38207	5093.525
2884.88308	5098.425
2887.38256	5103.225
2889.88051	5089.925
2892.37692	5080.425
2894.8718	5107.025
2897.36515	5105.925
2899.85698	5096.125
2902.34727	5095.625
2904.83604	5095.925
2907.32328	5091.925
2909.809	5112.125
2912.29319	5120.425
2914.77587	5111.325
2917.25702	5112.325
2919.73665	5102.925
2922.21476	5100.825
2924.69136	5088.425
2927.16644	5091.225
2929.64	5085.625
2932.11205	5057.725
2934.58258	5051.425
2937.05161	5056.325
2939.51912	5034.925
2941.98513	5035.325
2944.44962	5005.325
2946.91261	4994.625
2949.37409	4991.425
2951.83407	5000.025
2954.29254	4992.825
2956.74951	4997.725
2959.20498	4998.925
2961.65895	4987.525
2964.11142	4977.025
2966.56239	4960.125
2969.01186	4967.725
2971.45984	4937.725
2973.90632	4948.525
2976.35131	4935.025
2978.7948	4918.925
2981.23681	4904.625
2983.67732	4893.725
2986.11635	4891.425
2988.55388	4884.925
2990.98993	4878.425
2993.4245	4852.525
2995.85758	4831.225
2998.28917	4842.625
3000.71928	4841.925
3003.14791	4832.025
3005.57506	4838.925
3008.00073	4821.125
3010.42493	4814.025
3012.84764	4794.725
3015.26888	4803.625
3017.68865	4799.725
3020.10694	4796.425
3022.52376	4764.825
3024.9391	4773.325
3027.35298	4755.925
3029.76539	4767.625
3032.17632	4749.725
3034.5858	4727.925
3036.9938	4740.025
3039.40034	4733.425
3041.80542	4718.925
3044.20903	4717.425
3046.61118	4723.625
3049.01187	4702.025
3051.4111	4721.425
3053.80888	4696.025
3056.20519	4698.225
3058.60005	4675.325
3060.99345	4670.125
3063.3854	4662.425
3065.7759	4654.325
3068.16494	4654.225
3070.55254	4620.525
3072.93868	4634.225
3075.32338	4629.325
3077.70662	4606.525
3080.08842	4603.025
3082.46878	4594.325
3084.84769	4612.925
3087.22515	4611.725
3089.60118	4602.625
3091.97576	4597.725
3094.3489	4594.525
3096.72061	4589.225
3099.09087	4595.925
3101.4597	4599.325
3103.82709	4596.425
3106.19305	4594.325
3108.55757	4593.825
3110.92066	4572.925
3113.28232	4586.025
3115.64255	4562.925
3118.00134	4557.525
3120.35871	4546.625
3122.71466	4554.425
3125.06917	4546.025
3127.42226	4541.725
3129.77393	4541.925
3132.12417	4530.925
3134.47299	4542.025
3136.82039	4523.125
3139.16636	4521.925
3141.51092	4527.625
3143.85406	4528.325
3146.19579	4550.825
3148.53609	4541.625
3150.87499	4558.625
3153.21246	4548.425
3155.54853	4571.125
3157.88318	4578.825
3160.21642	4585.025
3162.54826	4574.425
3164.87868	4571.625
3167.2077	4573.925
3169.5353	4574.625
3171.86151	4576.725
3174.18631	4576.325
3176.5097	4564.825
3178.83169	4578.125
3181.15228	4570.325
3183.47147	4578.125
3185.78926	4562.925
3188.10565	4565.525
3190.42065	4557.825
