Data from AgNP_FTO_APTES_UA_100uM_CRN_0uM_R6G_10uM_NaF_0.1M_Addition_RamanShift__50__11-43-30-147.txt Node

Date: Thu Mar 24 11:43:30 GMT 2022
User: TCL
Spectrometer: QEP01345
Trigger mode: 4
Integration Time (sec): 7.000000E0
Scans to average: 10
Electric dark correction enabled: true
Nonlinearity correction enabled: false
Boxcar width: 0
XAxis mode: Raman Shifts
Number of Pixels in Spectrum: 1044
>>>>>Begin Spectral Data<<<<<
46.04893	-1.425
50.45542	-0.025
54.85868	-0.025
59.25871	-1.125
63.6555	53.775
68.04907	54.275
72.43941	54.275
76.82654	54.975
81.21044	61.675
85.59113	63.275
89.96862	63.975
94.34289	65.275
98.71396	68.175
103.08183	69.975
107.4465	68.775
111.80798	70.075
116.16626	72.875
120.52136	78.275
124.87327	77.875
129.222	84.575
133.56755	91.475
137.90993	96.875
142.24913	110.175
146.58517	119.675
150.91804	143.075
155.24774	176.075
159.57429	218.175
163.89768	279.475
168.21792	372.475
172.53501	517.075
176.84895	712.675
181.15975	1006.875
185.46741	1423.375
189.77193	1943.275
194.07331	2597.075
198.37157	3343.275
202.6667	4114.475
206.9587	4922.075
211.24758	5716.175
215.53334	6521.475
219.81599	7416.075
224.09553	8438.675
228.37195	9552.775
232.64527	10772.775
236.91549	12014.975
241.18261	13190.075
245.44663	14177.675
249.70755	14975.175
253.96539	15635.275
258.22014	16113.775
262.4718	16581.475
266.72039	16891.475
270.96589	16985.575
275.20832	16918.575
279.44768	16704.075
283.68397	16429.475
287.91719	16272.875
292.14735	16113.675
296.37445	16191.375
300.59849	16391.875
304.81948	16700.275
309.03742	16996.575
313.25231	17152.975
317.46415	17018.075
321.67296	16718.475
325.87872	16479.775
330.08145	16383.275
334.28114	16357.975
338.47781	16461.675
342.67145	16703.175
346.86207	17024.375
351.04966	17461.875
355.23424	17946.375
359.4158	18226.975
363.59435	18340.775
367.76989	18361.475
371.94243	18345.275
376.11196	18303.675
380.27849	18345.275
384.44203	18455.375
388.60257	18531.475
392.76012	18593.775
396.91468	18729.575
401.06626	18992.675
405.21485	19125.775
409.36047	18899.375
413.50311	18376.875
417.64277	18038.175
421.77947	17896.375
425.9132	18008.675
430.04396	18139.375
434.17176	18366.775
438.2966	18782.975
442.41849	19529.575
446.53742	20669.275
450.6534	21757.175
454.76644	22378.175
458.87653	22210.275
462.98368	21640.075
467.08789	20967.075
471.18916	20284.075
475.2875	19634.975
479.38291	19026.175
483.4754	18565.075
487.56496	18206.475
491.6516	17880.675
495.73531	17576.875
499.81612	17463.675
503.89401	17512.675
507.96899	17612.975
512.04106	17509.575
516.11023	17418.275
520.1765	17292.475
524.23987	17346.375
528.30034	17517.875
532.35792	17546.575
536.41261	17202.275
540.46441	16680.475
544.51333	16398.675
548.55936	16471.875
552.60252	16985.175
556.64279	17795.275
560.6802	18556.475
564.71473	18885.175
568.7464	19326.575
572.7752	20159.475
576.80114	20832.175
580.82422	21356.375
584.84444	22547.175
588.86181	24948.775
592.87633	28438.475
596.888	30087.675
600.89682	27818.375
604.9028	25197.175
608.90594	26198.175
612.90624	28733.075
616.90371	26722.775
620.89834	20723.275
624.89015	17761.575
628.87913	17295.075
632.86528	17460.675
636.84862	17412.075
640.82913	16815.875
644.80683	16038.275
648.78172	15568.575
652.75379	15603.175
656.72306	16040.875
660.68952	16598.775
664.65319	16415.475
668.61405	15751.075
672.57211	15595.475
676.52738	15698.775
680.47986	15726.175
684.42955	15478.375
688.37646	15283.875
692.32058	15402.975
696.26192	15818.675
700.20048	16239.175
704.13626	16474.875
708.06928	16464.875
711.99952	16371.275
715.927	16445.775
719.85171	16603.075
723.77365	16526.475
727.69284	16198.075
731.60928	15999.275
735.52295	16080.275
739.43388	16263.975
743.34206	16416.375
747.24749	16497.375
751.15017	16662.075
755.05012	16954.875
758.94733	17653.475
762.8418	19113.575
766.73354	21553.575
770.62254	23856.175
774.50882	24383.975
778.39237	22946.975
782.27321	20652.675
786.15132	18561.975
790.02671	17161.575
793.89938	16402.375
797.76935	16037.975
801.6366	15849.275
805.50115	15714.675
809.36299	15609.975
813.22213	15438.075
817.07857	15365.675
820.93231	15271.075
824.78336	15220.775
828.63172	15191.975
832.47738	15172.675
836.32036	15217.875
840.16066	15213.975
843.99827	15224.275
847.8332	15167.975
851.66546	15199.275
855.49504	15222.275
859.32195	15197.375
863.1462	15095.275
866.96777	14974.275
870.78668	14959.675
874.60293	14994.075
878.41652	15038.275
882.22745	15172.675
886.03573	15287.175
889.84136	15296.975
893.64433	15198.175
897.44466	15129.975
901.24235	15082.675
905.0374	14995.575
908.8298	14888.475
912.61957	14842.875
916.40671	14956.575
920.19121	15220.075
923.97308	15540.975
927.75233	15765.775
931.52895	15647.375
935.30295	15205.375
939.07433	14697.075
942.84309	14369.775
946.60924	14213.075
950.37278	14190.875
954.13371	14197.875
957.89203	14193.775
961.64774	14167.675
965.40086	14208.075
969.15137	14242.475
972.89929	14195.175
976.64461	14125.375
980.38733	14128.775
984.12747	14148.675
987.86502	14267.075
991.59999	14410.775
995.33237	14700.475
999.06217	15237.375
1002.78939	15958.975
1006.51404	16673.375
1010.23611	17268.675
1013.95561	17587.075
1017.67255	17578.775
1021.38692	17060.475
1025.09872	16233.975
1028.80796	15714.375
1032.51465	15602.975
1036.21877	15701.475
1039.92035	15789.375
1043.61937	15837.975
1047.31584	15820.675
1051.00976	15752.675
1054.70114	15733.575
1058.38998	15728.875
1062.07627	15770.375
1065.76003	15964.275
1069.44126	16220.675
1073.11995	16646.575
1076.79611	17059.175
1080.46974	17399.175
1084.14085	17796.075
1087.80943	18252.075
1091.47549	18498.675
1095.13903	18354.275
1098.80005	17776.775
1102.45857	17159.575
1106.11456	16860.275
1109.76805	16867.875
1113.41903	17095.475
1117.06751	17403.875
1120.71348	17882.275
1124.35696	18394.675
1127.99793	18777.575
1131.63641	18816.775
1135.2724	18546.975
1138.90589	18341.775
1142.5369	18294.475
1146.16542	18485.275
1149.79145	18820.175
1153.415	19114.475
1157.03607	19383.475
1160.65467	19915.575
1164.27079	20958.675
1167.88443	22599.775
1171.49561	24936.675
1175.10432	28252.775
1178.71056	32499.575
1182.31434	36121.575
1185.91565	37065.175
1189.51451	35356.975
1193.11091	32882.875
1196.70485	30443.475
1200.29634	28345.975
1203.88538	26681.975
1207.47197	25480.075
1211.05612	24717.075
1214.63782	24313.975
1218.21708	24284.675
1221.79391	24609.375
1225.36829	25196.475
1228.94024	25217.275
1232.50976	24278.275
1236.07685	22964.275
1239.6415	22105.275
1243.20374	21827.875
1246.76355	21837.975
1250.32093	22021.975
1253.8759	22509.975
1257.42845	23382.775
1260.97859	24454.975
1264.52631	25655.175
1268.07163	26840.375
1271.61453	27873.375
1275.15503	28822.875
1278.69312	29793.175
1282.22882	31179.675
1285.76211	33200.875
1289.29301	35671.675
1292.82151	38355.575
1296.34761	41335.975
1299.87133	44701.075
1303.39266	48483.675
1306.9116	52402.575
1310.42815	56114.375
1313.94233	58241.875
1317.45412	57181.575
1320.96354	53699.175
1324.47058	49999.675
1327.97525	46793.675
1331.47754	44408.275
1334.97747	42846.875
1338.47502	41798.075
1341.97022	41065.275
1345.46305	40504.075
1348.95352	40821.575
1352.44163	42611.375
1355.92738	46491.475
1359.41078	52005.475
1362.89183	56814.875
1366.37053	56942.375
1369.84688	50768.275
1373.32088	42428.675
1376.79254	37174.975
1380.26186	35301.175
1383.72883	34813.275
1387.19347	34110.075
1390.65578	33306.675
1394.11575	33114.375
1397.57339	33563.575
1401.0287	34206.775
1404.48168	34514.375
1407.93234	34147.275
1411.38068	33329.875
1414.82669	32244.875
1418.27039	30973.275
1421.71177	29654.375
1425.15083	28407.875
1428.58758	27977.475
1432.02203	28495.575
1435.45416	29478.775
1438.88399	30307.375
1442.31151	30677.475
1445.73673	30885.575
1449.15965	31010.475
1452.58027	30824.475
1455.9986	30294.175
1459.41463	30129.575
1462.82837	30679.175
1466.23982	31814.275
1469.64898	32928.875
1473.05586	33805.975
1476.46045	34406.375
1479.86276	34717.675
1483.26279	34982.875
1486.66054	35218.975
1490.05602	36034.775
1493.44922	36962.875
1496.84016	37474.475
1500.22882	37831.475
1503.61521	38600.575
1506.99934	39783.575
1510.38121	40891.475
1513.76081	40778.275
1517.13816	39071.575
1520.51324	36811.675
1523.88607	35195.775
1527.25665	34667.875
1530.62498	34744.275
1533.99105	34551.475
1537.35488	33861.475
1540.71647	32674.175
1544.07581	31258.575
1547.4329	29799.075
1550.78776	28606.175
1554.14038	27682.275
1557.49077	27185.275
1560.83892	27059.975
1564.18484	27327.675
1567.52853	27908.275
1570.86999	28717.675
1574.20922	29490.975
1577.54624	29940.775
1580.88103	29558.275
1584.2136	29282.575
1587.54395	30162.775
1590.87208	32569.775
1594.19801	36080.175
1597.52172	39883.175
1600.84321	41394.475
1604.16251	39198.675
1607.47959	34449.175
1610.79447	29339.875
1614.10715	25144.775
1617.41763	22346.075
1620.7259	20803.575
1624.03199	20259.375
1627.33587	20444.975
1630.63757	21528.875
1633.93707	23885.275
1637.23439	28039.575
1640.52951	34648.875
1643.82246	43196.175
1647.11321	50311.175
1650.40179	51480.775
1653.68819	45686.275
1656.97241	36373.375
1660.25446	28163.375
1663.53433	22606.175
1666.81203	19396.475
1670.08756	17592.875
1673.36092	16492.175
1676.63211	15786.775
1679.90115	15316.875
1683.16801	14955.775
1686.43272	14742.975
1689.69527	14510.375
1692.95567	14379.575
1696.2139	14258.575
1699.46999	14194.975
1702.72392	14094.175
1705.97571	14039.975
1709.22535	14004.475
1712.47284	13976.975
1715.71819	13973.775
1718.96139	13921.675
1722.20246	13833.675
1725.44139	13736.075
1728.67818	13590.475
1731.91284	13499.075
1735.14537	13367.675
1738.37576	13270.575
1741.60403	13239.475
1744.83017	13171.075
1748.05418	13116.775
1751.27607	13081.675
1754.49584	13034.575
1757.71349	12990.075
1760.92903	12994.375
1764.14244	12946.475
1767.35375	12973.675
1770.56294	12908.975
1773.77002	12856.175
1776.97499	12845.975
1780.17785	12817.675
1783.37861	12786.075
1786.57727	12745.775
1789.77382	12711.475
1792.96828	12660.475
1796.16064	12626.675
1799.3509	12618.275
1802.53907	12574.775
1805.72514	12547.975
1808.90913	12494.775
1812.09102	12493.875
1815.27083	12452.175
1818.44856	12408.075
1821.6242	12379.275
1824.79776	12364.275
1827.96924	12384.875
1831.13864	12345.075
1834.30597	12362.875
1837.47122	12333.975
1840.6344	12307.575
1843.7955	12303.975
1846.95454	12300.675
1850.11151	12313.175
1853.26642	12269.475
1856.41926	12279.675
1859.57004	12272.575
1862.71876	12271.575
1865.86542	12229.575
1869.01003	12225.675
1872.15258	12196.475
1875.29308	12249.075
1878.43152	12232.575
1881.56792	12284.275
1884.70227	12254.875
1887.83457	12264.275
1890.96482	12278.975
1894.09304	12278.275
1897.21921	12251.875
1900.34335	12274.575
1903.46544	12242.375
1906.58551	12233.275
1909.70353	12208.475
1912.81953	12190.875
1915.93349	12157.075
1919.04543	12129.775
1922.15534	12076.275
1925.26322	12069.775
1928.36908	12033.875
1931.47292	11964.075
1934.57473	11936.375
1937.67453	11899.275
1940.77232	11860.775
1943.86808	11828.775
1946.96184	11810.475
1950.05358	11793.475
1953.14331	11745.675
1956.23103	11748.075
1959.31675	11694.075
1962.40046	11652.375
1965.48217	11649.275
1968.56188	11582.775
1971.63959	11569.675
1974.7153	11527.775
1977.78901	11484.275
1980.86073	11432.075
1983.93046	11380.275
1986.99819	11329.675
1990.06394	11279.275
1993.1277	11240.975
1996.18947	11194.275
1999.24925	11171.575
2002.30706	11149.775
2005.36288	11131.775
2008.41672	11068.475
2011.46859	11049.775
2014.51848	10990.475
2017.56639	10983.475
2020.61233	10956.675
2023.6563	10937.375
2026.6983	10919.975
2029.73833	10884.075
2032.7764	10832.275
2035.8125	10808.375
2038.84664	10803.175
2041.87881	10805.675
2044.90903	10790.475
2047.93729	10764.375
2050.96359	10728.475
2053.98794	10725.775
2057.01034	10719.875
2060.03078	10716.175
2063.04927	10690.075
2066.06582	10667.875
2069.08042	10691.375
2072.09307	10689.375
2075.10378	10682.375
2078.11255	10688.275
2081.11938	10684.475
2084.12426	10680.575
2087.12722	10706.975
2090.12824	10672.375
2093.12732	10701.875
2096.12447	10715.775
2099.11969	10735.475
2102.11299	10686.275
2105.10435	10715.275
2108.09379	10698.775
2111.08131	10679.275
2114.0669	10659.175
2117.05057	10689.575
2120.03233	10681.475
2123.01216	10673.775
2125.99008	10657.875
2128.96609	10664.375
2131.94018	10678.075
2134.91236	10655.175
2137.88263	10677.975
2140.851	10651.575
2143.81746	10647.075
2146.78201	10661.275
2149.74466	10646.175
2152.7054	10629.175
2155.66425	10604.375
2158.6212	10613.775
2161.57625	10588.575
2164.52941	10563.775
2167.48067	10539.975
2170.43004	10556.175
2173.37752	10542.575
2176.32311	10545.675
2179.26681	10561.375
2182.20863	10511.775
2185.14856	10549.575
2188.08661	10540.075
2191.02278	10517.975
2193.95707	10536.375
2196.88948	10524.975
2199.82001	10485.575
2202.74867	10482.475
2205.67545	10472.775
2208.60037	10457.375
2211.52341	10448.175
2214.44458	10423.375
2217.36388	10399.775
2220.28132	10375.275
2223.1969	10325.075
2226.11061	10337.075
2229.02246	10319.175
2231.93245	10311.375
2234.84058	10318.475
2237.74686	10324.475
2240.65128	10288.575
2243.55385	10317.075
2246.45456	10282.375
2249.35343	10240.875
2252.25044	10223.075
2255.14561	10183.475
2258.03893	10181.175
2260.93041	10144.775
2263.82004	10130.675
2266.70783	10086.875
2269.59378	10062.475
2272.4779	10028.075
2275.36017	10001.375
2278.24061	9995.675
2281.11922	9996.275
2283.996	9973.275
2286.87094	9949.675
2289.74405	9891.275
2292.61534	9910.175
2295.4848	9882.775
2298.35243	9918.175
2301.21824	9893.975
2304.08223	9899.675
2306.94439	9902.875
2309.80474	9870.175
2312.66327	9895.975
2315.51999	9896.675
2318.37489	9871.675
2321.22797	9885.175
2324.07925	9845.875
2326.92871	9846.975
2329.77637	9835.075
2332.62222	9831.775
2335.46626	9824.175
2338.3085	9804.475
2341.14893	9793.375
2343.98756	9809.575
2346.8244	9833.575
2349.65943	9798.775
2352.49267	9813.875
2355.32411	9805.475
2358.15376	9821.175
2360.98161	9833.375
2363.80768	9803.675
2366.63195	9820.075
2369.45444	9810.275
2372.27514	9803.375
2375.09405	9799.475
2377.91118	9796.175
2380.72652	9737.475
2383.54009	9725.775
2386.35187	9717.975
2389.16188	9656.075
2391.97011	9648.375
2394.77657	9633.075
2397.58125	9616.075
2400.38416	9622.075
2403.18529	9589.175
2405.98466	9574.875
2408.78226	9560.275
2411.57809	9559.075
2414.37216	9550.675
2417.16446	9504.575
2419.955	9512.675
2422.74378	9519.575
2425.5308	9515.475
2428.31606	9535.975
2431.09956	9528.275
2433.88131	9484.275
2436.6613	9497.975
2439.43954	9480.075
2442.21603	9497.275
2444.99077	9508.175
2447.76377	9548.475
2450.53501	9544.675
2453.30451	9534.875
2456.07226	9527.875
2458.83827	9517.175
2461.60254	9525.675
2464.36507	9524.075
2467.12586	9540.075
2469.88492	9549.175
2472.64224	9551.375
2475.39782	9557.275
2478.15167	9573.775
2480.90379	9609.275
2483.65417	9593.875
2486.40283	9572.675
2489.14976	9579.675
2491.89497	9587.975
2494.63845	9597.275
2497.3802	9571.775
2500.12024	9584.475
2502.85855	9583.975
2505.59514	9550.675
2508.33002	9542.875
2511.06318	9535.375
2513.79462	9512.275
2516.52435	9524.875
2519.25237	9483.275
2521.97867	9487.275
2524.70327	9476.675
2527.42616	9478.775
2530.14734	9454.875
2532.86681	9444.175
2535.58458	9464.575
2538.30065	9475.675
2541.01501	9461.975
2543.72768	9476.675
2546.43864	9468.775
2549.14791	9441.475
2551.85548	9462.875
2554.56136	9469.175
2557.26554	9439.475
2559.96803	9463.075
2562.66883	9434.775
2565.36794	9434.175
2568.06536	9424.675
2570.7611	9427.975
2573.45514	9429.875
2576.14751	9403.975
2578.83819	9409.675
2581.52719	9418.175
2584.21451	9413.975
2586.90015	9377.275
2589.58411	9399.375
2592.2664	9406.275
2594.94701	9378.175
2597.62594	9374.675
2600.30321	9362.375
2602.9788	9387.475
2605.65273	9370.475
2608.32498	9359.375
2610.99557	9373.375
2613.66449	9370.175
2616.33175	9398.775
2618.99734	9386.675
2621.66128	9408.375
2624.32355	9378.475
2626.98416	9356.275
2629.64311	9371.575
2632.30041	9370.275
2634.95605	9349.175
2637.61004	9351.875
2640.26238	9344.575
2642.91306	9315.775
2645.56209	9343.375
2648.20948	9324.575
2650.85521	9342.875
2653.4993	9338.175
2656.14175	9390.675
2658.78255	9384.175
2661.42171	9383.875
2664.05923	9429.075
2666.6951	9423.675
2669.32934	9421.375
2671.96194	9424.075
2674.59291	9448.575
2677.22224	9429.975
2679.84993	9433.075
2682.476	9438.475
2685.10043	9427.575
2687.72324	9427.475
2690.34441	9409.675
2692.96396	9421.575
2695.58188	9411.575
2698.19818	9391.475
2700.81285	9384.575
2703.4259	9394.675
2706.03733	9418.375
2708.64714	9399.275
2711.25533	9434.175
2713.86191	9435.775
2716.46687	9436.475
2719.07021	9425.975
2721.67194	9441.075
2724.27206	9466.775
2726.87057	9491.875
2729.46747	9488.075
2732.06276	9504.175
2734.65644	9478.775
2737.24852	9487.875
2739.83899	9461.575
2742.42786	9466.375
2745.01513	9455.675
2747.60079	9453.575
2750.18486	9451.375
2752.76733	9460.475
2755.3482	9471.875
2757.92747	9473.775
2760.50515	9469.575
2763.08123	9471.075
2765.65573	9457.175
2768.22863	9465.775
2770.79994	9477.875
2773.36967	9477.475
2775.9378	9465.075
2778.50435	9458.275
2781.06932	9450.775
2783.6327	9466.575
2786.1945	9462.875
2788.75471	9444.375
2791.31335	9409.375
2793.87041	9434.475
2796.42589	9421.775
2798.97979	9443.275
2801.53212	9390.775
2804.08288	9399.275
2806.63206	9386.575
2809.17967	9366.475
2811.72571	9352.175
2814.27018	9364.575
2816.81308	9344.475
2819.35442	9338.275
2821.89419	9357.775
2824.43239	9346.375
2826.96904	9347.775
2829.50412	9365.775
2832.03763	9338.275
2834.56959	9326.975
2837.1	9302.075
2839.62884	9298.075
2842.15613	9285.775
2844.68186	9292.775
2847.20604	9280.175
2849.72867	9286.575
2852.24974	9295.775
2854.76927	9320.575
2857.28724	9278.375
2859.80367	9296.175
2862.31855	9287.275
2864.83189	9285.875
2867.34368	9275.075
2869.85393	9284.975
2872.36264	9267.675
2874.8698	9267.775
2877.37543	9269.075
2879.87952	9262.575
2882.38207	9270.375
2884.88308	9261.575
2887.38256	9297.175
2889.88051	9267.575
2892.37692	9267.975
2894.8718	9279.175
2897.36515	9295.075
2899.85698	9261.075
2902.34727	9286.675
2904.83604	9300.975
2907.32328	9306.475
2909.809	9315.275
2912.29319	9321.075
2914.77587	9268.375
2917.25702	9306.175
2919.73665	9282.275
2922.21476	9280.375
2924.69136	9288.675
2927.16644	9293.675
2929.64	9238.775
2932.11205	9211.075
2934.58258	9189.175
2937.05161	9217.275
2939.51912	9209.975
2941.98513	9200.075
2944.44962	9206.275
2946.91261	9150.875
2949.37409	9178.375
2951.83407	9179.275
2954.29254	9182.975
2956.74951	9162.275
2959.20498	9137.975
2961.65895	9133.975
2964.11142	9112.075
2966.56239	9100.775
2969.01186	9061.475
2971.45984	9031.975
2973.90632	9008.475
2976.35131	8962.175
2978.7948	8915.875
2981.23681	8900.875
2983.67732	8900.075
2986.11635	8873.775
2988.55388	8835.875
2990.98993	8843.075
2993.4245	8797.975
2995.85758	8784.375
2998.28917	8766.475
3000.71928	8745.075
3003.14791	8766.275
3005.57506	8747.475
3008.00073	8719.475
3010.42493	8710.375
3012.84764	8674.775
3015.26888	8652.275
3017.68865	8632.875
3020.10694	8623.375
3022.52376	8558.175
3024.9391	8564.775
3027.35298	8533.975
3029.76539	8545.975
3032.17632	8512.575
3034.5858	8500.075
3036.9938	8486.975
3039.40034	8502.675
3041.80542	8490.575
3044.20903	8447.475
3046.61118	8462.075
3049.01187	8421.375
3051.4111	8426.975
3053.80888	8397.675
3056.20519	8418.375
3058.60005	8364.475
3060.99345	8364.375
3063.3854	8333.875
3065.7759	8301.475
3068.16494	8306.075
3070.55254	8255.675
3072.93868	8236.575
3075.32338	8217.475
3077.70662	8214.775
3080.08842	8181.775
3082.46878	8192.775
3084.84769	8150.575
3087.22515	8144.675
3089.60118	8157.575
3091.97576	8141.975
3094.3489	8118.575
3096.72061	8121.275
3099.09087	8095.975
3101.4597	8082.675
3103.82709	8055.975
3106.19305	8017.775
3108.55757	8045.075
3110.92066	7982.375
3113.28232	7975.975
3115.64255	7942.875
3118.00134	7910.775
3120.35871	7930.775
3122.71466	7900.075
3125.06917	7890.275
3127.42226	7906.475
3129.77393	7895.875
3132.12417	7893.775
3134.47299	7908.375
3136.82039	7918.475
3139.16636	7913.275
3141.51092	7900.375
3143.85406	7878.575
3146.19579	7858.375
3148.53609	7853.475
3150.87499	7885.175
3153.21246	7861.975
3155.54853	7835.475
3157.88318	7837.675
3160.21642	7826.775
3162.54826	7822.575
3164.87868	7806.475
3167.2077	7782.475
