Data from AgNP_FTO_APTES_UA_100uM_CRN_5uM_R6G_10uM_NaF_0.1M_Addition_RamanShift__1__14-39-40-351.txt Node

Date: Thu Mar 24 14:39:40 GMT 2022
User: TCL
Spectrometer: QEP01345
Trigger mode: 4
Integration Time (sec): 7.000000E0
Scans to average: 10
Electric dark correction enabled: true
Nonlinearity correction enabled: false
Boxcar width: 0
XAxis mode: Raman Shifts
Number of Pixels in Spectrum: 1044
>>>>>Begin Spectral Data<<<<<
46.04893	-2.175
50.45542	0.325
54.85868	0.025
59.25871	-0.375
63.6555	27.725
68.04907	34.825
72.43941	32.725
76.82654	30.125
81.21044	37.025
85.59113	35.725
89.96862	41.125
94.34289	40.025
98.71396	40.325
103.08183	40.725
107.4465	42.325
111.80798	43.525
116.16626	44.025
120.52136	42.025
124.87327	46.225
129.222	47.825
133.56755	53.125
137.90993	54.725
142.24913	62.825
146.58517	64.325
150.91804	75.225
155.24774	91.425
159.57429	114.425
163.89768	148.125
168.21792	197.825
172.53501	267.625
176.84895	374.025
181.15975	527.425
185.46741	744.425
189.77193	1023.425
194.07331	1365.525
198.37157	1785.325
202.6667	2216.625
206.9587	2654.325
211.24758	3111.225
215.53334	3593.725
219.81599	4114.925
224.09553	4727.325
228.37195	5402.825
232.64527	6124.725
236.91549	6808.825
241.18261	7396.825
245.44663	7852.525
249.70755	8161.725
253.96539	8401.225
258.22014	8623.825
262.4718	8832.425
266.72039	8989.225
270.96589	9000.125
275.20832	8921.625
279.44768	8738.325
283.68397	8541.925
287.91719	8421.425
292.14735	8422.025
296.37445	8645.725
300.59849	9071.325
304.81948	9655.325
309.03742	10110.925
313.25231	10284.125
317.46415	9947.425
321.67296	9216.425
325.87872	8519.925
330.08145	8167.025
334.28114	8139.625
338.47781	8280.625
342.67145	8519.125
346.86207	8894.525
351.04966	9441.825
355.23424	10038.025
359.4158	10502.825
363.59435	10633.525
367.76989	10594.925
371.94243	10420.525
376.11196	10262.625
380.27849	10133.125
384.44203	10006.225
388.60257	9861.125
392.76012	9854.825
396.91468	9948.925
401.06626	10191.625
405.21485	10411.425
409.36047	10129.925
413.50311	9563.025
417.64277	8977.525
421.77947	8649.325
425.9132	8472.725
430.04396	8449.125
434.17176	8480.825
438.2966	8583.025
442.41849	8855.925
446.53742	9195.725
450.6534	9535.025
454.76644	9717.025
458.87653	9666.525
462.98368	9512.325
467.08789	9304.225
471.18916	9067.525
475.2875	8779.225
479.38291	8518.125
483.4754	8304.425
487.56496	8155.725
491.6516	8105.525
495.73531	8078.125
499.81612	8127.525
503.89401	8242.025
507.96899	8324.825
512.04106	8452.725
516.11023	8569.225
520.1765	8704.525
524.23987	8734.025
528.30034	8717.625
532.35792	8639.725
536.41261	8493.325
540.46441	8288.925
544.51333	8153.325
548.55936	8196.525
552.60252	8355.925
556.64279	8616.625
560.6802	8789.625
564.71473	8937.225
568.7464	9310.725
572.7752	9507.325
576.80114	9245.425
580.82422	9007.025
584.84444	9123.725
588.86181	9405.425
592.87633	9788.125
596.888	10119.025
600.89682	10224.925
604.9028	11070.425
608.90594	14405.425
612.90624	18998.625
616.90371	18333.425
620.89834	12239.225
624.89015	9135.025
628.87913	8574.925
632.86528	8743.525
636.84862	9009.725
640.82913	8800.325
644.80683	8246.425
648.78172	7837.925
652.75379	7861.925
656.72306	8288.125
660.68952	8808.925
664.65319	8694.825
668.61405	8078.825
672.57211	7817.825
676.52738	7798.125
680.47986	7770.525
684.42955	7648.425
688.37646	7544.925
692.32058	7579.725
696.26192	7699.525
700.20048	7846.625
704.13626	7936.625
708.06928	7899.225
711.99952	7814.625
715.927	7861.425
719.85171	7932.525
723.77365	7985.025
727.69284	7903.725
731.60928	7834.725
735.52295	7835.325
739.43388	7891.225
743.34206	7912.825
747.24749	7898.325
751.15017	7925.925
755.05012	8027.925
758.94733	8485.825
762.8418	9742.425
766.73354	11867.025
770.62254	13861.725
774.50882	14642.725
778.39237	14085.025
782.27321	12163.125
786.15132	10070.125
790.02671	8747.525
793.89938	8145.325
797.76935	7864.225
801.6366	7744.825
805.50115	7698.525
809.36299	7643.525
813.22213	7597.625
817.07857	7545.325
820.93231	7555.825
824.78336	7555.225
828.63172	7632.025
832.47738	7641.925
836.32036	7583.325
840.16066	7558.125
843.99827	7530.025
847.8332	7512.225
851.66546	7512.025
855.49504	7493.225
859.32195	7502.525
863.1462	7449.225
866.96777	7448.325
870.78668	7459.025
874.60293	7475.325
878.41652	7535.425
882.22745	7606.625
886.03573	7689.925
889.84136	7682.425
893.64433	7622.625
897.44466	7598.525
901.24235	7607.525
905.0374	7518.025
908.8298	7465.125
912.61957	7392.325
916.40671	7366.525
920.19121	7436.425
923.97308	7560.225
927.75233	7757.525
931.52895	7916.525
935.30295	7817.025
939.07433	7509.625
942.84309	7229.625
946.60924	7081.625
950.37278	7044.625
954.13371	7029.925
957.89203	7005.625
961.64774	7009.225
965.40086	6981.725
969.15137	6975.825
972.89929	6961.625
976.64461	6999.225
980.38733	6985.125
984.12747	6991.825
987.86502	7055.225
991.59999	7116.125
995.33237	7260.925
999.06217	7445.825
1002.78939	7685.725
1006.51404	7914.025
1010.23611	8099.625
1013.95561	8214.325
1017.67255	8166.725
1021.38692	7994.725
1025.09872	7796.725
1028.80796	7664.425
1032.51465	7694.425
1036.21877	7797.725
1039.92035	7895.225
1043.61937	7912.825
1047.31584	7880.925
1051.00976	7807.925
1054.70114	7756.625
1058.38998	7712.425
1062.07627	7729.625
1065.76003	7742.325
1069.44126	7844.425
1073.11995	8039.925
1076.79611	8294.925
1080.46974	8566.825
1084.14085	8885.725
1087.80943	9216.125
1091.47549	9298.125
1095.13903	9054.625
1098.80005	8666.025
1102.45857	8347.625
1106.11456	8234.525
1109.76805	8274.825
1113.41903	8484.725
1117.06751	8842.025
1120.71348	9366.725
1124.35696	9991.025
1127.99793	10483.425
1131.63641	10332.725
1135.2724	9685.125
1138.90589	9118.625
1142.5369	8766.925
1146.16542	8566.025
1149.79145	8437.125
1153.415	8383.125
1157.03607	8427.225
1160.65467	8622.825
1164.27079	8997.925
1167.88443	9649.125
1171.49561	10634.625
1175.10432	12279.125
1178.71056	14466.925
1182.31434	16244.025
1185.91565	16716.125
1189.51451	16118.825
1193.11091	14983.025
1196.70485	13683.525
1200.29634	12610.825
1203.88538	11720.825
1207.47197	10734.625
1211.05612	9940.825
1214.63782	9459.425
1218.21708	9286.425
1221.79391	9270.425
1225.36829	9344.025
1228.94024	9309.125
1232.50976	9197.925
1236.07685	9084.925
1239.6415	9098.325
1243.20374	9188.425
1246.76355	9272.925
1250.32093	9361.525
1253.8759	9569.625
1257.42845	9951.825
1260.97859	10513.025
1264.52631	11102.325
1268.07163	11705.625
1271.61453	12129.125
1275.15503	12341.625
1278.69312	12391.925
1282.22882	12520.025
1285.76211	12968.225
1289.29301	13626.725
1292.82151	14265.925
1296.34761	14893.125
1299.87133	15886.725
1303.39266	17588.625
1306.9116	20179.025
1310.42815	22900.825
1313.94233	24118.825
1317.45412	22879.825
1320.96354	20562.825
1324.47058	18329.825
1327.97525	16486.225
1331.47754	15171.225
1334.97747	14489.325
1338.47502	14406.925
1341.97022	14787.925
1345.46305	15674.525
1348.95352	17078.825
1352.44163	18930.625
1355.92738	21577.525
1359.41078	25588.125
1362.89183	29446.225
1366.37053	28488.625
1369.84688	23079.025
1373.32088	17913.225
1376.79254	15099.725
1380.26186	13834.325
1383.72883	13011.225
1387.19347	12241.925
1390.65578	11380.725
1394.11575	10761.625
1397.57339	10451.225
1401.0287	10356.525
1404.48168	10325.025
1407.93234	10337.925
1411.38068	10483.525
1414.82669	10639.325
1418.27039	10729.925
1421.71177	10612.325
1425.15083	10385.025
1428.58758	10277.125
1432.02203	10523.925
1435.45416	10916.725
1438.88399	11142.525
1442.31151	11126.925
1445.73673	11145.125
1449.15965	11213.825
1452.58027	11108.525
1455.9986	10867.825
1459.41463	10707.325
1462.82837	10810.525
1466.23982	11208.625
1469.64898	11692.725
1473.05586	12111.025
1476.46045	12477.925
1479.86276	12879.025
1483.26279	13308.825
1486.66054	13888.125
1490.05602	14730.925
1493.44922	15900.525
1496.84016	17348.625
1500.22882	19290.025
1503.61521	22005.025
1506.99934	25251.325
1510.38121	27867.125
1513.76081	28122.625
1517.13816	25386.425
1520.51324	21054.925
1523.88607	17278.325
1527.25665	14880.325
1530.62498	13580.725
1533.99105	12837.225
1537.35488	12323.525
1540.71647	11960.925
1544.07581	11676.025
1547.4329	11551.725
1550.78776	11446.925
1554.14038	11446.025
1557.49077	11486.625
1560.83892	11738.825
1564.18484	12271.725
1567.52853	13094.625
1570.86999	13826.325
1574.20922	14215.725
1577.54624	14084.925
1580.88103	13108.525
1584.2136	11822.925
1587.54395	11141.025
1590.87208	11248.425
1594.19801	12167.225
1597.52172	13489.425
1600.84321	14277.125
1604.16251	13856.025
1607.47959	12739.125
1610.79447	11434.525
1614.10715	10248.925
1617.41763	9368.025
1620.7259	8837.225
1624.03199	8632.725
1627.33587	8675.725
1630.63757	8974.725
1633.93707	9652.125
1637.23439	10816.325
1640.52951	12812.725
1643.82246	15828.125
1647.11321	19253.225
1650.40179	21295.025
1653.68819	20253.025
1656.97241	16694.025
1660.25446	12977.225
1663.53433	10406.325
1666.81203	8932.225
1670.08756	8139.425
1673.36092	7673.925
1676.63211	7363.925
1679.90115	7191.025
1683.16801	7036.725
1686.43272	6935.725
1689.69527	6829.725
1692.95567	6769.825
1696.2139	6755.125
1699.46999	6742.725
1702.72392	6711.925
1705.97571	6666.325
1709.22535	6634.925
1712.47284	6660.425
1715.71819	6663.725
1718.96139	6638.225
1722.20246	6621.925
1725.44139	6591.825
1728.67818	6519.625
1731.91284	6445.925
1735.14537	6377.125
1738.37576	6343.725
1741.60403	6323.825
1744.83017	6292.525
1748.05418	6291.725
1751.27607	6237.725
1754.49584	6251.425
1757.71349	6220.025
1760.92903	6210.225
1764.14244	6201.625
1767.35375	6188.925
1770.56294	6169.125
1773.77002	6122.625
1776.97499	6117.325
1780.17785	6097.325
1783.37861	6048.025
1786.57727	6039.925
1789.77382	6024.125
1792.96828	6000.225
1796.16064	6000.525
1799.3509	5980.325
1802.53907	5973.725
1805.72514	5943.325
1808.90913	5923.425
1812.09102	5919.225
1815.27083	5890.425
1818.44856	5872.425
1821.6242	5865.325
1824.79776	5845.225
1827.96924	5845.525
1831.13864	5843.725
1834.30597	5825.225
1837.47122	5812.125
1840.6344	5811.225
1843.7955	5790.125
1846.95454	5805.425
1850.11151	5770.825
1853.26642	5785.225
1856.41926	5788.725
1859.57004	5757.225
1862.71876	5761.825
1865.86542	5761.225
1869.01003	5744.025
1872.15258	5748.525
1875.29308	5748.525
1878.43152	5744.225
1881.56792	5762.825
1884.70227	5749.225
1887.83457	5740.025
1890.96482	5723.825
1894.09304	5702.925
1897.21921	5720.125
1900.34335	5708.025
1903.46544	5719.725
1906.58551	5711.425
1909.70353	5722.525
1912.81953	5692.825
1915.93349	5698.225
1919.04543	5683.525
1922.15534	5668.225
1925.26322	5653.925
1928.36908	5635.225
1931.47292	5610.225
1934.57473	5585.025
1937.67453	5568.725
1940.77232	5548.525
1943.86808	5532.425
1946.96184	5534.925
1950.05358	5506.125
1953.14331	5483.425
1956.23103	5468.025
1959.31675	5481.025
1962.40046	5455.525
1965.48217	5440.625
1968.56188	5429.725
1971.63959	5436.825
1974.7153	5414.625
1977.78901	5366.425
1980.86073	5356.225
1983.93046	5352.025
1986.99819	5313.325
1990.06394	5318.725
1993.1277	5267.925
1996.18947	5251.525
1999.24925	5244.525
2002.30706	5201.525
2005.36288	5204.525
2008.41672	5190.225
2011.46859	5182.125
2014.51848	5147.525
2017.56639	5150.025
2020.61233	5116.425
2023.6563	5119.425
2026.6983	5122.625
2029.73833	5093.225
2032.7764	5080.525
2035.8125	5079.225
2038.84664	5072.125
2041.87881	5062.225
2044.90903	5070.025
2047.93729	5043.225
2050.96359	5050.525
2053.98794	5051.125
2057.01034	5016.625
2060.03078	5015.125
2063.04927	5009.625
2066.06582	5005.325
2069.08042	4982.825
2072.09307	4997.425
2075.10378	4981.325
2078.11255	4974.825
2081.11938	4968.825
2084.12426	4962.525
2087.12722	4979.925
2090.12824	4989.525
2093.12732	4987.525
2096.12447	5003.425
2099.11969	5008.225
2102.11299	5000.525
2105.10435	5007.825
2108.09379	4991.725
2111.08131	5010.425
2114.0669	5006.225
2117.05057	5005.025
2120.03233	4993.725
2123.01216	4999.825
2125.99008	4997.025
2128.96609	5013.325
2131.94018	5015.525
2134.91236	5015.925
2137.88263	5023.325
2140.851	5017.525
2143.81746	5025.325
2146.78201	5016.925
2149.74466	5015.425
2152.7054	4994.425
2155.66425	4984.125
2158.6212	4983.925
2161.57625	4994.325
2164.52941	4966.625
2167.48067	4962.225
2170.43004	4967.225
2173.37752	4977.925
2176.32311	4987.025
2179.26681	4984.025
2182.20863	4968.225
2185.14856	4960.425
2188.08661	4975.825
2191.02278	4970.425
2193.95707	4966.425
2196.88948	4947.225
2199.82001	4961.425
2202.74867	4944.225
2205.67545	4944.825
2208.60037	4941.125
2211.52341	4941.625
2214.44458	4932.625
2217.36388	4921.025
2220.28132	4910.025
2223.1969	4902.525
2226.11061	4916.225
2229.02246	4871.225
2231.93245	4871.925
2234.84058	4866.525
2237.74686	4858.225
2240.65128	4863.325
2243.55385	4856.225
2246.45456	4841.625
2249.35343	4851.625
2252.25044	4848.425
2255.14561	4846.625
2258.03893	4858.525
2260.93041	4840.325
2263.82004	4842.425
2266.70783	4835.525
2269.59378	4820.325
2272.4779	4806.125
2275.36017	4819.525
2278.24061	4788.725
2281.11922	4775.925
2283.996	4776.625
2286.87094	4753.425
2289.74405	4756.225
2292.61534	4728.525
2295.4848	4737.425
2298.35243	4731.425
2301.21824	4725.825
2304.08223	4710.325
2306.94439	4714.925
2309.80474	4712.225
2312.66327	4703.425
2315.51999	4702.025
2318.37489	4696.925
2321.22797	4699.625
2324.07925	4711.125
2326.92871	4698.925
2329.77637	4690.925
2332.62222	4684.125
2335.46626	4700.425
2338.3085	4694.525
2341.14893	4679.725
2343.98756	4695.725
2346.8244	4712.125
2349.65943	4700.525
2352.49267	4689.425
2355.32411	4716.925
2358.15376	4712.825
2360.98161	4730.425
2363.80768	4738.625
2366.63195	4723.225
2369.45444	4740.425
2372.27514	4733.425
2375.09405	4720.325
2377.91118	4710.625
2380.72652	4693.325
2383.54009	4692.025
2386.35187	4686.425
2389.16188	4646.925
2391.97011	4628.625
2394.77657	4611.925
2397.58125	4617.725
2400.38416	4587.425
2403.18529	4582.325
2405.98466	4559.725
2408.78226	4560.725
2411.57809	4550.325
2414.37216	4537.225
2417.16446	4522.425
2419.955	4513.525
2422.74378	4528.725
2425.5308	4526.825
2428.31606	4530.325
2431.09956	4540.025
2433.88131	4543.425
2436.6613	4527.925
2439.43954	4545.425
2442.21603	4522.925
2444.99077	4534.125
2447.76377	4554.825
2450.53501	4562.525
2453.30451	4560.625
2456.07226	4532.625
2458.83827	4544.325
2461.60254	4554.125
2464.36507	4558.325
2467.12586	4571.225
2469.88492	4564.225
2472.64224	4565.925
2475.39782	4570.125
2478.15167	4581.925
2480.90379	4582.125
2483.65417	4571.125
2486.40283	4606.825
2489.14976	4613.825
2491.89497	4601.025
2494.63845	4625.325
2497.3802	4626.025
2500.12024	4613.125
2502.85855	4595.725
2505.59514	4569.125
2508.33002	4569.625
2511.06318	4546.925
2513.79462	4512.525
2516.52435	4496.425
2519.25237	4492.425
2521.97867	4476.425
2524.70327	4477.425
2527.42616	4472.225
2530.14734	4455.325
2532.86681	4452.125
2535.58458	4451.325
2538.30065	4460.725
2541.01501	4454.825
2543.72768	4440.125
2546.43864	4448.725
2549.14791	4443.625
2551.85548	4451.725
2554.56136	4447.125
2557.26554	4468.025
2559.96803	4467.325
2562.66883	4441.625
2565.36794	4453.725
2568.06536	4445.625
2570.7611	4433.125
2573.45514	4427.825
2576.14751	4419.225
2578.83819	4406.625
2581.52719	4412.725
2584.21451	4411.725
2586.90015	4393.325
2589.58411	4386.325
2592.2664	4382.125
2594.94701	4377.725
2597.62594	4369.325
2600.30321	4357.925
2602.9788	4361.225
2605.65273	4367.325
2608.32498	4368.525
2610.99557	4354.125
2613.66449	4358.125
2616.33175	4365.825
2618.99734	4358.025
2621.66128	4351.425
2624.32355	4359.425
2626.98416	4344.525
2629.64311	4335.825
2632.30041	4340.625
2634.95605	4321.625
2637.61004	4307.125
2640.26238	4316.025
2642.91306	4303.825
2645.56209	4302.525
2648.20948	4302.225
2650.85521	4299.225
2653.4993	4290.625
2656.14175	4315.225
2658.78255	4297.625
2661.42171	4307.925
2664.05923	4328.825
2666.6951	4329.325
2669.32934	4338.025
2671.96194	4336.225
2674.59291	4338.625
2677.22224	4342.025
2679.84993	4329.825
2682.476	4334.725
2685.10043	4342.625
2687.72324	4329.925
2690.34441	4307.325
2692.96396	4327.525
2695.58188	4319.025
2698.19818	4317.725
2700.81285	4327.925
2703.4259	4332.325
2706.03733	4337.625
2708.64714	4326.425
2711.25533	4346.225
2713.86191	4324.425
2716.46687	4342.625
2719.07021	4354.125
2721.67194	4360.725
2724.27206	4337.225
2726.87057	4340.825
2729.46747	4320.925
2732.06276	4342.925
2734.65644	4333.225
2737.24852	4331.825
2739.83899	4325.325
2742.42786	4320.325
2745.01513	4299.925
2747.60079	4304.525
2750.18486	4294.125
2752.76733	4299.225
2755.3482	4278.325
2757.92747	4284.225
2760.50515	4284.225
2763.08123	4281.425
2765.65573	4263.925
2768.22863	4277.525
2770.79994	4250.625
2773.36967	4257.125
2775.9378	4255.725
2778.50435	4260.625
2781.06932	4251.525
2783.6327	4248.925
2786.1945	4252.325
2788.75471	4248.625
2791.31335	4246.325
2793.87041	4241.125
2796.42589	4223.725
2798.97979	4241.625
2801.53212	4223.825
2804.08288	4225.425
2806.63206	4238.125
2809.17967	4242.125
2811.72571	4239.625
2814.27018	4251.225
2816.81308	4248.125
2819.35442	4240.225
2821.89419	4252.625
2824.43239	4240.625
2826.96904	4248.325
2829.50412	4262.725
2832.03763	4253.725
2834.56959	4250.525
2837.1	4257.325
2839.62884	4231.625
2842.15613	4244.125
2844.68186	4243.825
2847.20604	4240.525
2849.72867	4245.425
2852.24974	4258.825
2854.76927	4255.525
2857.28724	4254.725
2859.80367	4261.225
2862.31855	4259.025
2864.83189	4271.525
2867.34368	4268.325
2869.85393	4285.925
2872.36264	4279.925
2874.8698	4289.525
2877.37543	4283.125
2879.87952	4287.125
2882.38207	4277.225
2884.88308	4260.525
2887.38256	4256.725
2889.88051	4256.025
2892.37692	4247.525
2894.8718	4246.325
2897.36515	4247.225
2899.85698	4256.125
2902.34727	4273.425
2904.83604	4267.625
2907.32328	4276.825
2909.809	4286.725
2912.29319	4289.825
2914.77587	4286.825
2917.25702	4278.925
2919.73665	4253.625
2922.21476	4251.825
2924.69136	4248.825
2927.16644	4243.325
2929.64	4234.925
2932.11205	4233.225
2934.58258	4211.225
2937.05161	4218.825
2939.51912	4214.825
2941.98513	4203.825
2944.44962	4195.425
2946.91261	4190.425
2949.37409	4181.325
2951.83407	4189.925
2954.29254	4181.225
2956.74951	4172.525
2959.20498	4182.425
2961.65895	4161.425
2964.11142	4168.925
2966.56239	4169.225
2969.01186	4157.725
2971.45984	4131.025
2973.90632	4126.825
2976.35131	4106.925
2978.7948	4121.725
2981.23681	4114.425
2983.67732	4100.825
2986.11635	4090.125
2988.55388	4061.125
2990.98993	4074.625
2993.4245	4066.325
2995.85758	4066.325
2998.28917	4054.825
3000.71928	4032.325
3003.14791	4028.825
3005.57506	4031.625
3008.00073	4026.725
3010.42493	4039.325
3012.84764	4035.525
3015.26888	4030.125
3017.68865	4020.225
3020.10694	4024.525
3022.52376	3988.025
3024.9391	3990.925
3027.35298	3980.125
3029.76539	3972.725
3032.17632	3962.925
3034.5858	3962.525
3036.9938	3944.825
3039.40034	3926.725
3041.80542	3937.025
3044.20903	3921.125
3046.61118	3920.025
3049.01187	3899.725
3051.4111	3904.425
3053.80888	3911.125
3056.20519	3895.825
3058.60005	3901.325
3060.99345	3894.825
3063.3854	3894.625
3065.7759	3883.725
3068.16494	3881.725
3070.55254	3870.625
3072.93868	3854.625
3075.32338	3870.425
3077.70662	3848.325
3080.08842	3840.425
3082.46878	3823.825
3084.84769	3825.325
3087.22515	3829.325
3089.60118	3841.225
3091.97576	3831.725
3094.3489	3831.725
3096.72061	3828.225
3099.09087	3827.025
3101.4597	3834.625
3103.82709	3833.425
3106.19305	3815.425
3108.55757	3820.025
3110.92066	3812.925
3113.28232	3810.125
3115.64255	3796.825
3118.00134	3779.625
3120.35871	3790.425
3122.71466	3788.625
3125.06917	3787.525
3127.42226	3784.725
3129.77393	3792.625
3132.12417	3788.225
3134.47299	3807.425
3136.82039	3793.925
3139.16636	3800.225
3141.51092	3808.425
3143.85406	3807.525
3146.19579	3818.225
3148.53609	3820.925
3150.87499	3814.925
3153.21246	3823.925
3155.54853	3822.525
3157.88318	3799.125
3160.21642	3817.025
3162.54826	3816.425
3164.87868	3820.425
3167.2077	3811.625
3169.5353	3809.025
3171.86151	3805.325
3174.18631	3818.925
3176.5097	3810.525
3178.83169	3809.625
3181.15228	3800.225
3183.47147	3806.025
3185.78926	3798.725
3188.10565	3808.225
3190.42065	3802.025
3192.73424	3804.025
3195.04645	3801.825
3197.35725	3820.625
3199.66667	3825.025
3201.97469	3819.325
3204.28132	3821.425
3206.58656	3835.725
3208.8904	3829.825
3211.19287	3834.225
3213.49394	3846.325
3215.79363	3851.125
3218.09193	3847.625
