Data from AgNP_FTO_APTES_UA_100uM_CRN_0uM_R6G_10uM_NaF_0.1M_Addition_RamanShift__16__11-03-50-101.txt Node

Date: Thu Mar 24 11:03:50 GMT 2022
User: TCL
Spectrometer: QEP01345
Trigger mode: 4
Integration Time (sec): 7.000000E0
Scans to average: 10
Electric dark correction enabled: true
Nonlinearity correction enabled: false
Boxcar width: 0
XAxis mode: Raman Shifts
Number of Pixels in Spectrum: 1044
>>>>>Begin Spectral Data<<<<<
46.04893	-1.125
50.45542	1.275
54.85868	-0.025
59.25871	-0.025
63.6555	32.575
68.04907	31.175
72.43941	33.875
76.82654	31.375
81.21044	37.475
85.59113	36.675
89.96862	39.975
94.34289	40.275
98.71396	44.975
103.08183	42.975
107.4465	44.075
111.80798	49.275
116.16626	44.075
120.52136	46.975
124.87327	46.075
129.222	51.375
133.56755	51.775
137.90993	56.775
142.24913	62.575
146.58517	66.175
150.91804	78.475
155.24774	93.275
159.57429	115.975
163.89768	145.275
168.21792	195.575
172.53501	258.075
176.84895	366.675
181.15975	509.475
185.46741	716.575
189.77193	975.875
194.07331	1300.775
198.37157	1682.775
202.6667	2064.675
206.9587	2471.375
211.24758	2866.675
215.53334	3286.875
219.81599	3746.475
224.09553	4261.575
228.37195	4854.675
232.64527	5497.675
236.91549	6110.275
241.18261	6696.375
245.44663	7191.375
249.70755	7552.175
253.96539	7819.075
258.22014	8043.675
262.4718	8238.775
266.72039	8379.275
270.96589	8403.075
275.20832	8336.175
279.44768	8203.175
283.68397	8017.175
287.91719	7906.675
292.14735	7842.975
296.37445	7880.975
300.59849	8054.275
304.81948	8294.275
309.03742	8531.675
313.25231	8674.975
317.46415	8595.575
321.67296	8422.175
325.87872	8220.175
330.08145	8144.475
334.28114	8122.075
338.47781	8178.875
342.67145	8287.875
346.86207	8495.275
351.04966	8730.075
355.23424	8986.675
359.4158	9152.075
363.59435	9222.075
367.76989	9231.575
371.94243	9189.175
376.11196	9174.475
380.27849	9206.375
384.44203	9214.575
388.60257	9247.575
392.76012	9243.475
396.91468	9250.275
401.06626	9383.875
405.21485	9489.075
409.36047	9379.575
413.50311	9105.275
417.64277	8975.975
421.77947	8963.275
425.9132	8806.675
430.04396	8787.375
434.17176	8898.475
438.2966	9131.675
442.41849	9559.675
446.53742	10225.875
450.6534	10858.475
454.76644	11128.775
458.87653	10953.675
462.98368	10553.575
467.08789	10110.475
471.18916	9708.375
475.2875	9265.175
479.38291	8926.975
483.4754	8654.275
487.56496	8499.075
491.6516	8339.575
495.73531	8259.475
499.81612	8237.975
503.89401	8287.475
507.96899	8346.575
512.04106	8316.275
516.11023	8278.275
520.1765	8296.775
524.23987	8373.475
528.30034	8512.275
532.35792	8538.775
536.41261	8311.275
540.46441	8006.075
544.51333	7797.275
548.55936	7833.275
552.60252	8107.475
556.64279	8569.275
560.6802	8981.475
564.71473	9056.075
568.7464	9185.075
572.7752	9509.575
576.80114	9658.575
580.82422	9798.875
584.84444	10413.775
588.86181	11849.275
592.87633	13808.475
596.888	14886.075
600.89682	13652.075
604.9028	12244.775
608.90594	12992.375
612.90624	14858.075
616.90371	14005.475
620.89834	10435.475
624.89015	8618.475
628.87913	8263.475
632.86528	8356.675
636.84862	8343.375
640.82913	8059.175
644.80683	7662.075
648.78172	7391.175
652.75379	7395.075
656.72306	7664.775
660.68952	8009.175
664.65319	7903.075
668.61405	7489.175
672.57211	7395.875
676.52738	7471.375
680.47986	7472.875
684.42955	7316.475
688.37646	7221.375
692.32058	7304.375
696.26192	7496.675
700.20048	7718.875
704.13626	7832.175
708.06928	7784.075
711.99952	7733.875
715.927	7784.475
719.85171	7879.975
723.77365	7866.375
727.69284	7716.575
731.60928	7602.675
735.52295	7641.775
739.43388	7742.275
743.34206	7835.075
747.24749	7856.475
751.15017	7939.775
755.05012	8053.175
758.94733	8406.075
762.8418	9196.375
766.73354	10587.375
770.62254	11998.575
774.50882	12476.675
778.39237	11817.275
782.27321	10512.675
786.15132	9205.675
790.02671	8325.575
793.89938	7875.575
797.76935	7692.675
801.6366	7580.875
805.50115	7516.275
809.36299	7454.175
813.22213	7359.675
817.07857	7302.375
820.93231	7249.875
824.78336	7222.675
828.63172	7243.275
832.47738	7244.475
836.32036	7279.475
840.16066	7275.075
843.99827	7298.175
847.8332	7296.875
851.66546	7270.675
855.49504	7251.375
859.32195	7247.575
863.1462	7194.875
866.96777	7134.475
870.78668	7123.175
874.60293	7147.975
878.41652	7173.475
882.22745	7251.275
886.03573	7323.175
889.84136	7344.275
893.64433	7265.475
897.44466	7253.275
901.24235	7217.275
905.0374	7179.775
908.8298	7104.775
912.61957	7064.075
916.40671	7089.775
920.19121	7208.175
923.97308	7400.075
927.75233	7552.175
931.52895	7536.775
935.30295	7351.375
939.07433	7070.775
942.84309	6857.675
946.60924	6777.175
950.37278	6733.575
954.13371	6727.975
957.89203	6705.575
961.64774	6698.375
965.40086	6695.675
969.15137	6713.675
972.89929	6683.675
976.64461	6691.275
980.38733	6683.375
984.12747	6685.975
987.86502	6759.675
991.59999	6849.175
995.33237	7023.875
999.06217	7344.475
1002.78939	7740.775
1006.51404	8089.275
1010.23611	8376.575
1013.95561	8535.675
1017.67255	8544.575
1021.38692	8273.575
1025.09872	7848.275
1028.80796	7633.875
1032.51465	7615.075
1036.21877	7721.975
1039.92035	7789.075
1043.61937	7776.675
1047.31584	7741.075
1051.00976	7617.175
1054.70114	7562.475
1058.38998	7511.575
1062.07627	7530.875
1065.76003	7532.175
1069.44126	7635.775
1073.11995	7833.075
1076.79611	8046.975
1080.46974	8249.075
1084.14085	8489.175
1087.80943	8725.875
1091.47549	8850.475
1095.13903	8736.475
1098.80005	8392.375
1102.45857	8086.075
1106.11456	7952.275
1109.76805	8017.475
1113.41903	8147.075
1117.06751	8358.275
1120.71348	8624.375
1124.35696	8967.575
1127.99793	9210.975
1131.63641	9213.275
1135.2724	8984.775
1138.90589	8772.175
1142.5369	8709.675
1146.16542	8772.675
1149.79145	8906.575
1153.415	9011.075
1157.03607	9071.175
1160.65467	9319.975
1164.27079	9816.275
1167.88443	10618.275
1171.49561	11884.675
1175.10432	13676.075
1178.71056	16062.375
1182.31434	18162.375
1185.91565	18707.875
1189.51451	17741.175
1193.11091	16207.175
1196.70485	14777.975
1200.29634	13563.375
1203.88538	12585.175
1207.47197	11830.975
1211.05612	11352.375
1214.63782	11150.875
1218.21708	11224.575
1221.79391	11613.875
1225.36829	12047.475
1228.94024	12115.475
1232.50976	11592.675
1236.07685	10909.175
1239.6415	10451.375
1243.20374	10289.775
1246.76355	10245.175
1250.32093	10315.175
1253.8759	10565.675
1257.42845	10996.475
1260.97859	11544.775
1264.52631	12157.075
1268.07163	12761.075
1271.61453	13265.275
1275.15503	13764.175
1278.69312	14251.175
1282.22882	14959.375
1285.76211	15936.775
1289.29301	17222.275
1292.82151	18572.675
1296.34761	20023.075
1299.87133	21762.975
1303.39266	23801.875
1306.9116	26099.675
1310.42815	28457.575
1313.94233	29792.175
1317.45412	28966.775
1320.96354	26579.475
1324.47058	24015.575
1327.97525	21780.775
1331.47754	20336.175
1334.97747	19496.275
1338.47502	19035.175
1341.97022	18655.675
1345.46305	18509.175
1348.95352	18993.475
1352.44163	20504.775
1355.92738	23168.775
1359.41078	26764.775
1362.89183	29815.475
1366.37053	29786.275
1369.84688	25950.475
1373.32088	21053.975
1376.79254	18088.775
1380.26186	16992.275
1383.72883	16507.075
1387.19347	15963.775
1390.65578	15332.575
1394.11575	15214.875
1397.57339	15443.075
1401.0287	15782.075
1404.48168	15922.275
1407.93234	15727.775
1411.38068	15348.675
1414.82669	14924.875
1418.27039	14440.175
1421.71177	13865.075
1425.15083	13372.075
1428.58758	13264.775
1432.02203	13562.975
1435.45416	14051.675
1438.88399	14335.175
1442.31151	14389.775
1445.73673	14400.775
1449.15965	14398.875
1452.58027	14203.575
1455.9986	13832.675
1459.41463	13711.575
1462.82837	14009.475
1466.23982	14618.175
1469.64898	15206.375
1473.05586	15643.075
1476.46045	15918.575
1479.86276	16071.475
1483.26279	16155.775
1486.66054	16338.975
1490.05602	16728.975
1493.44922	17234.075
1496.84016	17621.275
1500.22882	18044.675
1503.61521	18832.675
1506.99934	19893.475
1510.38121	20880.275
1513.76081	21038.775
1517.13816	20055.375
1520.51324	18424.875
1523.88607	17121.675
1527.25665	16550.175
1530.62498	16446.175
1533.99105	16367.175
1537.35488	15992.075
1540.71647	15418.075
1544.07581	14774.975
1547.4329	14129.575
1550.78776	13505.575
1554.14038	13018.975
1557.49077	12733.975
1560.83892	12644.975
1564.18484	12805.875
1567.52853	13223.175
1570.86999	13657.275
1574.20922	14032.475
1577.54624	14210.175
1580.88103	13864.075
1584.2136	13426.975
1587.54395	13701.775
1590.87208	14784.275
1594.19801	16659.575
1597.52172	18715.375
1600.84321	19773.175
1604.16251	18811.775
1607.47959	16394.775
1610.79447	13747.375
1614.10715	11633.875
1617.41763	10308.675
1620.7259	9594.575
1624.03199	9333.475
1627.33587	9449.775
1630.63757	9969.275
1633.93707	11025.275
1637.23439	12941.075
1640.52951	16119.075
1643.82246	20351.675
1647.11321	23985.475
1650.40179	24766.575
1653.68819	21808.075
1656.97241	17162.375
1660.25446	13073.575
1663.53433	10431.375
1666.81203	8938.675
1670.08756	8100.075
1673.36092	7598.475
1676.63211	7295.975
1679.90115	7092.375
1683.16801	6949.075
1686.43272	6825.175
1689.69527	6734.975
1692.95567	6680.575
1696.2139	6663.275
1699.46999	6608.175
1702.72392	6562.375
1705.97571	6556.575
1709.22535	6537.775
1712.47284	6501.775
1715.71819	6527.375
1718.96139	6499.575
1722.20246	6453.575
1725.44139	6428.075
1728.67818	6351.375
1731.91284	6299.575
1735.14537	6245.675
1738.37576	6197.775
1741.60403	6166.475
1744.83017	6142.775
1748.05418	6119.575
1751.27607	6086.575
1754.49584	6079.875
1757.71349	6071.975
1760.92903	6055.975
1764.14244	6042.675
1767.35375	6029.475
1770.56294	6023.775
1773.77002	6003.975
1776.97499	5989.175
1780.17785	5974.775
1783.37861	5956.375
1786.57727	5944.875
1789.77382	5920.275
1792.96828	5916.375
1796.16064	5901.475
1799.3509	5879.675
1802.53907	5869.775
1805.72514	5847.075
1808.90913	5849.075
1812.09102	5805.675
1815.27083	5794.775
1818.44856	5793.375
1821.6242	5790.275
1824.79776	5778.175
1827.96924	5772.675
1831.13864	5765.375
1834.30597	5760.675
1837.47122	5765.775
1840.6344	5755.975
1843.7955	5757.275
1846.95454	5745.575
1850.11151	5745.275
1853.26642	5765.975
1856.41926	5788.875
1859.57004	5785.775
1862.71876	5786.475
1865.86542	5787.675
1869.01003	5827.075
1872.15258	5844.675
1875.29308	5876.475
1878.43152	5895.075
1881.56792	5909.075
1884.70227	5927.375
1887.83457	5938.775
1890.96482	5947.175
1894.09304	5965.975
1897.21921	5945.375
1900.34335	5952.875
1903.46544	5937.475
1906.58551	5935.275
1909.70353	5907.575
1912.81953	5902.975
1915.93349	5896.975
1919.04543	5870.775
1922.15534	5871.175
1925.26322	5852.975
1928.36908	5817.975
1931.47292	5811.675
1934.57473	5799.275
1937.67453	5776.175
1940.77232	5748.575
1943.86808	5719.875
1946.96184	5728.475
1950.05358	5700.675
1953.14331	5670.875
1956.23103	5674.175
1959.31675	5633.675
1962.40046	5598.175
1965.48217	5603.675
1968.56188	5582.275
1971.63959	5551.575
1974.7153	5527.275
1977.78901	5520.175
1980.86073	5478.975
1983.93046	5445.775
1986.99819	5438.075
1990.06394	5440.875
1993.1277	5433.275
1996.18947	5400.575
1999.24925	5405.575
2002.30706	5391.975
2005.36288	5390.475
2008.41672	5387.775
2011.46859	5380.475
2014.51848	5356.475
2017.56639	5333.675
2020.61233	5308.275
2023.6563	5287.375
2026.6983	5274.575
2029.73833	5243.475
2032.7764	5217.475
2035.8125	5207.775
2038.84664	5172.875
2041.87881	5163.575
2044.90903	5166.275
2047.93729	5168.575
2050.96359	5166.575
2053.98794	5156.375
2057.01034	5156.275
2060.03078	5177.075
2063.04927	5202.975
2066.06582	5213.675
2069.08042	5254.775
2072.09307	5274.575
2075.10378	5295.775
2078.11255	5305.375
2081.11938	5332.775
2084.12426	5320.575
2087.12722	5319.075
2090.12824	5324.375
2093.12732	5308.675
2096.12447	5278.375
2099.11969	5264.275
2102.11299	5260.975
2105.10435	5226.875
2108.09379	5209.475
2111.08131	5176.175
2114.0669	5174.275
2117.05057	5159.475
2120.03233	5134.475
2123.01216	5136.175
2125.99008	5130.875
2128.96609	5132.775
2131.94018	5112.675
2134.91236	5116.975
2137.88263	5093.875
2140.851	5089.575
2143.81746	5110.975
2146.78201	5082.475
2149.74466	5067.375
2152.7054	5074.775
2155.66425	5050.875
2158.6212	5042.775
2161.57625	5036.875
2164.52941	5018.375
2167.48067	4999.275
2170.43004	4999.175
2173.37752	4970.475
2176.32311	4984.475
2179.26681	4978.075
2182.20863	4963.775
2185.14856	4958.975
2188.08661	4969.575
2191.02278	4983.875
2193.95707	4979.375
2196.88948	4973.975
2199.82001	4947.275
2202.74867	4958.075
2205.67545	4933.675
2208.60037	4927.975
2211.52341	4920.275
2214.44458	4920.075
2217.36388	4901.575
2220.28132	4887.975
2223.1969	4879.975
2226.11061	4871.075
2229.02246	4879.175
2231.93245	4868.975
2234.84058	4875.075
2237.74686	4860.875
2240.65128	4880.275
2243.55385	4870.575
2246.45456	4852.775
2249.35343	4825.575
2252.25044	4851.275
2255.14561	4821.175
2258.03893	4802.475
2260.93041	4791.075
2263.82004	4802.075
2266.70783	4772.075
2269.59378	4765.775
2272.4779	4753.275
2275.36017	4733.875
2278.24061	4723.675
2281.11922	4729.175
2283.996	4724.175
2286.87094	4704.575
2289.74405	4700.075
2292.61534	4678.875
2295.4848	4698.675
2298.35243	4693.675
2301.21824	4680.375
2304.08223	4678.475
2306.94439	4686.575
2309.80474	4697.575
2312.66327	4698.575
2315.51999	4683.575
2318.37489	4699.075
2321.22797	4693.375
2324.07925	4682.075
2326.92871	4678.675
2329.77637	4688.075
2332.62222	4648.175
2335.46626	4662.175
2338.3085	4665.475
2341.14893	4662.875
2343.98756	4664.475
2346.8244	4669.075
2349.65943	4691.475
2352.49267	4687.175
2355.32411	4670.475
2358.15376	4682.275
2360.98161	4676.475
2363.80768	4686.475
2366.63195	4670.875
2369.45444	4676.975
2372.27514	4671.275
2375.09405	4657.375
2377.91118	4662.375
2380.72652	4652.475
2383.54009	4644.075
2386.35187	4640.075
2389.16188	4616.375
2391.97011	4602.075
2394.77657	4587.675
2397.58125	4580.875
2400.38416	4578.975
2403.18529	4571.475
2405.98466	4564.775
2408.78226	4564.075
2411.57809	4561.175
2414.37216	4539.175
2417.16446	4552.575
2419.955	4541.275
2422.74378	4541.375
2425.5308	4539.475
2428.31606	4542.675
2431.09956	4538.375
2433.88131	4525.575
2436.6613	4517.575
2439.43954	4520.375
2442.21603	4527.575
2444.99077	4518.175
2447.76377	4526.875
2450.53501	4526.375
2453.30451	4545.475
2456.07226	4560.475
2458.83827	4539.875
2461.60254	4567.575
2464.36507	4554.775
2467.12586	4545.875
2469.88492	4563.875
2472.64224	4571.375
2475.39782	4556.075
2478.15167	4583.875
2480.90379	4581.475
2483.65417	4581.175
2486.40283	4584.275
2489.14976	4592.175
2491.89497	4595.675
2494.63845	4588.575
2497.3802	4592.375
2500.12024	4596.275
2502.85855	4585.175
2505.59514	4597.175
2508.33002	4573.575
2511.06318	4572.275
2513.79462	4567.175
2516.52435	4537.375
2519.25237	4534.875
2521.97867	4521.475
2524.70327	4524.075
2527.42616	4512.575
2530.14734	4510.975
2532.86681	4505.075
2535.58458	4516.575
2538.30065	4497.575
2541.01501	4539.675
2543.72768	4517.475
2546.43864	4517.575
2549.14791	4528.875
2551.85548	4507.275
2554.56136	4511.075
2557.26554	4518.175
2559.96803	4499.375
2562.66883	4513.075
2565.36794	4520.075
2568.06536	4517.475
2570.7611	4514.675
2573.45514	4528.175
2576.14751	4501.175
2578.83819	4514.975
2581.52719	4516.775
2584.21451	4513.775
2586.90015	4503.475
2589.58411	4498.275
2592.2664	4502.775
2594.94701	4486.575
2597.62594	4491.675
2600.30321	4474.375
2602.9788	4493.975
2605.65273	4501.575
2608.32498	4493.275
2610.99557	4489.575
2613.66449	4499.675
2616.33175	4492.375
2618.99734	4504.875
2621.66128	4491.875
2624.32355	4498.075
2626.98416	4486.375
2629.64311	4470.675
2632.30041	4471.075
2634.95605	4481.875
2637.61004	4468.275
2640.26238	4464.975
2642.91306	4460.475
2645.56209	4451.375
2648.20948	4457.875
2650.85521	4478.075
2653.4993	4464.075
2656.14175	4491.575
2658.78255	4502.075
2661.42171	4482.375
2664.05923	4504.475
2666.6951	4521.175
2669.32934	4541.475
2671.96194	4524.475
2674.59291	4540.275
2677.22224	4518.575
2679.84993	4512.075
2682.476	4510.375
2685.10043	4523.275
2687.72324	4490.275
2690.34441	4508.975
2692.96396	4497.375
2695.58188	4497.775
2698.19818	4500.675
2700.81285	4506.075
2703.4259	4503.875
2706.03733	4505.675
2708.64714	4507.975
2711.25533	4523.875
2713.86191	4507.475
2716.46687	4541.575
2719.07021	4515.375
2721.67194	4529.575
2724.27206	4545.275
2726.87057	4561.075
2729.46747	4553.475
2732.06276	4568.275
2734.65644	4546.375
2737.24852	4537.175
2739.83899	4535.175
2742.42786	4544.475
2745.01513	4522.575
2747.60079	4523.475
2750.18486	4518.275
2752.76733	4550.075
2755.3482	4521.475
2757.92747	4537.275
2760.50515	4538.675
2763.08123	4537.875
2765.65573	4539.575
2768.22863	4547.775
2770.79994	4540.675
2773.36967	4541.275
2775.9378	4550.175
2778.50435	4539.475
2781.06932	4528.775
2783.6327	4537.675
2786.1945	4538.975
2788.75471	4531.675
2791.31335	4530.575
2793.87041	4524.775
2796.42589	4527.175
2798.97979	4515.275
2801.53212	4518.275
2804.08288	4508.275
2806.63206	4503.075
2809.17967	4507.475
2811.72571	4493.775
2814.27018	4518.375
2816.81308	4517.275
2819.35442	4510.175
2821.89419	4518.675
2824.43239	4527.275
2826.96904	4532.375
2829.50412	4519.375
2832.03763	4512.975
2834.56959	4532.775
2837.1	4536.775
2839.62884	4536.975
2842.15613	4542.275
2844.68186	4556.775
2847.20604	4565.475
2849.72867	4582.675
2852.24974	4573.175
2854.76927	4589.775
2857.28724	4604.975
2859.80367	4593.675
2862.31855	4608.975
2864.83189	4602.175
2867.34368	4594.275
2869.85393	4630.875
2872.36264	4623.875
2874.8698	4612.475
2877.37543	4628.975
2879.87952	4619.175
2882.38207	4632.975
2884.88308	4620.075
2887.38256	4628.475
2889.88051	4624.475
2892.37692	4637.775
2894.8718	4641.275
2897.36515	4634.675
2899.85698	4644.575
2902.34727	4646.275
2904.83604	4640.775
2907.32328	4648.775
2909.809	4649.075
2912.29319	4666.775
2914.77587	4657.275
2917.25702	4646.975
2919.73665	4640.075
2922.21476	4635.575
2924.69136	4639.175
2927.16644	4632.775
2929.64	4620.075
2932.11205	4610.675
2934.58258	4586.075
2937.05161	4595.475
2939.51912	4588.975
2941.98513	4573.775
2944.44962	4534.375
2946.91261	4518.275
2949.37409	4521.475
2951.83407	4512.975
2954.29254	4525.475
2956.74951	4515.775
2959.20498	4489.175
2961.65895	4484.375
2964.11142	4463.275
2966.56239	4446.875
2969.01186	4436.475
2971.45984	4411.675
2973.90632	4396.375
2976.35131	4380.375
2978.7948	4367.675
2981.23681	4345.375
2983.67732	4343.475
2986.11635	4322.275
2988.55388	4308.675
2990.98993	4303.875
2993.4245	4297.475
2995.85758	4285.275
2998.28917	4274.675
3000.71928	4282.675
3003.14791	4264.475
3005.57506	4250.475
3008.00073	4258.675
3010.42493	4273.975
3012.84764	4254.175
3015.26888	4247.675
3017.68865	4237.475
3020.10694	4237.075
3022.52376	4197.075
3024.9391	4199.575
3027.35298	4187.875
3029.76539	4173.275
3032.17632	4178.275
3034.5858	4167.875
3036.9938	4161.475
3039.40034	4163.175
3041.80542	4158.875
3044.20903	4137.375
3046.61118	4151.775
3049.01187	4132.475
3051.4111	4126.675
3053.80888	4148.975
3056.20519	4133.275
3058.60005	4123.175
3060.99345	4123.275
3063.3854	4114.575
3065.7759	4111.775
3068.16494	4084.475
3070.55254	4099.675
3072.93868	4072.775
3075.32338	4066.475
3077.70662	4058.375
3080.08842	4061.275
3082.46878	4045.475
3084.84769	4037.075
3087.22515	4035.275
3089.60118	4039.375
3091.97576	4041.575
3094.3489	4020.575
3096.72061	4021.875
3099.09087	4024.775
3101.4597	4034.775
3103.82709	4022.775
3106.19305	4000.775
3108.55757	3999.875
3110.92066	3994.075
3113.28232	3979.175
3115.64255	3967.775
3118.00134	3966.175
3120.35871	3960.575
3122.71466	3946.575
3125.06917	3950.675
3127.42226	3950.775
3129.77393	3962.975
3132.12417	3949.175
3134.47299	3976.575
3136.82039	3974.375
3139.16636	3976.475
3141.51092	3971.875
3143.85406	3979.175
3146.19579	3950.675
3148.53609	3965.575
3150.87499	3963.575
3153.21246	3971.075
3155.54853	3968.975
3157.88318	3979.175
3160.21642	3965.275
3162.54826	3973.475
3164.87868	3978.075
3167.2077	3951.775
3169.5353	3965.575
3171.86151	3978.175
3174.18631	3971.875
3176.5097	3954.075
3178.83169	3968.675
3181.15228	3969.475
3183.47147	3956.975
3185.78926	3965.975
3188.10565	3970.475
3190.42065	3980.075
3192.73424	3967.975
3195.04645	3970.875
3197.35725	3977.675
3199.66667	3977.275
3201.97469	3973.175
3204.28132	3965.475
3206.58656	3976.175
3208.8904	3982.375
3211.19287	3980.675
3213.49394	3977.475
3215.79363	3972.875
3218.09193	3972.375
