Data from AgNP_FTO_APTES_UA_100uM_CRN_0uM_R6G_10uM_NaF_0.1M_Addition_RamanShift__19__11-07-20-105.txt Node

Date: Thu Mar 24 11:07:20 GMT 2022
User: TCL
Spectrometer: QEP01345
Trigger mode: 4
Integration Time (sec): 7.000000E0
Scans to average: 10
Electric dark correction enabled: true
Nonlinearity correction enabled: false
Boxcar width: 0
XAxis mode: Raman Shifts
Number of Pixels in Spectrum: 1044
>>>>>Begin Spectral Data<<<<<
46.04893	-0.175
50.45542	-0.975
54.85868	-0.075
59.25871	-0.275
63.6555	35.025
68.04907	38.925
72.43941	37.225
76.82654	37.625
81.21044	47.625
85.59113	42.525
89.96862	46.625
94.34289	42.925
98.71396	46.925
103.08183	49.025
107.4465	49.725
111.80798	53.425
116.16626	48.825
120.52136	53.525
124.87327	56.925
129.222	57.125
133.56755	62.425
137.90993	62.825
142.24913	75.825
146.58517	79.725
150.91804	91.525
155.24774	113.125
159.57429	135.225
163.89768	173.925
168.21792	234.625
172.53501	324.125
176.84895	448.225
181.15975	619.525
185.46741	877.525
189.77193	1206.125
194.07331	1605.325
198.37157	2064.725
202.6667	2556.825
206.9587	3038.525
211.24758	3512.025
215.53334	4019.525
219.81599	4548.025
224.09553	5146.325
228.37195	5834.525
232.64527	6554.225
236.91549	7324.625
241.18261	8046.425
245.44663	8670.525
249.70755	9180.725
253.96539	9564.725
258.22014	9853.725
262.4718	10077.525
266.72039	10253.325
270.96589	10311.125
275.20832	10264.025
279.44768	10151.825
283.68397	9990.225
287.91719	9843.925
292.14735	9751.825
296.37445	9761.225
300.59849	9828.925
304.81948	10018.125
309.03742	10171.325
313.25231	10286.025
317.46415	10242.425
321.67296	10113.525
325.87872	9994.325
330.08145	9936.425
334.28114	9924.825
338.47781	9921.025
342.67145	10065.225
346.86207	10258.525
351.04966	10516.225
355.23424	10743.725
359.4158	10922.525
363.59435	10964.025
367.76989	10984.425
371.94243	10941.525
376.11196	10927.525
380.27849	10934.625
384.44203	10999.225
388.60257	11068.425
392.76012	11147.125
396.91468	11196.225
401.06626	11337.725
405.21485	11462.625
409.36047	11286.625
413.50311	11021.925
417.64277	10864.525
421.77947	10875.425
425.9132	10801.425
430.04396	10797.225
434.17176	10860.625
438.2966	11064.325
442.41849	11435.425
446.53742	12035.025
450.6534	12593.725
454.76644	12889.225
458.87653	12754.925
462.98368	12464.925
467.08789	12153.725
471.18916	11832.425
475.2875	11423.225
479.38291	11089.225
483.4754	10837.725
487.56496	10655.925
491.6516	10488.525
495.73531	10365.025
499.81612	10336.525
503.89401	10387.425
507.96899	10461.525
512.04106	10419.925
516.11023	10321.125
520.1765	10294.725
524.23987	10358.725
528.30034	10432.025
532.35792	10469.625
536.41261	10212.025
540.46441	9892.225
544.51333	9698.525
548.55936	9712.825
552.60252	9963.525
556.64279	10446.925
560.6802	10876.325
564.71473	10977.025
568.7464	11128.925
572.7752	11629.225
576.80114	12053.725
580.82422	12397.525
584.84444	13170.325
588.86181	14746.125
592.87633	16889.825
596.888	18062.125
600.89682	16759.625
604.9028	14921.925
608.90594	15125.525
612.90624	16475.525
616.90371	15450.725
620.89834	12116.225
624.89015	10461.925
628.87913	10200.925
632.86528	10376.425
636.84862	10345.625
640.82913	10013.725
644.80683	9601.725
648.78172	9334.925
652.75379	9323.525
656.72306	9566.625
660.68952	9861.425
664.65319	9762.625
668.61405	9364.925
672.57211	9261.525
676.52738	9364.625
680.47986	9357.725
684.42955	9230.025
688.37646	9115.125
692.32058	9166.225
696.26192	9379.225
700.20048	9626.725
704.13626	9763.925
708.06928	9796.825
711.99952	9795.525
715.927	9820.625
719.85171	9865.725
723.77365	9792.925
727.69284	9574.525
731.60928	9445.125
735.52295	9453.525
739.43388	9582.325
743.34206	9683.025
747.24749	9756.725
751.15017	9877.625
755.05012	10060.825
758.94733	10430.625
762.8418	11261.725
766.73354	12639.625
770.62254	14064.625
774.50882	14393.325
778.39237	13567.025
782.27321	12226.525
786.15132	11014.825
790.02671	10213.425
793.89938	9762.525
797.76935	9535.325
801.6366	9438.325
805.50115	9321.625
809.36299	9254.025
813.22213	9174.525
817.07857	9102.125
820.93231	9037.225
824.78336	9001.025
828.63172	8973.725
832.47738	8975.525
836.32036	8980.325
840.16066	8995.525
843.99827	9010.325
847.8332	8984.725
851.66546	8989.425
855.49504	9022.225
859.32195	8983.125
863.1462	8925.425
866.96777	8893.825
870.78668	8848.325
874.60293	8874.525
878.41652	8881.725
882.22745	8983.925
886.03573	9054.425
889.84136	9059.725
893.64433	9024.325
897.44466	8975.525
901.24235	8968.625
905.0374	8907.825
908.8298	8870.325
912.61957	8826.825
916.40671	8874.425
920.19121	9035.825
923.97308	9257.425
927.75233	9414.125
931.52895	9338.625
935.30295	9060.025
939.07433	8705.925
942.84309	8497.425
946.60924	8400.425
950.37278	8340.725
954.13371	8354.125
957.89203	8378.425
961.64774	8357.925
965.40086	8377.825
969.15137	8367.625
972.89929	8312.725
976.64461	8297.825
980.38733	8271.025
984.12747	8300.025
987.86502	8347.125
991.59999	8409.125
995.33237	8540.625
999.06217	8784.425
1002.78939	9135.225
1006.51404	9532.425
1010.23611	9862.725
1013.95561	10076.925
1017.67255	10095.125
1021.38692	9857.825
1025.09872	9382.825
1028.80796	9039.025
1032.51465	8949.125
1036.21877	8926.725
1039.92035	8998.825
1043.61937	9039.525
1047.31584	9096.125
1051.00976	9133.625
1054.70114	9116.525
1058.38998	9149.425
1062.07627	9180.225
1065.76003	9261.425
1069.44126	9437.625
1073.11995	9665.225
1076.79611	9945.525
1080.46974	10127.725
1084.14085	10330.625
1087.80943	10581.425
1091.47549	10765.825
1095.13903	10674.925
1098.80005	10361.225
1102.45857	9980.525
1106.11456	9774.225
1109.76805	9757.125
1113.41903	9876.125
1117.06751	10076.425
1120.71348	10320.325
1124.35696	10605.925
1127.99793	10846.625
1131.63641	10882.725
1135.2724	10781.925
1138.90589	10630.125
1142.5369	10586.625
1146.16542	10706.125
1149.79145	10932.725
1153.415	11119.025
1157.03607	11237.925
1160.65467	11474.425
1164.27079	12003.225
1167.88443	12862.825
1171.49561	14081.425
1175.10432	15853.125
1178.71056	18103.825
1182.31434	20076.725
1185.91565	20613.125
1189.51451	19776.825
1193.11091	18405.025
1196.70485	17056.425
1200.29634	15870.125
1203.88538	14950.525
1207.47197	14239.725
1211.05612	13888.425
1214.63782	13642.525
1218.21708	13570.025
1221.79391	13739.625
1225.36829	14063.225
1228.94024	14226.825
1232.50976	13834.825
1236.07685	13104.425
1239.6415	12584.525
1243.20374	12304.125
1246.76355	12246.725
1250.32093	12351.725
1253.8759	12612.725
1257.42845	13090.325
1260.97859	13619.925
1264.52631	14263.725
1268.07163	14888.025
1271.61453	15463.525
1275.15503	16037.825
1278.69312	16660.725
1282.22882	17516.525
1285.76211	18705.925
1289.29301	20150.625
1292.82151	21612.325
1296.34761	23148.125
1299.87133	24998.025
1303.39266	27027.825
1306.9116	28978.725
1310.42815	30765.025
1313.94233	31618.925
1317.45412	30852.325
1320.96354	28790.425
1324.47058	26658.525
1327.97525	24886.825
1331.47754	23554.525
1334.97747	22765.225
1338.47502	22186.625
1341.97022	21754.225
1345.46305	21590.525
1348.95352	21911.325
1352.44163	23087.725
1355.92738	25386.825
1359.41078	28559.125
1362.89183	31420.525
1366.37053	31805.925
1369.84688	28471.625
1373.32088	23711.425
1376.79254	20554.425
1380.26186	19327.325
1383.72883	18919.125
1387.19347	18439.825
1390.65578	17897.325
1394.11575	17731.225
1397.57339	17946.925
1401.0287	18284.525
1404.48168	18415.425
1407.93234	18149.625
1411.38068	17670.725
1414.82669	17101.925
1418.27039	16494.125
1421.71177	15932.325
1425.15083	15347.025
1428.58758	15103.825
1432.02203	15310.125
1435.45416	15720.325
1438.88399	16021.225
1442.31151	16143.125
1445.73673	16201.525
1449.15965	16319.225
1452.58027	16231.125
1455.9986	16042.825
1459.41463	16036.125
1462.82837	16362.425
1466.23982	16965.525
1469.64898	17592.625
1473.05586	18042.525
1476.46045	18309.825
1479.86276	18481.525
1483.26279	18608.325
1486.66054	18803.325
1490.05602	19246.825
1493.44922	19823.925
1496.84016	20339.725
1500.22882	20747.725
1503.61521	21378.825
1506.99934	22120.325
1510.38121	22703.925
1513.76081	22714.125
1517.13816	21905.525
1520.51324	20770.825
1523.88607	19887.025
1527.25665	19617.425
1530.62498	19574.925
1533.99105	19390.925
1537.35488	18824.625
1540.71647	18060.225
1544.07581	17201.125
1547.4329	16388.925
1550.78776	15727.825
1554.14038	15302.525
1557.49077	15073.525
1560.83892	15044.525
1564.18484	15209.725
1567.52853	15534.725
1570.86999	15946.325
1574.20922	16360.825
1577.54624	16569.525
1580.88103	16282.925
1584.2136	15985.725
1587.54395	16377.425
1590.87208	17538.725
1594.19801	19301.925
1597.52172	21189.125
1600.84321	21906.225
1604.16251	20702.725
1607.47959	18265.425
1610.79447	15687.225
1614.10715	13596.625
1617.41763	12233.225
1620.7259	11442.325
1624.03199	11163.725
1627.33587	11264.725
1630.63757	11820.525
1633.93707	12964.525
1637.23439	15085.525
1640.52951	18554.125
1643.82246	23113.725
1647.11321	27048.725
1650.40179	27807.125
1653.68819	24788.625
1656.97241	19877.925
1660.25446	15476.825
1663.53433	12517.725
1666.81203	10827.625
1670.08756	9831.825
1673.36092	9268.925
1676.63211	8905.125
1679.90115	8625.725
1683.16801	8463.325
1686.43272	8328.125
1689.69527	8205.425
1692.95567	8135.925
1696.2139	8061.125
1699.46999	8018.325
1702.72392	7987.525
1705.97571	7951.625
1709.22535	7923.925
1712.47284	7924.825
1715.71819	7903.125
1718.96139	7870.525
1722.20246	7847.025
1725.44139	7774.525
1728.67818	7705.125
1731.91284	7662.825
1735.14537	7588.925
1738.37576	7518.725
1741.60403	7491.525
1744.83017	7442.125
1748.05418	7439.125
1751.27607	7388.425
1754.49584	7380.925
1757.71349	7366.525
1760.92903	7351.325
1764.14244	7322.225
1767.35375	7323.225
1770.56294	7301.625
1773.77002	7279.725
1776.97499	7271.625
1780.17785	7270.525
1783.37861	7243.225
1786.57727	7225.425
1789.77382	7202.125
1792.96828	7169.425
1796.16064	7154.225
1799.3509	7150.725
1802.53907	7105.925
1805.72514	7089.525
1808.90913	7068.325
1812.09102	7051.625
1815.27083	7046.925
1818.44856	7024.725
1821.6242	7015.625
1824.79776	7013.125
1827.96924	6984.925
1831.13864	6977.025
1834.30597	6978.825
1837.47122	6977.325
1840.6344	6994.725
1843.7955	6994.125
1846.95454	6974.125
1850.11151	6971.425
1853.26642	6977.125
1856.41926	6990.925
1859.57004	6991.125
1862.71876	6987.425
1865.86542	6985.625
1869.01003	7007.925
1872.15258	6996.325
1875.29308	7018.525
1878.43152	7044.125
1881.56792	7072.925
1884.70227	7088.125
1887.83457	7073.325
1890.96482	7094.625
1894.09304	7112.425
1897.21921	7114.925
1900.34335	7121.325
1903.46544	7097.425
1906.58551	7086.325
1909.70353	7072.725
1912.81953	7054.125
1915.93349	7037.025
1919.04543	7020.525
1922.15534	6990.925
1925.26322	6963.225
1928.36908	6936.825
1931.47292	6924.425
1934.57473	6903.425
1937.67453	6881.525
1940.77232	6847.625
1943.86808	6852.925
1946.96184	6845.725
1950.05358	6803.225
1953.14331	6789.625
1956.23103	6766.825
1959.31675	6753.525
1962.40046	6701.725
1965.48217	6692.825
1968.56188	6639.625
1971.63959	6636.225
1974.7153	6605.425
1977.78901	6579.025
1980.86073	6559.425
1983.93046	6504.625
1986.99819	6483.325
1990.06394	6470.325
1993.1277	6451.125
1996.18947	6408.125
1999.24925	6421.525
2002.30706	6414.825
2005.36288	6418.525
2008.41672	6402.125
2011.46859	6379.625
2014.51848	6371.025
2017.56639	6357.225
2020.61233	6331.325
2023.6563	6312.925
2026.6983	6285.825
2029.73833	6253.325
2032.7764	6237.525
2035.8125	6221.025
2038.84664	6196.625
2041.87881	6182.625
2044.90903	6163.625
2047.93729	6127.425
2050.96359	6133.825
2053.98794	6122.425
2057.01034	6116.325
2060.03078	6122.125
2063.04927	6133.425
2066.06582	6148.225
2069.08042	6176.725
2072.09307	6200.025
2075.10378	6187.025
2078.11255	6234.225
2081.11938	6261.225
2084.12426	6260.225
2087.12722	6259.025
2090.12824	6251.425
2093.12732	6250.625
2096.12447	6250.125
2099.11969	6243.325
2102.11299	6238.625
2105.10435	6212.825
2108.09379	6198.125
2111.08131	6175.525
2114.0669	6170.625
2117.05057	6139.425
2120.03233	6127.225
2123.01216	6131.325
2125.99008	6110.625
2128.96609	6137.125
2131.94018	6118.925
2134.91236	6111.925
2137.88263	6097.725
2140.851	6103.725
2143.81746	6114.025
2146.78201	6089.325
2149.74466	6084.525
2152.7054	6073.725
2155.66425	6053.725
2158.6212	6040.825
2161.57625	6031.025
2164.52941	5992.725
2167.48067	5985.325
2170.43004	5971.925
2173.37752	5953.725
2176.32311	5919.825
2179.26681	5923.825
2182.20863	5907.925
2185.14856	5927.425
2188.08661	5921.225
2191.02278	5907.625
2193.95707	5907.325
2196.88948	5890.325
2199.82001	5888.325
2202.74867	5860.225
2205.67545	5844.625
2208.60037	5843.225
2211.52341	5819.925
2214.44458	5813.525
2217.36388	5786.925
2220.28132	5789.025
2223.1969	5777.425
2226.11061	5774.425
2229.02246	5763.625
2231.93245	5758.225
2234.84058	5743.125
2237.74686	5749.925
2240.65128	5776.825
2243.55385	5744.225
2246.45456	5735.425
2249.35343	5727.625
2252.25044	5694.425
2255.14561	5692.125
2258.03893	5689.825
2260.93041	5664.025
2263.82004	5639.825
2266.70783	5612.525
2269.59378	5624.125
2272.4779	5598.525
2275.36017	5597.125
2278.24061	5585.625
2281.11922	5561.325
2283.996	5564.725
2286.87094	5539.825
2289.74405	5539.725
2292.61534	5527.225
2295.4848	5519.025
2298.35243	5527.425
2301.21824	5524.525
2304.08223	5502.325
2306.94439	5486.325
2309.80474	5498.325
2312.66327	5493.625
2315.51999	5501.025
2318.37489	5491.125
2321.22797	5480.525
2324.07925	5475.825
2326.92871	5459.125
2329.77637	5476.925
2332.62222	5443.725
2335.46626	5445.125
2338.3085	5444.725
2341.14893	5446.125
2343.98756	5445.825
2346.8244	5454.425
2349.65943	5461.325
2352.49267	5445.025
2355.32411	5456.025
2358.15376	5464.425
2360.98161	5459.725
2363.80768	5444.025
2366.63195	5446.425
2369.45444	5451.825
2372.27514	5432.425
2375.09405	5439.625
2377.91118	5447.025
2380.72652	5409.825
2383.54009	5426.925
2386.35187	5410.525
2389.16188	5370.025
2391.97011	5372.825
2394.77657	5349.825
2397.58125	5351.125
2400.38416	5347.725
2403.18529	5328.125
2405.98466	5315.825
2408.78226	5311.025
2411.57809	5301.525
2414.37216	5292.525
2417.16446	5301.025
2419.955	5281.725
2422.74378	5299.025
2425.5308	5282.025
2428.31606	5283.925
2431.09956	5282.325
2433.88131	5266.925
2436.6613	5251.725
2439.43954	5265.725
2442.21603	5270.125
2444.99077	5270.525
2447.76377	5262.225
2450.53501	5273.225
2453.30451	5270.125
2456.07226	5270.625
2458.83827	5281.125
2461.60254	5289.725
2464.36507	5280.625
2467.12586	5268.925
2469.88492	5269.325
2472.64224	5276.525
2475.39782	5282.225
2478.15167	5303.825
2480.90379	5286.725
2483.65417	5285.125
2486.40283	5287.125
2489.14976	5289.025
2491.89497	5285.625
2494.63845	5297.625
2497.3802	5282.925
2500.12024	5287.525
2502.85855	5288.325
2505.59514	5271.125
2508.33002	5263.825
2511.06318	5259.025
2513.79462	5231.225
2516.52435	5231.925
2519.25237	5231.525
2521.97867	5224.025
2524.70327	5219.925
2527.42616	5212.325
2530.14734	5194.425
2532.86681	5194.525
2535.58458	5208.025
2538.30065	5201.625
2541.01501	5196.625
2543.72768	5200.725
2546.43864	5188.925
2549.14791	5178.025
2551.85548	5194.125
2554.56136	5186.225
2557.26554	5183.125
2559.96803	5173.425
2562.66883	5164.725
2565.36794	5174.725
2568.06536	5160.425
2570.7611	5169.725
2573.45514	5167.925
2576.14751	5159.825
2578.83819	5137.625
2581.52719	5154.225
2584.21451	5151.525
2586.90015	5148.725
2589.58411	5125.225
2592.2664	5135.725
2594.94701	5122.725
2597.62594	5105.025
2600.30321	5117.925
2602.9788	5112.825
2605.65273	5107.225
2608.32498	5131.125
2610.99557	5124.425
2613.66449	5125.625
2616.33175	5109.025
2618.99734	5115.625
2621.66128	5098.125
2624.32355	5104.625
2626.98416	5076.625
2629.64311	5069.725
2632.30041	5067.325
2634.95605	5060.525
2637.61004	5062.025
2640.26238	5057.025
2642.91306	5063.825
2645.56209	5065.125
2648.20948	5073.825
2650.85521	5076.025
2653.4993	5075.225
2656.14175	5092.325
2658.78255	5096.425
2661.42171	5102.925
2664.05923	5100.225
2666.6951	5111.525
2669.32934	5130.625
2671.96194	5127.325
2674.59291	5122.525
2677.22224	5131.025
2679.84993	5124.325
2682.476	5105.525
2685.10043	5115.225
2687.72324	5117.325
2690.34441	5102.825
2692.96396	5097.625
2695.58188	5108.525
2698.19818	5102.125
2700.81285	5104.625
2703.4259	5107.625
2706.03733	5110.725
2708.64714	5122.625
2711.25533	5115.125
2713.86191	5108.625
2716.46687	5109.425
2719.07021	5138.125
2721.67194	5107.925
2724.27206	5143.025
2726.87057	5146.225
2729.46747	5135.325
2732.06276	5144.025
2734.65644	5126.425
2737.24852	5130.425
2739.83899	5116.725
2742.42786	5127.025
2745.01513	5104.925
2747.60079	5116.525
2750.18486	5114.625
2752.76733	5130.725
2755.3482	5124.325
2757.92747	5129.325
2760.50515	5110.325
2763.08123	5109.325
2765.65573	5102.725
2768.22863	5123.425
2770.79994	5099.025
2773.36967	5100.825
2775.9378	5104.225
2778.50435	5126.925
2781.06932	5102.925
2783.6327	5106.625
2786.1945	5098.625
2788.75471	5097.325
2791.31335	5070.025
2793.87041	5092.925
2796.42589	5082.825
2798.97979	5084.625
2801.53212	5072.725
2804.08288	5061.925
2806.63206	5055.625
2809.17967	5040.125
2811.72571	5040.825
2814.27018	5050.225
2816.81308	5055.125
2819.35442	5027.125
2821.89419	5025.025
2824.43239	5043.825
2826.96904	5043.125
2829.50412	5046.025
2832.03763	5038.625
2834.56959	5044.325
2837.1	5033.425
2839.62884	5043.225
2842.15613	5030.425
2844.68186	5059.125
2847.20604	5061.825
2849.72867	5090.025
2852.24974	5096.825
2854.76927	5075.525
2857.28724	5089.925
2859.80367	5066.425
2862.31855	5078.925
2864.83189	5056.225
2867.34368	5074.525
2869.85393	5083.125
2872.36264	5078.125
2874.8698	5084.925
2877.37543	5087.225
2879.87952	5084.325
2882.38207	5075.225
2884.88308	5090.625
2887.38256	5103.125
2889.88051	5088.925
2892.37692	5103.625
2894.8718	5107.025
2897.36515	5093.125
2899.85698	5083.325
2902.34727	5093.625
2904.83604	5095.025
2907.32328	5115.225
2909.809	5123.325
2912.29319	5121.625
2914.77587	5091.425
2917.25702	5102.925
2919.73665	5086.725
2922.21476	5105.425
2924.69136	5084.725
2927.16644	5097.725
2929.64	5080.525
2932.11205	5064.325
2934.58258	5041.725
2937.05161	5042.025
2939.51912	5047.125
2941.98513	5027.425
2944.44962	5012.225
2946.91261	4992.025
2949.37409	4983.125
2951.83407	4979.125
2954.29254	4986.325
2956.74951	4960.825
2959.20498	4946.125
2961.65895	4927.925
2964.11142	4916.525
2966.56239	4922.825
2969.01186	4883.525
2971.45984	4884.525
2973.90632	4861.525
2976.35131	4819.925
2978.7948	4801.725
2981.23681	4798.725
2983.67732	4782.225
2986.11635	4789.225
2988.55388	4770.825
2990.98993	4765.825
2993.4245	4749.725
2995.85758	4736.125
2998.28917	4740.825
3000.71928	4710.525
3003.14791	4716.425
3005.57506	4707.625
3008.00073	4691.225
3010.42493	4714.225
3012.84764	4692.325
3015.26888	4667.825
3017.68865	4664.425
3020.10694	4635.125
3022.52376	4639.125
3024.9391	4627.025
3027.35298	4599.925
3029.76539	4599.225
3032.17632	4592.425
3034.5858	4602.425
3036.9938	4576.325
3039.40034	4559.925
3041.80542	4576.125
3044.20903	4558.125
3046.61118	4557.125
3049.01187	4555.625
3051.4111	4558.925
3053.80888	4537.625
3056.20519	4544.725
3058.60005	4526.325
3060.99345	4528.625
3063.3854	4504.025
3065.7759	4513.625
3068.16494	4494.725
3070.55254	4473.225
3072.93868	4471.625
3075.32338	4449.725
3077.70662	4447.325
3080.08842	4447.925
3082.46878	4436.125
3084.84769	4430.425
3087.22515	4427.325
3089.60118	4417.925
3091.97576	4422.525
3094.3489	4413.525
3096.72061	4397.725
3099.09087	4405.325
3101.4597	4406.725
3103.82709	4387.925
3106.19305	4360.025
3108.55757	4373.725
3110.92066	4357.725
3113.28232	4357.125
3115.64255	4347.325
3118.00134	4337.825
3120.35871	4332.725
3122.71466	4315.725
3125.06917	4293.625
3127.42226	4308.425
3129.77393	4313.125
3132.12417	4311.425
3134.47299	4326.825
3136.82039	4336.625
3139.16636	4336.925
3141.51092	4322.925
3143.85406	4326.825
3146.19579	4323.525
3148.53609	4316.925
3150.87499	4320.625
3153.21246	4319.225
3155.54853	4310.525
3157.88318	4314.525
3160.21642	4304.325
3162.54826	4303.825
3164.87868	4307.125
3167.2077	4296.925
3169.5353	4305.025
3171.86151	4291.225
3174.18631	4288.625
3176.5097	4296.525
3178.83169	4285.625
3181.15228	4294.325
3183.47147	4288.925
3185.78926	4297.325
3188.10565	4304.525
3190.42065	4305.325
3192.73424	4295.425
3195.04645	4296.725
3197.35725	4277.025
3199.66667	4285.725
3201.97469	4307.725
3204.28132	4280.325
3206.58656	4280.925
