Data from AgNP_FTO_APTES_UA_100uM_CRN_20uM_R6G_10uM_NaF_0.1M_Addition_RamanShift__14__16-42-10-491.txt Node

Date: Thu Mar 24 16:42:10 GMT 2022
User: TCL
Spectrometer: QEP01345
Trigger mode: 4
Integration Time (sec): 7.000000E0
Scans to average: 10
Electric dark correction enabled: true
Nonlinearity correction enabled: false
Boxcar width: 0
XAxis mode: Raman Shifts
Number of Pixels in Spectrum: 1044
>>>>>Begin Spectral Data<<<<<
46.04893	-0.9375
50.45542	0.0625
54.85868	-0.4375
59.25871	-0.7375
63.6555	42.0625
68.04907	44.9625
72.43941	43.9625
76.82654	43.5625
81.21044	48.6625
85.59113	51.2625
89.96862	56.0625
94.34289	53.0625
98.71396	55.2625
103.08183	55.4625
107.4465	57.2625
111.80798	61.5625
116.16626	58.3625
120.52136	62.4625
124.87327	62.1625
129.222	66.5625
133.56755	75.4625
137.90993	76.9625
142.24913	89.1625
146.58517	94.8625
150.91804	118.4625
155.24774	137.1625
159.57429	170.5625
163.89768	219.6625
168.21792	296.9625
172.53501	409.1625
176.84895	581.2625
181.15975	814.5625
185.46741	1159.0625
189.77193	1592.9625
194.07331	2148.4625
198.37157	2778.6625
202.6667	3453.9625
206.9587	4105.9625
211.24758	4758.4625
215.53334	5415.3625
219.81599	6090.2625
224.09553	6899.3625
228.37195	7731.0625
232.64527	8661.8625
236.91549	9636.4625
241.18261	10606.6625
245.44663	11492.1625
249.70755	12311.2625
253.96539	13003.2625
258.22014	13556.4625
262.4718	14038.8625
266.72039	14362.1625
270.96589	14549.8625
275.20832	14561.4625
279.44768	14414.9625
283.68397	14266.3625
287.91719	14145.6625
292.14735	14062.7625
296.37445	14077.3625
300.59849	14177.0625
304.81948	14436.5625
309.03742	14587.5625
313.25231	14528.9625
317.46415	14279.7625
321.67296	13884.5625
325.87872	13532.4625
330.08145	13342.6625
334.28114	13416.4625
338.47781	13536.3625
342.67145	13723.0625
346.86207	13994.4625
351.04966	14336.6625
355.23424	14669.2625
359.4158	14971.1625
363.59435	15173.8625
367.76989	15323.8625
371.94243	15412.2625
376.11196	15404.2625
380.27849	15453.6625
384.44203	15444.5625
388.60257	15509.2625
392.76012	15609.2625
396.91468	15777.0625
401.06626	16004.4625
405.21485	16166.6625
409.36047	16046.8625
413.50311	15700.2625
417.64277	15365.5625
421.77947	15174.0625
425.9132	15149.7625
430.04396	15186.7625
434.17176	15265.3625
438.2966	15358.1625
442.41849	15508.4625
446.53742	15749.9625
450.6534	15974.5625
454.76644	16175.3625
458.87653	16256.7625
462.98368	16258.6625
467.08789	16211.3625
471.18916	16092.4625
475.2875	15928.0625
479.38291	15791.8625
483.4754	15669.5625
487.56496	15601.9625
491.6516	15565.6625
495.73531	15548.4625
499.81612	15546.6625
503.89401	15653.8625
507.96899	15726.1625
512.04106	15788.9625
516.11023	15886.0625
520.1765	15896.5625
524.23987	15899.3625
528.30034	15838.5625
532.35792	15763.4625
536.41261	15624.5625
540.46441	15494.7625
544.51333	15455.8625
548.55936	15605.6625
552.60252	15744.1625
556.64279	15964.8625
560.6802	16091.5625
564.71473	16137.9625
568.7464	16263.5625
572.7752	16409.6625
576.80114	16458.2625
580.82422	16518.7625
584.84444	16662.2625
588.86181	16749.1625
592.87633	16833.5625
596.888	16918.5625
600.89682	17093.7625
604.9028	17903.2625
608.90594	20019.1625
612.90624	22659.3625
616.90371	21816.0625
620.89834	18131.6625
624.89015	16335.7625
628.87913	16046.5625
632.86528	16245.6625
636.84862	16479.7625
640.82913	16390.7625
644.80683	16018.5625
648.78172	15723.0625
652.75379	15728.2625
656.72306	15935.0625
660.68952	16280.2625
664.65319	16235.5625
668.61405	15917.5625
672.57211	15795.7625
676.52738	15865.7625
680.47986	15851.6625
684.42955	15752.2625
688.37646	15693.1625
692.32058	15702.5625
696.26192	15805.5625
700.20048	15976.9625
704.13626	16063.6625
708.06928	16073.0625
711.99952	15997.2625
715.927	15956.1625
719.85171	15962.8625
723.77365	15990.4625
727.69284	15930.8625
731.60928	15853.6625
735.52295	15812.8625
739.43388	15809.6625
743.34206	15844.0625
747.24749	15883.3625
751.15017	15942.6625
755.05012	16054.4625
758.94733	16386.5625
762.8418	17212.6625
766.73354	18706.3625
770.62254	20131.7625
774.50882	20675.2625
778.39237	19976.8625
782.27321	18617.3625
786.15132	17315.6625
790.02671	16512.7625
793.89938	16067.4625
797.76935	15855.5625
801.6366	15771.6625
805.50115	15716.5625
809.36299	15641.8625
813.22213	15600.6625
817.07857	15619.3625
820.93231	15596.0625
824.78336	15578.9625
828.63172	15603.8625
832.47738	15573.0625
836.32036	15545.1625
840.16066	15533.4625
843.99827	15544.0625
847.8332	15536.2625
851.66546	15546.8625
855.49504	15573.6625
859.32195	15624.7625
863.1462	15561.1625
866.96777	15577.3625
870.78668	15590.8625
874.60293	15609.7625
878.41652	15633.0625
882.22745	15674.0625
886.03573	15736.8625
889.84136	15730.8625
893.64433	15696.5625
897.44466	15670.6625
901.24235	15619.3625
905.0374	15585.7625
908.8298	15555.4625
912.61957	15538.6625
916.40671	15544.3625
920.19121	15569.2625
923.97308	15670.7625
927.75233	15698.3625
931.52895	15752.8625
935.30295	15593.7625
939.07433	15419.2625
942.84309	15226.9625
946.60924	15139.8625
950.37278	15057.4625
954.13371	15078.1625
957.89203	15040.2625
961.64774	15042.8625
965.40086	15047.6625
969.15137	14996.2625
972.89929	14962.7625
976.64461	14946.3625
980.38733	14942.7625
984.12747	14968.3625
987.86502	15048.3625
991.59999	15059.4625
995.33237	15111.7625
999.06217	15190.7625
1002.78939	15338.7625
1006.51404	15512.4625
1010.23611	15718.5625
1013.95561	15823.7625
1017.67255	15821.8625
1021.38692	15734.7625
1025.09872	15623.2625
1028.80796	15485.9625
1032.51465	15428.8625
1036.21877	15419.7625
1039.92035	15497.8625
1043.61937	15537.0625
1047.31584	15642.1625
1051.00976	15688.6625
1054.70114	15715.1625
1058.38998	15746.7625
1062.07627	15804.6625
1065.76003	15892.6625
1069.44126	16007.5625
1073.11995	16223.1625
1076.79611	16456.4625
1080.46974	16642.5625
1084.14085	16755.1625
1087.80943	16886.8625
1091.47549	16947.4625
1095.13903	16917.6625
1098.80005	16757.1625
1102.45857	16538.5625
1106.11456	16406.3625
1109.76805	16374.6625
1113.41903	16416.2625
1117.06751	16542.3625
1120.71348	16794.3625
1124.35696	17114.9625
1127.99793	17361.2625
1131.63641	17403.3625
1135.2724	17129.7625
1138.90589	16840.9625
1142.5369	16658.6625
1146.16542	16511.7625
1149.79145	16381.1625
1153.415	16319.2625
1157.03607	16365.9625
1160.65467	16520.7625
1164.27079	16835.2625
1167.88443	17292.8625
1171.49561	17987.8625
1175.10432	18963.8625
1178.71056	20314.3625
1182.31434	21554.6625
1185.91565	22068.9625
1189.51451	21969.1625
1193.11091	21566.5625
1196.70485	20852.0625
1200.29634	20165.3625
1203.88538	19525.2625
1207.47197	18816.2625
1211.05612	18172.0625
1214.63782	17708.9625
1218.21708	17456.2625
1221.79391	17279.8625
1225.36829	17194.8625
1228.94024	17181.9625
1232.50976	17152.8625
1236.07685	17087.6625
1239.6415	17072.0625
1243.20374	17098.4625
1246.76355	17158.0625
1250.32093	17260.3625
1253.8759	17397.7625
1257.42845	17632.2625
1260.97859	17994.6625
1264.52631	18335.0625
1268.07163	18716.4625
1271.61453	18991.6625
1275.15503	19209.7625
1278.69312	19347.7625
1282.22882	19471.9625
1285.76211	19743.2625
1289.29301	20101.5625
1292.82151	20498.4625
1296.34761	20913.6625
1299.87133	21582.2625
1303.39266	22565.0625
1306.9116	23851.4625
1310.42815	25233.2625
1313.94233	25794.4625
1317.45412	25327.4625
1320.96354	24421.3625
1324.47058	23467.5625
1327.97525	22670.1625
1331.47754	22031.8625
1334.97747	21846.2625
1338.47502	21920.8625
1341.97022	22392.5625
1345.46305	23128.8625
1348.95352	24126.5625
1352.44163	25164.8625
1355.92738	26300.4625
1359.41078	27909.2625
1362.89183	29540.7625
1366.37053	29127.6625
1369.84688	26256.5625
1373.32088	23154.3625
1376.79254	21120.9625
1380.26186	20024.5625
1383.72883	19442.1625
1387.19347	19010.2625
1390.65578	18582.5625
1394.11575	18178.8625
1397.57339	17871.5625
1401.0287	17664.7625
1404.48168	17560.8625
1407.93234	17509.5625
1411.38068	17471.6625
1414.82669	17422.2625
1418.27039	17288.3625
1421.71177	17159.5625
1425.15083	16935.4625
1428.58758	16776.9625
1432.02203	16768.8625
1435.45416	16831.5625
1438.88399	16877.7625
1442.31151	16920.9625
1445.73673	17009.7625
1449.15965	17120.0625
1452.58027	17097.1625
1455.9986	17145.4625
1459.41463	17191.8625
1462.82837	17373.8625
1466.23982	17676.2625
1469.64898	18008.5625
1473.05586	18293.1625
1476.46045	18529.6625
1479.86276	18680.4625
1483.26279	18875.0625
1486.66054	19110.6625
1490.05602	19549.9625
1493.44922	20253.3625
1496.84016	21328.7625
1500.22882	22954.0625
1503.61521	25030.7625
1506.99934	27100.2625
1510.38121	28375.6625
1513.76081	28164.4625
1517.13816	26439.7625
1520.51324	24168.6625
1523.88607	22236.9625
1527.25665	21065.8625
1530.62498	20438.3625
1533.99105	20057.9625
1537.35488	19712.6625
1540.71647	19387.6625
1544.07581	19060.4625
1547.4329	18851.7625
1550.78776	18674.4625
1554.14038	18557.2625
1557.49077	18597.0625
1560.83892	18763.1625
1564.18484	19054.4625
1567.52853	19467.8625
1570.86999	19863.3625
1574.20922	20091.1625
1577.54624	19995.2625
1580.88103	19402.6625
1584.2136	18575.7625
1587.54395	18097.7625
1590.87208	18039.3625
1594.19801	18477.4625
1597.52172	19106.5625
1600.84321	19377.4625
1604.16251	19075.4625
1607.47959	18585.7625
1610.79447	17962.2625
1614.10715	17273.9625
1617.41763	16631.9625
1620.7259	16086.0625
1624.03199	15770.9625
1627.33587	15671.6625
1630.63757	15758.6625
1633.93707	16100.3625
1637.23439	16726.3625
1640.52951	17823.8625
1643.82246	19403.8625
1647.11321	21130.0625
1650.40179	22243.1625
1653.68819	21795.3625
1656.97241	19982.4625
1660.25446	17876.1625
1663.53433	16316.1625
1666.81203	15338.9625
1670.08756	14757.4625
1673.36092	14355.6625
1676.63211	14107.5625
1679.90115	13950.9625
1683.16801	13817.9625
1686.43272	13726.7625
1689.69527	13631.6625
1692.95567	13541.8625
1696.2139	13489.0625
1699.46999	13435.4625
1702.72392	13377.7625
1705.97571	13356.5625
1709.22535	13354.5625
1712.47284	13339.7625
1715.71819	13323.8625
1718.96139	13269.1625
1722.20246	13253.3625
1725.44139	13188.4625
1728.67818	13136.2625
1731.91284	13072.3625
1735.14537	13001.5625
1738.37576	12979.6625
1741.60403	12915.4625
1744.83017	12864.8625
1748.05418	12855.2625
1751.27607	12815.1625
1754.49584	12780.9625
1757.71349	12741.4625
1760.92903	12736.5625
1764.14244	12744.4625
1767.35375	12741.7625
1770.56294	12675.4625
1773.77002	12657.0625
1776.97499	12624.3625
1780.17785	12608.3625
1783.37861	12590.4625
1786.57727	12562.3625
1789.77382	12532.4625
1792.96828	12518.5625
1796.16064	12499.6625
1799.3509	12434.1625
1802.53907	12421.9625
1805.72514	12401.3625
1808.90913	12358.7625
1812.09102	12334.3625
1815.27083	12335.6625
1818.44856	12300.9625
1821.6242	12253.5625
1824.79776	12243.9625
1827.96924	12226.9625
1831.13864	12184.4625
1834.30597	12183.0625
1837.47122	12158.9625
1840.6344	12132.1625
1843.7955	12127.2625
1846.95454	12109.1625
1850.11151	12088.1625
1853.26642	12114.7625
1856.41926	12088.3625
1859.57004	12097.1625
1862.71876	12031.8625
1865.86542	12042.3625
1869.01003	12010.2625
1872.15258	11985.5625
1875.29308	11996.2625
1878.43152	11948.6625
1881.56792	11966.2625
1884.70227	11944.2625
1887.83457	11941.0625
1890.96482	11913.3625
1894.09304	11884.5625
1897.21921	11842.4625
1900.34335	11834.7625
1903.46544	11851.5625
1906.58551	11826.3625
1909.70353	11806.7625
1912.81953	11768.7625
1915.93349	11769.4625
1919.04543	11741.1625
1922.15534	11716.2625
1925.26322	11682.7625
1928.36908	11661.5625
1931.47292	11637.9625
1934.57473	11603.8625
1937.67453	11585.2625
1940.77232	11576.3625
1943.86808	11554.4625
1946.96184	11495.4625
1950.05358	11463.9625
1953.14331	11369.9625
1956.23103	11386.8625
1959.31675	11334.8625
1962.40046	11321.5625
1965.48217	11267.8625
1968.56188	11266.9625
1971.63959	11216.8625
1974.7153	11184.6625
1977.78901	11153.4625
1980.86073	11107.1625
1983.93046	11086.3625
1986.99819	10999.8625
1990.06394	10988.9625
1993.1277	10960.5625
1996.18947	10905.6625
1999.24925	10908.6625
2002.30706	10849.7625
2005.36288	10808.1625
2008.41672	10764.4625
2011.46859	10722.3625
2014.51848	10713.1625
2017.56639	10680.2625
2020.61233	10638.6625
2023.6563	10629.4625
2026.6983	10588.8625
2029.73833	10560.8625
2032.7764	10507.2625
2035.8125	10495.3625
2038.84664	10460.4625
2041.87881	10447.2625
2044.90903	10388.0625
2047.93729	10382.5625
2050.96359	10394.5625
2053.98794	10344.4625
2057.01034	10329.6625
2060.03078	10311.7625
2063.04927	10285.1625
2066.06582	10286.3625
2069.08042	10316.1625
2072.09307	10306.7625
2075.10378	10251.8625
2078.11255	10277.6625
2081.11938	10270.9625
2084.12426	10251.3625
2087.12722	10227.7625
2090.12824	10250.7625
2093.12732	10256.2625
2096.12447	10259.3625
2099.11969	10276.7625
2102.11299	10241.6625
2105.10435	10267.4625
2108.09379	10241.1625
2111.08131	10260.5625
2114.0669	10273.9625
2117.05057	10291.4625
2120.03233	10250.8625
2123.01216	10266.2625
2125.99008	10286.2625
2128.96609	10297.8625
2131.94018	10305.6625
2134.91236	10286.1625
2137.88263	10279.2625
2140.851	10303.4625
2143.81746	10298.2625
2146.78201	10315.1625
2149.74466	10278.2625
2152.7054	10283.7625
2155.66425	10267.3625
2158.6212	10236.2625
2161.57625	10252.5625
2164.52941	10249.3625
2167.48067	10253.9625
2170.43004	10229.5625
2173.37752	10249.7625
2176.32311	10242.2625
2179.26681	10314.0625
2182.20863	10240.7625
2185.14856	10219.5625
2188.08661	10174.3625
2191.02278	10185.7625
2193.95707	10173.1625
2196.88948	10168.3625
2199.82001	10141.4625
2202.74867	10158.1625
2205.67545	10148.1625
2208.60037	10124.5625
2211.52341	10111.7625
2214.44458	10120.5625
2217.36388	10051.0625
2220.28132	10041.4625
2223.1969	10012.3625
2226.11061	9989.9625
2229.02246	9966.6625
2231.93245	9954.1625
2234.84058	9916.8625
2237.74686	9896.2625
2240.65128	9914.3625
2243.55385	9889.0625
2246.45456	9867.7625
2249.35343	9859.7625
2252.25044	9838.2625
2255.14561	9817.3625
2258.03893	9812.1625
2260.93041	9819.0625
2263.82004	9759.8625
2266.70783	9754.6625
2269.59378	9733.3625
2272.4779	9733.5625
2275.36017	9727.4625
2278.24061	9651.5625
2281.11922	9662.6625
2283.996	9641.5625
2286.87094	9620.7625
2289.74405	9608.0625
2292.61534	9559.5625
2295.4848	9579.8625
2298.35243	9545.3625
2301.21824	9533.5625
2304.08223	9528.6625
2306.94439	9521.2625
2309.80474	9504.0625
2312.66327	9502.4625
2315.51999	9472.4625
2318.37489	9479.4625
2321.22797	9431.6625
2324.07925	9413.5625
2326.92871	9407.4625
2329.77637	9421.1625
2332.62222	9397.4625
2335.46626	9333.9625
2338.3085	9324.7625
2341.14893	9340.3625
2343.98756	9323.9625
2346.8244	9322.8625
2349.65943	9326.8625
2352.49267	9306.3625
2355.32411	9301.4625
2358.15376	9289.4625
2360.98161	9306.2625
2363.80768	9270.5625
2366.63195	9308.7625
2369.45444	9300.8625
2372.27514	9269.0625
2375.09405	9245.4625
2377.91118	9272.9625
2380.72652	9238.8625
2383.54009	9208.6625
2386.35187	9172.9625
2389.16188	9173.8625
2391.97011	9137.4625
2394.77657	9106.4625
2397.58125	9098.7625
2400.38416	9076.9625
2403.18529	9048.0625
2405.98466	9043.3625
2408.78226	9036.5625
2411.57809	8989.7625
2414.37216	8974.2625
2417.16446	8996.4625
2419.955	8973.3625
2422.74378	8951.7625
2425.5308	8926.2625
2428.31606	8941.9625
2431.09956	8953.3625
2433.88131	8947.3625
2436.6613	8918.8625
2439.43954	8896.1625
2442.21603	8866.7625
2444.99077	8847.2625
2447.76377	8865.5625
2450.53501	8868.0625
2453.30451	8873.1625
2456.07226	8815.5625
2458.83827	8851.9625
2461.60254	8845.8625
2464.36507	8831.9625
2467.12586	8816.2625
2469.88492	8805.1625
2472.64224	8788.2625
2475.39782	8814.0625
2478.15167	8819.2625
2480.90379	8815.0625
2483.65417	8797.2625
2486.40283	8809.2625
2489.14976	8827.8625
2491.89497	8786.5625
2494.63845	8796.4625
2497.3802	8758.3625
2500.12024	8753.8625
2502.85855	8752.6625
2505.59514	8744.6625
2508.33002	8733.6625
2511.06318	8693.9625
2513.79462	8679.9625
2516.52435	8659.6625
2519.25237	8647.9625
2521.97867	8651.2625
2524.70327	8622.7625
2527.42616	8605.9625
2530.14734	8611.3625
2532.86681	8586.8625
2535.58458	8564.7625
2538.30065	8543.4625
2541.01501	8543.1625
2543.72768	8532.7625
2546.43864	8512.7625
2549.14791	8485.0625
2551.85548	8486.7625
2554.56136	8470.2625
2557.26554	8430.6625
2559.96803	8404.7625
2562.66883	8416.9625
2565.36794	8393.6625
2568.06536	8384.8625
2570.7611	8370.6625
2573.45514	8321.4625
2576.14751	8336.3625
2578.83819	8299.3625
2581.52719	8306.7625
2584.21451	8300.4625
2586.90015	8292.5625
2589.58411	8280.9625
2592.2664	8268.9625
2594.94701	8245.9625
2597.62594	8225.1625
2600.30321	8202.1625
2602.9788	8168.8625
2605.65273	8171.3625
2608.32498	8163.6625
2610.99557	8149.2625
2613.66449	8147.5625
2616.33175	8132.2625
2618.99734	8131.1625
2621.66128	8115.1625
2624.32355	8083.1625
2626.98416	8074.1625
2629.64311	8045.1625
2632.30041	8050.5625
2634.95605	8051.9625
2637.61004	8030.4625
2640.26238	8030.2625
2642.91306	8033.9625
2645.56209	8027.6625
2648.20948	8008.0625
2650.85521	8008.8625
2653.4993	7993.2625
2656.14175	7991.7625
2658.78255	7992.4625
2661.42171	7981.7625
2664.05923	8004.3625
2666.6951	8002.9625
2669.32934	7991.1625
2671.96194	7986.0625
2674.59291	7989.4625
2677.22224	7983.4625
2679.84993	7983.0625
2682.476	7940.6625
2685.10043	7942.1625
2687.72324	7939.1625
2690.34441	7962.3625
2692.96396	7960.8625
2695.58188	7961.9625
2698.19818	7963.2625
2700.81285	7944.9625
2703.4259	7921.9625
2706.03733	7936.6625
2708.64714	7936.6625
2711.25533	7935.0625
2713.86191	7921.7625
2716.46687	7954.5625
2719.07021	7916.3625
2721.67194	7944.9625
2724.27206	7918.8625
2726.87057	7934.3625
2729.46747	7920.5625
2732.06276	7932.6625
2734.65644	7894.7625
2737.24852	7888.5625
2739.83899	7863.8625
2742.42786	7860.4625
2745.01513	7851.2625
2747.60079	7857.2625
2750.18486	7795.6625
2752.76733	7812.8625
2755.3482	7797.8625
2757.92747	7802.9625
2760.50515	7764.3625
2763.08123	7769.4625
2765.65573	7778.1625
2768.22863	7756.2625
2770.79994	7742.6625
2773.36967	7745.7625
2775.9378	7717.4625
2778.50435	7728.1625
2781.06932	7686.7625
2783.6327	7714.1625
2786.1945	7698.7625
2788.75471	7687.1625
2791.31335	7665.3625
2793.87041	7643.1625
2796.42589	7632.5625
2798.97979	7613.8625
2801.53212	7586.8625
2804.08288	7570.5625
2806.63206	7557.8625
2809.17967	7552.1625
2811.72571	7537.1625
2814.27018	7524.2625
2816.81308	7507.3625
2819.35442	7487.0625
2821.89419	7484.5625
2824.43239	7476.4625
2826.96904	7459.2625
2829.50412	7468.8625
2832.03763	7431.1625
2834.56959	7446.2625
2837.1	7421.1625
2839.62884	7441.8625
2842.15613	7424.4625
2844.68186	7439.4625
2847.20604	7436.5625
2849.72867	7440.9625
2852.24974	7448.3625
2854.76927	7437.1625
2857.28724	7398.7625
2859.80367	7386.1625
2862.31855	7387.4625
2864.83189	7389.4625
2867.34368	7375.0625
2869.85393	7369.4625
2872.36264	7370.6625
2874.8698	7367.5625
2877.37543	7354.7625
2879.87952	7358.9625
2882.38207	7337.1625
2884.88308	7332.9625
2887.38256	7319.0625
2889.88051	7330.0625
2892.37692	7319.0625
2894.8718	7322.0625
2897.36515	7308.9625
2899.85698	7308.1625
2902.34727	7317.6625
2904.83604	7316.3625
2907.32328	7343.1625
2909.809	7306.4625
2912.29319	7323.7625
2914.77587	7338.3625
2917.25702	7317.3625
2919.73665	7332.0625
2922.21476	7319.1625
2924.69136	7286.5625
2927.16644	7315.4625
2929.64	7287.5625
2932.11205	7285.6625
2934.58258	7259.6625
2937.05161	7268.1625
2939.51912	7232.1625
2941.98513	7245.0625
2944.44962	7211.0625
2946.91261	7183.5625
2949.37409	7210.4625
2951.83407	7189.9625
2954.29254	7184.7625
2956.74951	7195.6625
2959.20498	7191.1625
2961.65895	7186.3625
2964.11142	7167.3625
2966.56239	7160.6625
2969.01186	7145.7625
2971.45984	7159.2625
2973.90632	7143.4625
2976.35131	7131.2625
2978.7948	7091.1625
2981.23681	7098.8625
2983.67732	7100.7625
2986.11635	7080.3625
2988.55388	7061.2625
2990.98993	7053.7625
2993.4245	7022.0625
2995.85758	7030.6625
2998.28917	7000.5625
3000.71928	6990.0625
3003.14791	6973.0625
3005.57506	6980.4625
3008.00073	6936.5625
3010.42493	6958.0625
3012.84764	6938.9625
3015.26888	6934.3625
3017.68865	6911.5625
3020.10694	6913.1625
3022.52376	6880.9625
3024.9391	6869.1625
3027.35298	6877.7625
3029.76539	6841.6625
3032.17632	6830.6625
3034.5858	6839.6625
3036.9938	6826.2625
3039.40034	6801.4625
3041.80542	6817.9625
3044.20903	6796.7625
3046.61118	6805.3625
3049.01187	6761.2625
3051.4111	6757.3625
3053.80888	6732.2625
3056.20519	6735.8625
3058.60005	6721.4625
3060.99345	6716.7625
