Data from AgNP_FTO_APTES_UA_100uM_CRN_50uM_R6G_10uM_NaF_0.1M_Addition_RamanShift__29__17-41-40-557.txt Node

Date: Thu Mar 24 17:41:40 GMT 2022
User: TCL
Spectrometer: QEP01345
Trigger mode: 4
Integration Time (sec): 7.000000E0
Scans to average: 10
Electric dark correction enabled: true
Nonlinearity correction enabled: false
Boxcar width: 0
XAxis mode: Raman Shifts
Number of Pixels in Spectrum: 1044
>>>>>Begin Spectral Data<<<<<
46.04893	-2.225
50.45542	0.775
54.85868	-0.425
59.25871	0.075
63.6555	36.875
68.04907	39.975
72.43941	39.375
76.82654	39.675
81.21044	44.475
85.59113	43.375
89.96862	47.875
94.34289	46.675
98.71396	45.875
103.08183	43.675
107.4465	50.075
111.80798	50.675
116.16626	49.975
120.52136	54.875
124.87327	54.675
129.222	56.775
133.56755	63.975
137.90993	66.475
142.24913	77.675
146.58517	82.575
150.91804	95.775
155.24774	118.575
159.57429	143.175
163.89768	185.775
168.21792	250.975
172.53501	337.775
176.84895	475.275
181.15975	668.075
185.46741	945.875
189.77193	1288.375
194.07331	1744.075
198.37157	2255.675
202.6667	2789.675
206.9587	3327.575
211.24758	3847.275
215.53334	4398.375
219.81599	5003.375
224.09553	5682.775
228.37195	6433.475
232.64527	7273.875
236.91549	8119.675
241.18261	8939.075
245.44663	9612.075
249.70755	10168.475
253.96539	10658.875
258.22014	11043.275
262.4718	11388.875
266.72039	11638.675
270.96589	11775.375
275.20832	11802.975
279.44768	11690.475
283.68397	11560.275
287.91719	11476.675
292.14735	11462.975
296.37445	11577.075
300.59849	11821.075
304.81948	12073.475
309.03742	12215.675
313.25231	12169.675
317.46415	11835.275
321.67296	11353.975
325.87872	10893.075
330.08145	10643.075
334.28114	10620.875
338.47781	10733.475
342.67145	10916.775
346.86207	11170.675
351.04966	11517.275
355.23424	11879.475
359.4158	12161.475
363.59435	12282.775
367.76989	12358.075
371.94243	12331.775
376.11196	12356.075
380.27849	12326.275
384.44203	12320.075
388.60257	12326.875
392.76012	12364.675
396.91468	12466.775
401.06626	12670.375
405.21485	12789.775
409.36047	12624.675
413.50311	12190.375
417.64277	11817.275
421.77947	11602.475
425.9132	11570.975
430.04396	11631.975
434.17176	11731.975
438.2966	11855.375
442.41849	12104.375
446.53742	12444.275
450.6534	12799.075
454.76644	13029.375
458.87653	13069.875
462.98368	12955.175
467.08789	12815.775
471.18916	12608.175
475.2875	12421.675
479.38291	12260.975
483.4754	12058.575
487.56496	11881.675
491.6516	11705.075
495.73531	11626.675
499.81612	11583.075
503.89401	11658.975
507.96899	11693.875
512.04106	11731.275
516.11023	11779.875
520.1765	11758.175
524.23987	11724.475
528.30034	11629.975
532.35792	11563.475
536.41261	11419.875
540.46441	11262.575
544.51333	11222.275
548.55936	11362.375
552.60252	11609.175
556.64279	11908.075
560.6802	12087.375
564.71473	12167.475
568.7464	12440.975
572.7752	12775.575
576.80114	12907.275
580.82422	12984.575
584.84444	13102.675
588.86181	13342.575
592.87633	13643.875
596.888	13863.875
600.89682	13962.075
604.9028	14616.275
608.90594	16789.275
612.90624	19535.275
616.90371	18439.475
620.89834	14040.075
624.89015	11994.975
628.87913	11697.175
632.86528	11892.575
636.84862	12079.875
640.82913	11883.175
644.80683	11395.475
648.78172	11043.275
652.75379	10901.875
656.72306	11149.475
660.68952	11474.775
664.65319	11389.875
668.61405	10939.775
672.57211	10779.475
676.52738	10772.575
680.47986	10776.175
684.42955	10671.575
688.37646	10611.775
692.32058	10640.975
696.26192	10746.275
700.20048	10858.275
704.13626	10968.675
708.06928	10956.175
711.99952	10914.175
715.927	10862.575
719.85171	10895.175
723.77365	10916.275
727.69284	10870.175
731.60928	10788.075
735.52295	10790.575
739.43388	10800.775
743.34206	10846.375
747.24749	10828.375
751.15017	10907.975
755.05012	11075.975
758.94733	11534.775
762.8418	12581.875
766.73354	14363.575
770.62254	16180.975
774.50882	16752.675
778.39237	15801.775
782.27321	13926.275
786.15132	12321.075
790.02671	11335.575
793.89938	10871.975
797.76935	10620.375
801.6366	10547.575
805.50115	10493.675
809.36299	10425.075
813.22213	10382.475
817.07857	10352.375
820.93231	10332.775
824.78336	10261.775
828.63172	10253.275
832.47738	10240.775
836.32036	10217.575
840.16066	10191.775
843.99827	10188.275
847.8332	10190.875
851.66546	10164.775
855.49504	10173.075
859.32195	10171.075
863.1462	10146.875
866.96777	10125.675
870.78668	10108.475
874.60293	10126.475
878.41652	10141.375
882.22745	10220.175
886.03573	10279.475
889.84136	10281.875
893.64433	10225.475
897.44466	10167.275
901.24235	10131.875
905.0374	10059.475
908.8298	10029.675
912.61957	10012.075
916.40671	10034.375
920.19121	10198.775
923.97308	10299.775
927.75233	10325.975
931.52895	10268.375
935.30295	10129.875
939.07433	9888.575
942.84309	9691.975
946.60924	9607.475
950.37278	9549.675
954.13371	9523.875
957.89203	9471.175
961.64774	9483.075
965.40086	9464.975
969.15137	9470.875
972.89929	9389.375
976.64461	9353.775
980.38733	9356.175
984.12747	9375.075
987.86502	9427.675
991.59999	9494.675
995.33237	9605.975
999.06217	9814.475
1002.78939	10117.775
1006.51404	10367.575
1010.23611	10587.675
1013.95561	10729.175
1017.67255	10695.775
1021.38692	10544.575
1025.09872	10334.375
1028.80796	10185.675
1032.51465	10217.375
1036.21877	10314.775
1039.92035	10373.375
1043.61937	10361.675
1047.31584	10352.975
1051.00976	10326.675
1054.70114	10293.875
1058.38998	10344.875
1062.07627	10393.875
1065.76003	10489.675
1069.44126	10574.375
1073.11995	10689.575
1076.79611	10854.575
1080.46974	11024.375
1084.14085	11184.375
1087.80943	11394.875
1091.47549	11529.275
1095.13903	11413.575
1098.80005	11129.875
1102.45857	10891.775
1106.11456	10763.075
1109.76805	10775.875
1113.41903	10962.975
1117.06751	11220.575
1120.71348	11556.275
1124.35696	11941.475
1127.99793	12291.775
1131.63641	12273.375
1135.2724	11972.775
1138.90589	11649.975
1142.5369	11433.975
1146.16542	11293.275
1149.79145	11236.575
1153.415	11266.575
1157.03607	11425.675
1160.65467	11669.975
1164.27079	12151.675
1167.88443	12906.875
1171.49561	13974.175
1175.10432	15524.875
1178.71056	17503.275
1182.31434	19235.275
1185.91565	19807.875
1189.51451	19380.675
1193.11091	18434.975
1196.70485	17261.175
1200.29634	16226.275
1203.88538	15400.375
1207.47197	14603.875
1211.05612	13881.275
1214.63782	13378.775
1218.21708	13155.675
1221.79391	13105.275
1225.36829	13104.975
1228.94024	13031.275
1232.50976	12769.475
1236.07685	12521.175
1239.6415	12400.975
1243.20374	12359.575
1246.76355	12418.075
1250.32093	12535.175
1253.8759	12747.775
1257.42845	13115.675
1260.97859	13503.575
1264.52631	13978.675
1268.07163	14450.875
1271.61453	14897.075
1275.15503	15349.475
1278.69312	15676.275
1282.22882	15992.975
1285.76211	16484.575
1289.29301	17037.375
1292.82151	17795.475
1296.34761	18740.875
1299.87133	19948.875
1303.39266	21568.075
1306.9116	23603.775
1310.42815	25657.375
1313.94233	26728.475
1317.45412	26247.375
1320.96354	25000.075
1324.47058	23642.375
1327.97525	22364.675
1331.47754	21406.575
1334.97747	20924.375
1338.47502	20836.475
1341.97022	21050.875
1345.46305	21624.275
1348.95352	22347.275
1352.44163	23352.375
1355.92738	24938.475
1359.41078	27525.475
1362.89183	29863.775
1366.37053	29285.275
1369.84688	25439.875
1373.32088	21435.175
1376.79254	18938.275
1380.26186	17729.175
1383.72883	17210.175
1387.19347	16795.875
1390.65578	16429.475
1394.11575	16128.075
1397.57339	16084.375
1401.0287	16162.175
1404.48168	16263.075
1407.93234	16162.375
1411.38068	15928.575
1414.82669	15590.075
1418.27039	15088.575
1421.71177	14542.475
1425.15083	14043.175
1428.58758	13780.475
1432.02203	13830.775
1435.45416	14116.975
1438.88399	14383.975
1442.31151	14611.275
1445.73673	14789.775
1449.15965	14986.575
1452.58027	15085.075
1455.9986	15115.275
1459.41463	15239.175
1462.82837	15541.575
1466.23982	15991.375
1469.64898	16474.575
1473.05586	16900.375
1476.46045	17105.175
1479.86276	17221.475
1483.26279	17279.275
1486.66054	17463.175
1490.05602	17809.875
1493.44922	18391.575
1496.84016	19331.575
1500.22882	20755.375
1503.61521	22795.375
1506.99934	24926.975
1510.38121	26341.775
1513.76081	26234.275
1517.13816	24443.575
1520.51324	21985.275
1523.88607	19938.275
1527.25665	18727.975
1530.62498	18084.075
1533.99105	17743.175
1537.35488	17357.375
1540.71647	16918.575
1544.07581	16459.675
1547.4329	15984.475
1550.78776	15662.375
1554.14038	15462.675
1557.49077	15493.375
1560.83892	15672.775
1564.18484	16005.075
1567.52853	16483.275
1570.86999	16929.575
1574.20922	17212.975
1577.54624	17220.775
1580.88103	16605.075
1584.2136	15801.175
1587.54395	15534.275
1590.87208	15870.675
1594.19801	16816.575
1597.52172	17975.475
1600.84321	18418.975
1604.16251	17756.075
1607.47959	16531.475
1610.79447	15254.975
1614.10715	14021.175
1617.41763	12964.575
1620.7259	12199.675
1624.03199	11780.575
1627.33587	11765.075
1630.63757	12035.975
1633.93707	12798.575
1637.23439	14110.275
1640.52951	16185.075
1643.82246	18847.375
1647.11321	21477.075
1650.40179	22551.575
1653.68819	21342.675
1656.97241	18279.775
1660.25446	15112.375
1663.53433	12786.175
1666.81203	11346.775
1670.08756	10503.375
1673.36092	9936.475
1676.63211	9596.075
1679.90115	9353.775
1683.16801	9160.475
1686.43272	9015.875
1689.69527	8879.475
1692.95567	8813.075
1696.2139	8745.675
1699.46999	8702.175
1702.72392	8626.075
1705.97571	8580.175
1709.22535	8557.275
1712.47284	8526.375
1715.71819	8504.175
1718.96139	8455.075
1722.20246	8411.675
1725.44139	8361.075
1728.67818	8286.575
1731.91284	8222.075
1735.14537	8137.975
1738.37576	8098.775
1741.60403	8079.275
1744.83017	8040.275
1748.05418	8015.875
1751.27607	7987.175
1754.49584	7966.375
1757.71349	7964.675
1760.92903	7935.175
1764.14244	7926.475
1767.35375	7926.475
1770.56294	7903.275
1773.77002	7854.875
1776.97499	7826.575
1780.17785	7791.975
1783.37861	7794.975
1786.57727	7772.375
1789.77382	7745.675
1792.96828	7735.175
1796.16064	7723.175
1799.3509	7682.575
1802.53907	7685.375
1805.72514	7648.975
1808.90913	7628.275
1812.09102	7608.375
1815.27083	7578.875
1818.44856	7560.375
1821.6242	7536.875
1824.79776	7525.875
1827.96924	7494.575
1831.13864	7486.975
1834.30597	7474.775
1837.47122	7449.375
1840.6344	7448.075
1843.7955	7455.875
1846.95454	7457.175
1850.11151	7429.675
1853.26642	7440.475
1856.41926	7404.575
1859.57004	7404.175
1862.71876	7388.775
1865.86542	7377.375
1869.01003	7401.575
1872.15258	7368.875
1875.29308	7393.375
1878.43152	7363.675
1881.56792	7381.275
1884.70227	7358.975
1887.83457	7330.575
1890.96482	7339.375
1894.09304	7313.175
1897.21921	7298.375
1900.34335	7304.275
1903.46544	7296.875
1906.58551	7324.275
1909.70353	7284.875
1912.81953	7290.075
1915.93349	7282.875
1919.04543	7254.775
1922.15534	7226.075
1925.26322	7218.675
1928.36908	7196.175
1931.47292	7171.075
1934.57473	7158.575
1937.67453	7150.575
1940.77232	7150.875
1943.86808	7101.675
1946.96184	7070.275
1950.05358	7072.275
1953.14331	7031.375
1956.23103	7022.675
1959.31675	6993.075
1962.40046	6962.375
1965.48217	6976.175
1968.56188	6932.075
1971.63959	6932.775
1974.7153	6912.075
1977.78901	6898.675
1980.86073	6842.875
1983.93046	6818.675
1986.99819	6803.775
1990.06394	6801.375
1993.1277	6772.775
1996.18947	6744.075
1999.24925	6718.875
2002.30706	6693.875
2005.36288	6653.675
2008.41672	6634.675
2011.46859	6631.975
2014.51848	6591.275
2017.56639	6565.675
2020.61233	6560.975
2023.6563	6530.575
2026.6983	6505.975
2029.73833	6503.275
2032.7764	6493.075
2035.8125	6477.175
2038.84664	6464.275
2041.87881	6461.475
2044.90903	6455.275
2047.93729	6425.275
2050.96359	6423.275
2053.98794	6414.575
2057.01034	6407.075
2060.03078	6390.575
2063.04927	6388.175
2066.06582	6361.175
2069.08042	6368.275
2072.09307	6359.275
2075.10378	6363.475
2078.11255	6351.975
2081.11938	6370.175
2084.12426	6357.575
2087.12722	6345.975
2090.12824	6342.675
2093.12732	6334.675
2096.12447	6338.475
2099.11969	6348.475
2102.11299	6331.075
2105.10435	6354.975
2108.09379	6331.375
2111.08131	6350.375
2114.0669	6359.975
2117.05057	6359.275
2120.03233	6368.075
2123.01216	6366.175
2125.99008	6375.575
2128.96609	6365.075
2131.94018	6362.175
2134.91236	6365.975
2137.88263	6373.375
2140.851	6370.275
2143.81746	6370.275
2146.78201	6377.375
2149.74466	6351.675
2152.7054	6337.775
2155.66425	6332.475
2158.6212	6354.375
2161.57625	6342.575
2164.52941	6335.475
2167.48067	6321.975
2170.43004	6309.275
2173.37752	6327.775
2176.32311	6316.875
2179.26681	6308.575
2182.20863	6317.075
2185.14856	6323.575
2188.08661	6320.575
2191.02278	6328.575
2193.95707	6310.175
2196.88948	6286.775
2199.82001	6296.075
2202.74867	6288.075
2205.67545	6293.975
2208.60037	6277.075
2211.52341	6247.875
2214.44458	6242.275
2217.36388	6231.075
2220.28132	6231.975
2223.1969	6227.575
2226.11061	6215.375
2229.02246	6205.875
2231.93245	6194.975
2234.84058	6176.875
2237.74686	6171.075
2240.65128	6160.075
2243.55385	6135.675
2246.45456	6144.475
2249.35343	6130.375
2252.25044	6128.575
2255.14561	6113.175
2258.03893	6135.875
2260.93041	6075.375
2263.82004	6076.775
2266.70783	6059.375
2269.59378	6059.475
2272.4779	6047.575
2275.36017	6028.175
2278.24061	6028.975
2281.11922	6002.875
2283.996	5984.575
2286.87094	5972.075
2289.74405	5985.375
2292.61534	5961.775
2295.4848	5962.375
2298.35243	5965.575
2301.21824	5935.675
2304.08223	5949.075
2306.94439	5929.275
2309.80474	5937.775
2312.66327	5939.275
2315.51999	5921.275
2318.37489	5932.175
2321.22797	5927.975
2324.07925	5920.075
2326.92871	5901.975
2329.77637	5918.475
2332.62222	5910.375
2335.46626	5889.775
2338.3085	5891.875
2341.14893	5897.975
2343.98756	5893.675
2346.8244	5894.875
2349.65943	5911.675
2352.49267	5905.775
2355.32411	5900.275
2358.15376	5932.575
2360.98161	5929.775
2363.80768	5915.675
2366.63195	5929.475
2369.45444	5932.175
2372.27514	5912.275
2375.09405	5902.475
2377.91118	5885.675
2380.72652	5878.775
2383.54009	5854.175
2386.35187	5853.975
2389.16188	5819.175
2391.97011	5801.775
2394.77657	5777.675
2397.58125	5756.175
2400.38416	5761.975
2403.18529	5761.775
2405.98466	5737.975
2408.78226	5721.575
2411.57809	5695.075
2414.37216	5692.975
2417.16446	5697.275
2419.955	5704.775
2422.74378	5694.175
2425.5308	5687.575
2428.31606	5685.175
2431.09956	5682.775
2433.88131	5671.175
2436.6613	5678.275
2439.43954	5662.175
2442.21603	5657.575
2444.99077	5650.975
2447.76377	5665.375
2450.53501	5681.375
2453.30451	5660.175
2456.07226	5663.475
2458.83827	5653.475
2461.60254	5669.275
2464.36507	5662.975
2467.12586	5664.575
2469.88492	5673.675
2472.64224	5663.375
2475.39782	5679.575
2478.15167	5689.575
2480.90379	5688.775
2483.65417	5703.675
2486.40283	5721.575
2489.14976	5702.975
2491.89497	5724.475
2494.63845	5710.175
2497.3802	5710.175
2500.12024	5704.175
2502.85855	5692.475
2505.59514	5683.375
2508.33002	5653.575
2511.06318	5658.875
2513.79462	5646.475
2516.52435	5633.875
2519.25237	5610.375
2521.97867	5605.575
2524.70327	5606.075
2527.42616	5604.475
2530.14734	5599.075
2532.86681	5595.775
2535.58458	5586.875
2538.30065	5583.775
2541.01501	5591.875
2543.72768	5577.575
2546.43864	5585.775
2549.14791	5568.975
2551.85548	5563.875
2554.56136	5561.875
2557.26554	5531.175
2559.96803	5540.075
2562.66883	5522.875
2565.36794	5525.975
2568.06536	5528.875
2570.7611	5511.875
2573.45514	5503.375
2576.14751	5505.775
2578.83819	5500.475
2581.52719	5488.175
2584.21451	5498.675
2586.90015	5490.475
2589.58411	5497.275
2592.2664	5481.775
2594.94701	5483.275
2597.62594	5460.675
2600.30321	5474.575
2602.9788	5465.675
2605.65273	5445.175
2608.32498	5451.775
2610.99557	5449.675
2613.66449	5442.075
2616.33175	5445.775
2618.99734	5467.175
2621.66128	5451.875
2624.32355	5449.875
2626.98416	5449.875
2629.64311	5461.075
2632.30041	5458.275
2634.95605	5435.975
2637.61004	5423.575
2640.26238	5439.775
2642.91306	5440.575
2645.56209	5406.775
2648.20948	5417.075
2650.85521	5425.075
2653.4993	5418.175
2656.14175	5423.175
2658.78255	5424.875
2661.42171	5438.975
2664.05923	5444.875
2666.6951	5448.475
2669.32934	5463.675
2671.96194	5456.275
2674.59291	5452.175
2677.22224	5452.175
2679.84993	5452.675
2682.476	5412.875
2685.10043	5434.175
2687.72324	5406.175
2690.34441	5420.375
2692.96396	5418.675
2695.58188	5419.975
2698.19818	5427.275
2700.81285	5412.775
2703.4259	5408.275
2706.03733	5409.375
2708.64714	5428.975
2711.25533	5426.075
2713.86191	5453.775
2716.46687	5439.475
2719.07021	5445.775
2721.67194	5431.375
2724.27206	5464.175
2726.87057	5466.275
2729.46747	5456.575
2732.06276	5462.475
2734.65644	5467.075
2737.24852	5464.575
2739.83899	5429.875
2742.42786	5434.375
2745.01513	5410.775
2747.60079	5399.675
2750.18486	5408.375
2752.76733	5398.975
2755.3482	5400.575
2757.92747	5398.375
2760.50515	5380.975
2763.08123	5373.375
2765.65573	5396.875
2768.22863	5380.975
2770.79994	5404.275
2773.36967	5392.875
2775.9378	5383.975
2778.50435	5387.075
2781.06932	5376.775
2783.6327	5398.175
2786.1945	5386.975
2788.75471	5387.075
2791.31335	5374.775
2793.87041	5361.675
2796.42589	5354.075
2798.97979	5374.375
2801.53212	5359.775
2804.08288	5346.675
2806.63206	5331.475
2809.17967	5330.875
2811.72571	5309.075
2814.27018	5347.575
2816.81308	5331.475
2819.35442	5308.075
2821.89419	5308.075
2824.43239	5287.475
2826.96904	5287.775
2829.50412	5292.175
2832.03763	5292.975
2834.56959	5279.875
2837.1	5279.675
2839.62884	5298.275
2842.15613	5288.875
2844.68186	5295.375
2847.20604	5292.575
2849.72867	5316.575
2852.24974	5333.275
2854.76927	5309.675
2857.28724	5302.375
2859.80367	5300.275
2862.31855	5314.375
2864.83189	5305.675
2867.34368	5312.275
2869.85393	5318.075
2872.36264	5295.975
2874.8698	5301.075
2877.37543	5302.575
2879.87952	5305.375
2882.38207	5299.575
2884.88308	5301.075
2887.38256	5306.775
2889.88051	5308.475
2892.37692	5297.175
2894.8718	5303.275
2897.36515	5318.775
2899.85698	5295.875
2902.34727	5317.375
2904.83604	5309.875
2907.32328	5307.075
2909.809	5338.775
2912.29319	5346.875
2914.77587	5338.875
2917.25702	5328.675
2919.73665	5333.175
2922.21476	5332.375
2924.69136	5321.675
2927.16644	5322.575
2929.64	5323.975
2932.11205	5295.875
2934.58258	5281.275
2937.05161	5288.975
2939.51912	5270.875
2941.98513	5267.775
2944.44962	5237.075
2946.91261	5231.575
2949.37409	5230.175
2951.83407	5233.575
2954.29254	5229.975
2956.74951	5231.075
2959.20498	5248.975
2961.65895	5211.875
2964.11142	5221.275
2966.56239	5201.775
2969.01186	5191.075
2971.45984	5184.175
2973.90632	5170.175
2976.35131	5164.775
2978.7948	5157.975
2981.23681	5142.575
2983.67732	5130.175
2986.11635	5110.275
2988.55388	5107.975
2990.98993	5092.575
2993.4245	5095.275
2995.85758	5080.775
2998.28917	5083.775
3000.71928	5068.475
3003.14791	5051.675
3005.57506	5066.375
3008.00073	5040.775
3010.42493	5047.275
3012.84764	5023.275
3015.26888	5026.975
3017.68865	5021.075
3020.10694	5021.175
3022.52376	5003.675
3024.9391	4989.975
3027.35298	4988.575
3029.76539	4988.975
3032.17632	4955.875
3034.5858	4961.475
3036.9938	4962.275
3039.40034	4962.675
3041.80542	4970.875
3044.20903	4948.475
3046.61118	4963.175
3049.01187	4944.775
3051.4111	4949.375
3053.80888	4933.075
3056.20519	4914.775
3058.60005	4896.175
3060.99345	4898.075
3063.3854	4878.075
3065.7759	4886.175
3068.16494	4866.675
3070.55254	4866.975
3072.93868	4847.775
3075.32338	4841.075
3077.70662	4846.775
3080.08842	4827.675
3082.46878	4836.675
3084.84769	4829.675
3087.22515	4831.275
3089.60118	4837.475
3091.97576	4841.975
3094.3489	4831.175
3096.72061	4824.975
3099.09087	4815.875
3101.4597	4825.675
3103.82709	4842.575
3106.19305	4818.375
3108.55757	4815.175
3110.92066	4810.275
3113.28232	4822.375
3115.64255	4799.075
3118.00134	4793.075
3120.35871	4793.675
3122.71466	4791.875
3125.06917	4777.175
3127.42226	4770.375
3129.77393	4763.575
3132.12417	4777.475
3134.47299	4764.575
3136.82039	4752.975
3139.16636	4747.175
3141.51092	4765.475
3143.85406	4758.875
3146.19579	4771.175
3148.53609	4770.075
3150.87499	4787.775
3153.21246	4791.275
3155.54853	4790.975
3157.88318	4786.575
3160.21642	4812.775
3162.54826	4801.575
3164.87868	4802.975
3167.2077	4798.775
3169.5353	4819.675
3171.86151	4807.975
3174.18631	4816.775
3176.5097	4817.575
3178.83169	4795.175
3181.15228	4796.475
3183.47147	4778.375
3185.78926	4799.975
3188.10565	4798.775
3190.42065	4795.075
3192.73424	4790.275
