Data from AgNP_FTO_APTES_UA_100uM_CRN_20uM_R6G_10uM_NaF_0.1M_Addition_RamanShift__35__17-06-40-518.txt Node

Date: Thu Mar 24 17:06:40 GMT 2022
User: TCL
Spectrometer: QEP01345
Trigger mode: 4
Integration Time (sec): 7.000000E0
Scans to average: 10
Electric dark correction enabled: true
Nonlinearity correction enabled: false
Boxcar width: 0
XAxis mode: Raman Shifts
Number of Pixels in Spectrum: 1044
>>>>>Begin Spectral Data<<<<<
46.04893	-1.5625
50.45542	0.4375
54.85868	0.0375
59.25871	0.4375
63.6555	3.5375
68.04907	8.5375
72.43941	3.5375
76.82654	5.6375
81.21044	8.9375
85.59113	6.4375
89.96862	6.4375
94.34289	5.3375
98.71396	9.4375
103.08183	8.5375
107.4465	7.6375
111.80798	8.0375
116.16626	8.3375
120.52136	8.5375
124.87327	8.4375
129.222	7.5375
133.56755	8.8375
137.90993	7.5375
142.24913	13.0375
146.58517	13.0375
150.91804	16.0375
155.24774	20.7375
159.57429	23.9375
163.89768	32.3375
168.21792	41.7375
172.53501	62.4375
176.84895	85.6375
181.15975	119.0375
185.46741	164.1375
189.77193	226.2375
194.07331	302.8375
198.37157	390.6375
202.6667	490.6375
206.9587	579.5375
211.24758	670.9375
215.53334	778.5375
219.81599	886.9375
224.09553	1015.8375
228.37195	1149.8375
232.64527	1304.5375
236.91549	1451.5375
241.18261	1587.5375
245.44663	1698.6375
249.70755	1801.5375
253.96539	1867.5375
258.22014	1937.6375
262.4718	2000.4375
266.72039	2041.6375
270.96589	2052.9375
275.20832	2042.8375
279.44768	2011.0375
283.68397	1966.3375
287.91719	1950.8375
292.14735	1927.1375
296.37445	1957.4375
300.59849	2016.2375
304.81948	2087.6375
309.03742	2150.4375
313.25231	2169.8375
317.46415	2115.1375
321.67296	2007.2375
325.87872	1926.0375
330.08145	1881.1375
334.28114	1880.8375
338.47781	1909.8375
342.67145	1934.1375
346.86207	1995.1375
351.04966	2082.2375
355.23424	2169.1375
359.4158	2230.8375
363.59435	2260.2375
367.76989	2256.2375
371.94243	2245.9375
376.11196	2229.4375
380.27849	2236.0375
384.44203	2216.3375
388.60257	2223.1375
392.76012	2222.7375
396.91468	2233.2375
401.06626	2280.0375
405.21485	2330.9375
409.36047	2287.7375
413.50311	2226.0375
417.64277	2181.8375
421.77947	2215.3375
425.9132	2283.8375
430.04396	2339.2375
434.17176	2377.4375
438.2966	2366.7375
442.41849	2391.8375
446.53742	2462.8375
450.6534	2521.1375
454.76644	2583.0375
458.87653	2561.5375
462.98368	2482.6375
467.08789	2394.1375
471.18916	2319.3375
475.2875	2252.6375
479.38291	2225.2375
483.4754	2189.1375
487.56496	2168.3375
491.6516	2143.0375
495.73531	2108.2375
499.81612	2071.8375
503.89401	2072.2375
507.96899	2060.8375
512.04106	2050.8375
516.11023	2062.6375
520.1765	2075.7375
524.23987	2062.2375
528.30034	2063.7375
532.35792	2063.5375
536.41261	2029.8375
540.46441	1997.6375
544.51333	1967.4375
548.55936	1976.8375
552.60252	2019.9375
556.64279	2094.8375
560.6802	2144.4375
564.71473	2189.1375
568.7464	2240.7375
572.7752	2313.6375
576.80114	2312.7375
580.82422	2313.3375
584.84444	2339.5375
588.86181	2488.6375
592.87633	2700.5375
596.888	2863.0375
600.89682	2871.5375
604.9028	2925.3375
608.90594	3290.8375
612.90624	3821.5375
616.90371	3548.4375
620.89834	2583.9375
624.89015	2131.0375
628.87913	2030.8375
632.86528	2061.9375
636.84862	2080.6375
640.82913	2037.0375
644.80683	1936.4375
648.78172	1877.9375
652.75379	1876.0375
656.72306	1931.7375
660.68952	2002.0375
664.65319	1955.1375
668.61405	1854.0375
672.57211	1810.5375
676.52738	1832.8375
680.47986	1823.0375
684.42955	1812.5375
688.37646	1812.4375
692.32058	1840.4375
696.26192	1915.5375
700.20048	2004.1375
704.13626	2085.6375
708.06928	2090.6375
711.99952	2066.2375
715.927	2015.6375
719.85171	1985.1375
723.77365	1936.3375
727.69284	1904.5375
731.60928	1896.0375
735.52295	1890.5375
739.43388	1910.1375
743.34206	1899.3375
747.24749	1882.6375
751.15017	1892.2375
755.05012	1917.8375
758.94733	1989.4375
762.8418	2217.1375
766.73354	2574.9375
770.62254	2918.5375
774.50882	3030.0375
778.39237	2859.2375
782.27321	2502.2375
786.15132	2166.6375
790.02671	1954.8375
793.89938	1846.9375
797.76935	1813.8375
801.6366	1797.4375
805.50115	1787.5375
809.36299	1768.5375
813.22213	1772.1375
817.07857	1765.5375
820.93231	1767.3375
824.78336	1760.4375
828.63172	1764.6375
832.47738	1766.0375
836.32036	1763.1375
840.16066	1750.1375
843.99827	1750.6375
847.8332	1739.6375
851.66546	1734.4375
855.49504	1729.2375
859.32195	1734.7375
863.1462	1722.9375
866.96777	1715.0375
870.78668	1714.5375
874.60293	1722.2375
878.41652	1727.3375
882.22745	1736.2375
886.03573	1756.0375
889.84136	1752.2375
893.64433	1732.1375
897.44466	1739.5375
901.24235	1733.2375
905.0374	1713.0375
908.8298	1699.5375
912.61957	1705.6375
916.40671	1711.2375
920.19121	1721.6375
923.97308	1745.7375
927.75233	1757.8375
931.52895	1754.1375
935.30295	1727.1375
939.07433	1662.2375
942.84309	1633.1375
946.60924	1615.4375
950.37278	1600.2375
954.13371	1603.9375
957.89203	1605.6375
961.64774	1603.9375
965.40086	1602.8375
969.15137	1605.0375
972.89929	1591.9375
976.64461	1584.1375
980.38733	1581.0375
984.12747	1579.7375
987.86502	1588.1375
991.59999	1610.0375
995.33237	1634.8375
999.06217	1711.6375
1002.78939	1779.3375
1006.51404	1853.4375
1010.23611	1893.0375
1013.95561	1918.3375
1017.67255	1912.6375
1021.38692	1856.2375
1025.09872	1776.1375
1028.80796	1733.7375
1032.51465	1710.7375
1036.21877	1725.4375
1039.92035	1733.2375
1043.61937	1730.2375
1047.31584	1735.0375
1051.00976	1728.1375
1054.70114	1724.7375
1058.38998	1721.6375
1062.07627	1732.6375
1065.76003	1737.2375
1069.44126	1753.9375
1073.11995	1779.0375
1076.79611	1825.3375
1080.46974	1881.9375
1084.14085	1935.5375
1087.80943	1985.9375
1091.47549	2017.5375
1095.13903	1991.9375
1098.80005	1925.7375
1102.45857	1868.4375
1106.11456	1865.7375
1109.76805	1876.0375
1113.41903	1915.2375
1117.06751	1985.9375
1120.71348	2066.6375
1124.35696	2166.9375
1127.99793	2226.5375
1131.63641	2204.2375
1135.2724	2113.3375
1138.90589	2039.1375
1142.5369	2005.1375
1146.16542	1990.8375
1149.79145	1972.3375
1153.415	1989.4375
1157.03607	2012.8375
1160.65467	2065.2375
1164.27079	2178.8375
1167.88443	2329.2375
1171.49561	2583.0375
1175.10432	2937.4375
1178.71056	3419.2375
1182.31434	3822.0375
1185.91565	3922.0375
1189.51451	3736.4375
1193.11091	3448.7375
1196.70485	3173.0375
1200.29634	2948.8375
1203.88538	2775.6375
1207.47197	2618.0375
1211.05612	2474.6375
1214.63782	2419.0375
1218.21708	2417.4375
1221.79391	2454.2375
1225.36829	2491.9375
1228.94024	2466.8375
1232.50976	2407.7375
1236.07685	2337.0375
1239.6415	2316.8375
1243.20374	2336.5375
1246.76355	2372.4375
1250.32093	2439.4375
1253.8759	2518.8375
1257.42845	2610.2375
1260.97859	2733.2375
1264.52631	2836.8375
1268.07163	2953.0375
1271.61453	3015.6375
1275.15503	3035.1375
1278.69312	3037.8375
1282.22882	3064.7375
1285.76211	3181.9375
1289.29301	3332.2375
1292.82151	3530.3375
1296.34761	3750.3375
1299.87133	4053.5375
1303.39266	4441.1375
1306.9116	4937.2375
1310.42815	5466.1375
1313.94233	5736.4375
1317.45412	5656.3375
1320.96354	5319.9375
1324.47058	4982.9375
1327.97525	4647.4375
1331.47754	4271.6375
1334.97747	4064.8375
1338.47502	4022.6375
1341.97022	4025.6375
1345.46305	4101.3375
1348.95352	4237.3375
1352.44163	4502.0375
1355.92738	4985.7375
1359.41078	5677.6375
1362.89183	6293.6375
1366.37053	6158.1375
1369.84688	5212.5375
1373.32088	4254.4375
1376.79254	3750.1375
1380.26186	3611.5375
1383.72883	3594.7375
1387.19347	3576.7375
1390.65578	3470.8375
1394.11575	3346.2375
1397.57339	3282.9375
1401.0287	3321.6375
1404.48168	3361.1375
1407.93234	3370.4375
1411.38068	3302.2375
1414.82669	3219.6375
1418.27039	3107.9375
1421.71177	2934.1375
1425.15083	2785.8375
1428.58758	2754.0375
1432.02203	2799.3375
1435.45416	2929.2375
1438.88399	3045.3375
1442.31151	3092.8375
1445.73673	3211.1375
1449.15965	3244.9375
1452.58027	3159.7375
1455.9986	3084.7375
1459.41463	3023.2375
1462.82837	3068.8375
1466.23982	3186.2375
1469.64898	3314.9375
1473.05586	3438.3375
1476.46045	3523.6375
1479.86276	3596.5375
1483.26279	3612.0375
1486.66054	3654.2375
1490.05602	3742.9375
1493.44922	3844.1375
1496.84016	3936.1375
1500.22882	4085.5375
1503.61521	4374.3375
1506.99934	4744.6375
1510.38121	5053.1375
1513.76081	5020.1375
1517.13816	4647.3375
1520.51324	4072.1375
1523.88607	3604.2375
1527.25665	3364.9375
1530.62498	3265.7375
1533.99105	3234.0375
1537.35488	3173.2375
1540.71647	3108.8375
1544.07581	3012.0375
1547.4329	2933.4375
1550.78776	2844.2375
1554.14038	2776.2375
1557.49077	2749.5375
1560.83892	2772.1375
1564.18484	2830.3375
1567.52853	2951.2375
1570.86999	3058.0375
1574.20922	3147.9375
1577.54624	3157.8375
1580.88103	3050.5375
1584.2136	2906.8375
1587.54395	2902.5375
1590.87208	3062.6375
1594.19801	3406.4375
1597.52172	3811.6375
1600.84321	4041.8375
1604.16251	3888.9375
1607.47959	3509.1375
1610.79447	3055.5375
1614.10715	2686.8375
1617.41763	2410.9375
1620.7259	2271.0375
1624.03199	2225.1375
1627.33587	2254.4375
1630.63757	2379.1375
1633.93707	2644.1375
1637.23439	3042.9375
1640.52951	3681.6375
1643.82246	4525.3375
1647.11321	5355.1375
1650.40179	5685.9375
1653.68819	5358.5375
1656.97241	4495.6375
1660.25446	3665.9375
1663.53433	3087.5375
1666.81203	2690.1375
1670.08756	2423.0375
1673.36092	2184.6375
1676.63211	2017.4375
1679.90115	1913.6375
1683.16801	1854.6375
1686.43272	1841.1375
1689.69527	1897.6375
1692.95567	2073.1375
1696.2139	2390.5375
1699.46999	2682.5375
1702.72392	2699.3375
1705.97571	2405.2375
1709.22535	2051.7375
1712.47284	1822.1375
1715.71819	1697.0375
1718.96139	1604.3375
1722.20246	1554.3375
1725.44139	1537.3375
1728.67818	1511.8375
1731.91284	1488.0375
1735.14537	1479.8375
1738.37576	1496.7375
1741.60403	1528.2375
1744.83017	1545.1375
1748.05418	1591.8375
1751.27607	1683.1375
1754.49584	1849.9375
1757.71349	2040.3375
1760.92903	2144.2375
1764.14244	2137.2375
1767.35375	2111.7375
1770.56294	2113.3375
1773.77002	2009.5375
1776.97499	1803.8375
1780.17785	1613.6375
1783.37861	1498.3375
1786.57727	1423.9375
1789.77382	1377.3375
1792.96828	1363.2375
1796.16064	1345.6375
1799.3509	1319.2375
1802.53907	1311.4375
1805.72514	1296.7375
1808.90913	1292.0375
1812.09102	1291.4375
1815.27083	1276.9375
1818.44856	1264.5375
1821.6242	1254.6375
1824.79776	1254.4375
1827.96924	1247.5375
1831.13864	1246.6375
1834.30597	1236.8375
1837.47122	1236.8375
1840.6344	1238.5375
1843.7955	1232.4375
1846.95454	1230.9375
1850.11151	1219.1375
1853.26642	1231.6375
1856.41926	1223.7375
1859.57004	1217.9375
1862.71876	1217.1375
1865.86542	1221.8375
1869.01003	1224.4375
1872.15258	1214.0375
1875.29308	1222.0375
1878.43152	1211.4375
1881.56792	1215.2375
1884.70227	1203.1375
1887.83457	1213.2375
1890.96482	1212.0375
1894.09304	1210.1375
1897.21921	1205.6375
1900.34335	1204.2375
1903.46544	1211.3375
1906.58551	1209.7375
1909.70353	1212.9375
1912.81953	1205.2375
1915.93349	1208.9375
1919.04543	1198.6375
1922.15534	1209.8375
1925.26322	1191.0375
1928.36908	1193.8375
1931.47292	1178.6375
1934.57473	1186.6375
1937.67453	1186.9375
1940.77232	1179.4375
1943.86808	1175.5375
1946.96184	1176.1375
1950.05358	1170.5375
1953.14331	1157.9375
1956.23103	1159.8375
1959.31675	1152.2375
1962.40046	1141.0375
1965.48217	1141.2375
1968.56188	1140.6375
1971.63959	1141.2375
1974.7153	1140.0375
1977.78901	1124.2375
1980.86073	1121.4375
1983.93046	1120.4375
1986.99819	1111.2375
1990.06394	1109.2375
1993.1277	1108.0375
1996.18947	1108.3375
1999.24925	1104.3375
2002.30706	1099.8375
2005.36288	1096.1375
2008.41672	1089.5375
2011.46859	1083.5375
2014.51848	1073.3375
2017.56639	1074.3375
2020.61233	1069.1375
2023.6563	1073.7375
2026.6983	1071.8375
2029.73833	1063.3375
2032.7764	1060.3375
2035.8125	1060.6375
2038.84664	1055.6375
2041.87881	1052.9375
2044.90903	1056.3375
2047.93729	1055.6375
2050.96359	1062.3375
2053.98794	1071.7375
2057.01034	1056.1375
2060.03078	1042.4375
2063.04927	1047.2375
2066.06582	1040.9375
2069.08042	1038.3375
2072.09307	1037.5375
2075.10378	1042.9375
2078.11255	1031.5375
2081.11938	1043.3375
2084.12426	1032.5375
2087.12722	1038.8375
2090.12824	1039.0375
2093.12732	1026.4375
2096.12447	1031.7375
2099.11969	1029.3375
2102.11299	1039.0375
2105.10435	1033.9375
2108.09379	1034.4375
2111.08131	1028.9375
2114.0669	1029.9375
2117.05057	1029.2375
2120.03233	1021.6375
2123.01216	1028.6375
2125.99008	1030.7375
2128.96609	1027.4375
2131.94018	1024.1375
2134.91236	1020.6375
2137.88263	1028.6375
2140.851	1019.8375
2143.81746	1024.4375
2146.78201	1018.7375
2149.74466	1021.7375
2152.7054	1019.8375
2155.66425	1018.1375
2158.6212	1016.6375
2161.57625	1009.7375
2164.52941	1011.6375
2167.48067	1008.7375
2170.43004	1014.3375
2173.37752	1013.2375
2176.32311	1002.4375
2179.26681	1015.0375
2182.20863	1010.4375
2185.14856	1020.6375
2188.08661	1009.6375
2191.02278	1014.3375
2193.95707	1006.9375
2196.88948	1015.6375
2199.82001	1003.9375
2202.74867	1006.2375
2205.67545	1014.0375
2208.60037	1007.8375
2211.52341	995.3375
2214.44458	1004.2375
2217.36388	983.4375
2220.28132	996.1375
2223.1969	994.5375
2226.11061	991.0375
2229.02246	986.4375
2231.93245	984.8375
2234.84058	978.6375
2237.74686	985.8375
2240.65128	987.7375
2243.55385	989.1375
2246.45456	976.1375
2249.35343	978.7375
2252.25044	981.5375
2255.14561	979.9375
2258.03893	1030.1375
2260.93041	1097.3375
2263.82004	1035.6375
2266.70783	995.5375
2269.59378	973.7375
2272.4779	967.6375
2275.36017	960.5375
2278.24061	959.6375
2281.11922	954.1375
2283.996	948.2375
2286.87094	947.8375
2289.74405	940.4375
2292.61534	944.7375
2295.4848	949.1375
2298.35243	936.0375
2301.21824	934.2375
2304.08223	941.7375
2306.94439	943.8375
2309.80474	946.1375
2312.66327	947.0375
2315.51999	943.0375
2318.37489	943.2375
2321.22797	953.6375
2324.07925	945.0375
2326.92871	946.0375
2329.77637	963.3375
2332.62222	951.4375
2335.46626	944.0375
2338.3085	950.9375
2341.14893	951.2375
2343.98756	955.7375
2346.8244	949.9375
2349.65943	948.7375
2352.49267	944.4375
2355.32411	945.9375
2358.15376	944.9375
2360.98161	940.5375
2363.80768	939.2375
2366.63195	935.4375
2369.45444	934.3375
2372.27514	940.6375
2375.09405	935.2375
2377.91118	934.3375
2380.72652	934.2375
2383.54009	923.5375
2386.35187	922.7375
2389.16188	918.6375
2391.97011	912.2375
2394.77657	914.1375
2397.58125	909.6375
2400.38416	913.5375
2403.18529	909.5375
2405.98466	911.5375
2408.78226	908.0375
2411.57809	914.9375
2414.37216	911.0375
2417.16446	911.6375
2419.955	905.7375
2422.74378	900.0375
2425.5308	897.1375
2428.31606	903.2375
2431.09956	890.0375
2433.88131	897.4375
2436.6613	891.4375
2439.43954	898.8375
2442.21603	895.2375
2444.99077	890.2375
2447.76377	897.9375
2450.53501	891.3375
2453.30451	895.9375
2456.07226	894.5375
2458.83827	892.0375
2461.60254	893.5375
2464.36507	893.4375
2467.12586	892.9375
2469.88492	885.7375
2472.64224	902.5375
2475.39782	968.1375
2478.15167	990.6375
2480.90379	939.3375
2483.65417	926.0375
2486.40283	920.3375
2489.14976	913.5375
2491.89497	923.5375
2494.63845	997.1375
2497.3802	1008.1375
2500.12024	950.0375
2502.85855	926.0375
2505.59514	915.5375
2508.33002	907.4375
2511.06318	887.6375
2513.79462	892.6375
2516.52435	884.2375
2519.25237	888.7375
2521.97867	884.9375
2524.70327	882.2375
2527.42616	886.1375
2530.14734	884.2375
2532.86681	883.2375
2535.58458	885.8375
2538.30065	873.1375
2541.01501	872.8375
2543.72768	883.4375
2546.43864	874.5375
2549.14791	879.7375
2551.85548	875.7375
2554.56136	879.4375
2557.26554	872.7375
2559.96803	870.1375
2562.66883	875.9375
2565.36794	880.7375
2568.06536	876.3375
2570.7611	874.7375
2573.45514	875.6375
2576.14751	871.5375
2578.83819	875.7375
2581.52719	872.1375
2584.21451	871.5375
2586.90015	876.6375
2589.58411	874.9375
2592.2664	877.2375
2594.94701	873.7375
2597.62594	877.9375
2600.30321	865.0375
2602.9788	873.4375
2605.65273	869.5375
2608.32498	870.8375
2610.99557	867.7375
2613.66449	869.8375
2616.33175	874.3375
2618.99734	868.5375
2621.66128	874.9375
2624.32355	877.8375
2626.98416	875.9375
2629.64311	861.0375
2632.30041	875.2375
2634.95605	878.3375
2637.61004	867.1375
2640.26238	865.3375
2642.91306	866.8375
2645.56209	876.1375
2648.20948	895.5375
2650.85521	888.5375
2653.4993	876.0375
2656.14175	870.5375
2658.78255	874.7375
2661.42171	878.5375
2664.05923	876.7375
2666.6951	870.7375
2669.32934	882.2375
2671.96194	871.5375
2674.59291	882.4375
2677.22224	867.0375
2679.84993	875.9375
2682.476	877.9375
2685.10043	870.7375
2687.72324	870.3375
2690.34441	873.2375
2692.96396	867.8375
2695.58188	869.0375
2698.19818	878.2375
2700.81285	888.6375
2703.4259	1048.2375
2706.03733	1367.1375
2708.64714	1142.6375
2711.25533	1007.7375
2713.86191	965.1375
2716.46687	953.5375
2719.07021	917.4375
2721.67194	894.1375
2724.27206	884.2375
2726.87057	883.6375
2729.46747	882.6375
2732.06276	881.9375
2734.65644	875.9375
2737.24852	886.7375
2739.83899	869.0375
2742.42786	874.7375
2745.01513	870.6375
2747.60079	872.7375
2750.18486	872.4375
2752.76733	872.9375
2755.3482	867.2375
2757.92747	869.0375
2760.50515	874.7375
2763.08123	869.9375
2765.65573	866.3375
2768.22863	877.6375
2770.79994	869.0375
2773.36967	874.5375
2775.9378	880.5375
2778.50435	865.3375
2781.06932	875.9375
2783.6327	871.1375
2786.1945	879.5375
2788.75471	877.5375
2791.31335	881.2375
2793.87041	879.6375
2796.42589	880.0375
2798.97979	877.0375
2801.53212	869.2375
2804.08288	874.0375
2806.63206	879.7375
2809.17967	870.8375
2811.72571	870.7375
2814.27018	873.0375
2816.81308	871.0375
2819.35442	865.3375
2821.89419	864.9375
2824.43239	871.1375
2826.96904	861.2375
2829.50412	868.0375
2832.03763	867.1375
2834.56959	860.5375
2837.1	856.5375
2839.62884	863.7375
2842.15613	863.4375
2844.68186	860.6375
2847.20604	863.7375
2849.72867	870.1375
2852.24974	870.8375
2854.76927	946.6375
2857.28724	1019.1375
2859.80367	950.2375
2862.31855	913.1375
2864.83189	896.5375
2867.34368	894.6375
2869.85393	879.7375
2872.36264	874.9375
2874.8698	870.2375
2877.37543	866.7375
2879.87952	864.6375
2882.38207	864.2375
2884.88308	856.4375
2887.38256	863.6375
2889.88051	859.5375
2892.37692	856.7375
2894.8718	860.4375
2897.36515	863.1375
2899.85698	854.0375
2902.34727	859.9375
2904.83604	855.9375
2907.32328	861.2375
2909.809	859.4375
2912.29319	865.0375
2914.77587	863.4375
2917.25702	854.6375
2919.73665	858.8375
2922.21476	860.6375
2924.69136	854.0375
2927.16644	859.0375
2929.64	845.1375
2932.11205	850.9375
2934.58258	847.7375
2937.05161	847.9375
2939.51912	847.4375
2941.98513	847.9375
2944.44962	845.0375
2946.91261	841.7375
2949.37409	846.5375
2951.83407	846.6375
2954.29254	843.2375
2956.74951	842.1375
2959.20498	847.7375
2961.65895	848.5375
2964.11142	837.5375
2966.56239	840.0375
2969.01186	837.9375
2971.45984	836.1375
2973.90632	837.3375
2976.35131	832.0375
2978.7948	835.1375
2981.23681	823.1375
2983.67732	827.5375
2986.11635	821.4375
2988.55388	817.2375
2990.98993	809.0375
2993.4245	817.4375
2995.85758	817.9375
2998.28917	812.8375
3000.71928	804.8375
3003.14791	807.6375
3005.57506	808.6375
3008.00073	806.6375
3010.42493	807.9375
3012.84764	806.6375
3015.26888	798.2375
3017.68865	807.9375
3020.10694	797.1375
3022.52376	793.0375
3024.9391	788.9375
3027.35298	787.1375
3029.76539	790.7375
3032.17632	778.9375
3034.5858	781.0375
3036.9938	784.6375
3039.40034	782.0375
3041.80542	783.3375
3044.20903	774.7375
3046.61118	778.8375
3049.01187	773.2375
3051.4111	779.3375
3053.80888	776.9375
3056.20519	769.2375
3058.60005	766.6375
3060.99345	771.7375
3063.3854	762.0375
3065.7759	757.2375
3068.16494	764.5375
3070.55254	761.7375
3072.93868	761.8375
3075.32338	755.4375
3077.70662	752.4375
3080.08842	754.2375
3082.46878	753.6375
3084.84769	750.7375
3087.22515	750.1375
3089.60118	752.0375
3091.97576	752.1375
3094.3489	747.3375
3096.72061	746.9375
3099.09087	751.1375
3101.4597	755.2375
3103.82709	743.9375
3106.19305	745.1375
3108.55757	738.9375
3110.92066	742.8375
3113.28232	739.7375
3115.64255	743.6375
3118.00134	737.5375
3120.35871	733.0375
3122.71466	729.0375
3125.06917	727.5375
3127.42226	726.4375
3129.77393	725.8375
3132.12417	725.8375
3134.47299	729.6375
3136.82039	726.8375
3139.16636	721.9375
3141.51092	721.9375
3143.85406	725.4375
3146.19579	721.1375
3148.53609	722.7375
3150.87499	719.8375
3153.21246	723.9375
3155.54853	713.2375
3157.88318	717.8375
3160.21642	717.3375
3162.54826	717.5375
3164.87868	715.5375
3167.2077	714.6375
3169.5353	713.8375
