Data from AgNP_FTO_APTES_UA_100uM_CRN_10uM_R6G_10uM_NaF_0.1M_Addition_RamanShift__58__16-24-40-471.txt Node

Date: Thu Mar 24 16:24:40 GMT 2022
User: TCL
Spectrometer: QEP01345
Trigger mode: 4
Integration Time (sec): 7.000000E0
Scans to average: 10
Electric dark correction enabled: true
Nonlinearity correction enabled: false
Boxcar width: 0
XAxis mode: Raman Shifts
Number of Pixels in Spectrum: 1044
>>>>>Begin Spectral Data<<<<<
46.04893	-0.7875
50.45542	-0.0875
54.85868	0.9125
59.25871	-0.4875
63.6555	36.6125
68.04907	33.4125
72.43941	34.7125
76.82654	33.0125
81.21044	37.9125
85.59113	37.5125
89.96862	41.1125
94.34289	40.2125
98.71396	44.1125
103.08183	41.8125
107.4465	44.0125
111.80798	46.6125
116.16626	45.9125
120.52136	51.3125
124.87327	48.8125
129.222	54.2125
133.56755	56.4125
137.90993	55.8125
142.24913	64.7125
146.58517	74.8125
150.91804	87.8125
155.24774	103.2125
159.57429	130.7125
163.89768	171.8125
168.21792	232.0125
172.53501	315.3125
176.84895	441.9125
181.15975	618.6125
185.46741	867.5125
189.77193	1196.4125
194.07331	1599.4125
198.37157	2068.2125
202.6667	2552.3125
206.9587	3049.5125
211.24758	3563.5125
215.53334	4096.9125
219.81599	4692.8125
224.09553	5384.7125
228.37195	6142.7125
232.64527	6945.5125
236.91549	7723.4125
241.18261	8413.9125
245.44663	8977.9125
249.70755	9410.1125
253.96539	9777.9125
258.22014	10116.0125
262.4718	10430.1125
266.72039	10639.5125
270.96589	10688.7125
275.20832	10609.2125
279.44768	10405.9125
283.68397	10178.3125
287.91719	10029.6125
292.14735	9983.2125
296.37445	10117.9125
300.59849	10435.7125
304.81948	10882.6125
309.03742	11243.4125
313.25231	11420.3125
317.46415	11201.9125
321.67296	10701.5125
325.87872	10226.6125
330.08145	10024.6125
334.28114	10042.4125
338.47781	10149.4125
342.67145	10378.7125
346.86207	10646.5125
351.04966	11074.6125
355.23424	11541.3125
359.4158	11865.7125
363.59435	11943.4125
367.76989	11923.0125
371.94243	11858.0125
376.11196	11796.2125
380.27849	11784.7125
384.44203	11747.3125
388.60257	11699.3125
392.76012	11675.2125
396.91468	11751.5125
401.06626	12012.1125
405.21485	12212.8125
409.36047	11985.1125
413.50311	11507.5125
417.64277	11103.3125
421.77947	10933.0125
425.9132	10933.0125
430.04396	11037.9125
434.17176	11225.5125
438.2966	11547.9125
442.41849	12195.0125
446.53742	13069.8125
450.6534	13865.0125
454.76644	14204.4125
458.87653	14126.3125
462.98368	13634.2125
467.08789	13060.7125
471.18916	12488.3125
475.2875	12039.8125
479.38291	11491.1125
483.4754	11031.2125
487.56496	10673.3125
491.6516	10465.8125
495.73531	10367.5125
499.81612	10340.8125
503.89401	10391.4125
507.96899	10413.7125
512.04106	10447.6125
516.11023	10488.8125
520.1765	10549.8125
524.23987	10704.0125
528.30034	10827.1125
532.35792	10860.9125
536.41261	10717.1125
540.46441	10503.8125
544.51333	10371.7125
548.55936	10443.0125
552.60252	10691.0125
556.64279	11086.0125
560.6802	11392.2125
564.71473	11508.5125
568.7464	11766.2125
572.7752	12093.7125
576.80114	12141.2125
580.82422	12217.6125
584.84444	12642.7125
588.86181	13774.8125
592.87633	15565.3125
596.888	16696.9125
600.89682	15970.2125
604.9028	15672.6125
608.90594	18038.5125
612.90624	21367.4125
616.90371	19548.0125
620.89834	13940.6125
624.89015	11272.0125
628.87913	10758.1125
632.86528	10777.3125
636.84862	10790.6125
640.82913	10410.6125
644.80683	9883.3125
648.78172	9545.5125
652.75379	9593.6125
656.72306	10012.8125
660.68952	10501.6125
664.65319	10282.3125
668.61405	9695.6125
672.57211	9527.2125
676.52738	9586.0125
680.47986	9491.0125
684.42955	9289.7125
688.37646	9240.0125
692.32058	9334.3125
696.26192	9559.7125
700.20048	9839.5125
704.13626	9977.7125
708.06928	9886.6125
711.99952	9803.1125
715.927	9831.1125
719.85171	9952.0125
723.77365	9974.0125
727.69284	9830.2125
731.60928	9840.8125
735.52295	9989.2125
739.43388	10106.9125
743.34206	10121.7125
747.24749	10066.2125
751.15017	10022.0125
755.05012	10164.7125
758.94733	10610.3125
762.8418	11775.4125
766.73354	13720.0125
770.62254	15518.5125
774.50882	16155.4125
778.39237	15356.1125
782.27321	13543.6125
786.15132	11680.5125
790.02671	10504.2125
793.89938	9950.1125
797.76935	9687.1125
801.6366	9583.7125
805.50115	9505.9125
809.36299	9438.4125
813.22213	9371.1125
817.07857	9314.5125
820.93231	9315.5125
824.78336	9348.8125
828.63172	9355.1125
832.47738	9410.9125
836.32036	9409.2125
840.16066	9370.4125
843.99827	9330.8125
847.8332	9303.8125
851.66546	9274.4125
855.49504	9268.5125
859.32195	9293.4125
863.1462	9244.9125
866.96777	9216.8125
870.78668	9232.3125
874.60293	9292.1125
878.41652	9365.0125
882.22745	9451.4125
886.03573	9520.3125
889.84136	9481.2125
893.64433	9417.5125
897.44466	9403.6125
901.24235	9364.5125
905.0374	9307.5125
908.8298	9215.1125
912.61957	9143.1125
916.40671	9184.4125
920.19121	9284.0125
923.97308	9442.8125
927.75233	9606.0125
931.52895	9653.7125
935.30295	9488.5125
939.07433	9158.9125
942.84309	8922.0125
946.60924	8810.2125
950.37278	8803.5125
954.13371	8777.2125
957.89203	8748.9125
961.64774	8756.6125
965.40086	8758.6125
969.15137	8753.1125
972.89929	8733.4125
976.64461	8765.6125
980.38733	8782.8125
984.12747	8837.1125
987.86502	8910.5125
991.59999	9070.5125
995.33237	9348.1125
999.06217	9807.1125
1002.78939	10276.9125
1006.51404	10668.1125
1010.23611	10963.8125
1013.95561	11159.1125
1017.67255	11038.0125
1021.38692	10603.5125
1025.09872	10103.0125
1028.80796	9850.1125
1032.51465	9916.9125
1036.21877	10024.8125
1039.92035	10115.5125
1043.61937	10058.9125
1047.31584	9984.2125
1051.00976	9844.4125
1054.70114	9731.9125
1058.38998	9686.5125
1062.07627	9714.6125
1065.76003	9763.2125
1069.44126	9878.7125
1073.11995	10046.2125
1076.79611	10333.4125
1080.46974	10630.6125
1084.14085	10990.6125
1087.80943	11349.8125
1091.47549	11459.9125
1095.13903	11226.2125
1098.80005	10806.6125
1102.45857	10465.0125
1106.11456	10367.6125
1109.76805	10477.3125
1113.41903	10736.0125
1117.06751	11070.5125
1120.71348	11538.4125
1124.35696	12038.7125
1127.99793	12383.0125
1131.63641	12252.0125
1135.2724	11763.0125
1138.90589	11395.4125
1142.5369	11179.0125
1146.16542	11130.2125
1149.79145	11164.4125
1153.415	11246.9125
1157.03607	11391.7125
1160.65467	11732.5125
1164.27079	12359.1125
1167.88443	13337.7125
1171.49561	14896.0125
1175.10432	17161.1125
1178.71056	20164.0125
1182.31434	22733.8125
1185.91565	23530.7125
1189.51451	22636.9125
1193.11091	20964.4125
1196.70485	19073.6125
1200.29634	17412.6125
1203.88538	16062.4125
1207.47197	14906.7125
1211.05612	14101.0125
1214.63782	13782.6125
1218.21708	13855.8125
1221.79391	14133.7125
1225.36829	14364.9125
1228.94024	14203.6125
1232.50976	13721.7125
1236.07685	13245.7125
1239.6415	13185.3125
1243.20374	13431.9125
1246.76355	13526.1125
1250.32093	13594.6125
1253.8759	13893.2125
1257.42845	14576.0125
1260.97859	15442.9125
1264.52631	16443.0125
1268.07163	17276.6125
1271.61453	17724.6125
1275.15503	17825.9125
1278.69312	17845.5125
1282.22882	18140.6125
1285.76211	19011.7125
1289.29301	20305.8125
1292.82151	21659.8125
1296.34761	23056.1125
1299.87133	24781.4125
1303.39266	27065.7125
1306.9116	30065.6125
1310.42815	33263.4125
1313.94233	35059.9125
1317.45412	34278.9125
1320.96354	32082.7125
1324.47058	29623.0125
1327.97525	27149.4125
1331.47754	25096.5125
1334.97747	24067.7125
1338.47502	23899.4125
1341.97022	24086.2125
1345.46305	24500.8125
1348.95352	25252.6125
1352.44163	27048.5125
1355.92738	30313.3125
1359.41078	34958.0125
1362.89183	39012.5125
1366.37053	38041.6125
1369.84688	31986.3125
1373.32088	25770.0125
1376.79254	22645.8125
1380.26186	21788.2125
1383.72883	21333.3125
1387.19347	20270.8125
1390.65578	19060.5125
1394.11575	18363.5125
1397.57339	18311.2125
1401.0287	18594.2125
1404.48168	18926.0125
1407.93234	19088.3125
1411.38068	19117.6125
1414.82669	19009.1125
1418.27039	18651.4125
1421.71177	17853.1125
1425.15083	17115.9125
1428.58758	17045.4125
1432.02203	17747.5125
1435.45416	18773.8125
1438.88399	19544.5125
1442.31151	19761.4125
1445.73673	19805.7125
1449.15965	19792.1125
1452.58027	19328.1125
1455.9986	18492.7125
1459.41463	18025.1125
1462.82837	18242.5125
1466.23982	19072.4125
1469.64898	20099.7125
1473.05586	21126.2125
1476.46045	21997.1125
1479.86276	22788.6125
1483.26279	23329.9125
1486.66054	23959.0125
1490.05602	24901.8125
1493.44922	25829.9125
1496.84016	26146.8125
1500.22882	26105.8125
1503.61521	26664.0125
1506.99934	28030.7125
1510.38121	29329.5125
1513.76081	29090.6125
1517.13816	26783.7125
1520.51324	23593.1125
1523.88607	21037.5125
1527.25665	19801.1125
1530.62498	19379.3125
1533.99105	19217.5125
1537.35488	19054.2125
1540.71647	18737.0125
1544.07581	18280.8125
1547.4329	17713.9125
1550.78776	17079.7125
1554.14038	16466.4125
1557.49077	16070.1125
1560.83892	15965.7125
1564.18484	16275.2125
1567.52853	16894.6125
1570.86999	17539.3125
1574.20922	18054.9125
1577.54624	18129.9125
1580.88103	17490.8125
1584.2136	16794.7125
1587.54395	16912.9125
1590.87208	18260.3125
1594.19801	20799.9125
1597.52172	23879.5125
1600.84321	25668.0125
1604.16251	24930.1125
1607.47959	22025.3125
1610.79447	18485.1125
1614.10715	15520.9125
1617.41763	13662.1125
1620.7259	12673.7125
1624.03199	12315.3125
1627.33587	12496.6125
1630.63757	13175.3125
1633.93707	14586.4125
1637.23439	17120.3125
1640.52951	21288.3125
1643.82246	26699.7125
1647.11321	31367.8125
1650.40179	32356.9125
1653.68819	28686.2125
1656.97241	22654.8125
1660.25446	17396.1125
1663.53433	14026.5125
1666.81203	12135.3125
1670.08756	11045.2125
1673.36092	10369.4125
1676.63211	9938.9125
1679.90115	9624.0125
1683.16801	9394.1125
1686.43272	9262.6125
1689.69527	9175.1125
1692.95567	9165.7125
1696.2139	9222.4125
1699.46999	9278.5125
1702.72392	9266.9125
1705.97571	9123.1125
1709.22535	8989.6125
1712.47284	8905.0125
1715.71819	8841.8125
1718.96139	8780.2125
1722.20246	8730.0125
1725.44139	8642.1125
1728.67818	8545.7125
1731.91284	8471.6125
1735.14537	8415.8125
1738.37576	8368.4125
1741.60403	8349.5125
1744.83017	8325.1125
1748.05418	8313.9125
1751.27607	8323.0125
1754.49584	8366.5125
1757.71349	8418.9125
1760.92903	8445.3125
1764.14244	8426.6125
1767.35375	8413.6125
1770.56294	8390.7125
1773.77002	8326.7125
1776.97499	8234.8125
1780.17785	8142.7125
1783.37861	8067.6125
1786.57727	8010.2125
1789.77382	7953.4125
1792.96828	7930.8125
1796.16064	7932.5125
1799.3509	7884.9125
1802.53907	7879.2125
1805.72514	7865.3125
1808.90913	7827.4125
1812.09102	7834.8125
1815.27083	7805.9125
1818.44856	7784.7125
1821.6242	7748.9125
1824.79776	7742.7125
1827.96924	7700.9125
1831.13864	7697.4125
1834.30597	7669.1125
1837.47122	7643.9125
1840.6344	7646.1125
1843.7955	7649.5125
1846.95454	7635.8125
1850.11151	7612.6125
1853.26642	7611.8125
1856.41926	7597.6125
1859.57004	7602.6125
1862.71876	7578.1125
1865.86542	7589.2125
1869.01003	7608.9125
1872.15258	7592.9125
1875.29308	7598.3125
1878.43152	7609.3125
1881.56792	7632.1125
1884.70227	7617.0125
1887.83457	7610.1125
1890.96482	7627.7125
1894.09304	7602.4125
1897.21921	7618.1125
1900.34335	7596.3125
1903.46544	7597.8125
1906.58551	7614.8125
1909.70353	7602.9125
1912.81953	7596.8125
1915.93349	7599.9125
1919.04543	7555.6125
1922.15534	7523.4125
1925.26322	7486.8125
1928.36908	7470.2125
1931.47292	7471.1125
1934.57473	7439.1125
1937.67453	7427.8125
1940.77232	7402.3125
1943.86808	7383.0125
1946.96184	7361.2125
1950.05358	7343.0125
1953.14331	7311.1125
1956.23103	7283.8125
1959.31675	7252.2125
1962.40046	7235.5125
1965.48217	7218.9125
1968.56188	7200.8125
1971.63959	7163.3125
1974.7153	7161.9125
1977.78901	7131.1125
1980.86073	7096.4125
1983.93046	7055.6125
1986.99819	7027.1125
1990.06394	7008.7125
1993.1277	6995.5125
1996.18947	6967.5125
1999.24925	6949.0125
2002.30706	6926.6125
2005.36288	6897.1125
2008.41672	6876.0125
2011.46859	6845.2125
2014.51848	6823.6125
2017.56639	6828.0125
2020.61233	6799.9125
2023.6563	6812.8125
2026.6983	6801.4125
2029.73833	6767.7125
2032.7764	6764.6125
2035.8125	6753.6125
2038.84664	6744.5125
2041.87881	6708.9125
2044.90903	6725.7125
2047.93729	6722.4125
2050.96359	6722.4125
2053.98794	6694.1125
2057.01034	6702.3125
2060.03078	6659.5125
2063.04927	6658.1125
2066.06582	6652.1125
2069.08042	6640.4125
2072.09307	6649.5125
2075.10378	6643.0125
2078.11255	6610.1125
2081.11938	6621.7125
2084.12426	6623.4125
2087.12722	6633.0125
2090.12824	6629.4125
2093.12732	6616.1125
2096.12447	6624.2125
2099.11969	6614.9125
2102.11299	6622.1125
2105.10435	6623.4125
2108.09379	6612.4125
2111.08131	6598.1125
2114.0669	6608.3125
2117.05057	6573.4125
2120.03233	6587.4125
2123.01216	6595.9125
2125.99008	6580.0125
2128.96609	6592.1125
2131.94018	6579.8125
2134.91236	6591.7125
2137.88263	6571.3125
2140.851	6574.4125
2143.81746	6577.6125
2146.78201	6577.0125
2149.74466	6558.9125
2152.7054	6551.3125
2155.66425	6535.3125
2158.6212	6523.1125
2161.57625	6513.9125
2164.52941	6524.7125
2167.48067	6531.0125
2170.43004	6511.0125
2173.37752	6514.4125
2176.32311	6515.6125
2179.26681	6533.2125
2182.20863	6550.1125
2185.14856	6540.6125
2188.08661	6551.2125
2191.02278	6560.0125
2193.95707	6545.3125
2196.88948	6546.4125
2199.82001	6548.3125
2202.74867	6538.0125
2205.67545	6526.8125
2208.60037	6522.0125
2211.52341	6497.2125
2214.44458	6493.8125
2217.36388	6485.5125
2220.28132	6424.7125
2223.1969	6435.7125
2226.11061	6430.2125
2229.02246	6412.1125
2231.93245	6414.8125
2234.84058	6416.3125
2237.74686	6409.5125
2240.65128	6416.3125
2243.55385	6408.9125
2246.45456	6387.8125
2249.35343	6387.0125
2252.25044	6380.8125
2255.14561	6376.4125
2258.03893	6403.4125
2260.93041	6418.8125
2263.82004	6374.8125
2266.70783	6328.2125
2269.59378	6295.8125
2272.4779	6284.8125
2275.36017	6259.0125
2278.24061	6233.5125
2281.11922	6236.4125
2283.996	6219.9125
2286.87094	6192.5125
2289.74405	6198.2125
2292.61534	6176.3125
2295.4848	6169.1125
2298.35243	6155.9125
2301.21824	6149.5125
2304.08223	6174.4125
2306.94439	6167.9125
2309.80474	6160.9125
2312.66327	6166.1125
2315.51999	6168.6125
2318.37489	6170.4125
2321.22797	6167.8125
2324.07925	6159.3125
2326.92871	6151.6125
2329.77637	6165.4125
2332.62222	6138.8125
2335.46626	6146.8125
2338.3085	6126.2125
2341.14893	6122.6125
2343.98756	6143.5125
2346.8244	6150.3125
2349.65943	6149.1125
2352.49267	6144.5125
2355.32411	6166.8125
2358.15376	6166.2125
2360.98161	6163.6125
2363.80768	6177.4125
2366.63195	6159.6125
2369.45444	6161.4125
2372.27514	6168.4125
2375.09405	6152.0125
2377.91118	6141.8125
2380.72652	6115.1125
2383.54009	6094.4125
2386.35187	6101.9125
2389.16188	6066.0125
2391.97011	6043.5125
2394.77657	6032.0125
2397.58125	6010.9125
2400.38416	6012.9125
2403.18529	5983.3125
2405.98466	5965.1125
2408.78226	5966.5125
2411.57809	5945.8125
2414.37216	5962.4125
2417.16446	5962.4125
2419.955	5952.3125
2422.74378	5955.1125
2425.5308	5928.4125
2428.31606	5941.0125
2431.09956	5922.4125
2433.88131	5932.1125
2436.6613	5938.7125
2439.43954	5944.0125
2442.21603	5937.1125
2444.99077	5938.0125
2447.76377	5939.5125
2450.53501	5960.8125
2453.30451	5966.5125
2456.07226	5961.3125
2458.83827	5948.6125
2461.60254	5960.1125
2464.36507	5961.7125
2467.12586	5938.1125
2469.88492	5966.2125
2472.64224	5976.1125
2475.39782	5999.5125
2478.15167	6014.2125
2480.90379	6023.0125
2483.65417	6030.1125
2486.40283	6043.1125
2489.14976	6069.4125
2491.89497	6066.9125
2494.63845	6091.4125
2497.3802	6081.8125
2500.12024	6051.2125
2502.85855	6041.8125
2505.59514	6026.5125
2508.33002	6016.0125
2511.06318	5981.3125
2513.79462	5991.6125
2516.52435	5956.3125
2519.25237	5941.5125
2521.97867	5947.8125
2524.70327	5940.3125
2527.42616	5951.2125
2530.14734	5957.2125
2532.86681	5928.4125
2535.58458	5925.7125
2538.30065	5937.5125
2541.01501	5940.2125
2543.72768	5936.5125
2546.43864	5919.7125
2549.14791	5913.7125
2551.85548	5930.9125
2554.56136	5943.2125
2557.26554	5937.8125
2559.96803	5933.5125
2562.66883	5939.1125
2565.36794	5927.9125
2568.06536	5939.7125
2570.7611	5919.0125
2573.45514	5928.1125
2576.14751	5892.6125
2578.83819	5892.3125
2581.52719	5908.6125
2584.21451	5910.8125
2586.90015	5893.5125
2589.58411	5890.5125
2592.2664	5900.9125
2594.94701	5901.8125
2597.62594	5893.3125
2600.30321	5898.5125
2602.9788	5888.5125
2605.65273	5914.8125
2608.32498	5900.0125
2610.99557	5909.3125
2613.66449	5892.9125
2616.33175	5898.1125
2618.99734	5917.9125
2621.66128	5941.8125
2624.32355	5914.3125
2626.98416	5922.4125
2629.64311	5922.0125
2632.30041	5900.9125
2634.95605	5898.5125
2637.61004	5898.9125
2640.26238	5894.3125
2642.91306	5899.3125
2645.56209	5888.5125
2648.20948	5902.6125
2650.85521	5895.5125
2653.4993	5896.9125
2656.14175	5908.0125
2658.78255	5940.0125
2661.42171	5933.3125
2664.05923	5959.4125
2666.6951	5992.0125
2669.32934	5983.3125
2671.96194	5986.5125
2674.59291	5989.6125
2677.22224	6000.6125
2679.84993	5986.1125
2682.476	5964.3125
2685.10043	5981.4125
2687.72324	5960.3125
2690.34441	5955.4125
2692.96396	5950.0125
2695.58188	5964.4125
2698.19818	5952.8125
2700.81285	5950.7125
2703.4259	6026.7125
2706.03733	6135.7125
2708.64714	6054.5125
2711.25533	6026.3125
2713.86191	6006.1125
2716.46687	6023.6125
2719.07021	6010.2125
2721.67194	5989.8125
2724.27206	6011.3125
2726.87057	6016.8125
2729.46747	6029.9125
2732.06276	6039.2125
2734.65644	5993.1125
2737.24852	6010.9125
2739.83899	6000.2125
2742.42786	6001.5125
2745.01513	6001.2125
2747.60079	6001.7125
2750.18486	5991.9125
2752.76733	5990.5125
2755.3482	5983.8125
2757.92747	5986.2125
2760.50515	5993.2125
2763.08123	5997.8125
2765.65573	5990.9125
2768.22863	5981.8125
2770.79994	5983.1125
2773.36967	5982.2125
2775.9378	5993.9125
2778.50435	5992.7125
2781.06932	5997.4125
2783.6327	5984.0125
2786.1945	6014.0125
2788.75471	6005.3125
2791.31335	6004.7125
2793.87041	6000.5125
2796.42589	5985.0125
2798.97979	6001.1125
2801.53212	5966.7125
2804.08288	5977.3125
2806.63206	5946.9125
2809.17967	5960.8125
2811.72571	5946.8125
2814.27018	5976.7125
2816.81308	5972.6125
2819.35442	5945.7125
2821.89419	5971.4125
2824.43239	5953.3125
2826.96904	5962.0125
2829.50412	5959.0125
2832.03763	5925.3125
2834.56959	5954.5125
2837.1	5928.6125
2839.62884	5924.2125
2842.15613	5935.0125
2844.68186	5932.6125
2847.20604	5927.3125
2849.72867	5942.1125
2852.24974	5946.3125
2854.76927	5965.2125
2857.28724	5981.7125
2859.80367	5943.5125
2862.31855	5919.9125
2864.83189	5925.4125
2867.34368	5907.4125
2869.85393	5934.4125
2872.36264	5904.5125
2874.8698	5866.9125
2877.37543	5881.4125
2879.87952	5885.0125
2882.38207	5891.9125
2884.88308	5878.8125
2887.38256	5874.0125
2889.88051	5877.9125
2892.37692	5872.4125
2894.8718	5878.2125
2897.36515	5861.8125
2899.85698	5892.9125
2902.34727	5916.0125
2904.83604	5905.1125
2907.32328	5906.5125
2909.809	5911.9125
2912.29319	5902.1125
2914.77587	5904.0125
2917.25702	5923.7125
2919.73665	5896.2125
2922.21476	5894.0125
2924.69136	5878.9125
2927.16644	5865.7125
2929.64	5871.8125
2932.11205	5847.6125
2934.58258	5830.0125
2937.05161	5853.4125
2939.51912	5825.1125
2941.98513	5821.3125
2944.44962	5827.7125
2946.91261	5810.9125
2949.37409	5797.1125
2951.83407	5804.0125
2954.29254	5798.0125
2956.74951	5824.9125
2959.20498	5814.6125
2961.65895	5804.1125
2964.11142	5809.6125
2966.56239	5815.3125
2969.01186	5790.8125
2971.45984	5785.4125
2973.90632	5766.2125
2976.35131	5741.4125
2978.7948	5735.5125
2981.23681	5705.0125
2983.67732	5692.0125
2986.11635	5684.1125
2988.55388	5650.9125
2990.98993	5646.5125
2993.4245	5608.4125
2995.85758	5620.2125
2998.28917	5595.2125
3000.71928	5578.3125
3003.14791	5589.7125
3005.57506	5569.6125
3008.00073	5550.1125
3010.42493	5554.3125
3012.84764	5539.6125
3015.26888	5537.6125
3017.68865	5520.8125
3020.10694	5514.3125
3022.52376	5484.2125
3024.9391	5469.4125
3027.35298	5453.6125
3029.76539	5451.3125
3032.17632	5447.4125
3034.5858	5418.4125
3036.9938	5425.5125
3039.40034	5428.6125
3041.80542	5397.5125
3044.20903	5396.9125
3046.61118	5405.2125
3049.01187	5376.8125
3051.4111	5380.2125
3053.80888	5385.0125
3056.20519	5361.0125
3058.60005	5353.5125
3060.99345	5331.1125
3063.3854	5319.3125
3065.7759	5282.3125
3068.16494	5304.9125
3070.55254	5271.1125
3072.93868	5264.6125
3075.32338	5259.3125
3077.70662	5253.2125
3080.08842	5228.7125
3082.46878	5231.5125
3084.84769	5234.1125
3087.22515	5229.2125
3089.60118	5247.1125
3091.97576	5244.4125
