Data from AgNP_FTO_APTES_UA_100uM_CRN_1uM_R6G_10uM_NaF_0.1M_Addition_RamanShift__29__12-22-00-191.txt Node

Date: Thu Mar 24 12:22:00 GMT 2022
User: TCL
Spectrometer: QEP01345
Trigger mode: 4
Integration Time (sec): 7.000000E0
Scans to average: 10
Electric dark correction enabled: true
Nonlinearity correction enabled: false
Boxcar width: 0
XAxis mode: Raman Shifts
Number of Pixels in Spectrum: 1044
>>>>>Begin Spectral Data<<<<<
46.04893	-1.975
50.45542	-0.175
54.85868	0.725
59.25871	-0.275
63.6555	52.325
68.04907	54.825
72.43941	54.525
76.82654	53.725
81.21044	63.025
85.59113	61.625
89.96862	64.825
94.34289	63.125
98.71396	69.225
103.08183	68.125
107.4465	71.125
111.80798	74.825
116.16626	75.025
120.52136	79.225
124.87327	81.825
129.222	88.225
133.56755	92.825
137.90993	95.625
142.24913	112.625
146.58517	126.025
150.91804	147.125
155.24774	178.525
159.57429	225.125
163.89768	292.025
168.21792	390.725
172.53501	534.825
176.84895	748.825
181.15975	1053.725
185.46741	1485.725
189.77193	2053.225
194.07331	2753.025
198.37157	3581.925
202.6667	4449.925
206.9587	5356.225
211.24758	6281.325
215.53334	7293.025
219.81599	8415.625
224.09553	9716.125
228.37195	11187.625
232.64527	12725.625
236.91549	14257.825
241.18261	15576.725
245.44663	16593.125
249.70755	17343.725
253.96539	17966.325
258.22014	18536.825
262.4718	18923.025
266.72039	19108.725
270.96589	18991.025
275.20832	18673.025
279.44768	18266.625
283.68397	17993.525
287.91719	17849.525
292.14735	17995.225
296.37445	18535.525
300.59849	19522.925
304.81948	20733.925
309.03742	21795.125
313.25231	22049.225
317.46415	21080.025
321.67296	19227.225
325.87872	17573.025
330.08145	16687.725
334.28114	16588.325
338.47781	16920.025
342.67145	17503.325
346.86207	18375.525
351.04966	19691.425
355.23424	21256.725
359.4158	22380.725
363.59435	22845.825
367.76989	22814.725
371.94243	22409.525
376.11196	21995.525
380.27849	21539.725
384.44203	21094.625
388.60257	20640.725
392.76012	20456.925
396.91468	20610.325
401.06626	21210.125
405.21485	21654.625
409.36047	21142.125
413.50311	19701.025
417.64277	18341.425
421.77947	17608.625
425.9132	17325.525
430.04396	17347.625
434.17176	17436.525
438.2966	17728.925
442.41849	18335.825
446.53742	19093.125
450.6534	19839.825
454.76644	20183.525
458.87653	19991.225
462.98368	19478.925
467.08789	18948.425
471.18916	18318.025
475.2875	17677.325
479.38291	17148.325
483.4754	16756.725
487.56496	16489.025
491.6516	16304.925
495.73531	16188.825
499.81612	16260.625
503.89401	16488.925
507.96899	16793.125
512.04106	17019.125
516.11023	17282.925
520.1765	17477.225
524.23987	17488.225
528.30034	17281.225
532.35792	17014.425
536.41261	16587.325
540.46441	16038.025
544.51333	15778.125
548.55936	15990.525
552.60252	16660.225
556.64279	17420.925
560.6802	17821.525
564.71473	18291.725
568.7464	19472.025
572.7752	20212.025
576.80114	19402.325
580.82422	18439.825
584.84444	18071.425
588.86181	18175.425
592.87633	18491.325
596.888	18748.325
600.89682	19287.025
604.9028	22217.925
608.90594	30614.825
612.90624	41305.425
616.90371	39260.425
620.89834	25105.025
624.89015	18208.425
628.87913	17059.025
632.86528	17367.825
636.84862	17748.625
640.82913	17235.425
644.80683	15884.225
648.78172	14983.825
652.75379	15031.425
656.72306	16073.625
660.68952	17296.525
664.65319	16994.825
668.61405	15675.925
672.57211	15063.925
676.52738	14995.225
680.47986	14890.525
684.42955	14625.025
688.37646	14469.025
692.32058	14579.125
696.26192	14840.225
700.20048	15235.925
704.13626	15560.725
708.06928	15603.325
711.99952	15427.125
715.927	15334.325
719.85171	15422.425
723.77365	15429.125
727.69284	15217.125
731.60928	14946.025
735.52295	14925.425
739.43388	15003.825
743.34206	15139.425
747.24749	15262.825
751.15017	15465.625
755.05012	16017.925
758.94733	17435.825
762.8418	20876.725
766.73354	26306.025
770.62254	31197.125
774.50882	32857.125
778.39237	30767.525
782.27321	25540.825
786.15132	20325.025
790.02671	17261.025
793.89938	15867.125
797.76935	15287.625
801.6366	15018.825
805.50115	14840.325
809.36299	14744.925
813.22213	14613.625
817.07857	14596.625
820.93231	14556.925
824.78336	14647.125
828.63172	14815.025
832.47738	14884.325
836.32036	14791.425
840.16066	14677.725
843.99827	14584.325
847.8332	14490.525
851.66546	14478.325
855.49504	14480.325
859.32195	14447.925
863.1462	14347.225
866.96777	14255.725
870.78668	14224.025
874.60293	14282.525
878.41652	14374.925
882.22745	14552.125
886.03573	14686.725
889.84136	14676.525
893.64433	14542.325
897.44466	14533.925
901.24235	14523.225
905.0374	14443.225
908.8298	14286.625
912.61957	14197.725
916.40671	14342.025
920.19121	14580.325
923.97308	14925.125
927.75233	15245.325
931.52895	15436.325
935.30295	15097.025
939.07433	14301.825
942.84309	13757.625
946.60924	13442.825
950.37278	13349.425
954.13371	13279.925
957.89203	13192.925
961.64774	13151.225
965.40086	13123.225
969.15137	13078.125
972.89929	13057.725
976.64461	13031.525
980.38733	13021.425
984.12747	13045.725
987.86502	13122.325
991.59999	13318.225
995.33237	13614.225
999.06217	14117.325
1002.78939	14789.025
1006.51404	15354.425
1010.23611	15753.325
1013.95561	15992.125
1017.67255	15937.225
1021.38692	15615.425
1025.09872	15199.625
1028.80796	15090.525
1032.51465	15356.425
1036.21877	15742.325
1039.92035	15938.425
1043.61937	15930.825
1047.31584	15753.425
1051.00976	15538.725
1054.70114	15379.825
1058.38998	15335.925
1062.07627	15393.825
1065.76003	15504.625
1069.44126	15771.225
1073.11995	16057.125
1076.79611	16461.225
1080.46974	16929.325
1084.14085	17671.825
1087.80943	18377.825
1091.47549	18559.725
1095.13903	18095.925
1098.80005	17173.625
1102.45857	16404.725
1106.11456	16118.125
1109.76805	16299.325
1113.41903	16905.425
1117.06751	17969.725
1120.71348	19442.125
1124.35696	21087.425
1127.99793	22003.425
1131.63641	21148.025
1135.2724	19391.025
1138.90589	18084.225
1142.5369	17350.225
1146.16542	16888.825
1149.79145	16621.025
1153.415	16652.525
1157.03607	16883.725
1160.65467	17429.825
1164.27079	18379.025
1167.88443	19942.225
1171.49561	22434.825
1175.10432	26370.725
1178.71056	31376.325
1182.31434	35220.025
1185.91565	36202.425
1189.51451	34992.425
1193.11091	32506.325
1196.70485	29530.325
1200.29634	27149.225
1203.88538	25087.025
1207.47197	22868.425
1211.05612	20980.225
1214.63782	19952.625
1218.21708	19735.325
1221.79391	19782.925
1225.36829	19737.025
1228.94024	19468.825
1232.50976	19092.025
1236.07685	18785.425
1239.6415	18836.325
1243.20374	18924.825
1246.76355	19127.125
1250.32093	19425.325
1253.8759	20101.025
1257.42845	21016.325
1260.97859	22080.725
1264.52631	23167.925
1268.07163	24191.325
1271.61453	25036.525
1275.15503	25689.825
1278.69312	26168.425
1282.22882	26785.325
1285.76211	27821.525
1289.29301	29071.725
1292.82151	30284.125
1296.34761	31887.125
1299.87133	34407.725
1303.39266	38681.825
1306.9116	44967.825
1310.42815	51591.725
1313.94233	54278.325
1317.45412	51510.425
1320.96354	46279.225
1324.47058	40979.225
1327.97525	36829.925
1331.47754	34444.725
1334.97747	33713.325
1338.47502	34281.925
1341.97022	35762.925
1345.46305	38000.425
1348.95352	40848.825
1352.44163	44528.625
1355.92738	50478.125
1359.41078	59796.425
1362.89183	66788.525
1366.37053	62391.625
1369.84688	50373.925
1373.32088	40106.925
1376.79254	34034.325
1380.26186	30671.125
1383.72883	28644.425
1387.19347	27158.225
1390.65578	25951.625
1394.11575	25129.325
1397.57339	24814.225
1401.0287	25002.025
1404.48168	25283.225
1407.93234	25593.325
1411.38068	25853.225
1414.82669	25782.825
1418.27039	25190.125
1421.71177	24254.825
1425.15083	23488.925
1428.58758	23221.825
1432.02203	23606.725
1435.45416	23967.625
1438.88399	24034.125
1442.31151	24014.725
1445.73673	24231.225
1449.15965	24453.825
1452.58027	24384.225
1455.9986	24103.125
1459.41463	24171.825
1462.82837	24707.825
1466.23982	25607.125
1469.64898	26413.325
1473.05586	26825.725
1476.46045	27071.925
1479.86276	27442.725
1483.26279	28077.425
1486.66054	29233.825
1490.05602	30812.025
1493.44922	33090.425
1496.84016	36590.425
1500.22882	42023.925
1503.61521	49453.325
1506.99934	57353.125
1510.38121	63083.525
1513.76081	63279.525
1517.13816	56987.825
1520.51324	47596.525
1523.88607	39759.625
1527.25665	35063.625
1530.62498	32630.525
1533.99105	31181.125
1537.35488	30179.525
1540.71647	29400.125
1544.07581	28803.325
1547.4329	28300.825
1550.78776	27922.125
1554.14038	27736.225
1557.49077	27842.925
1560.83892	28515.525
1564.18484	29714.225
1567.52853	31119.225
1570.86999	32059.525
1574.20922	32498.325
1577.54624	31935.125
1580.88103	29682.125
1584.2136	26916.325
1587.54395	25503.725
1590.87208	26047.025
1594.19801	28291.925
1597.52172	31376.925
1600.84321	32947.825
1604.16251	31789.225
1607.47959	29169.625
1610.79447	26115.125
1614.10715	23241.925
1617.41763	20994.625
1620.7259	19641.125
1624.03199	19061.925
1627.33587	19131.325
1630.63757	19900.925
1633.93707	21460.125
1637.23439	24096.825
1640.52951	28236.425
1643.82246	34145.125
1647.11321	40612.425
1650.40179	44197.025
1653.68819	41531.225
1656.97241	34047.425
1660.25446	26548.025
1663.53433	21321.725
1666.81203	18272.425
1670.08756	16572.725
1673.36092	15602.625
1676.63211	14949.825
1679.90115	14503.225
1683.16801	14220.525
1686.43272	14035.425
1689.69527	13868.725
1692.95567	13725.625
1696.2139	13636.325
1699.46999	13595.425
1702.72392	13553.325
1705.97571	13543.525
1709.22535	13545.325
1712.47284	13524.125
1715.71819	13524.625
1718.96139	13501.925
1722.20246	13430.425
1725.44139	13349.025
1728.67818	13199.825
1731.91284	13056.925
1735.14537	12961.925
1738.37576	12858.625
1741.60403	12778.725
1744.83017	12742.025
1748.05418	12707.325
1751.27607	12635.125
1754.49584	12584.425
1757.71349	12557.425
1760.92903	12557.825
1764.14244	12522.325
1767.35375	12516.425
1770.56294	12435.425
1773.77002	12370.225
1776.97499	12343.325
1780.17785	12334.925
1783.37861	12295.625
1786.57727	12255.425
1789.77382	12215.325
1792.96828	12213.925
1796.16064	12186.525
1799.3509	12181.725
1802.53907	12123.925
1805.72514	12063.025
1808.90913	12018.025
1812.09102	12028.225
1815.27083	11989.025
1818.44856	11952.925
1821.6242	11924.425
1824.79776	11894.325
1827.96924	11864.025
1831.13864	11846.625
1834.30597	11858.225
1837.47122	11830.025
1840.6344	11799.025
1843.7955	11797.225
1846.95454	11757.725
1850.11151	11791.125
1853.26642	11774.425
1856.41926	11805.825
1859.57004	11792.025
1862.71876	11793.425
1865.86542	11783.425
1869.01003	11787.025
1872.15258	11812.925
1875.29308	11799.825
1878.43152	11788.325
1881.56792	11816.525
1884.70227	11786.425
1887.83457	11771.925
1890.96482	11798.925
1894.09304	11787.825
1897.21921	11747.725
1900.34335	11773.625
1903.46544	11781.925
1906.58551	11816.425
1909.70353	11794.425
1912.81953	11802.225
1915.93349	11769.525
1919.04543	11738.925
1922.15534	11716.025
1925.26322	11699.025
1928.36908	11609.725
1931.47292	11597.025
1934.57473	11535.825
1937.67453	11497.925
1940.77232	11445.925
1943.86808	11423.625
1946.96184	11392.425
1950.05358	11359.325
1953.14331	11317.425
1956.23103	11294.925
1959.31675	11295.825
1962.40046	11261.925
1965.48217	11274.625
1968.56188	11264.525
1971.63959	11207.225
1974.7153	11206.225
1977.78901	11145.625
1980.86073	11125.825
1983.93046	11073.725
1986.99819	11006.625
1990.06394	10980.625
1993.1277	10914.125
1996.18947	10859.225
1999.24925	10826.125
2002.30706	10770.625
2005.36288	10753.925
2008.41672	10724.625
2011.46859	10671.525
2014.51848	10647.925
2017.56639	10609.425
2020.61233	10585.625
2023.6563	10542.525
2026.6983	10558.225
2029.73833	10518.425
2032.7764	10504.625
2035.8125	10464.225
2038.84664	10444.525
2041.87881	10450.325
2044.90903	10445.425
2047.93729	10397.425
2050.96359	10389.125
2053.98794	10352.625
2057.01034	10365.625
2060.03078	10342.025
2063.04927	10290.525
2066.06582	10276.125
2069.08042	10266.825
2072.09307	10267.325
2075.10378	10249.925
2078.11255	10245.725
2081.11938	10265.325
2084.12426	10243.725
2087.12722	10265.325
2090.12824	10254.125
2093.12732	10249.525
2096.12447	10274.925
2099.11969	10271.425
2102.11299	10265.925
2105.10435	10272.925
2108.09379	10274.525
2111.08131	10271.625
2114.0669	10286.525
2117.05057	10301.225
2120.03233	10321.725
2123.01216	10344.025
2125.99008	10335.025
2128.96609	10330.525
2131.94018	10337.525
2134.91236	10367.425
2137.88263	10325.825
2140.851	10318.425
2143.81746	10327.325
2146.78201	10315.925
2149.74466	10304.725
2152.7054	10308.325
2155.66425	10252.325
2158.6212	10261.125
2161.57625	10260.025
2164.52941	10226.725
2167.48067	10226.125
2170.43004	10248.225
2173.37752	10242.925
2176.32311	10239.225
2179.26681	10257.325
2182.20863	10230.425
2185.14856	10242.625
2188.08661	10209.725
2191.02278	10237.425
2193.95707	10197.225
2196.88948	10207.225
2199.82001	10184.925
2202.74867	10148.825
2205.67545	10170.525
2208.60037	10145.425
2211.52341	10144.425
2214.44458	10146.125
2217.36388	10125.425
2220.28132	10122.425
2223.1969	10072.025
2226.11061	10054.625
2229.02246	10053.925
2231.93245	9996.125
2234.84058	9981.425
2237.74686	9943.225
2240.65128	9981.825
2243.55385	9961.525
2246.45456	9941.925
2249.35343	9936.125
2252.25044	9968.725
2255.14561	9973.425
2258.03893	9976.025
2260.93041	9988.525
2263.82004	9965.025
2266.70783	9933.625
2269.59378	9913.625
2272.4779	9875.525
2275.36017	9863.125
2278.24061	9839.225
2281.11922	9824.125
2283.996	9831.825
2286.87094	9787.525
2289.74405	9749.325
2292.61534	9716.725
2295.4848	9713.725
2298.35243	9698.825
2301.21824	9698.325
2304.08223	9674.325
2306.94439	9691.425
2309.80474	9707.425
2312.66327	9696.525
2315.51999	9700.625
2318.37489	9713.425
2321.22797	9702.425
2324.07925	9682.225
2326.92871	9685.225
2329.77637	9697.625
2332.62222	9653.025
2335.46626	9651.325
2338.3085	9667.525
2341.14893	9675.825
2343.98756	9707.025
2346.8244	9716.725
2349.65943	9748.325
2352.49267	9747.925
2355.32411	9781.325
2358.15376	9789.425
2360.98161	9814.225
2363.80768	9797.625
2366.63195	9801.525
2369.45444	9796.225
2372.27514	9784.625
2375.09405	9773.625
2377.91118	9744.425
2380.72652	9703.025
2383.54009	9655.725
2386.35187	9662.825
2389.16188	9584.025
2391.97011	9556.525
2394.77657	9524.225
2397.58125	9507.325
2400.38416	9459.125
2403.18529	9435.225
2405.98466	9424.625
2408.78226	9393.825
2411.57809	9385.525
2414.37216	9326.225
2417.16446	9336.125
2419.955	9302.625
2422.74378	9305.525
2425.5308	9321.125
2428.31606	9304.425
2431.09956	9303.925
2433.88131	9302.325
2436.6613	9320.925
2439.43954	9350.725
2442.21603	9348.725
2444.99077	9360.725
2447.76377	9375.625
2450.53501	9353.425
2453.30451	9377.425
2456.07226	9378.725
2458.83827	9375.225
2461.60254	9361.525
2464.36507	9360.925
2467.12586	9369.225
2469.88492	9333.225
2472.64224	9361.025
2475.39782	9356.925
2478.15167	9391.025
2480.90379	9393.025
2483.65417	9439.525
2486.40283	9452.725
2489.14976	9498.325
2491.89497	9516.025
2494.63845	9514.725
2497.3802	9519.525
2500.12024	9519.425
2502.85855	9496.325
2505.59514	9460.125
2508.33002	9421.325
2511.06318	9362.825
2513.79462	9347.525
2516.52435	9285.925
2519.25237	9255.325
2521.97867	9234.325
2524.70327	9209.225
2527.42616	9188.225
2530.14734	9201.025
2532.86681	9187.425
2535.58458	9182.225
2538.30065	9185.625
2541.01501	9184.325
2543.72768	9189.925
2546.43864	9172.325
2549.14791	9170.325
2551.85548	9166.025
2554.56136	9160.825
2557.26554	9149.525
2559.96803	9147.225
2562.66883	9140.225
2565.36794	9155.825
2568.06536	9144.425
2570.7611	9122.425
2573.45514	9103.025
2576.14751	9092.825
2578.83819	9088.925
2581.52719	9075.125
2584.21451	9048.325
2586.90015	9058.325
2589.58411	9024.225
2592.2664	9029.625
2594.94701	9006.125
2597.62594	9002.925
2600.30321	9005.425
2602.9788	9030.425
2605.65273	8999.725
2608.32498	8995.425
2610.99557	9001.925
2613.66449	9015.625
2616.33175	9023.625
2618.99734	9036.525
2621.66128	9024.525
2624.32355	9038.525
2626.98416	9021.125
2629.64311	9038.125
2632.30041	9021.325
2634.95605	9002.525
2637.61004	8989.025
2640.26238	8975.425
2642.91306	8970.825
2645.56209	8967.925
2648.20948	8930.125
2650.85521	8928.025
2653.4993	8919.425
2656.14175	8943.425
2658.78255	8946.425
2661.42171	8944.325
2664.05923	8971.625
2666.6951	8983.025
2669.32934	9004.425
2671.96194	9008.825
2674.59291	9016.925
2677.22224	9022.525
2679.84993	9008.125
2682.476	9020.825
2685.10043	9006.125
2687.72324	8993.125
2690.34441	8988.625
2692.96396	9011.625
2695.58188	8968.425
2698.19818	8982.125
2700.81285	8990.625
2703.4259	8974.525
2706.03733	8974.225
2708.64714	8986.325
2711.25533	8989.925
2713.86191	8988.125
2716.46687	8983.725
2719.07021	9004.625
2721.67194	8985.625
2724.27206	9010.925
2726.87057	8999.925
2729.46747	9007.425
2732.06276	8984.325
2734.65644	8986.525
2737.24852	8970.925
2739.83899	8945.125
2742.42786	8958.225
2745.01513	8937.525
2747.60079	8918.925
2750.18486	8905.825
2752.76733	8922.425
2755.3482	8911.225
2757.92747	8900.825
2760.50515	8901.225
2763.08123	8903.825
2765.65573	8891.425
2768.22863	8889.425
2770.79994	8869.425
2773.36967	8892.625
2775.9378	8868.125
2778.50435	8864.525
2781.06932	8904.925
2783.6327	8898.325
2786.1945	8871.225
2788.75471	8869.025
2791.31335	8845.925
2793.87041	8857.825
2796.42589	8837.225
2798.97979	8850.525
2801.53212	8852.925
2804.08288	8882.025
2806.63206	8889.325
2809.17967	8875.825
2811.72571	8868.725
2814.27018	8876.925
2816.81308	8900.425
2819.35442	8905.825
2821.89419	8915.525
2824.43239	8917.325
2826.96904	8923.325
2829.50412	8942.925
2832.03763	8908.525
2834.56959	8925.725
2837.1	8896.825
2839.62884	8910.025
2842.15613	8900.625
2844.68186	8912.925
2847.20604	8917.825
2849.72867	8956.525
2852.24974	8948.125
2854.76927	8955.425
2857.28724	8963.625
2859.80367	8979.725
2862.31855	8984.425
2864.83189	8990.025
2867.34368	8972.825
2869.85393	8985.825
2872.36264	9022.125
2874.8698	9004.425
2877.37543	9008.925
2879.87952	9012.425
2882.38207	8987.225
2884.88308	8989.925
2887.38256	8986.925
2889.88051	8966.425
2892.37692	8956.625
2894.8718	8969.425
2897.36515	8949.325
2899.85698	8970.425
2902.34727	8973.425
2904.83604	8955.925
2907.32328	8968.425
2909.809	8923.925
2912.29319	8925.525
2914.77587	8884.825
2917.25702	8897.825
2919.73665	8874.025
2922.21476	8852.725
2924.69136	8862.525
2927.16644	8825.025
2929.64	8797.825
2932.11205	8787.625
2934.58258	8756.625
2937.05161	8755.225
2939.51912	8759.325
2941.98513	8743.625
2944.44962	8695.625
2946.91261	8663.725
2949.37409	8659.625
2951.83407	8664.125
2954.29254	8672.125
2956.74951	8634.925
2959.20498	8627.425
2961.65895	8606.225
2964.11142	8571.025
2966.56239	8569.625
2969.01186	8556.625
2971.45984	8521.025
2973.90632	8495.925
2976.35131	8453.225
2978.7948	8429.725
2981.23681	8411.325
2983.67732	8405.925
2986.11635	8374.925
2988.55388	8337.625
2990.98993	8351.225
2993.4245	8320.925
2995.85758	8324.925
2998.28917	8322.625
3000.71928	8305.525
3003.14791	8314.925
3005.57506	8302.025
3008.00073	8296.625
3010.42493	8273.325
3012.84764	8277.625
3015.26888	8283.725
3017.68865	8242.325
3020.10694	8229.825
3022.52376	8170.725
3024.9391	8197.625
3027.35298	8164.925
3029.76539	8130.625
3032.17632	8100.825
3034.5858	8097.225
3036.9938	8079.025
3039.40034	8080.825
3041.80542	8047.725
3044.20903	8022.025
3046.61118	7993.725
3049.01187	7974.725
3051.4111	7965.725
3053.80888	7956.125
3056.20519	7916.825
3058.60005	7885.625
3060.99345	7897.325
3063.3854	7853.525
3065.7759	7846.825
3068.16494	7826.825
3070.55254	7802.225
3072.93868	7788.525
3075.32338	7747.125
3077.70662	7723.525
3080.08842	7723.325
3082.46878	7716.825
3084.84769	7690.725
3087.22515	7673.625
3089.60118	7664.225
3091.97576	7658.825
3094.3489	7651.925
3096.72061	7655.125
3099.09087	7645.925
3101.4597	7610.225
3103.82709	7613.325
3106.19305	7594.525
3108.55757	7577.625
3110.92066	7570.325
3113.28232	7552.125
3115.64255	7530.525
3118.00134	7532.425
3120.35871	7494.525
3122.71466	7494.825
3125.06917	7483.325
3127.42226	7495.125
3129.77393	7503.825
3132.12417	7485.125
3134.47299	7478.925
3136.82039	7502.225
3139.16636	7505.325
3141.51092	7504.125
3143.85406	7502.825
3146.19579	7496.325
3148.53609	7495.225
3150.87499	7508.925
3153.21246	7507.725
3155.54853	7534.125
3157.88318	7511.925
3160.21642	7488.325
3162.54826	7502.525
3164.87868	7499.225
3167.2077	7482.625
3169.5353	7491.325
