Data from AgNP_FTO_APTES_UA_100uM_CRN_1uM_R6G_10uM_NaF_0.1M_Addition_RamanShift__24__12-16-10-184.txt Node

Date: Thu Mar 24 12:16:10 GMT 2022
User: TCL
Spectrometer: QEP01345
Trigger mode: 4
Integration Time (sec): 7.000000E0
Scans to average: 10
Electric dark correction enabled: true
Nonlinearity correction enabled: false
Boxcar width: 0
XAxis mode: Raman Shifts
Number of Pixels in Spectrum: 1044
>>>>>Begin Spectral Data<<<<<
46.04893	-1.325
50.45542	-0.725
54.85868	-1.825
59.25871	-0.125
63.6555	50.075
68.04907	54.875
72.43941	56.675
76.82654	57.875
81.21044	63.775
85.59113	63.875
89.96862	62.575
94.34289	66.075
98.71396	68.575
103.08183	68.375
107.4465	72.075
111.80798	75.675
116.16626	73.575
120.52136	80.275
124.87327	78.875
129.222	88.475
133.56755	91.675
137.90993	95.675
142.24913	114.875
146.58517	122.375
150.91804	146.275
155.24774	176.175
159.57429	226.275
163.89768	283.975
168.21792	383.575
172.53501	533.275
176.84895	750.375
181.15975	1046.075
185.46741	1458.675
189.77193	2017.175
194.07331	2687.475
198.37157	3467.275
202.6667	4298.075
206.9587	5158.575
211.24758	6006.875
215.53334	6947.175
219.81599	7970.075
224.09553	9118.275
228.37195	10419.475
232.64527	11810.275
236.91549	13210.875
241.18261	14455.475
245.44663	15457.175
249.70755	16224.775
253.96539	16888.075
258.22014	17492.475
262.4718	18020.975
266.72039	18355.775
270.96589	18431.975
275.20832	18304.275
279.44768	18057.875
283.68397	17812.075
287.91719	17693.875
292.14735	17763.275
296.37445	18069.475
300.59849	18610.475
304.81948	19339.175
309.03742	19859.775
313.25231	19944.075
317.46415	19233.675
321.67296	18051.075
325.87872	16983.775
330.08145	16391.775
334.28114	16353.175
338.47781	16558.475
342.67145	16916.275
346.86207	17502.375
351.04966	18383.175
355.23424	19335.075
359.4158	20066.075
363.59435	20372.775
367.76989	20413.675
371.94243	20285.875
376.11196	20139.075
380.27849	20048.675
384.44203	19884.175
388.60257	19721.875
392.76012	19689.375
396.91468	19814.375
401.06626	20259.375
405.21485	20559.775
409.36047	20193.975
413.50311	19232.775
417.64277	18385.975
421.77947	18040.575
425.9132	17980.375
430.04396	18104.975
434.17176	18258.375
438.2966	18621.175
442.41849	19245.175
446.53742	20219.275
450.6534	21104.975
454.76644	21626.675
458.87653	21487.475
462.98368	21002.175
467.08789	20441.875
471.18916	19843.775
475.2875	19270.775
479.38291	18918.575
483.4754	18610.575
487.56496	18267.075
491.6516	17867.575
495.73531	17509.475
499.81612	17381.875
503.89401	17543.675
507.96899	17696.275
512.04106	17757.075
516.11023	17787.475
520.1765	17759.875
524.23987	17707.375
528.30034	17577.275
532.35792	17435.075
536.41261	17091.275
540.46441	16628.575
544.51333	16431.275
548.55936	16669.975
552.60252	17324.575
556.64279	18178.975
560.6802	18798.875
564.71473	19268.275
568.7464	20196.075
572.7752	21122.475
576.80114	21002.775
580.82422	20639.275
584.84444	20693.675
588.86181	21418.775
592.87633	22562.875
596.888	22922.675
600.89682	22350.775
604.9028	23384.975
608.90594	28638.475
612.90624	35254.875
616.90371	33091.775
620.89834	22990.675
624.89015	18153.575
628.87913	17325.275
632.86528	17534.375
636.84862	17773.675
640.82913	17294.975
644.80683	16249.275
648.78172	15535.475
652.75379	15483.475
656.72306	16162.375
660.68952	17022.975
664.65319	16834.775
668.61405	15930.575
672.57211	15563.975
676.52738	15568.975
680.47986	15510.275
684.42955	15277.675
688.37646	15086.375
692.32058	15191.775
696.26192	15487.275
700.20048	15812.175
704.13626	16063.775
708.06928	16065.775
711.99952	15905.575
715.927	15859.475
719.85171	15973.175
723.77365	15956.875
727.69284	15720.875
731.60928	15533.175
735.52295	15502.375
739.43388	15635.575
743.34206	15776.475
747.24749	15865.675
751.15017	16051.375
755.05012	16473.675
758.94733	17522.475
762.8418	19973.475
766.73354	24055.775
770.62254	27866.075
774.50882	28951.875
778.39237	27074.475
782.27321	23102.175
786.15132	19429.475
790.02671	17169.875
793.89938	16116.575
797.76935	15636.475
801.6366	15450.775
805.50115	15311.075
809.36299	15191.875
813.22213	15043.975
817.07857	14960.875
820.93231	14903.175
824.78336	14890.175
828.63172	14939.175
832.47738	14953.175
836.32036	14914.575
840.16066	14873.575
843.99827	14856.575
847.8332	14812.375
851.66546	14780.775
855.49504	14775.975
859.32195	14724.075
863.1462	14663.375
866.96777	14578.575
870.78668	14521.175
874.60293	14581.375
878.41652	14617.475
882.22745	14771.675
886.03573	14887.075
889.84136	14881.875
893.64433	14799.075
897.44466	14688.975
901.24235	14642.275
905.0374	14505.175
908.8298	14359.375
912.61957	14336.675
916.40671	14454.375
920.19121	14735.475
923.97308	15079.075
927.75233	15286.875
931.52895	15262.975
935.30295	14963.575
939.07433	14407.375
942.84309	13955.075
946.60924	13735.375
950.37278	13672.575
954.13371	13629.275
957.89203	13544.775
961.64774	13543.375
965.40086	13528.375
969.15137	13492.275
972.89929	13381.375
976.64461	13343.675
980.38733	13299.175
984.12747	13370.275
987.86502	13498.475
991.59999	13744.575
995.33237	14107.875
999.06217	14758.675
1002.78939	15553.375
1006.51404	16279.875
1010.23611	16739.075
1013.95561	16980.075
1017.67255	16940.675
1021.38692	16471.675
1025.09872	15900.775
1028.80796	15657.975
1032.51465	15835.275
1036.21877	16183.875
1039.92035	16351.775
1043.61937	16283.575
1047.31584	16056.975
1051.00976	15799.275
1054.70114	15591.875
1058.38998	15557.075
1062.07627	15648.975
1065.76003	15777.775
1069.44126	15970.775
1073.11995	16262.075
1076.79611	16620.575
1080.46974	17020.275
1084.14085	17569.475
1087.80943	18149.475
1091.47549	18398.275
1095.13903	18103.075
1098.80005	17437.675
1102.45857	16828.675
1106.11456	16530.175
1109.76805	16582.775
1113.41903	17040.575
1117.06751	17704.275
1120.71348	18625.775
1124.35696	19533.075
1127.99793	20234.175
1131.63641	19992.275
1135.2724	19070.775
1138.90589	18282.075
1142.5369	17902.275
1146.16542	17622.775
1149.79145	17591.575
1153.415	17744.675
1157.03607	18023.875
1160.65467	18709.975
1164.27079	19828.775
1167.88443	21531.975
1171.49561	24088.275
1175.10432	27822.875
1178.71056	32609.075
1182.31434	36646.975
1185.91565	37992.275
1189.51451	36811.675
1193.11091	34418.275
1196.70485	31737.675
1200.29634	29387.375
1203.88538	27345.275
1207.47197	25397.175
1211.05612	23789.775
1214.63782	23003.175
1218.21708	22929.875
1221.79391	23215.475
1225.36829	23302.275
1228.94024	22796.275
1232.50976	21879.775
1236.07685	21154.675
1239.6415	20754.275
1243.20374	20717.975
1246.76355	20832.575
1250.32093	21198.175
1253.8759	21860.075
1257.42845	22773.375
1260.97859	23830.775
1264.52631	24991.075
1268.07163	26119.375
1271.61453	27229.775
1275.15503	28179.075
1278.69312	29069.975
1282.22882	29947.875
1285.76211	31162.775
1289.29301	32758.275
1292.82151	34659.775
1296.34761	36965.675
1299.87133	40048.875
1303.39266	44238.375
1306.9116	49840.975
1310.42815	55463.675
1313.94233	58452.575
1317.45412	57091.175
1320.96354	53392.575
1324.47058	49349.475
1327.97525	45984.275
1331.47754	43737.575
1334.97747	42806.175
1338.47502	42740.675
1341.97022	43229.275
1345.46305	43898.375
1348.95352	44943.775
1352.44163	46995.175
1355.92738	50955.775
1359.41078	57437.975
1362.89183	62940.275
1366.37053	60536.175
1369.84688	50960.375
1373.32088	41755.275
1376.79254	36356.775
1380.26186	33856.275
1383.72883	32644.775
1387.19347	31955.575
1390.65578	31375.775
1394.11575	31334.175
1397.57339	31900.175
1401.0287	32741.475
1404.48168	33360.675
1407.93234	33487.875
1411.38068	33071.075
1414.82669	32066.575
1418.27039	30606.575
1421.71177	28961.275
1425.15083	27519.675
1428.58758	26941.975
1432.02203	27337.875
1435.45416	28083.575
1438.88399	28735.275
1442.31151	29189.175
1445.73673	29592.075
1449.15965	30008.175
1452.58027	30149.975
1455.9986	30145.175
1459.41463	30391.075
1462.82837	31134.075
1466.23982	32129.275
1469.64898	32888.175
1473.05586	33252.375
1476.46045	33269.375
1479.86276	33110.475
1483.26279	33097.975
1486.66054	33480.375
1490.05602	34374.575
1493.44922	35618.975
1496.84016	37311.875
1500.22882	40329.975
1503.61521	44724.375
1506.99934	49740.375
1510.38121	53400.075
1513.76081	53481.675
1517.13816	49321.475
1520.51324	43231.175
1523.88607	38315.075
1527.25665	35525.275
1530.62498	34268.175
1533.99105	33677.375
1537.35488	33127.875
1540.71647	32474.275
1544.07581	31562.575
1547.4329	30702.075
1550.78776	29973.175
1554.14038	29410.175
1557.49077	29269.775
1560.83892	29480.175
1564.18484	30170.675
1567.52853	31043.175
1570.86999	31758.175
1574.20922	32311.975
1577.54624	32268.275
1580.88103	30969.475
1584.2136	29475.075
1587.54395	29295.675
1590.87208	30825.475
1594.19801	33941.775
1597.52172	37494.275
1600.84321	39056.475
1604.16251	37364.875
1607.47959	33750.875
1610.79447	29635.375
1614.10715	25994.275
1617.41763	23149.875
1620.7259	21322.675
1624.03199	20510.575
1627.33587	20526.675
1630.63757	21446.175
1633.93707	23490.475
1637.23439	26932.975
1640.52951	32342.875
1643.82246	39276.275
1647.11321	45638.175
1650.40179	47936.075
1653.68819	43823.475
1656.97241	35676.075
1660.25446	27798.175
1663.53433	22314.975
1666.81203	19024.675
1670.08756	17123.675
1673.36092	16027.575
1676.63211	15284.575
1679.90115	14800.875
1683.16801	14453.975
1686.43272	14185.475
1689.69527	14006.075
1692.95567	13844.375
1696.2139	13745.175
1699.46999	13639.375
1702.72392	13566.675
1705.97571	13532.475
1709.22535	13504.675
1712.47284	13519.375
1715.71819	13462.375
1718.96139	13391.075
1722.20246	13340.275
1725.44139	13235.575
1728.67818	13111.475
1731.91284	12978.375
1735.14537	12852.975
1738.37576	12749.875
1741.60403	12679.775
1744.83017	12618.175
1748.05418	12578.875
1751.27607	12534.875
1754.49584	12463.275
1757.71349	12490.775
1760.92903	12441.975
1764.14244	12404.175
1767.35375	12408.675
1770.56294	12380.375
1773.77002	12335.475
1776.97499	12287.575
1780.17785	12283.875
1783.37861	12223.775
1786.57727	12187.975
1789.77382	12169.275
1792.96828	12157.375
1796.16064	12122.675
1799.3509	12076.175
1802.53907	12046.875
1805.72514	11986.075
1808.90913	11970.775
1812.09102	11925.275
1815.27083	11898.575
1818.44856	11860.875
1821.6242	11843.075
1824.79776	11819.175
1827.96924	11798.975
1831.13864	11793.875
1834.30597	11776.775
1837.47122	11771.975
1840.6344	11771.675
1843.7955	11741.175
1846.95454	11738.075
1850.11151	11733.875
1853.26642	11731.475
1856.41926	11744.875
1859.57004	11746.175
1862.71876	11707.275
1865.86542	11719.275
1869.01003	11731.275
1872.15258	11727.975
1875.29308	11738.275
1878.43152	11742.575
1881.56792	11727.975
1884.70227	11734.475
1887.83457	11734.975
1890.96482	11760.575
1894.09304	11728.075
1897.21921	11729.575
1900.34335	11767.675
1903.46544	11756.375
1906.58551	11761.275
1909.70353	11716.975
1912.81953	11715.975
1915.93349	11674.375
1919.04543	11660.075
1922.15534	11606.875
1925.26322	11565.575
1928.36908	11510.675
1931.47292	11453.175
1934.57473	11410.475
1937.67453	11391.075
1940.77232	11366.675
1943.86808	11327.375
1946.96184	11267.875
1950.05358	11253.975
1953.14331	11251.275
1956.23103	11208.275
1959.31675	11192.475
1962.40046	11157.975
1965.48217	11162.075
1968.56188	11113.975
1971.63959	11092.075
1974.7153	11075.175
1977.78901	11010.475
1980.86073	10977.675
1983.93046	10941.275
1986.99819	10877.975
1990.06394	10871.675
1993.1277	10800.375
1996.18947	10749.175
1999.24925	10737.075
2002.30706	10685.875
2005.36288	10652.375
2008.41672	10646.575
2011.46859	10608.875
2014.51848	10557.575
2017.56639	10526.875
2020.61233	10508.975
2023.6563	10448.475
2026.6983	10449.275
2029.73833	10449.575
2032.7764	10399.575
2035.8125	10414.375
2038.84664	10358.275
2041.87881	10361.175
2044.90903	10359.075
2047.93729	10314.175
2050.96359	10313.575
2053.98794	10287.675
2057.01034	10290.375
2060.03078	10265.475
2063.04927	10209.775
2066.06582	10217.475
2069.08042	10199.375
2072.09307	10201.175
2075.10378	10184.775
2078.11255	10185.075
2081.11938	10184.675
2084.12426	10197.975
2087.12722	10173.675
2090.12824	10181.875
2093.12732	10186.075
2096.12447	10177.475
2099.11969	10195.975
2102.11299	10189.875
2105.10435	10177.575
2108.09379	10207.275
2111.08131	10184.675
2114.0669	10192.375
2117.05057	10203.275
2120.03233	10183.575
2123.01216	10216.175
2125.99008	10218.075
2128.96609	10235.375
2131.94018	10217.275
2134.91236	10211.475
2137.88263	10217.175
2140.851	10226.175
2143.81746	10211.475
2146.78201	10191.675
2149.74466	10226.875
2152.7054	10181.975
2155.66425	10153.975
2158.6212	10158.075
2161.57625	10170.475
2164.52941	10144.575
2167.48067	10144.475
2170.43004	10130.375
2173.37752	10147.975
2176.32311	10137.075
2179.26681	10137.275
2182.20863	10126.375
2185.14856	10123.875
2188.08661	10137.775
2191.02278	10136.975
2193.95707	10149.875
2196.88948	10104.175
2199.82001	10120.675
2202.74867	10105.075
2205.67545	10102.475
2208.60037	10070.775
2211.52341	10056.675
2214.44458	10073.975
2217.36388	10030.075
2220.28132	10027.875
2223.1969	9987.975
2226.11061	10001.775
2229.02246	9971.975
2231.93245	9948.975
2234.84058	9939.475
2237.74686	9922.675
2240.65128	9921.375
2243.55385	9904.175
2246.45456	9887.075
2249.35343	9870.775
2252.25044	9853.075
2255.14561	9855.275
2258.03893	9845.275
2260.93041	9850.775
2263.82004	9801.875
2266.70783	9792.875
2269.59378	9765.975
2272.4779	9743.875
2275.36017	9718.975
2278.24061	9695.475
2281.11922	9680.775
2283.996	9639.375
2286.87094	9658.475
2289.74405	9626.675
2292.61534	9604.875
2295.4848	9606.975
2298.35243	9602.375
2301.21824	9594.375
2304.08223	9598.775
2306.94439	9618.375
2309.80474	9613.275
2312.66327	9621.075
2315.51999	9595.975
2318.37489	9643.975
2321.22797	9612.975
2324.07925	9599.475
2326.92871	9593.575
2329.77637	9607.875
2332.62222	9595.875
2335.46626	9590.775
2338.3085	9582.375
2341.14893	9600.675
2343.98756	9622.075
2346.8244	9627.275
2349.65943	9640.775
2352.49267	9673.375
2355.32411	9680.875
2358.15376	9696.375
2360.98161	9680.175
2363.80768	9693.775
2366.63195	9686.375
2369.45444	9685.075
2372.27514	9683.275
2375.09405	9653.775
2377.91118	9628.875
2380.72652	9595.175
2383.54009	9556.275
2386.35187	9526.675
2389.16188	9488.375
2391.97011	9482.875
2394.77657	9441.675
2397.58125	9419.975
2400.38416	9395.975
2403.18529	9358.175
2405.98466	9354.975
2408.78226	9352.175
2411.57809	9320.275
2414.37216	9296.975
2417.16446	9295.475
2419.955	9261.475
2422.74378	9285.675
2425.5308	9275.975
2428.31606	9265.775
2431.09956	9278.375
2433.88131	9253.875
2436.6613	9281.675
2439.43954	9285.875
2442.21603	9287.475
2444.99077	9293.375
2447.76377	9319.475
2450.53501	9283.775
2453.30451	9328.075
2456.07226	9321.175
2458.83827	9311.175
2461.60254	9335.975
2464.36507	9321.675
2467.12586	9333.975
2469.88492	9327.975
2472.64224	9334.175
2475.39782	9323.775
2478.15167	9360.275
2480.90379	9366.975
2483.65417	9398.475
2486.40283	9423.075
2489.14976	9448.175
2491.89497	9435.875
2494.63845	9493.375
2497.3802	9473.875
2500.12024	9500.675
2502.85855	9495.075
2505.59514	9453.375
2508.33002	9431.375
2511.06318	9370.575
2513.79462	9371.375
2516.52435	9340.375
2519.25237	9325.175
2521.97867	9275.075
2524.70327	9283.275
2527.42616	9266.475
2530.14734	9278.975
2532.86681	9273.875
2535.58458	9281.975
2538.30065	9250.675
2541.01501	9279.075
2543.72768	9278.375
2546.43864	9277.175
2549.14791	9267.275
2551.85548	9276.575
2554.56136	9275.975
2557.26554	9252.475
2559.96803	9232.375
2562.66883	9225.775
2565.36794	9248.675
2568.06536	9254.575
2570.7611	9245.375
2573.45514	9230.975
2576.14751	9236.575
2578.83819	9221.875
2581.52719	9223.375
2584.21451	9230.775
2586.90015	9199.975
2589.58411	9198.675
2592.2664	9215.275
2594.94701	9183.175
2597.62594	9219.175
2600.30321	9183.375
2602.9788	9211.475
2605.65273	9205.375
2608.32498	9208.075
2610.99557	9202.375
2613.66449	9236.475
2616.33175	9254.675
2618.99734	9262.975
2621.66128	9273.175
2624.32355	9273.775
2626.98416	9264.075
2629.64311	9286.475
2632.30041	9281.875
2634.95605	9248.375
2637.61004	9252.675
2640.26238	9245.775
2642.91306	9230.475
2645.56209	9232.775
2648.20948	9219.675
2650.85521	9228.275
2653.4993	9231.275
2656.14175	9232.375
2658.78255	9271.675
2661.42171	9259.475
2664.05923	9278.275
2666.6951	9293.575
2669.32934	9306.775
2671.96194	9318.875
2674.59291	9325.775
2677.22224	9299.475
2679.84993	9313.875
2682.476	9299.375
2685.10043	9312.475
2687.72324	9267.375
2690.34441	9291.275
2692.96396	9274.575
2695.58188	9284.775
2698.19818	9244.875
2700.81285	9278.475
2703.4259	9269.375
2706.03733	9270.275
2708.64714	9270.675
2711.25533	9283.175
2713.86191	9276.775
2716.46687	9299.075
2719.07021	9297.975
2721.67194	9322.175
2724.27206	9308.975
2726.87057	9326.075
2729.46747	9328.675
2732.06276	9341.075
2734.65644	9333.375
2737.24852	9344.975
2739.83899	9320.075
2742.42786	9302.775
2745.01513	9295.775
2747.60079	9279.975
2750.18486	9288.275
2752.76733	9306.975
2755.3482	9291.675
2757.92747	9289.075
2760.50515	9268.075
2763.08123	9293.275
2765.65573	9297.675
2768.22863	9280.375
2770.79994	9266.875
2773.36967	9306.175
2775.9378	9320.075
2778.50435	9307.975
2781.06932	9314.375
2783.6327	9327.275
2786.1945	9306.175
2788.75471	9294.675
2791.31335	9254.575
2793.87041	9274.875
2796.42589	9261.675
2798.97979	9271.675
2801.53212	9273.775
2804.08288	9298.375
2806.63206	9257.875
2809.17967	9258.875
2811.72571	9248.775
2814.27018	9258.675
2816.81308	9247.375
2819.35442	9255.275
2821.89419	9246.275
2824.43239	9251.575
2826.96904	9249.475
2829.50412	9264.175
2832.03763	9241.175
2834.56959	9257.575
2837.1	9243.575
2839.62884	9256.075
2842.15613	9207.075
2844.68186	9213.775
2847.20604	9220.775
2849.72867	9247.975
2852.24974	9224.175
2854.76927	9244.375
2857.28724	9215.775
2859.80367	9257.775
2862.31855	9244.875
2864.83189	9255.275
2867.34368	9236.975
2869.85393	9252.775
2872.36264	9270.975
2874.8698	9284.175
2877.37543	9279.875
2879.87952	9292.075
2882.38207	9284.675
2884.88308	9275.375
2887.38256	9280.375
2889.88051	9281.975
2892.37692	9264.175
2894.8718	9253.275
2897.36515	9305.875
2899.85698	9270.775
2902.34727	9306.775
2904.83604	9314.175
2907.32328	9320.675
2909.809	9281.975
2912.29319	9287.175
2914.77587	9268.675
2917.25702	9264.875
2919.73665	9266.775
2922.21476	9237.475
2924.69136	9236.475
2927.16644	9210.175
2929.64	9202.375
2932.11205	9193.375
2934.58258	9149.375
2937.05161	9151.975
2939.51912	9144.075
2941.98513	9151.375
2944.44962	9124.575
2946.91261	9083.975
2949.37409	9099.675
2951.83407	9103.475
2954.29254	9104.475
2956.74951	9068.575
2959.20498	9053.275
2961.65895	9024.575
2964.11142	9041.175
2966.56239	9003.475
2969.01186	8993.675
2971.45984	8960.975
2973.90632	8928.775
2976.35131	8890.275
2978.7948	8869.875
2981.23681	8846.075
2983.67732	8813.275
2986.11635	8813.175
2988.55388	8752.275
2990.98993	8756.575
2993.4245	8721.175
2995.85758	8736.675
2998.28917	8716.075
3000.71928	8723.775
3003.14791	8701.875
3005.57506	8664.375
3008.00073	8650.875
3010.42493	8651.075
3012.84764	8624.575
3015.26888	8640.375
3017.68865	8616.275
3020.10694	8588.075
3022.52376	8554.875
3024.9391	8535.075
3027.35298	8526.875
3029.76539	8514.675
3032.17632	8491.175
3034.5858	8475.975
3036.9938	8481.075
3039.40034	8445.975
3041.80542	8437.375
3044.20903	8424.175
3046.61118	8419.875
3049.01187	8388.375
3051.4111	8375.375
3053.80888	8354.375
3056.20519	8306.675
3058.60005	8296.075
3060.99345	8299.075
3063.3854	8259.175
3065.7759	8233.475
3068.16494	8229.375
3070.55254	8182.675
3072.93868	8155.775
3075.32338	8125.875
3077.70662	8121.775
3080.08842	8080.775
3082.46878	8092.175
3084.84769	8079.775
3087.22515	8065.475
3089.60118	8064.675
3091.97576	8043.075
3094.3489	8048.375
3096.72061	8022.975
3099.09087	8008.875
3101.4597	8007.175
3103.82709	7979.875
3106.19305	7969.875
3108.55757	7954.775
3110.92066	7936.375
3113.28232	7922.475
3115.64255	7889.675
3118.00134	7887.175
3120.35871	7870.775
3122.71466	7853.775
3125.06917	7839.175
3127.42226	7837.875
3129.77393	7837.775
3132.12417	7822.975
3134.47299	7824.175
3136.82039	7826.175
3139.16636	7813.075
3141.51092	7812.375
3143.85406	7840.975
3146.19579	7820.475
3148.53609	7815.275
3150.87499	7821.975
3153.21246	7812.775
3155.54853	7805.375
3157.88318	7788.975
3160.21642	7783.475
3162.54826	7784.975
3164.87868	7771.675
3167.2077	7772.975
3169.5353	7762.075
