Data from AgNP_FTO_APTES_UA_100uM_CRN_50uM_R6G_10uM_NaF_0.1M_Addition_RamanShift__21__17-32-20-546.txt Node

Date: Thu Mar 24 17:32:20 GMT 2022
User: TCL
Spectrometer: QEP01345
Trigger mode: 4
Integration Time (sec): 7.000000E0
Scans to average: 10
Electric dark correction enabled: true
Nonlinearity correction enabled: false
Boxcar width: 0
XAxis mode: Raman Shifts
Number of Pixels in Spectrum: 1044
>>>>>Begin Spectral Data<<<<<
46.04893	-1.1125
50.45542	-1.7125
54.85868	0.0875
59.25871	0.3875
63.6555	36.8875
68.04907	39.2875
72.43941	38.5875
76.82654	39.8875
81.21044	44.5875
85.59113	45.2875
89.96862	44.2875
94.34289	42.6875
98.71396	49.3875
103.08183	44.9875
107.4465	47.5875
111.80798	52.5875
116.16626	54.0875
120.52136	53.6875
124.87327	54.0875
129.222	61.5875
133.56755	65.2875
137.90993	66.4875
142.24913	75.5875
146.58517	83.1875
150.91804	96.2875
155.24774	117.7875
159.57429	142.2875
163.89768	187.5875
168.21792	253.1875
172.53501	343.1875
176.84895	481.8875
181.15975	677.3875
185.46741	955.5875
189.77193	1321.7875
194.07331	1768.1875
198.37157	2292.0875
202.6667	2830.1875
206.9587	3388.7875
211.24758	3915.9875
215.53334	4465.7875
219.81599	5061.8875
224.09553	5699.7875
228.37195	6442.8875
232.64527	7262.8875
236.91549	8099.9875
241.18261	8913.4875
245.44663	9666.6875
249.70755	10287.4875
253.96539	10782.3875
258.22014	11230.0875
262.4718	11602.2875
266.72039	11859.2875
270.96589	12034.1875
275.20832	12057.6875
279.44768	11988.1875
283.68397	11836.9875
287.91719	11756.8875
292.14735	11712.0875
296.37445	11773.7875
300.59849	11934.0875
304.81948	12132.2875
309.03742	12231.2875
313.25231	12129.1875
317.46415	11862.8875
321.67296	11466.3875
325.87872	11114.6875
330.08145	10927.3875
334.28114	10919.5875
338.47781	11008.2875
342.67145	11170.3875
346.86207	11416.5875
351.04966	11691.7875
355.23424	11998.7875
359.4158	12213.5875
363.59435	12318.6875
367.76989	12414.2875
371.94243	12448.7875
376.11196	12452.5875
380.27849	12492.0875
384.44203	12511.8875
388.60257	12530.8875
392.76012	12602.4875
396.91468	12702.7875
401.06626	12889.8875
405.21485	13016.5875
409.36047	12885.6875
413.50311	12561.7875
417.64277	12264.6875
421.77947	12093.1875
425.9132	12093.1875
430.04396	12143.8875
434.17176	12224.6875
438.2966	12351.5875
442.41849	12547.6875
446.53742	12823.2875
450.6534	13127.5875
454.76644	13336.7875
458.87653	13369.4875
462.98368	13309.3875
467.08789	13182.7875
471.18916	13062.6875
475.2875	12917.3875
479.38291	12774.1875
483.4754	12614.2875
487.56496	12467.3875
491.6516	12349.9875
495.73531	12259.8875
499.81612	12223.1875
503.89401	12284.1875
507.96899	12344.4875
512.04106	12394.3875
516.11023	12392.1875
520.1765	12352.9875
524.23987	12329.9875
528.30034	12264.2875
532.35792	12188.0875
536.41261	12094.1875
540.46441	11940.6875
544.51333	11944.9875
548.55936	12028.0875
552.60252	12263.0875
556.64279	12489.5875
560.6802	12658.7875
564.71473	12731.5875
568.7464	12929.1875
572.7752	13188.2875
576.80114	13359.1875
580.82422	13511.1875
584.84444	13612.5875
588.86181	13795.8875
592.87633	14008.0875
596.888	14177.2875
600.89682	14263.4875
604.9028	14808.7875
608.90594	16551.8875
612.90624	18736.0875
616.90371	17771.4875
620.89834	14238.0875
624.89015	12567.9875
628.87913	12303.9875
632.86528	12490.1875
636.84862	12703.0875
640.82913	12579.4875
644.80683	12194.0875
648.78172	11863.1875
652.75379	11738.4875
656.72306	11917.2875
660.68952	12205.8875
664.65319	12108.8875
668.61405	11745.8875
672.57211	11620.8875
676.52738	11646.9875
680.47986	11660.5875
684.42955	11577.9875
688.37646	11504.2875
692.32058	11532.0875
696.26192	11605.8875
700.20048	11750.9875
704.13626	11843.2875
708.06928	11851.2875
711.99952	11797.9875
715.927	11740.1875
719.85171	11769.7875
723.77365	11786.4875
727.69284	11725.7875
731.60928	11655.6875
735.52295	11649.7875
739.43388	11656.0875
743.34206	11686.2875
747.24749	11676.2875
751.15017	11741.8875
755.05012	11879.8875
758.94733	12243.3875
762.8418	13111.7875
766.73354	14604.7875
770.62254	16071.4875
774.50882	16546.4875
778.39237	15706.3875
782.27321	14214.3875
786.15132	12863.2875
790.02671	12084.1875
793.89938	11681.6875
797.76935	11471.3875
801.6366	11362.8875
805.50115	11350.3875
809.36299	11299.0875
813.22213	11257.9875
817.07857	11244.8875
820.93231	11232.9875
824.78336	11157.7875
828.63172	11170.4875
832.47738	11134.1875
836.32036	11096.9875
840.16066	11085.8875
843.99827	11106.4875
847.8332	11054.7875
851.66546	11038.4875
855.49504	11076.4875
859.32195	11043.1875
863.1462	11052.9875
866.96777	11087.1875
870.78668	11043.3875
874.60293	11072.4875
878.41652	11084.7875
882.22745	11119.3875
886.03573	11171.0875
889.84136	11178.3875
893.64433	11120.7875
897.44466	11082.2875
901.24235	11040.9875
905.0374	10989.0875
908.8298	10947.7875
912.61957	10922.7875
916.40671	10973.7875
920.19121	11066.1875
923.97308	11132.5875
927.75233	11118.0875
931.52895	11088.6875
935.30295	10902.7875
939.07433	10749.2875
942.84309	10596.2875
946.60924	10485.7875
950.37278	10439.8875
954.13371	10443.7875
957.89203	10409.3875
961.64774	10405.9875
965.40086	10392.8875
969.15137	10348.2875
972.89929	10337.9875
976.64461	10287.0875
980.38733	10300.9875
984.12747	10277.7875
987.86502	10330.4875
991.59999	10389.6875
995.33237	10467.9875
999.06217	10585.5875
1002.78939	10770.6875
1006.51404	11005.2875
1010.23611	11187.5875
1013.95561	11343.4875
1017.67255	11316.1875
1021.38692	11213.3875
1025.09872	11020.8875
1028.80796	10852.3875
1032.51465	10750.0875
1036.21877	10792.0875
1039.92035	10857.0875
1043.61937	10893.0875
1047.31584	10944.7875
1051.00976	10990.9875
1054.70114	11001.6875
1058.38998	11071.8875
1062.07627	11149.2875
1065.76003	11250.7875
1069.44126	11360.0875
1073.11995	11478.9875
1076.79611	11662.8875
1080.46974	11759.2875
1084.14085	11902.7875
1087.80943	12043.5875
1091.47549	12136.7875
1095.13903	12109.2875
1098.80005	11875.0875
1102.45857	11627.6875
1106.11456	11504.6875
1109.76805	11499.9875
1113.41903	11577.4875
1117.06751	11780.4875
1120.71348	12040.6875
1124.35696	12365.5875
1127.99793	12591.4875
1131.63641	12656.0875
1135.2724	12463.1875
1138.90589	12191.9875
1142.5369	12026.5875
1146.16542	11913.7875
1149.79145	11866.6875
1153.415	11883.3875
1157.03607	11941.4875
1160.65467	12174.9875
1164.27079	12562.3875
1167.88443	13147.6875
1171.49561	14023.4875
1175.10432	15238.5875
1178.71056	16773.9875
1182.31434	18168.7875
1185.91565	18685.5875
1189.51451	18433.4875
1193.11091	17801.5875
1196.70485	16980.5875
1200.29634	16118.1875
1203.88538	15445.5875
1207.47197	14756.6875
1211.05612	14151.2875
1214.63782	13746.1875
1218.21708	13507.2875
1221.79391	13350.0875
1225.36829	13298.5875
1228.94024	13199.0875
1232.50976	13036.2875
1236.07685	12860.5875
1239.6415	12756.7875
1243.20374	12739.1875
1246.76355	12760.3875
1250.32093	12898.7875
1253.8759	13092.0875
1257.42845	13359.8875
1260.97859	13735.3875
1264.52631	14091.6875
1268.07163	14515.6875
1271.61453	14853.1875
1275.15503	15176.5875
1278.69312	15414.8875
1282.22882	15649.1875
1285.76211	16011.0875
1289.29301	16471.4875
1292.82151	17070.5875
1296.34761	17818.0875
1299.87133	18743.9875
1303.39266	19973.1875
1306.9116	21424.9875
1310.42815	22900.3875
1313.94233	23684.2875
1317.45412	23424.8875
1320.96354	22620.9875
1324.47058	21740.1875
1327.97525	20827.4875
1331.47754	20154.1875
1334.97747	19786.4875
1338.47502	19770.0875
1341.97022	19989.7875
1345.46305	20505.2875
1348.95352	21142.1875
1352.44163	21883.7875
1355.92738	23057.4875
1359.41078	24786.3875
1362.89183	26517.1875
1366.37053	26159.4875
1369.84688	23294.5875
1373.32088	20094.0875
1376.79254	18027.1875
1380.26186	17007.0875
1383.72883	16516.3875
1387.19347	16164.7875
1390.65578	15825.2875
1394.11575	15557.0875
1397.57339	15393.5875
1401.0287	15393.6875
1404.48168	15458.6875
1407.93234	15409.3875
1411.38068	15236.0875
1414.82669	14960.7875
1418.27039	14567.4875
1421.71177	14130.7875
1425.15083	13695.5875
1428.58758	13409.9875
1432.02203	13487.3875
1435.45416	13644.6875
1438.88399	13843.9875
1442.31151	14078.0875
1445.73673	14254.8875
1449.15965	14388.5875
1452.58027	14497.0875
1455.9986	14530.2875
1459.41463	14624.3875
1462.82837	14887.4875
1466.23982	15303.0875
1469.64898	15716.0875
1473.05586	16075.2875
1476.46045	16308.3875
1479.86276	16423.4875
1483.26279	16492.0875
1486.66054	16696.0875
1490.05602	16968.9875
1493.44922	17484.6875
1496.84016	18259.8875
1500.22882	19460.0875
1503.61521	21113.2875
1506.99934	22812.2875
1510.38121	23877.7875
1513.76081	23700.7875
1517.13816	22354.1875
1520.51324	20451.5875
1523.88607	18856.3875
1527.25665	17873.5875
1530.62498	17344.5875
1533.99105	17036.7875
1537.35488	16752.4875
1540.71647	16365.1875
1544.07581	15893.0875
1547.4329	15510.4875
1550.78776	15196.8875
1554.14038	15002.8875
1557.49077	15022.8875
1560.83892	15172.0875
1564.18484	15480.7875
1567.52853	15852.7875
1570.86999	16172.6875
1574.20922	16455.9875
1577.54624	16444.9875
1580.88103	15922.7875
1584.2136	15269.2875
1587.54395	14979.5875
1590.87208	15198.2875
1594.19801	15935.2875
1597.52172	16788.7875
1600.84321	17101.1875
1604.16251	16599.0875
1607.47959	15720.8875
1610.79447	14722.4875
1614.10715	13748.9875
1617.41763	12893.9875
1620.7259	12221.3875
1624.03199	11857.0875
1627.33587	11793.0875
1630.63757	11992.3875
1633.93707	12540.0875
1637.23439	13575.8875
1640.52951	15194.1875
1643.82246	17366.3875
1647.11321	19470.5875
1650.40179	20450.8875
1653.68819	19562.2875
1656.97241	17182.0875
1660.25446	14644.5875
1663.53433	12695.2875
1666.81203	11489.0875
1670.08756	10746.1875
1673.36092	10295.7875
1676.63211	9976.1875
1679.90115	9777.0875
1683.16801	9605.2875
1686.43272	9472.4875
1689.69527	9372.2875
1692.95567	9290.6875
1696.2139	9226.9875
1699.46999	9173.6875
1702.72392	9115.8875
1705.97571	9085.5875
1709.22535	9060.1875
1712.47284	9027.9875
1715.71819	8986.8875
1718.96139	8921.7875
1722.20246	8891.3875
1725.44139	8858.9875
1728.67818	8803.7875
1731.91284	8708.9875
1735.14537	8655.9875
1738.37576	8637.9875
1741.60403	8602.2875
1744.83017	8563.3875
1748.05418	8521.9875
1751.27607	8488.8875
1754.49584	8469.6875
1757.71349	8463.0875
1760.92903	8469.8875
1764.14244	8444.3875
1767.35375	8418.1875
1770.56294	8388.1875
1773.77002	8361.0875
1776.97499	8352.8875
1780.17785	8313.4875
1783.37861	8301.4875
1786.57727	8288.1875
1789.77382	8267.1875
1792.96828	8215.9875
1796.16064	8216.7875
1799.3509	8194.7875
1802.53907	8180.5875
1805.72514	8124.6875
1808.90913	8135.1875
1812.09102	8119.3875
1815.27083	8100.3875
1818.44856	8075.7875
1821.6242	8048.4875
1824.79776	8003.7875
1827.96924	7997.6875
1831.13864	7985.6875
1834.30597	7986.1875
1837.47122	7955.1875
1840.6344	7957.1875
1843.7955	7947.0875
1846.95454	7938.9875
1850.11151	7930.3875
1853.26642	7914.7875
1856.41926	7906.6875
1859.57004	7887.4875
1862.71876	7901.7875
1865.86542	7868.3875
1869.01003	7847.7875
1872.15258	7838.1875
1875.29308	7851.8875
1878.43152	7832.1875
1881.56792	7841.9875
1884.70227	7830.5875
1887.83457	7810.5875
1890.96482	7807.6875
1894.09304	7792.4875
1897.21921	7761.3875
1900.34335	7746.7875
1903.46544	7742.0875
1906.58551	7749.0875
1909.70353	7732.2875
1912.81953	7718.6875
1915.93349	7713.0875
1919.04543	7703.6875
1922.15534	7660.9875
1925.26322	7647.7875
1928.36908	7632.6875
1931.47292	7623.8875
1934.57473	7599.6875
1937.67453	7595.3875
1940.77232	7570.6875
1943.86808	7529.5875
1946.96184	7502.6875
1950.05358	7484.5875
1953.14331	7451.4875
1956.23103	7417.3875
1959.31675	7398.0875
1962.40046	7363.8875
1965.48217	7379.5875
1968.56188	7349.4875
1971.63959	7316.3875
1974.7153	7306.5875
1977.78901	7277.4875
1980.86073	7257.7875
1983.93046	7213.1875
1986.99819	7188.4875
1990.06394	7165.3875
1993.1277	7147.0875
1996.18947	7104.6875
1999.24925	7082.6875
2002.30706	7069.8875
2005.36288	7041.0875
2008.41672	7015.5875
2011.46859	6987.5875
2014.51848	6990.6875
2017.56639	6950.0875
2020.61233	6927.6875
2023.6563	6905.3875
2026.6983	6878.8875
2029.73833	6877.3875
2032.7764	6860.7875
2035.8125	6833.0875
2038.84664	6806.8875
2041.87881	6786.8875
2044.90903	6784.3875
2047.93729	6766.8875
2050.96359	6751.6875
2053.98794	6753.2875
2057.01034	6725.4875
2060.03078	6720.4875
2063.04927	6718.2875
2066.06582	6697.3875
2069.08042	6701.8875
2072.09307	6667.6875
2075.10378	6666.3875
2078.11255	6685.9875
2081.11938	6703.6875
2084.12426	6682.8875
2087.12722	6674.6875
2090.12824	6691.7875
2093.12732	6659.4875
2096.12447	6662.5875
2099.11969	6675.8875
2102.11299	6658.6875
2105.10435	6665.6875
2108.09379	6656.4875
2111.08131	6685.0875
2114.0669	6672.4875
2117.05057	6670.0875
2120.03233	6682.0875
2123.01216	6677.9875
2125.99008	6673.1875
2128.96609	6677.5875
2131.94018	6682.4875
2134.91236	6663.2875
2137.88263	6661.4875
2140.851	6670.1875
2143.81746	6677.4875
2146.78201	6673.5875
2149.74466	6677.9875
2152.7054	6647.4875
2155.66425	6634.4875
2158.6212	6632.0875
2161.57625	6639.1875
2164.52941	6636.4875
2167.48067	6623.2875
2170.43004	6619.6875
2173.37752	6631.1875
2176.32311	6607.8875
2179.26681	6628.3875
2182.20863	6614.0875
2185.14856	6625.0875
2188.08661	6590.2875
2191.02278	6602.3875
2193.95707	6592.5875
2196.88948	6581.5875
2199.82001	6593.5875
2202.74867	6568.2875
2205.67545	6559.9875
2208.60037	6552.2875
2211.52341	6543.5875
2214.44458	6507.2875
2217.36388	6489.6875
2220.28132	6498.4875
2223.1969	6478.2875
2226.11061	6460.9875
2229.02246	6437.8875
2231.93245	6432.5875
2234.84058	6425.8875
2237.74686	6412.7875
2240.65128	6405.3875
2243.55385	6402.5875
2246.45456	6387.2875
2249.35343	6380.9875
2252.25044	6374.6875
2255.14561	6366.6875
2258.03893	6357.5875
2260.93041	6339.7875
2263.82004	6319.7875
2266.70783	6286.9875
2269.59378	6286.1875
2272.4779	6274.7875
2275.36017	6272.4875
2278.24061	6243.5875
2281.11922	6237.3875
2283.996	6208.1875
2286.87094	6212.6875
2289.74405	6206.2875
2292.61534	6200.8875
2295.4848	6167.6875
2298.35243	6181.4875
2301.21824	6158.0875
2304.08223	6160.1875
2306.94439	6148.8875
2309.80474	6135.2875
2312.66327	6133.0875
2315.51999	6123.9875
2318.37489	6109.6875
2321.22797	6121.6875
2324.07925	6095.2875
2326.92871	6098.5875
2329.77637	6084.8875
2332.62222	6067.9875
2335.46626	6050.8875
2338.3085	6059.4875
2341.14893	6038.9875
2343.98756	6037.8875
2346.8244	6048.6875
2349.65943	6056.9875
2352.49267	6040.9875
2355.32411	6056.1875
2358.15376	6064.2875
2360.98161	6075.6875
2363.80768	6068.0875
2366.63195	6066.6875
2369.45444	6082.2875
2372.27514	6048.9875
2375.09405	6030.0875
2377.91118	6029.9875
2380.72652	6002.1875
2383.54009	5989.5875
2386.35187	5978.8875
2389.16188	5952.5875
2391.97011	5949.5875
2394.77657	5920.6875
2397.58125	5882.3875
2400.38416	5892.5875
2403.18529	5881.0875
2405.98466	5854.5875
2408.78226	5859.4875
2411.57809	5852.8875
2414.37216	5842.6875
2417.16446	5851.8875
2419.955	5843.2875
2422.74378	5829.4875
2425.5308	5825.5875
2428.31606	5817.4875
2431.09956	5808.3875
2433.88131	5810.5875
2436.6613	5799.3875
2439.43954	5821.3875
2442.21603	5792.7875
2444.99077	5777.5875
2447.76377	5756.0875
2450.53501	5779.8875
2453.30451	5785.2875
2456.07226	5760.3875
2458.83827	5766.5875
2461.60254	5775.3875
2464.36507	5784.4875
2467.12586	5769.1875
2469.88492	5762.5875
2472.64224	5768.4875
2475.39782	5758.4875
2478.15167	5771.4875
2480.90379	5772.6875
2483.65417	5761.0875
2486.40283	5796.2875
2489.14976	5784.7875
2491.89497	5779.6875
2494.63845	5792.8875
2497.3802	5777.3875
2500.12024	5758.1875
2502.85855	5755.8875
2505.59514	5752.8875
2508.33002	5733.6875
2511.06318	5688.5875
2513.79462	5691.8875
2516.52435	5673.2875
2519.25237	5686.8875
2521.97867	5664.6875
2524.70327	5660.1875
2527.42616	5662.6875
2530.14734	5635.0875
2532.86681	5648.2875
2535.58458	5615.1875
2538.30065	5634.5875
2541.01501	5628.0875
2543.72768	5628.4875
2546.43864	5615.5875
2549.14791	5610.3875
2551.85548	5595.9875
2554.56136	5569.2875
2557.26554	5578.9875
2559.96803	5547.2875
2562.66883	5549.8875
2565.36794	5539.5875
2568.06536	5553.4875
2570.7611	5514.0875
2573.45514	5508.1875
2576.14751	5507.3875
2578.83819	5500.6875
2581.52719	5515.7875
2584.21451	5501.1875
2586.90015	5508.9875
2589.58411	5489.0875
2592.2664	5481.2875
2594.94701	5461.2875
2597.62594	5450.5875
2600.30321	5440.8875
2602.9788	5434.1875
2605.65273	5437.1875
2608.32498	5431.2875
2610.99557	5426.5875
2613.66449	5421.3875
2616.33175	5421.6875
2618.99734	5417.4875
2621.66128	5406.0875
2624.32355	5390.7875
2626.98416	5407.0875
2629.64311	5391.6875
2632.30041	5384.8875
2634.95605	5381.4875
2637.61004	5383.9875
2640.26238	5352.4875
2642.91306	5361.5875
2645.56209	5365.0875
2648.20948	5370.2875
2650.85521	5354.6875
2653.4993	5352.2875
2656.14175	5364.8875
2658.78255	5355.7875
2661.42171	5380.5875
2664.05923	5389.8875
2666.6951	5384.1875
2669.32934	5380.2875
2671.96194	5380.4875
2674.59291	5380.0875
2677.22224	5368.7875
2679.84993	5374.2875
2682.476	5354.4875
2685.10043	5356.6875
2687.72324	5344.0875
2690.34441	5341.4875
2692.96396	5353.6875
2695.58188	5357.6875
2698.19818	5346.8875
2700.81285	5356.2875
2703.4259	5344.1875
2706.03733	5350.8875
2708.64714	5357.6875
2711.25533	5344.4875
2713.86191	5366.2875
2716.46687	5359.7875
2719.07021	5363.2875
2721.67194	5380.4875
2724.27206	5363.0875
2726.87057	5383.1875
2729.46747	5366.5875
2732.06276	5359.7875
2734.65644	5362.6875
2737.24852	5354.1875
2739.83899	5326.2875
2742.42786	5341.9875
2745.01513	5326.7875
2747.60079	5334.9875
2750.18486	5306.1875
2752.76733	5310.7875
2755.3482	5295.5875
2757.92747	5297.9875
2760.50515	5270.4875
2763.08123	5280.1875
2765.65573	5275.8875
2768.22863	5284.7875
2770.79994	5283.0875
2773.36967	5277.5875
2775.9378	5271.1875
2778.50435	5263.3875
2781.06932	5242.4875
2783.6327	5263.6875
2786.1945	5262.6875
2788.75471	5261.6875
2791.31335	5257.1875
2793.87041	5235.4875
2796.42589	5238.2875
2798.97979	5223.0875
2801.53212	5229.8875
2804.08288	5228.6875
2806.63206	5193.2875
2809.17967	5193.0875
2811.72571	5180.8875
2814.27018	5192.5875
2816.81308	5175.0875
2819.35442	5158.2875
2821.89419	5146.6875
2824.43239	5140.8875
2826.96904	5139.5875
2829.50412	5132.0875
2832.03763	5123.2875
2834.56959	5121.9875
2837.1	5126.4875
2839.62884	5131.6875
2842.15613	5136.2875
2844.68186	5142.5875
2847.20604	5132.8875
2849.72867	5147.8875
2852.24974	5145.5875
2854.76927	5156.2875
2857.28724	5136.7875
2859.80367	5126.3875
2862.31855	5141.2875
2864.83189	5127.1875
2867.34368	5125.1875
2869.85393	5138.9875
2872.36264	5122.3875
2874.8698	5110.8875
2877.37543	5135.7875
2879.87952	5126.8875
2882.38207	5116.5875
2884.88308	5110.3875
2887.38256	5107.4875
2889.88051	5094.1875
2892.37692	5116.7875
2894.8718	5111.9875
2897.36515	5118.4875
2899.85698	5110.3875
2902.34727	5110.9875
2904.83604	5110.9875
2907.32328	5132.8875
2909.809	5129.2875
2912.29319	5128.3875
2914.77587	5130.3875
2917.25702	5140.7875
2919.73665	5114.1875
2922.21476	5118.6875
2924.69136	5116.3875
2927.16644	5111.4875
2929.64	5105.9875
2932.11205	5091.9875
2934.58258	5065.8875
2937.05161	5088.7875
2939.51912	5077.2875
2941.98513	5061.0875
2944.44962	5041.8875
2946.91261	5026.1875
2949.37409	5038.5875
2951.83407	5030.5875
2954.29254	5026.7875
2956.74951	5013.7875
2959.20498	5029.6875
2961.65895	5015.3875
2964.11142	5000.9875
2966.56239	5004.4875
2969.01186	4983.5875
2971.45984	4976.6875
2973.90632	4978.5875
2976.35131	4947.0875
2978.7948	4953.9875
2981.23681	4929.2875
2983.67732	4923.8875
2986.11635	4926.2875
2988.55388	4909.3875
2990.98993	4896.7875
2993.4245	4881.5875
2995.85758	4880.4875
2998.28917	4867.6875
3000.71928	4861.1875
3003.14791	4856.5875
3005.57506	4872.1875
3008.00073	4844.2875
3010.42493	4838.3875
3012.84764	4845.9875
3015.26888	4823.3875
3017.68865	4818.4875
3020.10694	4818.3875
3022.52376	4800.1875
3024.9391	4781.3875
3027.35298	4788.8875
3029.76539	4768.6875
3032.17632	4766.3875
3034.5858	4765.6875
3036.9938	4756.6875
3039.40034	4750.6875
3041.80542	4756.4875
3044.20903	4759.3875
3046.61118	4745.8875
3049.01187	4747.8875
3051.4111	4746.8875
3053.80888	4722.6875
3056.20519	4711.7875
3058.60005	4696.8875
3060.99345	4696.4875
3063.3854	4688.6875
3065.7759	4667.8875
3068.16494	4677.1875
3070.55254	4675.9875
3072.93868	4647.9875
3075.32338	4643.0875
3077.70662	4631.6875
3080.08842	4625.0875
3082.46878	4622.8875
