Data from AgNP_FTO_APTES_UA_100uM_CRN_0uM_R6G_10uM_NaF_0.1M_Addition_RamanShift__20__11-08-30-106.txt Node

Date: Thu Mar 24 11:08:30 GMT 2022
User: TCL
Spectrometer: QEP01345
Trigger mode: 4
Integration Time (sec): 7.000000E0
Scans to average: 10
Electric dark correction enabled: true
Nonlinearity correction enabled: false
Boxcar width: 0
XAxis mode: Raman Shifts
Number of Pixels in Spectrum: 1044
>>>>>Begin Spectral Data<<<<<
46.04893	-2.2625
50.45542	-0.2625
54.85868	0.8375
59.25871	0.5375
63.6555	39.2375
68.04907	39.6375
72.43941	36.5375
76.82654	40.9375
81.21044	46.0375
85.59113	45.3375
89.96862	47.5375
94.34289	47.1375
98.71396	49.4375
103.08183	50.0375
107.4465	48.3375
111.80798	52.7375
116.16626	50.7375
120.52136	53.1375
124.87327	55.2375
129.222	58.2375
133.56755	63.8375
137.90993	62.5375
142.24913	75.7375
146.58517	81.5375
150.91804	96.0375
155.24774	117.9375
159.57429	143.5375
163.89768	182.5375
168.21792	238.7375
172.53501	333.3375
176.84895	464.3375
181.15975	650.4375
185.46741	910.0375
189.77193	1241.7375
194.07331	1679.4375
198.37157	2156.3375
202.6667	2669.1375
206.9587	3174.4375
211.24758	3675.8375
215.53334	4195.2375
219.81599	4746.0375
224.09553	5364.5375
228.37195	6071.3375
232.64527	6852.0375
236.91549	7638.3375
241.18261	8392.4375
245.44663	9061.1375
249.70755	9578.4375
253.96539	9956.8375
258.22014	10291.9375
262.4718	10542.6375
266.72039	10710.8375
270.96589	10774.9375
275.20832	10726.5375
279.44768	10589.7375
283.68397	10446.6375
287.91719	10302.2375
292.14735	10218.5375
296.37445	10223.4375
300.59849	10330.7375
304.81948	10519.8375
309.03742	10689.0375
313.25231	10779.0375
317.46415	10716.8375
321.67296	10532.1375
325.87872	10389.7375
330.08145	10283.8375
334.28114	10280.6375
338.47781	10315.3375
342.67145	10424.5375
346.86207	10630.4375
351.04966	10904.1375
355.23424	11164.2375
359.4158	11315.0375
363.59435	11405.9375
367.76989	11427.4375
371.94243	11387.3375
376.11196	11349.5375
380.27849	11353.9375
384.44203	11412.5375
388.60257	11478.4375
392.76012	11564.3375
396.91468	11660.6375
401.06626	11813.2375
405.21485	11921.1375
409.36047	11748.0375
413.50311	11417.9375
417.64277	11225.6375
421.77947	11216.8375
425.9132	11188.7375
430.04396	11204.2375
434.17176	11282.2375
438.2966	11446.6375
442.41849	11812.0375
446.53742	12377.5375
450.6534	12942.9375
454.76644	13167.8375
458.87653	13114.5375
462.98368	12835.0375
467.08789	12510.9375
471.18916	12205.9375
475.2875	11847.5375
479.38291	11527.3375
483.4754	11280.0375
487.56496	11104.1375
491.6516	10944.9375
495.73531	10812.5375
499.81612	10764.7375
503.89401	10805.6375
507.96899	10901.7375
512.04106	10860.1375
516.11023	10772.5375
520.1765	10732.2375
524.23987	10753.6375
528.30034	10859.9375
532.35792	10840.1375
536.41261	10606.4375
540.46441	10273.6375
544.51333	10087.1375
548.55936	10118.3375
552.60252	10390.9375
556.64279	10865.9375
560.6802	11277.5375
564.71473	11394.9375
568.7464	11579.2375
572.7752	12079.8375
576.80114	12525.2375
580.82422	12898.2375
584.84444	13677.6375
588.86181	15182.3375
592.87633	17176.8375
596.888	18265.4375
600.89682	16986.5375
604.9028	15292.8375
608.90594	15711.9375
612.90624	17107.5375
616.90371	16046.6375
620.89834	12601.0375
624.89015	10858.8375
628.87913	10626.8375
632.86528	10797.6375
636.84862	10799.2375
640.82913	10473.8375
644.80683	10029.3375
648.78172	9736.5375
652.75379	9729.8375
656.72306	9992.0375
660.68952	10295.0375
664.65319	10210.8375
668.61405	9802.0375
672.57211	9679.8375
676.52738	9762.6375
680.47986	9790.9375
684.42955	9629.5375
688.37646	9516.7375
692.32058	9606.4375
696.26192	9804.1375
700.20048	10022.5375
704.13626	10183.6375
708.06928	10205.9375
711.99952	10231.5375
715.927	10230.2375
719.85171	10286.3375
723.77365	10202.6375
727.69284	9986.9375
731.60928	9824.5375
735.52295	9833.3375
739.43388	9971.8375
743.34206	10052.2375
747.24749	10124.0375
751.15017	10275.2375
755.05012	10485.0375
758.94733	10876.4375
762.8418	11750.2375
766.73354	13184.1375
770.62254	14627.6375
774.50882	14992.6375
778.39237	14106.5375
782.27321	12736.0375
786.15132	11465.6375
790.02671	10634.3375
793.89938	10179.2375
797.76935	9934.1375
801.6366	9784.5375
805.50115	9697.0375
809.36299	9612.9375
813.22213	9550.3375
817.07857	9476.1375
820.93231	9451.1375
824.78336	9370.9375
828.63172	9360.7375
832.47738	9331.3375
836.32036	9328.6375
840.16066	9367.1375
843.99827	9372.1375
847.8332	9365.4375
851.66546	9362.1375
855.49504	9379.1375
859.32195	9368.3375
863.1462	9312.6375
866.96777	9257.5375
870.78668	9244.4375
874.60293	9246.5375
878.41652	9259.9375
882.22745	9348.7375
886.03573	9422.7375
889.84136	9430.9375
893.64433	9373.4375
897.44466	9376.7375
901.24235	9339.6375
905.0374	9315.2375
908.8298	9224.1375
912.61957	9186.6375
916.40671	9257.7375
920.19121	9423.2375
923.97308	9637.0375
927.75233	9795.6375
931.52895	9701.9375
935.30295	9399.0375
939.07433	9087.9375
942.84309	8851.3375
946.60924	8760.6375
950.37278	8724.4375
954.13371	8694.9375
957.89203	8715.7375
961.64774	8695.7375
965.40086	8705.5375
969.15137	8684.7375
972.89929	8678.9375
976.64461	8628.1375
980.38733	8624.7375
984.12747	8620.8375
987.86502	8672.9375
991.59999	8758.7375
995.33237	8853.0375
999.06217	9104.6375
1002.78939	9434.5375
1006.51404	9829.0375
1010.23611	10194.6375
1013.95561	10382.8375
1017.67255	10409.6375
1021.38692	10171.6375
1025.09872	9746.4375
1028.80796	9389.5375
1032.51465	9283.4375
1036.21877	9258.7375
1039.92035	9330.6375
1043.61937	9409.3375
1047.31584	9475.8375
1051.00976	9484.8375
1054.70114	9511.9375
1058.38998	9514.5375
1062.07627	9545.3375
1065.76003	9649.0375
1069.44126	9817.5375
1073.11995	10085.2375
1076.79611	10346.6375
1080.46974	10537.4375
1084.14085	10741.3375
1087.80943	11032.5375
1091.47549	11176.3375
1095.13903	11108.1375
1098.80005	10802.1375
1102.45857	10349.7375
1106.11456	10172.8375
1109.76805	10174.6375
1113.41903	10248.3375
1117.06751	10440.4375
1120.71348	10693.4375
1124.35696	10987.8375
1127.99793	11243.3375
1131.63641	11310.2375
1135.2724	11170.1375
1138.90589	11015.2375
1142.5369	10988.4375
1146.16542	11110.6375
1149.79145	11294.9375
1153.415	11520.0375
1157.03607	11625.7375
1160.65467	11849.2375
1164.27079	12393.8375
1167.88443	13263.9375
1171.49561	14468.1375
1175.10432	16282.5375
1178.71056	18525.4375
1182.31434	20515.3375
1185.91565	21089.3375
1189.51451	20259.9375
1193.11091	18973.8375
1196.70485	17623.0375
1200.29634	16453.1375
1203.88538	15475.3375
1207.47197	14782.4375
1211.05612	14363.2375
1214.63782	14101.8375
1218.21708	13968.5375
1221.79391	14110.4375
1225.36829	14386.0375
1228.94024	14506.8375
1232.50976	14154.6375
1236.07685	13490.3375
1239.6415	12939.3375
1243.20374	12677.8375
1246.76355	12607.9375
1250.32093	12740.6375
1253.8759	13004.3375
1257.42845	13476.8375
1260.97859	14049.6375
1264.52631	14693.1375
1268.07163	15348.7375
1271.61453	15922.1375
1275.15503	16474.6375
1278.69312	17161.5375
1282.22882	17983.2375
1285.76211	19192.0375
1289.29301	20601.6375
1292.82151	22087.9375
1296.34761	23674.9375
1299.87133	25495.4375
1303.39266	27460.5375
1306.9116	29409.2375
1310.42815	31177.4375
1313.94233	31965.3375
1317.45412	31128.9375
1320.96354	29189.6375
1324.47058	27135.1375
1327.97525	25435.5375
1331.47754	24214.9375
1334.97747	23401.1375
1338.47502	22809.4375
1341.97022	22415.0375
1345.46305	22296.0375
1348.95352	22647.9375
1352.44163	23796.6375
1355.92738	25975.5375
1359.41078	29124.5375
1362.89183	31947.0375
1366.37053	32221.2375
1369.84688	28920.2375
1373.32088	24187.9375
1376.79254	20989.0375
1380.26186	19739.6375
1383.72883	19263.4375
1387.19347	18808.1375
1390.65578	18239.4375
1394.11575	18083.3375
1397.57339	18304.5375
1401.0287	18563.3375
1404.48168	18685.5375
1407.93234	18439.6375
1411.38068	17942.5375
1414.82669	17322.2375
1418.27039	16692.7375
1421.71177	16115.3375
1425.15083	15617.0375
1428.58758	15379.4375
1432.02203	15551.4375
1435.45416	15945.7375
1438.88399	16228.8375
1442.31151	16354.1375
1445.73673	16425.3375
1449.15965	16516.3375
1452.58027	16476.6375
1455.9986	16375.7375
1459.41463	16369.8375
1462.82837	16764.8375
1466.23982	17330.4375
1469.64898	17915.8375
1473.05586	18357.9375
1476.46045	18619.9375
1479.86276	18782.2375
1483.26279	18881.8375
1486.66054	19109.7375
1490.05602	19585.3375
1493.44922	20226.1375
1496.84016	20823.8375
1500.22882	21452.7375
1503.61521	22185.2375
1506.99934	23052.9375
1510.38121	23682.7375
1513.76081	23707.9375
1517.13816	22792.8375
1520.51324	21561.2375
1523.88607	20609.6375
1527.25665	20275.5375
1530.62498	20200.1375
1533.99105	19916.3375
1537.35488	19360.9375
1540.71647	18505.9375
1544.07581	17677.6375
1547.4329	16823.5375
1550.78776	16163.8375
1554.14038	15751.6375
1557.49077	15578.8375
1560.83892	15568.0375
1564.18484	15767.4375
1567.52853	16118.7375
1570.86999	16548.7375
1574.20922	16971.0375
1577.54624	17115.0375
1580.88103	16855.5375
1584.2136	16513.3375
1587.54395	16862.5375
1590.87208	17930.4375
1594.19801	19679.8375
1597.52172	21460.9375
1600.84321	22046.4375
1604.16251	20825.4375
1607.47959	18442.5375
1610.79447	15999.8375
1614.10715	13969.2375
1617.41763	12605.5375
1620.7259	11810.6375
1624.03199	11517.7375
1627.33587	11642.6375
1630.63757	12147.3375
1633.93707	13320.5375
1637.23439	15449.9375
1640.52951	18902.6375
1643.82246	23387.0375
1647.11321	27244.9375
1650.40179	28010.0375
1653.68819	25149.1375
1656.97241	20283.4375
1660.25446	15862.0375
1663.53433	12915.1375
1666.81203	11172.1375
1670.08756	10180.6375
1673.36092	9589.0375
1676.63211	9191.1375
1679.90115	8957.2375
1683.16801	8756.3375
1686.43272	8610.1375
1689.69527	8481.1375
1692.95567	8393.8375
1696.2139	8344.0375
1699.46999	8301.6375
1702.72392	8246.0375
1705.97571	8219.6375
1709.22535	8176.4375
1712.47284	8194.2375
1715.71819	8172.4375
1718.96139	8132.2375
1722.20246	8101.2375
1725.44139	8033.1375
1728.67818	7952.8375
1731.91284	7901.4375
1735.14537	7842.2375
1738.37576	7780.1375
1741.60403	7740.5375
1744.83017	7708.1375
1748.05418	7687.1375
1751.27607	7645.0375
1754.49584	7614.6375
1757.71349	7609.3375
1760.92903	7608.8375
1764.14244	7582.9375
1767.35375	7573.3375
1770.56294	7555.4375
1773.77002	7538.0375
1776.97499	7518.4375
1780.17785	7493.3375
1783.37861	7494.9375
1786.57727	7459.2375
1789.77382	7412.9375
1792.96828	7440.5375
1796.16064	7402.7375
1799.3509	7385.3375
1802.53907	7366.8375
1805.72514	7332.0375
1808.90913	7326.2375
1812.09102	7285.2375
1815.27083	7250.5375
1818.44856	7262.4375
1821.6242	7229.7375
1824.79776	7250.8375
1827.96924	7219.2375
1831.13864	7207.2375
1834.30597	7225.2375
1837.47122	7211.9375
1840.6344	7213.5375
1843.7955	7234.8375
1846.95454	7208.3375
1850.11151	7211.5375
1853.26642	7206.5375
1856.41926	7225.3375
1859.57004	7227.9375
1862.71876	7220.0375
1865.86542	7211.2375
1869.01003	7228.0375
1872.15258	7216.0375
1875.29308	7258.7375
1878.43152	7271.0375
1881.56792	7277.3375
1884.70227	7293.5375
1887.83457	7308.9375
1890.96482	7304.3375
1894.09304	7330.5375
1897.21921	7340.5375
1900.34335	7352.5375
1903.46544	7335.1375
1906.58551	7347.3375
1909.70353	7296.2375
1912.81953	7289.7375
1915.93349	7249.2375
1919.04543	7242.4375
1922.15534	7211.5375
1925.26322	7188.9375
1928.36908	7172.7375
1931.47292	7128.6375
1934.57473	7112.6375
1937.67453	7090.7375
1940.77232	7048.7375
1943.86808	7022.2375
1946.96184	7020.6375
1950.05358	7010.6375
1953.14331	7002.4375
1956.23103	6984.7375
1959.31675	6961.3375
1962.40046	6918.7375
1965.48217	6897.8375
1968.56188	6878.9375
1971.63959	6857.2375
1974.7153	6812.6375
1977.78901	6781.8375
1980.86073	6741.0375
1983.93046	6712.0375
1986.99819	6673.7375
1990.06394	6645.0375
1993.1277	6654.5375
1996.18947	6622.0375
1999.24925	6612.2375
2002.30706	6608.6375
2005.36288	6617.8375
2008.41672	6593.5375
2011.46859	6578.4375
2014.51848	6579.1375
2017.56639	6548.1375
2020.61233	6522.7375
2023.6563	6520.3375
2026.6983	6467.9375
2029.73833	6469.0375
2032.7764	6435.2375
2035.8125	6404.1375
2038.84664	6370.8375
2041.87881	6369.9375
2044.90903	6329.1375
2047.93729	6323.4375
2050.96359	6308.4375
2053.98794	6305.7375
2057.01034	6296.7375
2060.03078	6317.1375
2063.04927	6318.9375
2066.06582	6325.7375
2069.08042	6365.9375
2072.09307	6367.6375
2075.10378	6373.5375
2078.11255	6397.1375
2081.11938	6445.5375
2084.12426	6428.7375
2087.12722	6437.0375
2090.12824	6433.3375
2093.12732	6439.7375
2096.12447	6409.2375
2099.11969	6402.1375
2102.11299	6397.0375
2105.10435	6393.1375
2108.09379	6386.9375
2111.08131	6362.8375
2114.0669	6332.9375
2117.05057	6323.1375
2120.03233	6329.3375
2123.01216	6309.2375
2125.99008	6311.7375
2128.96609	6322.6375
2131.94018	6306.0375
2134.91236	6327.8375
2137.88263	6299.7375
2140.851	6288.4375
2143.81746	6300.0375
2146.78201	6278.5375
2149.74466	6285.4375
2152.7054	6265.6375
2155.66425	6240.0375
2158.6212	6232.1375
2161.57625	6215.5375
2164.52941	6192.6375
2167.48067	6162.4375
2170.43004	6139.7375
2173.37752	6130.3375
2176.32311	6098.6375
2179.26681	6122.0375
2182.20863	6099.0375
2185.14856	6091.3375
2188.08661	6106.4375
2191.02278	6086.9375
2193.95707	6068.1375
2196.88948	6069.5375
2199.82001	6067.0375
2202.74867	6037.8375
2205.67545	6027.7375
2208.60037	6015.3375
2211.52341	6007.2375
2214.44458	5984.3375
2217.36388	5983.2375
2220.28132	5978.4375
2223.1969	5937.0375
2226.11061	5939.5375
2229.02246	5924.7375
2231.93245	5944.9375
2234.84058	5918.7375
2237.74686	5926.9375
2240.65128	5922.1375
2243.55385	5916.1375
2246.45456	5911.5375
2249.35343	5892.1375
2252.25044	5874.2375
2255.14561	5867.7375
2258.03893	5831.5375
2260.93041	5828.8375
2263.82004	5788.2375
2266.70783	5788.5375
2269.59378	5788.5375
2272.4779	5756.8375
2275.36017	5754.2375
2278.24061	5732.3375
2281.11922	5737.4375
2283.996	5723.2375
2286.87094	5707.3375
2289.74405	5698.1375
2292.61534	5705.8375
2295.4848	5675.0375
2298.35243	5676.5375
2301.21824	5676.1375
2304.08223	5671.8375
2306.94439	5665.4375
2309.80474	5655.1375
2312.66327	5668.6375
2315.51999	5667.1375
2318.37489	5646.1375
2321.22797	5640.5375
2324.07925	5628.0375
2326.92871	5619.9375
2329.77637	5611.9375
2332.62222	5605.2375
2335.46626	5612.3375
2338.3085	5582.3375
2341.14893	5609.1375
2343.98756	5601.9375
2346.8244	5605.1375
2349.65943	5614.4375
2352.49267	5602.3375
2355.32411	5612.3375
2358.15376	5618.5375
2360.98161	5609.1375
2363.80768	5609.6375
2366.63195	5603.8375
2369.45444	5600.6375
2372.27514	5602.5375
2375.09405	5583.6375
2377.91118	5586.6375
2380.72652	5556.6375
2383.54009	5568.1375
2386.35187	5548.6375
2389.16188	5508.1375
2391.97011	5521.8375
2394.77657	5505.3375
2397.58125	5496.0375
2400.38416	5485.1375
2403.18529	5481.7375
2405.98466	5475.1375
2408.78226	5463.7375
2411.57809	5442.2375
2414.37216	5450.0375
2417.16446	5435.3375
2419.955	5430.2375
2422.74378	5444.7375
2425.5308	5438.8375
2428.31606	5423.6375
2431.09956	5430.4375
2433.88131	5419.2375
2436.6613	5401.2375
2439.43954	5393.6375
2442.21603	5413.3375
2444.99077	5426.1375
2447.76377	5427.6375
2450.53501	5414.8375
2453.30451	5425.8375
2456.07226	5422.5375
2458.83827	5418.9375
2461.60254	5442.3375
2464.36507	5427.8375
2467.12586	5422.5375
2469.88492	5429.0375
2472.64224	5439.1375
2475.39782	5411.9375
2478.15167	5426.2375
2480.90379	5411.9375
2483.65417	5414.0375
2486.40283	5424.6375
2489.14976	5408.8375
2491.89497	5430.8375
2494.63845	5428.6375
2497.3802	5415.6375
2500.12024	5418.1375
2502.85855	5433.8375
2505.59514	5422.1375
2508.33002	5394.5375
2511.06318	5391.0375
2513.79462	5396.9375
2516.52435	5377.7375
2519.25237	5363.1375
2521.97867	5347.9375
2524.70327	5351.0375
2527.42616	5347.6375
2530.14734	5324.0375
2532.86681	5346.1375
2535.58458	5322.5375
2538.30065	5309.8375
2541.01501	5336.8375
2543.72768	5330.6375
2546.43864	5331.1375
2549.14791	5318.7375
2551.85548	5307.9375
2554.56136	5316.0375
2557.26554	5311.5375
2559.96803	5316.0375
2562.66883	5299.7375
2565.36794	5316.0375
2568.06536	5289.8375
2570.7611	5286.9375
2573.45514	5281.9375
2576.14751	5279.0375
2578.83819	5278.0375
2581.52719	5275.9375
2584.21451	5278.5375
2586.90015	5257.4375
2589.58411	5253.9375
2592.2664	5251.0375
2594.94701	5246.2375
2597.62594	5245.3375
2600.30321	5234.6375
2602.9788	5224.5375
2605.65273	5216.4375
2608.32498	5245.8375
2610.99557	5234.4375
2613.66449	5219.3375
2616.33175	5224.6375
2618.99734	5230.4375
2621.66128	5225.1375
2624.32355	5222.8375
2626.98416	5197.7375
2629.64311	5186.0375
2632.30041	5191.3375
2634.95605	5201.5375
2637.61004	5173.4375
2640.26238	5184.0375
2642.91306	5190.3375
2645.56209	5182.2375
2648.20948	5185.4375
2650.85521	5188.5375
2653.4993	5191.7375
2656.14175	5199.5375
2658.78255	5227.3375
2661.42171	5214.3375
2664.05923	5208.4375
2666.6951	5224.6375
2669.32934	5251.5375
2671.96194	5225.4375
2674.59291	5219.6375
2677.22224	5211.7375
2679.84993	5254.3375
2682.476	5224.2375
2685.10043	5246.5375
2687.72324	5220.0375
2690.34441	5223.7375
2692.96396	5211.8375
2695.58188	5213.7375
2698.19818	5189.9375
2700.81285	5219.1375
2703.4259	5224.7375
2706.03733	5204.2375
2708.64714	5211.4375
2711.25533	5225.2375
2713.86191	5214.1375
2716.46687	5221.7375
2719.07021	5239.3375
2721.67194	5239.8375
2724.27206	5236.0375
2726.87057	5247.1375
2729.46747	5244.3375
2732.06276	5261.6375
2734.65644	5233.3375
2737.24852	5246.2375
2739.83899	5243.7375
2742.42786	5227.5375
2745.01513	5220.1375
2747.60079	5204.6375
2750.18486	5199.4375
2752.76733	5200.0375
2755.3482	5216.4375
2757.92747	5241.7375
2760.50515	5222.1375
2763.08123	5227.2375
2765.65573	5223.1375
2768.22863	5189.8375
2770.79994	5218.3375
2773.36967	5204.3375
2775.9378	5204.7375
2778.50435	5202.3375
2781.06932	5209.3375
2783.6327	5215.5375
2786.1945	5199.8375
2788.75471	5199.9375
2791.31335	5177.5375
2793.87041	5189.3375
2796.42589	5163.3375
2798.97979	5180.5375
2801.53212	5165.6375
2804.08288	5171.7375
2806.63206	5171.5375
2809.17967	5142.5375
2811.72571	5127.9375
2814.27018	5146.8375
2816.81308	5128.7375
2819.35442	5124.1375
2821.89419	5139.5375
2824.43239	5139.7375
2826.96904	5137.0375
2829.50412	5155.5375
2832.03763	5129.8375
2834.56959	5149.7375
2837.1	5141.4375
2839.62884	5140.3375
2842.15613	5132.3375
2844.68186	5146.4375
2847.20604	5173.2375
2849.72867	5174.5375
2852.24974	5183.7375
2854.76927	5178.5375
2857.28724	5169.6375
2859.80367	5164.2375
2862.31855	5168.8375
2864.83189	5177.8375
2867.34368	5156.7375
2869.85393	5168.4375
2872.36264	5183.2375
2874.8698	5176.7375
2877.37543	5192.2375
2879.87952	5204.6375
2882.38207	5191.8375
2884.88308	5174.7375
2887.38256	5190.1375
2889.88051	5188.7375
2892.37692	5193.7375
2894.8718	5191.0375
2897.36515	5193.2375
2899.85698	5184.0375
2902.34727	5195.9375
2904.83604	5195.7375
2907.32328	5211.2375
2909.809	5201.6375
2912.29319	5183.9375
2914.77587	5191.4375
2917.25702	5177.6375
2919.73665	5186.1375
2922.21476	5180.1375
2924.69136	5193.3375
2927.16644	5171.4375
2929.64	5161.1375
2932.11205	5151.2375
2934.58258	5133.6375
2937.05161	5132.4375
2939.51912	5124.4375
2941.98513	5121.7375
2944.44962	5113.6375
2946.91261	5088.1375
2949.37409	5083.7375
2951.83407	5068.5375
2954.29254	5054.6375
2956.74951	5044.7375
2959.20498	5048.5375
2961.65895	5035.0375
2964.11142	5003.6375
2966.56239	4990.4375
2969.01186	4975.9375
2971.45984	4955.8375
2973.90632	4927.9375
2976.35131	4925.6375
2978.7948	4913.8375
2981.23681	4895.4375
2983.67732	4877.1375
2986.11635	4851.9375
2988.55388	4867.1375
2990.98993	4849.2375
2993.4245	4831.7375
2995.85758	4830.1375
2998.28917	4813.6375
3000.71928	4815.9375
3003.14791	4811.4375
3005.57506	4793.8375
3008.00073	4774.2375
3010.42493	4791.3375
3012.84764	4755.2375
3015.26888	4768.5375
3017.68865	4737.1375
3020.10694	4737.0375
3022.52376	4710.4375
3024.9391	4708.5375
3027.35298	4703.0375
3029.76539	4706.6375
3032.17632	4678.7375
3034.5858	4658.3375
3036.9938	4666.6375
3039.40034	4661.0375
3041.80542	4645.6375
3044.20903	4647.5375
3046.61118	4642.3375
3049.01187	4634.5375
3051.4111	4632.4375
3053.80888	4622.8375
3056.20519	4607.8375
3058.60005	4621.0375
3060.99345	4609.8375
3063.3854	4588.2375
3065.7759	4578.3375
3068.16494	4580.0375
3070.55254	4557.8375
3072.93868	4559.8375
3075.32338	4542.9375
3077.70662	4521.9375
3080.08842	4504.4375
3082.46878	4528.3375
3084.84769	4503.5375
3087.22515	4499.1375
3089.60118	4505.9375
3091.97576	4492.5375
