Data from AuAgCoreShell_UA_100uM_CRN_0uM_R6G_10uM_Scan_RamanShift__35__14-50-09-811.txt Node

Date: Thu Jun 23 14:50:09 BST 2022
User: TCL
Spectrometer: QEP01345
Trigger mode: 4
Integration Time (sec): 7.000000E0
Scans to average: 10
Electric dark correction enabled: true
Nonlinearity correction enabled: false
Boxcar width: 0
XAxis mode: Raman Shifts
Number of Pixels in Spectrum: 1044
>>>>>Begin Spectral Data<<<<<
46.04893	-1.2375
50.45542	-1.3375
54.85868	-0.7375
59.25871	-0.6375
63.6555	31.8625
68.04907	31.1625
72.43941	32.5625
76.82654	31.4625
81.21044	39.3625
85.59113	39.3625
89.96862	45.6625
94.34289	43.8625
98.71396	44.6625
103.08183	44.6625
107.4465	47.5625
111.80798	46.2625
116.16626	49.0625
120.52136	47.1625
124.87327	49.6625
129.222	44.4625
133.56755	47.6625
137.90993	45.2625
142.24913	44.4625
146.58517	42.4625
150.91804	50.5625
155.24774	49.7625
159.57429	55.7625
163.89768	57.2625
168.21792	69.2625
172.53501	81.2625
176.84895	99.5625
181.15975	121.9625
185.46741	166.1625
189.77193	222.1625
194.07331	287.6625
198.37157	360.1625
202.6667	444.5625
206.9587	514.8625
211.24758	592.8625
215.53334	671.7625
219.81599	736.8625
224.09553	830.5625
228.37195	907.7625
232.64527	1011.5625
236.91549	1122.8625
241.18261	1229.8625
245.44663	1343.5625
249.70755	1443.6625
253.96539	1548.3625
258.22014	1638.3625
262.4718	1690.7625
266.72039	1741.6625
270.96589	1761.0625
275.20832	1763.5625
279.44768	1749.0625
283.68397	1742.1625
287.91719	1718.2625
292.14735	1700.0625
296.37445	1687.8625
300.59849	1681.4625
304.81948	1683.6625
309.03742	1678.0625
313.25231	1690.1625
317.46415	1683.1625
321.67296	1678.6625
325.87872	1680.2625
330.08145	1689.0625
334.28114	1714.0625
338.47781	1726.2625
342.67145	1749.4625
346.86207	1794.8625
351.04966	1816.0625
355.23424	1842.0625
359.4158	1877.3625
363.59435	1914.2625
367.76989	1934.3625
371.94243	1969.9625
376.11196	1987.7625
380.27849	2012.9625
384.44203	2041.0625
388.60257	2071.3625
392.76012	2081.5625
396.91468	2105.7625
401.06626	2135.4625
405.21485	2159.9625
409.36047	2182.9625
413.50311	2194.2625
417.64277	2208.9625
421.77947	2225.2625
425.9132	2259.3625
430.04396	2269.0625
434.17176	2306.5625
438.2966	2315.2625
442.41849	2332.7625
446.53742	2366.3625
450.6534	2376.7625
454.76644	2398.3625
458.87653	2408.1625
462.98368	2433.1625
467.08789	2448.6625
471.18916	2469.8625
475.2875	2474.1625
479.38291	2490.1625
483.4754	2511.0625
487.56496	2538.2625
491.6516	2550.7625
495.73531	2582.7625
499.81612	2569.2625
503.89401	2577.0625
507.96899	2575.1625
512.04106	2572.8625
516.11023	2603.2625
520.1765	2613.4625
524.23987	2636.5625
528.30034	2657.0625
532.35792	2669.6625
536.41261	2699.1625
540.46441	2706.9625
544.51333	2727.0625
548.55936	2741.0625
552.60252	2746.8625
556.64279	2768.8625
560.6802	2782.1625
564.71473	2806.0625
568.7464	2812.7625
572.7752	2829.6625
576.80114	2834.1625
580.82422	2841.2625
584.84444	2858.3625
588.86181	2868.7625
592.87633	2866.0625
596.888	2898.4625
600.89682	2894.8625
604.9028	2930.0625
608.90594	2999.4625
612.90624	3069.4625
616.90371	3086.4625
620.89834	3037.7625
624.89015	3034.9625
628.87913	3067.0625
632.86528	3105.1625
636.84862	3144.5625
640.82913	3152.7625
644.80683	3124.0625
648.78172	3102.4625
652.75379	3072.3625
656.72306	3062.2625
660.68952	3072.0625
664.65319	3078.0625
668.61405	3066.3625
672.57211	3080.9625
676.52738	3100.7625
680.47986	3110.7625
684.42955	3124.7625
688.37646	3131.8625
692.32058	3150.2625
696.26192	3160.0625
700.20048	3177.4625
704.13626	3194.1625
708.06928	3204.3625
711.99952	3206.3625
715.927	3215.3625
719.85171	3239.2625
723.77365	3252.1625
727.69284	3254.7625
731.60928	3290.3625
735.52295	3283.3625
739.43388	3297.9625
743.34206	3301.5625
747.24749	3323.0625
751.15017	3352.4625
755.05012	3347.8625
758.94733	3364.2625
762.8418	3401.6625
766.73354	3448.8625
770.62254	3482.1625
774.50882	3508.8625
778.39237	3513.0625
782.27321	3502.8625
786.15132	3474.8625
790.02671	3486.2625
793.89938	3480.8625
797.76935	3487.0625
801.6366	3521.1625
805.50115	3564.7625
809.36299	3583.2625
813.22213	3605.7625
817.07857	3615.6625
820.93231	3598.3625
824.78336	3598.0625
828.63172	3600.1625
832.47738	3597.6625
836.32036	3614.4625
840.16066	3616.8625
843.99827	3630.5625
847.8332	3646.1625
851.66546	3660.0625
855.49504	3672.9625
859.32195	3672.1625
863.1462	3712.9625
866.96777	3723.7625
870.78668	3762.0625
874.60293	3786.7625
878.41652	3828.3625
882.22745	3851.7625
886.03573	3874.0625
889.84136	3883.8625
893.64433	3900.8625
897.44466	3891.1625
901.24235	3893.1625
905.0374	3876.9625
908.8298	3894.2625
912.61957	3910.6625
916.40671	3905.7625
920.19121	3899.0625
923.97308	3923.2625
927.75233	3938.8625
931.52895	3944.6625
935.30295	3954.1625
939.07433	3981.4625
942.84309	3974.5625
946.60924	4000.8625
950.37278	4008.1625
954.13371	4012.0625
957.89203	4010.9625
961.64774	4023.9625
965.40086	4025.7625
969.15137	4022.8625
972.89929	4020.5625
976.64461	4038.4625
980.38733	4066.6625
984.12747	4071.3625
987.86502	4085.8625
991.59999	4114.3625
995.33237	4110.1625
999.06217	4155.8625
1002.78939	4170.3625
1006.51404	4193.6625
1010.23611	4217.8625
1013.95561	4261.0625
1017.67255	4274.5625
1021.38692	4285.1625
1025.09872	4301.7625
1028.80796	4315.0625
1032.51465	4323.2625
1036.21877	4349.7625
1039.92035	4354.6625
1043.61937	4383.6625
1047.31584	4398.4625
1051.00976	4428.0625
1054.70114	4445.9625
1058.38998	4510.8625
1062.07627	4508.5625
1065.76003	4539.4625
1069.44126	4587.9625
1073.11995	4618.7625
1076.79611	4635.4625
1080.46974	4660.3625
1084.14085	4686.5625
1087.80943	4695.3625
1091.47549	4708.7625
1095.13903	4729.2625
1098.80005	4710.4625
1102.45857	4731.6625
1106.11456	4756.8625
1109.76805	4766.5625
1113.41903	4780.5625
1117.06751	4795.2625
1120.71348	4821.3625
1124.35696	4874.2625
1127.99793	4904.2625
1131.63641	4956.8625
1135.2724	4975.7625
1138.90589	4989.9625
1142.5369	4964.7625
1146.16542	4941.3625
1149.79145	4912.8625
1153.415	4894.2625
1157.03607	4888.6625
1160.65467	4885.6625
1164.27079	4884.7625
1167.88443	4906.5625
1171.49561	4932.8625
1175.10432	4971.9625
1178.71056	5016.7625
1182.31434	5054.7625
1185.91565	5072.2625
1189.51451	5075.1625
1193.11091	5104.2625
1196.70485	5117.7625
1200.29634	5165.1625
1203.88538	5194.6625
1207.47197	5197.8625
1211.05612	5183.2625
1214.63782	5174.5625
1218.21708	5176.3625
1221.79391	5151.0625
1225.36829	5176.4625
1228.94024	5197.6625
1232.50976	5182.7625
1236.07685	5200.4625
1239.6415	5218.7625
1243.20374	5250.2625
1246.76355	5270.3625
1250.32093	5304.2625
1253.8759	5328.8625
1257.42845	5350.9625
1260.97859	5337.6625
1264.52631	5375.5625
1268.07163	5363.8625
1271.61453	5380.8625
1275.15503	5391.5625
1278.69312	5385.5625
1282.22882	5372.6625
1285.76211	5395.5625
1289.29301	5392.7625
1292.82151	5403.5625
1296.34761	5457.0625
1299.87133	5485.2625
1303.39266	5517.7625
1306.9116	5554.3625
1310.42815	5593.6625
1313.94233	5619.8625
1317.45412	5618.5625
1320.96354	5607.5625
1324.47058	5557.9625
1327.97525	5562.2625
1331.47754	5537.0625
1334.97747	5522.8625
1338.47502	5547.2625
1341.97022	5553.8625
1345.46305	5590.2625
1348.95352	5630.2625
1352.44163	5663.5625
1355.92738	5695.1625
1359.41078	5766.3625
1362.89183	5831.1625
1366.37053	5782.2625
1369.84688	5729.9625
1373.32088	5650.4625
1376.79254	5626.8625
1380.26186	5600.8625
1383.72883	5594.6625
1387.19347	5567.9625
1390.65578	5539.1625
1394.11575	5521.4625
1397.57339	5494.9625
1401.0287	5473.6625
1404.48168	5469.6625
1407.93234	5469.7625
1411.38068	5465.3625
1414.82669	5473.5625
1418.27039	5473.9625
1421.71177	5479.6625
1425.15083	5465.6625
1428.58758	5467.5625
1432.02203	5485.7625
1435.45416	5474.2625
1438.88399	5502.7625
1442.31151	5460.2625
1445.73673	5463.2625
1449.15965	5490.2625
1452.58027	5479.2625
1455.9986	5509.9625
1459.41463	5498.9625
1462.82837	5528.2625
1466.23982	5536.8625
1469.64898	5553.0625
1473.05586	5560.0625
1476.46045	5584.7625
1479.86276	5590.9625
1483.26279	5628.7625
1486.66054	5641.8625
1490.05602	5704.1625
1493.44922	5742.6625
1496.84016	5780.6625
1500.22882	5829.4625
1503.61521	5877.5625
1506.99934	5947.9625
1510.38121	6013.0625
1513.76081	6028.0625
1517.13816	6004.7625
1520.51324	5968.8625
1523.88607	5960.7625
1527.25665	5971.2625
1530.62498	5983.1625
1533.99105	5984.3625
1537.35488	6034.4625
1540.71647	6068.1625
1544.07581	6089.8625
1547.4329	6116.8625
1550.78776	6146.5625
1554.14038	6169.6625
1557.49077	6186.2625
1560.83892	6216.8625
1564.18484	6229.2625
1567.52853	6242.6625
1570.86999	6268.3625
1574.20922	6282.8625
1577.54624	6314.9625
1580.88103	6321.6625
1584.2136	6328.0625
1587.54395	6328.4625
1590.87208	6314.5625
1594.19801	6314.4625
1597.52172	6334.1625
1600.84321	6370.7625
1604.16251	6380.2625
1607.47959	6383.4625
1610.79447	6411.8625
1614.10715	6408.9625
1617.41763	6416.3625
1620.7259	6420.5625
1624.03199	6438.3625
1627.33587	6445.1625
1630.63757	6470.9625
1633.93707	6459.7625
1637.23439	6460.0625
1640.52951	6492.6625
1643.82246	6549.6625
1647.11321	6587.2625
1650.40179	6642.9625
1653.68819	6639.5625
1656.97241	6646.3625
1660.25446	6611.5625
1663.53433	6597.9625
1666.81203	6585.6625
1670.08756	6559.4625
1673.36092	6528.9625
1676.63211	6502.5625
1679.90115	6483.0625
1683.16801	6473.0625
1686.43272	6483.8625
1689.69527	6484.4625
1692.95567	6507.0625
1696.2139	6540.9625
1699.46999	6553.5625
1702.72392	6576.2625
1705.97571	6562.1625
1709.22535	6557.1625
1712.47284	6551.4625
1715.71819	6550.6625
1718.96139	6547.8625
1722.20246	6558.1625
1725.44139	6580.1625
1728.67818	6557.5625
1731.91284	6547.5625
1735.14537	6555.3625
1738.37576	6571.0625
1741.60403	6596.0625
1744.83017	6566.7625
1748.05418	6589.2625
1751.27607	6576.7625
1754.49584	6599.7625
1757.71349	6669.2625
1760.92903	6691.2625
1764.14244	6700.7625
1767.35375	6725.1625
1770.56294	6711.0625
1773.77002	6713.0625
1776.97499	6706.5625
1780.17785	6716.2625
1783.37861	6711.7625
1786.57727	6737.8625
1789.77382	6728.7625
1792.96828	6734.8625
1796.16064	6754.2625
1799.3509	6783.7625
1802.53907	6761.6625
1805.72514	6775.0625
1808.90913	6761.9625
1812.09102	6763.3625
1815.27083	6777.1625
1818.44856	6771.3625
1821.6242	6767.7625
1824.79776	6795.7625
1827.96924	6804.7625
1831.13864	6819.4625
1834.30597	6853.8625
1837.47122	6836.8625
1840.6344	6845.6625
1843.7955	6876.0625
1846.95454	6868.4625
1850.11151	6865.1625
1853.26642	6875.8625
1856.41926	6874.8625
1859.57004	6895.6625
1862.71876	6910.7625
1865.86542	6917.2625
1869.01003	6912.5625
1872.15258	6923.2625
1875.29308	6940.3625
1878.43152	6944.1625
1881.56792	6937.7625
1884.70227	6942.2625
1887.83457	6949.5625
1890.96482	6953.3625
1894.09304	6958.8625
1897.21921	6969.8625
1900.34335	6977.4625
1903.46544	6993.1625
1906.58551	6998.1625
1909.70353	6996.3625
1912.81953	7028.4625
1915.93349	7024.9625
1919.04543	7054.0625
1922.15534	7043.3625
1925.26322	7058.8625
1928.36908	7070.1625
1931.47292	7078.4625
1934.57473	7071.6625
1937.67453	7077.0625
1940.77232	7074.2625
1943.86808	7067.0625
1946.96184	7059.3625
1950.05358	7073.2625
1953.14331	7069.0625
1956.23103	7046.5625
1959.31675	7052.3625
1962.40046	7063.6625
1965.48217	7045.6625
1968.56188	7061.4625
1971.63959	7043.3625
1974.7153	7026.4625
1977.78901	7034.0625
1980.86073	7021.2625
1983.93046	7013.3625
1986.99819	7028.0625
1990.06394	7031.2625
1993.1277	7029.3625
1996.18947	6995.7625
1999.24925	7019.1625
2002.30706	7013.4625
2005.36288	7023.9625
2008.41672	7025.5625
2011.46859	7004.5625
2014.51848	6993.9625
2017.56639	6974.3625
2020.61233	7006.3625
2023.6563	6986.7625
2026.6983	6988.6625
2029.73833	6987.3625
2032.7764	6980.9625
2035.8125	6981.0625
2038.84664	6978.9625
2041.87881	6958.1625
2044.90903	6955.4625
2047.93729	6977.5625
2050.96359	6977.0625
2053.98794	6980.0625
2057.01034	7025.1625
2060.03078	7008.9625
2063.04927	7009.5625
2066.06582	7037.2625
2069.08042	7063.9625
2072.09307	7053.4625
2075.10378	7074.0625
2078.11255	7108.1625
2081.11938	7117.9625
2084.12426	7111.9625
2087.12722	7096.3625
2090.12824	7123.4625
2093.12732	7139.3625
2096.12447	7134.1625
2099.11969	7160.6625
2102.11299	7179.4625
2105.10435	7193.1625
2108.09379	7225.5625
2111.08131	7236.7625
2114.0669	7261.3625
2117.05057	7276.3625
2120.03233	7291.4625
2123.01216	7307.1625
2125.99008	7356.5625
2128.96609	7368.7625
2131.94018	7388.1625
2134.91236	7419.0625
2137.88263	7432.7625
2140.851	7435.0625
2143.81746	7456.2625
2146.78201	7477.5625
2149.74466	7495.7625
2152.7054	7515.3625
2155.66425	7533.0625
2158.6212	7557.3625
2161.57625	7563.9625
2164.52941	7581.0625
2167.48067	7611.3625
2170.43004	7629.7625
2173.37752	7622.6625
2176.32311	7632.9625
2179.26681	7656.9625
2182.20863	7651.9625
2185.14856	7676.5625
2188.08661	7713.1625
2191.02278	7726.6625
2193.95707	7739.9625
2196.88948	7736.1625
2199.82001	7744.3625
2202.74867	7727.1625
2205.67545	7732.4625
2208.60037	7758.2625
2211.52341	7773.2625
2214.44458	7749.6625
2217.36388	7734.2625
2220.28132	7740.4625
2223.1969	7739.8625
2226.11061	7766.3625
2229.02246	7764.0625
2231.93245	7773.6625
2234.84058	7798.6625
2237.74686	7810.6625
2240.65128	7806.7625
2243.55385	7806.9625
2246.45456	7821.6625
2249.35343	7841.6625
2252.25044	7833.4625
2255.14561	7807.0625
2258.03893	7803.7625
2260.93041	7791.0625
2263.82004	7797.5625
2266.70783	7824.8625
2269.59378	7804.7625
2272.4779	7805.6625
2275.36017	7777.4625
2278.24061	7800.8625
2281.11922	7822.9625
2283.996	7818.6625
2286.87094	7838.3625
2289.74405	7822.8625
2292.61534	7834.5625
2295.4848	7829.4625
2298.35243	7859.6625
2301.21824	7823.1625
2304.08223	7838.3625
2306.94439	7863.3625
2309.80474	7883.6625
2312.66327	7888.3625
2315.51999	7880.4625
2318.37489	7897.8625
2321.22797	7893.7625
2324.07925	7911.3625
2326.92871	7914.9625
2329.77637	7908.9625
2332.62222	7877.8625
2335.46626	7871.4625
2338.3085	7859.9625
2341.14893	7894.0625
2343.98756	7914.2625
2346.8244	7929.1625
2349.65943	7939.8625
2352.49267	7955.3625
2355.32411	7950.2625
2358.15376	7953.2625
2360.98161	7988.5625
2363.80768	7989.2625
2366.63195	7986.6625
2369.45444	7968.3625
2372.27514	7983.5625
2375.09405	7997.5625
2377.91118	7990.2625
2380.72652	7983.8625
2383.54009	7979.0625
2386.35187	7990.2625
2389.16188	7969.4625
2391.97011	7979.8625
2394.77657	8000.6625
2397.58125	8022.7625
2400.38416	8006.2625
2403.18529	7994.0625
2405.98466	7998.5625
2408.78226	8002.3625
2411.57809	8013.4625
2414.37216	8036.8625
2417.16446	8025.0625
2419.955	8033.2625
2422.74378	8031.4625
2425.5308	8008.5625
2428.31606	8050.0625
2431.09956	8080.4625
2433.88131	8073.7625
2436.6613	8084.8625
2439.43954	8084.4625
2442.21603	8074.4625
2444.99077	8066.2625
2447.76377	8051.6625
2450.53501	8064.7625
2453.30451	8095.9625
2456.07226	8058.0625
2458.83827	8044.5625
2461.60254	8055.4625
2464.36507	8055.8625
2467.12586	8043.7625
2469.88492	8049.6625
2472.64224	8056.9625
2475.39782	8094.4625
2478.15167	8118.3625
2480.90379	8130.4625
2483.65417	8143.1625
2486.40283	8160.5625
2489.14976	8187.1625
2491.89497	8161.2625
2494.63845	8181.6625
2497.3802	8165.9625
2500.12024	8160.3625
2502.85855	8164.3625
2505.59514	8163.4625
2508.33002	8150.7625
2511.06318	8151.2625
2513.79462	8166.2625
2516.52435	8157.4625
2519.25237	8182.4625
2521.97867	8167.4625
2524.70327	8202.6625
2527.42616	8185.7625
2530.14734	8230.9625
2532.86681	8224.4625
2535.58458	8225.3625
2538.30065	8239.3625
2541.01501	8264.7625
2543.72768	8250.1625
2546.43864	8271.1625
2549.14791	8264.2625
2551.85548	8261.1625
2554.56136	8251.3625
2557.26554	8246.4625
2559.96803	8224.5625
2562.66883	8223.8625
2565.36794	8208.1625
2568.06536	8226.5625
2570.7611	8219.0625
2573.45514	8224.0625
2576.14751	8238.1625
2578.83819	8239.2625
2581.52719	8223.9625
2584.21451	8211.8625
2586.90015	8218.4625
2589.58411	8181.5625
2592.2664	8185.5625
2594.94701	8182.0625
2597.62594	8205.4625
2600.30321	8213.5625
2602.9788	8204.9625
2605.65273	8189.5625
2608.32498	8195.5625
2610.99557	8198.7625
2613.66449	8213.0625
2616.33175	8192.7625
2618.99734	8182.0625
2621.66128	8199.4625
2624.32355	8185.1625
2626.98416	8209.0625
2629.64311	8185.0625
2632.30041	8183.5625
2634.95605	8166.4625
2637.61004	8140.1625
2640.26238	8161.0625
2642.91306	8169.1625
2645.56209	8161.7625
2648.20948	8164.7625
2650.85521	8179.2625
2653.4993	8191.7625
2656.14175	8197.6625
2658.78255	8205.5625
2661.42171	8212.8625
2664.05923	8230.1625
2666.6951	8222.1625
2669.32934	8249.9625
2671.96194	8282.7625
2674.59291	8302.5625
2677.22224	8306.9625
2679.84993	8304.5625
2682.476	8303.4625
2685.10043	8283.7625
2687.72324	8297.6625
2690.34441	8301.7625
2692.96396	8301.6625
2695.58188	8311.0625
2698.19818	8324.2625
2700.81285	8337.9625
2703.4259	8322.2625
2706.03733	8323.8625
2708.64714	8328.6625
2711.25533	8366.6625
2713.86191	8380.9625
2716.46687	8395.3625
2719.07021	8397.8625
2721.67194	8439.6625
2724.27206	8451.3625
2726.87057	8467.7625
2729.46747	8456.3625
2732.06276	8482.0625
2734.65644	8478.6625
2737.24852	8485.8625
2739.83899	8508.9625
2742.42786	8485.8625
2745.01513	8463.2625
2747.60079	8492.2625
2750.18486	8509.4625
2752.76733	8546.4625
2755.3482	8546.7625
2757.92747	8519.1625
2760.50515	8493.7625
2763.08123	8492.0625
2765.65573	8474.1625
2768.22863	8458.2625
2770.79994	8455.1625
2773.36967	8477.7625
2775.9378	8492.7625
2778.50435	8489.4625
2781.06932	8468.7625
2783.6327	8466.1625
2786.1945	8494.2625
2788.75471	8515.3625
2791.31335	8487.4625
2793.87041	8526.1625
2796.42589	8490.9625
2798.97979	8472.1625
2801.53212	8479.5625
2804.08288	8495.3625
2806.63206	8470.5625
2809.17967	8464.1625
2811.72571	8417.7625
2814.27018	8426.3625
2816.81308	8433.3625
2819.35442	8411.9625
2821.89419	8388.5625
2824.43239	8370.6625
2826.96904	8355.6625
2829.50412	8336.8625
2832.03763	8372.3625
2834.56959	8345.5625
2837.1	8354.9625
2839.62884	8358.5625
2842.15613	8375.7625
2844.68186	8394.6625
2847.20604	8390.5625
2849.72867	8393.7625
2852.24974	8405.5625
2854.76927	8362.7625
2857.28724	8367.4625
2859.80367	8351.4625
2862.31855	8335.1625
2864.83189	8364.8625
2867.34368	8375.5625
2869.85393	8370.6625
2872.36264	8354.6625
2874.8698	8328.1625
2877.37543	8369.0625
2879.87952	8369.4625
2882.38207	8368.2625
2884.88308	8341.1625
2887.38256	8368.0625
2889.88051	8387.8625
2892.37692	8400.2625
2894.8718	8400.7625
2897.36515	8411.1625
2899.85698	8395.9625
2902.34727	8419.3625
2904.83604	8459.1625
2907.32328	8497.7625
2909.809	8508.0625
2912.29319	8519.3625
2914.77587	8498.4625
2917.25702	8521.4625
2919.73665	8495.3625
2922.21476	8510.5625
2924.69136	8541.6625
2927.16644	8543.9625
2929.64	8498.8625
2932.11205	8508.4625
2934.58258	8494.5625
2937.05161	8514.8625
2939.51912	8542.8625
2941.98513	8578.0625
2944.44962	8553.4625
2946.91261	8558.6625
2949.37409	8584.6625
2951.83407	8590.7625
2954.29254	8585.5625
2956.74951	8564.0625
2959.20498	8599.0625
2961.65895	8618.9625
2964.11142	8641.2625
2966.56239	8645.2625
2969.01186	8610.1625
2971.45984	8613.7625
2973.90632	8653.2625
2976.35131	8667.3625
2978.7948	8669.8625
2981.23681	8659.1625
2983.67732	8653.8625
2986.11635	8612.9625
2988.55388	8617.7625
2990.98993	8629.3625
2993.4245	8620.4625
2995.85758	8648.7625
2998.28917	8632.6625
3000.71928	8636.2625
3003.14791	8592.7625
3005.57506	8580.4625
3008.00073	8573.8625
3010.42493	8580.1625
3012.84764	8581.4625
3015.26888	8569.7625
3017.68865	8560.8625
3020.10694	8550.6625
3022.52376	8565.0625
3024.9391	8563.6625
3027.35298	8601.4625
3029.76539	8585.5625
3032.17632	8566.5625
3034.5858	8553.7625
3036.9938	8573.2625
3039.40034	8586.6625
3041.80542	8605.8625
3044.20903	8597.1625
3046.61118	8604.8625
3049.01187	8616.6625
3051.4111	8610.3625
3053.80888	8581.7625
3056.20519	8589.4625
3058.60005	8529.0625
3060.99345	8545.7625
3063.3854	8541.2625
3065.7759	8537.9625
3068.16494	8540.2625
3070.55254	8512.3625
3072.93868	8491.4625
3075.32338	8497.1625
3077.70662	8516.5625
3080.08842	8488.7625
3082.46878	8484.1625
3084.84769	8477.4625
3087.22515	8511.1625
3089.60118	8503.9625
3091.97576	8509.4625
3094.3489	8534.6625
3096.72061	8550.9625
3099.09087	8566.9625
3101.4597	8579.0625
3103.82709	8601.6625
3106.19305	8598.3625
3108.55757	8625.1625
3110.92066	8611.5625
3113.28232	8647.4625
3115.64255	8633.4625
3118.00134	8617.1625
3120.35871	8600.4625
3122.71466	8604.2625
3125.06917	8605.8625
3127.42226	8622.3625
