#Wave		#Intensity
2001.221680	48037.347656
2000.251953	47904.503906
1999.282227	48184.339844
1998.312500	47892.792969
1997.342773	47854.367188
1996.372070	48093.984375
1995.402344	47807.609375
1994.431641	48560.441406
1993.460938	48289.101563
1992.490234	48228.105469
1991.518555	48575.050781
1990.547852	47918.511719
1989.576172	47669.980469
1988.604492	48159.406250
1987.632813	48080.972656
1986.661133	48237.597656
1985.689453	48519.167969
1984.716797	48168.257813
1983.745117	48272.300781
1982.772461	48348.820313
1981.799805	48532.738281
1980.827148	48621.671875
1979.853516	48268.542969
1978.880859	48424.902344
1977.907227	48860.812500
1976.933594	48530.285156
1975.959961	48753.894531
1974.986328	48453.437500
1974.011719	48502.347656
1973.038086	48538.769531
1972.063477	48662.457031
1971.088867	48858.410156
1970.114258	48647.937500
1969.138672	48916.105469
1968.164063	48802.882813
1967.188477	48634.886719
1966.212891	49029.960938
1965.237305	49143.437500
1964.261719	48542.136719
1963.286133	48812.519531
1962.309570	48930.945313
1961.333984	49370.417969
1960.357422	48869.035156
1959.380859	48820.675781
1958.404297	49187.789063
1957.426758	49129.437500
1956.450195	49255.132813
1955.472656	49470.296875
1954.495117	48874.945313
1953.517578	49095.066406
1952.540039	49173.453125
1951.561523	49338.777344
1950.583008	49474.234375
1949.605469	49246.996094
1948.626953	49834.394531
1947.647461	49669.246094
1946.668945	49623.312500
1945.690430	49532.718750
1944.710938	49667.984375
1943.731445	49758.539063
1942.751953	50208.777344
1941.772461	49845.292969
1940.791992	49655.531250
1939.812500	50078.269531
1938.832031	49737.308594
1937.851563	50085.519531
1936.871094	49722.367188
1935.890625	49899.492188
1934.909180	49836.253906
1933.928711	49612.035156
1932.947266	49692.496094
1931.965820	50005.675781
1930.984375	49939.976563
1930.002930	50314.878906
1929.020508	49996.722656
1928.038086	50151.269531
1927.056641	50107.847656
1926.074219	50366.195313
1925.090820	50330.167969
1924.108398	49952.941406
1923.125000	51106.082031
1922.142578	50217.207031
1921.159180	50460.472656
1920.175781	50602.347656
1919.191406	50279.738281
1918.208008	50177.070313
1917.223633	50881.964844
1916.240234	50290.339844
1915.255859	50523.453125
1914.271484	50583.703125
1913.286133	50727.839844
1912.301758	50620.250000
1911.316406	51077.621094
1910.331055	50644.429688
1909.345703	51096.703125
1908.360352	51072.945313
1907.375000	51152.738281
1906.388672	50833.207031
1905.402344	51282.656250
1904.416016	51216.988281
1903.429688	51449.425781
1902.443359	51494.585938
1901.457031	51579.132813
1900.469727	51314.015625
1899.482422	51969.683594
1898.495117	51409.230469
1897.507813	51540.480469
1896.520508	51538.816406
1895.532227	52139.855469
1894.543945	51584.679688
1893.556641	51868.265625
1892.568359	51573.949219
1891.579102	52189.300781
1890.590820	51779.511719
1889.601563	51586.117188
1888.613281	52068.457031
1887.624023	51757.160156
1886.634766	52118.949219
1885.644531	51842.125000
1884.655273	51125.910156
1883.665039	51870.566406
1882.674805	51805.003906
1881.684570	51810.632813
1880.694336	51870.230469
1879.704102	52081.902344
1878.712891	52514.234375
1877.722656	52171.507813
1876.731445	52297.191406
1875.740234	52111.503906
1874.748047	52751.855469
1873.756836	52433.820313
1872.764648	52096.296875
1871.773438	52101.839844
1870.781250	52271.480469
1869.788086	52514.519531
1868.795898	52164.968750
1867.803711	52425.074219
1866.810547	52738.933594
1865.817383	52240.250000
1864.824219	52673.910156
1863.831055	52564.359375
1862.837891	52907.312500
1861.843750	52316.015625
1860.849609	52820.253906
1859.855469	52876.968750
1858.861328	52554.832031
1857.867188	52748.414063
1856.872070	52897.945313
1855.877930	53347.886719
1854.882813	52705.937500
1853.887695	52977.492188
1852.892578	53490.652344
1851.896484	53102.878906
1850.901367	53034.964844
1849.905273	53291.617188
1848.909180	53648.210938
1847.913086	53138.707031
1846.916992	53487.878906
1845.919922	53534.554688
1844.923828	53817.703125
1843.926758	53423.089844
1842.929688	53988.867188
1841.932617	53657.714844
1840.935547	53757.906250
1839.937500	54574.218750
1838.939453	54586.535156
1837.942383	54194.625000
1836.943359	54138.828125
1835.945313	54499.296875
1834.947266	54404.519531
1833.948242	54630.976563
1832.949219	54494.847656
1831.951172	55107.968750
1830.951172	54589.968750
1829.952148	55470.332031
1828.953125	55088.589844
1827.953125	54806.644531
1826.953125	55178.554688
1825.953125	55171.269531
1824.953125	55258.730469
1823.952148	55637.648438
1822.952148	55865.855469
1821.951172	55253.820313
1820.950195	55593.687500
1819.949219	55690.332031
1818.948242	55786.980469
1817.946289	55883.718750
1816.945313	55980.363281
1815.943359	56077.105469
1814.941406	56173.843750
1813.939453	56270.585938
1812.936523	56367.421875
1811.934570	56464.160156
1810.931641	56560.996094
1809.928711	56657.828125
1808.925781	56754.664063
1807.921875	56851.593750
1806.918945	56948.425781
1805.915039	57045.355469
1804.912109	57142.191406
1803.908203	57239.117188
1802.903320	57336.140625
1801.899414	57433.070313
1800.894531	56922.160156
1799.890625	57797.406250
1798.885742	57409.945313
1797.880859	57917.261719
1796.875000	58030.343750
1795.870117	58428.597656
1794.864258	58396.539063
1793.858398	58016.554688
1792.852539	58119.863281
1791.846680	58814.906250
1790.840820	58746.570313
1789.833984	58980.070313
1788.828125	58964.835938
1787.821289	59569.925781
1786.814453	59665.593750
1785.806641	59071.160156
1784.799805	59048.671875
1783.791992	59465.171875
1782.784180	59408.855469
1781.776367	59449.621094
1780.768555	59490.382813
1779.760742	59531.148438
1778.751953	59571.949219
1777.743164	59612.753906
1776.735352	59653.515625
1775.725586	59694.359375
1774.716797	59735.164063
1773.708008	59775.964844
1772.698242	59816.808594
1771.688477	60131.175781
1770.678711	59453.964844
1769.668945	59992.039063
1768.659180	60197.949219
1767.648438	60079.082031
1766.637695	60106.945313
1765.626953	59928.023438
1764.616211	60297.253906
1763.605469	60618.281250
1762.593750	60328.816406
1761.583008	60426.273438
1760.571289	60545.316406
1759.559570	60287.234375
1758.547852	60178.125000
1757.535156	60597.253906
1756.523438	60588.945313
1755.510742	60705.441406
1754.498047	60905.882813
1753.485352	61127.843750
1752.472656	61052.269531
1751.458984	61480.378906
1750.445313	61431.144531
1749.432617	61523.375000
1748.417969	61567.632813
1747.404297	62043.273438
1746.390625	62068.246094
1745.375977	62090.812500
1744.361328	61847.476563
1743.346680	62377.808594
1742.332031	62350.011719
1741.317383	62303.070313
1740.302734	62763.617188
1739.287109	63365.199219
1738.271484	63770.351563
1737.255859	64027.023438
1736.240234	64144.867188
1735.223633	64592.707031
1734.208008	65183.859375
1733.191406	65499.859375
1732.174805	65963.945313
1731.158203	66243.843750
1730.140625	66638.335938
1729.124023	67049.406250
1728.106445	67723.078125
1727.088867	67615.562500
1726.071289	68131.296875
1725.053711	68871.265625
1724.035156	69570.390625
1723.017578	69433.968750
1721.999023	70168.531250
1720.980469	69888.906250
1719.961914	70601.656250
1718.942383	70400.750000
1717.923828	71249.062500
1716.904297	71205.453125
1715.884766	70813.851563
1714.865234	71437.609375
1713.844727	71458.312500
1712.825195	71393.250000
1711.804688	71533.039063
1710.784180	72060.960938
1709.763672	71460.078125
1708.743164	71852.117188
1707.722656	71808.445313
1706.701172	70603.453125
1705.679688	70966.875000
1704.658203	71177.921875
1703.636719	71089.195313
1702.615234	70320.359375
1701.592773	70507.625000
1700.571289	70654.398438
1699.548828	70401.812500
1698.526367	70429.734375
1697.502930	69892.156250
1696.480469	69741.984375
1695.457031	70211.773438
1694.433594	69615.140625
1693.410156	69928.078125
1692.386719	70202.914063
1691.363281	69941.250000
1690.338867	70294.296875
1689.314453	69899.835938
1688.290039	69904.046875
1687.265625	69993.632813
1686.241211	69779.648438
1685.215820	69990.140625
1684.191406	70079.656250
1683.166016	70560.203125
1682.140625	70246.734375
1681.115234	71148.804688
1680.088867	71065.117188
1679.062500	71061.976563
1678.037109	71492.187500
1677.010742	71278.250000
1675.983398	71092.796875
1674.957031	71278.984375
1673.930664	71022.601563
1672.903320	71577.812500
1671.875977	71548.546875
1670.848633	72018.320313
1669.820313	72286.921875
1668.792969	72080.226563
1667.764648	72712.742188
1666.736328	71945.914063
1665.708008	72469.531250
1664.679688	72919.718750
1663.651367	73194.945313
1662.622070	73226.820313
1661.592773	74000.117188
1660.563477	73859.492188
1659.534180	73336.515625
1658.504883	73974.851563
1657.474609	73801.257813
1656.444336	74965.382813
1655.415039	74706.750000
1654.383789	75073.171875
1653.353516	74906.562500
1652.323242	75749.031250
1651.291992	75938.273438
1650.260742	76422.039063
1649.229492	76267.078125
1648.198242	77219.414063
1647.166016	77530.742188
1646.134766	77415.695313
1645.102539	77875.203125
1644.070313	77694.210938
1643.038086	78146.437500
1642.004883	78925.617188
1640.972656	78878.640625
1639.939453	79443.328125
1638.906250	79765.546875
1637.873047	80313.406250
1636.839844	80788.171875
1635.805664	81387.367188
1634.772461	82157.921875
1633.738281	82716.703125
1632.704102	83012.132813
1631.668945	83626.937500
1630.634766	84046.570313
1629.599609	84940.414063
1628.565430	85613.226563
1627.530273	86224.765625
1626.494141	86246.976563
1625.458984	87144.468750
1624.422852	87968.906250
1623.387695	89018.242188
1622.351563	89717.742188
1621.315430	91338.554688
1620.278320	92424.234375
1619.242188	94812.859375
1618.205078	96738.914063
1617.167969	99322.742188
1616.130859	101556.562500
1615.093750	104244.023438
1614.055664	108164.773438
1613.018555	110318.539063
1611.980469	112216.343750
1610.942383	114183.687500
1609.904297	114189.101563
1608.865234	114126.640625
1607.827148	112854.664063
1606.788086	110458.015625
1605.749023	108618.828125
1604.709961	106908.890625
1603.669922	104645.492188
1602.630859	103044.390625
1601.590820	101254.554688
1600.550781	99808.835938
1599.510742	99050.476563
1598.470703	98238.656250
1597.429688	97401.437500
1596.389648	96828.359375
1595.348633	96316.179688
1594.307617	96842.867188
1593.265625	96505.882813
1592.224609	96066.359375
1591.182617	96182.203125
1590.140625	96993.085938
1589.098633	96714.601563
1588.056641	96974.820313
1587.014648	97491.382813
1585.971680	97746.703125
1584.928711	97957.648438
1583.886719	97576.703125
1582.842773	97226.179688
1581.799805	98031.023438
1580.755859	97734.093750
1579.712891	97891.281250
1578.668945	98176.445313
1577.625000	99134.148438
1576.580078	99351.492188
1575.536133	100082.945313
1574.491211	99481.210938
1573.446289	100142.593750
1572.401367	101213.015625
1571.356445	101613.453125
1570.311523	102590.234375
1569.265625	102293.023438
1568.219727	101763.546875
1567.173828	101313.242188
1566.127930	100259.140625
1565.082031	100032.218750
1564.035156	99854.140625
1562.988281	99176.960938
1561.941406	99119.796875
1560.894531	98422.093750
1559.847656	98840.757813
1558.799805	97883.507813
1557.751953	98207.007813
1556.704102	97818.398438
1555.656250	97749.921875
1554.608398	97924.882813
1553.560547	98435.882813
1552.511719	98105.437500
1551.462891	97130.945313
1550.414063	97593.148438
1549.365234	98453.585938
1548.315430	98016.820313
1547.265625	97742.296875
1546.216797	97935.500000
1545.166992	97056.960938
1544.116211	98756.765625
1543.066406	97933.914063
1542.015625	97229.335938
1540.965820	97598.218750
1539.915039	97839.781250
1538.863281	96969.117188
1537.812500	97037.312500
1536.760742	96599.304688
1535.709961	96512.710938
1534.658203	95862.382813
1533.605469	95586.507813
1532.553711	95093.625000
1531.501953	94947.304688
1530.449219	94233.054688
1529.396484	94601.710938
1528.343750	94300.906250
1527.290039	94083.281250
1526.237305	93053.593750
1525.183594	93256.093750
1524.129883	93061.820313
1523.076172	92597.820313
1522.022461	92376.062500
1520.968750	91435.179688
1519.914063	91953.515625
1518.859375	90860.953125
1517.804688	91300.859375
1516.750000	90733.992188
1515.694336	90344.656250
1514.639648	89980.789063
1513.583984	89467.398438
1512.528320	89340.898438
1511.472656	89318.000000
1510.416016	88761.273438
1509.360352	88936.335938
1508.303711	87853.125000
1507.247070	88042.078125
1506.190430	87548.046875
1505.132813	87438.117188
1504.076172	86942.062500
1503.018555	86880.531250
1501.960938	86515.718750
1500.903320	86720.765625
1499.844727	85811.742188
1498.787109	85676.960938
1497.728516	85358.531250
1496.669922	85407.515625
1495.611328	84995.140625
1494.552734	84433.742188
1493.493164	84402.554688
1492.434570	83717.578125
1491.375000	83870.007813
1490.315430	83462.843750
1489.254883	83984.398438
1488.195313	83515.460938
1487.134766	82755.601563
1486.074219	82873.679688
1485.013672	82771.765625
1483.953125	82546.179688
1482.892578	82229.062500
1481.831055	81989.906250
1480.769531	82339.234375
1479.708008	81944.484375
1478.646484	82071.695313
1477.583984	81942.562500
1476.522461	81138.562500
1475.459961	81329.875000
1474.397461	80983.671875
1473.334961	80633.015625
1472.271484	80527.101563
1471.208984	80862.382813
1470.145508	80889.015625
1469.082031	80785.390625
1468.018555	80588.132813
1466.954102	80758.687500
1465.890625	80579.773438
1464.826172	80563.031250
1463.761719	80964.062500
1462.697266	80785.195313
1461.631836	80642.898438
1460.567383	80858.875000
1459.501953	81129.523438
1458.436523	80318.937500
1457.371094	81068.476563
1456.305664	80939.921875
1455.239258	81208.062500
1454.172852	80261.273438
1453.107422	80732.257813
1452.040039	80567.382813
1450.973633	79710.046875
1449.907227	80476.953125
1448.839844	80660.617188
1447.772461	80778.187500
1446.705078	79778.007813
1445.637695	80296.250000
1444.569336	80263.625000
1443.500977	79962.539063
1442.432617	80337.156250
1441.364258	80375.031250
1440.295898	80037.695313
1439.227539	79686.828125
1438.158203	80520.382813
1437.088867	80580.914063
1436.019531	80655.046875
1434.950195	80427.000000
1433.879883	80671.492188
1432.810547	80881.828125
1431.740234	81044.398438
1430.669922	81122.914063
1429.598633	81072.015625
1428.528320	81193.601563
1427.457031	80859.070313
1426.386719	80957.968750
1425.314453	80362.750000
1424.243164	81457.250000
1423.171875	80376.929688
1422.099609	80870.281250
1421.027344	80871.601563
1419.955078	80319.968750
1418.882813	80167.312500
1417.810547	80377.164063
1416.737305	80226.804688
1415.664063	79865.898438
1414.590820	80279.453125
1413.517578	80536.656250
1412.444336	79816.007813
1411.370117	80222.546875
1410.295898	80217.164063
1409.221680	80150.703125
1408.147461	80262.929688
1407.073242	79796.226563
1405.998047	80166.210938
1404.922852	80694.296875
1403.847656	80424.382813
1402.772461	80385.046875
1401.697266	80047.507813
1400.621094	80085.046875
1399.544922	80477.148438
1398.468750	79932.015625
1397.392578	80987.742188
1396.316406	80632.312500
1395.239258	80949.546875
1394.162109	81201.218750
1393.084961	81355.796875
1392.007813	82410.296875
1390.930664	82397.703125
1389.852539	82703.039063
1388.774414	83066.875000
1387.696289	83033.875000
1386.618164	84168.234375
1385.540039	84315.296875
1384.460938	84369.937500
1383.382813	85330.000000
1382.303711	85348.398438
1381.223633	85508.640625
1380.144531	86069.515625
1379.064453	86513.148438
1377.985352	86133.000000
1376.905273	86056.726563
1375.825195	86088.453125
1374.744141	85751.312500
1373.664063	85623.421875
1372.583008	85237.015625
1371.501953	84794.546875
1370.420898	84839.937500
1369.338867	83993.218750
1368.257813	83771.382813
1367.175781	83320.500000
1366.093750	83058.429688
1365.011719	82821.148438
1363.929688	82408.835938
1362.846680	82218.882813
1361.763672	82109.796875
1360.680664	81596.851563
1359.597656	81315.164063
1358.514648	81345.351563
1357.430664	80512.117188
1356.346680	80475.164063
1355.262695	80606.359375
1354.178711	79211.109375
1353.094727	79425.390625
1352.009766	79207.164063
1350.925781	78641.781250
1349.840820	78502.156250
1348.755859	78161.031250
1347.669922	77777.492188
1346.584961	78023.125000
1345.499023	77440.539063
1344.413086	77200.546875
1343.327148	77343.218750
1342.240234	77418.726563
1341.154297	77283.976563
1340.067383	77278.960938
1338.980469	77298.539063
1337.893555	77199.632813
1336.805664	77114.171875
1335.718750	77502.453125
1334.630859	77298.554688
1333.542969	77590.609375
1332.455078	77603.382813
1331.367188	77015.507813
1330.278320	77084.187500
1329.189453	76898.390625
1328.100586	77368.773438
1327.011719	77153.968750
1325.922852	77720.062500
1324.833008	78049.507813
1323.743164	77312.851563
1322.653320	77657.851563
1321.563477	78152.085938
1320.473633	78019.828125
1319.382813	78246.398438
1318.291992	78401.585938
1317.201172	78783.929688
1316.110352	78945.640625
1315.019531	79071.656250
1313.927734	79215.437500
1312.835938	79610.703125
1311.744141	80043.664063
1310.652344	79835.585938
1309.560547	79658.726563
1308.467773	79957.960938
1307.375000	79145.062500
1306.282227	80146.953125
1305.189453	79696.695313
1304.095703	78948.734375
1303.002930	79516.726563
1301.909180	79237.914063
1300.815430	79319.101563
1299.721680	79184.796875
1298.626953	79301.500000
1297.533203	79495.859375
1296.438477	79881.078125
1295.343750	80039.750000
1294.248047	80342.601563
1293.153320	80161.648438
1292.057617	80377.851563
1290.961914	80216.906250
1289.866211	80805.570313
1288.770508	81349.671875
1287.674805	81937.914063
1286.578125	81739.109375
1285.481445	81535.945313
1284.384766	81538.898438
1283.288086	81165.265625
1282.190430	80973.382813
1281.092773	80932.132813
1279.996094	80731.500000
1278.897461	80575.195313
1277.799805	80007.296875
1276.702148	79983.945313
1275.603516	79597.765625
1274.504883	79421.867188
1273.406250	79573.343750
1272.307617	79045.921875
1271.208008	78615.960938
1270.108398	78767.492188
1269.008789	78379.726563
1267.909180	78648.343750
1266.809570	78046.437500
1265.708984	77806.992188
1264.609375	78190.390625
1263.508789	77248.851563
1262.407227	77616.757813
1261.306641	77046.468750
1260.206055	77343.656250
1259.104492	77142.085938
1258.002930	76510.414063
1256.901367	76123.789063
1255.798828	75838.742188
1254.697266	76325.468750
1253.594727	76108.820313
1252.492188	75795.265625
1251.389648	75514.875000
1250.286133	74809.375000
1249.183594	75342.085938
1248.080078	75200.679688
1246.976563	74282.007813
1245.872070	73997.726563
1244.768555	74468.562500
1243.664063	73946.656250
1242.560547	73931.031250
1241.455078	74201.414063
1240.350586	73908.593750
1239.246094	73941.359375
1238.140625	74510.609375
1237.035156	74000.242188
1235.929688	74087.914063
1234.824219	73415.179688
1233.717773	73770.976563
1232.612305	73529.109375
1231.505859	73388.359375
1230.399414	73504.593750
1229.291992	73504.414063
1228.185547	73409.835938
1227.078125	73003.625000
1225.970703	72735.812500
1224.863281	72900.312500
1223.755859	72327.695313
1222.647461	72220.242188
1221.539063	71968.101563
1220.430664	72121.640625
1219.322266	71713.968750
1218.213867	71573.820313
1217.104492	71617.781250
1215.995117	71593.812500
1214.885742	71826.125000
1213.776367	71118.828125
1212.666992	71211.000000
1211.556641	71894.218750
1210.446289	71749.820313
1209.335938	71474.156250
1208.225586	71329.875000
1207.115234	71262.210938
1206.003906	71520.468750
1204.892578	71643.046875
1203.781250	71564.421875
1202.669922	71763.445313
1201.557617	71842.187500
1200.446289	71866.265625
1199.333984	71809.492188
1198.221680	72008.320313
1197.108398	72156.835938
1195.996094	72532.398438
1194.882813	73008.242188
1193.769531	72623.875000
1192.656250	72449.148438
1191.542969	72139.203125
1190.428711	72841.656250
1189.314453	72693.156250
1188.200195	72631.945313
1187.085938	71936.234375
1185.971680	72596.781250
1184.856445	72945.390625
1183.741211	72943.000000
1182.625977	72206.328125
1181.510742	72720.367188
1180.395508	73312.640625
1179.279297	73323.242188
1178.163086	73007.234375
1177.046875	73078.835938
1175.930664	73733.710938
1174.813477	73026.101563
1173.697266	73106.351563
1172.580078	72751.507813
1171.462891	72644.726563
