#Wave		#Intensity
2001.182617	34110.917969
2000.212891	33734.941406
1999.243164	34167.613281
1998.273438	34023.839844
1997.303711	34020.406250
1996.333008	34189.796875
1995.363281	34692.203125
1994.392578	33992.574219
1993.421875	34224.464844
1992.451172	34138.390625
1991.479492	34237.539063
1990.508789	34244.070313
1989.537109	34438.222656
1988.566406	34089.539063
1987.594727	34038.570313
1986.622070	34225.152344
1985.650391	34141.675781
1984.677734	34503.136719
1983.706055	34442.132813
1982.733398	34513.570313
1981.760742	34490.054688
1980.788086	34256.730469
1979.814453	34060.949219
1978.841797	33945.136719
1977.868164	34368.593750
1976.894531	34262.746094
1975.920898	34224.316406
1974.947266	34600.089844
1973.972656	34469.308594
1972.999023	34223.832031
1972.024414	34335.058594
1971.049805	34431.289063
1970.075195	34460.167969
1969.099609	34249.757813
1968.125000	34565.250000
1967.149414	34561.695313
1966.173828	34358.847656
1965.198242	34733.929688
1964.222656	34712.914063
1963.247070	34659.535156
1962.270508	34743.093750
1961.294922	34620.031250
1960.318359	34681.167969
1959.341797	34627.828125
1958.364258	34925.273438
1957.387695	34824.648438
1956.410156	34788.710938
1955.433594	34887.054688
1954.456055	34985.363281
1953.478516	35031.441406
1952.500000	34679.878906
1951.522461	34586.843750
1950.543945	35087.582031
1949.565430	35078.957031
1948.586914	35120.000000
1947.608398	34967.359375
1946.629883	34854.492188
1945.650391	34932.781250
1944.671875	34591.644531
1943.692383	35054.539063
1942.712891	35274.152344
1941.733398	35116.675781
1940.752930	35239.484375
1939.773438	35054.792969
1938.792969	35130.460938
1937.812500	35325.078125
1936.832031	34892.644531
1935.851563	34955.910156
1934.870117	34981.996094
1933.888672	34928.808594
1932.908203	35403.117188
1931.926758	35136.937500
1930.945313	35016.906250
1929.962891	35124.628906
1928.981445	35323.875000
1927.999023	34991.082031
1927.016602	35388.187500
1926.034180	35112.386719
1925.051758	35445.031250
1924.069336	35268.214844
1923.085938	35096.402344
1922.102539	35372.023438
1921.119141	35350.996094
1920.135742	35357.156250
1919.152344	35346.015625
1918.168945	35594.222656
1917.184570	34923.687500
1916.200195	35322.492188
1915.215820	35471.824219
1914.231445	35655.660156
1913.247070	35486.535156
1912.261719	35625.886719
1911.276367	35720.781250
1910.291992	35157.093750
1909.306641	35451.785156
1908.320313	35526.933594
1907.334961	35698.195313
1906.348633	35662.359375
1905.363281	35451.566406
1904.376953	36184.511719
1903.390625	35761.839844
1902.403320	35762.957031
1901.416992	35833.023438
1900.429688	35617.453125
1899.443359	35793.371094
1898.456055	35600.035156
1897.467773	35741.437500
1896.480469	35929.539063
1895.493164	36193.832031
1894.504883	36106.316406
1893.516602	36117.195313
1892.528320	36010.046875
1891.540039	35784.941406
1890.550781	35889.261719
1889.562500	36064.812500
1888.573242	36309.089844
1887.583984	36010.386719
1886.594727	36168.625000
1885.605469	36363.640625
1884.615234	36313.062500
1883.625000	36242.859375
1882.635742	36150.593750
1881.645508	36215.410156
1880.654297	36226.222656
1879.664063	36070.222656
1878.673828	36345.941406
1877.682617	36077.171875
1876.691406	36019.343750
1875.700195	36020.371094
1874.708984	36163.550781
1873.716797	35936.652344
1872.725586	36177.796875
1871.733398	36215.535156
1870.741211	36250.808594
1869.749023	36249.335938
1868.755859	36306.621094
1867.763672	36403.054688
1866.770508	36673.222656
1865.777344	36128.425781
1864.784180	36618.742188
1863.791016	36201.343750
1862.797852	36483.582031
1861.803711	36318.218750
1860.809570	36602.781250
1859.815430	36608.566406
1858.821289	36506.812500
1857.827148	36818.066406
1856.832031	36577.042969
1855.837891	36355.648438
1854.842773	36288.199219
1853.847656	36372.167969
1852.852539	36434.132813
1851.856445	36715.765625
1850.861328	36477.449219
1849.865234	36661.367188
1848.869141	36781.789063
1847.873047	37136.335938
1846.876953	36727.386719
1845.879883	36752.625000
1844.883789	36548.675781
1843.886719	37066.332031
1842.889648	36986.695313
1841.892578	37236.046875
1840.895508	36971.242188
1839.897461	36633.453125
1838.899414	37082.441406
1837.901367	37219.582031
1836.903320	37232.507813
1835.905273	37634.894531
1834.907227	37041.734375
1833.908203	37327.214844
1832.909180	37259.820313
1831.910156	37102.449219
1830.911133	37312.367188
1829.912109	37223.121094
1828.912109	37180.101563
1827.913086	37402.042969
1826.913086	37582.593750
1825.913086	37566.253906
1824.913086	37513.476563
1823.912109	37382.988281
1822.912109	37344.832031
1821.911133	37360.109375
1820.910156	37722.546875
1819.909180	37184.316406
1818.908203	37430.164063
1817.906250	37571.582031
1816.904297	37703.250000
1815.903320	37524.386719
1814.900391	37602.656250
1813.898438	37520.859375
1812.896484	37819.714844
1811.893555	37628.832031
1810.891602	38065.699219
1809.888672	38010.527344
1808.885742	37531.414063
1807.881836	37892.972656
1806.878906	37661.070313
1805.875000	37569.683594
1804.871094	38197.339844
1803.867188	37764.597656
1802.863281	38237.113281
1801.859375	38148.105469
1800.854492	37996.222656
1799.849609	38134.652344
1798.844727	38103.742188
1797.839844	38140.542969
1796.834961	38332.054688
1795.830078	38032.824219
1794.824219	37900.449219
1793.818359	38275.527344
1792.812500	38167.312500
1791.806641	38667.808594
1790.799805	38545.070313
1789.793945	38417.542969
1788.787109	38379.378906
1787.780273	38792.585938
1786.773438	38773.675781
1785.766602	39109.453125
1784.758789	38810.652344
1783.751953	39127.003906
1782.744141	38695.667969
1781.736328	39011.925781
1780.728516	38747.097656
1779.719727	38692.050781
1778.711914	38873.187500
1777.703125	39085.582031
1776.694336	39189.496094
1775.685547	39353.585938
1774.676758	39462.226563
1773.666992	39233.746094
1772.657227	39195.523438
1771.648438	39157.312500
1770.638672	39523.394531
1769.627930	39328.746094
1768.618164	39381.937500
1767.607422	39180.164063
1766.597656	39154.003906
1765.586914	39541.394531
1764.576172	40036.824219
1763.564453	39921.593750
1762.553711	40123.605469
1761.541992	40486.519531
1760.530273	40308.808594
1759.518555	40383.347656
1758.506836	39965.578125
1757.495117	40318.652344
1756.482422	40517.972656
1755.469727	40395.605469
1754.457031	40818.003906
1753.444336	40916.351563
1752.431641	40633.257813
1751.417969	40873.105469
1750.405273	41235.164063
1749.391602	40769.945313
1748.377930	41160.656250
1747.364258	41249.246094
1746.349609	41095.781250
1745.335938	41354.449219
1744.321289	41198.621094
1743.306641	41397.304688
1742.291992	41203.207031
1741.276367	41095.363281
1740.261719	41585.988281
1739.246094	41676.753906
1738.230469	41726.812500
1737.214844	42207.488281
1736.199219	42042.148438
1735.182617	41707.058594
1734.166992	42732.667969
1733.150391	42263.691406
1732.133789	42990.042969
1731.117188	42956.144531
1730.099609	42829.066406
1729.083008	42988.722656
1728.065430	43444.507813
1727.047852	43711.460938
1726.030273	43701.335938
1725.012695	43989.632813
1723.994141	43891.140625
1722.976563	43993.152344
1721.958008	44522.234375
1720.939453	44772.003906
1719.920898	44585.183594
1718.901367	45478.753906
1717.882813	45542.230469
1716.863281	45305.304688
1715.843750	45523.718750
1714.824219	45618.128906
1713.803711	45714.890625
1712.784180	45873.550781
1711.763672	45662.964844
1710.743164	45900.164063
1709.722656	45651.550781
1708.702148	45769.632813
1707.681641	46130.453125
1706.660156	46119.898438
1705.638672	46280.660156
1704.617188	46251.046875
1703.595703	46416.480469
1702.574219	45744.769531
1701.551758	45451.343750
1700.529297	45754.707031
1699.507813	45409.085938
1698.484375	45883.445313
1697.461914	45944.214844
1696.439453	45879.054688
1695.416016	45398.269531
1694.392578	46135.878906
1693.369141	45864.152344
1692.345703	45856.019531
1691.322266	45598.675781
1690.297852	45932.304688
1689.273438	46166.164063
1688.249023	46112.906250
1687.224609	46275.492188
1686.200195	46400.078125
1685.174805	46315.980469
1684.150391	46435.769531
1683.125000	46659.796875
1682.099609	47089.906250
1681.073242	46470.289063
1680.047852	46734.457031
1679.021484	47327.738281
1677.995117	46724.976563
1676.968750	47180.726563
1675.942383	47231.531250
1674.916016	47149.777344
1673.888672	47856.031250
1672.862305	47558.898438
1671.834961	47278.429688
1670.806641	47419.035156
1669.779297	47356.230469
1668.751953	47659.894531
1667.723633	47982.363281
1666.695313	47855.675781
1665.666992	47743.207031
1664.638672	47937.906250
1663.609375	48371.105469
1662.581055	48197.199219
1661.551758	48280.726563
1660.522461	48267.429688
1659.493164	48339.109375
1658.462891	48481.562500
1657.433594	48123.730469
1656.403320	48582.296875
1655.373047	48686.886719
1654.342773	48739.550781
1653.312500	48664.871094
1652.281250	48635.003906
1651.250977	48404.796875
1650.219727	48462.179688
1649.188477	48637.355469
1648.156250	48673.468750
1647.125000	48572.957031
1646.092773	48338.246094
1645.060547	48777.019531
1644.028320	48787.183594
1642.996094	48719.664063
1641.963867	48630.992188
1640.930664	48859.988281
1639.898438	49215.929688
1638.865234	49317.726563
1637.832031	49052.628906
1636.797852	48947.503906
1635.764648	48741.332031
1634.730469	49374.316406
1633.696289	49567.628906
1632.662109	49669.242188
1631.627930	49606.375000
1630.592773	49961.601563
1629.558594	50084.214844
1628.523438	50265.484375
1627.488281	51005.375000
1626.453125	50137.285156
1625.416992	50937.945313
1624.381836	50781.070313
1623.345703	51736.148438
1622.309570	51945.062500
1621.273438	52421.218750
1620.237305	53002.707031
1619.200195	53907.476563
1618.163086	54420.523438
1617.125977	55315.339844
1616.088867	56811.949219
1615.051758	58045.671875
1614.014648	59147.796875
1612.976563	60186.304688
1611.938477	61252.535156
1610.900391	60881.148438
1609.862305	61385.183594
1608.823242	61173.015625
1607.785156	60617.011719
1606.746094	59032.000000
1605.707031	58535.035156
1604.667969	57028.113281
1603.628906	56082.812500
1602.588867	55955.949219
1601.548828	54506.375000
1600.508789	54050.371094
1599.468750	53652.933594
1598.428711	53110.816406
1597.387695	52620.269531
1596.347656	52017.816406
1595.306641	51406.238281
1594.265625	51478.769531
1593.224609	50876.835938
1592.182617	50972.765625
1591.140625	50403.792969
1590.099609	50905.609375
1589.057617	50488.429688
1588.014648	51115.960938
1586.972656	50610.300781
1585.929688	50610.597656
1584.887695	50401.164063
1583.844727	50695.070313
1582.800781	50814.152344
1581.757813	50709.597656
1580.714844	51087.117188
1579.670898	51476.140625
1578.626953	51522.828125
1577.583008	51467.089844
1576.538086	51667.339844
1575.494141	51655.796875
1574.449219	51434.894531
1573.404297	51574.570313
1572.359375	51742.093750
1571.314453	51814.234375
1570.269531	51677.140625
1569.223633	51877.089844
1568.177734	50822.156250
1567.131836	50780.558594
1566.085938	50227.937500
1565.040039	50318.835938
1563.993164	49808.289063
1562.946289	49906.191406
1561.899414	49672.125000
1560.852539	49452.058594
1559.805664	49069.644531
1558.757813	49021.441406
1557.709961	49061.398438
1556.662109	49161.640625
1555.614258	49078.660156
1554.566406	49160.308594
1553.517578	49320.738281
1552.469727	48442.863281
1551.420898	48920.796875
1550.372070	49020.945313
1549.322266	49544.925781
1548.273438	49318.386719
1547.223633	49013.199219
1546.173828	49337.804688
1545.124023	49453.976563
1544.074219	49396.542969
1543.024414	49480.265625
1541.973633	49712.011719
1540.922852	49490.335938
1539.872070	49379.738281
1538.821289	49336.230469
1537.770508	49179.460938
1536.718750	49374.062500
1535.666992	49189.609375
1534.615234	49093.015625
1533.563477	49585.523438
1532.511719	49382.648438
1531.458984	49302.230469
1530.407227	48910.148438
1529.354492	49217.652344
1528.300781	49181.156250
1527.248047	49093.902344
1526.195313	48782.882813
1525.141602	48884.878906
1524.087891	48788.492188
1523.034180	49257.093750
1521.980469	48851.730469
1520.925781	49352.421875
1519.871094	49067.027344
1518.817383	49279.460938
1517.762695	49192.308594
1516.707031	48679.046875
1515.652344	48684.156250
1514.596680	48857.351563
1513.541016	48192.472656
1512.485352	48683.339844
1511.429688	48380.046875
1510.374023	48247.132813
1509.317383	48054.449219
1508.260742	48383.968750
1507.204102	48830.656250
1506.147461	48403.433594
1505.090820	48472.929688
1504.033203	48211.414063
1502.975586	48441.781250
1501.917969	47863.277344
1500.860352	48208.488281
1499.802734	48289.433594
1498.744141	48308.339844
1497.686523	48451.226563
1496.627930	48311.695313
1495.569336	48387.964844
1494.509766	48879.562500
1493.451172	48336.210938
1492.391602	48008.683594
1491.332031	48357.878906
1490.272461	48152.003906
1489.212891	48507.921875
1488.152344	48435.042969
1487.092773	48116.949219
1486.032227	48284.773438
1484.971680	48255.496094
1483.910156	48450.718750
1482.849609	48794.742188
1481.788086	48513.496094
1480.726563	48303.324219
1479.665039	48917.289063
1478.603516	48897.074219
1477.541992	48037.082031
1476.479492	48694.226563
1475.416992	48559.683594
1474.354492	48502.949219
1473.291992	48551.414063
1472.229492	49002.230469
1471.166016	48908.867188
1470.102539	49460.007813
1469.039063	48996.429688
1467.975586	49017.335938
1466.912109	49396.847656
1465.847656	49390.265625
1464.783203	49810.667969
1463.718750	49673.886719
1462.654297	49998.218750
1461.589844	49758.753906
1460.524414	50064.695313
1459.458984	49932.519531
1458.393555	50199.542969
1457.328125	49825.660156
1456.262695	50530.367188
1455.196289	50325.250000
1454.130859	50758.382813
1453.064453	50523.667969
1451.998047	50637.628906
1450.930664	50507.800781
1449.864258	51031.687500
1448.796875	50678.667969
1447.729492	51329.832031
1446.662109	51311.507813
1445.594727	51261.324219
1444.526367	51525.179688
1443.458008	51816.242188
1442.390625	52118.574219
1441.321289	52061.449219
1440.252930	52338.609375
1439.184570	53534.160156
1438.115234	53463.167969
1437.045898	53442.195313
1435.976563	53348.519531
1434.907227	54045.480469
1433.836914	54287.898438
1432.767578	54657.410156
1431.697266	54845.128906
1430.626953	55016.890625
1429.555664	54691.492188
1428.485352	55101.503906
1427.414063	55161.937500
1426.342773	55235.957031
1425.271484	55341.703125
1424.200195	55651.511719
1423.128906	55491.855469
1422.056641	55225.707031
1420.984375	55571.625000
1419.912109	55883.425781
1418.839844	55701.175781
1417.767578	55713.812500
1416.694336	55617.722656
1415.621094	55417.496094
1414.547852	55283.000000
1413.474609	55544.699219
1412.400391	54907.769531
1411.327148	55216.957031
1410.252930	55240.957031
1409.178711	55301.140625
1408.104492	54974.554688
1407.029297	55111.644531
1405.955078	55519.984375
1404.879883	55659.179688
1403.804688	56241.292969
1402.729492	56520.402344
1401.653320	56602.855469
1400.578125	56753.042969
1399.501953	56887.363281
1398.425781	56531.640625
1397.349609	57049.742188
1396.272461	57222.300781
1395.196289	56837.371094
1394.119141	57003.132813
1393.041992	56931.953125
1391.964844	57203.644531
1390.886719	57161.769531
1389.809570	57140.199219
1388.731445	57344.066406
1387.653320	57166.945313
1386.575195	57985.949219
1385.497070	57799.757813
1384.417969	57976.316406
1383.338867	58848.781250
1382.259766	58295.464844
1381.180664	58764.531250
1380.101563	58506.316406
1379.021484	58698.335938
1377.941406	58780.015625
1376.861328	58186.699219
1375.781250	58666.597656
1374.701172	58035.273438
1373.620117	57991.082031
1372.539063	57530.972656
1371.458008	57691.433594
1370.376953	57184.343750
1369.295898	56789.785156
1368.213867	56474.000000
1367.132813	56367.226563
1366.050781	56401.976563
1364.967773	56032.531250
1363.885742	56002.218750
1362.802734	55904.578125
1361.720703	55764.328125
1360.637695	55648.808594
1359.554688	55943.871094
1358.470703	56034.710938
1357.387695	55735.304688
1356.303711	55059.316406
1355.219727	55387.886719
1354.135742	54631.511719
1353.050781	54527.531250
1351.966797	54347.402344
1350.881836	54270.386719
1349.796875	54267.312500
1348.711914	54349.328125
1347.626953	54048.449219
1346.541016	54280.457031
1345.455078	54266.179688
1344.369141	53909.531250
1343.283203	53879.660156
1342.197266	54010.855469
1341.110352	53598.523438
1340.023438	52871.046875
1338.936523	53939.117188
1337.849609	53647.722656
1336.762695	53801.183594
1335.674805	53994.804688
1334.586914	54297.824219
1333.499023	54142.824219
1332.411133	54287.136719
1331.323242	54054.039063
1330.234375	54245.195313
1329.145508	54342.531250
1328.056641	54395.199219
1326.967773	54717.828125
1325.878906	55506.597656
1324.789063	55246.750000
1323.699219	55566.812500
1322.609375	55797.574219
1321.519531	56284.613281
1320.429688	55942.335938
1319.338867	56493.792969
1318.248047	56327.613281
1317.157227	57235.222656
1316.066406	57293.917969
1314.975586	57316.960938
1313.883789	57825.355469
1312.791992	57774.828125
1311.700195	57779.957031
1310.608398	57380.089844
1309.516602	57489.851563
1308.423828	57501.695313
1307.331055	56939.730469
1306.238281	57231.843750
1305.145508	57514.953125
1304.051758	57508.992188
1302.958984	57696.378906
1301.865234	57885.921875
1300.771484	58673.007813
1299.677734	59026.667969
1298.583008	59577.847656
1297.489258	60415.261719
1296.394531	60652.968750
1295.299805	61267.917969
1294.204102	61474.308594
1293.109375	61128.136719
1292.013672	61425.429688
1290.917969	60675.710938
1289.822266	60815.519531
1288.726563	59990.792969
1287.630859	59775.984375
1286.534180	59598.925781
1285.437500	58588.718750
1284.340820	58449.601563
1283.244141	58481.101563
1282.146484	57752.914063
1281.048828	57680.449219
1279.951172	56806.542969
1278.853516	57165.917969
1277.755859	56558.000000
1276.658203	56853.113281
1275.559570	56367.148438
1274.460938	55896.839844
1273.362305	55656.703125
1272.262695	55549.324219
1271.164063	55450.824219
1270.064453	54897.019531
1268.964844	55048.394531
1267.865234	54556.726563
1266.765625	54462.886719
1265.665039	54316.066406
1264.564453	54304.007813
1263.463867	54064.531250
1262.363281	53794.234375
1261.262695	53687.363281
1260.161133	53432.671875
1259.059570	53844.398438
1257.958008	53770.660156
1256.856445	53370.519531
1255.754883	53768.792969
1254.652344	53589.269531
1253.549805	53460.511719
1252.447266	52842.515625
1251.344727	52824.113281
1250.242188	53151.613281
1249.138672	52886.445313
1248.035156	52850.417969
1246.931641	53179.929688
1245.828125	53000.757813
1244.724609	52799.632813
1243.620117	52926.496094
1242.515625	52641.839844
1241.411133	53114.078125
1240.306641	52739.304688
1239.201172	52899.066406
1238.096680	52357.355469
1236.991211	53090.902344
1235.885742	52824.097656
1234.779297	53161.722656
1233.673828	53174.039063
1232.567383	53015.000000
1231.460938	52820.871094
1230.354492	52675.125000
1229.248047	53232.019531
1228.140625	53310.156250
1227.033203	53361.925781
1225.926758	53635.304688
1224.818359	53384.218750
1223.710938	53356.968750
1222.602539	53415.261719
1221.495117	53749.824219
1220.386719	53696.207031
1219.278320	53883.726563
1218.168945	53589.023438
1217.060547	53721.710938
1215.951172	53194.914063
1214.841797	53169.914063
1213.731445	53335.445313
1212.622070	53139.632813
1211.511719	53160.617188
1210.402344	53170.648438
1209.291992	53123.777344
1208.180664	53105.363281
1207.070313	52973.199219
1205.958984	53374.761719
1204.847656	53791.484375
1203.736328	53858.222656
1202.625000	53310.664063
1201.512695	53871.414063
1200.401367	53957.761719
1199.289063	53867.105469
1198.176758	54311.667969
1197.063477	54225.343750
1195.951172	54305.003906
1194.837891	54703.386719
1193.724609	54806.941406
1192.611328	54877.714844
1191.498047	55055.382813
1190.383789	55265.707031
1189.269531	54498.750000
1188.155273	54275.101563
1187.041016	54648.984375
1185.926758	54732.777344
1184.811523	54295.593750
1183.696289	54300.960938
1182.581055	53996.925781
1181.465820	53934.808594
1180.350586	54147.148438
1179.234375	53399.050781
1178.118164	53550.441406
1177.001953	53671.300781
1175.885742	53113.046875
1174.768555	52787.835938
1173.652344	53150.265625
1172.535156	53053.566406
1171.417969	52617.617188
1170.299805	52853.750000
