#Wave		#Intensity
2001.182617	37023.464844
2000.212891	37384.402344
1999.243164	37194.933594
1998.273438	37193.453125
1997.303711	37412.425781
1996.333008	37455.988281
1995.363281	37426.910156
1994.392578	37290.171875
1993.421875	36848.062500
1992.451172	37247.117188
1991.479492	37668.550781
1990.508789	37419.265625
1989.537109	36967.429688
1988.566406	37693.839844
1987.594727	37317.136719
1986.622070	37210.601563
1985.650391	37669.089844
1984.677734	37242.593750
1983.706055	37461.003906
1982.733398	37124.640625
1981.760742	37595.308594
1980.788086	37833.519531
1979.814453	37167.617188
1978.841797	37483.218750
1977.868164	37329.378906
1976.894531	37644.839844
1975.920898	37735.589844
1974.947266	37434.566406
1973.972656	37462.949219
1972.999023	37301.757813
1972.024414	37794.003906
1971.049805	37941.988281
1970.075195	37713.480469
1969.099609	37709.378906
1968.125000	37757.613281
1967.149414	38072.433594
1966.173828	37644.761719
1965.198242	37598.328125
1964.222656	37805.921875
1963.247070	37809.269531
1962.270508	37780.250000
1961.294922	37788.578125
1960.318359	37998.476563
1959.341797	37735.550781
1958.364258	37915.527344
1957.387695	38060.621094
1956.410156	37767.972656
1955.433594	38042.332031
1954.456055	38018.273438
1953.478516	38145.843750
1952.500000	38173.960938
1951.522461	38413.265625
1950.543945	37899.753906
1949.565430	38126.601563
1948.586914	38559.488281
1947.608398	38008.972656
1946.629883	38086.726563
1945.650391	38472.226563
1944.671875	38199.957031
1943.692383	38173.421875
1942.712891	38514.046875
1941.733398	38378.324219
1940.752930	38798.148438
1939.773438	38359.929688
1938.792969	38422.625000
1937.812500	38279.574219
1936.832031	38860.195313
1935.851563	38570.929688
1934.870117	38593.902344
1933.888672	38297.347656
1932.908203	38818.121094
1931.926758	38670.191406
1930.945313	38353.972656
1929.962891	38565.062500
1928.981445	38135.132813
1927.999023	38185.363281
1927.016602	38930.714844
1926.034180	38392.113281
1925.051758	38684.617188
1924.069336	38504.761719
1923.085938	38436.210938
1922.102539	38723.601563
1921.119141	38551.242188
1920.135742	38813.804688
1919.152344	38394.449219
1918.168945	38617.425781
1917.184570	38741.539063
1916.200195	38835.980469
1915.215820	38760.046875
1914.231445	38735.976563
1913.247070	39082.074219
1912.261719	39072.753906
1911.276367	39211.453125
1910.291992	39078.785156
1909.306641	39037.410156
1908.320313	38604.011719
1907.334961	39211.070313
1906.348633	39130.250000
1905.363281	39000.171875
1904.376953	39170.730469
1903.390625	39296.886719
1902.403320	39208.710938
1901.416992	39339.738281
1900.429688	38921.656250
1899.443359	39217.621094
1898.456055	39247.660156
1897.467773	39381.039063
1896.480469	38906.648438
1895.493164	39475.460938
1894.504883	39311.121094
1893.516602	39562.429688
1892.528320	39400.589844
1891.540039	39074.097656
1890.550781	39534.226563
1889.562500	39075.125000
1888.573242	38977.359375
1887.583984	39400.410156
1886.594727	39130.691406
1885.605469	39335.007813
1884.615234	39774.957031
1883.625000	39443.937500
1882.635742	39432.101563
1881.645508	39307.386719
1880.654297	39332.378906
1879.664063	39450.578125
1878.673828	39549.113281
1877.682617	39757.964844
1876.691406	39797.562500
1875.700195	39545.437500
1874.708984	39550.746094
1873.716797	39499.687500
1872.725586	39997.460938
1871.733398	39561.746094
1870.741211	39819.312500
1869.749023	39567.437500
1868.755859	39866.527344
1867.763672	40050.460938
1866.770508	39884.332031
1865.777344	39816.148438
1864.784180	39750.429688
1863.791016	40112.820313
1862.797852	40281.863281
1861.803711	40128.062500
1860.809570	39974.312500
1859.815430	40179.957031
1858.821289	40397.746094
1857.827148	39928.796875
1856.832031	40266.265625
1855.837891	40229.871094
1854.842773	39968.796875
1853.847656	40284.097656
1852.852539	39998.683594
1851.856445	40516.476563
1850.861328	40245.761719
1849.865234	40465.621094
1848.869141	40446.304688
1847.873047	40612.382813
1846.876953	40800.347656
1845.879883	40763.910156
1844.883789	40893.265625
1843.886719	40895.820313
1842.889648	41042.167969
1841.892578	40964.281250
1840.895508	40781.656250
1839.897461	40886.531250
1838.899414	41164.285156
1837.901367	41203.304688
1836.903320	41200.921875
1835.905273	40884.527344
1834.907227	41298.371094
1833.908203	40977.203125
1832.909180	41081.902344
1831.910156	41188.996094
1830.911133	41386.035156
1829.912109	41655.953125
1828.912109	41782.332031
1827.913086	41223.191406
1826.913086	41587.773438
1825.913086	41801.570313
1824.913086	41801.496094
1823.912109	41526.937500
1822.912109	41672.628906
1821.911133	41597.296875
1820.910156	41876.445313
1819.909180	42495.320313
1818.908203	41878.679688
1817.906250	41878.582031
1816.904297	41779.011719
1815.903320	41541.218750
1814.900391	42091.691406
1813.898438	42115.796875
1812.896484	42387.171875
1811.893555	42406.367188
1810.891602	42006.289063
1809.888672	42750.031250
1808.885742	42161.066406
1807.881836	42601.742188
1806.878906	42117.140625
1805.875000	42126.664063
1804.871094	42709.945313
1803.867188	42242.519531
1802.863281	42663.421875
1801.859375	42803.500000
1800.854492	42895.140625
1799.849609	42766.632813
1798.844727	42882.429688
1797.839844	42746.714844
1796.834961	42615.882813
1795.830078	43021.687500
1794.824219	42550.101563
1793.818359	43219.140625
1792.812500	42887.796875
1791.806641	43068.628906
1790.799805	43333.921875
1789.793945	43360.078125
1788.787109	43077.222656
1787.780273	43588.558594
1786.773438	42726.578125
1785.766602	43604.542969
1784.758789	43505.175781
1783.751953	43429.964844
1782.744141	43415.675781
1781.736328	43401.386719
1780.728516	43387.097656
1779.719727	43372.792969
1778.711914	43842.285156
1777.703125	44046.574219
1776.694336	43923.167969
1775.685547	43691.414063
1774.676758	44136.429688
1773.666992	44367.000000
1772.657227	44751.554688
1771.648438	44322.449219
1770.638672	44333.871094
1769.627930	44451.156250
1768.618164	44501.039063
1767.607422	44733.695313
1766.597656	44670.484375
1765.586914	44628.929688
1764.576172	44517.679688
1763.564453	45211.625000
1762.553711	45157.980469
1761.541992	44998.636719
1760.530273	45168.445313
1759.518555	45227.714844
1758.506836	44972.382813
1757.495117	45819.164063
1756.482422	45604.621094
1755.469727	45615.761719
1754.457031	45859.660156
1753.444336	45885.144531
1752.431641	45805.070313
1751.417969	45969.652344
1750.405273	46431.523438
1749.391602	46008.542969
1748.377930	46041.160156
1747.364258	45814.921875
1746.349609	46413.070313
1745.335938	47025.382813
1744.321289	46478.101563
1743.306641	46649.503906
1742.291992	46461.660156
1741.276367	46802.988281
1740.261719	47165.734375
1739.246094	46915.667969
1738.230469	47022.226563
1737.214844	47353.632813
1736.199219	47481.601563
1735.182617	47597.562500
1734.166992	47715.871094
1733.150391	48307.507813
1732.133789	48645.554688
1731.117188	48218.714844
1730.099609	48797.992188
1729.083008	49078.433594
1728.065430	49330.105469
1727.047852	49199.574219
1726.030273	50086.289063
1725.012695	49774.226563
1723.994141	49774.960938
1722.976563	50560.859375
1721.958008	51024.355469
1720.939453	50709.953125
1719.920898	51032.527344
1718.901367	51414.601563
1717.882813	51574.789063
1716.863281	51887.492188
1715.843750	51616.109375
1714.824219	51969.207031
1713.803711	52303.113281
1712.784180	51774.507813
1711.763672	51858.226563
1710.743164	52203.878906
1709.722656	52327.964844
1708.702148	52171.097656
1707.681641	52204.695313
1706.660156	51850.378906
1705.638672	52110.058594
1704.617188	52036.593750
1703.595703	51936.988281
1702.574219	52118.027344
1701.551758	52056.480469
1700.529297	51937.902344
1699.507813	52154.492188
1698.484375	52071.578125
1697.461914	52452.007813
1696.439453	52449.835938
1695.416016	52024.886719
1694.392578	52177.144531
1693.369141	52286.605469
1692.345703	52336.679688
1691.322266	51964.261719
1690.297852	52778.488281
1689.273438	52593.554688
1688.249023	52821.445313
1687.224609	52814.445313
1686.200195	52570.316406
1685.174805	52952.191406
1684.150391	53255.703125
1683.125000	53111.160156
1682.099609	52881.359375
1681.073242	53393.210938
1680.047852	53388.472656
1679.021484	53772.152344
1677.995117	53684.468750
1676.968750	52936.261719
1675.942383	54027.585938
1674.916016	53857.062500
1673.888672	54098.328125
1672.862305	53816.648438
1671.834961	54774.570313
1670.806641	54017.492188
1669.779297	54722.019531
1668.751953	55038.562500
1667.723633	54662.406250
1666.695313	54432.906250
1665.666992	54891.101563
1664.638672	54597.851563
1663.609375	55223.562500
1662.581055	54979.945313
1661.551758	54495.566406
1660.522461	54816.406250
1659.493164	55071.039063
1658.462891	54752.093750
1657.433594	55108.101563
1656.403320	54909.578125
1655.373047	55366.855469
1654.342773	54795.734375
1653.312500	55198.632813
1652.281250	55297.269531
1651.250977	55308.656250
1650.219727	55553.347656
1649.188477	55298.425781
1648.156250	55071.859375
1647.125000	55132.734375
1646.092773	55469.117188
1645.060547	55336.820313
1644.028320	55392.898438
1642.996094	55446.601563
1641.963867	55667.367188
1640.930664	54977.484375
1639.898438	55447.613281
1638.865234	55527.128906
1637.832031	56027.558594
1636.797852	56083.429688
1635.764648	56005.281250
1634.730469	55863.699219
1633.696289	56333.156250
1632.662109	56273.792969
1631.627930	56153.375000
1630.592773	56467.507813
1629.558594	57100.890625
1628.523438	57290.300781
1627.488281	56608.738281
1626.453125	57227.667969
1625.416992	57907.390625
1624.381836	57833.738281
1623.345703	57875.050781
1622.309570	58507.382813
1621.273438	58904.988281
1620.237305	60123.035156
1619.200195	60449.886719
1618.163086	61854.714844
1617.125977	62919.265625
1616.088867	64332.523438
1615.051758	65869.421875
1614.014648	67396.406250
1612.976563	68541.156250
1611.938477	69072.109375
1610.900391	70082.726563
1609.862305	69599.828125
1608.823242	69297.281250
1607.785156	68969.109375
1606.746094	67574.414063
1605.707031	66633.914063
1604.667969	65158.285156
1603.628906	64111.007813
1602.588867	62430.656250
1601.548828	61201.945313
1600.508789	61134.960938
1599.468750	60715.234375
1598.428711	59499.156250
1597.387695	58755.250000
1596.347656	58707.421875
1595.306641	58332.773438
1594.265625	58194.000000
1593.224609	58038.937500
1592.182617	57414.941406
1591.140625	57418.703125
1590.099609	56930.316406
1589.057617	56607.675781
1588.014648	56924.007813
1586.972656	56927.847656
1585.929688	56740.554688
1584.887695	57077.664063
1583.844727	56862.449219
1582.800781	56824.351563
1581.757813	56772.292969
1580.714844	56850.660156
1579.670898	57105.945313
1578.626953	57561.332031
1577.583008	57362.539063
1576.538086	57810.734375
1575.494141	58079.617188
1574.449219	57983.183594
1573.404297	58389.156250
1572.359375	58239.214844
1571.314453	57942.851563
1570.269531	57818.609375
1569.223633	57968.656250
1568.177734	57646.929688
1567.131836	57680.785156
1566.085938	57340.636719
1565.040039	57149.250000
1563.993164	56725.718750
1562.946289	56569.328125
1561.899414	56475.664063
1560.852539	55834.320313
1559.805664	55979.816406
1558.757813	56076.539063
1557.709961	55727.867188
1556.662109	55868.660156
1555.614258	55705.648438
1554.566406	55412.859375
1553.517578	55456.277344
1552.469727	55777.773438
1551.420898	55114.390625
1550.372070	55426.562500
1549.322266	54749.578125
1548.273438	55043.171875
1547.223633	54956.929688
1546.173828	55120.734375
1545.124023	55284.480469
1544.074219	55501.394531
1543.024414	54924.597656
1541.973633	55416.785156
1540.922852	55369.871094
1539.872070	55329.914063
1538.821289	55329.269531
1537.770508	55263.898438
1536.718750	55163.878906
1535.666992	55158.640625
1534.615234	55121.050781
1533.563477	55034.964844
1532.511719	55415.453125
1531.458984	54962.171875
1530.407227	54973.121094
1529.354492	55134.113281
1528.300781	55112.714844
1527.248047	55035.937500
1526.195313	55356.019531
1525.141602	54831.710938
1524.087891	55100.968750
1523.034180	54853.601563
1521.980469	54511.792969
1520.925781	54882.382813
1519.871094	54370.136719
1518.817383	54358.105469
1517.762695	54000.492188
1516.707031	54725.632813
1515.652344	54232.199219
1514.596680	54229.402344
1513.541016	54270.343750
1512.485352	54405.644531
1511.429688	53986.257813
1510.374023	53847.738281
1509.317383	54346.527344
1508.260742	53791.656250
1507.204102	53768.226563
1506.147461	54296.644531
1505.090820	54176.574219
1504.033203	53606.035156
1502.975586	53959.535156
1501.917969	54283.039063
1500.860352	54089.535156
1499.802734	54277.375000
1498.744141	54289.445313
1497.686523	54301.500000
1496.627930	54313.570313
1495.569336	54325.636719
1494.509766	54337.718750
1493.451172	54349.785156
1492.391602	54361.867188
1491.332031	54373.945313
1490.272461	54295.406250
1489.212891	54058.695313
1488.152344	54590.000000
1487.092773	54582.507813
1486.032227	54341.281250
1484.971680	54276.550781
1483.910156	54051.496094
1482.849609	54360.156250
1481.788086	54545.050781
1480.726563	54690.957031
1479.665039	54859.699219
1478.603516	54886.480469
1477.541992	54849.179688
1476.479492	54715.800781
1475.416992	55197.785156
1474.354492	54881.425781
1473.291992	55006.492188
1472.229492	54923.464844
1471.166016	54897.613281
1470.102539	55237.425781
1469.039063	55330.339844
1467.975586	55372.960938
1466.912109	55710.214844
1465.847656	55435.304688
1464.783203	55808.957031
1463.718750	55981.574219
1462.654297	55962.398438
1461.589844	55984.304688
1460.524414	56156.789063
1459.458984	56370.277344
1458.393555	56164.003906
1457.328125	56660.183594
1456.262695	56504.089844
1455.196289	56826.769531
1454.130859	56734.515625
1453.064453	56546.582031
1451.998047	57014.894531
1450.930664	57093.500000
1449.864258	56702.886719
1448.796875	57139.031250
1447.729492	57028.593750
1446.662109	57576.058594
1445.594727	57511.093750
1444.526367	57646.398438
1443.458008	58223.027344
1442.390625	58435.492188
1441.321289	58838.921875
1440.252930	59303.597656
1439.184570	59711.265625
1438.115234	59961.941406
1437.045898	60078.437500
1435.976563	60322.136719
1434.907227	60774.757813
1433.836914	61027.324219
1432.767578	61216.207031
1431.697266	61198.390625
1430.626953	60749.234375
1429.555664	61119.644531
1428.485352	61896.144531
1427.414063	61440.292969
1426.342773	61708.281250
1425.271484	61905.859375
1424.200195	61715.574219
1423.128906	61985.632813
1422.056641	61949.546875
1420.984375	62407.585938
1419.912109	62582.183594
1418.839844	62387.402344
1417.767578	62013.726563
1416.694336	62124.875000
1415.621094	62109.171875
1414.547852	61699.511719
1413.474609	61658.984375
1412.400391	61558.765625
1411.327148	61458.636719
1410.252930	61358.417969
1409.178711	61258.195313
1408.104492	61157.976563
1407.029297	61911.277344
1405.955078	61836.832031
1404.879883	61789.531250
1403.804688	62431.562500
1402.729492	63104.996094
1401.653320	63737.515625
1400.578125	63662.792969
1399.501953	63373.546875
1398.425781	63330.523438
1397.349609	63501.984375
1396.272461	63131.656250
1395.196289	63178.960938
1394.119141	63068.300781
1393.041992	62964.449219
1391.964844	62946.339844
1390.886719	62971.085938
1389.809570	63415.203125
1388.731445	64080.085938
1387.653320	63732.703125
1386.575195	65125.175781
1385.497070	64770.964844
1384.417969	64452.921875
1383.338867	65085.472656
1382.259766	65256.148438
1381.180664	65964.875000
1380.101563	65959.742188
1379.021484	65983.859375
1377.941406	66095.734375
1376.861328	65933.078125
1375.781250	66173.132813
1374.701172	65333.539063
1373.620117	65096.894531
1372.539063	64828.855469
1371.458008	64630.593750
1370.376953	64176.187500
1369.295898	63643.296875
1368.213867	63193.722656
1367.132813	63182.328125
1366.050781	63150.718750
1364.967773	62683.503906
1363.885742	63026.910156
1362.802734	62405.003906
1361.720703	62353.351563
1360.637695	62577.703125
1359.554688	62893.949219
1358.470703	62207.457031
1357.387695	61996.640625
1356.303711	61976.484375
1355.219727	61420.542969
1354.135742	61530.492188
1353.050781	61431.988281
1351.966797	61022.078125
1350.881836	60943.859375
1349.796875	60892.542969
1348.711914	60429.195313
1347.626953	60785.476563
1346.541016	60161.136719
1345.455078	60280.085938
1344.369141	60014.101563
1343.283203	60162.113281
1342.197266	60390.601563
1341.110352	60918.699219
1340.023438	60210.023438
1338.936523	60228.214844
1337.849609	60823.105469
1336.762695	60514.875000
1335.674805	60769.851563
1334.586914	60539.929688
1333.499023	60937.757813
1332.411133	61112.113281
1331.323242	60699.148438
1330.234375	60708.273438
1329.145508	61159.343750
1328.056641	61572.312500
1326.967773	61454.082031
1325.878906	61748.605469
1324.789063	61668.300781
1323.699219	61456.445313
1322.609375	61759.718750
1321.519531	62312.558594
1320.429688	62341.414063
1319.338867	62815.945313
1318.248047	62820.183594
1317.157227	62882.339844
1316.066406	63156.054688
1314.975586	63474.207031
1313.883789	63714.316406
1312.791992	63983.273438
1311.700195	63847.066406
1310.608398	63546.234375
1309.516602	63888.488281
1308.423828	63678.957031
1307.331055	63687.449219
1306.238281	63896.066406
1305.145508	63960.097656
1304.051758	63799.593750
1302.958984	63681.371094
1301.865234	64527.546875
1300.771484	64755.804688
1299.677734	65730.304688
1298.583008	66266.945313
1297.489258	66881.109375
1296.394531	67417.343750
1295.299805	67928.968750
1294.204102	67949.960938
1293.109375	68432.453125
1292.013672	67781.156250
1290.917969	67469.453125
1289.822266	67277.609375
1288.726563	66997.148438
1287.630859	66370.960938
1286.534180	66126.218750
1285.437500	65593.484375
1284.340820	65488.542969
1283.244141	64676.996094
1282.146484	64508.027344
1281.048828	64476.414063
1279.951172	64086.136719
1278.853516	63536.625000
1277.755859	63374.613281
1276.658203	63110.871094
1275.559570	62776.425781
1274.460938	62908.828125
1273.362305	62258.281250
1272.262695	61966.175781
1271.164063	61658.699219
1270.064453	61634.257813
1268.964844	61428.605469
1267.865234	61525.738281
1266.765625	60907.062500
1265.665039	60915.894531
1264.564453	60571.386719
1263.463867	60182.835938
1262.363281	60394.890625
1261.262695	59863.042969
1260.161133	59377.726563
1259.059570	60258.332031
1257.958008	59914.300781
1256.856445	59519.664063
1255.754883	59363.324219
1254.652344	59548.777344
1253.549805	59436.574219
1252.447266	58888.019531
1251.344727	59324.660156
1250.242188	59120.015625
1249.138672	59012.363281
1248.035156	59147.011719
1246.931641	58616.609375
1245.828125	58370.402344
1244.724609	58819.851563
1243.620117	58395.429688
1242.515625	58406.832031
1241.411133	58618.425781
1240.306641	58682.570313
1239.201172	59067.765625
1238.096680	58744.812500
1236.991211	58736.343750
1235.885742	59042.187500
1234.779297	58840.273438
1233.673828	59132.800781
1232.567383	58401.515625
1231.460938	58535.867188
1230.354492	58806.320313
1229.248047	58723.183594
1228.140625	59388.632813
1227.033203	59189.089844
1225.926758	58912.816406
1224.818359	59114.925781
1223.710938	59336.707031
1222.602539	59402.683594
1221.495117	59648.445313
1220.386719	59004.003906
1219.278320	58942.863281
1218.168945	59214.863281
1217.060547	58783.390625
1215.951172	58818.710938
1214.841797	58843.062500
1213.731445	58771.042969
1212.622070	58773.496094
1211.511719	58546.078125
1210.402344	58369.082031
1209.291992	58194.335938
1208.180664	59091.781250
1207.070313	58776.953125
1205.958984	59192.769531
1204.847656	59138.265625
1203.736328	59527.625000
1202.625000	59501.492188
1201.512695	59280.847656
1200.401367	59252.582031
1199.289063	59630.699219
1198.176758	59715.964844
1197.063477	59458.300781
1195.951172	60192.105469
1194.837891	60023.957031
1193.724609	60643.875000
1192.611328	60397.132813
1191.498047	60220.300781
1190.383789	60586.765625
1189.269531	60468.855469
1188.155273	60551.625000
1187.041016	59524.503906
1185.926758	59954.039063
1184.811523	59764.386719
1183.696289	59699.023438
1182.581055	59489.875000
1181.465820	59285.156250
1180.350586	58353.027344
1179.234375	59102.410156
1178.118164	58928.347656
1177.001953	58858.839844
1175.885742	58608.703125
1174.768555	58410.878906
1173.652344	58426.343750
1172.535156	58104.628906
1171.417969	58670.394531
1170.299805	57946.460938
