#Wave		#Intensity
2001.182617	34296.398438
2000.212891	34293.890625
1999.243164	33924.527344
1998.273438	34434.761719
1997.303711	34085.539063
1996.333008	34402.703125
1995.363281	34414.226563
1994.392578	34212.914063
1993.421875	34161.878906
1992.451172	34055.792969
1991.479492	34285.085938
1990.508789	34003.867188
1989.537109	33975.410156
1988.566406	34334.660156
1987.594727	34458.707031
1986.622070	34107.632813
1985.650391	34311.671875
1984.677734	34240.691406
1983.706055	34189.726563
1982.733398	34501.078125
1981.760742	34250.226563
1980.788086	34296.695313
1979.814453	34248.250000
1978.841797	34289.707031
1977.868164	34550.832031
1976.894531	34410.011719
1975.920898	34586.171875
1974.947266	34585.117188
1973.972656	34628.968750
1972.999023	34620.421875
1972.024414	34768.988281
1971.049805	34573.410156
1970.075195	34515.015625
1969.099609	34785.648438
1968.125000	34642.503906
1967.149414	34937.937500
1966.173828	34779.863281
1965.198242	34405.144531
1964.222656	34807.546875
1963.247070	34744.191406
1962.270508	34494.144531
1961.294922	34948.585938
1960.318359	34935.007813
1959.341797	34635.292969
1958.364258	34733.718750
1957.387695	34884.343750
1956.410156	34584.789063
1955.433594	34984.027344
1954.456055	34749.195313
1953.478516	34715.773438
1952.500000	35089.921875
1951.522461	34293.652344
1950.543945	34970.820313
1949.565430	34852.929688
1948.586914	34817.027344
1947.608398	34940.046875
1946.629883	34809.808594
1945.650391	34696.984375
1944.671875	35154.980469
1943.692383	35009.878906
1942.712891	35105.460938
1941.733398	34754.546875
1940.752930	35241.964844
1939.773438	34685.351563
1938.792969	34738.773438
1937.812500	34943.371094
1936.832031	34724.128906
1935.851563	35441.546875
1934.870117	34773.902344
1933.888672	34648.921875
1932.908203	35172.808594
1931.926758	34612.023438
1930.945313	34700.031250
1929.962891	34800.386719
1928.981445	35051.656250
1927.999023	35132.117188
1927.016602	34742.515625
1926.034180	35060.445313
1925.051758	35244.718750
1924.069336	35203.929688
1923.085938	35037.074219
1922.102539	34724.445313
1921.119141	34960.542969
1920.135742	34722.160156
1919.152344	34708.660156
1918.168945	34766.796875
1917.184570	34847.132813
1916.200195	35080.527344
1915.215820	34570.773438
1914.231445	35016.394531
1913.247070	34923.882813
1912.261719	34974.507813
1911.276367	34674.812500
1910.291992	34757.527344
1909.306641	34941.316406
1908.320313	35105.316406
1907.334961	35054.785156
1906.348633	34996.878906
1905.363281	34761.558594
1904.376953	35322.152344
1903.390625	35015.417969
1902.403320	34819.621094
1901.416992	34786.425781
1900.429688	34962.523438
1899.443359	34998.238281
1898.456055	34869.031250
1897.467773	35032.710938
1896.480469	35142.203125
1895.493164	34995.820313
1894.504883	35026.570313
1893.516602	34858.121094
1892.528320	34829.875000
1891.540039	35332.621094
1890.550781	35346.082031
1889.562500	35194.890625
1888.573242	34859.480469
1887.583984	35086.730469
1886.594727	35318.812500
1885.605469	35150.535156
1884.615234	35213.113281
1883.625000	35310.031250
1882.635742	35365.191406
1881.645508	35228.921875
1880.654297	35151.582031
1879.664063	35766.039063
1878.673828	35303.562500
1877.682617	35405.261719
1876.691406	35627.058594
1875.700195	35064.339844
1874.708984	35359.644531
1873.716797	35255.414063
1872.725586	35359.472656
1871.733398	35536.984375
1870.741211	35682.589844
1869.749023	35492.660156
1868.755859	35312.589844
1867.763672	35734.773438
1866.770508	35121.515625
1865.777344	35291.531250
1864.784180	35329.367188
1863.791016	35394.097656
1862.797852	35598.210938
1861.803711	35481.914063
1860.809570	35563.691406
1859.815430	36180.781250
1858.821289	36032.667969
1857.827148	35750.203125
1856.832031	36037.097656
1855.837891	35671.675781
1854.842773	35787.519531
1853.847656	35988.789063
1852.852539	35860.386719
1851.856445	35951.718750
1850.861328	36079.628906
1849.865234	35729.218750
1848.869141	35908.355469
1847.873047	35843.492188
1846.876953	35781.093750
1845.879883	35362.695313
1844.883789	36090.324219
1843.886719	36317.984375
1842.889648	35833.906250
1841.892578	36548.882813
1840.895508	36142.890625
1839.897461	36175.507813
1838.899414	36154.527344
1837.901367	36277.218750
1836.903320	36188.058594
1835.905273	36439.710938
1834.907227	36572.019531
1833.908203	36721.316406
1832.909180	36340.183594
1831.910156	36598.925781
1830.911133	36852.710938
1829.912109	36449.871094
1828.912109	36703.585938
1827.913086	36283.894531
1826.913086	36610.460938
1825.913086	36820.273438
1824.913086	36855.089844
1823.912109	36936.046875
1822.912109	36706.105469
1821.911133	36374.265625
1820.910156	36375.140625
1819.909180	36703.703125
1818.908203	37090.394531
1817.906250	36814.523438
1816.904297	36892.945313
1815.903320	36629.332031
1814.900391	36659.253906
1813.898438	36810.402344
1812.896484	36665.730469
1811.893555	37010.734375
1810.891602	37042.988281
1809.888672	37043.726563
1808.885742	37051.734375
1807.881836	36720.628906
1806.878906	37096.796875
1805.875000	37254.906250
1804.871094	37083.714844
1803.867188	36946.472656
1802.863281	36685.847656
1801.859375	36940.703125
1800.854492	37057.566406
1799.849609	36995.402344
1798.844727	36863.121094
1797.839844	37407.910156
1796.834961	37161.976563
1795.830078	37343.957031
1794.824219	37661.199219
1793.818359	37313.867188
1792.812500	37795.277344
1791.806641	37361.089844
1790.799805	37364.156250
1789.793945	37430.000000
1788.787109	37778.269531
1787.780273	37407.136719
1786.773438	37458.085938
1785.766602	37509.039063
1784.758789	37560.039063
1783.751953	37610.988281
1782.744141	37661.988281
1781.736328	37712.988281
1780.728516	37763.988281
1779.719727	37815.039063
1778.711914	37866.039063
1777.703125	37917.085938
1776.694336	37968.136719
1775.685547	38026.464844
1774.676758	38325.582031
1773.666992	38412.714844
1772.657227	37962.992188
1771.648438	38310.097656
1770.638672	38604.136719
1769.627930	38590.097656
1768.618164	38313.855469
1767.607422	38780.906250
1766.597656	38519.152344
1765.586914	38507.539063
1764.576172	38755.550781
1763.564453	39503.390625
1762.553711	38624.105469
1761.541992	38963.257813
1760.530273	38723.359375
1759.518555	39470.671875
1758.506836	39151.523438
1757.495117	39219.031250
1756.482422	39123.281250
1755.469727	39682.785156
1754.457031	39351.816406
1753.444336	39822.308594
1752.431641	39671.339844
1751.417969	39772.253906
1750.405273	39669.304688
1749.391602	39743.804688
1748.377930	39995.664063
1747.364258	40041.320313
1746.349609	39864.105469
1745.335938	40111.011719
1744.321289	39931.449219
1743.306641	40487.210938
1742.291992	40149.597656
1741.276367	40252.628906
1740.261719	40590.203125
1739.246094	40678.753906
1738.230469	40602.164063
1737.214844	41056.722656
1736.199219	40982.480469
1735.182617	41250.265625
1734.166992	41407.957031
1733.150391	41264.355469
1732.133789	41900.050781
1731.117188	41593.898438
1730.099609	41978.410156
1729.083008	42171.664063
1728.065430	42625.207031
1727.047852	42920.964844
1726.030273	42614.890625
1725.012695	43309.234375
1723.994141	43093.902344
1722.976563	43317.765625
1721.958008	43572.566406
1720.939453	43600.636719
1719.920898	44363.351563
1718.901367	44033.542969
1717.882813	44299.953125
1716.863281	44060.859375
1715.843750	44877.769531
1714.824219	44862.671875
1713.803711	44506.847656
1712.784180	45020.687500
1711.763672	44581.593750
1710.743164	45376.246094
1709.722656	44656.277344
1708.702148	44824.531250
1707.681641	44830.871094
1706.660156	44794.367188
1705.638672	44434.289063
1704.617188	45354.195313
1703.595703	44915.648438
1702.574219	44693.660156
1701.551758	44621.539063
1700.529297	44867.996094
1699.507813	44503.519531
1698.484375	44395.820313
1697.461914	44730.089844
1696.439453	44722.160156
1695.416016	44540.847656
1694.392578	44601.816406
1693.369141	44299.496094
1692.345703	44937.332031
1691.322266	44813.066406
1690.297852	45035.300781
1689.273438	44906.312500
1688.249023	45019.328125
1687.224609	45030.316406
1686.200195	44787.566406
1685.174805	45426.882813
1684.150391	45617.945313
1683.125000	45820.789063
1682.099609	45305.554688
1681.073242	45731.085938
1680.047852	45557.152344
1679.021484	45537.226563
1677.995117	45690.167969
1676.968750	45724.675781
1675.942383	45806.511719
1674.916016	46070.554688
1673.888672	45735.828125
1672.862305	46579.425781
1671.834961	46263.648438
1670.806641	45742.222656
1669.779297	46202.296875
1668.751953	46239.011719
1667.723633	46533.367188
1666.695313	46626.726563
1665.666992	46436.503906
1664.638672	46815.710938
1663.609375	46455.441406
1662.581055	47006.910156
1661.551758	46436.582031
1660.522461	46976.046875
1659.493164	46870.925781
1658.462891	46947.558594
1657.433594	46913.265625
1656.403320	46860.105469
1655.373047	47488.640625
1654.342773	46992.031250
1653.312500	47693.410156
1652.281250	47300.664063
1651.250977	47469.039063
1650.219727	47851.808594
1649.188477	47386.195313
1648.156250	48188.171875
1647.125000	47126.746094
1646.092773	47518.714844
1645.060547	48047.109375
1644.028320	47746.652344
1642.996094	47801.714844
1641.963867	48687.472656
1640.930664	48321.175781
1639.898438	48397.273438
1638.865234	48508.621094
1637.832031	48380.062500
1636.797852	48916.937500
1635.764648	48903.539063
1634.730469	48807.875000
1633.696289	48770.996094
1632.662109	49032.515625
1631.627930	48772.437500
1630.592773	48871.800781
1629.558594	49614.558594
1628.523438	49598.687500
1627.488281	49646.203125
1626.453125	49604.511719
1625.416992	50060.312500
1624.381836	50415.066406
1623.345703	50886.976563
1622.309570	51058.515625
1621.273438	51405.859375
1620.237305	52198.535156
1619.200195	52719.011719
1618.163086	53794.757813
1617.125977	55043.519531
1616.088867	55471.835938
1615.051758	56930.667969
1614.014648	58466.269531
1612.976563	59146.632813
1611.938477	60159.199219
1610.900391	60420.015625
1609.862305	60350.746094
1608.823242	59907.109375
1607.785156	59964.285156
1606.746094	58594.585938
1605.707031	57985.445313
1604.667969	56656.328125
1603.628906	55337.039063
1602.588867	54607.246094
1601.548828	53936.140625
1600.508789	53190.500000
1599.468750	52438.113281
1598.428711	52188.187500
1597.387695	52015.410156
1596.347656	51800.664063
1595.306641	51081.738281
1594.265625	50533.453125
1593.224609	50823.160156
1592.182617	50634.437500
1591.140625	50464.445313
1590.099609	50317.835938
1589.057617	50616.691406
1588.014648	50829.171875
1586.972656	50211.664063
1585.929688	50256.320313
1584.887695	50298.625000
1583.844727	50236.070313
1582.800781	50012.792969
1581.757813	50355.570313
1580.714844	50612.062500
1579.670898	50621.660156
1578.626953	50826.792969
1577.583008	51059.781250
1576.538086	51239.164063
1575.494141	51164.878906
1574.449219	50902.191406
1573.404297	51628.062500
1572.359375	51551.414063
1571.314453	51435.265625
1570.269531	51491.175781
1569.223633	51402.964844
1568.177734	51265.984375
1567.131836	50738.738281
1566.085938	50539.203125
1565.040039	50894.812500
1563.993164	50263.414063
1562.946289	50126.750000
1561.899414	49883.355469
1560.852539	49944.074219
1559.805664	50143.992188
1558.757813	50160.558594
1557.709961	50028.664063
1556.662109	49938.558594
1555.614258	50122.097656
1554.566406	49823.355469
1553.517578	49888.628906
1552.469727	49645.648438
1551.420898	49840.683594
1550.372070	49917.500000
1549.322266	49598.203125
1548.273438	49524.496094
1547.223633	49557.324219
1546.173828	49948.968750
1545.124023	49808.113281
1544.074219	50162.539063
1543.024414	50433.542969
1541.973633	49910.960938
1540.922852	49839.593750
1539.872070	49740.496094
1538.821289	49745.476563
1537.770508	50328.382813
1536.718750	49949.578125
1535.666992	50162.496094
1534.615234	49739.949219
1533.563477	49398.410156
1532.511719	49950.820313
1531.458984	49454.640625
1530.407227	50050.707031
1529.354492	49591.617188
1528.300781	49144.226563
1527.248047	49899.250000
1526.195313	49274.308594
1525.141602	49175.531250
1524.087891	49076.789063
1523.034180	48998.828125
1521.980469	48821.761719
1520.925781	48856.824219
1519.871094	49071.636719
1518.817383	48986.816406
1517.762695	48950.402344
1516.707031	48331.226563
1515.652344	48472.273438
1514.596680	48281.691406
1513.541016	48793.351563
1512.485352	48745.488281
1511.429688	48534.238281
1510.374023	48247.132813
1509.317383	48496.160156
1508.260742	48676.089844
1507.204102	49007.738281
1506.147461	48667.859375
1505.090820	48918.921875
1504.033203	48558.488281
1502.975586	48666.996094
1501.917969	48281.460938
1500.860352	48254.433594
1499.802734	48254.980469
1498.744141	48142.996094
1497.686523	48223.917969
1496.627930	48240.531250
1495.569336	48482.066406
1494.509766	47977.703125
1493.451172	48033.347656
1492.391602	47912.335938
1491.332031	47906.042969
1490.272461	47954.789063
1489.212891	48044.785156
1488.152344	48198.929688
1487.092773	48006.937500
1486.032227	48078.535156
1484.971680	48026.386719
1483.910156	48079.625000
1482.849609	48215.296875
1481.788086	47952.476563
1480.726563	48369.718750
1479.665039	48065.757813
1478.603516	48153.261719
1477.541992	47632.062500
1476.479492	48174.886719
1475.416992	48333.230469
1474.354492	48411.468750
1473.291992	48144.398438
1472.229492	48293.511719
1471.166016	48396.851563
1470.102539	48612.136719
1469.039063	48436.613281
1467.975586	47918.468750
1466.912109	48622.523438
1465.847656	48883.277344
1464.783203	48860.808594
1463.718750	49313.187500
1462.654297	49267.816406
1461.589844	49101.511719
1460.524414	49398.445313
1459.458984	49250.421875
1458.393555	49408.082031
1457.328125	49278.351563
1456.262695	49312.824219
1455.196289	50229.503906
1454.130859	49753.246094
1453.064453	49881.039063
1451.998047	49956.386719
1450.930664	49708.226563
1449.864258	50544.285156
1448.796875	50380.359375
1447.729492	50173.230469
1446.662109	50400.960938
1445.594727	50694.609375
1444.526367	50717.363281
1443.458008	51256.558594
1442.390625	51611.308594
1441.321289	51483.769531
1440.252930	51817.882813
1439.184570	51856.316406
1438.115234	52394.812500
1437.045898	52253.582031
1435.976563	52621.390625
1434.907227	52979.976563
1433.836914	52936.382813
1432.767578	53337.925781
1431.697266	53741.597656
1430.626953	53604.804688
1429.555664	53561.121094
1428.485352	53735.312500
1427.414063	53830.027344
1426.342773	53865.722656
1425.271484	54271.113281
1424.200195	54458.652344
1423.128906	54321.886719
1422.056641	54386.929688
1420.984375	54485.941406
1419.912109	54385.496094
1418.839844	54529.785156
1417.767578	54524.507813
1416.694336	54736.660156
1415.621094	54303.347656
1414.547852	54635.460938
1413.474609	54510.179688
1412.400391	54468.687500
1411.327148	53798.121094
1410.252930	53964.914063
1409.178711	53819.476563
1408.104492	53674.089844
1407.029297	53815.937500
1405.955078	54479.984375
1404.879883	54687.183594
1403.804688	54957.585938
1402.729492	55196.253906
1401.653320	54949.097656
1400.578125	55106.355469
1399.501953	55238.714844
1398.425781	55707.468750
1397.349609	55040.472656
1396.272461	54694.238281
1395.196289	55250.843750
1394.119141	55829.808594
1393.041992	54892.546875
1391.964844	55627.000000
1390.886719	55984.570313
1389.809570	55773.812500
1388.731445	56338.625000
1387.653320	56303.679688
1386.575195	56424.242188
1385.497070	56040.054688
1384.417969	56503.031250
1383.338867	56675.289063
1382.259766	57333.894531
1381.180664	57285.285156
1380.101563	57612.628906
1379.021484	57275.890625
1377.941406	57130.550781
1376.861328	57561.230469
1375.781250	57645.332031
1374.701172	56874.750000
1373.620117	56419.257813
1372.539063	56532.738281
1371.458008	56356.203125
1370.376953	55856.093750
1369.295898	56023.539063
1368.213867	55806.746094
1367.132813	55217.148438
1366.050781	55180.238281
1364.967773	55008.613281
1363.885742	54874.589844
1362.802734	54740.445313
1361.720703	54606.421875
1360.637695	54472.277344
1359.554688	54338.128906
1358.470703	54203.863281
1357.387695	54069.718750
1356.303711	53935.453125
1355.219727	53801.187500
1354.135742	53666.921875
1353.050781	53532.535156
1351.966797	53782.777344
1350.881836	53277.992188
1349.796875	53548.343750
1348.711914	53037.062500
1347.626953	53063.308594
1346.541016	52993.289063
1345.455078	52524.898438
1344.369141	52754.851563
1343.283203	52684.917969
1342.197266	52653.035156
1341.110352	53077.414063
1340.023438	52443.945313
1338.936523	52499.308594
1337.849609	52673.125000
1336.762695	53077.066406
1335.674805	52694.316406
1334.586914	52941.718750
1333.499023	52976.828125
1332.411133	52962.789063
1331.323242	53388.632813
1330.234375	53122.250000
1329.145508	53351.484375
1328.056641	53544.925781
1326.967773	52961.808594
1325.878906	53380.566406
1324.789063	53741.175781
1323.699219	53747.070313
1322.609375	53859.988281
1321.519531	53850.250000
1320.429688	53914.066406
1319.338867	54231.902344
1318.248047	54500.605469
1317.157227	53982.843750
1316.066406	54676.894531
1314.975586	54874.101563
1313.883789	54988.859375
1312.791992	55277.203125
1311.700195	54748.628906
1310.608398	55141.496094
1309.516602	55013.605469
1308.423828	55117.097656
1307.331055	54782.417969
1306.238281	54852.554688
1305.145508	54956.015625
1304.051758	54792.695313
1302.958984	55205.042969
1301.865234	55026.175781
1300.771484	55664.929688
1299.677734	55792.570313
1298.583008	55966.800781
1297.489258	57144.593750
1296.394531	57063.207031
1295.299805	57612.218750
1294.204102	58101.109375
1293.109375	57544.765625
1292.013672	57658.574219
1290.917969	57610.429688
1289.822266	57092.164063
1288.726563	56946.578125
1287.630859	56355.460938
1286.534180	56269.898438
1285.437500	55847.531250
1284.340820	56225.144531
1283.244141	55266.855469
1282.146484	54968.921875
1281.048828	55138.328125
1279.951172	54329.085938
1278.853516	54607.007813
1277.755859	54249.644531
1276.658203	54215.472656
1275.559570	53856.089844
1274.460938	53733.519531
1273.362305	53438.484375
1272.262695	53057.320313
1271.164063	53328.472656
1270.064453	53508.898438
1268.964844	53183.171875
1267.865234	52643.230469
1266.765625	52806.000000
1265.665039	52562.296875
1264.564453	52210.468750
1263.463867	52030.984375
1262.363281	52030.378906
1261.262695	51875.269531
1260.161133	51819.519531
1259.059570	51834.390625
1257.958008	51679.394531
1256.856445	51634.730469
1255.754883	51687.109375
1254.652344	51430.796875
1253.549805	51203.230469
1252.447266	51277.691406
1251.344727	51314.664063
1250.242188	51082.828125
1249.138672	50842.269531
1248.035156	50824.230469
1246.931641	50955.933594
1245.828125	51215.277344
1244.724609	51010.078125
1243.620117	51141.667969
1242.515625	51132.382813
1241.411133	50551.105469
1240.306641	50691.500000
1239.201172	50574.535156
1238.096680	51000.710938
1236.991211	50674.882813
1235.885742	50909.656250
1234.779297	50852.062500
1233.673828	51119.671875
1232.567383	51376.199219
1231.460938	51035.210938
1230.354492	50549.410156
1229.248047	50836.632813
1228.140625	51176.433594
1227.033203	51318.574219
1225.926758	51023.980469
1224.818359	50722.906250
1223.710938	51176.539063
1222.602539	51401.910156
1221.495117	50844.367188
1220.386719	50984.210938
1219.278320	50832.464844
1218.168945	51088.410156
1217.060547	50743.867188
1215.951172	50603.195313
1214.841797	50136.199219
1213.731445	50740.285156
1212.622070	50074.179688
1211.511719	50218.316406
1210.402344	50366.781250
1209.291992	50497.679688
1208.180664	50867.023438
1207.070313	51026.218750
1205.958984	50457.007813
1204.847656	50948.613281
1203.736328	50663.855469
1202.625000	50691.800781
1201.512695	50837.757813
1200.401367	51252.445313
1199.289063	51085.812500
1198.176758	51275.300781
1197.063477	51412.300781
1195.951172	51396.390625
1194.837891	52046.378906
1193.724609	52368.699219
1192.611328	52110.367188
1191.498047	52229.625000
1190.383789	51820.871094
1189.269531	51964.128906
1188.155273	52039.718750
1187.041016	51570.167969
1185.926758	51661.062500
1184.811523	51969.886719
1183.696289	51330.613281
1182.581055	51173.101563
1181.465820	50882.757813
1180.350586	51577.011719
1179.234375	51347.671875
1178.118164	50687.308594
1177.001953	50873.996094
1175.885742	50899.550781
1174.768555	50439.824219
1173.652344	51033.304688
1172.535156	50299.628906
1171.417969	50571.027344
1170.299805	50116.035156
