#Wave		#Intensity
2001.221680	37472.390625
2000.251953	37504.976563
1999.282227	37064.878906
1998.312500	37469.332031
1997.342773	37390.140625
1996.372070	37523.878906
1995.402344	37700.144531
1994.431641	37345.519531
1993.460938	37173.769531
1992.490234	37257.386719
1991.518555	37185.816406
1990.547852	37246.878906
1989.576172	37200.347656
1988.604492	37611.562500
1987.632813	37424.929688
1986.661133	37295.875000
1985.689453	36916.867188
1984.716797	37552.792969
1983.745117	37591.218750
1982.772461	36880.031250
1981.799805	37518.125000
1980.827148	37471.605469
1979.853516	37799.703125
1978.880859	37578.363281
1977.907227	37334.632813
1976.933594	37869.746094
1975.959961	37361.515625
1974.986328	37499.703125
1974.011719	37183.804688
1973.038086	37394.308594
1972.063477	37370.312500
1971.088867	37588.187500
1970.114258	37434.531250
1969.138672	37864.179688
1968.164063	37461.316406
1967.188477	38077.683594
1966.212891	38056.078125
1965.237305	37847.667969
1964.261719	38134.914063
1963.286133	37358.855469
1962.309570	37718.277344
1961.333984	37798.796875
1960.357422	37827.027344
1959.380859	38099.089844
1958.404297	37970.523438
1957.426758	38070.835938
1956.450195	37962.214844
1955.472656	37813.843750
1954.495117	38244.765625
1953.517578	37805.585938
1952.540039	37997.781250
1951.561523	37946.410156
1950.583008	38215.523438
1949.605469	37781.613281
1948.626953	37787.417969
1947.647461	38418.929688
1946.668945	37952.933594
1945.690430	38164.718750
1944.710938	37947.093750
1943.731445	38260.531250
1942.751953	37921.406250
1941.772461	38217.371094
1940.791992	38438.832031
1939.812500	38375.074219
1938.832031	37949.394531
1937.851563	38515.312500
1936.871094	37960.886719
1935.890625	37922.027344
1934.909180	38125.960938
1933.928711	38000.390625
1932.947266	38224.046875
1931.965820	38239.632813
1930.984375	38272.546875
1930.002930	38033.175781
1929.020508	38494.234375
1928.038086	38188.101563
1927.056641	38404.058594
1926.074219	38258.820313
1925.090820	38239.750000
1924.108398	38680.582031
1923.125000	38463.671875
1922.142578	38785.667969
1921.159180	38245.078125
1920.175781	38616.410156
1919.191406	38557.765625
1918.208008	38649.804688
1917.223633	38405.957031
1916.240234	38737.488281
1915.255859	39303.425781
1914.271484	38410.441406
1913.286133	38939.218750
1912.301758	38636.308594
1911.316406	38863.890625
1910.331055	38736.218750
1909.345703	39175.781250
1908.360352	39215.757813
1907.375000	38555.605469
1906.388672	38795.320313
1905.402344	38864.910156
1904.416016	38939.398438
1903.429688	38959.070313
1902.443359	38978.742188
1901.457031	38998.414063
1900.469727	39018.105469
1899.482422	39037.792969
1898.495117	39057.484375
1897.507813	39077.175781
1896.520508	39096.867188
1895.532227	39116.578125
1894.543945	38930.164063
1893.556641	39110.226563
1892.568359	38946.003906
1891.579102	39519.320313
1890.590820	39332.960938
1889.601563	39394.867188
1888.613281	39800.722656
1887.624023	39381.035156
1886.634766	39595.171875
1885.644531	39598.042969
1884.655273	39050.933594
1883.665039	39652.875000
1882.674805	39339.109375
1881.684570	39840.175781
1880.694336	39646.707031
1879.704102	39534.261719
1878.712891	39500.339844
1877.722656	39490.949219
1876.731445	39768.421875
1875.740234	39842.332031
1874.748047	40144.152344
1873.756836	39818.531250
1872.764648	39767.433594
1871.773438	39831.488281
1870.781250	39829.386719
1869.788086	39702.398438
1868.795898	39707.664063
1867.803711	39837.769531
1866.810547	40006.988281
1865.817383	40107.628906
1864.824219	39914.636719
1863.831055	40448.234375
1862.837891	39861.472656
1861.843750	40231.050781
1860.849609	40693.402344
1859.855469	40234.015625
1858.861328	40366.253906
1857.867188	40395.812500
1856.872070	39902.511719
1855.877930	40511.074219
1854.882813	40508.835938
1853.887695	40704.390625
1852.892578	40504.355469
1851.896484	40773.070313
1850.901367	40487.667969
1849.905273	40753.847656
1848.909180	40446.589844
1847.913086	40727.316406
1846.916992	40907.949219
1845.919922	40730.058594
1844.923828	40925.250000
1843.926758	40598.718750
1842.929688	40701.250000
1841.932617	40940.203125
1840.935547	40769.761719
1839.937500	40857.589844
1838.939453	40996.527344
1837.942383	41047.753906
1836.943359	41332.683594
1835.945313	41437.378906
1834.947266	40923.863281
1833.948242	41021.292969
1832.949219	41615.000000
1831.951172	40853.601563
1830.951172	41405.781250
1829.952148	41298.796875
1828.953125	41512.761719
1827.953125	41602.683594
1826.953125	41281.843750
1825.953125	41578.312500
1824.953125	41464.089844
1823.952148	41464.074219
1822.952148	41592.777344
1821.951172	41604.875000
1820.950195	41796.625000
1819.949219	41449.433594
1818.948242	41692.101563
1817.946289	41454.238281
1816.945313	42167.476563
1815.943359	41456.613281
1814.941406	41589.968750
1813.939453	41517.171875
1812.936523	41868.660156
1811.934570	42292.742188
1810.931641	41912.066406
1809.928711	41785.949219
1808.925781	41621.113281
1807.921875	41991.640625
1806.918945	42010.878906
1805.915039	42071.269531
1804.912109	42221.214844
1803.908203	42308.171875
1802.903320	42266.828125
1801.899414	42227.921875
1800.894531	42155.156250
1799.890625	42520.218750
1798.885742	42198.328125
1797.880859	42468.953125
1796.875000	42761.234375
1795.870117	42860.046875
1794.864258	43333.402344
1793.858398	42876.335938
1792.852539	42808.378906
1791.846680	43148.644531
1790.840820	43054.089844
1789.833984	43191.367188
1788.828125	43285.140625
1787.821289	43074.750000
1786.814453	43409.832031
1785.806641	43498.687500
1784.799805	43606.804688
1783.791992	43548.457031
1782.784180	43195.917969
1781.776367	43460.750000
1780.768555	44024.417969
1779.760742	44079.316406
1778.751953	43570.281250
1777.743164	43760.164063
1776.735352	44190.875000
1775.725586	43496.628906
1774.716797	44062.089844
1773.708008	43864.097656
1772.698242	44034.492188
1771.688477	44094.109375
1770.678711	43780.699219
1769.668945	44451.468750
1768.659180	44191.027344
1767.648438	44700.335938
1766.637695	44680.417969
1765.626953	45069.238281
1764.616211	44943.484375
1763.605469	44707.214844
1762.593750	44922.800781
1761.583008	44655.378906
1760.571289	45111.113281
1759.559570	45525.855469
1758.547852	45491.394531
1757.535156	45507.363281
1756.523438	45561.734375
1755.510742	45692.886719
1754.498047	45749.601563
1753.485352	46139.789063
1752.472656	45807.792969
1751.458984	45945.996094
1750.445313	46177.667969
1749.432617	46284.585938
1748.417969	46206.886719
1747.404297	45944.667969
1746.390625	46653.027344
1745.375977	46807.695313
1744.361328	46938.351563
1743.346680	46757.609375
1742.332031	47209.097656
1741.317383	47272.574219
1740.302734	47144.523438
1739.287109	47909.222656
1738.271484	47654.281250
1737.255859	48397.082031
1736.240234	48134.964844
1735.223633	48875.019531
1734.208008	49007.453125
1733.191406	49278.500000
1732.174805	49487.300781
1731.158203	49739.046875
1730.140625	50769.675781
1729.124023	50409.496094
1728.106445	50775.589844
1727.088867	51511.730469
1726.071289	51495.449219
1725.053711	51887.414063
1724.035156	51983.253906
1723.017578	51971.664063
1721.999023	52587.625000
1720.980469	52683.281250
1719.961914	53315.593750
1718.942383	53093.898438
1717.923828	53318.171875
1716.904297	53530.441406
1715.884766	54078.718750
1714.865234	53747.414063
1713.844727	53592.546875
1712.825195	53776.019531
1711.804688	53599.761719
1710.784180	53828.410156
1709.763672	53571.246094
1708.743164	53473.671875
1707.722656	53411.832031
1706.701172	53718.878906
1705.679688	53388.144531
1704.658203	53533.316406
1703.636719	53573.777344
1702.615234	53033.964844
1701.592773	52941.347656
1700.571289	52946.226563
1699.548828	53217.308594
1698.526367	53020.136719
1697.502930	53008.363281
1696.480469	52896.816406
1695.457031	52172.515625
1694.433594	53243.765625
1693.410156	52738.097656
1692.386719	53096.695313
1691.363281	52721.765625
1690.338867	52546.304688
1689.314453	52691.203125
1688.290039	52790.980469
1687.265625	53011.679688
1686.241211	53087.644531
1685.215820	52985.761719
1684.191406	52717.972656
1683.166016	53068.875000
1682.140625	53362.781250
1681.115234	52988.445313
1680.088867	53360.425781
1679.062500	53350.957031
1678.037109	53485.937500
1677.010742	53594.824219
1675.983398	53734.445313
1674.957031	53540.300781
1673.930664	53670.410156
1672.903320	53928.230469
1671.875977	53880.808594
1670.848633	54152.687500
1669.820313	54580.531250
1668.792969	54277.675781
1667.764648	54497.328125
1666.736328	54445.109375
1665.708008	54678.828125
1664.679688	54593.515625
1663.651367	54923.964844
1662.622070	54992.144531
1661.592773	55178.367188
1660.563477	55347.988281
1659.534180	55149.324219
1658.504883	55493.531250
1657.474609	55415.242188
1656.444336	55452.582031
1655.415039	55836.644531
1654.383789	56222.925781
1653.353516	55772.003906
1652.323242	56443.410156
1651.291992	56904.796875
1650.260742	56286.664063
1649.229492	56813.886719
1648.198242	57058.218750
1647.166016	57083.406250
1646.134766	57136.847656
1645.102539	57717.687500
1644.070313	57909.882813
1643.038086	58360.921875
1642.004883	57752.800781
1640.972656	58827.222656
1639.939453	58416.839844
1638.906250	59088.550781
1637.873047	59498.988281
1636.839844	59798.769531
1635.805664	59898.621094
1634.772461	60917.437500
1633.738281	60718.605469
1632.704102	61126.027344
1631.668945	61319.527344
1630.634766	62236.363281
1629.599609	62060.910156
1628.565430	63247.289063
1627.530273	63386.273438
1626.494141	64271.566406
1625.458984	65165.929688
1624.422852	66583.179688
1623.387695	67469.765625
1622.351563	69024.476563
1621.315430	69983.000000
1620.278320	71979.820313
1619.242188	73387.546875
1618.205078	75577.570313
1617.167969	78197.976563
1616.130859	81478.132813
1615.093750	83166.593750
1614.055664	86130.859375
1613.018555	87607.140625
1611.980469	89906.992188
1610.942383	90232.734375
1609.904297	90340.703125
1608.865234	89281.000000
1607.827148	88394.789063
1606.788086	86351.023438
1605.749023	84146.617188
1604.709961	81734.882813
1603.669922	79604.546875
1602.630859	77559.117188
1601.590820	76608.140625
1600.550781	74921.468750
1599.510742	74018.023438
1598.470703	72967.750000
1597.429688	72001.914063
1596.389648	71732.234375
1595.348633	70801.976563
1594.307617	70992.421875
1593.265625	69411.515625
1592.224609	69280.148438
1591.182617	69510.414063
1590.140625	69115.500000
1589.098633	68683.414063
1588.056641	68109.242188
1587.014648	68080.781250
1585.971680	67355.414063
1584.928711	66958.890625
1583.886719	67224.218750
1582.842773	66180.242188
1581.799805	66387.375000
1580.755859	66217.179688
1579.712891	66573.242188
1578.668945	66519.468750
1577.625000	66831.117188
1576.580078	65951.203125
1575.536133	66376.843750
1574.491211	67416.460938
1573.446289	66904.382813
1572.401367	67392.406250
1571.356445	67959.296875
1570.311523	68814.234375
1569.265625	68462.625000
1568.219727	68501.531250
1567.173828	68919.117188
1566.127930	68214.593750
1565.082031	67677.531250
1564.035156	67563.281250
1562.988281	66968.476563
1561.941406	66575.835938
1560.894531	66359.718750
1559.847656	65992.843750
1558.799805	65679.460938
1557.751953	66105.359375
1556.704102	66041.812500
1555.656250	65978.265625
1554.608398	65914.718750
1553.560547	65851.171875
1552.511719	65787.562500
1551.462891	65694.710938
1550.414063	65949.390625
1549.365234	65448.875000
1548.315430	65696.562500
1547.265625	65812.171875
1546.216797	65636.046875
1545.166992	65344.250000
1544.116211	65334.886719
1543.066406	65496.746094
1542.015625	65845.929688
1540.965820	64973.734375
1539.915039	65133.250000
1538.863281	65290.394531
1537.812500	65456.726563
1536.760742	64793.234375
1535.709961	65045.093750
1534.658203	64682.269531
1533.605469	64167.105469
1532.553711	64206.445313
1531.501953	63673.074219
1530.449219	63384.625000
1529.396484	63186.308594
1528.343750	63091.917969
1527.290039	62692.957031
1526.237305	62464.867188
1525.183594	62548.273438
1524.129883	62121.937500
1523.076172	62043.953125
1522.022461	62104.324219
1520.968750	62037.890625
1519.914063	62211.167969
1518.859375	62013.386719
1517.804688	62073.710938
1516.750000	61747.027344
1515.694336	62166.648438
1514.639648	62581.515625
1513.583984	61990.148438
1512.528320	62112.558594
1511.472656	62083.031250
1510.416016	62532.117188
1509.360352	62224.144531
1508.303711	62307.312500
1507.247070	62641.125000
1506.190430	62747.175781
1505.132813	62177.296875
1504.076172	62600.585938
1503.018555	62577.882813
1501.960938	62543.699219
1500.903320	62121.281250
1499.844727	62592.500000
1498.787109	62551.433594
1497.728516	62308.328125
1496.669922	62414.246094
1495.611328	62816.207031
1494.552734	62910.515625
1493.493164	62561.964844
1492.434570	62195.183594
1491.375000	62628.996094
1490.315430	61863.312500
1489.254883	61758.222656
1488.195313	62168.953125
1487.134766	61839.226563
1486.074219	62203.957031
1485.013672	62025.554688
1483.953125	61996.109375
1482.892578	62115.542969
1481.831055	62351.714844
1480.769531	62081.824219
1479.708008	62572.003906
1478.646484	62212.906250
1477.583984	62407.691406
1476.522461	62645.878906
1475.459961	62609.480469
1474.397461	62104.253906
1473.334961	62374.367188
1472.271484	62424.910156
1471.208984	62301.707031
1470.145508	62644.765625
1469.082031	62960.281250
1468.018555	62645.136719
1466.954102	62442.027344
1465.890625	63266.675781
1464.826172	62972.191406
1463.761719	63166.351563
1462.697266	63570.437500
1461.631836	63070.656250
1460.567383	63588.691406
1459.501953	63406.179688
1458.436523	64129.242188
1457.371094	63376.578125
1456.305664	63750.531250
1455.239258	63675.257813
1454.172852	63296.867188
1453.107422	63237.644531
1452.040039	63233.125000
1450.973633	63353.898438
1449.907227	63891.421875
1448.839844	63440.449219
1447.772461	63485.976563
1446.705078	63645.300781
1445.637695	64023.062500
1444.569336	63806.761719
1443.500977	64407.316406
1442.432617	64429.863281
1441.364258	64698.031250
1440.295898	64465.839844
1439.227539	64993.078125
1438.158203	65454.207031
1437.088867	65731.078125
1436.019531	65539.757813
1434.950195	65875.578125
1433.879883	66040.914063
1432.810547	66122.156250
1431.740234	66232.882813
1430.669922	66702.273438
1429.598633	67709.445313
1428.528320	68448.453125
1427.457031	68706.164063
1426.386719	69068.132813
1425.314453	69393.671875
1424.243164	69628.382813
1423.171875	70184.984375
1422.099609	70811.648438
1421.027344	71039.171875
1419.955078	70761.257813
1418.882813	71523.421875
1417.810547	71073.335938
1416.737305	70979.015625
1415.664063	71262.898438
1414.590820	70851.593750
1413.517578	70238.960938
1412.444336	69554.109375
1411.370117	69328.882813
1410.295898	68599.195313
1409.221680	67994.179688
1408.147461	67554.484375
1407.073242	67824.984375
1405.998047	67925.820313
1404.922852	67529.312500
1403.847656	67896.851563
1402.772461	67688.039063
1401.697266	67691.664063
1400.621094	67239.000000
1399.544922	67590.507813
1398.468750	67637.046875
1397.392578	67900.296875
1396.316406	68504.289063
1395.239258	68911.718750
1394.162109	69707.101563
1393.084961	70646.578125
1392.007813	72212.765625
1390.930664	72991.328125
1389.852539	73986.062500
1388.774414	74860.960938
1387.696289	75636.359375
1386.618164	75960.765625
1385.540039	75687.968750
1384.460938	75597.734375
1383.382813	74665.156250
1382.303711	74626.929688
1381.223633	74131.648438
1380.144531	74174.570313
1379.064453	74014.906250
1377.985352	73920.546875
1376.905273	73313.250000
1375.825195	73401.257813
1374.744141	72881.984375
1373.664063	72866.593750
1372.583008	72709.562500
1371.501953	73026.890625
1370.420898	73045.187500
1369.338867	72699.445313
1368.257813	72574.007813
1367.175781	72994.445313
1366.093750	73100.312500
1365.011719	73670.937500
1363.929688	74241.554688
1362.846680	74812.695313
1361.763672	75383.828125
1360.680664	76855.640625
1359.597656	76339.242188
1358.514648	77018.562500
1357.430664	76921.687500
1356.346680	76154.421875
1355.262695	75481.593750
1354.178711	74820.203125
1353.094727	73522.609375
1352.009766	73332.328125
1350.925781	72104.914063
1349.840820	71265.414063
1348.755859	70397.109375
1347.669922	70601.578125
1346.584961	69780.710938
1345.499023	69445.812500
1344.413086	68332.296875
1343.327148	68458.671875
1342.240234	68701.320313
1341.154297	68530.117188
1340.067383	68345.554688
1338.980469	68699.875000
1337.893555	68504.164063
1336.805664	68777.867188
1335.718750	67552.085938
1334.630859	68460.343750
1333.542969	67534.382813
1332.455078	68565.140625
1331.367188	68525.960938
1330.278320	68551.531250
1329.189453	68907.437500
1328.100586	69332.398438
1327.011719	69543.000000
1325.922852	70478.562500
1324.833008	70798.164063
1323.743164	71365.187500
1322.653320	72790.437500
1321.563477	73809.437500
1320.473633	75367.460938
1319.382813	77192.328125
1318.291992	78722.429688
1317.201172	81085.117188
1316.110352	83351.179688
1315.019531	84868.195313
1313.927734	86019.515625
1312.835938	87076.921875
1311.744141	87484.046875
1310.652344	86651.546875
1309.560547	86442.312500
1308.467773	84429.117188
1307.375000	83114.992188
1306.282227	80934.125000
1305.189453	79383.218750
1304.095703	78241.867188
1303.002930	76327.523438
1301.909180	74858.273438
1300.815430	73896.085938
1299.721680	73460.679688
1298.626953	73405.187500
1297.533203	72419.351563
1296.438477	72688.179688
1295.343750	72890.328125
1294.248047	72495.421875
1293.153320	73356.515625
1292.057617	73323.265625
1290.961914	73323.296875
1289.866211	73527.343750
1288.770508	73795.617188
1287.674805	73310.070313
1286.578125	73691.312500
1285.481445	73582.679688
1284.384766	73604.796875
1283.288086	73272.476563
1282.190430	73374.375000
1281.092773	73026.703125
1279.996094	72544.101563
1278.897461	72322.882813
1277.799805	72050.828125
1276.702148	71203.546875
1275.603516	71281.351563
1274.504883	71031.750000
1273.406250	70538.960938
1272.307617	70198.914063
1271.208008	69525.164063
1270.108398	69313.625000
1269.008789	69172.882813
1267.909180	68811.218750
1266.809570	68798.750000
1265.708984	68879.039063
1264.609375	68477.875000
1263.508789	68229.203125
1262.407227	67821.671875
1261.306641	67880.000000
1260.206055	67360.125000
1259.104492	67502.359375
1258.002930	67238.625000
1256.901367	67244.078125
1255.798828	66998.125000
1254.697266	66432.570313
1253.594727	66255.187500
1252.492188	66512.054688
1251.389648	67004.609375
1250.286133	66833.820313
1249.183594	66220.328125
1248.080078	66402.117188
1246.976563	66222.718750
1245.872070	66314.171875
1244.768555	66339.554688
1243.664063	66637.828125
1242.560547	66465.101563
1241.455078	66794.031250
1240.350586	67345.000000
1239.246094	67297.585938
1238.140625	67445.875000
1237.035156	67822.750000
1235.929688	67249.937500
1234.824219	67690.429688
1233.717773	67715.492188
1232.612305	67509.875000
1231.505859	66887.007813
1230.399414	67193.281250
1229.291992	66820.992188
1228.185547	66558.601563
1227.078125	66353.367188
1225.970703	66042.875000
1224.863281	65787.335938
1223.755859	65819.257813
1222.647461	65644.992188
1221.539063	65565.085938
1220.430664	65290.082031
1219.322266	65510.570313
1218.213867	65286.074219
1217.104492	65109.863281
1215.995117	64975.343750
1214.885742	65086.195313
1213.776367	64991.140625
1212.666992	65055.960938
1211.556641	65547.656250
1210.446289	65157.066406
1209.335938	65677.007813
1208.225586	65566.601563
1207.115234	65482.484375
1206.003906	65612.742188
1204.892578	66694.226563
1203.781250	66288.539063
1202.669922	66864.523438
1201.557617	66826.132813
1200.446289	67351.546875
1199.333984	67426.679688
1198.221680	67704.945313
1197.108398	67987.476563
1195.996094	68448.953125
1194.882813	68569.679688
1193.769531	68915.187500
1192.656250	68529.437500
1191.542969	68835.546875
1190.428711	68334.320313
1189.314453	67975.062500
1188.200195	67458.906250
1187.085938	67115.187500
1185.971680	66965.625000
1184.856445	67029.718750
1183.741211	66518.453125
1182.625977	66645.789063
1181.510742	65768.789063
1180.395508	66763.093750
1179.279297	66232.640625
1178.163086	66536.281250
1177.046875	66067.015625
1175.930664	65502.144531
1174.813477	66251.851563
1173.697266	65882.960938
1172.580078	66195.078125
1171.462891	65852.429688
1170.344727	65659.945313
