#Wave		#Intensity
2001.182617	34649.812500
2000.212891	35020.773438
1999.243164	34939.480469
1998.273438	35003.539063
1997.303711	35019.972656
1996.333008	35251.812500
1995.363281	35355.843750
1994.392578	35672.671875
1993.421875	35651.421875
1992.451172	35229.699219
1991.479492	35543.875000
1990.508789	35149.839844
1989.537109	35091.164063
1988.566406	35232.609375
1987.594727	35301.480469
1986.622070	35145.289063
1985.650391	34944.156250
1984.677734	35095.519531
1983.706055	35204.347656
1982.733398	35188.203125
1981.760742	35129.589844
1980.788086	35415.691406
1979.814453	35599.300781
1978.841797	35290.957031
1977.868164	35239.851563
1976.894531	35463.328125
1975.920898	35504.546875
1974.947266	35188.941406
1973.972656	35320.000000
1972.999023	35291.378906
1972.024414	35564.519531
1971.049805	35281.535156
1970.075195	35215.535156
1969.099609	35164.515625
1968.125000	35370.191406
1967.149414	35598.222656
1966.173828	35596.980469
1965.198242	35356.625000
1964.222656	35352.929688
1963.247070	35682.886719
1962.270508	35437.656250
1961.294922	35481.238281
1960.318359	35679.097656
1959.341797	35416.578125
1958.364258	35467.601563
1957.387695	35759.871094
1956.410156	35504.929688
1955.433594	35496.230469
1954.456055	35639.179688
1953.478516	36070.402344
1952.500000	35596.886719
1951.522461	35540.964844
1950.543945	35358.363281
1949.565430	35650.234375
1948.586914	35765.679688
1947.608398	35950.609375
1946.629883	35651.378906
1945.650391	35729.531250
1944.671875	35872.175781
1943.692383	35607.847656
1942.712891	35847.210938
1941.733398	35649.949219
1940.752930	35777.625000
1939.773438	35692.015625
1938.792969	35849.382813
1937.812500	35580.375000
1936.832031	35789.742188
1935.851563	35654.632813
1934.870117	35650.867188
1933.888672	35587.656250
1932.908203	35767.152344
1931.926758	35939.160156
1930.945313	35925.437500
1929.962891	35849.843750
1928.981445	35578.769531
1927.999023	35612.125000
1927.016602	35784.000000
1926.034180	35706.003906
1925.051758	35793.718750
1924.069336	35609.425781
1923.085938	35959.167969
1922.102539	35745.246094
1921.119141	35741.449219
1920.135742	35604.234375
1919.152344	36030.308594
1918.168945	36080.800781
1917.184570	35783.074219
1916.200195	35803.960938
1915.215820	35652.035156
1914.231445	36215.941406
1913.247070	35706.164063
1912.261719	36102.082031
1911.276367	35678.843750
1910.291992	35672.589844
1909.306641	35880.878906
1908.320313	35800.617188
1907.334961	36097.554688
1906.348633	35635.246094
1905.363281	36075.035156
1904.376953	36231.324219
1903.390625	36269.312500
1902.403320	36482.156250
1901.416992	36158.082031
1900.429688	35878.441406
1899.443359	35978.000000
1898.456055	35915.078125
1897.467773	36263.140625
1896.480469	35988.589844
1895.493164	36255.332031
1894.504883	35953.824219
1893.516602	36434.421875
1892.528320	36268.210938
1891.540039	36023.394531
1890.550781	36041.648438
1889.562500	36204.882813
1888.573242	36262.410156
1887.583984	36550.828125
1886.594727	36554.234375
1885.605469	36159.820313
1884.615234	36455.464844
1883.625000	36159.394531
1882.635742	36543.292969
1881.645508	36544.238281
1880.654297	36331.722656
1879.664063	36264.015625
1878.673828	36475.933594
1877.682617	36280.707031
1876.691406	36164.000000
1875.700195	36429.750000
1874.708984	36391.488281
1873.716797	36448.808594
1872.725586	36589.410156
1871.733398	36651.570313
1870.741211	36738.199219
1869.749023	36579.921875
1868.755859	36979.917969
1867.763672	36336.960938
1866.770508	36705.042969
1865.777344	36490.589844
1864.784180	36907.445313
1863.791016	36411.714844
1862.797852	36845.554688
1861.803711	36359.789063
1860.809570	36512.316406
1859.815430	36909.238281
1858.821289	36883.195313
1857.827148	36820.507813
1856.832031	36625.910156
1855.837891	36641.453125
1854.842773	36898.781250
1853.847656	36762.871094
1852.852539	36871.156250
1851.856445	37003.808594
1850.861328	37170.585938
1849.865234	37215.292969
1848.869141	37177.027344
1847.873047	37026.566406
1846.876953	37217.605469
1845.879883	37450.027344
1844.883789	37143.558594
1843.886719	37502.664063
1842.889648	37128.050781
1841.892578	37082.531250
1840.895508	37480.433594
1839.897461	37045.121094
1838.899414	37450.195313
1837.901367	37611.621094
1836.903320	37546.570313
1835.905273	37267.332031
1834.907227	37494.414063
1833.908203	37390.480469
1832.909180	37537.171875
1831.910156	37776.242188
1830.911133	37626.101563
1829.912109	37361.722656
1828.912109	37880.281250
1827.913086	37598.933594
1826.913086	37791.601563
1825.913086	37592.984375
1824.913086	37936.207031
1823.912109	38092.269531
1822.912109	37976.273438
1821.911133	38078.851563
1820.910156	37829.367188
1819.909180	37781.437500
1818.908203	38301.421875
1817.906250	37840.921875
1816.904297	37824.550781
1815.903320	38118.664063
1814.900391	38487.851563
1813.898438	38190.097656
1812.896484	38176.093750
1811.893555	38382.671875
1810.891602	38625.523438
1809.888672	38601.753906
1808.885742	38190.371094
1807.881836	38282.949219
1806.878906	38804.148438
1805.875000	38436.527344
1804.871094	38480.589844
1803.867188	38488.328125
1802.863281	38612.226563
1801.859375	38803.828125
1800.854492	38874.398438
1799.849609	38981.226563
1798.844727	38640.617188
1797.839844	38679.746094
1796.834961	38892.917969
1795.830078	38632.261719
1794.824219	38681.031250
1793.818359	38792.601563
1792.812500	39032.171875
1791.806641	39365.855469
1790.799805	39030.476563
1789.793945	38951.152344
1788.787109	38490.429688
1787.780273	39475.656250
1786.773438	38870.207031
1785.766602	39471.378906
1784.758789	39657.402344
1783.751953	39252.429688
1782.744141	39414.308594
1781.736328	39607.472656
1780.728516	39479.949219
1779.719727	39750.160156
1778.711914	39490.109375
1777.703125	39668.660156
1776.694336	40023.007813
1775.685547	39724.503906
1774.676758	39958.304688
1773.666992	40266.660156
1772.657227	39898.453125
1771.648438	39814.386719
1770.638672	40353.617188
1769.627930	40295.964844
1768.618164	40351.390625
1767.607422	40250.464844
1766.597656	40279.425781
1765.586914	40649.785156
1764.576172	40380.582031
1763.564453	40392.671875
1762.553711	40529.718750
1761.541992	40123.722656
1760.530273	40486.570313
1759.518555	41031.824219
1758.506836	40611.542969
1757.495117	41375.058594
1756.482422	41014.875000
1755.469727	41096.425781
1754.457031	40652.425781
1753.444336	40997.925781
1752.431641	41175.386719
1751.417969	41832.457031
1750.405273	41093.687500
1749.391602	41244.656250
1748.377930	41882.183594
1747.364258	41589.574219
1746.349609	41577.425781
1745.335938	41531.742188
1744.321289	41756.750000
1743.306641	41773.316406
1742.291992	41888.050781
1741.276367	41935.707031
1740.261719	42083.878906
1739.246094	42148.234375
1738.230469	42107.277344
1737.214844	42195.523438
1736.199219	42644.937500
1735.182617	42486.718750
1734.166992	42553.328125
1733.150391	42976.132813
1732.133789	42937.453125
1731.117188	43362.429688
1730.099609	43715.566406
1729.083008	43578.820313
1728.065430	43821.910156
1727.047852	44389.714844
1726.030273	44238.589844
1725.012695	44459.945313
1723.994141	44817.277344
1722.976563	44966.851563
1721.958008	45347.824219
1720.939453	45308.781250
1719.920898	45701.480469
1718.901367	45910.406250
1717.882813	45690.066406
1716.863281	46030.035156
1715.843750	46319.828125
1714.824219	46545.171875
1713.803711	46303.421875
1712.784180	46411.953125
1711.763672	46494.242188
1710.743164	46612.222656
1709.722656	46358.714844
1708.702148	46026.738281
1707.681641	46080.468750
1706.660156	46338.835938
1705.638672	46482.906250
1704.617188	46446.121094
1703.595703	46347.503906
1702.574219	46510.511719
1701.551758	46338.210938
1700.529297	46669.941406
1699.507813	46454.886719
1698.484375	46470.414063
1697.461914	46474.058594
1696.439453	46147.492188
1695.416016	46547.832031
1694.392578	46760.429688
1693.369141	46255.910156
1692.345703	46675.003906
1691.322266	46536.187500
1690.297852	47353.746094
1689.273438	47278.917969
1688.249023	47355.929688
1687.224609	47314.324219
1686.200195	46938.375000
1685.174805	47940.062500
1684.150391	47758.507813
1683.125000	48046.296875
1682.099609	47836.351563
1681.073242	47853.925781
1680.047852	48065.734375
1679.021484	47635.628906
1677.995117	48138.660156
1676.968750	48108.808594
1675.942383	48142.878906
1674.916016	48792.281250
1673.888672	48951.628906
1672.862305	48798.621094
1671.834961	48659.859375
1670.806641	48492.761719
1669.779297	49257.382813
1668.751953	48993.304688
1667.723633	49428.996094
1666.695313	48921.550781
1665.666992	49092.445313
1664.638672	49872.812500
1663.609375	49776.554688
1662.581055	49751.183594
1661.551758	49969.027344
1660.522461	49532.839844
1659.493164	50017.371094
1658.462891	50126.484375
1657.433594	49714.093750
1656.403320	49983.640625
1655.373047	50330.933594
1654.342773	50439.906250
1653.312500	50324.835938
1652.281250	50542.214844
1651.250977	50776.011719
1650.219727	50453.550781
1649.188477	50477.574219
1648.156250	50904.425781
1647.125000	50923.644531
1646.092773	50594.316406
1645.060547	51042.105469
1644.028320	50856.472656
1642.996094	51146.351563
1641.963867	51301.988281
1640.930664	51008.167969
1639.898438	51217.878906
1638.865234	51185.250000
1637.832031	51978.054688
1636.797852	51319.875000
1635.764648	51968.972656
1634.730469	51825.757813
1633.696289	51851.789063
1632.662109	51875.457031
1631.627930	52467.605469
1630.592773	52477.062500
1629.558594	52735.429688
1628.523438	52458.390625
1627.488281	53258.925781
1626.453125	53655.488281
1625.416992	53286.906250
1624.381836	54103.285156
1623.345703	54126.500000
1622.309570	54194.261719
1621.273438	54904.515625
1620.237305	55555.898438
1619.200195	56471.933594
1618.163086	57029.054688
1617.125977	58495.164063
1616.088867	59532.007813
1615.051758	60659.835938
1614.014648	62040.195313
1612.976563	62848.710938
1611.938477	63916.808594
1610.900391	63975.648438
1609.862305	64245.097656
1608.823242	64725.042969
1607.785156	63649.035156
1606.746094	62961.695313
1605.707031	61572.992188
1604.667969	60605.671875
1603.628906	59750.910156
1602.588867	58968.910156
1601.548828	58098.378906
1600.508789	57277.222656
1599.468750	56582.515625
1598.428711	56254.765625
1597.387695	55749.648438
1596.347656	55613.625000
1595.306641	55038.757813
1594.265625	55000.937500
1593.224609	54361.039063
1592.182617	54729.339844
1591.140625	54150.367188
1590.099609	54415.941406
1589.057617	54249.992188
1588.014648	54200.683594
1586.972656	53976.550781
1585.929688	54339.851563
1584.887695	54637.769531
1583.844727	55031.105469
1582.800781	54911.804688
1581.757813	54692.390625
1580.714844	54879.531250
1579.670898	55066.847656
1578.626953	55254.167969
1577.583008	55441.484375
1576.538086	55628.976563
1575.494141	55816.292969
1574.449219	56003.785156
1573.404297	56191.277344
1572.359375	56290.542969
1571.314453	56766.417969
1570.269531	56356.464844
1569.223633	56344.082031
1568.177734	56071.445313
1567.131836	55573.542969
1566.085938	55370.824219
1565.040039	55072.953125
1563.993164	54863.421875
1562.946289	54057.304688
1561.899414	54126.574219
1560.852539	54513.769531
1559.805664	54169.898438
1558.757813	53969.988281
1557.709961	53971.949219
1556.662109	53190.027344
1555.614258	53829.777344
1554.566406	53620.789063
1553.517578	53365.511719
1552.469727	53033.843750
1551.420898	53582.792969
1550.372070	53814.152344
1549.322266	53359.816406
1548.273438	53577.238281
1547.223633	53560.718750
1546.173828	53555.777344
1545.124023	53328.636719
1544.074219	53025.203125
1543.024414	53612.683594
1541.973633	53637.800781
1540.922852	52772.421875
1539.872070	52973.429688
1538.821289	53271.476563
1537.770508	53181.042969
1536.718750	53564.457031
1535.666992	52984.089844
1534.615234	53524.511719
1533.563477	53179.984375
1532.511719	52879.457031
1531.458984	53091.687500
1530.407227	53001.386719
1529.354492	53102.710938
1528.300781	52728.550781
1527.248047	52758.347656
1526.195313	53030.386719
1525.141602	52691.035156
1524.087891	52790.007813
1523.034180	52642.207031
1521.980469	52510.597656
1520.925781	52600.324219
1519.871094	52291.300781
1518.817383	51980.082031
1517.762695	52249.550781
1516.707031	52274.750000
1515.652344	52134.121094
1514.596680	52048.804688
1513.541016	52154.601563
1512.485352	51958.820313
1511.429688	51555.976563
1510.374023	52165.714844
1509.317383	51889.507813
1508.260742	51654.804688
1507.204102	51811.136719
1506.147461	51645.503906
1505.090820	52266.164063
1504.033203	51741.937500
1502.975586	52582.968750
1501.917969	51778.550781
1500.860352	52017.382813
1499.802734	52056.300781
1498.744141	52230.695313
1497.686523	51870.042969
1496.627930	51578.386719
1495.569336	52016.714844
1494.509766	51837.582031
1493.451172	51718.160156
1492.391602	52406.269531
1491.332031	51649.171875
1490.272461	52011.410156
1489.212891	52114.433594
1488.152344	51944.628906
1487.092773	51566.316406
1486.032227	51380.625000
1484.971680	52294.738281
1483.910156	51749.335938
1482.849609	51829.382813
1481.788086	52140.671875
1480.726563	51900.089844
1479.665039	52158.601563
1478.603516	51883.765625
1477.541992	52004.894531
1476.479492	52032.171875
1475.416992	52269.882813
1474.354492	51693.328125
1473.291992	52420.343750
1472.229492	52625.843750
1471.166016	52380.968750
1470.102539	52197.882813
1469.039063	52300.480469
1467.975586	52208.855469
1466.912109	52414.199219
1465.847656	52450.468750
1464.783203	52660.253906
1463.718750	52917.906250
1462.654297	52844.500000
1461.589844	52921.734375
1460.524414	53092.488281
1459.458984	53240.367188
1458.393555	53173.789063
1457.328125	53435.621094
1456.262695	52931.257813
1455.196289	53539.535156
1454.130859	53593.742188
1453.064453	53472.457031
1451.998047	53250.964844
1450.930664	53961.250000
1449.864258	53830.847656
1448.796875	54121.769531
1447.729492	54075.621094
1446.662109	54423.296875
1445.594727	54454.488281
1444.526367	54522.074219
1443.458008	54792.121094
1442.390625	55030.226563
1441.321289	55161.347656
1440.252930	55110.503906
1439.184570	55550.757813
1438.115234	56381.820313
1437.045898	56376.234375
1435.976563	56620.597656
1434.907227	56962.562500
1433.836914	57095.425781
1432.767578	57334.980469
1431.697266	56950.015625
1430.626953	57355.234375
1429.555664	57866.984375
1428.485352	57833.886719
1427.414063	57875.675781
1426.342773	58523.164063
1425.271484	57963.738281
1424.200195	58427.281250
1423.128906	58190.039063
1422.056641	58911.804688
1420.984375	58896.675781
1419.912109	58888.347656
1418.839844	58662.511719
1417.767578	58998.554688
1416.694336	59112.515625
1415.621094	58875.425781
1414.547852	58846.722656
1413.474609	58365.281250
1412.400391	58237.089844
1411.327148	58142.882813
1410.252930	57367.699219
1409.178711	57545.128906
1408.104492	57693.089844
1407.029297	57967.625000
1405.955078	58223.972656
1404.879883	58708.531250
1403.804688	58422.238281
1402.729492	59046.679688
1401.653320	58981.828125
1400.578125	59174.503906
1399.501953	59197.726563
1398.425781	58726.433594
1397.349609	58761.007813
1396.272461	58971.632813
1395.196289	59342.410156
1394.119141	58523.937500
1393.041992	59167.632813
1391.964844	59001.339844
1390.886719	59660.496094
1389.809570	59766.996094
1388.731445	59445.128906
1387.653320	59718.417969
1386.575195	60340.902344
1385.497070	60055.148438
1384.417969	60398.003906
1383.338867	60251.980469
1382.259766	60741.050781
1381.180664	61103.855469
1380.101563	60964.527344
1379.021484	61007.554688
1377.941406	61147.328125
1376.861328	60769.574219
1375.781250	60517.925781
1374.701172	60560.992188
1373.620117	60266.738281
1372.539063	59932.125000
1371.458008	59916.820313
1370.376953	58795.773438
1369.295898	59490.742188
1368.213867	58711.660156
1367.132813	58523.617188
1366.050781	58486.113281
1364.967773	59027.941406
1363.885742	58352.765625
1362.802734	58571.187500
1361.720703	58156.664063
1360.637695	58384.015625
1359.554688	58005.562500
1358.470703	58416.781250
1357.387695	58220.101563
1356.303711	57830.667969
1355.219727	57939.042969
1354.135742	57605.828125
1353.050781	57750.058594
1351.966797	56924.066406
1350.881836	57446.953125
1349.796875	57118.535156
1348.711914	57029.843750
1347.626953	56739.679688
1346.541016	57275.640625
1345.455078	56763.953125
1344.369141	56341.960938
1343.283203	57079.058594
1342.197266	56585.570313
1341.110352	56456.816406
1340.023438	56721.664063
1338.936523	56809.789063
1337.849609	56891.175781
1336.762695	56845.140625
1335.674805	56955.535156
1334.586914	57296.000000
1333.499023	56919.320313
1332.411133	57270.832031
1331.323242	57832.105469
1330.234375	58294.945313
1329.145508	57340.234375
1328.056641	57724.878906
1326.967773	57636.351563
1325.878906	57746.402344
1324.789063	57555.296875
1323.699219	58260.746094
1322.609375	57605.839844
1321.519531	58072.488281
1320.429688	58423.066406
1319.338867	58365.703125
1318.248047	58660.394531
1317.157227	58941.609375
1316.066406	59106.906250
1314.975586	58980.417969
1313.883789	59225.792969
1312.791992	59068.164063
1311.700195	59393.550781
1310.608398	59930.214844
1309.516602	60012.816406
1308.423828	59719.457031
1307.331055	59417.304688
1306.238281	59442.132813
1305.145508	59795.988281
1304.051758	60400.890625
1302.958984	59981.031250
1301.865234	60299.039063
1300.771484	60714.675781
1299.677734	61181.250000
1298.583008	62198.414063
1297.489258	62262.648438
1296.394531	62888.519531
1295.299805	63927.011719
1294.204102	63664.667969
1293.109375	63613.203125
1292.013672	64007.652344
1290.917969	63479.265625
1289.822266	62704.917969
1288.726563	62746.773438
1287.630859	62119.140625
1286.534180	62056.910156
1285.437500	61400.816406
1284.340820	60948.789063
1283.244141	60990.914063
1282.146484	60324.285156
1281.048828	60393.074219
1279.951172	59777.714844
1278.853516	59501.253906
1277.755859	59771.546875
1276.658203	59324.796875
1275.559570	59495.460938
1274.460938	59057.765625
1273.362305	58527.339844
1272.262695	58107.660156
1271.164063	58400.007813
1270.064453	57580.421875
1268.964844	57740.152344
1267.865234	58001.460938
1266.765625	57248.660156
1265.665039	57240.488281
1264.564453	57459.781250
1263.463867	57131.414063
1262.363281	57257.921875
1261.262695	57006.957031
1260.161133	57219.500000
1259.059570	57246.628906
1257.958008	56750.933594
1256.856445	56517.875000
1255.754883	56320.179688
1254.652344	55880.031250
1253.549805	56180.710938
1252.447266	56238.839844
1251.344727	56217.617188
1250.242188	55929.816406
1249.138672	55774.285156
1248.035156	55587.972656
1246.931641	55793.675781
1245.828125	55849.597656
1244.724609	55885.683594
1243.620117	55281.328125
1242.515625	55746.574219
1241.411133	55459.257813
1240.306641	55365.605469
1239.201172	56026.300781
1238.096680	56016.128906
1236.991211	56370.886719
1235.885742	56659.574219
1234.779297	55814.203125
1233.673828	55832.628906
1232.567383	55466.609375
1231.460938	55274.234375
1230.354492	55683.628906
1229.248047	55888.679688
1228.140625	55674.375000
1227.033203	55903.492188
1225.926758	56237.851563
1224.818359	56216.664063
1223.710938	56417.035156
1222.602539	56005.425781
1221.495117	56091.730469
1220.386719	55697.867188
1219.278320	55836.800781
1218.168945	56063.343750
1217.060547	56033.429688
1215.951172	55988.191406
1214.841797	55798.398438
1213.731445	55365.582031
1212.622070	55810.953125
1211.511719	55595.019531
1210.402344	55692.164063
1209.291992	55647.019531
1208.180664	55577.824219
1207.070313	55445.207031
1205.958984	56205.027344
1204.847656	56778.683594
1203.736328	55854.429688
1202.625000	56513.195313
1201.512695	55810.066406
1200.401367	56289.406250
1199.289063	56954.277344
1198.176758	56417.464844
1197.063477	56099.250000
1195.951172	57012.718750
1194.837891	56653.027344
1193.724609	57018.164063
1192.611328	56811.367188
1191.498047	56986.500000
1190.383789	57011.031250
1189.269531	56693.097656
1188.155273	56647.882813
1187.041016	56415.160156
1185.926758	56101.859375
1184.811523	56270.375000
1183.696289	56055.277344
1182.581055	55539.570313
1181.465820	56191.710938
1180.350586	55336.382813
1179.234375	55759.664063
1178.118164	55189.941406
1177.001953	55732.820313
1175.885742	55330.898438
1174.768555	54920.414063
1173.652344	55454.335938
1172.535156	54800.339844
1171.417969	54768.605469
1170.299805	55004.343750
