#Wave		#Intensity
2001.221680	40274.671875
2000.251953	40718.328125
1999.282227	40879.125000
1998.312500	40811.855469
1997.342773	40323.730469
1996.372070	40935.367188
1995.402344	40970.792969
1994.431641	41076.316406
1993.460938	40658.578125
1992.490234	40761.609375
1991.518555	41049.796875
1990.547852	40832.449219
1989.576172	40982.921875
1988.604492	40818.187500
1987.632813	41048.636719
1986.661133	41264.000000
1985.689453	41084.296875
1984.716797	40809.667969
1983.745117	41407.320313
1982.772461	41040.277344
1981.799805	41178.003906
1980.827148	41003.460938
1979.853516	40966.328125
1978.880859	40562.160156
1977.907227	40802.222656
1976.933594	40974.804688
1975.959961	41005.078125
1974.986328	40850.699219
1974.011719	41130.449219
1973.038086	41302.851563
1972.063477	41475.187500
1971.088867	41226.074219
1970.114258	41041.867188
1969.138672	41231.601563
1968.164063	40972.691406
1967.188477	41558.546875
1966.212891	41573.699219
1965.237305	41773.167969
1964.261719	41606.476563
1963.286133	41320.332031
1962.309570	41308.125000
1961.333984	41295.921875
1960.357422	41462.902344
1959.380859	41264.058594
1958.404297	41401.132813
1957.426758	41272.011719
1956.450195	41814.390625
1955.472656	41667.835938
1954.495117	41722.695313
1953.517578	42075.804688
1952.540039	41576.382813
1951.561523	41740.550781
1950.583008	41494.757813
1949.605469	41795.492188
1948.626953	41768.308594
1947.647461	41343.863281
1946.668945	41130.574219
1945.690430	41282.230469
1944.710938	41677.031250
1943.731445	41099.054688
1942.751953	41555.769531
1941.772461	41771.726563
1940.791992	41883.449219
1939.812500	41903.390625
1938.832031	41452.300781
1937.851563	41492.136719
1936.871094	41826.859375
1935.890625	41561.847656
1934.909180	41784.960938
1933.928711	41752.875000
1932.947266	41557.351563
1931.965820	41864.527344
1930.984375	41735.890625
1930.002930	41921.640625
1929.020508	41364.910156
1928.038086	41647.152344
1927.056641	41864.976563
1926.074219	41704.289063
1925.090820	41872.562500
1924.108398	42241.054688
1923.125000	41768.894531
1922.142578	41719.554688
1921.159180	41843.218750
1920.175781	41845.769531
1919.191406	41969.367188
1918.208008	41848.390625
1917.223633	41927.488281
1916.240234	42181.863281
1915.255859	42189.281250
1914.271484	42130.050781
1913.286133	42455.816406
1912.301758	42174.496094
1911.316406	41876.003906
1910.331055	41989.519531
1909.345703	42016.679688
1908.360352	42009.312500
1907.375000	42098.085938
1906.388672	42475.207031
1905.402344	41713.671875
1904.416016	42342.039063
1903.429688	42339.539063
1902.443359	42011.917969
1901.457031	42231.105469
1900.469727	42139.984375
1899.482422	42405.843750
1898.495117	42078.433594
1897.507813	42585.371094
1896.520508	42196.531250
1895.532227	42267.847656
1894.543945	42565.414063
1893.556641	42587.457031
1892.568359	42275.101563
1891.579102	42248.015625
1890.590820	42813.277344
1889.601563	42397.832031
1888.613281	42520.609375
1887.624023	42763.710938
1886.634766	42201.121094
1885.644531	42576.796875
1884.655273	42832.035156
1883.665039	42397.375000
1882.674805	42441.472656
1881.684570	42561.625000
1880.694336	42421.660156
1879.704102	42581.019531
1878.712891	42470.527344
1877.722656	42713.199219
1876.731445	42948.425781
1875.740234	42475.117188
1874.748047	42519.125000
1873.756836	42617.027344
1872.764648	42558.089844
1871.773438	42866.617188
1870.781250	42660.699219
1869.788086	42910.328125
1868.795898	43140.277344
1867.803711	42738.578125
1866.810547	42650.300781
1865.817383	42571.839844
1864.824219	42821.253906
1863.831055	42728.109375
1862.837891	42634.996094
1861.843750	42605.492188
1860.849609	42654.238281
1859.855469	42854.519531
1858.861328	42844.542969
1857.867188	42971.410156
1856.872070	43349.882813
1855.877930	42584.996094
1854.882813	42943.859375
1853.887695	42618.859375
1852.892578	42901.902344
1851.896484	43089.640625
1850.901367	43069.859375
1849.905273	43359.988281
1848.909180	43032.750000
1847.913086	43310.582031
1846.916992	43141.996094
1845.919922	42907.625000
1844.923828	43431.574219
1843.926758	43399.554688
1842.929688	43357.796875
1841.932617	43567.042969
1840.935547	43347.414063
1839.937500	43361.707031
1838.939453	43076.429688
1837.942383	43845.632813
1836.943359	43694.273438
1835.945313	43993.289063
1834.947266	43871.160156
1833.948242	43586.035156
1832.949219	43661.082031
1831.951172	44149.621094
1830.951172	43815.953125
1829.952148	43796.078125
1828.953125	44252.726563
1827.953125	43702.871094
1826.953125	44118.054688
1825.953125	43655.890625
1824.953125	44177.832031
1823.952148	44021.878906
1822.952148	44094.269531
1821.951172	43892.246094
1820.950195	44209.835938
1819.949219	43901.054688
1818.948242	44201.539063
1817.946289	43815.218750
1816.945313	44096.203125
1815.943359	44224.269531
1814.941406	43656.250000
1813.939453	43980.753906
1812.936523	43951.183594
1811.934570	44227.039063
1810.931641	44357.382813
1809.928711	44087.871094
1808.925781	44189.121094
1807.921875	43791.351563
1806.918945	44328.535156
1805.915039	43993.835938
1804.912109	44368.589844
1803.908203	44694.796875
1802.903320	44592.535156
1801.899414	44422.554688
1800.894531	44245.375000
1799.890625	44244.828125
1798.885742	44258.789063
1797.880859	44091.398438
1796.875000	44620.316406
1795.870117	44996.761719
1794.864258	44981.578125
1793.858398	44792.421875
1792.852539	44477.710938
1791.846680	44525.417969
1790.840820	44829.093750
1789.833984	44772.894531
1788.828125	44948.468750
1787.821289	45099.839844
1786.814453	44869.859375
1785.806641	45074.273438
1784.799805	45635.644531
1783.791992	45405.687500
1782.784180	45043.175781
1781.776367	45469.230469
1780.768555	45215.308594
1779.760742	45629.128906
1778.751953	45249.953125
1777.743164	45516.640625
1776.735352	45761.550781
1775.725586	45527.062500
1774.716797	45923.597656
1773.708008	45929.933594
1772.698242	45998.855469
1771.688477	45795.773438
1770.678711	45799.718750
1769.668945	45933.585938
1768.659180	45745.050781
1767.648438	46129.015625
1766.637695	46594.605469
1765.626953	46249.765625
1764.616211	46282.464844
1763.605469	46194.972656
1762.593750	46636.179688
1761.583008	46666.382813
1760.571289	46953.609375
1759.559570	46709.937500
1758.547852	47585.382813
1757.535156	47048.765625
1756.523438	47167.679688
1755.510742	47564.957031
1754.498047	47693.328125
1753.485352	47416.183594
1752.472656	47822.796875
1751.458984	47862.308594
1750.445313	47580.480469
1749.432617	48164.261719
1748.417969	48460.179688
1747.404297	48569.046875
1746.390625	48483.777344
1745.375977	48233.222656
1744.361328	48318.117188
1743.346680	48805.335938
1742.332031	48767.968750
1741.317383	48809.621094
1740.302734	49679.484375
1739.287109	49548.636719
1738.271484	49716.945313
1737.255859	49717.718750
1736.240234	50627.464844
1735.223633	50551.542969
1734.208008	50714.761719
1733.191406	50901.832031
1732.174805	50885.652344
1731.158203	51545.824219
1730.140625	52014.601563
1729.124023	51988.671875
1728.106445	52851.328125
1727.088867	53006.761719
1726.071289	53300.628906
1725.053711	53181.375000
1724.035156	53775.863281
1723.017578	53744.863281
1721.999023	54451.179688
1720.980469	54124.242188
1719.961914	54942.347656
1718.942383	54839.609375
1717.923828	54908.582031
1716.904297	55041.898438
1715.884766	55115.574219
1714.865234	55282.167969
1713.844727	55391.511719
1712.825195	55322.140625
1711.804688	55143.226563
1710.784180	54669.070313
1709.763672	54828.441406
1708.743164	55075.832031
1707.722656	55392.164063
1706.701172	55127.710938
1705.679688	54694.414063
1704.658203	54993.984375
1703.636719	54451.449219
1702.615234	54781.867188
1701.592773	54156.339844
1700.571289	54363.070313
1699.548828	54652.914063
1698.526367	54355.679688
1697.502930	54633.539063
1696.480469	54666.613281
1695.457031	54642.671875
1694.433594	54224.531250
1693.410156	54438.097656
1692.386719	53998.773438
1691.363281	54160.085938
1690.338867	54418.636719
1689.314453	54347.296875
1688.290039	54275.980469
1687.265625	54520.132813
1686.241211	54610.058594
1685.215820	54325.343750
1684.191406	54474.527344
1683.166016	54298.957031
1682.140625	54831.980469
1681.115234	55149.207031
1680.088867	55120.472656
1679.062500	54975.691406
1678.037109	54890.160156
1677.010742	54989.328125
1675.983398	54882.515625
1674.957031	55336.652344
1673.930664	55409.652344
1672.903320	55425.843750
1671.875977	55434.925781
1670.848633	55843.699219
1669.820313	55928.371094
1668.792969	55918.441406
1667.764648	55995.972656
1666.736328	56101.835938
1665.708008	56110.777344
1664.679688	56181.140625
1663.651367	56090.851563
1662.622070	56262.738281
1661.592773	56817.093750
1660.563477	56221.507813
1659.534180	56761.503906
1658.504883	56744.339844
1657.474609	56670.550781
1656.444336	56766.644531
1655.415039	57612.792969
1654.383789	57340.777344
1653.353516	57542.804688
1652.323242	57596.230469
1651.291992	57654.351563
1650.260742	58155.503906
1649.229492	57923.679688
1648.198242	58403.398438
1647.166016	58609.714844
1646.134766	58483.902344
1645.102539	58537.078125
1644.070313	58787.984375
1643.038086	59260.050781
1642.004883	59343.644531
1640.972656	59184.863281
1639.939453	59602.488281
1638.906250	60779.683594
1637.873047	60021.050781
1636.839844	60299.578125
1635.805664	60683.792969
1634.772461	61056.113281
1633.738281	61390.699219
1632.704102	61191.812500
1631.668945	61537.996094
1630.634766	61987.398438
1629.599609	62056.214844
1628.565430	62127.347656
1627.530273	62444.941406
1626.494141	62870.378906
1625.458984	63830.699219
1624.422852	63591.757813
1623.387695	63937.000000
1622.351563	64927.097656
1621.315430	65712.828125
1620.278320	66538.132813
1619.242188	67721.796875
1618.205078	69512.054688
1617.167969	70868.156250
1616.130859	73669.335938
1615.093750	74600.226563
1614.055664	76455.890625
1613.018555	78402.218750
1611.980469	79900.679688
1610.942383	81499.250000
1609.904297	80770.921875
1608.865234	80754.203125
1607.827148	80229.796875
1606.788086	78245.968750
1605.749023	76089.773438
1604.709961	74689.617188
1603.669922	73685.054688
1602.630859	71313.429688
1601.590820	70861.359375
1600.550781	69942.125000
1599.510742	69088.632813
1598.470703	68113.976563
1597.429688	67875.304688
1596.389648	67734.789063
1595.348633	68133.593750
1594.307617	67096.765625
1593.265625	67299.507813
1592.224609	66897.851563
1591.182617	66524.335938
1590.140625	66071.640625
1589.098633	66600.898438
1588.056641	66707.937500
1587.014648	66015.328125
1585.971680	65977.914063
1584.928711	66821.398438
1583.886719	66578.820313
1582.842773	66646.148438
1581.799805	66336.132813
1580.755859	66841.281250
1579.712891	66519.695313
1578.668945	66926.843750
1577.625000	67354.796875
1576.580078	67324.171875
1575.536133	67649.523438
1574.491211	67753.765625
1573.446289	68960.398438
1572.401367	69013.203125
1571.356445	69135.742188
1570.311523	69792.882813
1569.265625	68736.875000
1568.219727	69379.906250
1567.173828	69462.781250
1566.127930	69606.015625
1565.082031	69568.046875
1564.035156	69256.078125
1562.988281	69148.523438
1561.941406	69122.250000
1560.894531	68692.156250
1559.847656	68454.812500
1558.799805	67895.070313
1557.751953	68469.804688
1556.704102	68123.609375
1555.656250	67861.015625
1554.608398	68338.070313
1553.560547	68029.171875
1552.511719	67734.281250
1551.462891	67226.320313
1550.414063	67186.507813
1549.365234	67447.828125
1548.315430	67273.664063
1547.265625	66842.554688
1546.216797	67515.859375
1545.166992	67510.742188
1544.116211	66880.781250
1543.066406	66813.296875
1542.015625	67062.765625
1540.965820	66858.804688
1539.915039	66733.539063
1538.863281	66802.539063
1537.812500	66966.289063
1536.760742	66917.335938
1535.709961	66168.195313
1534.658203	65627.257813
1533.605469	65710.242188
1532.553711	65961.796875
1531.501953	65104.812500
1530.449219	65046.992188
1529.396484	64622.152344
1528.343750	64908.328125
1527.290039	64439.812500
1526.237305	64252.941406
1525.183594	64202.230469
1524.129883	64204.585938
1523.076172	64481.343750
1522.022461	64047.894531
1520.968750	64764.855469
1519.914063	64667.992188
1518.859375	64545.816406
1517.804688	64460.542969
1516.750000	64845.203125
1515.694336	64414.441406
1514.639648	64287.781250
1513.583984	63967.773438
1512.528320	64073.718750
1511.472656	64071.453125
1510.416016	64152.023438
1509.360352	63420.453125
1508.303711	63889.839844
1507.247070	63335.652344
1506.190430	63347.308594
1505.132813	63623.332031
1504.076172	63175.218750
1503.018555	62821.484375
1501.960938	62513.828125
1500.903320	62461.281250
1499.844727	62406.453125
1498.787109	62370.015625
1497.728516	62267.000000
1496.669922	61858.695313
1495.611328	62120.750000
1494.552734	61912.261719
1493.493164	61953.941406
1492.434570	61679.031250
1491.375000	61085.406250
1490.315430	61822.035156
1489.254883	61006.195313
1488.195313	61286.390625
1487.134766	60869.730469
1486.074219	61007.769531
1485.013672	60802.089844
1483.953125	60908.015625
1482.892578	60865.031250
1481.831055	61243.406250
1480.769531	60554.734375
1479.708008	60857.480469
1478.646484	60876.324219
1477.583984	60940.917969
1476.522461	60028.578125
1475.459961	60459.289063
1474.397461	61367.832031
1473.334961	61107.582031
1472.271484	60952.589844
1471.208984	61023.945313
1470.145508	60631.339844
1469.082031	60613.605469
1468.018555	60913.433594
1466.954102	61039.554688
1465.890625	60902.996094
1464.826172	61862.488281
1463.761719	61798.878906
1462.697266	61710.183594
1461.631836	61881.675781
1460.567383	61806.683594
1459.501953	61843.496094
1458.436523	62489.289063
1457.371094	61923.917969
1456.305664	61892.281250
1455.239258	61762.628906
1454.172852	61667.207031
1453.107422	61339.375000
1452.040039	61433.171875
1450.973633	61763.839844
1449.907227	61873.464844
1448.839844	61400.082031
1447.772461	61716.910156
1446.705078	61767.289063
1445.637695	62061.175781
1444.569336	61927.144531
1443.500977	62241.367188
1442.432617	62698.785156
1441.364258	63012.750000
1440.295898	62890.007813
1439.227539	63119.699219
1438.158203	63537.976563
1437.088867	63333.378906
1436.019531	63646.933594
1434.950195	63849.054688
1433.879883	64434.976563
1432.810547	64264.421875
1431.740234	64155.230469
1430.669922	64136.886719
1429.598633	64075.421875
1428.528320	64043.476563
1427.457031	64925.960938
1426.386719	64757.753906
1425.314453	63902.332031
1424.243164	64099.480469
1423.171875	63416.804688
1422.099609	62831.851563
1421.027344	63153.738281
1419.955078	63153.710938
1418.882813	62605.367188
1417.810547	62981.480469
1416.737305	62759.511719
1415.664063	62791.246094
1414.590820	62721.082031
1413.517578	63040.300781
1412.444336	62528.765625
1411.370117	62847.898438
1410.295898	62748.351563
1409.221680	63160.074219
1408.147461	63307.023438
1407.073242	63924.265625
1405.998047	63781.632813
1404.922852	63908.039063
1403.847656	63896.535156
1402.772461	63941.523438
1401.697266	63774.125000
1400.621094	63593.230469
1399.544922	64308.996094
1398.468750	64699.347656
1397.392578	64468.707031
1396.316406	64732.476563
1395.239258	64732.101563
1394.162109	65146.906250
1393.084961	65198.339844
1392.007813	65847.484375
1390.930664	65774.734375
1389.852539	66056.007813
1388.774414	66141.046875
1387.696289	66494.273438
1386.618164	66928.492188
1385.540039	67594.632813
1384.460938	67478.828125
1383.382813	68590.585938
1382.303711	68758.382813
1381.223633	69750.171875
1380.144531	69298.632813
1379.064453	69538.226563
1377.985352	69480.679688
1376.905273	69423.156250
1375.825195	69885.289063
1374.744141	69033.773438
1373.664063	69306.914063
1372.583008	69148.281250
1371.501953	68809.867188
1370.420898	67817.562500
1369.338867	68196.320313
1368.257813	68105.390625
1367.175781	67333.867188
1366.093750	67523.851563
1365.011719	67105.250000
1363.929688	66614.945313
1362.846680	67027.164063
1361.763672	65711.171875
1360.680664	66264.765625
1359.597656	65873.671875
1358.514648	65686.828125
1357.430664	65612.179688
1356.346680	65219.167969
1355.262695	65357.597656
1354.178711	65554.250000
1353.094727	64908.218750
1352.009766	65066.789063
1350.925781	65216.335938
1349.840820	64550.546875
1348.755859	64818.816406
1347.669922	64469.027344
1346.584961	64271.585938
1345.499023	64165.980469
1344.413086	64120.828125
1343.327148	64089.113281
1342.240234	64231.886719
1341.154297	64417.101563
1340.067383	64074.519531
1338.980469	64333.472656
1337.893555	63789.839844
1336.805664	63767.140625
1335.718750	64164.542969
1334.630859	63960.816406
1333.542969	64078.816406
1332.455078	64583.132813
1331.367188	64066.824219
1330.278320	63867.714844
1329.189453	64083.851563
1328.100586	64536.464844
1327.011719	64163.328125
1325.922852	63948.718750
1324.833008	64644.226563
1323.743164	64442.984375
1322.653320	64585.183594
1321.563477	65052.804688
1320.473633	64989.777344
1319.382813	64327.312500
1318.291992	64665.488281
1317.201172	65106.011719
1316.110352	64352.558594
1315.019531	65073.558594
1313.927734	64961.597656
1312.835938	65388.382813
1311.744141	64935.875000
1310.652344	65088.796875
1309.560547	65030.300781
1308.467773	65623.585938
1307.375000	66003.148438
1306.282227	65737.710938
1305.189453	65816.968750
1304.095703	65980.664063
1303.002930	65424.226563
1301.909180	65863.460938
1300.815430	66578.015625
1299.721680	65684.132813
1298.626953	65727.765625
1297.533203	66246.554688
1296.438477	66012.554688
1295.343750	66619.882813
1294.248047	66421.406250
1293.153320	66751.078125
1292.057617	66752.304688
1290.961914	66771.265625
1289.866211	66834.578125
1288.770508	67560.804688
1287.674805	67149.539063
1286.578125	67859.929688
1285.481445	67433.242188
1284.384766	67135.218750
1283.288086	67001.218750
1282.190430	67558.289063
1281.092773	67335.679688
1279.996094	67715.359375
1278.897461	67458.351563
1277.799805	67201.578125
1276.702148	66944.796875
1275.603516	66687.796875
1274.504883	66430.789063
1273.406250	66244.031250
1272.307617	65685.859375
1271.208008	65693.851563
1270.108398	65195.656250
1269.008789	65128.585938
1267.909180	65198.535156
1266.809570	64004.792969
1265.708984	64187.562500
1264.609375	64458.597656
1263.508789	64011.933594
1262.407227	63940.722656
1261.306641	64052.726563
1260.206055	63827.050781
1259.104492	63530.851563
1258.002930	63131.070313
1256.901367	63461.488281
1255.798828	63220.632813
1254.697266	62624.894531
1253.594727	62668.644531
1252.492188	63109.089844
1251.389648	62302.140625
1250.286133	62460.484375
1249.183594	62063.660156
1248.080078	62373.945313
1246.976563	61519.261719
1245.872070	61816.316406
1244.768555	62335.585938
1243.664063	61716.851563
1242.560547	61659.437500
1241.455078	61124.644531
1240.350586	61755.828125
1239.246094	61071.664063
1238.140625	61146.328125
1237.035156	60961.550781
1235.929688	61113.128906
1234.824219	60748.218750
1233.717773	61033.808594
1232.612305	60989.769531
1231.505859	60554.785156
1230.399414	60594.292969
1229.291992	60657.937500
1228.185547	60668.867188
1227.078125	60451.535156
1225.970703	60245.250000
1224.863281	59718.710938
1223.755859	60065.417969
1222.647461	59894.394531
1221.539063	59530.468750
1220.430664	59738.890625
1219.322266	59993.265625
1218.213867	59504.589844
1217.104492	59712.894531
1215.995117	59765.574219
1214.885742	59561.949219
1213.776367	59126.257813
1212.666992	59419.863281
1211.556641	59085.054688
1210.446289	59120.273438
1209.335938	59396.207031
1208.225586	59483.867188
1207.115234	58934.890625
1206.003906	59171.328125
1204.892578	59064.343750
1203.781250	58961.769531
1202.669922	59084.394531
1201.557617	59637.539063
1200.446289	59012.636719
1199.333984	59978.527344
1198.221680	59270.773438
1197.108398	60085.558594
1195.996094	59943.605469
1194.882813	59788.601563
1193.769531	60319.070313
1192.656250	60506.695313
1191.542969	60497.863281
1190.428711	60541.390625
1189.314453	60423.488281
1188.200195	60654.566406
1187.085938	60719.839844
1185.971680	60484.234375
1184.856445	61092.253906
1183.741211	60621.296875
1182.625977	60544.890625
1181.510742	61307.230469
1180.395508	61315.667969
1179.279297	60733.941406
1178.163086	60683.687500
1177.046875	61057.945313
1175.930664	60663.757813
1174.813477	60561.308594
1173.697266	60552.449219
1172.580078	60367.390625
1171.462891	60130.199219
1170.344727	60506.308594
