#Wave		#Intensity
2001.248047	45934.601563
2000.278320	45706.507813
1999.308594	45668.457031
1998.338867	45507.640625
1997.369141	45529.757813
1996.398438	45624.503906
1995.428711	46122.414063
1994.458008	45906.539063
1993.487305	45795.878906
1992.516602	45852.960938
1991.545898	45887.500000
1990.574219	45969.562500
1989.603516	45786.414063
1988.631836	45968.515625
1987.660156	45882.960938
1986.688477	45814.933594
1985.715820	46346.925781
1984.744141	45928.906250
1983.771484	46393.210938
1982.798828	46587.496094
1981.826172	46374.503906
1980.853516	46086.648438
1979.880859	46243.421875
1978.907227	46175.414063
1977.933594	46469.417969
1976.959961	46286.574219
1975.986328	46153.707031
1975.012695	46003.414063
1974.039063	46539.226563
1973.064453	46915.214844
1972.089844	46580.316406
1971.115234	46482.410156
1970.140625	46459.328125
1969.166016	46294.171875
1968.190430	46096.679688
1967.215820	46866.023438
1966.240234	46501.582031
1965.264648	46774.910156
1964.289063	46637.230469
1963.312500	46733.652344
1962.336914	46996.835938
1961.360352	46677.484375
1960.383789	47231.750000
1959.407227	46745.753906
1958.430664	46531.093750
1957.454102	47328.847656
1956.476563	46997.273438
1955.499023	47289.910156
1954.521484	47753.980469
1953.543945	47196.312500
1952.566406	47155.746094
1951.587891	47092.832031
1950.610352	47206.320313
1949.631836	47856.277344
1948.653320	47629.363281
1947.674805	46977.933594
1946.696289	47309.820313
1945.716797	47596.910156
1944.737305	47516.609375
1943.758789	47977.246094
1942.779297	47428.031250
1941.798828	47518.945313
1940.819336	47527.984375
1939.838867	47864.312500
1938.859375	47317.976563
1937.878906	47634.390625
1936.898438	47474.878906
1935.916992	47496.296875
1934.936523	47871.964844
1933.955078	47806.613281
1932.974609	47738.804688
1931.993164	47638.828125
1931.010742	47580.972656
1930.029297	47976.089844
1929.047852	47645.968750
1928.065430	48172.070313
1927.083008	48433.281250
1926.100586	48422.324219
1925.118164	48371.796875
1924.135742	48435.023438
1923.152344	48500.703125
1922.168945	48311.769531
1921.185547	48533.128906
1920.202148	48507.328125
1919.218750	48609.992188
1918.235352	48211.218750
1917.250977	48810.269531
1916.266602	48725.171875
1915.282227	48588.261719
1914.297852	48727.835938
1913.313477	48470.046875
1912.328125	49078.386719
1911.343750	48578.863281
1910.358398	48836.726563
1909.373047	48879.949219
1908.387695	48718.507813
1907.401367	48939.226563
1906.416016	48716.210938
1905.429688	49343.464844
1904.443359	49066.242188
1903.457031	48983.734375
1902.470703	49083.515625
1901.483398	49318.703125
1900.497070	49302.664063
1899.509766	48946.906250
1898.522461	49381.355469
1897.535156	49394.835938
1896.546875	49258.226563
1895.559570	49151.183594
1894.571289	49031.875000
1893.583008	49355.253906
1892.594727	49427.730469
1891.606445	49632.925781
1890.618164	49690.578125
1889.628906	49310.781250
1888.639648	49540.457031
1887.650391	49396.648438
1886.661133	50311.480469
1885.671875	49489.808594
1884.682617	49986.906250
1883.692383	50137.695313
1882.702148	50003.714844
1881.711914	49874.687500
1880.721680	49770.242188
1879.731445	50502.343750
1878.740234	50466.492188
1877.749023	49989.246094
1876.757813	50164.355469
1875.766602	50435.000000
1874.775391	50698.199219
1873.784180	50431.984375
1872.791992	50445.175781
1871.799805	50718.023438
1870.807617	50263.351563
1869.815430	50609.597656
1868.823242	50385.246094
1867.830078	50846.398438
1866.837891	50683.269531
1865.844727	50855.445313
1864.851563	50560.250000
1863.858398	50832.679688
1862.864258	51290.890625
1861.871094	51374.796875
1860.876953	51348.652344
1859.882813	51491.183594
1858.888672	51252.386719
1857.894531	51184.730469
1856.899414	51117.093750
1855.905273	51574.675781
1854.910156	51621.781250
1853.915039	51187.808594
1852.919922	51642.691406
1851.923828	51484.703125
1850.928711	51661.136719
1849.932617	51725.253906
1848.936523	51823.507813
1847.940430	51789.996094
1846.944336	51917.464844
1845.947266	52035.132813
1844.951172	52372.187500
1843.954102	52107.019531
1842.957031	52217.273438
1841.959961	52749.050781
1840.962891	52620.386719
1839.964844	52844.976563
1838.966797	52655.449219
1837.969727	52940.824219
1836.970703	52994.804688
1835.972656	53107.187500
1834.974609	53307.144531
1833.975586	53137.160156
1832.976563	53351.632813
1831.978516	53369.000000
1830.978516	53636.859375
1829.979492	53513.128906
1828.980469	53396.730469
1827.980469	54002.316406
1826.980469	53907.746094
1825.980469	54330.777344
1824.980469	53794.007813
1823.979492	53830.683594
1822.979492	54161.214844
1821.978516	54064.257813
1820.977539	54074.156250
1819.976563	54494.273438
1818.975586	54356.046875
1817.973633	54251.835938
1816.972656	54543.109375
1815.970703	54860.960938
1814.968750	54914.351563
1813.966797	54776.160156
1812.963867	54698.625000
1811.961914	55399.199219
1810.958984	54778.710938
1809.956055	55086.480469
1808.953125	55137.335938
1807.950195	55224.507813
1806.946289	55364.921875
1805.943359	55396.324219
1804.939453	55577.816406
1803.935547	56165.886719
1802.930664	55867.992188
1801.926758	55550.839844
1800.922852	56090.214844
1799.917969	56310.109375
1798.913086	56438.027344
1797.908203	56007.347656
1796.903320	56870.203125
1795.897461	56836.000000
1794.891602	56241.136719
1793.886719	56141.812500
1792.880859	56912.226563
1791.874023	56687.210938
1790.868164	57034.628906
1789.862305	56766.207031
1788.855469	57038.644531
1787.848633	56982.718750
1786.841797	57691.820313
1785.833984	57408.988281
1784.827148	57268.585938
1783.819336	57844.593750
1782.812500	58099.656250
1781.804688	57843.464844
1780.795898	57862.183594
1779.788086	57917.046875
1778.779297	58362.289063
1777.771484	57792.992188
1776.762695	58736.761719
1775.753906	58220.585938
1774.744141	58251.242188
1773.735352	58414.316406
1772.725586	58673.621094
1771.715820	58521.250000
1770.706055	58626.425781
1769.696289	58940.886719
1768.686523	58394.023438
1767.675781	59259.199219
1766.666016	58659.562500
1765.655273	58836.738281
1764.644531	59102.796875
1763.632813	59361.542969
1762.622070	59346.250000
1761.610352	59395.832031
1760.598633	59618.351563
1759.586914	59353.222656
1758.575195	59693.335938
1757.563477	60002.113281
1756.550781	59842.675781
1755.538086	60247.316406
1754.525391	59619.949219
1753.512695	60461.144531
1752.500000	60400.082031
1751.486328	60257.492188
1750.473633	60692.863281
1749.459961	60252.968750
1748.446289	60482.027344
1747.432617	60936.292969
1746.417969	61014.179688
1745.404297	60529.011719
1744.389648	60923.136719
1743.375000	61137.492188
1742.360352	61337.402344
1741.344727	61271.488281
1740.330078	62086.488281
1739.314453	62173.632813
1738.298828	62081.277344
1737.283203	62828.707031
1736.267578	62451.605469
1735.251953	63091.078125
1734.235352	63529.460938
1733.218750	63795.550781
1732.202148	64341.214844
1731.185547	63890.078125
1730.168945	64363.843750
1729.151367	65090.679688
1728.133789	65064.824219
1727.117188	65958.453125
1726.098633	65860.812500
1725.081055	66460.328125
1724.063477	66837.640625
1723.044922	67291.179688
1722.026367	67780.359375
1721.007813	67956.828125
1719.989258	68192.859375
1718.970703	68331.031250
1717.951172	68783.898438
1716.931641	69074.484375
1715.912109	69241.023438
1714.892578	69600.531250
1713.873047	70026.625000
1712.853516	69580.640625
1711.833008	69827.937500
1710.812500	70460.953125
1709.791992	70146.078125
1708.771484	70005.093750
1707.750000	70466.351563
1706.729492	70408.648438
1705.708008	70379.515625
1704.686523	70122.015625
1703.665039	70207.101563
1702.642578	69909.289063
1701.621094	70427.125000
1700.598633	70281.507813
1699.576172	69976.703125
1698.553711	69814.578125
1697.531250	70386.703125
1696.507813	70262.570313
1695.485352	70449.625000
1694.461914	70242.406250
1693.438477	70016.265625
1692.415039	70699.398438
1691.390625	70532.585938
1690.367188	70282.773438
1689.342773	70747.203125
1688.318359	70523.531250
1687.293945	70529.992188
1686.269531	70681.109375
1685.244141	71171.210938
1684.218750	70665.515625
1683.194336	71309.500000
1682.168945	70976.937500
1681.142578	71006.992188
1680.117188	71003.867188
1679.090820	71126.273438
1678.064453	71961.398438
1677.038086	71932.054688
1676.011719	71535.804688
1674.985352	71374.000000
1673.958008	71694.984375
1672.931641	71767.429688
1671.904297	71085.257813
1670.876953	71228.734375
1669.848633	71469.109375
1668.821289	72021.468750
1667.792969	71174.257813
1666.764648	72655.281250
1665.736328	71869.687500
1664.708008	71897.085938
1663.679688	72146.515625
1662.650391	72232.890625
1661.621094	72290.906250
1660.591797	72556.648438
1659.562500	72423.375000
1658.533203	72613.476563
1657.502930	72652.484375
1656.472656	73153.882813
1655.442383	73051.250000
1654.412109	72849.601563
1653.381836	73129.046875
1652.351563	72635.117188
1651.320313	73581.546875
1650.289063	73526.046875
1649.257813	73788.664063
1648.226563	73584.726563
1647.194336	73896.695313
1646.163086	73954.210938
1645.130859	74103.531250
1644.098633	74396.398438
1643.066406	74216.054688
1642.033203	74433.492188
1641.000977	74288.492188
1639.967773	74258.812500
1638.934570	74003.343750
1637.901367	74225.351563
1636.868164	74884.609375
1635.833984	75000.585938
1634.800781	74552.421875
1633.766602	75251.203125
1632.732422	75143.835938
1631.697266	75189.195313
1630.663086	75680.796875
1629.627930	75751.875000
1628.593750	76104.671875
1627.558594	76316.484375
1626.522461	76516.492188
1625.487305	76223.625000
1624.451172	77125.085938
1623.416016	77587.562500
1622.379883	77977.156250
1621.343750	79093.554688
1620.306641	79808.632813
1619.270508	80952.429688
1618.233398	81099.742188
1617.196289	82156.195313
1616.159180	84371.992188
1615.122070	85720.289063
1614.083984	87330.406250
1613.046875	88773.695313
1612.008789	90097.062500
1610.970703	90848.804688
1609.932617	91656.437500
1608.893555	91057.468750
1607.855469	90510.171875
1606.816406	89366.585938
1605.777344	87802.437500
1604.738281	86776.648438
1603.698242	84958.687500
1602.659180	84483.070313
1601.619141	83556.562500
1600.579102	82338.312500
1599.539063	81576.054688
1598.499023	80089.960938
1597.458008	79559.570313
1596.417969	79561.734375
1595.376953	79064.304688
1594.335938	78359.304688
1593.294922	78539.039063
1592.252930	78443.375000
1591.210938	78077.125000
1590.169922	77265.500000
1589.127930	77750.781250
1588.084961	77431.476563
1587.042969	77876.921875
1586.000000	77904.992188
1584.958008	77940.039063
1583.915039	77902.835938
1582.872070	78364.179688
1581.828125	78543.523438
1580.785156	79046.492188
1579.741211	79148.804688
1578.697266	80009.976563
1577.653320	80389.054688
1576.609375	80928.554688
1575.564453	81009.507813
1574.520508	81471.937500
1573.475586	81645.789063
1572.430664	81368.453125
1571.384766	81600.382813
1570.339844	81978.671875
1569.293945	81564.289063
1568.249023	81289.468750
1567.202148	81156.468750
1566.156250	80138.484375
1565.110352	79076.726563
1564.063477	78212.726563
1563.017578	77599.765625
1561.970703	77402.531250
1560.922852	76209.726563
1559.875977	76277.335938
1558.829102	75918.031250
1557.781250	75746.742188
1556.733398	75679.867188
1555.685547	75402.015625
1554.636719	75089.476563
1553.588867	74503.531250
1552.540039	74617.687500
1551.491211	74076.054688
1550.442383	73719.953125
1549.393555	73678.984375
1548.344727	73235.070313
1547.294922	73226.617188
1546.245117	72877.851563
1545.195313	72876.398438
1544.145508	72701.382813
1543.094727	72276.531250
1542.044922	72006.828125
1540.994141	72558.328125
1539.943359	71823.835938
1538.892578	72056.085938
1537.840820	71615.531250
1536.790039	71029.523438
1535.738281	71053.796875
1534.686523	70666.789063
1533.634766	70677.257813
1532.583008	70482.156250
1531.530273	70862.125000
1530.477539	70609.335938
1529.424805	70624.406250
1528.372070	69933.218750
1527.319336	70229.929688
1526.265625	70088.164063
1525.212891	70779.203125
1524.159180	70097.687500
1523.105469	70200.445313
1522.051758	69634.554688
1520.997070	69200.257813
1519.942383	69153.304688
1518.888672	69134.015625
1517.833984	69354.343750
1516.778320	69480.140625
1515.723633	68822.843750
1514.667969	68647.039063
1513.612305	68252.578125
1512.556641	68228.851563
1511.500977	68543.445313
1510.445313	68434.531250
1509.388672	68107.093750
1508.332031	68122.507813
1507.275391	68193.101563
1506.218750	68010.734375
1505.162109	67777.859375
1504.104492	68184.054688
1503.047852	68330.421875
1501.990234	68410.093750
1500.931641	68138.242188
1499.874023	68491.242188
1498.816406	68359.562500
1497.757813	67947.796875
1496.699219	68392.460938
1495.640625	67535.554688
1494.582031	67729.992188
1493.522461	67995.484375
1492.462891	67696.546875
1491.403320	67677.539063
1490.343750	67433.796875
1489.284180	67637.234375
1488.224609	67010.757813
1487.164063	67019.375000
1486.103516	67261.718750
1485.042969	67061.789063
1483.982422	67345.273438
1482.920898	67295.062500
1481.860352	67244.906250
1480.798828	67194.695313
1479.737305	67144.492188
1478.675781	67094.281250
1477.613281	67044.031250
1476.550781	67331.718750
1475.489258	67056.585938
1474.426758	66486.523438
1473.363281	66588.929688
1472.300781	66787.320313
1471.237305	67312.507813
1470.174805	66779.359375
1469.111328	67455.164063
1468.046875	67536.726563
1466.983398	67590.851563
1465.919922	67334.359375
1464.855469	66945.523438
1463.791016	67344.445313
1462.726563	67647.343750
1461.661133	68043.703125
1460.596680	67700.648438
1459.531250	68108.250000
1458.465820	67635.289063
1457.400391	67908.203125
1456.334961	67487.882813
1455.268555	68307.843750
1454.202148	67538.867188
1453.135742	67971.117188
1452.069336	68191.312500
1451.002930	68400.039063
1449.935547	68182.765625
1448.869141	68161.414063
1447.801758	68636.406250
1446.734375	68831.234375
1445.666016	68973.632813
1444.598633	69746.320313
1443.530273	69706.484375
1442.461914	70105.695313
1441.393555	70120.390625
1440.325195	71008.273438
1439.256836	71100.101563
1438.187500	71030.492188
1437.118164	71251.820313
1436.048828	71588.953125
1434.979492	71846.437500
1433.909180	72446.828125
1432.839844	72324.796875
1431.769531	72779.554688
1430.699219	72702.906250
1429.627930	73329.937500
1428.557617	73811.492188
1427.486328	73816.375000
1426.416016	74181.960938
1425.343750	73853.343750
1424.272461	73518.031250
1423.201172	74064.859375
1422.128906	73963.125000
1421.056641	73439.843750
1419.984375	74043.039063
1418.912109	73510.851563
1417.839844	73837.437500
1416.766602	73978.171875
1415.693359	73688.585938
1414.620117	73476.085938
1413.546875	73304.406250
1412.473633	73114.671875
1411.399414	72904.648438
1410.325195	72778.398438
1409.250977	72371.695313
1408.176758	72808.750000
1407.102539	73247.906250
1406.027344	72726.023438
1404.952148	73583.218750
1403.876953	73863.781250
1402.801758	73669.710938
1401.726563	74474.296875
1400.650391	73909.734375
1399.574219	73505.710938
1398.498047	73837.960938
1397.421875	73589.867188
1396.345703	73371.210938
1395.268555	73294.804688
1394.191406	73313.195313
1393.114258	73214.257813
1392.037109	72842.429688
1390.959961	73336.726563
1389.881836	72703.453125
1388.804688	73123.195313
1387.726563	73687.039063
1386.647461	73808.976563
1385.569336	73791.171875
1384.491211	74253.210938
1383.412109	74478.578125
1382.333008	74663.328125
1381.253906	75462.679688
1380.173828	75226.210938
1379.094727	75611.031250
1378.014648	75005.570313
1376.934570	75552.281250
1375.854492	74985.281250
1374.773438	74596.156250
1373.693359	74339.851563
1372.612305	74205.039063
1371.531250	73499.304688
1370.450195	72587.062500
1369.369141	72627.898438
1368.287109	72781.054688
1367.205078	71932.320313
1366.123047	72361.781250
1365.041016	71901.882813
1363.958984	71446.632813
1362.875977	71045.421875
1361.793945	70924.882813
1360.710938	71057.937500
1359.626953	70751.226563
1358.543945	71034.539063
1357.460938	70496.945313
1356.376953	70067.171875
1355.292969	70240.593750
1354.208984	69539.804688
1353.124023	69984.421875
1352.040039	69411.640625
1350.955078	69085.476563
1349.870117	69236.515625
1348.785156	68845.554688
1347.700195	69433.179688
1346.614258	69622.109375
1345.528320	68949.281250
1344.442383	68569.835938
1343.356445	68564.164063
1342.270508	69222.875000
1341.183594	68825.679688
1340.096680	68491.242188
1339.009766	68937.203125
1337.922852	68864.398438
1336.835938	68583.765625
1335.748047	69313.242188
1334.661133	68992.406250
1333.573242	68982.179688
1332.484375	68918.343750
1331.396484	69236.367188
1330.307617	69382.367188
1329.219727	69403.304688
1328.130859	68859.617188
1327.041992	69346.984375
1325.952148	69144.820313
1324.863281	68893.664063
1323.773438	68613.593750
1322.683594	69350.367188
1321.593750	68452.804688
1320.502930	68986.507813
1319.413086	68379.023438
1318.322266	68881.351563
1317.231445	68267.421875
1316.140625	68437.710938
1315.048828	68313.992188
1313.958008	68103.476563
1312.866211	68411.718750
1311.774414	69245.093750
1310.682617	68698.507813
1309.589844	68463.593750
1308.498047	68798.218750
1307.405273	69232.812500
1306.312500	68895.632813
1305.218750	69614.617188
1304.125977	69290.820313
1303.032227	69418.296875
1301.939453	70321.218750
1300.845703	70088.546875
1299.750977	70671.156250
1298.657227	70696.117188
1297.562500	71820.187500
1296.467773	72646.359375
1295.373047	72850.734375
1294.278320	72833.109375
1293.183594	73041.804688
1292.087891	72604.859375
1290.992188	73090.765625
1289.896484	72359.023438
1288.800781	72066.546875
1287.704102	71643.382813
1286.608398	71160.523438
1285.511719	70442.937500
1284.415039	70168.734375
1283.317383	70242.414063
1282.220703	70021.500000
1281.123047	69541.570313
1280.025391	68860.335938
1278.927734	68307.742188
1277.830078	69072.203125
1276.731445	68530.820313
1275.633789	67836.976563
1274.535156	67528.273438
1273.436523	67286.031250
1272.336914	66729.875000
1271.238281	66432.585938
1270.138672	66749.890625
1269.039063	66302.421875
1267.939453	66113.632813
1266.839844	66346.867188
1265.739258	65563.968750
1264.638672	65353.320313
1263.538086	64860.125000
1262.437500	65066.914063
1261.336914	64434.890625
1260.235352	64661.539063
1259.134766	64201.910156
1258.033203	64119.671875
1256.930664	63794.847656
1255.829102	63604.652344
1254.726563	63496.101563
1253.625000	63107.628906
1252.522461	63525.957031
1251.418945	62893.015625
1250.316406	62531.292969
1249.212891	62581.625000
1248.110352	62739.851563
1247.006836	62235.214844
1245.902344	62281.164063
1244.798828	62456.960938
1243.694336	62053.878906
1242.589844	61754.359375
1241.485352	61822.351563
1240.380859	61815.523438
1239.276367	61810.898438
1238.170898	61542.414063
1237.065430	61522.445313
1235.959961	61016.722656
1234.854492	61262.761719
1233.748047	61379.070313
1232.642578	61348.152344
1231.536133	61453.417969
1230.429688	61330.257813
1229.322266	60741.671875
1228.215820	61000.648438
1227.108398	61099.304688
1226.000977	61044.316406
1224.893555	61331.609375
1223.786133	61364.335938
1222.677734	61717.261719
1221.569336	61436.328125
1220.460938	61021.753906
1219.352539	61324.125000
1218.244141	61339.277344
1217.134766	61087.089844
1216.025391	61016.832031
1214.916016	60944.406250
1213.806641	60955.226563
1212.697266	60950.714844
1211.586914	60063.937500
1210.476563	60569.578125
1209.366211	60567.320313
1208.255859	60357.191406
1207.145508	60814.371094
1206.034180	60602.082031
1204.922852	61398.007813
1203.811523	60805.242188
1202.700195	61198.601563
1201.587891	61390.734375
1200.476563	61045.218750
1199.364258	61197.976563
1198.251953	61073.250000
1197.138672	61365.718750
1196.026367	61673.367188
1194.913086	62157.746094
1193.799805	61960.890625
1192.686523	62196.234375
1191.573242	62265.648438
1190.458984	62570.656250
1189.344727	61931.058594
1188.230469	62377.769531
1187.116211	62342.425781
1186.001953	62176.289063
1184.886719	62424.351563
1183.772461	61883.414063
1182.657227	62593.359375
1181.541016	61985.050781
1180.425781	62143.652344
1179.309570	61777.367188
1178.193359	61661.605469
1177.077148	61835.410156
1175.960938	61066.714844
1174.844727	60803.160156
1173.727539	60356.933594
1172.610352	60271.976563
1171.493164	60454.562500
1170.375977	60341.343750
