#Wave		#Intensity
2001.248047	44215.125000
2000.278320	44032.148438
1999.308594	44335.218750
1998.338867	43793.773438
1997.369141	44214.519531
1996.398438	44312.000000
1995.428711	44316.785156
1994.458008	44101.226563
1993.487305	44358.890625
1992.516602	44203.468750
1991.545898	44263.316406
1990.574219	44228.062500
1989.603516	44315.406250
1988.631836	43862.437500
1987.660156	44044.839844
1986.688477	44657.246094
1985.715820	44304.449219
1984.744141	44161.738281
1983.771484	44613.855469
1982.798828	44176.292969
1981.826172	44670.714844
1980.853516	44745.339844
1979.880859	44248.039063
1978.907227	44083.000000
1977.933594	44339.925781
1976.959961	44736.535156
1975.986328	44823.550781
1975.012695	44668.500000
1974.039063	44910.167969
1973.064453	44755.152344
1972.089844	44782.242188
1971.115234	44460.242188
1970.140625	44582.105469
1969.166016	44863.449219
1968.190430	44970.242188
1967.215820	45166.695313
1966.240234	45034.238281
1965.264648	44906.804688
1964.289063	45287.449219
1963.312500	45239.691406
1962.336914	44823.500000
1961.360352	45029.718750
1960.383789	44745.605469
1959.407227	45160.773438
1958.430664	45202.628906
1957.454102	45353.910156
1956.476563	45171.894531
1955.499023	45034.695313
1954.521484	45496.671875
1953.543945	45284.894531
1952.566406	45463.359375
1951.587891	45711.328125
1950.610352	45325.718750
1949.631836	45727.621094
1948.653320	45520.945313
1947.674805	45863.078125
1946.696289	45683.753906
1945.716797	45437.476563
1944.737305	45523.828125
1943.758789	45205.703125
1942.779297	45495.484375
1941.798828	45643.785156
1940.819336	45573.792969
1939.838867	45831.121094
1938.859375	45637.167969
1937.878906	46236.441406
1936.898438	46201.082031
1935.916992	46433.335938
1934.936523	46165.085938
1933.955078	45899.402344
1932.974609	46020.136719
1931.993164	46220.062500
1931.010742	46499.136719
1930.029297	46216.250000
1929.047852	46081.941406
1928.065430	46685.019531
1927.083008	46538.304688
1926.100586	46292.699219
1925.118164	46423.078125
1924.135742	46365.492188
1923.152344	46705.937500
1922.168945	46660.675781
1921.185547	46867.496094
1920.202148	46940.820313
1919.218750	47090.699219
1918.235352	46845.328125
1917.250977	47170.503906
1916.266602	47167.171875
1915.282227	46852.789063
1914.297852	47093.867188
1913.313477	47431.101563
1912.328125	47092.160156
1911.343750	47434.207031
1910.358398	47633.074219
1909.373047	47373.183594
1908.387695	47488.156250
1907.401367	47605.554688
1906.416016	47436.992188
1905.429688	47285.742188
1904.443359	47580.507813
1903.457031	48156.003906
1902.470703	47906.179688
1901.483398	47360.925781
1900.497070	47428.945313
1899.509766	48279.773438
1898.522461	48094.085938
1897.535156	48048.734375
1896.546875	47735.207031
1895.559570	47886.730469
1894.571289	47745.511719
1893.583008	48137.972656
1892.594727	48412.277344
1891.606445	48674.191406
1890.618164	48107.714844
1889.628906	47944.453125
1888.639648	48373.382813
1887.650391	48099.578125
1886.661133	48636.398438
1885.671875	48534.542969
1884.682617	48444.996094
1883.692383	48600.964844
1882.702148	48373.988281
1881.711914	48900.460938
1880.721680	48648.968750
1879.731445	48721.378906
1878.740234	49178.832031
1877.749023	49062.296875
1876.757813	48913.921875
1875.766602	48858.753906
1874.775391	48953.113281
1873.784180	48993.523438
1872.791992	48933.460938
1871.799805	49123.289063
1870.807617	49648.593750
1869.815430	49049.703125
1868.823242	49232.058594
1867.830078	48985.957031
1866.837891	49537.828125
1865.844727	49330.910156
1864.851563	49713.703125
1863.858398	49533.730469
1862.864258	49867.433594
1861.871094	49442.957031
1860.876953	49869.464844
1859.882813	50119.812500
1858.888672	49961.914063
1857.894531	50082.640625
1856.899414	50073.835938
1855.905273	49879.378906
1854.910156	50073.324219
1853.915039	49886.257813
1852.919922	50058.156250
1851.923828	49858.945313
1850.928711	50350.507813
1849.932617	50539.312500
1848.936523	50906.148438
1847.940430	50575.199219
1846.944336	50768.730469
1845.947266	50562.281250
1844.951172	50699.667969
1843.954102	50783.378906
1842.957031	50940.175781
1841.959961	50865.417969
1840.962891	51195.121094
1839.964844	51171.496094
1838.966797	51259.906250
1837.969727	51031.730469
1836.970703	51499.937500
1835.972656	51634.492188
1834.974609	51416.097656
1833.975586	51321.878906
1832.976563	52025.691406
1831.978516	51678.414063
1830.978516	52299.218750
1829.979492	52012.804688
1828.980469	52227.316406
1827.980469	52154.921875
1826.980469	52315.859375
1825.980469	52209.449219
1824.980469	52746.894531
1823.979492	52735.171875
1822.979492	52512.164063
1821.978516	52383.929688
1820.977539	52707.312500
1819.976563	52455.289063
1818.975586	52550.406250
1817.973633	52097.097656
1816.972656	52577.984375
1815.970703	52435.312500
1814.968750	52945.070313
1813.966797	52266.496094
1812.963867	52766.402344
1811.961914	52160.812500
1810.958984	52304.300781
1809.956055	52561.621094
1808.953125	53194.363281
1807.950195	53051.761719
1806.946289	52468.441406
1805.943359	52708.593750
1804.939453	54016.300781
1803.935547	52898.175781
1802.930664	52857.386719
1801.926758	53140.847656
1800.922852	53131.476563
1799.917969	52846.363281
1798.913086	53352.160156
1797.908203	53509.589844
1796.903320	53328.507813
1795.897461	53357.773438
1794.891602	53691.531250
1793.886719	54138.734375
1792.880859	53817.539063
1791.874023	54105.140625
1790.868164	53506.339844
1789.862305	53801.132813
1788.855469	54397.585938
1787.848633	54810.386719
1786.841797	54414.589844
1785.833984	54327.777344
1784.827148	54318.187500
1783.819336	53987.804688
1782.812500	54429.242188
1781.804688	54626.992188
1780.795898	54974.136719
1779.788086	55130.742188
1778.779297	54460.703125
1777.771484	54937.796875
1776.762695	54916.054688
1775.753906	55106.269531
1774.744141	55007.437500
1773.735352	55067.550781
1772.725586	55373.183594
1771.715820	54882.023438
1770.706055	55161.109375
1769.696289	55052.718750
1768.686523	55723.785156
1767.675781	55237.714844
1766.666016	55687.265625
1765.655273	55812.070313
1764.644531	56246.937500
1763.632813	55972.617188
1762.622070	56308.769531
1761.610352	55875.953125
1760.598633	56850.992188
1759.586914	56533.515625
1758.575195	56405.855469
1757.563477	56720.015625
1756.550781	56621.171875
1755.538086	57230.390625
1754.525391	57057.093750
1753.512695	57274.937500
1752.500000	57101.691406
1751.486328	57398.593750
1750.473633	57654.621094
1749.459961	57608.464844
1748.446289	57909.906250
1747.432617	58172.890625
1746.417969	58208.132813
1745.404297	58801.597656
1744.389648	58386.367188
1743.375000	58917.316406
1742.360352	58638.699219
1741.344727	59047.308594
1740.330078	59518.003906
1739.314453	59622.355469
1738.298828	60169.351563
1737.283203	60012.765625
1736.267578	60317.898438
1735.251953	60759.242188
1734.235352	60946.960938
1733.218750	61160.910156
1732.202148	61907.832031
1731.185547	62123.917969
1730.168945	62332.757813
1729.151367	62758.929688
1728.133789	63213.609375
1727.117188	63861.574219
1726.098633	64308.730469
1725.081055	65008.792969
1724.063477	65288.492188
1723.044922	65317.503906
1722.026367	65489.671875
1721.007813	66387.031250
1719.989258	65986.476563
1718.970703	66568.617188
1717.951172	67396.156250
1716.931641	67775.195313
1715.912109	67803.710938
1714.892578	67889.414063
1713.873047	68439.718750
1712.853516	68229.859375
1711.833008	68394.031250
1710.812500	68867.742188
1709.791992	68150.742188
1708.771484	68002.976563
1707.750000	67990.921875
1706.729492	68116.906250
1705.708008	68580.710938
1704.686523	67881.039063
1703.665039	68123.507813
1702.642578	67852.226563
1701.621094	67578.648438
1700.598633	67958.921875
1699.576172	67973.023438
1698.553711	67583.117188
1697.531250	67217.117188
1696.507813	67433.250000
1695.485352	67566.179688
1694.461914	67221.742188
1693.438477	67145.710938
1692.415039	67383.062500
1691.390625	67447.070313
1690.367188	66853.703125
1689.342773	66706.609375
1688.318359	67667.382813
1687.293945	67228.460938
1686.269531	67048.164063
1685.244141	67259.140625
1684.218750	66820.515625
1683.194336	67254.242188
1682.168945	67192.546875
1681.142578	67481.523438
1680.117188	67580.882813
1679.090820	67360.468750
1678.064453	67080.929688
1677.038086	67689.335938
1676.011719	67071.328125
1674.985352	67111.492188
1673.958008	67215.531250
1672.931641	67423.625000
1671.904297	67371.445313
1670.876953	66936.140625
1669.848633	67650.203125
1668.821289	68014.101563
1667.792969	67489.078125
1666.764648	67746.523438
1665.736328	67391.859375
1664.708008	67798.062500
1663.679688	67682.093750
1662.650391	67901.515625
1661.621094	67835.148438
1660.591797	67962.390625
1659.562500	67957.398438
1658.533203	68285.171875
1657.502930	68129.109375
1656.472656	67989.609375
1655.442383	68522.406250
1654.412109	68510.226563
1653.381836	68288.203125
1652.351563	68806.507813
1651.320313	68313.429688
1650.289063	69187.398438
1649.257813	68630.812500
1648.226563	68517.312500
1647.194336	68987.992188
1646.163086	68549.476563
1645.130859	69314.304688
1644.098633	68941.796875
1643.066406	68870.695313
1642.033203	69771.539063
1641.000977	69705.015625
1639.967773	69694.976563
1638.934570	69974.242188
1637.901367	69834.804688
1636.868164	69972.867188
1635.833984	70134.382813
1634.800781	70084.304688
1633.766602	70946.031250
1632.732422	70519.890625
1631.697266	70660.039063
1630.663086	71366.179688
1629.627930	71428.632813
1628.593750	71725.843750
1627.558594	71194.289063
1626.522461	72681.390625
1625.487305	73015.765625
1624.451172	72948.804688
1623.416016	73407.335938
1622.379883	73732.007813
1621.343750	74638.109375
1620.306641	75379.773438
1619.270508	76414.187500
1618.233398	77947.437500
1617.196289	78674.046875
1616.159180	80630.406250
1615.122070	83211.507813
1614.083984	84400.500000
1613.046875	86827.796875
1612.008789	87484.265625
1610.970703	88287.968750
1609.932617	88995.421875
1608.893555	88998.296875
1607.855469	88533.250000
1606.816406	87357.273438
1605.777344	85473.078125
1604.738281	83980.046875
1603.698242	82389.351563
1602.659180	81243.335938
1601.619141	79137.203125
1600.579102	78695.500000
1599.539063	77219.007813
1598.499023	76763.781250
1597.458008	76047.148438
1596.417969	75412.492188
1595.376953	75226.296875
1594.335938	74456.632813
1593.294922	74578.710938
1592.252930	73408.101563
1591.210938	73005.421875
1590.169922	73624.507813
1589.127930	73228.921875
1588.084961	72821.820313
1587.042969	73372.992188
1586.000000	72814.500000
1584.958008	72442.640625
1583.915039	72511.265625
1582.872070	72496.007813
1581.828125	73007.132813
1580.785156	73348.078125
1579.741211	72873.992188
1578.697266	73459.265625
1577.653320	73374.007813
1576.609375	74180.046875
1575.564453	74606.554688
1574.520508	75023.593750
1573.475586	75205.578125
1572.430664	75431.679688
1571.384766	75197.343750
1570.339844	75616.296875
1569.293945	75832.890625
1568.249023	75563.742188
1567.202148	74827.703125
1566.156250	74665.679688
1565.110352	74090.304688
1564.063477	74262.843750
1563.017578	73502.007813
1561.970703	73066.414063
1560.922852	72988.382813
1559.875977	72949.828125
1558.829102	72384.640625
1557.781250	73506.000000
1556.733398	72954.820313
1555.685547	72944.109375
1554.636719	72402.492188
1553.588867	72016.375000
1552.540039	71767.125000
1551.491211	71884.062500
1550.442383	71799.398438
1549.393555	71758.781250
1548.344727	71817.750000
1547.294922	71260.789063
1546.245117	71280.460938
1545.195313	71378.828125
1544.145508	71636.835938
1543.094727	70976.171875
1542.044922	70648.859375
1540.994141	71020.195313
1539.943359	71113.875000
1538.892578	70900.007813
1537.840820	70411.117188
1536.790039	70525.648438
1535.738281	70256.531250
1534.686523	70036.023438
1533.634766	70182.898438
1532.583008	70068.726563
1531.530273	69675.164063
1530.477539	69346.390625
1529.424805	69484.039063
1528.372070	69430.070313
1527.319336	69380.726563
1526.265625	69467.531250
1525.212891	69471.250000
1524.159180	68490.148438
1523.105469	68966.757813
1522.051758	68924.445313
1520.997070	69108.054688
1519.942383	69185.570313
1518.888672	68555.640625
1517.833984	69142.382813
1516.778320	68588.687500
1515.723633	68627.085938
1514.667969	68531.906250
1513.612305	68020.054688
1512.556641	68958.539063
1511.500977	68950.796875
1510.445313	68616.312500
1509.388672	68742.062500
1508.332031	68364.023438
1507.275391	68763.445313
1506.218750	68997.164063
1505.162109	69194.015625
1504.104492	69547.093750
1503.047852	69242.781250
1501.990234	69207.398438
1500.931641	69087.031250
1499.874023	69113.703125
1498.816406	69891.320313
1497.757813	69855.835938
1496.699219	69622.937500
1495.640625	69234.046875
1494.582031	69251.476563
1493.522461	69009.625000
1492.462891	69570.765625
1491.403320	69232.601563
1490.343750	69626.093750
1489.284180	69297.210938
1488.224609	69601.140625
1487.164063	69173.820313
1486.103516	69947.421875
1485.042969	69827.203125
1483.982422	69626.843750
1482.920898	69877.750000
1481.860352	69773.625000
1480.798828	69660.382813
1479.737305	69968.359375
1478.675781	70246.476563
1477.613281	70325.414063
1476.550781	69900.984375
1475.489258	70480.898438
1474.426758	70196.101563
1473.363281	70853.492188
1472.300781	70619.023438
1471.237305	70942.367188
1470.174805	70602.828125
1469.111328	71241.390625
1468.046875	70707.718750
1466.983398	71384.859375
1465.919922	71155.093750
1464.855469	71797.640625
1463.791016	71773.343750
1462.726563	72299.140625
1461.661133	72160.648438
1460.596680	71862.484375
1459.531250	72730.171875
1458.465820	72557.453125
1457.400391	72309.539063
1456.334961	72469.843750
1455.268555	73003.953125
1454.202148	72949.820313
1453.135742	73253.476563
1452.069336	73438.554688
1451.002930	73097.328125
1449.935547	73762.929688
1448.869141	73660.875000
1447.801758	73588.445313
1446.734375	73782.382813
1445.666016	73992.179688
1444.598633	74841.328125
1443.530273	74468.406250
1442.461914	75014.617188
1441.393555	74530.351563
1440.325195	75110.460938
1439.256836	75594.867188
1438.187500	76240.492188
1437.118164	76976.781250
1436.048828	77033.390625
1434.979492	77351.242188
1433.909180	76878.500000
1432.839844	77602.789063
1431.769531	77779.570313
1430.699219	77706.562500
1429.627930	78652.742188
1428.557617	78277.765625
1427.486328	78551.859375
1426.416016	78558.148438
1425.343750	78199.257813
1424.272461	78087.679688
1423.201172	78012.414063
1422.128906	77955.312500
1421.056641	78242.750000
1419.984375	77949.937500
1418.912109	78309.773438
1417.839844	77708.953125
1416.766602	77661.000000
1415.693359	77751.195313
1414.620117	78131.171875
1413.546875	77616.828125
1412.473633	77390.109375
1411.399414	77548.164063
1410.325195	77513.851563
1409.250977	77407.156250
1408.176758	77764.140625
1407.102539	78283.812500
1406.027344	78267.460938
1404.952148	78337.007813
1403.876953	78639.320313
1402.801758	78783.343750
1401.726563	78780.453125
1400.650391	78425.179688
1399.574219	78986.968750
1398.498047	78979.148438
1397.421875	78971.320313
1396.345703	78963.500000
1395.268555	78955.671875
1394.191406	78947.835938
1393.114258	78940.007813
1392.037109	78587.453125
1390.959961	79418.992188
1389.881836	79722.617188
1388.804688	79591.023438
1387.726563	79966.625000
1386.647461	80378.140625
1385.569336	80649.812500
1384.491211	81416.984375
1383.412109	81996.937500
1382.333008	81702.914063
1381.253906	83273.273438
1380.173828	82853.062500
1379.094727	82219.179688
1378.014648	83104.492188
1376.934570	82513.531250
1375.854492	83279.234375
1374.773438	82634.468750
1373.693359	82351.976563
1372.612305	82366.359375
1371.531250	81708.609375
1370.450195	81428.671875
1369.369141	81517.351563
1368.287109	80201.828125
1367.205078	80331.125000
1366.123047	80390.750000
1365.041016	79493.781250
1363.958984	79679.250000
1362.875977	78681.718750
1361.793945	78831.359375
1360.710938	78202.320313
1359.626953	78385.632813
1358.543945	78046.250000
1357.460938	77944.703125
1356.376953	77428.382813
1355.292969	77212.648438
1354.208984	77304.054688
1353.124023	77243.039063
1352.040039	77056.570313
1350.955078	77403.335938
1349.870117	77109.390625
1348.785156	76947.671875
1347.700195	76732.265625
1346.614258	76568.429688
1345.528320	76514.320313
1344.442383	76498.265625
1343.356445	76403.906250
1342.270508	76723.414063
1341.183594	76660.351563
1340.096680	76275.304688
1339.009766	76453.804688
1337.922852	76549.523438
1336.835938	76055.187500
1335.748047	76559.859375
1334.661133	76671.140625
1333.573242	76706.429688
1332.484375	76694.804688
1331.396484	75948.546875
1330.307617	76772.015625
1329.219727	76521.539063
1328.130859	76393.890625
1327.041992	76375.625000
1325.952148	75864.328125
1324.863281	76834.265625
1323.773438	76635.281250
1322.683594	76543.382813
1321.593750	76975.406250
1320.502930	76509.023438
1319.413086	76165.375000
1318.322266	76247.406250
1317.231445	76596.734375
1316.140625	76255.468750
1315.048828	76604.664063
1313.958008	76642.562500
1312.866211	76680.500000
1311.774414	76718.437500
1310.682617	76756.367188
1309.589844	76794.335938
1308.498047	76832.273438
1307.405273	76870.242188
1306.312500	77407.796875
1305.218750	77284.851563
1304.125977	77653.195313
1303.032227	77985.851563
1301.939453	77765.085938
1300.845703	77997.617188
1299.750977	78665.421875
1298.657227	79179.742188
1297.562500	78834.562500
1296.467773	80147.875000
1295.373047	80126.710938
1294.278320	80538.296875
1293.183594	80714.531250
1292.087891	80859.648438
1290.992188	81725.562500
1289.896484	81158.570313
1288.800781	81019.710938
1287.704102	80138.257813
1286.608398	80380.851563
1285.511719	80321.968750
1284.415039	79485.421875
1283.317383	80009.320313
1282.220703	79133.265625
1281.123047	78939.562500
1280.025391	78584.296875
1278.927734	78485.945313
1277.830078	77975.960938
1276.731445	77999.445313
1275.633789	77832.656250
1274.535156	77170.429688
1273.436523	76486.328125
1272.336914	76224.812500
1271.238281	76180.039063
1270.138672	75368.273438
1269.039063	75657.382813
1267.939453	75471.320313
1266.839844	74657.898438
1265.739258	74178.304688
1264.638672	74617.578125
1263.538086	74206.609375
1262.437500	74332.226563
1261.336914	73998.703125
1260.235352	73226.140625
1259.134766	73001.046875
1258.033203	72767.203125
1256.930664	72637.109375
1255.829102	71953.546875
1254.726563	71920.648438
1253.625000	71735.656250
1252.522461	71797.578125
1251.418945	71348.242188
1250.316406	71084.125000
1249.212891	71247.453125
1248.110352	70990.054688
1247.006836	70935.328125
1245.902344	70283.992188
1244.798828	70559.593750
1243.694336	70183.648438
1242.589844	70318.335938
1241.485352	70598.171875
1240.380859	70290.609375
1239.276367	70346.015625
1238.170898	69823.125000
1237.065430	69241.054688
1235.959961	69171.335938
1234.854492	69598.289063
1233.748047	69023.164063
1232.642578	69318.179688
1231.536133	69404.429688
1230.429688	69310.570313
1229.322266	69080.617188
1228.215820	68978.062500
1227.108398	69130.140625
1226.000977	68779.640625
1224.893555	69039.195313
1223.786133	69120.976563
1222.677734	68619.328125
1221.569336	68448.976563
1220.460938	68085.750000
1219.352539	68546.851563
1218.244141	68378.781250
1217.134766	67844.843750
1216.025391	67541.125000
1214.916016	68012.937500
1213.806641	68326.882813
1212.697266	67780.187500
1211.586914	67829.164063
1210.476563	67648.289063
1209.366211	67253.007813
1208.255859	67214.523438
1207.145508	67860.781250
1206.034180	67402.234375
1204.922852	67409.656250
1203.811523	67358.039063
1202.700195	67984.117188
1201.587891	67678.867188
1200.476563	68020.570313
1199.364258	68333.734375
1198.251953	68275.429688
1197.138672	68112.304688
1196.026367	68752.828125
1194.913086	68646.429688
1193.799805	68721.250000
1192.686523	68588.710938
1191.573242	68914.445313
1190.458984	68967.351563
1189.344727	68983.156250
1188.230469	69155.968750
1187.116211	68811.945313
1186.001953	68932.398438
1184.886719	68795.609375
1183.772461	68674.117188
1182.657227	68790.164063
1181.541016	68474.820313
1180.425781	68155.234375
1179.309570	68269.132813
1178.193359	67701.476563
1177.077148	67821.937500
1175.960938	67750.820313
1174.844727	66983.359375
1173.727539	66923.289063
1172.610352	66774.046875
1171.493164	66503.062500
1170.375977	67302.046875
