#Wave		#Intensity
2001.110352	36576.835938
2000.140625	36802.417969
1999.170898	36801.007813
1998.201172	37055.164063
1997.231445	37424.468750
1996.261719	37024.695313
1995.291016	36985.671875
1994.320313	36718.816406
1993.349609	37195.562500
1992.378906	36500.750000
1991.408203	36872.257813
1990.436523	36638.128906
1989.464844	37124.554688
1988.494141	37023.027344
1987.522461	36886.519531
1986.549805	36917.582031
1985.578125	36713.640625
1984.606445	37184.625000
1983.633789	37313.078125
1982.661133	37161.636719
1981.688477	36925.316406
1980.715820	36556.691406
1979.742188	36919.902344
1978.769531	36958.394531
1977.795898	37189.097656
1976.822266	37062.789063
1975.848633	37395.707031
1974.875000	37184.574219
1973.900391	36863.746094
1972.925781	37213.976563
1971.952148	37092.757813
1970.977539	37198.472656
1970.002930	36795.597656
1969.027344	37619.164063
1968.052734	37146.570313
1967.077148	36634.277344
1966.101563	37158.492188
1965.125977	37490.738281
1964.150391	37419.433594
1963.174805	37265.988281
1962.198242	37505.925781
1961.221680	37382.382813
1960.245117	37268.835938
1959.268555	37431.507813
1958.291992	37760.800781
1957.315430	37410.953125
1956.337891	37431.761719
1955.360352	37387.917969
1954.382813	37585.226563
1953.405273	37541.367188
1952.427734	37427.937500
1951.449219	38045.039063
1950.471680	37812.316406
1949.493164	37467.902344
1948.514648	37511.011719
1947.536133	37442.375000
1946.556641	37339.003906
1945.578125	37394.519531
1944.598633	38023.269531
1943.619141	37562.554688
1942.639648	37732.113281
1941.660156	37579.167969
1940.680664	37919.773438
1939.700195	37613.121094
1938.719727	37946.160156
1937.739258	37671.828125
1936.758789	37804.007813
1935.778320	37829.597656
1934.797852	37798.199219
1933.816406	37548.847656
1932.834961	37675.996094
1931.853516	37830.335938
1930.872070	37479.609375
1929.890625	37737.878906
1928.908203	37664.453125
1927.925781	37618.265625
1926.944336	38197.968750
1925.960938	38013.191406
1924.978516	38112.867188
1923.996094	37930.640625
1923.012695	38351.660156
1922.030273	37823.425781
1921.046875	37797.027344
1920.062500	37691.570313
1919.079102	38156.800781
1918.095703	37814.203125
1917.111328	37703.859375
1916.126953	38183.648438
1915.142578	38300.386719
1914.158203	37844.464844
1913.173828	38212.925781
1912.188477	38272.843750
1911.204102	38041.644531
1910.218750	38414.808594
1909.233398	38321.761719
1908.247070	38502.421875
1907.261719	38017.433594
1906.275391	38350.894531
1905.290039	38457.523438
1904.303711	38468.027344
1903.317383	38293.765625
1902.330078	38287.050781
1901.343750	38533.976563
1900.356445	38389.335938
1899.369141	38461.375000
1898.381836	38597.378906
1897.394531	38130.433594
1896.407227	38261.523438
1895.418945	38208.070313
1894.431641	38339.097656
1893.443359	38575.820313
1892.455078	38492.832031
1891.466797	38685.191406
1890.477539	38213.875000
1889.489258	38430.789063
1888.500000	38374.902344
1887.510742	39127.226563
1886.521484	38580.019531
1885.531250	38759.875000
1884.541992	38730.972656
1883.551758	38608.796875
1882.561523	38837.636719
1881.571289	39100.746094
1880.581055	38581.101563
1879.590820	38991.343750
1878.599609	38440.011719
1877.608398	38761.855469
1876.618164	38536.839844
1875.625977	39196.832031
1874.634766	38932.601563
1873.643555	39018.882813
1872.651367	38869.921875
1871.659180	38698.968750
1870.666992	38873.410156
1869.674805	38895.964844
1868.682617	39131.511719
1867.689453	38874.949219
1866.697266	39041.890625
1865.704102	38643.503906
1864.710938	38869.136719
1863.717773	38759.566406
1862.723633	39263.914063
1861.730469	39178.761719
1860.736328	39308.785156
1859.742188	38803.207031
1858.748047	39397.613281
1857.752930	39388.242188
1856.758789	39139.445313
1855.763672	39237.601563
1854.768555	39814.410156
1853.773438	39245.777344
1852.778320	39812.613281
1851.783203	39073.308594
1850.787109	39271.445313
1849.791016	39601.277344
1848.795898	39694.343750
1847.798828	39472.699219
1846.802734	39777.933594
1845.806641	39619.750000
1844.809570	39295.839844
1843.812500	39998.261719
1842.815430	39416.054688
1841.818359	39579.687500
1840.821289	39913.804688
1839.823242	39602.296875
1838.826172	39475.992188
1837.828125	39400.863281
1836.830078	39771.289063
1835.831055	39632.843750
1834.833008	39939.816406
1833.833984	40227.214844
1832.834961	39855.203125
1831.835938	39921.160156
1830.836914	40167.058594
1829.837891	39549.660156
1828.837891	40079.980469
1827.838867	40449.683594
1826.838867	40107.179688
1825.838867	39915.449219
1824.838867	39998.308594
1823.837891	39993.691406
1822.837891	40066.789063
1821.836914	40173.855469
1820.835938	40402.269531
1819.834961	40455.832031
1818.833008	40193.882813
1817.832031	40514.371094
1816.830078	40764.390625
1815.828125	40400.648438
1814.826172	40602.093750
1813.824219	40531.894531
1812.822266	40340.503906
1811.819336	40423.078125
1810.816406	40844.906250
1809.813477	40634.171875
1808.810547	40251.507813
1807.807617	40670.714844
1806.803711	40796.738281
1805.800781	40605.527344
1804.796875	40864.667969
1803.792969	40976.066406
1802.789063	40409.812500
1801.784180	40806.761719
1800.780273	41346.300781
1799.775391	40966.519531
1798.770508	40937.531250
1797.765625	41510.609375
1796.760742	41058.468750
1795.754883	41290.515625
1794.749023	40995.656250
1793.744141	40981.175781
1792.738281	41379.792969
1791.731445	41657.503906
1790.725586	41664.644531
1789.718750	41246.828125
1788.712891	41519.582031
1787.706055	41398.816406
1786.699219	41251.542969
1785.691406	41724.410156
1784.684570	41938.984375
1783.676758	41830.281250
1782.668945	41849.421875
1781.661133	41682.906250
1780.653320	42220.355469
1779.645508	42350.285156
1778.636719	42333.171875
1777.627930	41981.156250
1776.619141	42433.855469
1775.610352	42228.863281
1774.601563	42344.218750
1773.591797	42216.359375
1772.583008	42591.656250
1771.573242	42338.636719
1770.563477	42432.230469
1769.553711	42477.667969
1768.542969	42975.332031
1767.533203	43095.210938
1766.522461	43239.097656
1765.511719	43147.308594
1764.500977	43045.933594
1763.489258	43194.550781
1762.478516	43307.070313
1761.466797	43960.128906
1760.455078	43354.222656
1759.443359	43423.417969
1758.431641	43679.886719
1757.419922	44034.703125
1756.407227	43734.062500
1755.394531	44139.140625
1754.381836	44044.953125
1753.369141	44385.050781
1752.356445	43897.449219
1751.342773	43786.558594
1750.330078	43968.253906
1749.316406	44224.203125
1748.302734	44302.679688
1747.288086	43858.656250
1746.274414	44600.917969
1745.259766	44264.808594
1744.246094	44616.285156
1743.231445	45020.324219
1742.215820	44643.605469
1741.201172	45183.960938
1740.186523	44740.316406
1739.170898	45184.726563
1738.155273	45061.878906
1737.139648	44986.917969
1736.124023	45261.214844
1735.107422	45128.843750
1734.090820	45453.226563
1733.075195	45543.203125
1732.058594	46094.472656
1731.041016	46358.761719
1730.024414	46343.386719
1729.007813	46832.105469
1727.990234	46835.757813
1726.972656	47266.890625
1725.955078	47158.238281
1724.936523	47851.769531
1723.918945	47812.265625
1722.900391	48400.421875
1721.881836	48334.589844
1720.863281	48323.644531
1719.844727	48682.410156
1718.826172	48795.414063
1717.806641	48860.691406
1716.787109	49009.378906
1715.767578	49629.949219
1714.748047	50107.316406
1713.728516	49047.671875
1712.708008	49324.855469
1711.688477	49732.941406
1710.667969	49747.945313
1709.647461	49612.937500
1708.626953	49842.207031
1707.605469	49571.558594
1706.583984	49248.648438
1705.563477	49589.679688
1704.541992	49469.085938
1703.519531	49286.687500
1702.498047	49434.906250
1701.476563	49352.437500
1700.454102	48932.429688
1699.431641	49677.199219
1698.409180	49466.402344
1697.385742	49298.445313
1696.363281	49206.558594
1695.339844	49159.835938
1694.316406	49049.007813
1693.292969	48833.750000
1692.269531	49297.484375
1691.246094	49281.621094
1690.221680	49341.695313
1689.197266	49242.789063
1688.172852	49224.566406
1687.148438	48981.031250
1686.124023	49261.644531
1685.098633	49603.796875
1684.074219	49490.695313
1683.048828	49595.679688
1682.023438	49662.707031
1680.997070	49679.957031
1679.971680	49356.093750
1678.945313	49790.218750
1677.918945	49866.628906
1676.892578	49848.312500
1675.866211	50248.972656
1674.839844	50187.988281
1673.812500	50302.125000
1672.785156	50042.417969
1671.758789	50698.218750
1670.730469	50294.261719
1669.703125	50186.019531
1668.675781	50266.949219
1667.647461	50950.601563
1666.619141	50544.515625
1665.590820	50993.945313
1664.562500	51093.562500
1663.533203	50756.160156
1662.504883	51184.050781
1661.475586	50773.550781
1660.446289	51378.343750
1659.416992	51248.839844
1658.386719	50982.496094
1657.357422	51136.250000
1656.327148	51523.500000
1655.296875	51464.812500
1654.266602	51486.328125
1653.235352	51526.691406
1652.205078	51468.031250
1651.173828	51828.941406
1650.142578	52102.523438
1649.111328	51881.207031
1648.080078	52427.949219
1647.048828	51994.664063
1646.016602	51971.292969
1644.984375	52058.589844
1643.952148	51988.128906
1642.919922	52696.761719
1641.886719	52435.593750
1640.854492	52374.507813
1639.821289	52216.988281
1638.788086	52882.734375
1637.754883	52769.859375
1636.721680	52925.058594
1635.687500	53185.980469
1634.653320	52957.941406
1633.620117	53183.511719
1632.584961	53951.742188
1631.550781	53493.468750
1630.516602	53951.335938
1629.481445	54129.597656
1628.446289	54293.707031
1627.411133	53847.429688
1626.375977	54898.691406
1625.340820	55039.101563
1624.304688	54391.152344
1623.268555	55404.218750
1622.232422	55654.691406
1621.196289	56078.593750
1620.160156	56821.195313
1619.123047	57851.851563
1618.086914	58943.074219
1617.049805	60097.171875
1616.012695	60798.691406
1614.974609	63242.714844
1613.937500	64531.257813
1612.899414	65514.937500
1611.861328	66430.367188
1610.823242	66650.273438
1609.785156	67139.234375
1608.747070	67150.671875
1607.708008	65472.996094
1606.668945	64612.253906
1605.629883	63220.933594
1604.590820	62503.523438
1603.551758	61115.410156
1602.511719	59891.406250
1601.471680	59210.019531
1600.431641	57778.832031
1599.391602	57534.921875
1598.351563	57211.679688
1597.310547	56890.886719
1596.270508	56661.265625
1595.229492	56366.359375
1594.188477	55908.171875
1593.146484	55951.878906
1592.105469	55122.937500
1591.063477	55537.687500
1590.021484	55161.597656
1588.979492	55128.441406
1587.937500	54666.285156
1586.895508	54376.796875
1585.852539	54907.835938
1584.809570	55091.464844
1583.766602	55044.359375
1582.723633	54799.265625
1581.680664	54922.250000
1580.636719	55194.222656
1579.593750	54998.117188
1578.549805	54997.617188
1577.504883	55032.027344
1576.460938	56069.367188
1575.416992	55405.589844
1574.372070	55577.148438
1573.327148	56099.832031
1572.282227	55571.265625
1571.237305	56193.734375
1570.191406	55588.628906
1569.146484	55443.910156
1568.100586	55299.238281
1567.054688	55352.097656
1566.007813	55516.433594
1564.961914	54951.457031
1563.915039	55041.496094
1562.869141	54885.406250
1561.822266	54367.265625
1560.774414	54394.691406
1559.727539	54739.996094
1558.679688	54674.542969
1557.632813	54300.609375
1556.584961	54852.144531
1555.537109	54494.539063
1554.488281	54494.082031
1553.440430	54166.796875
1552.391602	54646.109375
1551.342773	54263.300781
1550.293945	54434.304688
1549.245117	54290.238281
1548.195313	54185.589844
1547.146484	54062.453125
1546.096680	53994.917969
1545.046875	54408.839844
1543.996094	54348.207031
1542.946289	54521.281250
1541.895508	54335.722656
1540.844727	54659.070313
1539.793945	54714.050781
1538.743164	54362.082031
1537.692383	53672.730469
1536.640625	54747.121094
1535.588867	54367.597656
1534.537109	54304.734375
1533.485352	54202.625000
1532.433594	53707.914063
1531.380859	53975.414063
1530.329102	53891.878906
1529.276367	53958.417969
1528.222656	53641.808594
1527.169922	53756.824219
1526.117188	53661.843750
1525.063477	53421.570313
1524.009766	53621.890625
1522.956055	53533.898438
1521.902344	53379.074219
1520.847656	53450.203125
1519.792969	53747.160156
1518.738281	53412.640625
1517.683594	53665.722656
1516.628906	53651.511719
1515.574219	53529.062500
1514.518555	53618.492188
1513.462891	53429.324219
1512.407227	53371.425781
1511.351563	53545.980469
1510.294922	53340.812500
1509.239258	53982.320313
1508.182617	54099.164063
1507.125977	53277.675781
1506.069336	53617.628906
1505.011719	53580.441406
1503.955078	53628.308594
1502.897461	53820.937500
1501.839844	53880.226563
1500.782227	53525.992188
1499.724609	52843.429688
1498.666016	53424.144531
1497.607422	53311.253906
1496.548828	53813.625000
1495.490234	53195.757813
1494.431641	53190.816406
1493.372070	53660.812500
1492.313477	53474.562500
1491.253906	53412.226563
1490.194336	53675.539063
1489.133789	54053.390625
1488.074219	53300.992188
1487.013672	53545.839844
1485.953125	53442.292969
1484.892578	53902.386719
1483.832031	53356.707031
1482.770508	53402.105469
1481.709961	53729.140625
1480.648438	53591.300781
1479.586914	53904.445313
1478.524414	53510.289063
1477.462891	53809.601563
1476.400391	53980.691406
1475.337891	54041.917969
1474.275391	54164.871094
1473.212891	54214.605469
1472.150391	54604.960938
1471.086914	54263.730469
1470.023438	54580.800781
1468.959961	54472.757813
1467.896484	54442.425781
1466.833008	54871.207031
1465.768555	54824.820313
1464.704102	55018.195313
1463.639648	55266.289063
1462.575195	54786.183594
1461.510742	55344.582031
1460.445313	55362.031250
1459.379883	55352.093750
1458.314453	55613.578125
1457.249023	55391.515625
1456.183594	55470.492188
1455.117188	55285.003906
1454.051758	56027.210938
1452.985352	55709.515625
1451.917969	55776.976563
1450.851563	56081.324219
1449.785156	56264.843750
1448.717773	56507.503906
1447.650391	55941.828125
1446.583008	56402.984375
1445.514648	56845.761719
1444.447266	56894.714844
1443.378906	56879.941406
1442.310547	57149.511719
1441.242188	57462.195313
1440.173828	58020.339844
1439.104492	58073.574219
1438.036133	58063.136719
1436.966797	58943.585938
1435.897461	58726.218750
1434.827148	58995.097656
1433.757813	58696.023438
1432.687500	59182.828125
1431.617188	59921.492188
1430.546875	59783.589844
1429.476563	60474.210938
1428.406250	60415.679688
1427.334961	60717.937500
1426.263672	60328.167969
1425.192383	60144.941406
1424.121094	60542.324219
1423.048828	60214.007813
1421.977539	60187.308594
1420.905273	59927.167969
1419.833008	60231.378906
1418.759766	59837.640625
1417.687500	60019.425781
1416.614258	60441.226563
1415.541992	60011.421875
1414.468750	60134.207031
1413.394531	59761.199219
1412.321289	59637.281250
1411.247070	59938.824219
1410.172852	59713.105469
1409.098633	59589.257813
1408.024414	59750.417969
1406.950195	59450.226563
1405.875000	59722.128906
1404.799805	60136.339844
1403.724609	60116.472656
1402.649414	60281.902344
1401.574219	60835.851563
1400.498047	59998.175781
1399.421875	60888.472656
1398.345703	60782.671875
1397.269531	60792.046875
1396.193359	61160.304688
1395.116211	61187.656250
1394.039063	61104.429688
1392.961914	61388.957031
1391.884766	61894.417969
1390.807617	61752.468750
1389.729492	62018.679688
1388.651367	62111.203125
1387.573242	62683.781250
1386.495117	63152.484375
1385.416992	63280.796875
1384.337891	63289.667969
1383.258789	63697.191406
1382.179688	64235.175781
1381.100586	63822.832031
1380.021484	64119.726563
1378.941406	63925.867188
1377.861328	64173.125000
1376.781250	63943.320313
1375.701172	64469.410156
1374.621094	63537.925781
1373.540039	63661.390625
1372.458984	63546.492188
1371.377930	63229.328125
1370.296875	62867.328125
1369.215820	62649.265625
1368.133789	62669.417969
1367.051758	62819.843750
1365.969727	62523.296875
1364.887695	62080.902344
1363.805664	61609.476563
1362.722656	61759.972656
1361.639648	61555.832031
1360.556641	61977.777344
1359.473633	61136.542969
1358.390625	61524.761719
1357.306641	61114.484375
1356.223633	60818.699219
1355.139648	60715.812500
1354.054688	60267.789063
1352.970703	60640.113281
1351.885742	60382.707031
1350.801758	60416.613281
1349.716797	59552.367188
1348.630859	59675.972656
1347.545898	59383.097656
1346.459961	59484.300781
1345.375000	59484.750000
1344.289063	59740.296875
1343.202148	59082.925781
1342.116211	59291.472656
1341.029297	59007.910156
1339.943359	59281.238281
1338.856445	59210.167969
1337.768555	59579.472656
1336.681641	59161.960938
1335.593750	59473.039063
1334.506836	59591.871094
1333.418945	59467.183594
1332.330078	59630.636719
1331.242188	59921.296875
1330.153320	59553.277344
1329.065430	59933.125000
1327.976563	59790.625000
1326.886719	60210.453125
1325.797852	60328.957031
1324.708008	60775.296875
1323.619141	60483.324219
1322.529297	60583.871094
1321.438477	61406.656250
1320.348633	61150.378906
1319.257813	61379.996094
1318.167969	61522.628906
1317.076172	61836.738281
1315.985352	61758.738281
1314.894531	62235.246094
1313.802734	62277.421875
1312.710938	62711.363281
1311.619141	62613.218750
1310.527344	62381.597656
1309.435547	62296.894531
1308.342773	62247.808594
1307.250000	61825.105469
1306.157227	62102.988281
1305.064453	62578.632813
1303.970703	62311.687500
1302.877930	62595.988281
1301.784180	62135.820313
1300.690430	62304.523438
1299.596680	62799.675781
1298.501953	62934.882813
1297.407227	63731.710938
1296.313477	63194.035156
1295.217773	63406.773438
1294.123047	64069.925781
1293.028320	63752.132813
1291.932617	64064.472656
1290.836914	64117.191406
1289.741211	63883.824219
1288.645508	63377.828125
1287.548828	63519.304688
1286.453125	63662.945313
1285.356445	63358.906250
1284.259766	63201.203125
1283.162109	62722.355469
1282.065430	63244.750000
1280.967773	62777.132813
1279.870117	62285.332031
1278.772461	61837.972656
1277.674805	62107.839844
1276.576172	61704.925781
1275.477539	61412.773438
1274.378906	61383.949219
1273.280273	61348.496094
1272.181641	61512.058594
1271.082031	61164.875000
1269.983398	61100.738281
1268.883789	60678.609375
1267.783203	60440.027344
1266.683594	60228.035156
1265.583984	59673.761719
1264.483398	60003.027344
1263.382813	59908.246094
1262.282227	59018.777344
1261.180664	59590.761719
1260.080078	59743.250000
1258.978516	59657.398438
1257.876953	59399.511719
1256.775391	59249.789063
1255.672852	59155.242188
1254.571289	58884.351563
1253.468750	59667.230469
1252.366211	58554.433594
1251.262695	58462.277344
1250.160156	59039.906250
1249.056641	59137.128906
1247.953125	58690.332031
1246.849609	58747.941406
1245.746094	58585.371094
1244.642578	58414.050781
1243.538086	58746.765625
1242.433594	58830.714844
1241.329102	58448.242188
1240.224609	58910.535156
1239.119141	58653.531250
1238.014648	58785.800781
1236.909180	58682.796875
1235.803711	58735.878906
1234.697266	58661.484375
1233.591797	58448.691406
1232.485352	58565.488281
1231.378906	58267.125000
1230.272461	58741.847656
1229.166016	58300.847656
1228.058594	58443.917969
1226.951172	58483.777344
1225.843750	58596.035156
1224.736328	58596.359375
1223.628906	58528.675781
1222.520508	58270.214844
1221.412109	58481.093750
1220.303711	58262.187500
1219.195313	58457.644531
1218.086914	57723.800781
1216.977539	58401.335938
1215.868164	58235.171875
1214.758789	58077.832031
1213.649414	57749.726563
1212.540039	58056.714844
1211.429688	58558.425781
1210.319336	58066.246094
1209.208984	58353.304688
1208.098633	58023.246094
1206.987305	57831.125000
1205.876953	58258.042969
1204.765625	58824.761719
1203.654297	58615.097656
1202.542969	58337.742188
1201.430664	58401.437500
1200.318359	58978.632813
1199.206055	58736.312500
1198.093750	59190.902344
1196.981445	59453.132813
1195.868164	59822.261719
1194.755859	60219.636719
1193.642578	59935.824219
1192.528320	60241.367188
1191.415039	60372.234375
1190.301758	60354.699219
1189.187500	60036.156250
1188.073242	59894.378906
1186.958984	59765.730469
1185.843750	59423.480469
1184.729492	59342.914063
1183.614258	59661.171875
1182.499023	59619.804688
1181.382813	59395.457031
1180.267578	59554.527344
1179.151367	59541.503906
1178.035156	58875.300781
1176.918945	58673.011719
1175.802734	59258.675781
1174.686523	58806.136719
1173.569336	58651.828125
1172.452148	58384.457031
1171.334961	58680.476563
1170.217773	58595.851563
