#Wave		#Intensity
2001.248047	37868.601563
2000.278320	37507.660156
1999.308594	37263.035156
1998.338867	37602.308594
1997.369141	37510.566406
1996.398438	37564.132813
1995.428711	38151.105469
1994.458008	37698.746094
1993.487305	38080.203125
1992.516602	37670.566406
1991.545898	37789.117188
1990.574219	37992.699219
1989.603516	38176.191406
1988.631836	38354.621094
1987.660156	37540.148438
1986.688477	37858.644531
1985.715820	37752.031250
1984.744141	37910.406250
1983.771484	37746.339844
1982.798828	38234.480469
1981.826172	37960.492188
1980.853516	37739.046875
1979.880859	38516.621094
1978.907227	37740.843750
1977.933594	37724.261719
1976.959961	37909.863281
1975.986328	38167.773438
1975.012695	38143.636719
1974.039063	38321.578125
1973.064453	38145.269531
1972.089844	38056.304688
1971.115234	37987.316406
1970.140625	38317.226563
1969.166016	38639.546875
1968.190430	38433.421875
1967.215820	38501.449219
1966.240234	38591.878906
1965.264648	38560.222656
1964.289063	38707.882813
1963.312500	38489.468750
1962.336914	38418.007813
1961.360352	38329.152344
1960.383789	38198.015625
1959.407227	38519.777344
1958.430664	38679.718750
1957.454102	38769.957031
1956.476563	38890.007813
1955.499023	38826.015625
1954.521484	38928.605469
1953.543945	38740.347656
1952.566406	38813.093750
1951.587891	38396.324219
1950.610352	38998.253906
1949.631836	39177.718750
1948.653320	38932.453125
1947.674805	38540.777344
1946.696289	39023.093750
1945.716797	38668.765625
1944.737305	39346.941406
1943.758789	39091.929688
1942.779297	39008.179688
1941.798828	39318.839844
1940.819336	39056.519531
1939.838867	39332.347656
1938.859375	38819.730469
1937.878906	38988.914063
1936.898438	39329.035156
1935.916992	39034.726563
1934.936523	39733.929688
1933.955078	39444.605469
1932.974609	39556.566406
1931.993164	39207.945313
1931.010742	39223.359375
1930.029297	39921.910156
1929.047852	39298.707031
1928.065430	39088.929688
1927.083008	39641.175781
1926.100586	39658.964844
1925.118164	39392.347656
1924.135742	39790.945313
1923.152344	39324.156250
1922.168945	39309.851563
1921.185547	39905.949219
1920.202148	39204.652344
1919.218750	39973.484375
1918.235352	39393.449219
1917.250977	39230.960938
1916.266602	39483.339844
1915.282227	39915.839844
1914.297852	39817.519531
1913.313477	39874.699219
1912.328125	39603.699219
1911.343750	39599.222656
1910.358398	39858.660156
1909.373047	39920.722656
1908.387695	39896.460938
1907.401367	39778.531250
1906.416016	40143.734375
1905.429688	39796.613281
1904.443359	39671.367188
1903.457031	39748.164063
1902.470703	40187.003906
1901.483398	39657.878906
1900.497070	40071.957031
1899.509766	39700.585938
1898.522461	39961.902344
1897.535156	39979.500000
1896.546875	40043.839844
1895.559570	40029.429688
1894.571289	40125.707031
1893.583008	40017.839844
1892.594727	39732.980469
1891.606445	40198.000000
1890.618164	39642.839844
1889.628906	40078.218750
1888.639648	39867.253906
1887.650391	39975.714844
1886.661133	40091.500000
1885.671875	39907.652344
1884.682617	40020.953125
1883.692383	40362.511719
1882.702148	40181.164063
1881.711914	39815.824219
1880.721680	40127.792969
1879.731445	40358.699219
1878.740234	40263.312500
1877.749023	40408.281250
1876.757813	40594.878906
1875.766602	40401.441406
1874.775391	40301.207031
1873.784180	40602.894531
1872.791992	40240.496094
1871.799805	40311.816406
1870.807617	40405.152344
1869.815430	40018.484375
1868.823242	40755.761719
1867.830078	40540.523438
1866.837891	40366.968750
1865.844727	40665.757813
1864.851563	40668.398438
1863.858398	40800.683594
1862.864258	40698.128906
1861.871094	40764.332031
1860.876953	40698.488281
1859.882813	40806.226563
1858.888672	40718.398438
1857.894531	41004.476563
1856.899414	40870.218750
1855.905273	41034.027344
1854.910156	41124.507813
1853.915039	40714.355469
1852.919922	40870.777344
1851.923828	40704.917969
1850.928711	41119.988281
1849.932617	40959.023438
1848.936523	40800.550781
1847.940430	41276.367188
1846.944336	41198.375000
1845.947266	41174.058594
1844.951172	41500.832031
1843.954102	41647.101563
1842.957031	41705.578125
1841.959961	40916.031250
1840.962891	41763.992188
1839.964844	41366.894531
1838.966797	41478.953125
1837.969727	41605.578125
1836.970703	41663.992188
1835.972656	41756.460938
1834.974609	41873.234375
1833.975586	41766.093750
1832.976563	41800.101563
1831.978516	41714.902344
1830.978516	41928.875000
1829.979492	42018.757813
1828.980469	42052.691406
1827.980469	42251.902344
1826.980469	41906.644531
1825.980469	42028.046875
1824.980469	42144.550781
1823.979492	42105.550781
1822.979492	41894.128906
1821.978516	42369.964844
1820.977539	42622.273438
1819.976563	42340.472656
1818.975586	42393.687500
1817.973633	41789.296875
1816.972656	42512.183594
1815.970703	42172.378906
1814.968750	41987.906250
1813.966797	42739.468750
1812.963867	42477.378906
1811.961914	42096.605469
1810.958984	42670.828125
1809.956055	42539.730469
1808.953125	42512.851563
1807.950195	42447.222656
1806.946289	42512.394531
1805.943359	42449.207031
1804.939453	42402.988281
1803.935547	42891.722656
1802.930664	42494.523438
1801.926758	42651.566406
1800.922852	43074.671875
1799.917969	43088.843750
1798.913086	42703.976563
1797.908203	43141.351563
1796.903320	42879.902344
1795.897461	43130.968750
1794.891602	43002.527344
1793.886719	43132.667969
1792.880859	43028.425781
1791.874023	42950.785156
1790.868164	43447.941406
1789.862305	43230.207031
1788.855469	42995.652344
1787.848633	43282.539063
1786.841797	43185.609375
1785.833984	43329.996094
1784.827148	43269.277344
1783.819336	43153.097656
1782.812500	43403.519531
1781.804688	43263.246094
1780.795898	43520.789063
1779.788086	43638.441406
1778.779297	43425.898438
1777.771484	43579.664063
1776.762695	43769.511719
1775.753906	43826.816406
1774.744141	43917.812500
1773.735352	43743.921875
1772.725586	43784.343750
1771.715820	43957.128906
1770.706055	43764.066406
1769.696289	44150.929688
1768.686523	44056.527344
1767.675781	44130.523438
1766.666016	44692.656250
1765.655273	44042.800781
1764.644531	44508.593750
1763.632813	44320.464844
1762.622070	44339.070313
1761.610352	44477.796875
1760.598633	44726.976563
1759.586914	44651.820313
1758.575195	44612.710938
1757.563477	44960.167969
1756.550781	44568.136719
1755.538086	45073.882813
1754.525391	45077.914063
1753.512695	45357.855469
1752.500000	45273.074219
1751.486328	45332.226563
1750.473633	45146.761719
1749.459961	45241.875000
1748.446289	45389.687500
1747.432617	45518.273438
1746.417969	45613.265625
1745.404297	45571.656250
1744.389648	45898.957031
1743.375000	45795.039063
1742.360352	45631.292969
1741.344727	45759.687500
1740.330078	45746.804688
1739.314453	45899.066406
1738.298828	46266.628906
1737.283203	46423.527344
1736.267578	46597.109375
1735.251953	46670.179688
1734.235352	46893.867188
1733.218750	47213.105469
1732.202148	46963.324219
1731.185547	47129.480469
1730.168945	47395.929688
1729.151367	47748.292969
1728.133789	47565.472656
1727.117188	48206.652344
1726.098633	48307.960938
1725.081055	48590.667969
1724.063477	48770.636719
1723.044922	48492.324219
1722.026367	49442.960938
1721.007813	49608.363281
1719.989258	50019.386719
1718.970703	49755.351563
1717.951172	49570.089844
1716.931641	50147.781250
1715.912109	50329.585938
1714.892578	50363.566406
1713.873047	50645.343750
1712.853516	50174.199219
1711.833008	50360.628906
1710.812500	50330.273438
1709.791992	50347.546875
1708.771484	50614.781250
1707.750000	50382.074219
1706.729492	50675.378906
1705.708008	50047.761719
1704.686523	50524.199219
1703.665039	50225.062500
1702.642578	50306.531250
1701.621094	50426.007813
1700.598633	50193.609375
1699.576172	50479.441406
1698.553711	50121.156250
1697.531250	50708.648438
1696.507813	50447.847656
1695.485352	50507.781250
1694.461914	50845.539063
1693.438477	50359.285156
1692.415039	50540.265625
1691.390625	50367.535156
1690.367188	51058.652344
1689.342773	51417.355469
1688.318359	50865.000000
1687.293945	50355.527344
1686.269531	50761.585938
1685.244141	51063.175781
1684.218750	51030.410156
1683.194336	51687.359375
1682.168945	51182.921875
1681.142578	51209.382813
1680.117188	51486.925781
1679.090820	51195.945313
1678.064453	51409.453125
1677.038086	52110.605469
1676.011719	51691.839844
1674.985352	51796.265625
1673.958008	51692.421875
1672.931641	51848.859375
1671.904297	51357.093750
1670.876953	51790.246094
1669.848633	52218.511719
1668.821289	52164.320313
1667.792969	52266.156250
1666.764648	52306.507813
1665.736328	51798.632813
1664.708008	52096.566406
1663.679688	52443.996094
1662.650391	52760.597656
1661.621094	52425.367188
1660.591797	52708.804688
1659.562500	52810.382813
1658.533203	52480.039063
1657.502930	52697.238281
1656.472656	52926.152344
1655.442383	52669.078125
1654.412109	53437.980469
1653.381836	53197.406250
1652.351563	52848.468750
1651.320313	53081.859375
1650.289063	53572.042969
1649.257813	53508.328125
1648.226563	53112.460938
1647.194336	53211.367188
1646.163086	53100.644531
1645.130859	52999.375000
1644.098633	53347.789063
1643.066406	53392.441406
1642.033203	53912.445313
1641.000977	53324.046875
1639.967773	53100.488281
1638.934570	53676.710938
1637.901367	53867.058594
1636.868164	53356.664063
1635.833984	53311.910156
1634.800781	53208.414063
1633.766602	53934.496094
1632.732422	54047.078125
1631.697266	54107.937500
1630.663086	54960.296875
1629.627930	54412.757813
1628.593750	54271.593750
1627.558594	54501.378906
1626.522461	54639.546875
1625.487305	54611.050781
1624.451172	55237.160156
1623.416016	55375.117188
1622.379883	55513.019531
1621.343750	55725.910156
1620.306641	56449.839844
1619.270508	57161.785156
1618.233398	57695.351563
1617.196289	58451.343750
1616.159180	59427.289063
1615.122070	60721.464844
1614.083984	61640.449219
1613.046875	62662.132813
1612.008789	63025.570313
1610.970703	63896.828125
1609.932617	63656.089844
1608.893555	63677.515625
1607.855469	62987.703125
1606.816406	62634.972656
1605.777344	61580.746094
1604.738281	60321.125000
1603.698242	59637.070313
1602.659180	58576.921875
1601.619141	57603.621094
1600.579102	57121.355469
1599.539063	56907.929688
1598.499023	56271.792969
1597.458008	55829.718750
1596.417969	55170.648438
1595.376953	54997.394531
1594.335938	54611.796875
1593.294922	54585.726563
1592.252930	54130.335938
1591.210938	54022.707031
1590.169922	53656.207031
1589.127930	53681.621094
1588.084961	53662.726563
1587.042969	53858.304688
1586.000000	53506.074219
1584.958008	53449.921875
1583.915039	53370.492188
1582.872070	53798.933594
1581.828125	53437.636719
1580.785156	53581.800781
1579.741211	54186.921875
1578.697266	54121.386719
1577.653320	54404.992188
1576.609375	54157.925781
1575.564453	54397.218750
1574.520508	54236.304688
1573.475586	54705.750000
1572.430664	54670.410156
1571.384766	54567.652344
1570.339844	54274.316406
1569.293945	54469.156250
1568.249023	54057.425781
1567.202148	53559.878906
1566.156250	53420.234375
1565.110352	53036.773438
1564.063477	52625.585938
1563.017578	52569.757813
1561.970703	52182.007813
1560.922852	51810.636719
1559.875977	51430.117188
1558.829102	51557.812500
1557.781250	51356.082031
1556.733398	51611.296875
1555.685547	51544.109375
1554.636719	51801.515625
1553.588867	51340.265625
1552.540039	51391.351563
1551.491211	51667.175781
1550.442383	50909.648438
1549.393555	51292.007813
1548.344727	51407.902344
1547.294922	51079.183594
1546.245117	51391.847656
1545.195313	51005.378906
1544.145508	51088.835938
1543.094727	51165.316406
1542.044922	50753.640625
1540.994141	51278.867188
1539.943359	51124.011719
1538.892578	50823.539063
1537.840820	50860.691406
1536.790039	51397.074219
1535.738281	51189.144531
1534.686523	50972.046875
1533.634766	50889.011719
1532.583008	50946.894531
1531.530273	50990.898438
1530.477539	51173.414063
1529.424805	51097.316406
1528.372070	50998.164063
1527.319336	51014.429688
1526.265625	51104.511719
1525.212891	50968.500000
1524.159180	51134.664063
1523.105469	50906.453125
1522.051758	51180.925781
1520.997070	51074.953125
1519.942383	51047.378906
1518.888672	51052.070313
1517.833984	51082.101563
1516.778320	51245.722656
1515.723633	50695.328125
1514.667969	50693.164063
1513.612305	50651.859375
1512.556641	50585.246094
1511.500977	50564.683594
1510.445313	50187.468750
1509.388672	50143.976563
1508.332031	50411.023438
1507.275391	50321.503906
1506.218750	50238.914063
1505.162109	50547.175781
1504.104492	50140.472656
1503.047852	50278.574219
1501.990234	50092.648438
1500.931641	50430.570313
1499.874023	50444.503906
1498.816406	50394.132813
1497.757813	50022.328125
1496.699219	50458.722656
1495.640625	50213.273438
1494.582031	49853.167969
1493.522461	50371.953125
1492.462891	50255.109375
1491.403320	50110.781250
1490.343750	50386.156250
1489.284180	49645.730469
1488.224609	50650.062500
1487.164063	49923.597656
1486.103516	50421.085938
1485.042969	49839.261719
1483.982422	49855.523438
1482.920898	50158.070313
1481.860352	50300.214844
1480.798828	50240.824219
1479.737305	49963.996094
1478.675781	50170.171875
1477.613281	49813.359375
1476.550781	50367.238281
1475.489258	50248.410156
1474.426758	50218.812500
1473.363281	50342.429688
1472.300781	49972.179688
1471.237305	50422.660156
1470.174805	50438.757813
1469.111328	50637.640625
1468.046875	50338.414063
1466.983398	50624.042969
1465.919922	50777.105469
1464.855469	50580.757813
1463.791016	50870.750000
1462.726563	50642.496094
1461.661133	51130.910156
1460.596680	51317.960938
1459.531250	51114.839844
1458.465820	51194.617188
1457.400391	51351.902344
1456.334961	51424.769531
1455.268555	50870.695313
1454.202148	50991.480469
1453.135742	51422.144531
1452.069336	51387.847656
1451.002930	51697.542969
1449.935547	51440.000000
1448.869141	51856.597656
1447.801758	51961.125000
1446.734375	51705.941406
1445.666016	52147.300781
1444.598633	52483.820313
1443.530273	52649.582031
1442.461914	52906.269531
1441.393555	53440.332031
1440.325195	53135.117188
1439.256836	53550.722656
1438.187500	53986.632813
1437.118164	53904.203125
1436.048828	54321.710938
1434.979492	54509.601563
1433.909180	54661.082031
1432.839844	54773.894531
1431.769531	55125.085938
1430.699219	55203.718750
1429.627930	54900.980469
1428.557617	55104.441406
1427.486328	54817.710938
1426.416016	55241.164063
1425.343750	55242.570313
1424.272461	55216.761719
1423.201172	55349.679688
1422.128906	55217.308594
1421.056641	55984.820313
1419.984375	55179.320313
1418.912109	55568.171875
1417.839844	55286.332031
1416.766602	55104.250000
1415.693359	55110.187500
1414.620117	54858.007813
1413.546875	54535.742188
1412.473633	54648.148438
1411.399414	54092.953125
1410.325195	54307.207031
1409.250977	54593.769531
1408.176758	54552.281250
1407.102539	54721.105469
1406.027344	55344.304688
1404.952148	55336.605469
1403.876953	55945.902344
1402.801758	55621.738281
1401.726563	55846.687500
1400.650391	55920.210938
1399.574219	56248.910156
1398.498047	55891.042969
1397.421875	56016.437500
1396.345703	55916.062500
1395.268555	55630.660156
1394.191406	56076.437500
1393.114258	55330.875000
1392.037109	55244.218750
1390.959961	55288.394531
1389.881836	55542.246094
1388.804688	55248.187500
1387.726563	55722.835938
1386.647461	56314.500000
1385.569336	56099.316406
1384.491211	56584.816406
1383.412109	56398.933594
1382.333008	56668.011719
1381.253906	56878.449219
1380.173828	57093.312500
1379.094727	57256.328125
1378.014648	57122.242188
1376.934570	56565.214844
1375.854492	56770.968750
1374.773438	56263.683594
1373.693359	55909.484375
1372.612305	55496.960938
1371.531250	55383.550781
1370.450195	55099.371094
1369.369141	54889.445313
1368.287109	54122.414063
1367.205078	54463.070313
1366.123047	54064.714844
1365.041016	53884.308594
1363.958984	53840.910156
1362.875977	53534.906250
1361.793945	53282.867188
1360.710938	53230.621094
1359.626953	52971.996094
1358.543945	52738.136719
1357.460938	52856.449219
1356.376953	52624.929688
1355.292969	52566.113281
1354.208984	52189.035156
1353.124023	51912.937500
1352.040039	52622.800781
1350.955078	52075.652344
1349.870117	51936.343750
1348.785156	51837.394531
1347.700195	51843.707031
1346.614258	52044.773438
1345.528320	52113.710938
1344.442383	51486.675781
1343.356445	51484.089844
1342.270508	51803.628906
1341.183594	51407.347656
1340.096680	51758.082031
1339.009766	51956.660156
1337.922852	51350.437500
1336.835938	51734.511719
1335.748047	51966.496094
1334.661133	52473.195313
1333.573242	51911.980469
1332.484375	52074.566406
1331.396484	51917.785156
1330.307617	52270.070313
1329.219727	52115.539063
1328.130859	52425.253906
1327.041992	52554.121094
1325.952148	52337.148438
1324.863281	52361.144531
1323.773438	52423.042969
1322.683594	52455.929688
1321.593750	52343.898438
1320.502930	52120.460938
1319.413086	52336.117188
1318.322266	52039.230469
1317.231445	52303.824219
1316.140625	51893.457031
1315.048828	51685.878906
1313.958008	52115.148438
1312.866211	52726.796875
1311.774414	52111.875000
1310.682617	52133.601563
1309.589844	52139.746094
1308.498047	52677.531250
1307.405273	52494.523438
1306.312500	52898.628906
1305.218750	52195.398438
1304.125977	53272.929688
1303.032227	53338.855469
1301.939453	53773.609375
1300.845703	54337.062500
1299.750977	54789.250000
1298.657227	55827.570313
1297.562500	55844.109375
1296.467773	56178.105469
1295.373047	56531.957031
1294.278320	57371.691406
1293.183594	56835.437500
1292.087891	56856.207031
1290.992188	56397.867188
1289.896484	56059.445313
1288.800781	56075.902344
1287.704102	55256.601563
1286.608398	55197.835938
1285.511719	54983.960938
1284.415039	54229.554688
1283.317383	54385.871094
1282.220703	53470.156250
1281.123047	53360.820313
1280.025391	53229.382813
1278.927734	53036.007813
1277.830078	53004.265625
1276.731445	52791.082031
1275.633789	52518.238281
1274.535156	52763.101563
1273.436523	52583.246094
1272.336914	52295.101563
1271.238281	51934.105469
1270.138672	51374.296875
1269.039063	51769.414063
1267.939453	51362.300781
1266.839844	50977.421875
1265.739258	51339.261719
1264.638672	51276.949219
1263.538086	50965.152344
1262.437500	50774.886719
1261.336914	50948.878906
1260.235352	51012.460938
1259.134766	50444.988281
1258.033203	50243.917969
1256.930664	50750.914063
1255.829102	50333.746094
1254.726563	49987.277344
1253.625000	49890.031250
1252.522461	49856.738281
1251.418945	49757.343750
1250.316406	50294.707031
1249.212891	49452.921875
1248.110352	49494.601563
1247.006836	49600.121094
1245.902344	49954.382813
1244.798828	49637.148438
1243.694336	49071.335938
1242.589844	49370.484375
1241.485352	49786.121094
1240.380859	49216.183594
1239.276367	49530.527344
1238.170898	49240.089844
1237.065430	49589.488281
1235.959961	49132.089844
1234.854492	49813.214844
1233.748047	49235.089844
1232.642578	49325.003906
1231.536133	49366.562500
1230.429688	49144.582031
1229.322266	49482.558594
1228.215820	49633.820313
1227.108398	50024.261719
1226.000977	49545.566406
1224.893555	50003.890625
1223.786133	49869.765625
1222.677734	49481.277344
1221.569336	50149.867188
1220.460938	50046.476563
1219.352539	49535.406250
1218.244141	49940.621094
1217.134766	49101.066406
1216.025391	49300.269531
1214.916016	49186.164063
1213.806641	49672.171875
1212.697266	49089.453125
1211.586914	49069.582031
1210.476563	49360.531250
1209.366211	49200.550781
1208.255859	49336.015625
1207.145508	49075.460938
1206.034180	49519.296875
1204.922852	49451.246094
1203.811523	49667.453125
1202.700195	49927.304688
1201.587891	49996.902344
1200.476563	49821.726563
1199.364258	49893.503906
1198.251953	50397.773438
1197.138672	50019.496094
1196.026367	50484.246094
1194.913086	50527.457031
1193.799805	50465.875000
1192.686523	50731.679688
1191.573242	50458.414063
1190.458984	50512.496094
1189.344727	50365.882813
1188.230469	50219.316406
1187.116211	50301.753906
1186.001953	50085.484375
1184.886719	50252.921875
1183.772461	49385.125000
1182.657227	49201.820313
1181.541016	48981.542969
1180.425781	49432.203125
1179.309570	49806.476563
1178.193359	49189.933594
1177.077148	49235.398438
1175.960938	48708.414063
1174.844727	48703.894531
1173.727539	48592.761719
1172.610352	48677.445313
1171.493164	48759.921875
1170.375977	48764.085938
