#Wave		#Intensity
2001.221680	38249.410156
2000.251953	38191.761719
1999.282227	38370.542969
1998.312500	38198.472656
1997.342773	38555.058594
1996.372070	38608.441406
1995.402344	38433.910156
1994.431641	39095.738281
1993.460938	39068.882813
1992.490234	38776.718750
1991.518555	38767.445313
1990.547852	38853.253906
1989.576172	39294.273438
1988.604492	38894.710938
1987.632813	39022.960938
1986.661133	39042.539063
1985.689453	39062.113281
1984.716797	39081.710938
1983.745117	39101.285156
1982.772461	39120.882813
1981.799805	39140.476563
1980.827148	39160.074219
1979.853516	39179.687500
1978.880859	39199.285156
1977.907227	39218.902344
1976.933594	39238.515625
1975.959961	39258.132813
1974.986328	39277.746094
1974.011719	39297.382813
1973.038086	39317.000000
1972.063477	39336.632813
1971.088867	39356.269531
1970.114258	39375.906250
1969.138672	39395.558594
1968.164063	39415.195313
1967.188477	39434.851563
1966.212891	39454.503906
1965.237305	39474.160156
1964.261719	39830.851563
1963.286133	39572.402344
1962.309570	39535.605469
1961.333984	39645.679688
1960.357422	39462.050781
1959.380859	39557.164063
1958.404297	39448.246094
1957.426758	39879.113281
1956.450195	39357.355469
1955.472656	39544.410156
1954.495117	39539.976563
1953.517578	39423.695313
1952.540039	39205.558594
1951.561523	39643.460938
1950.583008	39842.718750
1949.605469	39691.683594
1948.626953	39354.445313
1947.647461	39774.628906
1946.668945	39152.000000
1945.690430	40001.468750
1944.710938	39185.445313
1943.731445	39764.156250
1942.751953	39365.226563
1941.772461	39353.375000
1940.791992	39091.054688
1939.812500	39778.464844
1938.832031	39317.832031
1937.851563	39429.921875
1936.871094	39410.628906
1935.890625	39019.671875
1934.909180	39860.082031
1933.928711	39746.597656
1932.947266	39113.093750
1931.965820	39177.906250
1930.984375	39242.718750
1930.002930	39307.535156
1929.020508	39372.410156
1928.038086	39437.289063
1927.056641	39502.101563
1926.074219	39566.980469
1925.090820	39631.921875
1924.108398	39696.800781
1923.125000	39890.085938
1922.142578	40177.226563
1921.159180	39920.585938
1920.175781	39925.945313
1919.191406	40435.257813
1918.208008	40102.136719
1917.223633	39667.878906
1916.240234	40226.347656
1915.255859	39858.871094
1914.271484	40096.238281
1913.286133	40506.261719
1912.301758	40356.054688
1911.316406	39986.339844
1910.331055	40544.156250
1909.345703	39920.531250
1908.360352	40081.191406
1907.375000	40478.453125
1906.388672	40567.480469
1905.402344	39944.285156
1904.416016	39757.414063
1903.429688	39666.679688
1902.443359	39979.917969
1901.457031	40105.882813
1900.469727	40108.695313
1899.482422	39761.941406
1898.495117	39853.414063
1897.507813	39942.394531
1896.520508	40110.078125
1895.532227	39935.757813
1894.543945	39700.011719
1893.556641	39717.632813
1892.568359	40298.296875
1891.579102	39720.902344
1890.590820	39777.832031
1889.601563	39773.308594
1888.613281	39611.535156
1887.624023	40002.542969
1886.634766	40140.433594
1885.644531	40231.613281
1884.655273	39492.878906
1883.665039	40200.300781
1882.674805	40033.707031
1881.684570	39982.503906
1880.694336	40088.343750
1879.704102	39912.039063
1878.712891	40231.238281
1877.722656	39937.257813
1876.731445	40185.230469
1875.740234	40305.644531
1874.748047	40055.917969
1873.756836	40043.980469
1872.764648	39706.183594
1871.773438	39890.281250
1870.781250	40057.167969
1869.788086	39944.828125
1868.795898	39729.699219
1867.803711	40307.773438
1866.810547	40104.890625
1865.817383	39779.722656
1864.824219	40225.359375
1863.831055	39966.328125
1862.837891	40201.437500
1861.843750	39859.355469
1860.849609	40035.718750
1859.855469	39938.234375
1858.861328	39769.902344
1857.867188	40046.371094
1856.872070	39799.898438
1855.877930	40139.773438
1854.882813	40042.347656
1853.887695	40462.640625
1852.892578	40318.800781
1851.896484	40148.160156
1850.901367	40363.195313
1849.905273	40197.484375
1848.909180	40258.726563
1847.913086	40458.988281
1846.916992	40217.734375
1845.919922	40274.058594
1844.923828	40430.324219
1843.926758	40333.019531
1842.929688	40769.492188
1841.932617	40525.949219
1840.935547	40431.109375
1839.937500	40448.355469
1838.939453	40197.687500
1837.942383	40436.554688
1836.943359	40529.253906
1835.945313	40505.082031
1834.947266	40797.304688
1833.948242	41004.257813
1832.949219	40875.394531
1831.951172	40676.031250
1830.951172	40975.308594
1829.952148	40980.250000
1828.953125	40581.613281
1827.953125	40863.726563
1826.953125	41320.726563
1825.953125	41476.253906
1824.953125	41034.070313
1823.952148	41473.792969
1822.952148	41476.203125
1821.951172	41330.488281
1820.950195	40852.218750
1819.949219	41194.558594
1818.948242	41201.863281
1817.946289	41619.242188
1816.945313	40993.261719
1815.943359	41199.496094
1814.941406	41109.777344
1813.939453	40886.726563
1812.936523	41146.203125
1811.934570	41303.777344
1810.931641	41042.031250
1809.928711	41383.718750
1808.925781	41669.566406
1807.921875	41705.820313
1806.918945	40950.132813
1805.915039	41746.808594
1804.912109	41574.824219
1803.908203	41381.113281
1802.903320	41460.941406
1801.899414	41560.093750
1800.894531	41680.984375
1799.890625	41917.933594
1798.885742	41598.570313
1797.880859	41716.968750
1796.875000	41956.199219
1795.870117	41972.968750
1794.864258	42170.984375
1793.858398	41571.562500
1792.852539	42214.085938
1791.846680	42223.546875
1790.840820	42397.218750
1789.833984	42220.718750
1788.828125	42085.324219
1787.821289	42454.433594
1786.814453	42451.765625
1785.806641	42434.625000
1784.799805	42224.492188
1783.791992	42848.980469
1782.784180	42038.367188
1781.776367	42624.085938
1780.768555	42766.027344
1779.760742	42724.734375
1778.751953	42977.457031
1777.743164	43319.238281
1776.735352	43265.816406
1775.725586	43067.898438
1774.716797	43375.765625
1773.708008	43023.796875
1772.698242	43362.851563
1771.688477	43181.898438
1770.678711	43236.839844
1769.668945	43472.214844
1768.659180	43832.593750
1767.648438	43276.468750
1766.637695	44379.824219
1765.626953	43696.363281
1764.616211	44044.421875
1763.605469	44118.359375
1762.593750	44091.339844
1761.583008	44266.148438
1760.571289	44174.250000
1759.559570	44070.375000
1758.547852	44566.871094
1757.535156	44350.113281
1756.523438	44668.746094
1755.510742	44300.835938
1754.498047	44700.949219
1753.485352	44558.687500
1752.472656	44817.082031
1751.458984	44761.191406
1750.445313	45053.023438
1749.432617	45284.812500
1748.417969	45734.652344
1747.404297	45309.542969
1746.390625	45737.652344
1745.375977	45339.039063
1744.361328	45599.308594
1743.346680	46189.992188
1742.332031	46394.941406
1741.317383	45979.730469
1740.302734	46586.785156
1739.287109	46762.828125
1738.271484	47082.378906
1737.255859	47050.125000
1736.240234	47713.964844
1735.223633	48081.003906
1734.208008	48062.933594
1733.191406	48219.390625
1732.174805	48798.882813
1731.158203	49041.187500
1730.140625	49183.046875
1729.124023	49403.695313
1728.106445	49939.562500
1727.088867	50119.390625
1726.071289	50614.347656
1725.053711	51252.367188
1724.035156	50558.238281
1723.017578	51320.136719
1721.999023	51859.859375
1720.980469	51979.503906
1719.961914	52168.277344
1718.942383	52438.066406
1717.923828	52316.710938
1716.904297	52305.062500
1715.884766	52214.757813
1714.865234	52493.871094
1713.844727	52603.707031
1712.825195	52256.101563
1711.804688	52651.765625
1710.784180	52892.492188
1709.763672	52678.351563
1708.743164	52719.011719
1707.722656	52433.566406
1706.701172	52755.066406
1705.679688	52519.679688
1704.658203	52688.792969
1703.636719	52294.132813
1702.615234	52413.281250
1701.592773	52135.316406
1700.571289	52171.242188
1699.548828	52283.210938
1698.526367	52186.015625
1697.502930	52400.109375
1696.480469	52198.398438
1695.457031	52049.007813
1694.433594	52158.515625
1693.410156	52248.988281
1692.386719	52109.160156
1691.363281	51974.125000
1690.338867	52313.746094
1689.314453	52513.257813
1688.290039	51882.425781
1687.265625	52212.390625
1686.241211	52056.101563
1685.215820	52421.476563
1684.191406	52431.140625
1683.166016	52258.304688
1682.140625	52616.332031
1681.115234	52820.230469
1680.088867	52517.121094
1679.062500	52938.851563
1678.037109	52856.050781
1677.010742	52721.187500
1675.983398	53216.035156
1674.957031	53081.156250
1673.930664	53074.097656
1672.903320	54129.332031
1671.875977	53632.433594
1670.848633	53646.562500
1669.820313	53637.039063
1668.792969	54102.722656
1667.764648	54305.859375
1666.736328	54334.031250
1665.708008	54118.804688
1664.679688	54473.027344
1663.651367	54437.367188
1662.622070	55275.550781
1661.592773	54843.062500
1660.563477	55232.308594
1659.534180	55335.796875
1658.504883	55625.691406
1657.474609	55788.058594
1656.444336	55686.140625
1655.415039	56126.769531
1654.383789	56371.500000
1653.353516	56524.179688
1652.323242	56903.125000
1651.291992	56940.156250
1650.260742	57474.425781
1649.229492	57018.878906
1648.198242	57204.281250
1647.166016	57344.859375
1646.134766	57440.640625
1645.102539	57844.835938
1644.070313	57745.093750
1643.038086	57840.746094
1642.004883	58279.945313
1640.972656	58140.175781
1639.939453	58725.015625
1638.906250	59348.558594
1637.873047	59972.101563
1636.839844	60595.644531
1635.805664	61219.777344
1634.772461	60729.406250
1633.738281	60547.058594
1632.704102	61473.761719
1631.668945	61075.218750
1630.634766	61783.058594
1629.599609	62185.371094
1628.565430	62636.839844
1627.530273	63153.875000
1626.494141	63975.839844
1625.458984	65018.093750
1624.422852	65339.683594
1623.387695	66709.726563
1622.351563	68093.359375
1621.315430	68641.687500
1620.278320	70047.914063
1619.242188	72210.796875
1618.205078	73840.882813
1617.167969	76142.906250
1616.130859	78664.343750
1615.093750	81175.507813
1614.055664	83458.593750
1613.018555	84998.570313
1611.980469	85983.132813
1610.942383	87208.437500
1609.904297	87202.265625
1608.865234	86360.734375
1607.827148	85814.273438
1606.788086	83820.093750
1605.749023	82196.132813
1604.709961	80787.875000
1603.669922	78328.062500
1602.630859	76495.570313
1601.590820	75474.679688
1600.550781	74281.234375
1599.510742	73359.218750
1598.470703	72484.234375
1597.429688	72396.585938
1596.389648	71991.414063
1595.348633	71831.507813
1594.307617	70677.320313
1593.265625	70440.687500
1592.224609	70229.796875
1591.182617	70280.265625
1590.140625	69451.375000
1589.098633	69380.695313
1588.056641	69370.656250
1587.014648	68768.492188
1585.971680	69280.656250
1584.928711	68862.820313
1583.886719	68228.437500
1582.842773	68297.804688
1581.799805	68318.226563
1580.755859	68143.031250
1579.712891	68990.023438
1578.668945	68630.859375
1577.625000	68695.429688
1576.580078	69078.773438
1575.536133	69613.210938
1574.491211	69733.382813
1573.446289	70272.156250
1572.401367	70494.484375
1571.356445	71107.328125
1570.311523	71122.531250
1569.265625	71867.515625
1568.219727	71540.984375
1567.173828	71456.195313
1566.127930	70714.046875
1565.082031	70480.781250
1564.035156	70326.554688
1562.988281	69559.460938
1561.941406	69108.320313
1560.894531	69307.179688
1559.847656	69139.335938
1558.799805	68727.953125
1557.751953	69263.101563
1556.704102	69570.781250
1555.656250	69706.757813
1554.608398	69875.140625
1553.560547	69382.843750
1552.511719	69759.796875
1551.462891	69114.765625
1550.414063	69658.421875
1549.365234	69462.992188
1548.315430	69117.101563
1547.265625	69255.257813
1546.216797	69222.046875
1545.166992	68492.140625
1544.116211	68477.585938
1543.066406	68664.335938
1542.015625	68288.867188
1540.965820	68609.726563
1539.915039	68167.328125
1538.863281	67845.312500
1537.812500	67523.414063
1536.760742	66875.734375
1535.709961	66738.984375
1534.658203	66484.453125
1533.605469	66793.671875
1532.553711	66111.921875
1531.501953	65481.218750
1530.449219	64825.343750
1529.396484	64926.863281
1528.343750	64467.496094
1527.290039	64119.054688
1526.237305	64077.593750
1525.183594	63574.789063
1524.129883	63293.570313
1523.076172	63321.449219
1522.022461	63312.425781
1520.968750	62561.152344
1519.914063	62298.746094
1518.859375	62460.421875
1517.804688	61935.476563
1516.750000	61866.808594
1515.694336	62307.136719
1514.639648	61416.371094
1513.583984	61654.023438
1512.528320	61235.562500
1511.472656	61885.109375
1510.416016	61466.750000
1509.360352	61980.285156
1508.303711	61614.960938
1507.247070	61502.738281
1506.190430	61374.457031
1505.132813	61384.160156
1504.076172	61543.257813
1503.018555	61594.285156
1501.960938	61091.546875
1500.903320	61420.605469
1499.844727	61122.492188
1498.787109	60925.531250
1497.728516	61075.339844
1496.669922	61385.792969
1495.611328	60697.699219
1494.552734	60661.582031
1493.493164	60903.097656
1492.434570	60068.636719
1491.375000	60273.468750
1490.315430	60060.871094
1489.254883	59995.078125
1488.195313	60495.523438
1487.134766	60321.953125
1486.074219	60203.437500
1485.013672	59954.371094
1483.953125	59283.894531
1482.892578	59355.718750
1481.831055	59654.214844
1480.769531	59673.281250
1479.708008	59525.238281
1478.646484	59633.574219
1477.583984	59675.511719
1476.522461	59596.175781
1475.459961	59237.796875
1474.397461	59627.402344
1473.334961	59541.250000
1472.271484	60188.996094
1471.208984	59396.457031
1470.145508	59765.175781
1469.082031	59011.835938
1468.018555	59430.750000
1466.954102	59228.218750
1465.890625	59831.917969
1464.826172	59933.066406
1463.761719	59374.410156
1462.697266	60098.722656
1461.631836	59576.746094
1460.567383	59493.039063
1459.501953	59956.871094
1458.436523	59658.714844
1457.371094	59700.457031
1456.305664	59872.144531
1455.239258	60342.402344
1454.172852	59613.609375
1453.107422	60058.671875
1452.040039	59706.125000
1450.973633	59399.261719
1449.907227	59780.343750
1448.839844	59951.781250
1447.772461	60075.347656
1446.705078	59766.351563
1445.637695	60103.839844
1444.569336	59740.332031
1443.500977	59800.128906
1442.432617	60121.500000
1441.364258	60283.546875
1440.295898	60584.246094
1439.227539	60357.375000
1438.158203	60842.066406
1437.088867	61185.675781
1436.019531	60838.378906
1434.950195	60741.117188
1433.879883	61166.320313
1432.810547	61664.046875
1431.740234	61534.890625
1430.669922	61721.339844
1429.598633	62195.992188
1428.528320	62168.921875
1427.457031	62116.902344
1426.386719	62709.187500
1425.314453	63289.917969
1424.243164	63643.652344
1423.171875	63260.355469
1422.099609	64099.097656
1421.027344	63967.441406
1419.955078	64266.402344
1418.882813	64470.089844
1417.810547	64191.179688
1416.737305	64202.285156
1415.664063	63889.550781
1414.590820	64244.843750
1413.517578	63710.367188
1412.444336	63314.136719
1411.370117	62250.488281
1410.295898	62540.203125
1409.221680	61940.800781
1408.147461	61841.449219
1407.073242	61620.019531
1405.998047	61369.273438
1404.922852	61387.613281
1403.847656	61042.074219
1402.772461	61198.300781
1401.697266	61044.949219
1400.621094	60814.851563
1399.544922	61343.667969
1398.468750	61341.656250
1397.392578	61712.148438
1396.316406	62387.226563
1395.239258	62468.523438
1394.162109	63298.910156
1393.084961	64009.429688
1392.007813	64760.289063
1390.930664	66036.335938
1389.852539	66419.023438
1388.774414	67347.132813
1387.696289	67028.460938
1386.618164	67530.195313
1385.540039	68065.546875
1384.460938	67710.859375
1383.382813	66745.921875
1382.303711	66585.265625
1381.223633	66555.250000
1380.144531	66232.601563
1379.064453	66150.890625
1377.985352	66163.718750
1376.905273	66462.281250
1375.825195	65656.226563
1374.744141	65606.156250
1373.664063	65502.128906
1372.583008	65162.070313
1371.501953	65617.875000
1370.420898	65037.433594
1369.338867	64834.703125
1368.257813	65366.707031
1367.175781	64775.382813
1366.093750	64635.683594
1365.011719	65531.187500
1363.929688	66217.578125
1362.846680	66331.328125
1361.763672	66938.773438
1360.680664	67925.195313
1359.597656	68179.914063
1358.514648	67974.710938
1357.430664	67980.382813
1356.346680	67860.492188
1355.262695	67003.085938
1354.178711	66042.875000
1353.094727	65791.171875
1352.009766	64488.714844
1350.925781	64040.238281
1349.840820	63114.847656
1348.755859	63159.437500
1347.669922	62879.355469
1346.584961	62214.339844
1345.499023	62066.578125
1344.413086	61529.500000
1343.327148	61240.957031
1342.240234	61075.546875
1341.154297	61554.320313
1340.067383	60903.664063
1338.980469	61780.253906
1337.893555	61398.027344
1336.805664	61060.636719
1335.718750	61346.796875
1334.630859	61076.558594
1333.542969	61862.960938
1332.455078	61755.750000
1331.367188	61947.789063
1330.278320	62008.035156
1329.189453	61871.828125
1328.100586	62050.343750
1327.011719	62442.996094
1325.922852	63125.515625
1324.833008	63653.886719
1323.743164	64041.566406
1322.653320	64672.140625
1321.563477	65969.039063
1320.473633	67064.867188
1319.382813	68307.375000
1318.291992	69988.367188
1317.201172	71648.695313
1316.110352	72756.054688
1315.019531	74439.765625
1313.927734	75459.382813
1312.835938	76227.085938
1311.744141	76475.929688
1310.652344	75976.984375
1309.560547	74950.929688
1308.467773	73507.046875
1307.375000	72601.906250
1306.282227	71701.539063
1305.189453	70392.406250
1304.095703	68803.671875
1303.002930	68180.054688
1301.909180	67303.343750
1300.815430	66764.632813
1299.721680	65515.320313
1298.626953	65496.800781
1297.533203	66373.117188
1296.438477	65928.195313
1295.343750	65454.578125
1294.248047	65760.078125
1293.153320	66049.929688
1292.057617	66483.875000
1290.961914	65901.804688
1289.866211	66453.148438
1288.770508	65687.257813
1287.674805	65857.140625
1286.578125	66421.476563
1285.481445	66196.710938
1284.384766	65708.367188
1283.288086	65658.804688
1282.190430	65595.968750
1281.092773	65570.796875
1279.996094	65136.042969
1278.897461	65110.957031
1277.799805	64926.531250
1276.702148	64100.453125
1275.603516	63916.269531
1274.504883	64232.062500
1273.406250	63594.539063
1272.307617	63649.347656
1271.208008	63206.703125
1270.108398	63084.726563
1269.008789	62640.128906
1267.909180	63181.171875
1266.809570	62732.296875
1265.708984	62535.382813
1264.609375	61740.066406
1263.508789	62227.875000
1262.407227	61552.105469
1261.306641	62083.914063
1260.206055	61187.726563
1259.104492	61311.218750
1258.002930	60812.574219
1256.901367	60517.023438
1255.798828	60600.867188
1254.697266	59904.183594
1253.594727	60038.804688
1252.492188	59745.800781
1251.389648	59796.660156
1250.286133	59426.687500
1249.183594	59233.070313
1248.080078	59473.394531
1246.976563	59308.460938
1245.872070	59969.183594
1244.768555	59047.003906
1243.664063	59918.800781
1242.560547	59813.308594
1241.455078	59855.250000
1240.350586	59831.183594
1239.246094	60128.207031
1238.140625	59554.398438
1237.035156	59857.953125
1235.929688	59743.777344
1234.824219	60040.589844
1233.717773	59761.628906
1232.612305	59805.695313
1231.505859	59337.980469
1230.399414	59553.390625
1229.291992	59063.929688
1228.185547	58866.605469
1227.078125	58783.480469
1225.970703	58757.441406
1224.863281	58358.425781
1223.755859	58227.171875
1222.647461	58234.136719
1221.539063	57956.027344
1220.430664	57844.644531
1219.322266	57494.367188
1218.213867	57733.761719
1217.104492	57692.589844
1215.995117	57213.265625
1214.885742	57308.003906
1213.776367	57685.222656
1212.666992	57576.199219
1211.556641	57394.968750
1210.446289	57487.410156
1209.335938	57855.550781
1208.225586	57654.671875
1207.115234	57928.578125
1206.003906	58364.238281
1204.892578	57968.738281
1203.781250	58010.667969
1202.669922	59174.019531
1201.557617	58369.867188
1200.446289	58346.132813
1199.333984	58910.132813
1198.221680	59246.742188
1197.108398	59246.882813
1195.996094	59102.898438
1194.882813	59854.097656
1193.769531	59771.171875
1192.656250	60011.273438
1191.542969	59849.789063
1190.428711	59736.355469
1189.314453	59666.585938
1188.200195	58853.160156
1187.085938	58648.382813
1185.971680	58727.085938
1184.856445	58478.808594
1183.741211	58359.195313
1182.625977	58723.335938
1181.510742	58257.335938
1180.395508	58497.207031
1179.279297	58382.023438
1178.163086	58554.281250
1177.046875	58140.886719
1175.930664	58465.480469
1174.813477	57856.394531
1173.697266	57963.343750
1172.580078	57515.542969
1171.462891	57324.542969
1170.344727	57448.917969
