#Wave		#Intensity
2001.182617	34717.488281
2000.212891	35050.851563
1999.243164	34864.296875
1998.273438	34948.414063
1997.303711	35215.378906
1996.333008	34703.269531
1995.363281	35065.343750
1994.392578	35239.500000
1993.421875	34980.500000
1992.451172	35274.753906
1991.479492	35040.859375
1990.508789	35284.953125
1989.537109	35231.257813
1988.566406	35362.675781
1987.594727	35416.515625
1986.622070	34697.722656
1985.650391	34539.164063
1984.677734	35450.449219
1983.706055	35346.792969
1982.733398	35545.503906
1981.760742	35414.386719
1980.788086	35510.605469
1979.814453	34790.167969
1978.841797	35505.687500
1977.868164	35095.058594
1976.894531	35068.957031
1975.920898	35267.464844
1974.947266	35248.824219
1973.972656	35105.457031
1972.999023	35682.976563
1972.024414	34888.691406
1971.049805	35296.496094
1970.075195	35419.957031
1969.099609	35216.855469
1968.125000	35307.890625
1967.149414	35376.468750
1966.173828	35278.105469
1965.198242	35346.660156
1964.222656	35337.988281
1963.247070	35418.957031
1962.270508	35502.382813
1961.294922	35234.824219
1960.318359	35684.078125
1959.341797	35376.765625
1958.364258	35407.894531
1957.387695	35812.105469
1956.410156	35350.742188
1955.433594	35294.832031
1954.456055	35666.527344
1953.478516	35359.531250
1952.500000	36061.605469
1951.522461	35682.593750
1950.543945	35559.589844
1949.565430	35754.554688
1948.586914	35830.250000
1947.608398	35848.808594
1946.629883	35656.343750
1945.650391	35650.101563
1944.671875	35998.738281
1943.692383	36133.867188
1942.712891	35772.789063
1941.733398	35607.785156
1940.752930	35785.062500
1939.773438	35754.003906
1938.792969	35936.148438
1937.812500	36341.304688
1936.832031	35769.917969
1935.851563	35780.996094
1934.870117	35938.234375
1933.888672	35974.046875
1932.908203	35962.792969
1931.926758	35973.824219
1930.945313	35719.968750
1929.962891	35943.898438
1928.981445	35855.933594
1927.999023	36161.410156
1927.016602	35848.320313
1926.034180	36005.285156
1925.051758	36110.257813
1924.069336	36056.953125
1923.085938	36280.539063
1922.102539	36167.898438
1921.119141	36458.109375
1920.135742	35950.148438
1919.152344	36200.761719
1918.168945	36246.285156
1917.184570	36575.785156
1916.200195	36290.367188
1915.215820	36182.792969
1914.231445	35719.832031
1913.247070	36017.105469
1912.261719	36183.503906
1911.276367	36448.519531
1910.291992	36257.140625
1909.306641	36346.960938
1908.320313	36234.562500
1907.334961	36191.230469
1906.348633	36485.582031
1905.363281	36331.324219
1904.376953	36581.195313
1903.390625	36200.335938
1902.403320	36620.085938
1901.416992	36525.007813
1900.429688	36843.605469
1899.443359	36330.027344
1898.456055	36446.714844
1897.467773	36341.886719
1896.480469	36490.515625
1895.493164	36284.851563
1894.504883	36435.898438
1893.516602	36343.433594
1892.528320	36740.281250
1891.540039	36689.582031
1890.550781	36348.878906
1889.562500	36792.203125
1888.573242	36599.011719
1887.583984	36604.871094
1886.594727	36831.773438
1885.605469	36913.710938
1884.615234	36789.378906
1883.625000	37050.492188
1882.635742	36825.546875
1881.645508	36919.691406
1880.654297	36873.953125
1879.664063	36808.601563
1878.673828	37005.707031
1877.682617	36977.136719
1876.691406	36575.902344
1875.700195	36719.011719
1874.708984	36724.816406
1873.716797	37058.984375
1872.725586	37057.375000
1871.733398	37050.863281
1870.741211	37360.300781
1869.749023	36714.605469
1868.755859	36649.390625
1867.763672	36797.171875
1866.770508	37101.535156
1865.777344	36953.085938
1864.784180	36858.511719
1863.791016	37050.175781
1862.797852	37351.828125
1861.803711	37137.410156
1860.809570	37084.425781
1859.815430	36848.125000
1858.821289	37020.062500
1857.827148	37223.707031
1856.832031	37373.527344
1855.837891	37286.343750
1854.842773	37265.132813
1853.847656	37385.558594
1852.852539	37154.367188
1851.856445	37560.367188
1850.861328	37429.292969
1849.865234	37530.074219
1848.869141	37081.878906
1847.873047	37302.210938
1846.876953	37371.253906
1845.879883	37615.843750
1844.883789	37445.875000
1843.886719	37500.226563
1842.889648	37496.066406
1841.892578	37465.101563
1840.895508	37758.175781
1839.897461	37247.300781
1838.899414	38219.804688
1837.901367	37947.656250
1836.903320	38111.402344
1835.905273	38080.351563
1834.907227	38380.300781
1833.908203	37521.878906
1832.909180	38038.347656
1831.910156	37664.347656
1830.911133	37830.390625
1829.912109	37777.531250
1828.912109	37795.187500
1827.913086	38055.917969
1826.913086	37752.714844
1825.913086	38081.394531
1824.913086	38142.710938
1823.912109	37866.371094
1822.912109	37750.410156
1821.911133	38345.953125
1820.910156	38091.566406
1819.909180	38189.230469
1818.908203	38277.152344
1817.906250	38362.613281
1816.904297	37984.667969
1815.903320	38266.625000
1814.900391	38339.914063
1813.898438	38342.855469
1812.896484	38602.777344
1811.893555	38033.625000
1810.891602	38172.332031
1809.888672	38231.027344
1808.885742	38573.148438
1807.881836	38258.726563
1806.878906	38675.792969
1805.875000	38620.550781
1804.871094	38381.332031
1803.867188	38694.070313
1802.863281	38408.937500
1801.859375	39031.273438
1800.854492	38528.453125
1799.849609	38545.843750
1798.844727	38747.027344
1797.839844	38962.644531
1796.834961	39047.636719
1795.830078	38697.523438
1794.824219	38951.695313
1793.818359	38886.835938
1792.812500	39152.960938
1791.806641	39032.531250
1790.799805	39477.242188
1789.793945	39035.660156
1788.787109	39043.257813
1787.780273	39116.019531
1786.773438	39401.121094
1785.766602	39133.582031
1784.758789	39305.191406
1783.751953	39614.222656
1782.744141	39508.359375
1781.736328	39752.140625
1780.728516	39713.785156
1779.719727	39716.414063
1778.711914	39849.175781
1777.703125	39943.335938
1776.694336	39678.519531
1775.685547	40040.027344
1774.676758	39987.199219
1773.666992	39777.890625
1772.657227	39862.343750
1771.648438	39580.921875
1770.638672	40120.191406
1769.627930	40202.128906
1768.618164	40490.917969
1767.607422	40320.214844
1766.597656	39913.902344
1765.586914	40411.757813
1764.576172	40409.425781
1763.564453	40378.253906
1762.553711	40436.000000
1761.541992	40512.949219
1760.530273	40731.593750
1759.518555	41103.875000
1758.506836	40669.171875
1757.495117	40515.531250
1756.482422	41132.496094
1755.469727	40726.816406
1754.457031	40585.238281
1753.444336	40904.355469
1752.431641	41280.933594
1751.417969	40964.246094
1750.405273	41196.796875
1749.391602	41201.500000
1748.377930	41321.261719
1747.364258	41824.449219
1746.349609	41340.199219
1745.335938	41658.722656
1744.321289	41294.437500
1743.306641	41857.140625
1742.291992	41449.843750
1741.276367	42117.660156
1740.261719	42093.453125
1739.246094	42162.593750
1738.230469	42657.636719
1737.214844	42427.593750
1736.199219	42750.183594
1735.182617	42446.062500
1734.166992	42859.398438
1733.150391	42873.332031
1732.133789	42961.355469
1731.117188	43192.746094
1730.099609	43777.691406
1729.083008	43755.609375
1728.065430	43680.984375
1727.047852	43744.898438
1726.030273	44209.937500
1725.012695	44507.691406
1723.994141	44728.960938
1722.976563	44954.917969
1721.958008	44839.585938
1720.939453	45287.308594
1719.920898	45288.832031
1718.901367	45452.519531
1717.882813	45530.308594
1716.863281	45698.660156
1715.843750	45905.089844
1714.824219	46087.609375
1713.803711	46231.937500
1712.784180	46006.960938
1711.763672	46382.292969
1710.743164	46002.570313
1709.722656	46280.140625
1708.702148	46867.093750
1707.681641	46880.210938
1706.660156	46648.207031
1705.638672	46851.703125
1704.617188	46160.648438
1703.595703	46704.281250
1702.574219	46755.457031
1701.551758	46844.652344
1700.529297	46453.613281
1699.507813	46861.320313
1698.484375	46812.617188
1697.461914	47008.652344
1696.439453	46446.812500
1695.416016	46963.480469
1694.392578	46881.539063
1693.369141	47006.187500
1692.345703	46929.007813
1691.322266	47298.062500
1690.297852	47054.746094
1689.273438	47210.109375
1688.249023	47336.953125
1687.224609	47349.902344
1686.200195	47483.781250
1685.174805	47164.769531
1684.150391	47573.609375
1683.125000	48036.816406
1682.099609	47857.679688
1681.073242	47673.863281
1680.047852	47764.894531
1679.021484	47917.468750
1677.995117	48086.562500
1676.968750	48411.855469
1675.942383	48095.535156
1674.916016	48200.601563
1673.888672	48840.414063
1672.862305	49136.941406
1671.834961	48406.753906
1670.806641	48996.515625
1669.779297	49297.582031
1668.751953	49146.976563
1667.723633	49412.449219
1666.695313	49162.613281
1665.666992	49730.441406
1664.638672	49915.335938
1663.609375	49573.414063
1662.581055	49453.613281
1661.551758	50101.257813
1660.522461	49487.984375
1659.493164	49875.746094
1658.462891	49411.406250
1657.433594	49964.207031
1656.403320	50172.375000
1655.373047	49998.347656
1654.342773	50046.066406
1653.312500	50489.890625
1652.281250	50249.886719
1651.250977	50304.597656
1650.219727	50298.011719
1649.188477	50161.835938
1648.156250	50313.117188
1647.125000	50271.199219
1646.092773	50274.039063
1645.060547	50088.507813
1644.028320	50289.125000
1642.996094	50640.300781
1641.963867	50518.339844
1640.930664	50488.183594
1639.898438	50561.542969
1638.865234	51178.195313
1637.832031	50948.039063
1636.797852	50894.308594
1635.764648	51762.101563
1634.730469	51327.476563
1633.696289	51480.496094
1632.662109	51748.582031
1631.627930	52134.031250
1630.592773	51918.070313
1629.558594	51641.128906
1628.523438	52733.089844
1627.488281	52094.593750
1626.453125	52857.496094
1625.416992	52707.292969
1624.381836	53432.273438
1623.345703	54049.085938
1622.309570	54323.257813
1621.273438	54257.308594
1620.237305	55305.035156
1619.200195	56132.035156
1618.163086	56616.562500
1617.125977	58375.656250
1616.088867	59351.605469
1615.051758	59861.062500
1614.014648	61536.660156
1612.976563	62277.359375
1611.938477	62685.343750
1610.900391	63900.746094
1609.862305	63636.605469
1608.823242	63112.824219
1607.785156	62710.886719
1606.746094	62161.722656
1605.707031	60719.371094
1604.667969	60166.074219
1603.628906	59175.796875
1602.588867	58015.234375
1601.548828	57273.410156
1600.508789	56905.703125
1599.468750	55608.324219
1598.428711	55441.917969
1597.387695	54586.640625
1596.347656	54731.015625
1595.306641	54646.558594
1594.265625	53985.601563
1593.224609	53686.601563
1592.182617	53642.031250
1591.140625	53291.871094
1590.099609	52654.945313
1589.057617	53223.902344
1588.014648	53102.492188
1586.972656	52701.382813
1585.929688	53041.605469
1584.887695	52596.367188
1583.844727	52568.347656
1582.800781	53157.664063
1581.757813	52833.753906
1580.714844	52915.148438
1579.670898	53275.910156
1578.626953	53955.457031
1577.583008	53780.582031
1576.538086	53736.082031
1575.494141	54240.679688
1574.449219	54030.949219
1573.404297	54149.226563
1572.359375	54169.792969
1571.314453	54515.847656
1570.269531	54113.269531
1569.223633	54329.054688
1568.177734	53840.671875
1567.131836	53800.859375
1566.085938	53463.726563
1565.040039	52734.214844
1563.993164	52418.289063
1562.946289	51965.496094
1561.899414	51675.347656
1560.852539	51454.929688
1559.805664	51313.476563
1558.757813	51274.156250
1557.709961	50661.910156
1556.662109	50866.226563
1555.614258	50704.105469
1554.566406	51068.300781
1553.517578	50581.687500
1552.469727	50433.601563
1551.420898	50447.761719
1550.372070	50953.054688
1549.322266	51184.843750
1548.273438	50710.210938
1547.223633	50298.265625
1546.173828	50458.277344
1545.124023	51085.777344
1544.074219	50555.953125
1543.024414	50558.488281
1541.973633	50387.515625
1540.922852	50468.714844
1539.872070	50882.890625
1538.821289	50374.375000
1537.770508	50471.710938
1536.718750	50929.570313
1535.666992	50259.550781
1534.615234	50252.875000
1533.563477	50375.566406
1532.511719	50565.187500
1531.458984	50260.562500
1530.407227	49877.546875
1529.354492	50346.468750
1528.300781	49928.949219
1527.248047	50492.300781
1526.195313	50384.058594
1525.141602	50188.199219
1524.087891	50292.234375
1523.034180	50179.468750
1521.980469	50191.242188
1520.925781	49944.835938
1519.871094	50385.316406
1518.817383	49846.312500
1517.762695	50100.035156
1516.707031	49745.550781
1515.652344	50515.078125
1514.596680	49566.562500
1513.541016	49769.496094
1512.485352	50020.691406
1511.429688	49719.460938
1510.374023	49818.707031
1509.317383	49588.933594
1508.260742	50086.089844
1507.204102	49451.589844
1506.147461	48952.976563
1505.090820	49631.589844
1504.033203	49498.582031
1502.975586	49597.730469
1501.917969	49269.468750
1500.860352	49561.589844
1499.802734	49433.273438
1498.744141	49199.367188
1497.686523	49732.421875
1496.627930	49406.714844
1495.569336	49620.500000
1494.509766	49758.476563
1493.451172	49871.167969
1492.391602	49394.257813
1491.332031	49110.175781
1490.272461	49055.511719
1489.212891	49225.554688
1488.152344	49432.214844
1487.092773	49363.765625
1486.032227	49357.207031
1484.971680	49371.273438
1483.910156	49131.058594
1482.849609	49271.121094
1481.788086	49415.710938
1480.726563	49509.878906
1479.665039	49205.710938
1478.603516	49036.683594
1477.541992	49313.921875
1476.479492	49522.421875
1475.416992	49435.765625
1474.354492	49255.375000
1473.291992	49440.902344
1472.229492	49544.058594
1471.166016	49402.593750
1470.102539	50029.066406
1469.039063	49855.574219
1467.975586	50429.191406
1466.912109	49789.718750
1465.847656	49883.554688
1464.783203	50141.750000
1463.718750	50130.468750
1462.654297	50365.703125
1461.589844	50514.128906
1460.524414	50386.414063
1459.458984	50751.500000
1458.393555	50432.191406
1457.328125	50774.328125
1456.262695	50498.449219
1455.196289	50628.441406
1454.130859	50658.097656
1453.064453	50553.292969
1451.998047	51166.218750
1450.930664	51022.628906
1449.864258	51398.378906
1448.796875	51464.296875
1447.729492	51441.394531
1446.662109	51573.289063
1445.594727	51454.781250
1444.526367	51764.113281
1443.458008	51961.851563
1442.390625	52484.804688
1441.321289	52459.453125
1440.252930	52686.515625
1439.184570	53109.015625
1438.115234	53181.304688
1437.045898	53451.285156
1435.976563	53968.851563
1434.907227	54009.132813
1433.836914	54022.140625
1432.767578	54634.699219
1431.697266	54436.414063
1430.626953	54428.898438
1429.555664	54650.636719
1428.485352	54999.378906
1427.414063	55273.117188
1426.342773	55167.898438
1425.271484	55958.652344
1424.200195	56334.113281
1423.128906	55736.730469
1422.056641	56545.085938
1420.984375	56256.128906
1419.912109	56735.500000
1418.839844	56260.816406
1417.767578	56776.257813
1416.694336	56655.062500
1415.621094	55994.949219
1414.547852	56030.156250
1413.474609	55657.882813
1412.400391	55346.847656
1411.327148	55558.656250
1410.252930	55521.507813
1409.178711	55020.644531
1408.104492	54906.703125
1407.029297	54980.488281
1405.955078	55388.851563
1404.879883	55568.761719
1403.804688	55915.843750
1402.729492	56409.679688
1401.653320	56324.968750
1400.578125	56434.546875
1399.501953	56218.871094
1398.425781	56854.539063
1397.349609	56478.566406
1396.272461	56504.511719
1395.196289	56331.847656
1394.119141	56136.679688
1393.041992	56386.003906
1391.964844	56743.507813
1390.886719	56913.699219
1389.809570	56750.125000
1388.731445	57152.449219
1387.653320	57331.484375
1386.575195	57954.398438
1385.497070	57491.074219
1384.417969	57820.878906
1383.338867	57625.769531
1382.259766	58081.531250
1381.180664	57704.066406
1380.101563	57677.910156
1379.021484	57359.167969
1377.941406	58028.417969
1376.861328	57729.972656
1375.781250	57136.945313
1374.701172	56903.988281
1373.620117	57168.066406
1372.539063	56478.781250
1371.458008	56398.914063
1370.376953	55808.898438
1369.295898	55868.492188
1368.213867	55901.105469
1367.132813	55502.421875
1366.050781	55705.765625
1364.967773	55722.664063
1363.885742	55517.292969
1362.802734	55172.828125
1361.720703	55445.648438
1360.637695	55444.621094
1359.554688	55434.617188
1358.470703	55467.230469
1357.387695	55410.128906
1356.303711	55294.746094
1355.219727	54699.660156
1354.135742	54142.890625
1353.050781	54567.867188
1351.966797	54376.531250
1350.881836	54528.007813
1349.796875	54191.160156
1348.711914	53912.652344
1347.626953	54299.214844
1346.541016	53311.164063
1345.455078	53957.316406
1344.369141	53090.515625
1343.283203	53664.875000
1342.197266	53514.253906
1341.110352	53696.933594
1340.023438	53213.175781
1338.936523	53402.542969
1337.849609	53462.191406
1336.762695	53262.566406
1335.674805	54028.320313
1334.586914	53453.328125
1333.499023	54384.062500
1332.411133	53999.042969
1331.323242	54781.964844
1330.234375	54468.445313
1329.145508	54771.093750
1328.056641	54613.906250
1326.967773	54807.082031
1325.878906	54899.796875
1324.789063	55581.320313
1323.699219	55094.039063
1322.609375	55851.085938
1321.519531	55785.257813
1320.429688	56111.730469
1319.338867	56228.605469
1318.248047	57241.121094
1317.157227	57204.035156
1316.066406	57732.687500
1314.975586	58143.121094
1313.883789	58277.324219
1312.791992	58295.722656
1311.700195	58866.074219
1310.608398	58448.207031
1309.516602	58335.289063
1308.423828	58113.414063
1307.331055	58300.839844
1306.238281	57712.148438
1305.145508	57528.292969
1304.051758	57544.554688
1302.958984	57714.160156
1301.865234	58250.332031
1300.771484	58550.816406
1299.677734	58671.273438
1298.583008	59622.265625
1297.489258	59740.257813
1296.394531	60952.667969
1295.299805	61221.304688
1294.204102	61494.281250
1293.109375	61607.398438
1292.013672	61015.023438
1290.917969	60555.937500
1289.822266	60580.453125
1288.726563	59687.035156
1287.630859	59228.433594
1286.534180	58960.605469
1285.437500	58442.460938
1284.340820	57979.894531
1283.244141	57708.000000
1282.146484	57278.949219
1281.048828	57171.136719
1279.951172	56600.640625
1278.853516	56701.062500
1277.755859	56571.277344
1276.658203	56547.750000
1275.559570	56196.792969
1274.460938	56195.457031
1273.362305	56101.230469
1272.262695	55244.179688
1271.164063	55046.250000
1270.064453	55193.210938
1268.964844	54714.687500
1267.865234	54609.757813
1266.765625	54325.917969
1265.665039	54528.109375
1264.564453	54458.597656
1263.463867	54371.441406
1262.363281	53946.554688
1261.262695	53901.457031
1260.161133	53657.765625
1259.059570	54080.480469
1257.958008	53636.093750
1256.856445	53562.402344
1255.754883	53398.324219
1254.652344	53428.320313
1253.549805	53802.191406
1252.447266	53613.906250
1251.344727	53101.761719
1250.242188	53189.066406
1249.138672	53025.218750
1248.035156	52788.750000
1246.931641	52840.824219
1245.828125	53813.136719
1244.724609	53321.312500
1243.620117	53366.652344
1242.515625	53092.917969
1241.411133	53356.078125
1240.306641	53363.988281
1239.201172	53440.066406
1238.096680	53157.714844
1236.991211	52976.585938
1235.885742	53371.394531
1234.779297	53559.484375
1233.673828	53787.050781
1232.567383	53551.015625
1231.460938	53552.269531
1230.354492	53806.058594
1229.248047	53723.832031
1228.140625	53801.878906
1227.033203	53471.664063
1225.926758	53791.105469
1224.818359	53748.421875
1223.710938	53988.726563
1222.602539	54062.253906
1221.495117	53734.476563
1220.386719	54009.718750
1219.278320	53620.687500
1218.168945	53599.984375
1217.060547	53204.589844
1215.951172	53346.082031
1214.841797	53321.050781
1213.731445	53035.414063
1212.622070	53211.886719
1211.511719	53108.078125
1210.402344	52879.539063
1209.291992	52832.718750
1208.180664	53551.718750
1207.070313	53581.355469
1205.958984	53468.812500
1204.847656	53789.296875
1203.736328	54072.492188
1202.625000	54067.027344
1201.512695	53917.312500
1200.401367	54294.289063
1199.289063	53814.667969
1198.176758	54375.015625
1197.063477	54531.109375
1195.951172	55143.523438
1194.837891	55281.949219
1193.724609	54837.500000
1192.611328	55394.957031
1191.498047	55088.113281
1190.383789	54877.371094
1189.269531	54943.726563
1188.155273	54512.816406
1187.041016	54444.019531
1185.926758	54131.078125
1184.811523	54363.164063
1183.696289	53751.785156
1182.581055	53515.394531
1181.465820	53453.363281
1180.350586	53816.082031
1179.234375	53364.207031
1178.118164	53530.847656
1177.001953	53151.023438
1175.885742	53337.226563
1174.768555	53020.679688
1173.652344	53058.882813
1172.535156	53033.988281
1171.417969	52685.039063
1170.299805	52760.246094
