#Wave		#Intensity
2001.221680	31647.251953
2000.251953	32068.345703
1999.282227	32055.228516
1998.312500	31911.824219
1997.342773	32204.371094
1996.372070	31873.128906
1995.402344	31905.128906
1994.431641	32087.351563
1993.460938	32016.658203
1992.490234	31743.244141
1991.518555	32115.589844
1990.547852	32087.462891
1989.576172	32214.449219
1988.604492	32288.863281
1987.632813	31745.544922
1986.661133	31975.037109
1985.689453	31664.457031
1984.716797	32136.333984
1983.745117	32293.160156
1982.772461	31747.810547
1981.799805	31784.732422
1980.827148	32168.832031
1979.853516	31626.283203
1978.880859	32092.671875
1977.907227	32728.654297
1976.933594	32121.392578
1975.959961	32569.976563
1974.986328	31967.941406
1974.011719	32261.720703
1973.038086	32221.162109
1972.063477	32230.492188
1971.088867	32244.804688
1970.114258	32062.167969
1969.138672	32071.517578
1968.164063	32108.275391
1967.188477	32777.902344
1966.212891	32266.453125
1965.237305	32320.589844
1964.261719	32160.535156
1963.286133	32593.138672
1962.309570	32654.654297
1961.333984	32402.525391
1960.357422	32446.630859
1959.380859	32475.791016
1958.404297	32345.722656
1957.426758	32417.169922
1956.450195	32404.039063
1955.472656	32326.263672
1954.495117	32246.027344
1953.517578	32889.121094
1952.540039	32339.119141
1951.561523	32547.144531
1950.583008	32146.451172
1949.605469	32493.529297
1948.626953	32162.517578
1947.647461	32519.402344
1946.668945	32205.876953
1945.690430	32361.574219
1944.710938	32435.324219
1943.731445	32270.847656
1942.751953	32627.392578
1941.772461	32425.732422
1940.791992	32474.613281
1939.812500	32714.398438
1938.832031	32926.828125
1937.851563	32432.771484
1936.871094	32154.492188
1935.890625	32555.212891
1934.909180	32787.335938
1933.928711	32543.810547
1932.947266	32535.634766
1931.965820	32336.806641
1930.984375	32457.396484
1930.002930	32431.910156
1929.020508	32356.935547
1928.038086	32039.507813
1927.056641	32184.798828
1926.074219	32592.220703
1925.090820	32326.845703
1924.108398	32407.720703
1923.125000	32139.998047
1922.142578	32497.703125
1921.159180	32479.650391
1920.175781	32236.759766
1919.191406	32453.443359
1918.208008	31934.005859
1917.223633	32528.500000
1916.240234	32278.359375
1915.255859	32376.384766
1914.271484	32471.904297
1913.286133	32276.191406
1912.301758	32129.894531
1911.316406	31978.710938
1910.331055	32214.820313
1909.345703	32403.990234
1908.360352	32430.359375
1907.375000	31971.076172
1906.388672	32219.339844
1905.402344	32302.404297
1904.416016	32163.687500
1903.429688	32478.296875
1902.443359	32250.925781
1901.457031	32348.697266
1900.469727	32042.638672
1899.482422	32320.115234
1898.495117	32499.042969
1897.507813	32018.392578
1896.520508	32458.113281
1895.532227	32555.736328
1894.543945	32345.878906
1893.556641	32111.501953
1892.568359	32246.011719
1891.579102	32749.216797
1890.590820	32192.910156
1889.601563	32614.849609
1888.613281	32370.796875
1887.624023	32586.203125
1886.634766	32381.537109
1885.644531	32314.458984
1884.655273	32411.906250
1883.665039	32636.968750
1882.674805	32238.533203
1881.684570	32213.240234
1880.694336	32609.962891
1879.704102	32535.548828
1878.712891	32748.123047
1877.722656	32489.791016
1876.731445	32209.480469
1875.740234	32414.640625
1874.748047	32514.337891
1873.756836	32604.195313
1872.764648	32559.265625
1871.773438	32546.197266
1870.781250	32560.072266
1869.788086	32378.037109
1868.795898	32749.396484
1867.803711	32545.357422
1866.810547	32564.113281
1865.817383	32729.685547
1864.824219	32670.107422
1863.831055	32463.775391
1862.837891	32771.128906
1861.843750	32797.156250
1860.849609	32747.382813
1859.855469	32660.958984
1858.861328	32992.496094
1857.867188	32691.015625
1856.872070	32895.382813
1855.877930	32960.441406
1854.882813	32808.101563
1853.887695	32917.105469
1852.892578	32969.910156
1851.896484	32917.730469
1850.901367	32933.906250
1849.905273	32715.816406
1848.909180	33054.070313
1847.913086	33165.343750
1846.916992	32891.230469
1845.919922	32768.394531
1844.923828	32823.582031
1843.926758	33161.511719
1842.929688	33265.351563
1841.932617	33176.648438
1840.935547	33226.843750
1839.937500	33415.871094
1838.939453	33278.472656
1837.942383	33075.375000
1836.943359	33432.312500
1835.945313	33385.046875
1834.947266	33206.375000
1833.948242	33314.894531
1832.949219	33535.292969
1831.951172	33101.269531
1830.951172	33248.660156
1829.952148	33461.652344
1828.953125	33261.265625
1827.953125	33445.007813
1826.953125	33492.585938
1825.953125	33593.605469
1824.953125	33456.496094
1823.952148	33671.648438
1822.952148	33779.863281
1821.951172	33514.093750
1820.950195	33559.171875
1819.949219	33339.656250
1818.948242	33423.578125
1817.946289	33291.511719
1816.945313	33431.210938
1815.943359	33546.601563
1814.941406	33705.605469
1813.939453	33474.160156
1812.936523	33502.199219
1811.934570	33544.773438
1810.931641	33815.140625
1809.928711	33486.914063
1808.925781	33241.167969
1807.921875	33840.863281
1806.918945	33682.324219
1805.915039	33550.476563
1804.912109	33936.753906
1803.908203	33831.531250
1802.903320	34026.433594
1801.899414	33717.972656
1800.894531	33895.890625
1799.890625	34097.929688
1798.885742	34159.632813
1797.880859	33938.410156
1796.875000	33538.367188
1795.870117	34204.406250
1794.864258	34270.871094
1793.858398	34052.195313
1792.852539	34336.085938
1791.846680	33837.289063
1790.840820	34159.753906
1789.833984	33909.859375
1788.828125	34468.781250
1787.821289	34245.464844
1786.814453	34005.335938
1785.806641	34189.949219
1784.799805	34121.191406
1783.791992	34252.652344
1782.784180	34642.105469
1781.776367	34510.609375
1780.768555	34347.820313
1779.760742	34283.910156
1778.751953	34704.402344
1777.743164	34428.421875
1776.735352	34696.968750
1775.725586	34527.058594
1774.716797	34554.675781
1773.708008	34945.851563
1772.698242	34410.070313
1771.688477	34647.089844
1770.678711	34773.324219
1769.668945	34834.554688
1768.659180	34996.792969
1767.648438	35207.078125
1766.637695	34998.859375
1765.626953	34795.519531
1764.616211	35070.628906
1763.605469	34845.718750
1762.593750	35240.871094
1761.583008	35412.441406
1760.571289	35180.375000
1759.559570	35414.335938
1758.547852	35292.812500
1757.535156	35536.273438
1756.523438	35467.578125
1755.510742	35302.902344
1754.498047	35183.878906
1753.485352	35669.503906
1752.472656	35850.304688
1751.458984	35575.347656
1750.445313	35880.792969
1749.432617	35584.347656
1748.417969	36088.640625
1747.404297	36398.625000
1746.390625	35972.839844
1745.375977	36448.046875
1744.361328	36221.218750
1743.346680	36456.707031
1742.332031	36179.671875
1741.317383	36740.687500
1740.302734	37177.031250
1739.287109	37361.917969
1738.271484	37486.917969
1737.255859	37353.484375
1736.240234	37351.660156
1735.223633	37730.101563
1734.208008	37749.726563
1733.191406	38173.386719
1732.174805	38329.175781
1731.158203	38704.777344
1730.140625	39304.859375
1729.124023	39047.050781
1728.106445	39331.554688
1727.088867	39458.335938
1726.071289	39499.105469
1725.053711	39697.429688
1724.035156	40000.707031
1723.017578	40043.742188
1721.999023	40726.238281
1720.980469	40857.398438
1719.961914	40971.812500
1718.942383	40990.789063
1717.923828	41043.140625
1716.904297	41510.289063
1715.884766	41405.210938
1714.865234	41190.542969
1713.844727	41271.406250
1712.825195	41123.539063
1711.804688	41380.644531
1710.784180	40880.347656
1709.763672	41051.683594
1708.743164	41208.675781
1707.722656	41034.757813
1706.701172	40810.925781
1705.679688	40951.214844
1704.658203	41098.589844
1703.636719	40984.273438
1702.615234	40736.820313
1701.592773	40881.773438
1700.571289	40829.355469
1699.548828	40620.089844
1698.526367	40864.789063
1697.502930	40615.191406
1696.480469	40588.988281
1695.457031	40688.671875
1694.433594	40736.078125
1693.410156	40906.925781
1692.386719	40875.933594
1691.363281	41402.714844
1690.338867	41288.585938
1689.314453	40922.996094
1688.290039	41138.726563
1687.265625	41283.222656
1686.241211	41520.148438
1685.215820	41548.347656
1684.191406	41439.042969
1683.166016	41047.738281
1682.140625	41523.867188
1681.115234	41748.687500
1680.088867	42326.382813
1679.062500	41793.082031
1678.037109	42150.339844
1677.010742	42289.648438
1675.983398	42381.562500
1674.957031	42437.941406
1673.930664	42326.292969
1672.903320	42321.144531
1671.875977	42488.675781
1670.848633	43006.175781
1669.820313	43000.906250
1668.792969	42986.179688
1667.764648	43411.121094
1666.736328	42732.214844
1665.708008	43454.781250
1664.679688	43659.691406
1663.651367	43493.675781
1662.622070	44029.140625
1661.592773	43761.582031
1660.563477	43772.695313
1659.534180	44100.101563
1658.504883	44415.593750
1657.474609	44400.621094
1656.444336	44446.996094
1655.415039	44901.417969
1654.383789	44553.835938
1653.353516	44911.398438
1652.323242	45224.039063
1651.291992	45560.136719
1650.260742	45365.863281
1649.229492	45574.578125
1648.198242	45519.359375
1647.166016	46015.328125
1646.134766	46282.683594
1645.102539	46731.242188
1644.070313	46753.539063
1643.038086	46740.519531
1642.004883	47169.925781
1640.972656	47258.007813
1639.939453	47308.417969
1638.906250	47918.597656
1637.873047	47865.394531
1636.839844	48320.074219
1635.805664	48908.585938
1634.772461	49055.015625
1633.738281	49502.183594
1632.704102	49930.394531
1631.668945	50071.859375
1630.634766	50574.972656
1629.599609	51416.058594
1628.565430	52026.753906
1627.530273	52846.152344
1626.494141	52930.632813
1625.458984	54193.085938
1624.422852	55445.703125
1623.387695	56137.230469
1622.351563	56943.429688
1621.315430	58729.535156
1620.278320	59778.816406
1619.242188	61688.015625
1618.205078	62989.511719
1617.167969	65007.585938
1616.130859	66971.054688
1615.093750	68790.937500
1614.055664	70268.226563
1613.018555	71147.867188
1611.980469	72165.328125
1610.942383	72536.367188
1609.904297	73398.750000
1608.865234	72257.820313
1607.827148	72495.281250
1606.788086	70257.867188
1605.749023	69412.773438
1604.709961	67237.492188
1603.669922	65864.867188
1602.630859	64324.441406
1601.590820	64331.675781
1600.550781	63067.785156
1599.510742	62897.683594
1598.470703	62344.574219
1597.429688	62195.675781
1596.389648	61853.027344
1595.348633	61242.027344
1594.307617	61135.414063
1593.265625	60447.742188
1592.224609	60329.632813
1591.182617	60318.878906
1590.140625	59827.640625
1589.098633	59639.738281
1588.056641	58388.679688
1587.014648	58823.531250
1585.971680	58745.449219
1584.928711	57732.906250
1583.886719	57967.257813
1582.842773	57849.761719
1581.799805	57392.250000
1580.755859	57014.074219
1579.712891	57131.964844
1578.668945	57463.972656
1577.625000	58003.003906
1576.580078	58020.582031
1575.536133	58463.925781
1574.491211	58095.257813
1573.446289	59361.765625
1572.401367	59537.203125
1571.356445	59666.078125
1570.311523	59927.406250
1569.265625	59663.378906
1568.219727	59966.433594
1567.173828	60401.808594
1566.127930	59787.074219
1565.082031	59181.839844
1564.035156	59013.375000
1562.988281	58903.007813
1561.941406	58748.574219
1560.894531	58557.058594
1559.847656	58256.550781
1558.799805	58538.472656
1557.751953	57857.656250
1556.704102	58005.027344
1555.656250	57765.109375
1554.608398	57866.074219
1553.560547	58296.148438
1552.511719	57694.765625
1551.462891	58122.394531
1550.414063	57857.175781
1549.365234	58113.210938
1548.315430	57792.500000
1547.265625	57874.792969
1546.216797	58114.476563
1545.166992	57712.921875
1544.116211	57390.187500
1543.066406	57261.929688
1542.015625	57522.363281
1540.965820	56950.027344
1539.915039	57168.792969
1538.863281	57170.136719
1537.812500	56808.531250
1536.760742	56615.781250
1535.709961	56231.292969
1534.658203	56135.753906
1533.605469	56208.878906
1532.553711	55868.546875
1531.501953	55662.269531
1530.449219	55252.886719
1529.396484	54513.542969
1528.343750	54729.976563
1527.290039	54685.574219
1526.237305	53907.500000
1525.183594	54084.707031
1524.129883	53989.695313
1523.076172	54199.101563
1522.022461	53313.300781
1520.968750	53697.941406
1519.914063	53743.644531
1518.859375	53441.382813
1517.804688	52929.570313
1516.750000	52698.964844
1515.694336	52793.171875
1514.639648	52459.050781
1513.583984	52300.015625
1512.528320	52670.457031
1511.472656	52428.585938
1510.416016	52044.136719
1509.360352	52069.328125
1508.303711	51931.195313
1507.247070	52246.164063
1506.190430	52489.738281
1505.132813	52645.863281
1504.076172	52544.496094
1503.018555	52121.425781
1501.960938	52477.425781
1500.903320	52284.242188
1499.844727	52414.988281
1498.787109	52508.941406
1497.728516	52685.519531
1496.669922	52724.289063
1495.611328	52425.640625
1494.552734	52487.390625
1493.493164	52243.953125
1492.434570	52411.234375
1491.375000	52408.722656
1490.315430	52071.406250
1489.254883	51968.070313
1488.195313	51438.386719
1487.134766	51564.394531
1486.074219	51644.523438
1485.013672	51181.621094
1483.953125	51488.566406
1482.892578	51623.625000
1481.831055	51504.457031
1480.769531	50758.003906
1479.708008	50902.273438
1478.646484	50902.300781
1477.583984	51131.152344
1476.522461	51144.859375
1475.459961	50570.691406
1474.397461	50673.687500
1473.334961	50177.546875
1472.271484	50070.242188
1471.208984	49508.097656
1470.145508	49919.726563
1469.082031	49659.421875
1468.018555	49894.964844
1466.954102	50020.777344
1465.890625	49212.488281
1464.826172	49904.644531
1463.761719	49724.468750
1462.697266	49585.441406
1461.631836	50261.175781
1460.567383	49366.855469
1459.501953	49595.250000
1458.436523	49524.761719
1457.371094	49652.703125
1456.305664	49602.746094
1455.239258	49479.859375
1454.172852	49787.789063
1453.107422	49635.285156
1452.040039	49567.132813
1450.973633	49612.906250
1449.907227	49608.550781
1448.839844	49638.355469
1447.772461	49811.582031
1446.705078	49911.902344
1445.637695	49707.203125
1444.569336	49859.839844
1443.500977	49969.191406
1442.432617	50553.921875
1441.364258	50262.824219
1440.295898	50347.023438
1439.227539	50306.148438
1438.158203	50315.292969
1437.088867	50828.972656
1436.019531	50674.414063
1434.950195	51101.507813
1433.879883	51358.085938
1432.810547	51121.750000
1431.740234	51162.515625
1430.669922	51941.093750
1429.598633	51632.136719
1428.528320	52305.957031
1427.457031	52680.015625
1426.386719	53487.250000
1425.314453	54153.558594
1424.243164	54143.820313
1423.171875	54474.195313
1422.099609	54668.425781
1421.027344	55164.042969
1419.955078	55253.832031
1418.882813	55386.636719
1417.810547	55397.062500
1416.737305	55559.234375
1415.664063	55653.406250
1414.590820	54912.078125
1413.517578	54961.054688
1412.444336	54530.187500
1411.370117	54101.738281
1410.295898	53291.074219
1409.221680	52720.484375
1408.147461	51722.636719
1407.073242	51903.277344
1405.998047	50849.410156
1404.922852	50772.441406
1403.847656	51048.070313
1402.772461	50566.613281
1401.697266	50889.617188
1400.621094	50245.722656
1399.544922	51090.363281
1398.468750	50853.101563
1397.392578	51401.578125
1396.316406	52080.773438
1395.239258	52450.539063
1394.162109	53244.371094
1393.084961	54098.832031
1392.007813	54549.226563
1390.930664	56176.664063
1389.852539	56337.910156
1388.774414	57096.500000
1387.696289	57446.847656
1386.618164	57632.558594
1385.540039	57829.464844
1384.460938	56938.218750
1383.382813	56191.441406
1382.303711	55681.386719
1381.223633	55162.503906
1380.144531	55103.039063
1379.064453	54712.734375
1377.985352	54601.609375
1376.905273	54292.527344
1375.825195	53947.566406
1374.744141	54236.968750
1373.664063	53298.480469
1372.583008	53540.679688
1371.501953	53838.984375
1370.420898	53573.062500
1369.338867	53619.578125
1368.257813	53374.007813
1367.175781	53968.628906
1366.093750	54118.347656
1365.011719	54892.250000
1363.929688	55174.203125
1362.846680	55676.027344
1361.763672	56779.125000
1360.680664	57704.554688
1359.597656	57985.789063
1358.514648	58192.898438
1357.430664	58592.796875
1356.346680	58629.312500
1355.262695	57894.628906
1354.178711	57214.000000
1353.094727	56529.132813
1352.009766	55488.257813
1350.925781	54691.937500
1349.840820	53181.406250
1348.755859	52885.167969
1347.669922	52132.281250
1346.584961	51856.476563
1345.499023	51681.488281
1344.413086	51018.730469
1343.327148	50801.445313
1342.240234	50892.933594
1341.154297	50521.421875
1340.067383	50474.281250
1338.980469	50096.265625
1337.893555	50185.574219
1336.805664	49999.949219
1335.718750	50171.910156
1334.630859	50437.644531
1333.542969	50406.195313
1332.455078	50414.953125
1331.367188	50446.039063
1330.278320	50914.679688
1329.189453	51356.363281
1328.100586	51373.863281
1327.011719	51634.566406
1325.922852	52100.414063
1324.833008	52713.304688
1323.743164	54135.496094
1322.653320	54736.644531
1321.563477	56133.429688
1320.473633	57877.410156
1319.382813	59694.300781
1318.291992	62210.144531
1317.201172	64255.039063
1316.110352	65991.828125
1315.019531	68200.085938
1313.927734	68710.968750
1312.835938	70430.414063
1311.744141	69640.921875
1310.652344	68845.031250
1309.560547	68523.328125
1308.467773	67576.656250
1307.375000	65571.679688
1306.282227	63044.871094
1305.189453	61543.890625
1304.095703	59810.050781
1303.002930	58614.667969
1301.909180	57479.707031
1300.815430	56420.691406
1299.721680	55906.257813
1298.626953	55096.640625
1297.533203	55042.257813
1296.438477	55356.417969
1295.343750	54667.191406
1294.248047	55054.535156
1293.153320	54720.621094
1292.057617	54828.289063
1290.961914	54820.578125
1289.866211	55256.390625
1288.770508	55352.812500
1287.674805	55453.625000
1286.578125	55388.171875
1285.481445	55830.207031
1284.384766	55317.148438
1283.288086	55522.003906
1282.190430	55456.578125
1281.092773	55218.445313
1279.996094	55491.832031
1278.897461	54552.066406
1277.799805	54219.050781
1276.702148	54226.929688
1275.603516	54294.535156
1274.504883	54240.457031
1273.406250	53403.488281
1272.307617	52995.792969
1271.208008	53253.691406
1270.108398	52921.320313
1269.008789	52783.546875
1267.909180	52844.687500
1266.809570	52287.222656
1265.708984	51891.203125
1264.609375	51760.332031
1263.508789	51969.539063
1262.407227	51242.648438
1261.306641	51553.394531
1260.206055	51334.402344
1259.104492	51214.769531
1258.002930	50638.539063
1256.901367	50805.800781
1255.798828	51063.414063
1254.697266	51005.644531
1253.594727	51022.843750
1252.492188	50625.683594
1251.389648	50806.003906
1250.286133	50761.535156
1249.183594	50847.042969
1248.080078	50401.742188
1246.976563	50546.734375
1245.872070	51109.972656
1244.768555	50222.417969
1243.664063	50902.152344
1242.560547	51024.933594
1241.455078	50899.070313
1240.350586	51235.167969
1239.246094	51916.410156
1238.140625	52280.781250
1237.035156	52273.484375
1235.929688	52189.257813
1234.824219	52006.171875
1233.717773	52363.656250
1232.612305	52444.214844
1231.505859	52043.730469
1230.399414	52073.804688
1229.291992	51934.804688
1228.185547	51253.636719
1227.078125	50809.753906
1225.970703	51230.625000
1224.863281	50688.171875
1223.755859	50426.695313
1222.647461	50393.406250
1221.539063	50204.437500
1220.430664	49894.953125
1219.322266	49975.757813
1218.213867	49747.511719
1217.104492	49429.503906
1215.995117	50099.675781
1214.885742	50079.613281
1213.776367	49860.265625
1212.666992	50407.367188
1211.556641	50301.875000
1210.446289	50139.507813
1209.335938	50793.484375
1208.225586	50996.488281
1207.115234	51304.417969
1206.003906	51454.757813
1204.892578	51034.269531
1203.781250	51680.917969
1202.669922	52178.679688
1201.557617	52234.757813
1200.446289	52017.656250
1199.333984	52217.937500
1198.221680	52737.070313
1197.108398	53114.054688
1195.996094	53143.691406
1194.882813	53518.277344
1193.769531	54006.226563
1192.656250	53867.632813
1191.542969	54071.671875
1190.428711	53656.035156
1189.314453	52996.250000
1188.200195	52674.734375
1187.085938	52976.953125
1185.971680	51709.398438
1184.856445	52135.921875
1183.741211	51921.574219
1182.625977	51796.636719
1181.510742	51310.113281
1180.395508	51705.894531
1179.279297	51864.160156
1178.163086	51351.753906
1177.046875	51364.167969
1175.930664	51692.171875
1174.813477	51693.636719
1173.697266	51455.765625
1172.580078	51376.781250
1171.462891	51347.843750
1170.344727	51384.152344
