#Wave		#Intensity
2001.248047	38096.695313
2000.278320	38081.656250
1999.308594	37984.789063
1998.338867	38095.921875
1997.369141	38460.042969
1996.398438	38207.859375
1995.428711	38426.582031
1994.458008	37956.648438
1993.487305	38130.269531
1992.516602	38258.777344
1991.545898	38539.894531
1990.574219	38100.289063
1989.603516	38481.402344
1988.631836	38342.113281
1987.660156	38465.460938
1986.688477	38441.238281
1985.715820	38622.023438
1984.744141	38685.261719
1983.771484	39148.332031
1982.798828	38279.457031
1981.826172	38460.136719
1980.853516	38725.675781
1979.880859	38571.562500
1978.907227	38846.976563
1977.933594	38650.453125
1976.959961	38666.164063
1975.986328	38661.902344
1975.012695	38725.007813
1974.039063	38715.746094
1973.064453	38891.062500
1972.089844	39293.257813
1971.115234	38912.375000
1970.140625	39072.601563
1969.166016	38976.039063
1968.190430	39218.437500
1967.215820	39039.652344
1966.240234	39037.808594
1965.264648	38801.828125
1964.289063	39183.542969
1963.312500	38905.285156
1962.336914	38759.070313
1961.360352	39055.957031
1960.383789	39250.707031
1959.407227	39539.937500
1958.430664	39227.023438
1957.454102	39361.941406
1956.476563	39263.039063
1955.499023	39375.519531
1954.521484	39622.207031
1953.543945	39831.519531
1952.566406	39481.597656
1951.587891	39656.074219
1950.610352	39455.359375
1949.631836	39900.515625
1948.653320	39344.699219
1947.674805	39625.839844
1946.696289	40011.144531
1945.716797	39852.734375
1944.737305	39744.007813
1943.758789	40109.238281
1942.779297	39804.519531
1941.798828	40189.449219
1940.819336	40073.296875
1939.838867	40088.593750
1938.859375	39908.039063
1937.878906	40238.144531
1936.898438	40117.101563
1935.916992	40362.808594
1934.936523	39810.726563
1933.955078	40242.164063
1932.974609	40061.765625
1931.993164	40376.632813
1931.010742	40146.753906
1930.029297	40050.617188
1929.047852	40013.902344
1928.065430	40474.535156
1927.083008	40435.285156
1926.100586	40900.625000
1925.118164	40524.980469
1924.135742	40992.613281
1923.152344	40508.308594
1922.168945	40553.113281
1921.185547	40812.902344
1920.202148	40274.523438
1919.218750	40845.535156
1918.235352	40255.464844
1917.250977	41011.492188
1916.266602	40767.269531
1915.282227	40589.785156
1914.297852	40609.820313
1913.313477	40839.609375
1912.328125	41168.011719
1911.343750	40775.949219
1910.358398	41331.164063
1909.373047	40855.363281
1908.387695	41008.464844
1907.401367	41025.921875
1906.416016	41193.726563
1905.429688	41432.937500
1904.443359	40856.503906
1903.457031	40829.632813
1902.470703	41320.003906
1901.483398	41280.742188
1900.497070	40800.761719
1899.509766	41453.351563
1898.522461	41409.156250
1897.535156	41224.707031
1896.546875	41559.476563
1895.559570	41035.578125
1894.571289	41586.703125
1893.583008	41468.742188
1892.594727	41444.253906
1891.606445	41884.390625
1890.618164	41827.878906
1889.628906	41850.027344
1888.639648	41825.480469
1887.650391	41321.910156
1886.661133	41486.585938
1885.671875	41990.089844
1884.682617	42193.871094
1883.692383	41499.105469
1882.702148	41759.347656
1881.711914	42044.039063
1880.721680	42193.683594
1879.731445	42068.523438
1878.740234	42002.269531
1877.749023	42142.027344
1876.757813	42178.757813
1875.766602	42156.640625
1874.775391	42465.410156
1873.784180	42536.367188
1872.791992	42305.933594
1871.799805	42065.781250
1870.807617	42447.820313
1869.815430	42440.359375
1868.823242	42846.679688
1867.830078	42743.679688
1866.837891	42770.433594
1865.844727	42403.195313
1864.851563	42562.113281
1863.858398	42919.121094
1862.864258	42637.648438
1861.871094	42801.328125
1860.876953	42771.800781
1859.882813	42830.281250
1858.888672	42883.851563
1857.894531	42993.609375
1856.899414	43152.187500
1855.905273	43330.253906
1854.910156	43244.476563
1853.915039	43241.757813
1852.919922	43348.902344
1851.923828	43517.035156
1850.928711	43353.179688
1849.932617	43416.320313
1848.936523	43459.917969
1847.940430	43937.707031
1846.944336	43381.218750
1845.947266	43907.617188
1844.951172	43699.968750
1843.954102	43960.421875
1842.957031	44020.929688
1841.959961	43903.527344
1840.962891	43934.781250
1839.964844	43834.484375
1838.966797	44136.078125
1837.969727	44252.500000
1836.970703	45023.796875
1835.972656	44076.265625
1834.974609	44392.199219
1833.975586	44637.453125
1832.976563	45067.519531
1831.978516	44573.085938
1830.978516	44584.695313
1829.979492	45262.570313
1828.980469	44970.148438
1827.980469	44991.398438
1826.980469	45114.714844
1825.980469	45075.179688
1824.980469	45098.824219
1823.979492	45260.917969
1822.979492	45942.679688
1821.978516	45798.605469
1820.977539	45916.785156
1819.976563	45500.898438
1818.975586	45864.203125
1817.973633	45637.738281
1816.972656	45707.332031
1815.970703	45592.546875
1814.968750	46207.796875
1813.966797	45986.273438
1812.963867	46327.277344
1811.961914	46149.437500
1810.958984	46497.558594
1809.956055	46310.054688
1808.953125	46907.558594
1807.950195	46470.554688
1806.946289	46421.191406
1805.943359	46696.308594
1804.939453	46968.906250
1803.935547	47176.050781
1802.930664	46986.226563
1801.926758	46965.843750
1800.922852	46906.757813
1799.917969	47435.464844
1798.913086	47335.199219
1797.908203	47667.785156
1796.903320	47468.390625
1795.897461	47370.585938
1794.891602	47318.730469
1793.886719	47738.058594
1792.880859	48111.339844
1791.874023	48131.835938
1790.868164	47843.207031
1789.862305	48037.589844
1788.855469	48159.476563
1787.848633	48578.203125
1786.841797	48545.500000
1785.833984	48464.546875
1784.827148	48911.941406
1783.819336	48659.695313
1782.812500	48728.277344
1781.804688	49129.574219
1780.795898	49046.167969
1779.788086	48996.535156
1778.779297	48681.832031
1777.771484	48812.984375
1776.762695	49469.253906
1775.753906	49243.746094
1774.744141	49109.828125
1773.735352	49291.367188
1772.725586	49826.718750
1771.715820	49622.960938
1770.706055	49626.226563
1769.696289	49819.570313
1768.686523	49923.835938
1767.675781	50100.214844
1766.666016	50495.367188
1765.655273	50224.375000
1764.644531	50691.476563
1763.632813	50882.011719
1762.622070	50649.535156
1761.610352	50594.933594
1760.598633	50907.894531
1759.586914	50884.484375
1758.575195	51163.656250
1757.563477	51392.308594
1756.550781	50994.339844
1755.538086	50848.523438
1754.525391	51842.597656
1753.512695	51919.808594
1752.500000	51685.140625
1751.486328	51925.437500
1750.473633	51774.777344
1749.459961	52144.437500
1748.446289	52528.343750
1747.432617	51831.203125
1746.417969	52603.226563
1745.404297	52752.050781
1744.389648	52742.718750
1743.375000	52845.957031
1742.360352	53586.117188
1741.344727	53162.449219
1740.330078	53074.050781
1739.314453	53447.593750
1738.298828	53232.347656
1737.283203	54132.070313
1736.267578	54148.804688
1735.251953	54239.671875
1734.235352	54820.703125
1733.218750	55014.218750
1732.202148	55578.167969
1731.185547	55699.777344
1730.168945	56077.019531
1729.151367	56067.097656
1728.133789	56365.308594
1727.117188	56921.347656
1726.098633	57405.546875
1725.081055	57598.316406
1724.063477	57998.675781
1723.044922	58028.980469
1722.026367	58123.695313
1721.007813	58666.886719
1719.989258	58666.039063
1718.970703	59237.558594
1717.951172	60047.312500
1716.931641	59547.957031
1715.912109	59494.503906
1714.892578	59653.171875
1713.873047	59885.644531
1712.853516	59877.417969
1711.833008	59893.011719
1710.812500	60375.371094
1709.791992	59959.894531
1708.771484	59894.515625
1707.750000	59779.171875
1706.729492	59616.273438
1705.708008	60029.238281
1704.686523	59188.343750
1703.665039	59487.062500
1702.642578	59314.808594
1701.621094	59387.515625
1700.598633	58984.738281
1699.576172	59036.082031
1698.553711	59168.203125
1697.531250	58542.328125
1696.507813	58885.910156
1695.485352	58507.320313
1694.461914	58501.695313
1693.438477	58788.113281
1692.415039	58568.785156
1691.390625	57969.777344
1690.367188	58213.414063
1689.342773	58165.125000
1688.318359	57599.710938
1687.293945	57800.585938
1686.269531	58221.921875
1685.244141	58351.480469
1684.218750	57971.324219
1683.194336	58105.617188
1682.168945	58209.054688
1681.142578	58054.199219
1680.117188	58830.355469
1679.090820	57981.492188
1678.064453	58290.886719
1677.038086	57823.597656
1676.011719	58736.527344
1674.985352	58340.324219
1673.958008	58292.109375
1672.931641	58411.886719
1671.904297	58195.718750
1670.876953	58213.769531
1669.848633	58085.203125
1668.821289	58762.878906
1667.792969	59050.285156
1666.764648	58742.011719
1665.736328	59126.199219
1664.708008	58964.496094
1663.679688	59265.824219
1662.650391	59243.492188
1661.621094	59006.285156
1660.591797	59460.894531
1659.562500	59327.589844
1658.533203	59305.250000
1657.502930	59457.527344
1656.472656	59458.761719
1655.442383	59707.664063
1654.412109	59649.886719
1653.381836	59967.042969
1652.351563	60229.859375
1651.320313	59620.453125
1650.289063	60100.046875
1649.257813	60178.902344
1648.226563	60314.269531
1647.194336	60324.746094
1646.163086	60189.207031
1645.130859	60621.171875
1644.098633	60556.250000
1643.066406	61018.585938
1642.033203	60708.867188
1641.000977	60923.949219
1639.967773	61329.507813
1638.934570	60991.664063
1637.901367	61157.195313
1636.868164	61390.847656
1635.833984	61398.734375
1634.800781	62048.277344
1633.766602	61980.843750
1632.732422	61946.320313
1631.697266	62137.328125
1630.663086	62748.687500
1629.627930	62798.582031
1628.593750	62061.910156
1627.558594	63111.925781
1626.522461	62776.800781
1625.487305	63328.824219
1624.451172	63268.285156
1623.416016	63747.300781
1622.379883	64155.781250
1621.343750	64566.457031
1620.306641	65387.281250
1619.270508	66618.031250
1618.233398	67381.945313
1617.196289	68255.718750
1616.159180	70288.906250
1615.122070	70693.351563
1614.083984	73301.523438
1613.046875	74330.500000
1612.008789	75539.375000
1610.970703	76083.039063
1609.932617	76256.718750
1608.893555	76243.132813
1607.855469	75401.359375
1606.816406	74159.882813
1605.777344	72981.992188
1604.738281	71105.367188
1603.698242	69909.726563
1602.659180	69179.671875
1601.619141	68113.335938
1600.579102	67276.367188
1599.539063	66341.578125
1598.499023	66336.757813
1597.458008	65694.382813
1596.417969	65430.500000
1595.376953	64405.644531
1594.335938	64828.316406
1593.294922	64380.355469
1592.252930	64123.882813
1591.210938	64142.777344
1590.169922	64131.343750
1589.127930	63788.757813
1588.084961	63490.593750
1587.042969	63411.667969
1586.000000	63852.539063
1584.958008	63477.609375
1583.915039	63648.027344
1582.872070	63527.187500
1581.828125	63450.644531
1580.785156	63418.367188
1579.741211	64110.207031
1578.697266	63535.417969
1577.653320	64045.441406
1576.609375	63787.347656
1575.564453	64569.355469
1574.520508	64543.878906
1573.475586	64841.699219
1572.430664	65288.234375
1571.384766	65609.062500
1570.339844	65669.414063
1569.293945	65418.304688
1568.249023	65650.625000
1567.202148	65775.984375
1566.156250	65515.687500
1565.110352	65283.355469
1564.063477	65143.988281
1563.017578	64528.722656
1561.970703	64292.039063
1560.922852	63783.898438
1559.875977	64064.882813
1558.829102	63568.558594
1557.781250	63121.121094
1556.733398	63518.027344
1555.685547	63026.699219
1554.636719	63326.101563
1553.588867	62858.156250
1552.540039	61861.976563
1551.491211	62258.738281
1550.442383	62150.316406
1549.393555	61993.285156
1548.344727	61864.101563
1547.294922	61730.328125
1546.245117	61816.531250
1545.195313	61661.976563
1544.145508	61581.531250
1543.094727	61387.734375
1542.044922	60840.054688
1540.994141	61469.878906
1539.943359	60933.937500
1538.892578	61297.617188
1537.840820	60847.425781
1536.790039	60568.433594
1535.738281	61130.714844
1534.686523	60678.480469
1533.634766	61182.781250
1532.583008	60522.820313
1531.530273	60507.378906
1530.477539	60171.011719
1529.424805	60571.152344
1528.372070	60126.410156
1527.319336	59806.437500
1526.265625	60340.242188
1525.212891	59842.714844
1524.159180	59622.128906
1523.105469	60291.722656
1522.051758	60006.578125
1520.997070	59686.953125
1519.942383	59692.406250
1518.888672	59603.378906
1517.833984	58915.367188
1516.778320	59556.710938
1515.723633	59437.808594
1514.667969	59397.234375
1513.612305	59734.242188
1512.556641	59389.785156
1511.500977	59259.480469
1510.445313	59444.457031
1509.388672	59417.710938
1508.332031	59759.003906
1507.275391	59387.238281
1506.218750	59463.984375
1505.162109	58940.667969
1504.104492	59210.535156
1503.047852	59117.199219
1501.990234	59563.859375
1500.931641	59318.867188
1499.874023	58876.421875
1498.816406	59217.242188
1497.757813	59369.656250
1496.699219	59182.253906
1495.640625	58985.734375
1494.582031	58848.949219
1493.522461	58634.203125
1492.462891	58807.218750
1491.403320	58753.101563
1490.343750	58921.441406
1489.284180	58516.523438
1488.224609	58579.394531
1487.164063	58772.878906
1486.103516	58741.722656
1485.042969	58213.394531
1483.982422	58603.835938
1482.920898	58270.394531
1481.860352	58640.074219
1480.798828	58457.847656
1479.737305	58509.171875
1478.675781	58613.113281
1477.613281	58321.148438
1476.550781	58573.792969
1475.489258	58430.617188
1474.426758	58424.710938
1473.363281	58958.449219
1472.300781	59002.742188
1471.237305	58420.707031
1470.174805	58245.679688
1469.111328	58635.101563
1468.046875	58930.718750
1466.983398	58447.320313
1465.919922	59080.855469
1464.855469	58889.867188
1463.791016	58655.574219
1462.726563	59117.531250
1461.661133	58725.808594
1460.596680	59135.101563
1459.531250	59336.648438
1458.465820	59207.390625
1457.400391	59522.871094
1456.334961	59804.035156
1455.268555	59474.148438
1454.202148	59591.109375
1453.135742	59605.476563
1452.069336	59970.714844
1451.002930	59420.054688
1449.935547	59867.183594
1448.869141	59833.660156
1447.801758	60052.871094
1446.734375	60388.097656
1445.666016	60008.542969
1444.598633	60175.257813
1443.530273	60533.023438
1442.461914	60747.351563
1441.393555	60831.960938
1440.325195	61394.062500
1439.256836	61073.832031
1438.187500	61640.230469
1437.118164	61722.335938
1436.048828	62374.757813
1434.979492	62299.933594
1433.909180	62311.453125
1432.839844	62668.167969
1431.769531	63065.625000
1430.699219	63136.015625
1429.627930	63528.699219
1428.557617	63335.722656
1427.486328	63973.281250
1426.416016	63458.144531
1425.343750	63487.562500
1424.272461	63349.148438
1423.201172	63262.933594
1422.128906	63707.222656
1421.056641	63246.980469
1419.984375	62841.289063
1418.912109	63095.082031
1417.839844	62741.660156
1416.766602	63011.230469
1415.693359	62546.984375
1414.620117	63348.558594
1413.546875	62655.777344
1412.473633	63622.261719
1411.399414	63069.972656
1410.325195	63072.199219
1409.250977	63085.734375
1408.176758	63513.148438
1407.102539	63614.785156
1406.027344	63603.332031
1404.952148	63958.082031
1403.876953	64079.914063
1402.801758	64118.093750
1401.726563	63995.843750
1400.650391	64246.351563
1399.574219	64320.605469
1398.498047	63615.804688
1397.421875	63821.082031
1396.345703	64159.457031
1395.268555	64626.351563
1394.191406	64292.042969
1393.114258	64488.015625
1392.037109	64636.550781
1390.959961	65592.382813
1389.881836	65488.125000
1388.804688	66134.609375
1387.726563	65426.210938
1386.647461	66358.671875
1385.569336	66380.507813
1384.491211	66305.476563
1383.412109	67286.812500
1382.333008	66837.812500
1381.253906	67834.453125
1380.173828	67556.593750
1379.094727	68149.867188
1378.014648	67946.304688
1376.934570	67850.804688
1375.854492	67579.882813
1374.773438	67484.484375
1373.693359	67591.492188
1372.612305	67394.945313
1371.531250	66953.445313
1370.450195	66829.000000
1369.369141	66421.460938
1368.287109	66418.468750
1367.205078	65932.531250
1366.123047	65866.734375
1365.041016	65850.367188
1363.958984	65667.859375
1362.875977	65207.085938
1361.793945	64881.128906
1360.710938	64945.710938
1359.626953	64577.289063
1358.543945	64729.378906
1357.460938	64791.703125
1356.376953	64575.968750
1355.292969	64315.472656
1354.208984	63965.414063
1353.124023	63682.707031
1352.040039	63745.152344
1350.955078	63500.664063
1349.870117	63789.335938
1348.785156	63531.484375
1347.700195	63734.957031
1346.614258	63398.855469
1345.528320	63259.832031
1344.442383	63505.753906
1343.356445	62773.855469
1342.270508	63127.144531
1341.183594	62916.687500
1340.096680	63108.816406
1339.009766	63607.167969
1337.922852	63796.859375
1336.835938	63447.859375
1335.748047	63673.257813
1334.661133	63105.453125
1333.573242	63672.589844
1332.484375	63520.386719
1331.396484	63897.437500
1330.307617	63747.476563
1329.219727	63414.531250
1328.130859	63719.972656
1327.041992	63253.269531
1325.952148	63250.757813
1324.863281	63772.417969
1323.773438	63381.773438
1322.683594	63513.015625
1321.593750	63606.308594
1320.502930	63474.449219
1319.413086	63422.859375
1318.322266	63694.359375
1317.231445	63489.035156
1316.140625	63493.144531
1315.048828	63924.808594
1313.958008	63525.839844
1312.866211	63935.078125
1311.774414	63589.664063
1310.682617	63883.023438
1309.589844	64145.125000
1308.498047	64169.113281
1307.405273	64157.503906
1306.312500	64237.066406
1305.218750	64163.191406
1304.125977	64109.347656
1303.032227	64508.898438
1301.939453	65006.074219
1300.845703	64718.824219
1299.750977	64593.828125
1298.657227	65343.886719
1297.562500	65716.195313
1296.467773	65795.320313
1295.373047	65732.359375
1294.278320	65982.328125
1293.183594	66445.210938
1292.087891	66262.359375
1290.992188	66354.609375
1289.896484	67014.531250
1288.800781	66443.656250
1287.704102	67285.101563
1286.608398	67288.429688
1285.511719	66633.593750
1284.415039	66464.218750
1283.317383	66469.898438
1282.220703	65762.406250
1281.123047	66231.015625
1280.025391	65884.703125
1278.927734	65153.339844
1277.830078	64687.824219
1276.731445	64808.871094
1275.633789	64332.519531
1274.535156	64586.300781
1273.436523	64337.953125
1272.336914	63846.460938
1271.238281	63863.625000
1270.138672	63436.492188
1269.039063	63626.105469
1267.939453	62790.386719
1266.839844	62980.039063
1265.739258	62703.562500
1264.638672	62586.191406
1263.538086	62426.902344
1262.437500	62408.960938
1261.336914	61918.679688
1260.235352	61772.832031
1259.134766	61413.019531
1258.033203	61421.730469
1256.930664	61472.347656
1255.829102	60764.351563
1254.726563	61375.082031
1253.625000	60698.218750
1252.522461	60618.878906
1251.418945	60506.515625
1250.316406	60275.214844
1249.212891	60442.703125
1248.110352	60392.089844
1247.006836	60121.292969
1245.902344	60196.242188
1244.798828	59896.960938
1243.694336	59599.980469
1242.589844	59556.156250
1241.485352	59648.746094
1240.380859	59208.992188
1239.276367	59233.429688
1238.170898	59062.160156
1237.065430	58803.015625
1235.959961	59201.164063
1234.854492	58948.675781
1233.748047	58839.097656
1232.642578	58720.765625
1231.536133	59065.917969
1230.429688	58664.296875
1229.322266	58559.230469
1228.215820	59066.660156
1227.108398	58357.980469
1226.000977	58307.875000
1224.893555	58167.835938
1223.786133	58168.230469
1222.677734	58324.347656
1221.569336	58449.703125
1220.460938	58075.136719
1219.352539	58047.042969
1218.244141	58494.542969
1217.134766	58475.144531
1216.025391	57943.097656
1214.916016	57928.183594
1213.806641	57987.730469
1212.697266	58634.078125
1211.586914	58220.597656
1210.476563	58444.214844
1209.366211	57947.753906
1208.255859	58315.746094
1207.145508	58064.500000
1206.034180	58578.878906
1204.922852	58098.050781
1203.811523	58435.128906
1202.700195	58575.335938
1201.587891	58680.519531
1200.476563	58750.695313
1199.364258	58379.503906
1198.251953	58635.386719
1197.138672	59347.644531
1196.026367	59140.312500
1194.913086	59035.667969
1193.799805	59417.839844
1192.686523	59489.960938
1191.573242	59620.968750
1190.458984	59664.656250
1189.344727	59658.156250
1188.230469	60172.890625
1187.116211	59553.578125
1186.001953	60024.535156
1184.886719	59712.808594
1183.772461	59669.246094
1182.657227	59773.859375
1181.541016	59643.156250
1180.425781	59373.097656
1179.309570	59181.535156
1178.193359	59290.507813
1177.077148	59530.050781
1175.960938	59645.445313
1174.844727	59325.570313
1173.727539	59151.578125
1172.610352	59364.863281
1171.493164	59464.964844
1170.375977	58610.406250
