#Wave		#Intensity
2001.182617	36186.296875
2000.212891	36126.140625
1999.243164	36708.757813
1998.273438	36181.179688
1997.303711	36665.878906
1996.333008	36233.671875
1995.363281	36219.832031
1994.392578	36626.648438
1993.421875	36487.570313
1992.451172	36558.792969
1991.479492	36454.808594
1990.508789	36338.347656
1989.537109	36627.199219
1988.566406	36470.726563
1987.594727	36489.367188
1986.622070	36337.968750
1985.650391	36541.617188
1984.677734	36662.707031
1983.706055	36686.292969
1982.733398	36537.460938
1981.760742	36748.421875
1980.788086	36554.667969
1979.814453	36460.875000
1978.841797	36324.664063
1977.868164	36757.691406
1976.894531	36486.691406
1975.920898	36615.074219
1974.947266	36586.218750
1973.972656	36507.480469
1972.999023	36905.167969
1972.024414	36554.570313
1971.049805	36869.828125
1970.075195	36571.707031
1969.099609	37133.605469
1968.125000	36446.773438
1967.149414	37187.898438
1966.173828	36653.257813
1965.198242	36641.867188
1964.222656	36842.156250
1963.247070	36629.050781
1962.270508	37118.050781
1961.294922	36735.714844
1960.318359	36759.152344
1959.341797	37344.906250
1958.364258	37039.847656
1957.387695	36973.671875
1956.410156	37111.441406
1955.433594	36973.167969
1954.456055	36673.351563
1953.478516	37104.394531
1952.500000	37092.929688
1951.522461	36957.238281
1950.543945	37216.585938
1949.565430	37011.367188
1948.586914	37223.425781
1947.608398	37082.832031
1946.629883	37195.503906
1945.650391	37325.507813
1944.671875	37405.832031
1943.692383	36905.523438
1942.712891	37494.445313
1941.733398	36957.089844
1940.752930	37374.683594
1939.773438	37147.464844
1938.792969	37131.046875
1937.812500	37223.687500
1936.832031	36961.917969
1935.851563	37483.203125
1934.870117	37580.683594
1933.888672	37262.019531
1932.908203	37693.820313
1931.926758	37276.203125
1930.945313	37334.035156
1929.962891	36993.355469
1928.981445	37509.035156
1927.999023	37262.460938
1927.016602	37451.363281
1926.034180	37706.984375
1925.051758	37544.578125
1924.069336	37144.867188
1923.085938	37365.789063
1922.102539	37453.167969
1921.119141	37253.847656
1920.135742	37430.156250
1919.152344	37902.847656
1918.168945	37720.835938
1917.184570	37370.964844
1916.200195	37221.207031
1915.215820	37424.515625
1914.231445	37314.289063
1913.247070	37754.414063
1912.261719	37439.378906
1911.276367	37965.664063
1910.291992	37648.230469
1909.306641	37649.027344
1908.320313	37312.035156
1907.334961	37727.035156
1906.348633	37634.152344
1905.363281	37708.875000
1904.376953	37919.082031
1903.390625	37661.156250
1902.403320	37270.320313
1901.416992	37532.203125
1900.429688	37624.105469
1899.443359	37750.437500
1898.456055	38029.324219
1897.467773	37934.058594
1896.480469	37523.894531
1895.493164	37625.546875
1894.504883	37712.406250
1893.516602	37526.273438
1892.528320	37622.953125
1891.540039	37879.382813
1890.550781	38039.867188
1889.562500	37927.519531
1888.573242	38097.765625
1887.583984	37987.902344
1886.594727	38069.652344
1885.605469	38146.460938
1884.615234	37943.343750
1883.625000	37840.941406
1882.635742	38241.726563
1881.645508	37974.890625
1880.654297	38076.175781
1879.664063	38044.960938
1878.673828	38119.214844
1877.682617	38225.320313
1876.691406	38380.425781
1875.700195	38305.046875
1874.708984	38156.164063
1873.716797	37879.902344
1872.725586	38282.410156
1871.733398	38258.535156
1870.741211	38251.816406
1869.749023	38384.675781
1868.755859	38265.304688
1867.763672	38334.464844
1866.770508	38317.937500
1865.777344	38472.710938
1864.784180	38436.589844
1863.791016	38642.652344
1862.797852	38763.039063
1861.803711	38497.019531
1860.809570	38680.953125
1859.815430	38818.378906
1858.821289	38623.363281
1857.827148	38677.660156
1856.832031	38685.519531
1855.837891	39023.148438
1854.842773	38757.398438
1853.847656	38491.738281
1852.852539	38550.890625
1851.856445	38761.363281
1850.861328	38478.757813
1849.865234	38794.093750
1848.869141	38740.914063
1847.873047	38939.000000
1846.876953	38732.160156
1845.879883	38749.730469
1844.883789	38806.304688
1843.886719	39282.121094
1842.889648	39119.230469
1841.892578	38832.121094
1840.895508	39424.625000
1839.897461	39210.632813
1838.899414	39610.457031
1837.901367	39260.144531
1836.903320	39542.953125
1835.905273	39489.742188
1834.907227	39322.164063
1833.908203	39636.441406
1832.909180	39575.937500
1831.910156	39337.886719
1830.911133	39695.765625
1829.912109	39924.644531
1828.912109	39596.695313
1827.913086	39762.308594
1826.913086	39701.839844
1825.913086	40056.902344
1824.913086	40139.738281
1823.912109	39765.882813
1822.912109	39996.882813
1821.911133	40014.117188
1820.910156	40140.597656
1819.909180	40456.359375
1818.908203	40293.910156
1817.906250	39915.562500
1816.904297	40197.226563
1815.903320	39857.835938
1814.900391	40301.898438
1813.898438	40338.441406
1812.896484	40297.390625
1811.893555	40159.398438
1810.891602	40552.195313
1809.888672	40881.851563
1808.885742	40722.023438
1807.881836	40845.640625
1806.878906	40460.644531
1805.875000	40608.476563
1804.871094	40407.644531
1803.867188	40773.277344
1802.863281	41003.253906
1801.859375	40608.882813
1800.854492	41078.304688
1799.849609	40889.652344
1798.844727	40925.972656
1797.839844	41092.847656
1796.834961	40904.285156
1795.830078	41051.765625
1794.824219	41175.023438
1793.818359	41223.332031
1792.812500	41003.468750
1791.806641	40981.742188
1790.799805	41032.472656
1789.793945	41228.050781
1788.787109	41240.089844
1787.780273	41425.906250
1786.773438	41944.683594
1785.766602	41442.652344
1784.758789	41816.500000
1783.751953	41485.914063
1782.744141	41789.679688
1781.736328	42057.171875
1780.728516	41808.679688
1779.719727	41647.042969
1778.711914	41916.820313
1777.703125	42343.117188
1776.694336	42174.238281
1775.685547	42176.425781
1774.676758	42130.449219
1773.666992	42402.304688
1772.657227	42584.992188
1771.648438	42074.433594
1770.638672	42067.003906
1769.627930	42637.019531
1768.618164	42742.550781
1767.607422	42621.957031
1766.597656	42989.566406
1765.586914	42462.640625
1764.576172	42592.160156
1763.564453	42942.753906
1762.553711	43132.214844
1761.541992	43225.503906
1760.530273	43201.050781
1759.518555	43145.378906
1758.506836	43738.093750
1757.495117	43754.371094
1756.482422	43638.617188
1755.469727	43618.902344
1754.457031	43980.738281
1753.444336	44104.921875
1752.431641	44176.128906
1751.417969	44247.410156
1750.405273	44318.617188
1749.391602	44389.894531
1748.377930	44461.171875
1747.364258	44532.449219
1746.349609	44603.796875
1745.335938	44675.074219
1744.321289	44226.417969
1743.306641	45037.679688
1742.291992	45135.074219
1741.276367	45234.828125
1740.261719	45226.824219
1739.246094	45369.601563
1738.230469	45818.613281
1737.214844	45733.949219
1736.199219	46151.636719
1735.182617	46265.441406
1734.166992	46130.523438
1733.150391	46827.632813
1732.133789	46441.675781
1731.117188	47035.710938
1730.099609	47369.082031
1729.083008	47568.546875
1728.065430	47412.031250
1727.047852	47957.703125
1726.030273	48245.300781
1725.012695	47988.472656
1723.994141	48182.867188
1722.976563	48942.796875
1721.958008	49473.390625
1720.939453	49445.546875
1719.920898	49121.937500
1718.901367	49649.824219
1717.882813	50151.296875
1716.863281	50004.144531
1715.843750	50088.246094
1714.824219	50081.757813
1713.803711	50022.847656
1712.784180	50347.507813
1711.763672	50541.050781
1710.743164	50605.921875
1709.722656	50144.558594
1708.702148	50878.425781
1707.681641	50619.492188
1706.660156	50527.230469
1705.638672	50520.656250
1704.617188	50702.015625
1703.595703	50709.679688
1702.574219	50515.203125
1701.551758	50724.992188
1700.529297	50580.500000
1699.507813	50443.183594
1698.484375	50842.984375
1697.461914	50342.144531
1696.439453	50948.484375
1695.416016	50668.687500
1694.392578	50994.539063
1693.369141	50805.050781
1692.345703	50665.476563
1691.322266	50860.609375
1690.297852	51053.296875
1689.273438	50904.257813
1688.249023	51070.769531
1687.224609	50594.476563
1686.200195	51095.339844
1685.174805	51133.695313
1684.150391	51169.664063
1683.125000	51250.648438
1682.099609	51331.601563
1681.073242	51407.785156
1680.047852	51770.570313
1679.021484	52081.117188
1677.995117	51877.699219
1676.968750	51345.261719
1675.942383	52112.570313
1674.916016	51913.984375
1673.888672	52273.914063
1672.862305	52257.535156
1671.834961	52092.140625
1670.806641	52224.792969
1669.779297	52331.386719
1668.751953	52140.054688
1667.723633	52806.835938
1666.695313	53185.050781
1665.666992	52542.339844
1664.638672	52573.171875
1663.609375	52580.371094
1662.581055	52830.816406
1661.551758	52726.984375
1660.522461	53090.628906
1659.493164	53116.605469
1658.462891	53048.171875
1657.433594	53487.066406
1656.403320	52946.753906
1655.373047	53468.066406
1654.342773	53423.191406
1653.312500	53472.644531
1652.281250	53776.687500
1651.250977	53305.148438
1650.219727	53752.863281
1649.188477	53505.332031
1648.156250	53641.882813
1647.125000	54134.046875
1646.092773	53790.019531
1645.060547	53853.445313
1644.028320	54359.429688
1642.996094	54196.773438
1641.963867	54323.628906
1640.930664	54431.617188
1639.898438	54788.921875
1638.865234	54767.417969
1637.832031	54757.679688
1636.797852	55446.250000
1635.764648	55116.683594
1634.730469	55489.992188
1633.696289	55924.261719
1632.662109	56161.015625
1631.627930	56082.902344
1630.592773	56613.125000
1629.558594	57021.050781
1628.523438	56839.511719
1627.488281	57101.699219
1626.453125	57075.113281
1625.416992	57548.359375
1624.381836	58413.250000
1623.345703	58975.222656
1622.309570	59583.902344
1621.273438	60049.320313
1620.237305	60828.738281
1619.200195	62308.765625
1618.163086	63626.546875
1617.125977	64517.378906
1616.088867	65918.632813
1615.051758	67628.593750
1614.014648	68494.812500
1612.976563	70074.906250
1611.938477	70884.187500
1610.900391	71351.421875
1609.862305	71774.023438
1608.823242	70916.523438
1607.785156	69998.492188
1606.746094	69031.671875
1605.707031	67885.109375
1604.667969	66547.218750
1603.628906	65214.476563
1602.588867	64099.585938
1601.548828	63665.164063
1600.508789	62043.902344
1599.468750	61895.011719
1598.428711	61159.890625
1597.387695	61088.273438
1596.347656	60087.371094
1595.306641	59682.128906
1594.265625	59820.875000
1593.224609	59495.164063
1592.182617	59367.894531
1591.140625	58944.394531
1590.099609	58595.683594
1589.057617	58715.828125
1588.014648	58462.875000
1586.972656	58464.105469
1585.929688	58360.449219
1584.887695	58287.121094
1583.844727	58181.199219
1582.800781	58296.621094
1581.757813	58109.210938
1580.714844	58480.753906
1579.670898	57809.085938
1578.626953	58648.449219
1577.583008	57993.281250
1576.538086	58729.917969
1575.494141	58621.722656
1574.449219	59418.457031
1573.404297	60017.214844
1572.359375	59604.214844
1571.314453	60291.070313
1570.269531	60282.632813
1569.223633	59528.152344
1568.177734	60019.453125
1567.131836	60031.972656
1566.085938	59384.785156
1565.040039	58777.308594
1563.993164	58388.316406
1562.946289	57992.500000
1561.899414	57789.484375
1560.852539	57273.226563
1559.805664	57448.632813
1558.757813	57115.898438
1557.709961	57003.636719
1556.662109	56847.347656
1555.614258	56978.640625
1554.566406	56284.554688
1553.517578	56436.757813
1552.469727	56282.992188
1551.420898	56370.253906
1550.372070	56114.617188
1549.322266	56489.093750
1548.273438	55978.777344
1547.223633	56554.582031
1546.173828	56382.421875
1545.124023	55754.347656
1544.074219	56123.914063
1543.024414	56222.632813
1541.973633	56238.031250
1540.922852	56003.621094
1539.872070	55866.421875
1538.821289	55844.875000
1537.770508	56311.105469
1536.718750	55778.687500
1535.666992	56371.855469
1534.615234	55435.277344
1533.563477	55670.230469
1532.511719	55572.511719
1531.458984	55373.214844
1530.407227	55402.562500
1529.354492	55057.937500
1528.300781	55560.464844
1527.248047	55312.847656
1526.195313	55097.617188
1525.141602	55362.265625
1524.087891	55271.640625
1523.034180	55277.894531
1521.980469	55051.285156
1520.925781	54813.230469
1519.871094	54600.609375
1518.817383	54943.394531
1517.762695	54721.605469
1516.707031	54914.519531
1515.652344	54865.539063
1514.596680	55191.906250
1513.541016	54127.605469
1512.485352	54870.613281
1511.429688	54584.621094
1510.374023	54685.296875
1509.317383	54636.398438
1508.260742	54858.933594
1507.204102	55311.363281
1506.147461	55379.636719
1505.090820	55073.156250
1504.033203	54927.683594
1502.975586	54874.183594
1501.917969	54928.691406
1500.860352	55183.039063
1499.802734	55113.437500
1498.744141	55000.226563
1497.686523	54942.156250
1496.627930	54661.429688
1495.569336	54614.914063
1494.509766	54634.960938
1493.451172	55081.757813
1492.391602	55021.421875
1491.332031	55123.945313
1490.272461	54754.039063
1489.212891	54526.417969
1488.152344	55055.347656
1487.092773	55265.503906
1486.032227	54545.226563
1484.971680	54998.253906
1483.910156	55160.199219
1482.849609	55491.562500
1481.788086	55266.367188
1480.726563	54844.351563
1479.665039	55363.292969
1478.603516	55266.398438
1477.541992	55071.140625
1476.479492	55120.746094
1475.416992	55058.250000
1474.354492	54817.386719
1473.291992	55029.355469
1472.229492	55254.964844
1471.166016	55549.062500
1470.102539	55180.292969
1469.039063	55289.210938
1467.975586	55331.835938
1466.912109	55385.867188
1465.847656	55474.128906
1464.783203	56000.753906
1463.718750	55682.511719
1462.654297	56103.914063
1461.589844	55890.738281
1460.524414	55837.355469
1459.458984	56146.710938
1458.393555	56029.433594
1457.328125	56397.929688
1456.262695	55815.515625
1455.196289	55794.097656
1454.130859	56055.308594
1453.064453	55853.820313
1451.998047	56067.078125
1450.930664	56289.363281
1449.864258	56220.039063
1448.796875	56082.421875
1447.729492	56841.898438
1446.662109	56330.886719
1445.594727	57242.531250
1444.526367	56843.132813
1443.458008	57649.695313
1442.390625	57273.105469
1441.321289	57845.042969
1440.252930	57716.406250
1439.184570	58463.113281
1438.115234	58689.007813
1437.045898	58642.101563
1435.976563	59672.265625
1434.907227	59377.558594
1433.836914	59139.738281
1432.767578	59817.238281
1431.697266	59924.558594
1430.626953	60281.566406
1429.555664	60468.203125
1428.485352	60967.953125
1427.414063	61015.988281
1426.342773	61433.781250
1425.271484	61699.457031
1424.200195	61969.566406
1423.128906	61743.023438
1422.056641	62357.601563
1420.984375	62668.238281
1419.912109	62668.300781
1418.839844	62473.500000
1417.767578	62237.996094
1416.694336	62342.308594
1415.621094	61889.511719
1414.547852	61602.156250
1413.474609	61518.632813
1412.400391	61824.425781
1411.327148	61193.269531
1410.252930	61114.382813
1409.178711	60798.003906
1408.104492	60389.007813
1407.029297	60678.886719
1405.955078	60941.527344
1404.879883	61387.171875
1403.804688	61534.324219
1402.729492	61785.367188
1401.653320	61656.761719
1400.578125	61957.378906
1399.501953	62418.234375
1398.425781	62490.542969
1397.349609	62375.437500
1396.272461	61650.929688
1395.196289	62219.824219
1394.119141	62116.105469
1393.041992	63036.640625
1391.964844	63383.921875
1390.886719	64152.792969
1389.809570	64294.558594
1388.731445	64713.558594
1387.653320	64688.375000
1386.575195	64760.101563
1385.497070	64757.445313
1384.417969	64745.777344
1383.338867	64860.242188
1382.259766	64749.468750
1381.180664	65293.921875
1380.101563	64251.148438
1379.021484	64563.667969
1377.941406	64304.496094
1376.861328	64745.132813
1375.781250	64348.800781
1374.701172	64271.976563
1373.620117	63473.351563
1372.539063	63425.933594
1371.458008	63270.632813
1370.376953	63349.125000
1369.295898	62744.476563
1368.213867	63481.296875
1367.132813	62560.117188
1366.050781	62665.617188
1364.967773	63289.773438
1363.885742	63415.300781
1362.802734	64032.355469
1361.720703	63879.417969
1360.637695	64466.992188
1359.554688	64576.503906
1358.470703	63957.000000
1357.387695	63878.179688
1356.303711	63631.222656
1355.219727	62940.476563
1354.135742	62456.183594
1353.050781	62438.191406
1351.966797	62142.367188
1350.881836	61705.515625
1349.796875	61071.722656
1348.711914	61148.031250
1347.626953	60561.582031
1346.541016	60928.960938
1345.455078	60485.996094
1344.369141	60217.734375
1343.283203	60555.886719
1342.197266	60721.667969
1341.110352	60650.316406
1340.023438	60570.042969
1338.936523	60708.894531
1337.849609	60572.750000
1336.762695	60943.980469
1335.674805	60519.585938
1334.586914	60843.769531
1333.499023	60745.660156
1332.411133	61469.441406
1331.323242	61112.234375
1330.234375	61331.140625
1329.145508	61440.589844
1328.056641	61478.582031
1326.967773	61454.082031
1325.878906	62502.644531
1324.789063	62573.875000
1323.699219	63173.605469
1322.609375	63213.464844
1321.519531	64198.523438
1320.429688	64811.000000
1319.338867	65135.777344
1318.248047	66260.312500
1317.157227	67012.414063
1316.066406	68058.242188
1314.975586	69255.117188
1313.883789	69269.312500
1312.791992	69837.781250
1311.700195	70014.328125
1310.608398	69870.375000
1309.516602	70111.367188
1308.423828	68792.937500
1307.331055	68266.734375
1306.238281	67616.203125
1305.145508	67572.843750
1304.051758	66475.875000
1302.958984	66877.218750
1301.865234	65931.867188
1300.771484	66946.320313
1299.677734	66483.296875
1298.583008	66942.078125
1297.489258	67243.039063
1296.394531	67608.265625
1295.299805	67937.851563
1294.204102	68353.859375
1293.109375	68254.945313
1292.013672	68637.460938
1290.917969	68325.601563
1289.822266	68182.390625
1288.726563	67782.039063
1287.630859	67195.609375
1286.534180	67456.054688
1285.437500	66284.875000
1284.340820	65938.312500
1283.244141	66247.570313
1282.146484	65642.000000
1281.048828	65477.316406
1279.951172	64998.300781
1278.853516	64384.429688
1277.755859	64301.941406
1276.658203	63726.027344
1275.559570	63906.957031
1274.460938	63736.113281
1273.362305	63286.667969
1272.262695	63060.710938
1271.164063	62867.996094
1270.064453	62865.441406
1268.964844	62884.984375
1267.865234	62959.757813
1266.765625	62002.812500
1265.665039	61936.351563
1264.564453	61843.410156
1263.463867	62033.121094
1262.363281	61673.074219
1261.262695	61432.343750
1260.161133	61383.687500
1259.059570	61335.046875
1257.958008	61096.703125
1256.856445	61032.687500
1255.754883	61460.445313
1254.652344	61081.097656
1253.549805	61078.832031
1252.447266	60644.585938
1251.344727	60525.609375
1250.242188	60851.710938
1249.138672	60642.417969
1248.035156	60693.078125
1246.931641	61076.218750
1245.828125	60532.351563
1244.724609	60679.847656
1243.620117	61373.082031
1242.515625	61397.144531
1241.411133	61262.800781
1240.306641	61594.812500
1239.201172	61297.734375
1238.096680	61675.789063
1236.991211	61387.593750
1235.885742	62073.203125
1234.779297	61420.238281
1233.673828	61136.632813
1232.567383	61742.824219
1231.460938	61569.074219
1230.354492	60868.351563
1229.248047	61524.753906
1228.140625	61149.175781
1227.033203	61421.191406
1225.926758	61627.277344
1224.818359	61899.105469
1223.710938	61457.910156
1222.602539	61174.785156
1221.495117	61222.875000
1220.386719	61053.894531
1219.278320	61229.117188
1218.168945	61022.933594
1217.060547	60882.562500
1215.951172	60889.019531
1214.841797	60356.632813
1213.731445	60748.621094
1212.622070	60516.425781
1211.511719	60888.535156
1210.402344	60262.406250
1209.291992	60577.519531
1208.180664	60846.570313
1207.070313	60885.816406
1205.958984	60750.070313
1204.847656	61132.648438
1203.736328	61064.683594
1202.625000	61451.429688
1201.512695	61066.507813
1200.401367	61398.480469
1199.289063	61227.816406
1198.176758	62064.234375
1197.063477	61980.867188
1195.951172	62181.402344
1194.837891	62209.382813
1193.724609	62652.093750
1192.611328	63184.121094
1191.498047	62594.375000
1190.383789	62275.367188
1189.269531	62172.417969
1188.155273	62339.929688
1187.041016	61885.945313
1185.926758	62101.406250
1184.811523	61571.335938
1183.696289	61316.042969
1182.581055	61337.562500
1181.465820	61452.742188
1180.350586	61180.179688
1179.234375	60918.601563
1178.118164	60665.828125
1177.001953	60874.640625
1175.885742	61220.496094
1174.768555	60963.445313
1173.652344	60697.781250
1172.535156	60599.707031
1171.417969	60412.500000
1170.299805	59975.285156
