#Wave		#Intensity
2001.221680	39991.437500
2000.251953	40109.242188
1999.282227	40137.328125
1998.312500	40065.175781
1997.342773	40060.683594
1996.372070	40083.746094
1995.402344	39934.003906
1994.431641	39984.621094
1993.460938	39842.453125
1992.490234	39865.531250
1991.518555	39868.578125
1990.547852	39711.488281
1989.576172	39924.703125
1988.604492	40122.832031
1987.632813	40063.308594
1986.661133	40011.304688
1985.689453	39769.316406
1984.716797	39564.910156
1983.745117	39705.441406
1982.772461	39683.515625
1981.799805	39921.406250
1980.827148	39832.003906
1979.853516	39605.277344
1978.880859	40105.226563
1977.907227	40058.277344
1976.933594	39814.152344
1975.959961	39909.515625
1974.986328	40389.093750
1974.011719	39875.605469
1973.038086	39978.386719
1972.063477	40432.757813
1971.088867	39927.007813
1970.114258	40161.847656
1969.138672	40299.394531
1968.164063	40339.699219
1967.188477	40295.269531
1966.212891	40258.328125
1965.237305	39959.867188
1964.261719	40072.414063
1963.286133	40473.753906
1962.309570	40322.285156
1961.333984	40165.890625
1960.357422	40109.093750
1959.380859	40363.335938
1958.404297	40097.550781
1957.426758	40262.160156
1956.450195	40864.402344
1955.472656	40814.984375
1954.495117	40330.531250
1953.517578	40631.683594
1952.540039	40393.457031
1951.561523	40766.546875
1950.583008	40665.011719
1949.605469	40526.253906
1948.626953	40611.046875
1947.647461	39955.882813
1946.668945	40671.308594
1945.690430	40577.316406
1944.710938	40394.015625
1943.731445	40697.097656
1942.751953	40570.894531
1941.772461	40462.097656
1940.791992	40665.804688
1939.812500	40564.464844
1938.832031	40730.894531
1937.851563	40587.441406
1936.871094	40605.113281
1935.890625	40446.859375
1934.909180	41036.812500
1933.928711	40633.320313
1932.947266	40886.230469
1931.965820	40898.878906
1930.984375	40614.449219
1930.002930	40349.917969
1929.020508	40728.906250
1928.038086	40852.906250
1927.056641	40910.070313
1926.074219	41125.511719
1925.090820	40868.531250
1924.108398	40450.929688
1923.125000	41098.949219
1922.142578	40587.523438
1921.159180	40686.675781
1920.175781	40696.839844
1919.191406	40904.628906
1918.208008	40354.070313
1917.223633	40556.906250
1916.240234	40947.320313
1915.255859	40703.152344
1914.271484	40883.597656
1913.286133	40910.980469
1912.301758	41041.980469
1911.316406	40975.578125
1910.331055	40736.542969
1909.345703	40620.890625
1908.360352	40522.539063
1907.375000	40877.816406
1906.388672	41013.601563
1905.402344	40922.621094
1904.416016	41068.207031
1903.429688	40861.460938
1902.443359	40494.691406
1901.457031	40928.390625
1900.469727	41221.593750
1899.482422	40884.492188
1898.495117	41199.746094
1897.507813	41052.250000
1896.520508	40983.535156
1895.532227	41369.945313
1894.543945	41269.218750
1893.556641	41387.394531
1892.568359	41168.679688
1891.579102	40932.832031
1890.590820	41220.589844
1889.601563	41287.078125
1888.613281	40798.261719
1887.624023	41135.015625
1886.634766	41002.531250
1885.644531	41037.078125
1884.655273	41280.308594
1883.665039	41435.082031
1882.674805	41157.820313
1881.684570	41226.667969
1880.694336	41599.722656
1879.704102	41705.261719
1878.712891	41077.410156
1877.722656	40920.609375
1876.731445	40962.457031
1875.740234	41641.648438
1874.748047	41082.867188
1873.756836	41122.210938
1872.764648	41455.546875
1871.773438	41308.632813
1870.781250	41374.851563
1869.788086	41152.089844
1868.795898	41519.457031
1867.803711	41191.480469
1866.810547	41152.425781
1865.817383	41154.980469
1864.824219	41106.152344
1863.831055	41553.925781
1862.837891	41490.367188
1861.843750	41101.597656
1860.849609	41857.191406
1859.855469	41598.046875
1858.861328	41634.726563
1857.867188	41536.992188
1856.872070	41512.585938
1855.877930	41996.285156
1854.882813	41451.585938
1853.887695	41544.414063
1852.892578	41454.097656
1851.896484	41522.476563
1850.901367	41258.910156
1849.905273	41749.453125
1848.909180	42127.593750
1847.913086	41825.023438
1846.916992	42088.382813
1845.919922	41622.542969
1844.923828	41912.664063
1843.926758	41832.160156
1842.929688	42000.277344
1841.932617	42334.035156
1840.935547	41856.371094
1839.937500	41863.621094
1838.939453	42087.625000
1837.942383	42367.554688
1836.943359	41834.214844
1835.945313	41646.722656
1834.947266	42522.847656
1833.948242	42671.097656
1832.949219	42069.953125
1831.951172	42201.199219
1830.951172	42359.148438
1829.952148	42174.183594
1828.953125	42290.746094
1827.953125	42200.652344
1826.953125	42222.386719
1825.953125	42844.300781
1824.953125	42341.136719
1823.952148	42452.703125
1822.952148	42428.226563
1821.951172	42214.355469
1820.950195	42221.484375
1819.949219	42677.671875
1818.948242	42774.511719
1817.946289	42832.488281
1816.945313	42822.515625
1815.943359	42771.308594
1814.941406	42603.707031
1813.939453	42877.476563
1812.936523	43122.054688
1811.934570	43143.539063
1810.931641	42830.574219
1809.928711	42985.371094
1808.925781	42575.636719
1807.921875	43091.332031
1806.918945	42865.773438
1805.915039	42928.433594
1804.912109	43303.375000
1803.908203	42826.160156
1802.903320	42697.605469
1801.899414	43246.597656
1800.894531	43275.261719
1799.890625	43582.074219
1798.885742	43429.285156
1797.880859	43356.339844
1796.875000	43665.390625
1795.870117	43764.042969
1794.864258	43691.070313
1793.858398	43231.527344
1792.852539	43279.464844
1791.846680	43875.675781
1790.840820	43710.964844
1789.833984	43611.500000
1788.828125	43760.718750
1787.821289	44134.363281
1786.814453	43450.859375
1785.806641	43993.320313
1784.799805	44101.351563
1783.791992	43608.757813
1782.784180	43892.859375
1781.776367	44369.750000
1780.768555	44501.738281
1779.760742	44016.648438
1778.751953	43979.957031
1777.743164	44531.183594
1776.735352	44241.464844
1775.725586	44142.128906
1774.716797	44392.007813
1773.708008	44025.414063
1772.698242	44369.109375
1771.688477	44657.320313
1770.678711	44464.132813
1769.668945	44485.152344
1768.659180	44943.984375
1767.648438	44801.355469
1766.637695	44791.035156
1765.626953	45271.203125
1764.616211	45445.902344
1763.605469	44949.964844
1762.593750	45300.078125
1761.583008	44943.695313
1760.571289	45368.148438
1759.559570	45734.812500
1758.547852	45690.707031
1757.535156	45927.527344
1756.523438	45979.425781
1755.510742	45824.890625
1754.498047	46044.761719
1753.485352	46005.429688
1752.472656	46618.589844
1751.458984	46308.152344
1750.445313	46067.363281
1749.432617	46368.500000
1748.417969	46487.347656
1747.404297	46488.714844
1746.390625	46734.500000
1745.375977	46592.066406
1744.361328	46567.058594
1743.346680	46824.667969
1742.332031	47383.902344
1741.317383	47375.519531
1740.302734	47795.617188
1739.287109	47782.378906
1738.271484	48058.675781
1737.255859	47964.046875
1736.240234	48811.910156
1735.223633	49166.796875
1734.208008	49165.273438
1733.191406	49464.980469
1732.174805	49611.601563
1731.158203	50477.531250
1730.140625	50236.816406
1729.124023	50877.753906
1728.106445	50500.894531
1727.088867	50644.804688
1726.071289	51347.406250
1725.053711	50949.171875
1724.035156	51097.691406
1723.017578	51754.488281
1721.999023	52339.468750
1720.980469	52435.171875
1719.961914	52444.968750
1718.942383	52271.125000
1717.923828	52788.828125
1716.904297	52667.429688
1715.884766	52796.351563
1714.865234	52329.433594
1713.844727	52932.527344
1712.825195	52887.414063
1711.804688	52396.902344
1710.784180	53118.734375
1709.763672	52442.628906
1708.743164	52235.746094
1707.722656	52831.062500
1706.701172	52728.886719
1705.679688	52362.640625
1704.658203	51765.761719
1703.636719	52053.902344
1702.615234	52237.304688
1701.592773	51678.800781
1700.571289	52137.960938
1699.548828	51641.468750
1698.526367	51957.882813
1697.502930	51563.757813
1696.480469	51461.968750
1695.457031	51431.468750
1694.433594	51320.238281
1693.410156	51163.929688
1692.386719	50872.367188
1691.363281	51110.183594
1690.338867	51309.949219
1689.314453	50990.035156
1688.290039	50857.636719
1687.265625	51529.316406
1686.241211	51043.531250
1685.215820	50875.625000
1684.191406	51634.648438
1683.166016	51160.949219
1682.140625	51315.378906
1681.115234	51434.214844
1680.088867	51455.882813
1679.062500	51145.960938
1678.037109	51463.667969
1677.010742	51452.167969
1675.983398	51639.511719
1674.957031	51964.054688
1673.930664	51535.992188
1672.903320	51531.578125
1671.875977	51993.160156
1670.848633	51749.789063
1669.820313	51877.750000
1668.792969	52445.410156
1667.764648	51944.425781
1666.736328	52235.351563
1665.708008	51569.175781
1664.679688	52179.000000
1663.651367	52039.820313
1662.622070	52361.214844
1661.592773	52488.867188
1660.563477	52583.421875
1659.534180	52642.535156
1658.504883	52921.105469
1657.474609	53133.507813
1656.444336	52904.664063
1655.415039	52770.250000
1654.383789	53201.886719
1653.353516	53251.378906
1652.323242	53911.449219
1651.291992	53347.953125
1650.260742	54092.605469
1649.229492	54139.542969
1648.198242	53500.914063
1647.166016	53974.265625
1646.134766	54275.527344
1645.102539	54136.378906
1644.070313	54562.273438
1643.038086	54912.695313
1642.004883	54999.417969
1640.972656	54817.878906
1639.939453	54342.339844
1638.906250	54781.921875
1637.873047	55494.132813
1636.839844	55881.621094
1635.805664	55570.781250
1634.772461	55351.710938
1633.738281	56138.507813
1632.704102	56285.941406
1631.668945	56421.578125
1630.634766	56435.027344
1629.599609	56502.480469
1628.565430	56865.742188
1627.530273	57052.812500
1626.494141	57422.882813
1625.458984	57687.218750
1624.422852	57740.300781
1623.387695	58433.765625
1622.351563	59021.437500
1621.315430	59644.070313
1620.278320	60024.992188
1619.242188	61319.988281
1618.205078	62333.273438
1617.167969	64440.511719
1616.130859	66059.679688
1615.093750	67741.515625
1614.055664	69678.031250
1613.018555	71445.257813
1611.980469	72834.914063
1610.942383	73449.281250
1609.904297	74245.968750
1608.865234	73811.554688
1607.827148	73332.835938
1606.788086	71651.984375
1605.749023	69887.531250
1604.709961	68051.210938
1603.669922	66302.054688
1602.630859	65172.937500
1601.590820	63705.347656
1600.550781	62549.054688
1599.510742	61720.238281
1598.470703	61816.683594
1597.429688	60747.746094
1596.389648	59784.253906
1595.348633	59768.933594
1594.307617	59991.691406
1593.265625	59810.636719
1592.224609	59657.644531
1591.182617	59262.085938
1590.140625	59279.511719
1589.098633	59215.304688
1588.056641	59111.484375
1587.014648	58942.421875
1585.971680	59640.472656
1584.928711	59047.242188
1583.886719	59537.656250
1582.842773	59755.335938
1581.799805	58764.113281
1580.755859	59019.105469
1579.712891	59073.769531
1578.668945	58930.542969
1577.625000	59187.691406
1576.580078	59314.429688
1575.536133	59522.550781
1574.491211	59404.925781
1573.446289	59815.296875
1572.401367	59920.894531
1571.356445	60072.949219
1570.311523	60099.425781
1569.265625	59902.765625
1568.219727	59794.476563
1567.173828	59934.820313
1566.127930	60116.925781
1565.082031	59390.867188
1564.035156	59470.824219
1562.988281	59443.957031
1561.941406	59609.757813
1560.894531	59879.937500
1559.847656	59166.156250
1558.799805	59025.671875
1557.751953	58824.925781
1556.704102	58965.167969
1555.656250	58945.363281
1554.608398	58760.957031
1553.560547	59121.332031
1552.511719	58980.992188
1551.462891	58588.132813
1550.414063	59117.457031
1549.365234	59139.324219
1548.315430	58681.796875
1547.265625	58770.875000
1546.216797	59089.109375
1545.166992	59437.320313
1544.116211	59137.421875
1543.066406	58536.832031
1542.015625	59250.460938
1540.965820	59448.039063
1539.915039	59710.296875
1538.863281	59459.160156
1537.812500	59006.992188
1536.760742	58825.406250
1535.709961	58932.746094
1534.658203	59035.421875
1533.605469	58676.046875
1532.553711	58483.089844
1531.501953	58387.191406
1530.449219	58542.984375
1529.396484	58006.195313
1528.343750	57423.433594
1527.290039	57846.992188
1526.237305	57885.093750
1525.183594	57136.574219
1524.129883	57543.804688
1523.076172	57291.386719
1522.022461	56979.109375
1520.968750	57028.847656
1519.914063	56961.027344
1518.859375	57075.265625
1517.804688	56940.644531
1516.750000	56497.402344
1515.694336	56383.652344
1514.639648	56682.117188
1513.583984	57026.515625
1512.528320	56629.601563
1511.472656	56327.183594
1510.416016	56498.882813
1509.360352	56392.140625
1508.303711	56340.644531
1507.247070	56206.367188
1506.190430	56768.843750
1505.132813	56735.691406
1504.076172	56893.324219
1503.018555	56377.546875
1501.960938	56937.285156
1500.903320	56823.707031
1499.844727	56760.703125
1498.787109	56686.234375
1497.728516	56735.777344
1496.669922	56941.406250
1495.611328	56869.234375
1494.552734	56386.308594
1493.493164	56761.667969
1492.434570	56730.851563
1491.375000	56266.554688
1490.315430	56517.894531
1489.254883	56514.644531
1488.195313	56162.953125
1487.134766	55852.640625
1486.074219	56195.527344
1485.013672	55809.710938
1483.953125	55980.671875
1482.892578	55675.187500
1481.831055	55791.148438
1480.769531	55639.199219
1479.708008	55407.183594
1478.646484	56115.890625
1477.583984	55945.648438
1476.522461	55384.246094
1475.459961	55646.519531
1474.397461	55501.601563
1473.334961	55427.625000
1472.271484	55959.511719
1471.208984	55167.730469
1470.145508	55713.183594
1469.082031	55536.386719
1468.018555	55729.750000
1466.954102	55653.511719
1465.890625	55712.035156
1464.826172	55873.289063
1463.761719	55851.847656
1462.697266	56086.054688
1461.631836	55966.449219
1460.567383	56271.277344
1459.501953	56388.929688
1458.436523	56540.753906
1457.371094	56535.164063
1456.305664	56465.734375
1455.239258	56446.476563
1454.172852	55732.058594
1453.107422	56907.042969
1452.040039	56386.460938
1450.973633	56312.550781
1449.907227	56464.148438
1448.839844	56620.242188
1447.772461	56733.019531
1446.705078	56317.636719
1445.637695	56796.851563
1444.569336	56575.023438
1443.500977	57272.433594
1442.432617	56961.878906
1441.364258	57329.183594
1440.295898	57184.722656
1439.227539	57358.601563
1438.158203	57718.812500
1437.088867	57976.621094
1436.019531	58077.542969
1434.950195	58185.246094
1433.879883	58349.691406
1432.810547	58200.667969
1431.740234	58321.906250
1430.669922	57934.558594
1429.598633	58257.812500
1428.528320	58680.800781
1427.457031	58218.714844
1426.386719	58330.753906
1425.314453	59098.261719
1424.243164	58225.867188
1423.171875	58503.355469
1422.099609	58350.015625
1421.027344	58192.195313
1419.955078	57902.988281
1418.882813	58019.457031
1417.810547	57839.117188
1416.737305	57819.652344
1415.664063	57739.050781
1414.590820	57420.742188
1413.517578	57659.421875
1412.444336	57977.226563
1411.370117	57686.191406
1410.295898	57515.175781
1409.221680	57665.433594
1408.147461	58014.664063
1407.073242	57825.582031
1405.998047	58045.785156
1404.922852	57454.394531
1403.847656	58113.031250
1402.772461	58093.531250
1401.697266	58433.257813
1400.621094	57885.132813
1399.544922	58507.070313
1398.468750	58013.316406
1397.392578	58650.808594
1396.316406	58400.984375
1395.239258	58489.765625
1394.162109	59059.125000
1393.084961	59005.625000
1392.007813	59538.593750
1390.930664	59620.332031
1389.852539	59943.300781
1388.774414	60532.164063
1387.696289	60392.781250
1386.618164	60792.050781
1385.540039	60914.031250
1384.460938	61351.351563
1383.382813	61588.054688
1382.303711	61817.914063
1381.223633	62040.933594
1380.144531	62403.437500
1379.064453	62990.878906
1377.985352	62842.257813
1376.905273	63233.664063
1375.825195	62711.625000
1374.744141	62509.148438
1373.664063	62720.496094
1372.583008	62189.835938
1371.501953	61803.226563
1370.420898	61985.363281
1369.338867	61046.144531
1368.257813	61421.562500
1367.175781	60947.753906
1366.093750	60548.230469
1365.011719	60317.253906
1363.929688	60674.562500
1362.846680	60326.917969
1361.763672	59483.425781
1360.680664	59997.750000
1359.597656	59430.554688
1358.514648	59112.539063
1357.430664	59198.304688
1356.346680	58884.921875
1355.262695	58735.304688
1354.178711	58695.566406
1353.094727	58207.640625
1352.009766	58609.402344
1350.925781	58578.660156
1349.840820	58507.613281
1348.755859	58120.835938
1347.669922	57747.628906
1346.584961	57781.972656
1345.499023	58344.511719
1344.413086	57924.464844
1343.327148	57343.476563
1342.240234	57972.890625
1341.154297	58161.472656
1340.067383	57875.921875
1338.980469	57364.664063
1337.893555	58083.023438
1336.805664	58021.125000
1335.718750	58191.640625
1334.630859	58013.570313
1333.542969	57862.363281
1332.455078	57934.542969
1331.367188	57644.957031
1330.278320	57842.164063
1329.189453	57713.410156
1328.100586	57600.320313
1327.011719	57810.812500
1325.922852	57931.984375
1324.833008	58079.878906
1323.743164	58018.085938
1322.653320	58072.261719
1321.563477	58155.390625
1320.473633	58296.441406
1319.382813	58604.574219
1318.291992	58736.574219
1317.201172	58238.093750
1316.110352	59363.468750
1315.019531	58998.660156
1313.927734	58754.210938
1312.835938	59320.136719
1311.744141	59066.808594
1310.652344	59260.847656
1309.560547	59245.675781
1308.467773	59719.890625
1307.375000	59030.750000
1306.282227	59351.394531
1305.189453	59743.062500
1304.095703	59436.613281
1303.002930	59588.093750
1301.909180	59812.847656
1300.815430	60001.968750
1299.721680	60173.250000
1298.626953	59593.828125
1297.533203	59785.097656
1296.438477	60153.902344
1295.343750	60120.816406
1294.248047	59983.433594
1293.153320	60316.492188
1292.057617	60702.667969
1290.961914	60398.898438
1289.866211	60838.136719
1288.770508	60920.242188
1287.674805	61549.867188
1286.578125	61148.632813
1285.481445	60975.785156
1284.384766	60820.726563
1283.288086	60964.773438
1282.190430	60530.703125
1281.092773	61004.691406
1279.996094	60581.832031
1278.897461	60238.816406
1277.799805	59798.539063
1276.702148	59648.296875
1275.603516	59867.574219
1274.504883	60307.972656
1273.406250	59430.097656
1272.307617	59187.148438
1271.208008	59561.097656
1270.108398	59163.480469
1269.008789	59539.507813
1267.909180	59265.769531
1266.809570	59175.492188
1265.708984	58698.707031
1264.609375	58688.066406
1263.508789	58070.226563
1262.407227	57838.933594
1261.306641	58133.039063
1260.206055	57813.542969
1259.104492	57461.066406
1258.002930	57629.328125
1256.901367	57764.445313
1255.798828	57171.792969
1254.697266	57134.964844
1253.594727	57100.351563
1252.492188	57085.582031
1251.389648	56916.566406
1250.286133	56447.972656
1249.183594	56162.378906
1248.080078	56209.449219
1246.976563	56481.101563
1245.872070	56653.582031
1244.768555	55734.207031
1243.664063	55746.097656
1242.560547	55628.160156
1241.455078	55774.257813
1240.350586	55634.355469
1239.246094	55756.207031
1238.140625	55488.824219
1237.035156	55700.785156
1235.929688	55431.304688
1234.824219	55412.449219
1233.717773	55597.937500
1232.612305	54704.722656
1231.505859	54833.160156
1230.399414	55196.519531
1229.291992	55184.296875
1228.185547	55071.097656
1227.078125	55309.105469
1225.970703	55116.917969
1224.863281	55030.113281
1223.755859	55184.636719
1222.647461	55354.449219
1221.539063	54993.539063
1220.430664	55356.253906
1219.322266	55173.023438
1218.213867	55237.511719
1217.104492	55540.812500
1215.995117	54998.347656
1214.885742	55231.484375
1213.776367	55365.984375
1212.666992	55312.125000
1211.556641	55168.527344
1210.446289	55484.628906
1209.335938	55065.304688
1208.225586	55039.972656
1207.115234	55371.234375
1206.003906	55358.972656
1204.892578	55138.968750
1203.781250	55369.445313
1202.669922	55186.675781
1201.557617	55539.453125
1200.446289	55116.335938
1199.333984	55774.871094
1198.221680	55889.238281
1197.108398	56141.156250
1195.996094	56659.382813
1194.882813	57203.621094
1193.769531	56857.046875
1192.656250	56755.035156
1191.542969	57082.925781
1190.428711	57233.976563
1189.314453	56846.199219
1188.200195	56901.277344
1187.085938	57023.925781
1185.971680	57294.773438
1184.856445	58042.871094
1183.741211	57162.765625
1182.625977	56938.824219
1181.510742	56710.605469
1180.395508	56563.054688
1179.279297	56938.207031
1178.163086	56936.542969
1177.046875	57274.476563
1175.930664	56811.328125
1174.813477	56966.363281
1173.697266	57077.824219
1172.580078	57217.523438
1171.462891	56941.753906
1170.344727	56896.585938
