#Wave		#Intensity
2001.182617	36321.648438
2000.212891	35840.398438
1999.243164	35884.265625
1998.273438	36356.574219
1997.303711	36102.214844
1996.333008	36551.773438
1995.363281	36309.988281
1994.392578	36103.335938
1993.421875	36830.539063
1992.451172	36543.773438
1991.479492	36344.695313
1990.508789	36578.550781
1989.537109	36812.324219
1988.566406	36583.285156
1987.594727	36654.417969
1986.622070	36482.992188
1985.650391	36449.121094
1984.677734	36772.687500
1983.706055	36771.261719
1982.733398	36669.890625
1981.760742	36368.695313
1980.788086	36562.160156
1979.814453	36311.035156
1978.841797	36659.246094
1977.868164	36535.507813
1976.894531	36484.195313
1975.920898	36767.304688
1974.947266	36710.976563
1973.972656	37013.902344
1972.999023	36807.894531
1972.024414	36774.027344
1971.049805	36590.566406
1970.075195	36467.000000
1969.099609	36565.312500
1968.125000	36750.808594
1967.149414	36981.089844
1966.173828	36740.449219
1965.198242	36803.765625
1964.222656	36627.988281
1963.247070	36661.421875
1962.270508	37150.414063
1961.294922	37124.003906
1960.318359	36704.402344
1959.341797	36767.652344
1958.364258	37057.261719
1957.387695	36610.527344
1956.410156	36837.886719
1955.433594	37159.652344
1954.456055	36914.492188
1953.478516	37141.675781
1952.500000	36869.269531
1951.522461	37136.132813
1950.543945	37310.988281
1949.565430	37644.738281
1948.586914	36878.238281
1947.608398	37422.996094
1946.629883	36813.195313
1945.650391	37375.148438
1944.671875	36926.875000
1943.692383	36989.882813
1942.712891	37479.562500
1941.733398	37351.464844
1940.752930	37260.609375
1939.773438	37546.660156
1938.792969	37021.968750
1937.812500	37575.648438
1936.832031	37430.292969
1935.851563	37614.523438
1934.870117	37508.843750
1933.888672	37566.671875
1932.908203	37277.781250
1931.926758	38068.523438
1930.945313	37653.386719
1929.962891	37213.640625
1928.981445	37437.269531
1927.999023	37621.226563
1927.016602	37666.585938
1926.034180	37279.085938
1925.051758	37618.769531
1924.069336	37352.558594
1923.085938	38213.722656
1922.102539	37717.632813
1921.119141	37145.113281
1920.135742	37600.640625
1919.152344	37885.554688
1918.168945	37478.785156
1917.184570	37847.578125
1916.200195	37744.648438
1915.215820	37965.148438
1914.231445	37593.199219
1913.247070	37993.789063
1912.261719	37918.042969
1911.276367	37743.644531
1910.291992	38077.398438
1909.306641	37962.214844
1908.320313	37827.347656
1907.334961	38190.488281
1906.348633	37505.984375
1905.363281	37876.445313
1904.376953	38236.921875
1903.390625	37794.183594
1902.403320	37501.843750
1901.416992	38231.578125
1900.429688	37774.296875
1899.443359	37888.292969
1898.456055	37955.484375
1897.467773	37943.902344
1896.480469	38011.058594
1895.493164	38085.566406
1894.504883	37946.066406
1893.516602	37801.695313
1892.528320	38043.390625
1891.540039	38139.957031
1890.550781	37634.324219
1889.562500	38151.144531
1888.573242	38422.085938
1887.583984	38201.621094
1886.594727	38384.035156
1885.605469	38013.855469
1884.615234	38301.808594
1883.625000	38147.792969
1882.635742	38352.171875
1881.645508	38109.859375
1880.654297	37936.328125
1879.664063	38511.046875
1878.673828	38413.535156
1877.682617	38190.992188
1876.691406	38113.179688
1875.700195	38368.781250
1874.708984	38820.367188
1873.716797	38421.464844
1872.725586	38556.820313
1871.733398	38430.011719
1870.741211	38178.339844
1869.749023	38343.042969
1868.755859	38211.441406
1867.763672	38429.933594
1866.770508	38814.781250
1865.777344	38426.214844
1864.784180	38654.339844
1863.791016	38574.160156
1862.797852	38623.628906
1861.803711	38418.769531
1860.809570	38927.890625
1859.815430	38600.820313
1858.821289	38726.011719
1857.827148	38809.617188
1856.832031	38744.156250
1855.837891	38803.296875
1854.842773	38877.070313
1853.847656	38648.023438
1852.852539	38546.007813
1851.856445	39107.992188
1850.861328	38783.832031
1849.865234	38640.359375
1848.869141	39087.359375
1847.873047	39134.148438
1846.876953	38951.664063
1845.879883	39095.996094
1844.883789	38903.824219
1843.886719	39138.304688
1842.889648	39007.121094
1841.892578	39297.539063
1840.895508	39110.335938
1839.897461	39291.019531
1838.899414	39181.812500
1837.901367	39493.906250
1836.903320	39635.468750
1835.905273	39645.531250
1834.907227	39380.574219
1833.908203	39439.339844
1832.909180	39524.847656
1831.910156	39571.402344
1830.911133	39613.078125
1829.912109	39584.218750
1828.912109	39740.136719
1827.913086	39947.046875
1826.913086	39915.707031
1825.913086	39665.687500
1824.913086	39928.375000
1823.912109	39539.980469
1822.912109	40179.027344
1821.911133	40196.230469
1820.910156	39837.125000
1819.909180	39509.699219
1818.908203	39900.753906
1817.906250	39930.121094
1816.904297	39976.457031
1815.903320	40122.226563
1814.900391	39974.496094
1813.898438	40163.859375
1812.896484	40425.882813
1811.893555	40416.332031
1810.891602	39999.640625
1809.888672	40198.550781
1808.885742	40256.875000
1807.881836	40358.777344
1806.878906	40315.335938
1805.875000	40133.894531
1804.871094	40134.082031
1803.867188	40560.273438
1802.863281	40710.425781
1801.859375	41085.550781
1800.854492	40604.140625
1799.849609	40838.859375
1798.844727	40323.800781
1797.839844	40667.289063
1796.834961	41056.589844
1795.830078	40544.175781
1794.824219	41027.605469
1793.818359	41068.691406
1792.812500	41191.902344
1791.806641	41498.632813
1790.799805	41566.175781
1789.793945	41462.261719
1788.787109	41404.250000
1787.780273	41252.121094
1786.773438	41474.101563
1785.766602	41819.054688
1784.758789	41490.824219
1783.751953	41707.816406
1782.744141	41869.261719
1781.736328	41676.214844
1780.728516	41702.609375
1779.719727	41801.296875
1778.711914	41813.199219
1777.703125	42123.859375
1776.694336	42073.058594
1775.685547	42284.812500
1774.676758	41749.960938
1773.666992	41607.757813
1772.657227	42503.144531
1771.648438	42315.121094
1770.638672	42257.113281
1769.627930	42341.078125
1768.618164	42833.960938
1767.607422	42884.121094
1766.597656	42573.546875
1765.586914	42782.414063
1764.576172	42844.570313
1763.564453	42498.109375
1762.553711	42778.968750
1761.541992	42557.574219
1760.530273	43251.496094
1759.518555	43332.718750
1758.506836	43517.167969
1757.495117	43711.156250
1756.482422	43537.792969
1755.469727	43515.699219
1754.457031	43774.367188
1753.444336	43694.652344
1752.431641	44106.718750
1751.417969	43703.191406
1750.405273	43697.859375
1749.391602	44318.285156
1748.377930	44418.320313
1747.364258	44189.972656
1746.349609	44347.500000
1745.335938	44047.363281
1744.321289	44463.562500
1743.306641	44779.019531
1742.291992	44598.691406
1741.276367	45052.871094
1740.261719	44760.050781
1739.246094	45352.847656
1738.230469	44964.359375
1737.214844	45317.664063
1736.199219	45663.664063
1735.182617	45734.507813
1734.166992	46269.210938
1733.150391	45907.195313
1732.133789	46080.734375
1731.117188	46586.410156
1730.099609	46745.429688
1729.083008	47035.785156
1728.065430	47161.226563
1727.047852	47255.570313
1726.030273	47815.500000
1725.012695	48172.300781
1723.994141	48142.289063
1722.976563	48432.082031
1721.958008	48588.148438
1720.939453	48865.824219
1719.920898	49198.265625
1718.901367	49404.187500
1717.882813	49335.828125
1716.863281	49358.082031
1715.843750	49766.464844
1714.824219	50212.828125
1713.803711	49791.726563
1712.784180	50276.039063
1711.763672	50517.230469
1710.743164	50298.714844
1709.722656	50151.703125
1708.702148	50133.292969
1707.681641	50464.777344
1706.660156	50888.953125
1705.638672	50380.273438
1704.617188	50751.972656
1703.595703	50574.105469
1702.574219	50684.046875
1701.551758	50484.847656
1700.529297	50485.410156
1699.507813	50581.039063
1698.484375	50883.382813
1697.461914	50860.105469
1696.439453	50846.335938
1695.416016	50758.941406
1694.392578	50942.292969
1693.369141	50710.078125
1692.345703	51126.007813
1691.322266	51223.746094
1690.297852	50856.335938
1689.273438	51063.222656
1688.249023	51879.687500
1687.224609	51702.089844
1686.200195	51621.777344
1685.174805	51769.101563
1684.150391	51738.582031
1683.125000	51971.152344
1682.099609	51824.492188
1681.073242	52163.574219
1680.047852	52353.300781
1679.021484	51853.750000
1677.995117	52682.812500
1676.968750	52439.074219
1675.942383	52512.617188
1674.916016	52910.375000
1673.888672	52666.718750
1672.862305	52905.785156
1671.834961	52617.269531
1670.806641	53151.890625
1669.779297	53336.351563
1668.751953	53206.308594
1667.723633	53400.144531
1666.695313	53452.113281
1665.666992	53934.113281
1664.638672	53546.531250
1663.609375	53855.906250
1662.581055	53848.703125
1661.551758	54172.074219
1660.522461	54304.105469
1659.493164	54247.250000
1658.462891	54643.535156
1657.433594	54669.218750
1656.403320	54131.054688
1655.373047	54468.171875
1654.342773	54767.437500
1653.312500	54861.453125
1652.281250	54858.777344
1651.250977	55127.164063
1650.219727	55155.070313
1649.188477	54973.265625
1648.156250	55100.132813
1647.125000	55625.011719
1646.092773	55582.156250
1645.060547	55605.238281
1644.028320	55837.828125
1642.996094	56284.523438
1641.963867	55841.511719
1640.930664	56088.046875
1639.898438	56656.777344
1638.865234	56183.351563
1637.832031	57010.539063
1636.797852	56864.031250
1635.764648	57103.101563
1634.730469	57320.933594
1633.696289	56899.496094
1632.662109	57667.070313
1631.627930	57626.273438
1630.592773	57627.765625
1629.558594	58033.160156
1628.523438	58102.664063
1627.488281	58463.222656
1626.453125	59070.089844
1625.416992	59566.445313
1624.381836	59642.656250
1623.345703	60305.277344
1622.309570	60561.917969
1621.273438	61507.875000
1620.237305	62073.679688
1619.200195	62590.058594
1618.163086	64156.218750
1617.125977	65253.167969
1616.088867	66534.804688
1615.051758	68017.437500
1614.014648	69907.054688
1612.976563	70618.164063
1611.938477	71518.648438
1610.900391	72437.539063
1609.862305	72813.140625
1608.823242	72205.828125
1607.785156	71252.476563
1606.746094	70912.312500
1605.707031	69349.132813
1604.667969	68443.554688
1603.628906	67211.007813
1602.588867	65679.695313
1601.548828	65319.777344
1600.508789	64371.160156
1599.468750	63397.179688
1598.428711	62916.394531
1597.387695	62961.230469
1596.347656	62326.578125
1595.306641	61559.085938
1594.265625	61718.503906
1593.224609	61259.433594
1592.182617	60975.523438
1591.140625	61218.933594
1590.099609	60802.175781
1589.057617	60924.261719
1588.014648	60612.621094
1586.972656	60625.125000
1585.929688	60989.570313
1584.887695	61223.382813
1583.844727	60741.816406
1582.800781	61460.128906
1581.757813	61397.925781
1580.714844	61338.074219
1579.670898	61308.507813
1578.626953	61849.277344
1577.583008	62340.972656
1576.538086	62276.332031
1575.494141	62779.406250
1574.449219	63149.703125
1573.404297	62940.742188
1572.359375	63001.597656
1571.314453	63536.722656
1570.269531	63478.894531
1569.223633	63474.539063
1568.177734	63800.148438
1567.131836	63056.921875
1566.085938	63122.320313
1565.040039	62523.464844
1563.993164	62284.742188
1562.946289	61902.160156
1561.899414	61645.058594
1560.852539	61211.660156
1559.805664	61240.179688
1558.757813	60716.527344
1557.709961	61090.734375
1556.662109	60657.734375
1555.614258	60612.121094
1554.566406	60677.800781
1553.517578	60574.246094
1552.469727	60802.128906
1551.420898	60439.070313
1550.372070	60583.492188
1549.322266	60535.609375
1548.273438	60114.886719
1547.223633	60564.917969
1546.173828	60769.394531
1545.124023	60536.332031
1544.074219	60507.003906
1543.024414	60891.847656
1541.973633	60651.941406
1540.922852	60606.406250
1539.872070	60567.824219
1538.821289	60688.789063
1537.770508	60365.859375
1536.718750	60119.312500
1535.666992	59669.496094
1534.615234	59603.378906
1533.563477	59839.898438
1532.511719	59794.554688
1531.458984	59472.113281
1530.407227	59403.757813
1529.354492	59291.566406
1528.300781	58720.117188
1527.248047	58843.453125
1526.195313	59068.261719
1525.141602	58843.167969
1524.087891	58832.640625
1523.034180	58762.160156
1521.980469	58184.492188
1520.925781	58065.738281
1519.871094	58110.664063
1518.817383	57982.746094
1517.762695	58198.152344
1516.707031	57558.890625
1515.652344	57645.320313
1514.596680	58090.925781
1513.541016	58214.054688
1512.485352	58097.753906
1511.429688	57804.281250
1510.374023	58355.375000
1509.317383	58340.328125
1508.260742	58553.000000
1507.204102	58296.441406
1506.147461	58228.519531
1505.090820	58236.484375
1504.033203	57987.011719
1502.975586	57992.710938
1501.917969	58382.125000
1500.860352	58164.914063
1499.802734	57729.574219
1498.744141	58477.066406
1497.686523	57598.683594
1496.627930	57992.398438
1495.569336	57782.324219
1494.509766	57980.800781
1493.451172	58142.492188
1492.391602	57739.800781
1491.332031	58172.117188
1490.272461	57519.605469
1489.212891	57789.015625
1488.152344	57744.273438
1487.092773	57488.683594
1486.032227	57554.000000
1484.971680	57960.667969
1483.910156	57679.976563
1482.849609	57791.019531
1481.788086	58060.027344
1480.726563	57628.351563
1479.665039	57595.128906
1478.603516	58273.687500
1477.541992	57304.464844
1476.479492	57417.730469
1475.416992	57894.652344
1474.354492	57703.597656
1473.291992	57958.492188
1472.229492	57948.097656
1471.166016	58264.570313
1470.102539	57755.906250
1469.039063	58319.070313
1467.975586	57929.371094
1466.912109	57964.660156
1465.847656	57931.425781
1464.783203	58003.230469
1463.718750	58312.429688
1462.654297	58792.703125
1461.589844	58807.253906
1460.524414	58878.839844
1459.458984	58738.238281
1458.393555	58848.582031
1457.328125	58717.152344
1456.262695	59406.585938
1455.196289	59350.328125
1454.130859	58772.144531
1453.064453	59420.171875
1451.998047	59370.769531
1450.930664	59701.808594
1449.864258	59335.781250
1448.796875	59744.128906
1447.729492	59940.585938
1446.662109	59472.269531
1445.594727	60278.656250
1444.526367	60242.796875
1443.458008	60468.589844
1442.390625	60719.320313
1441.321289	60949.488281
1440.252930	61620.710938
1439.184570	61334.546875
1438.115234	62178.207031
1437.045898	62128.398438
1435.976563	62805.734375
1434.907227	62837.613281
1433.836914	62615.074219
1432.767578	63737.074219
1431.697266	63269.218750
1430.626953	63605.191406
1429.555664	63736.757813
1428.485352	64290.382813
1427.414063	64385.468750
1426.342773	64010.914063
1425.271484	64158.179688
1424.200195	64768.015625
1423.128906	64930.957031
1422.056641	64907.945313
1420.984375	65252.121094
1419.912109	65290.242188
1418.839844	65337.406250
1417.767578	65171.613281
1416.694336	65275.398438
1415.621094	64806.222656
1414.547852	64921.355469
1413.474609	64135.484375
1412.400391	64397.804688
1411.327148	64422.421875
1410.252930	63890.457031
1409.178711	63740.972656
1408.104492	63392.511719
1407.029297	63702.203125
1405.955078	64093.171875
1404.879883	64343.847656
1403.804688	64723.253906
1402.729492	64618.957031
1401.653320	64910.058594
1400.578125	64453.382813
1399.501953	65162.214844
1398.425781	64624.363281
1397.349609	64671.425781
1396.272461	64923.871094
1395.196289	64932.492188
1394.119141	64568.800781
1393.041992	64839.167969
1391.964844	64899.667969
1390.886719	66173.421875
1389.809570	66454.625000
1388.731445	66172.125000
1387.653320	66257.125000
1386.575195	66729.703125
1385.497070	67157.039063
1384.417969	67521.140625
1383.338867	67400.867188
1382.259766	68174.640625
1381.180664	67385.578125
1380.101563	67022.265625
1379.021484	67777.671875
1377.941406	66815.828125
1376.861328	67411.257813
1375.781250	67187.648438
1374.701172	66889.906250
1373.620117	66783.398438
1372.539063	66544.281250
1371.458008	66201.851563
1370.376953	65585.343750
1369.295898	65422.964844
1368.213867	65606.625000
1367.132813	65307.273438
1366.050781	65295.492188
1364.967773	64845.855469
1363.885742	64912.734375
1362.802734	65325.257813
1361.720703	65360.601563
1360.637695	65382.468750
1359.554688	65402.078125
1358.470703	65190.652344
1357.387695	65385.207031
1356.303711	64839.765625
1355.219727	64702.523438
1354.135742	64247.050781
1353.050781	64753.121094
1351.966797	64089.425781
1350.881836	63605.183594
1349.796875	63244.296875
1348.711914	63208.246094
1347.626953	63514.765625
1346.541016	63183.187500
1345.455078	63297.113281
1344.369141	62659.117188
1343.283203	62871.535156
1342.197266	62853.468750
1341.110352	62625.175781
1340.023438	62470.750000
1338.936523	62678.570313
1337.849609	62863.957031
1336.762695	62988.929688
1335.674805	62988.722656
1334.586914	62917.023438
1333.499023	62791.734375
1332.411133	63439.214844
1331.323242	63472.410156
1330.234375	63244.386719
1329.145508	63244.121094
1328.056641	63480.406250
1326.967773	63212.335938
1325.878906	64046.414063
1324.789063	64616.992188
1323.699219	63809.175781
1322.609375	64326.074219
1321.519531	64347.882813
1320.429688	65024.968750
1319.338867	64723.511719
1318.248047	65774.593750
1317.157227	66177.046875
1316.066406	66398.937500
1314.975586	67589.429688
1313.883789	67806.531250
1312.791992	67480.398438
1311.700195	67621.757813
1310.608398	67760.843750
1309.516602	67194.601563
1308.423828	67235.828125
1307.331055	67065.757813
1306.238281	66213.093750
1305.145508	66741.359375
1304.051758	66284.710938
1302.958984	65886.015625
1301.865234	65842.984375
1300.771484	66295.390625
1299.677734	66505.507813
1298.583008	67095.312500
1297.489258	67807.023438
1296.394531	68045.609375
1295.299805	68162.031250
1294.204102	68759.968750
1293.109375	68787.460938
1292.013672	68557.601563
1290.917969	69088.601563
1289.822266	68124.734375
1288.726563	67970.500000
1287.630859	67627.882813
1286.534180	66917.468750
1285.437500	66608.406250
1284.340820	66148.789063
1283.244141	66404.843750
1282.146484	66124.828125
1281.048828	65557.031250
1279.951172	65985.742188
1278.853516	65433.667969
1277.755859	65167.296875
1276.658203	64878.890625
1275.559570	64884.832031
1274.460938	64105.511719
1273.362305	64374.765625
1272.262695	64073.433594
1271.164063	63827.476563
1270.064453	63532.976563
1268.964844	63784.445313
1267.865234	63129.894531
1266.765625	63255.417969
1265.665039	62291.964844
1264.564453	63073.476563
1263.463867	62560.828125
1262.363281	62476.632813
1261.262695	62346.117188
1260.161133	62021.445313
1259.059570	62122.722656
1257.958008	61582.019531
1256.856445	62060.484375
1255.754883	61645.679688
1254.652344	61391.972656
1253.549805	60664.410156
1252.447266	61519.566406
1251.344727	60847.328125
1250.242188	61334.207031
1249.138672	61041.121094
1248.035156	61278.910156
1246.931641	60629.214844
1245.828125	60466.300781
1244.724609	60285.835938
1243.620117	60853.695313
1242.515625	61280.523438
1241.411133	60492.808594
1240.306641	60884.347656
1239.201172	61262.546875
1238.096680	60723.714844
1236.991211	60769.847656
1235.885742	60651.109375
1234.779297	60813.703125
1233.673828	60552.179688
1232.567383	60940.996094
1231.460938	60424.757813
1230.354492	60047.054688
1229.248047	60815.578125
1228.140625	60516.960938
1227.033203	60554.250000
1225.926758	60920.683594
1224.818359	60968.851563
1223.710938	60808.609375
1222.602539	61065.125000
1221.495117	60527.757813
1220.386719	60501.410156
1219.278320	60915.660156
1218.168945	60523.250000
1217.060547	60652.484375
1215.951172	60352.273438
1214.841797	59813.414063
1213.731445	60161.699219
1212.622070	59780.718750
1211.511719	59666.953125
1210.402344	59719.578125
1209.291992	60113.574219
1208.180664	60437.410156
1207.070313	60513.921875
1205.958984	60056.722656
1204.847656	60362.886719
1203.736328	60738.906250
1202.625000	60708.179688
1201.512695	60362.734375
1200.401367	61026.988281
1199.289063	60932.863281
1198.176758	61103.082031
1197.063477	61502.562500
1195.951172	61818.917969
1194.837891	61803.300781
1193.724609	61981.960938
1192.611328	61865.921875
1191.498047	61370.242188
1190.383789	61895.757813
1189.269531	61912.847656
1188.155273	61500.296875
1187.041016	61192.558594
1185.926758	60967.769531
1184.811523	61307.593750
1183.696289	60845.320313
1182.581055	61126.210938
1181.465820	60829.695313
1180.350586	60820.796875
1179.234375	60522.261719
1178.118164	61273.289063
1177.001953	60389.195313
1175.885742	60574.078125
1174.768555	60674.023438
1173.652344	60219.125000
1172.535156	60421.332031
1171.417969	60166.734375
1170.299805	59940.492188
