#Wave		#Intensity
2001.221680	36875.839844
2000.251953	37038.761719
1999.282227	36899.476563
1998.312500	36652.492188
1997.342773	36603.507813
1996.372070	36684.781250
1995.402344	36518.101563
1994.431641	36919.859375
1993.460938	37158.750000
1992.490234	36947.015625
1991.518555	36455.062500
1990.547852	36844.035156
1989.576172	36735.027344
1988.604492	36951.226563
1987.632813	37047.304688
1986.661133	37190.859375
1985.689453	36996.867188
1984.716797	37225.355469
1983.745117	36901.468750
1982.772461	37027.453125
1981.799805	37188.363281
1980.827148	36909.609375
1979.853516	36963.093750
1978.880859	37545.902344
1977.907227	37289.695313
1976.933594	36923.750000
1975.959961	37134.414063
1974.986328	36920.828125
1974.011719	37146.382813
1973.038086	37346.914063
1972.063477	36896.480469
1971.088867	37279.003906
1970.114258	36893.554688
1969.138672	37298.375000
1968.164063	37638.257813
1967.188477	37235.500000
1966.212891	36994.812500
1965.237305	37205.042969
1964.261719	37081.492188
1963.286133	37127.292969
1962.309570	37267.679688
1961.333984	37452.820313
1960.357422	37291.976563
1959.380859	37258.082031
1958.404297	37520.242188
1957.426758	37307.230469
1956.450195	37216.152344
1955.472656	37383.691406
1954.495117	37536.253906
1953.517578	37206.562500
1952.540039	37438.625000
1951.561523	37268.085938
1950.583008	37298.828125
1949.605469	37602.777344
1948.626953	37320.539063
1947.647461	37381.046875
1946.668945	37123.769531
1945.690430	37544.191406
1944.710938	36944.503906
1943.731445	37414.433594
1942.751953	37494.710938
1941.772461	37632.007813
1940.791992	37489.023438
1939.812500	37274.179688
1938.832031	37431.273438
1937.851563	37253.691406
1936.871094	37512.335938
1935.890625	37307.546875
1934.909180	37486.812500
1933.928711	37381.167969
1932.947266	37510.828125
1931.965820	37269.035156
1930.984375	37713.062500
1930.002930	37889.617188
1929.020508	37818.636719
1928.038086	37267.667969
1927.056641	37666.851563
1926.074219	37568.734375
1925.090820	37527.531250
1924.108398	37575.351563
1923.125000	37338.859375
1922.142578	37752.503906
1921.159180	37496.289063
1920.175781	37726.917969
1919.191406	37569.609375
1918.208008	37229.582031
1917.223633	37716.960938
1916.240234	37512.820313
1915.255859	37844.449219
1914.271484	37578.652344
1913.286133	37759.617188
1912.301758	37711.050781
1911.316406	37539.152344
1910.331055	37794.019531
1909.345703	37614.769531
1908.360352	37561.324219
1907.375000	37692.789063
1906.388672	37548.148438
1905.402344	37718.996094
1904.416016	37559.617188
1903.429688	37809.230469
1902.443359	37455.308594
1901.457031	37887.082031
1900.469727	37661.300781
1899.482422	37374.058594
1898.495117	37785.921875
1897.507813	37651.324219
1896.520508	37730.832031
1895.532227	37591.371094
1894.543945	37720.050781
1893.556641	38030.660156
1892.568359	37694.519531
1891.579102	37668.238281
1890.590820	37794.347656
1889.601563	37492.824219
1888.613281	37810.566406
1887.624023	37914.472656
1886.634766	37777.640625
1885.644531	37518.070313
1884.655273	37432.914063
1883.665039	37622.730469
1882.674805	37724.117188
1881.684570	37791.109375
1880.694336	37519.492188
1879.704102	37900.492188
1878.712891	37739.316406
1877.722656	37801.351563
1876.731445	37593.664063
1875.740234	37927.800781
1874.748047	37487.320313
1873.756836	37510.140625
1872.764648	37849.015625
1871.773438	37641.492188
1870.781250	37963.074219
1869.788086	37723.769531
1868.795898	37913.007813
1867.803711	37967.542969
1866.810547	38244.781250
1865.817383	37846.527344
1864.824219	38079.648438
1863.831055	38126.773438
1862.837891	37939.082031
1861.843750	37983.765625
1860.849609	37950.195313
1859.855469	38141.527344
1858.861328	38186.144531
1857.867188	38460.449219
1856.872070	37862.429688
1855.877930	38126.921875
1854.882813	38315.605469
1853.887695	38272.238281
1852.892578	38477.917969
1851.896484	38356.417969
1850.901367	38252.046875
1849.905273	38147.710938
1848.909180	38311.785156
1847.913086	38385.542969
1846.916992	37912.957031
1845.919922	38240.359375
1844.923828	38587.152344
1843.926758	38558.421875
1842.929688	38373.722656
1841.932617	38929.863281
1840.935547	38296.875000
1839.937500	38394.878906
1838.939453	39089.542969
1837.942383	38914.640625
1836.943359	38885.882813
1835.945313	38883.906250
1834.947266	38409.777344
1833.948242	39013.785156
1832.949219	38739.292969
1831.951172	38725.175781
1830.951172	38820.503906
1829.952148	38757.742188
1828.953125	39434.085938
1827.953125	38712.492188
1826.953125	39349.718750
1825.953125	39029.328125
1824.953125	39331.000000
1823.952148	39180.757813
1822.952148	39142.285156
1821.951172	39132.960938
1820.950195	39155.203125
1819.949219	39175.003906
1818.948242	39248.191406
1817.946289	39634.367188
1816.945313	39251.343750
1815.943359	39200.765625
1814.941406	39623.121094
1813.939453	39407.609375
1812.936523	39398.238281
1811.934570	39464.015625
1810.931641	39236.519531
1809.928711	39597.910156
1808.925781	39372.894531
1807.921875	39792.265625
1806.918945	39388.074219
1805.915039	39843.613281
1804.912109	39371.765625
1803.908203	39488.273438
1802.903320	39544.230469
1801.899414	40011.511719
1800.894531	39922.203125
1799.890625	39898.230469
1798.885742	39518.765625
1797.880859	40138.042969
1796.875000	39966.574219
1795.870117	39674.304688
1794.864258	40307.726563
1793.858398	39928.511719
1792.852539	39911.804688
1791.846680	40020.703125
1790.840820	40081.261719
1789.833984	40006.582031
1788.828125	39564.984375
1787.821289	40185.562500
1786.814453	40388.425781
1785.806641	40292.023438
1784.799805	40325.921875
1783.791992	40591.359375
1782.784180	39966.835938
1781.776367	40427.539063
1780.768555	40524.066406
1779.760742	40403.628906
1778.751953	41006.191406
1777.743164	40755.597656
1776.735352	40644.812500
1775.725586	40806.238281
1774.716797	40449.851563
1773.708008	40777.382813
1772.698242	41357.566406
1771.688477	41015.703125
1770.678711	40775.035156
1769.668945	40618.656250
1768.659180	40871.289063
1767.648438	40866.476563
1766.637695	40972.281250
1765.626953	41320.882813
1764.616211	41467.433594
1763.605469	41241.390625
1762.593750	41279.761719
1761.583008	41582.406250
1760.571289	41575.058594
1759.559570	41538.890625
1758.547852	41454.707031
1757.535156	41845.933594
1756.523438	41939.359375
1755.510742	41737.542969
1754.498047	42358.875000
1753.485352	42123.460938
1752.472656	41864.136719
1751.458984	42070.195313
1750.445313	42086.734375
1749.432617	42561.199219
1748.417969	42488.953125
1747.404297	42423.917969
1746.390625	42739.914063
1745.375977	42392.144531
1744.361328	42691.261719
1743.346680	42671.738281
1742.332031	42712.082031
1741.317383	42929.578125
1740.302734	42859.746094
1739.287109	43596.484375
1738.271484	43103.015625
1737.255859	43765.277344
1736.240234	43575.738281
1735.223633	44495.976563
1734.208008	44514.406250
1733.191406	44391.773438
1732.174805	44307.425781
1731.158203	44861.214844
1730.140625	44967.972656
1729.124023	45490.386719
1728.106445	45126.425781
1727.088867	45911.332031
1726.071289	45726.507813
1725.053711	46429.851563
1724.035156	46039.718750
1723.017578	46673.546875
1721.999023	46457.691406
1720.980469	46943.304688
1719.961914	46748.937500
1718.942383	47179.472656
1717.923828	46665.621094
1716.904297	47270.042969
1715.884766	47526.250000
1714.865234	47181.804688
1713.844727	47302.117188
1712.825195	47381.882813
1711.804688	47273.449219
1710.784180	47062.648438
1709.763672	47492.425781
1708.743164	47222.140625
1707.722656	46754.394531
1706.701172	46988.847656
1705.679688	47249.390625
1704.658203	47055.457031
1703.636719	46657.042969
1702.615234	47093.476563
1701.592773	46333.785156
1700.571289	46401.644531
1699.548828	46265.070313
1698.526367	46228.351563
1697.502930	46719.113281
1696.480469	46406.757813
1695.457031	46474.535156
1694.433594	46354.683594
1693.410156	46230.121094
1692.386719	46179.195313
1691.363281	46118.789063
1690.338867	46388.253906
1689.314453	46557.976563
1688.290039	46400.269531
1687.265625	46297.167969
1686.241211	46473.921875
1685.215820	46330.531250
1684.191406	46556.996094
1683.166016	46821.296875
1682.140625	46739.531250
1681.115234	46837.851563
1680.088867	47248.828125
1679.062500	47808.863281
1678.037109	47222.585938
1677.010742	47311.277344
1675.983398	47324.183594
1674.957031	47266.085938
1673.930664	47404.406250
1672.903320	47351.039063
1671.875977	47046.949219
1670.848633	48150.171875
1669.820313	47671.062500
1668.792969	47698.062500
1667.764648	47739.234375
1666.736328	48165.617188
1665.708008	47899.503906
1664.679688	48030.386719
1663.651367	48310.035156
1662.622070	48399.632813
1661.592773	48489.234375
1660.563477	48578.832031
1659.534180	48668.433594
1658.504883	48758.031250
1657.474609	48699.816406
1656.444336	48323.132813
1655.415039	48642.414063
1654.383789	48537.082031
1653.353516	48849.132813
1652.323242	48807.449219
1651.291992	49029.769531
1650.260742	49513.601563
1649.229492	49271.531250
1648.198242	49463.019531
1647.166016	49510.757813
1646.134766	49664.453125
1645.102539	49954.656250
1644.070313	49936.359375
1643.038086	50450.007813
1642.004883	49984.496094
1640.972656	50323.839844
1639.939453	50470.152344
1638.906250	50381.210938
1637.873047	50553.328125
1636.839844	50859.402344
1635.805664	51134.804688
1634.772461	51229.125000
1633.738281	51182.414063
1632.704102	51022.937500
1631.668945	51955.867188
1630.634766	52385.835938
1629.599609	52021.921875
1628.565430	52346.066406
1627.530273	52611.406250
1626.494141	53282.687500
1625.458984	53521.949219
1624.422852	54138.863281
1623.387695	54394.304688
1622.351563	55006.148438
1621.315430	56173.527344
1620.278320	56723.875000
1619.242188	58162.449219
1618.205078	59783.316406
1617.167969	60991.187500
1616.130859	62772.625000
1615.093750	64696.320313
1614.055664	66488.171875
1613.018555	68199.765625
1611.980469	69070.257813
1610.942383	69259.265625
1609.904297	69242.250000
1608.865234	69468.593750
1607.827148	67832.578125
1606.788086	66309.429688
1605.749023	64440.683594
1604.709961	62663.796875
1603.669922	61752.554688
1602.630859	60780.855469
1601.590820	59236.929688
1600.550781	58380.519531
1599.510742	58255.640625
1598.470703	57077.367188
1597.429688	56359.578125
1596.389648	56106.699219
1595.348633	55977.636719
1594.307617	55059.683594
1593.265625	54725.484375
1592.224609	54498.734375
1591.182617	54169.414063
1590.140625	54103.777344
1589.098633	53942.550781
1588.056641	53872.312500
1587.014648	53219.289063
1585.971680	53198.148438
1584.928711	53314.500000
1583.886719	52936.859375
1582.842773	52834.238281
1581.799805	52610.531250
1580.755859	52715.257813
1579.712891	53097.011719
1578.668945	52081.890625
1577.625000	52540.421875
1576.580078	52379.789063
1575.536133	52147.085938
1574.491211	52468.109375
1573.446289	52842.507813
1572.401367	52179.640625
1571.356445	52391.203125
1570.311523	52442.292969
1569.265625	52174.953125
1568.219727	52418.925781
1567.173828	52435.128906
1566.127930	52158.632813
1565.082031	51577.988281
1564.035156	51540.917969
1562.988281	51118.460938
1561.941406	51561.976563
1560.894531	51311.406250
1559.847656	51705.996094
1558.799805	51699.082031
1557.751953	51648.097656
1556.704102	51824.410156
1555.656250	51924.136719
1554.608398	51894.000000
1553.560547	51734.062500
1552.511719	51773.492188
1551.462891	51942.660156
1550.414063	52026.050781
1549.365234	52468.429688
1548.315430	52364.105469
1547.265625	52185.722656
1546.216797	51984.250000
1545.166992	52289.750000
1544.116211	52706.218750
1543.066406	52217.843750
1542.015625	52287.167969
1540.965820	52222.312500
1539.915039	52268.480469
1538.863281	52155.089844
1537.812500	52256.730469
1536.760742	51535.500000
1535.709961	51785.109375
1534.658203	51708.847656
1533.605469	51803.554688
1532.553711	51311.574219
1531.501953	51427.097656
1530.449219	51085.425781
1529.396484	50686.167969
1528.343750	51314.113281
1527.290039	50668.039063
1526.237305	50273.675781
1525.183594	50391.554688
1524.129883	50716.964844
1523.076172	50278.984375
1522.022461	50797.957031
1520.968750	50443.101563
1519.914063	50533.175781
1518.859375	50266.054688
1517.804688	49671.871094
1516.750000	49978.558594
1515.694336	49409.968750
1514.639648	50006.722656
1513.583984	49944.824219
1512.528320	49965.804688
1511.472656	50265.253906
1510.416016	49929.511719
1509.360352	49899.867188
1508.303711	49999.042969
1507.247070	50095.878906
1506.190430	49978.839844
1505.132813	50312.433594
1504.076172	50422.949219
1503.018555	50053.113281
1501.960938	49823.570313
1500.903320	50145.457031
1499.844727	50203.085938
1498.787109	50138.976563
1497.728516	50281.539063
1496.669922	50169.226563
1495.611328	49742.503906
1494.552734	50080.113281
1493.493164	49747.625000
1492.434570	49674.480469
1491.375000	49530.257813
1490.315430	50147.421875
1489.254883	49468.941406
1488.195313	49952.937500
1487.134766	50005.867188
1486.074219	49515.679688
1485.013672	49866.511719
1483.953125	50036.250000
1482.892578	49944.828125
1481.831055	50041.207031
1480.769531	50219.976563
1479.708008	49950.015625
1478.646484	50131.019531
1477.583984	49630.054688
1476.522461	49493.035156
1475.459961	50069.742188
1474.397461	50111.078125
1473.334961	50541.121094
1472.271484	50095.390625
1471.208984	50582.421875
1470.145508	49951.722656
1469.082031	50232.953125
1468.018555	50870.472656
1466.954102	50797.390625
1465.890625	50272.148438
1464.826172	51041.746094
1463.761719	51080.527344
1462.697266	50868.218750
1461.631836	51546.003906
1460.567383	51269.792969
1459.501953	51283.402344
1458.436523	51436.140625
1457.371094	51360.773438
1456.305664	51830.367188
1455.239258	51299.023438
1454.172852	51704.632813
1453.107422	51743.207031
1452.040039	51720.246094
1450.973633	51972.929688
1449.907227	51993.207031
1448.839844	51612.683594
1447.772461	51828.816406
1446.705078	52386.328125
1445.637695	52445.195313
1444.569336	51725.800781
1443.500977	52226.144531
1442.432617	52394.191406
1441.364258	52691.812500
1440.295898	52741.468750
1439.227539	53248.082031
1438.158203	53713.593750
1437.088867	53469.851563
1436.019531	53837.445313
1434.950195	54286.691406
1433.879883	54529.066406
1432.810547	54639.632813
1431.740234	54452.699219
1430.669922	54908.312500
1429.598633	55059.601563
1428.528320	55496.781250
1427.457031	55305.281250
1426.386719	55771.750000
1425.314453	55936.375000
1424.243164	56153.093750
1423.171875	56086.312500
1422.099609	56475.214844
1421.027344	56537.589844
1419.955078	56176.164063
1418.882813	56322.398438
1417.810547	56323.593750
1416.737305	56580.726563
1415.664063	56593.191406
1414.590820	55983.015625
1413.517578	56083.863281
1412.444336	55892.707031
1411.370117	55156.257813
1410.295898	55200.628906
1409.221680	55369.402344
1408.147461	55377.531250
1407.073242	55008.019531
1405.998047	55242.292969
1404.922852	55458.398438
1403.847656	55328.632813
1402.772461	55293.816406
1401.697266	55887.082031
1400.621094	55418.472656
1399.544922	55801.464844
1398.468750	56211.410156
1397.392578	56266.757813
1396.316406	56626.808594
1395.239258	57144.707031
1394.162109	57576.667969
1393.084961	58044.570313
1392.007813	58582.222656
1390.930664	58828.761719
1389.852539	59307.453125
1388.774414	60162.449219
1387.696289	60428.847656
1386.618164	60285.000000
1385.540039	60702.234375
1384.460938	60085.308594
1383.382813	60678.109375
1382.303711	61345.007813
1381.223633	61228.128906
1380.144531	60640.804688
1379.064453	60692.894531
1377.985352	60807.972656
1376.905273	61103.000000
1375.825195	60846.789063
1374.744141	60484.960938
1373.664063	60615.722656
1372.583008	60980.257813
1371.501953	60324.121094
1370.420898	59922.179688
1369.338867	59799.019531
1368.257813	59338.902344
1367.175781	59532.613281
1366.093750	59688.066406
1365.011719	60018.609375
1363.929688	60434.339844
1362.846680	60010.425781
1361.763672	60080.390625
1360.680664	60578.902344
1359.597656	60684.628906
1358.514648	60644.519531
1357.430664	60606.667969
1356.346680	59927.550781
1355.262695	59867.414063
1354.178711	59708.679688
1353.094727	58613.261719
1352.009766	58537.703125
1350.925781	58045.496094
1349.840820	57743.847656
1348.755859	57368.402344
1347.669922	57131.910156
1346.584961	57229.046875
1345.499023	56867.320313
1344.413086	56866.003906
1343.327148	56721.492188
1342.240234	56512.160156
1341.154297	56841.910156
1340.067383	57202.843750
1338.980469	56425.652344
1337.893555	56674.757813
1336.805664	56997.527344
1335.718750	56475.523438
1334.630859	56829.480469
1333.542969	56810.281250
1332.455078	56880.414063
1331.367188	56872.371094
1330.278320	57190.273438
1329.189453	57499.128906
1328.100586	57477.578125
1327.011719	57864.363281
1325.922852	57891.828125
1324.833008	58398.839844
1323.743164	58789.699219
1322.653320	59630.812500
1321.563477	59887.546875
1320.473633	60560.988281
1319.382813	61862.613281
1318.291992	62842.921875
1317.201172	63622.382813
1316.110352	64488.421875
1315.019531	65325.195313
1313.927734	65847.734375
1312.835938	66029.492188
1311.744141	66745.335938
1310.652344	66074.585938
1309.560547	65849.046875
1308.467773	65341.082031
1307.375000	64221.683594
1306.282227	63442.906250
1305.189453	63355.835938
1304.095703	61903.968750
1303.002930	61670.523438
1301.909180	61603.812500
1300.815430	60481.843750
1299.721680	60697.460938
1298.626953	60557.667969
1297.533203	60697.695313
1296.438477	60631.207031
1295.343750	60618.011719
1294.248047	60744.628906
1293.153320	61139.675781
1292.057617	61035.429688
1290.961914	61050.996094
1289.866211	61377.015625
1288.770508	61425.765625
1287.674805	61820.320313
1286.578125	62006.382813
1285.481445	61478.820313
1284.384766	61766.792969
1283.288086	60966.988281
1282.190430	61677.972656
1281.092773	61604.792969
1279.996094	60991.421875
1278.897461	61144.179688
1277.799805	60440.367188
1276.702148	60254.601563
1275.603516	60015.804688
1274.504883	60024.835938
1273.406250	59487.597656
1272.307617	59432.589844
1271.208008	59439.503906
1270.108398	59408.835938
1269.008789	59020.156250
1267.909180	59013.875000
1266.809570	58519.363281
1265.708984	58700.917969
1264.609375	58555.562500
1263.508789	58350.640625
1262.407227	58242.925781
1261.306641	58033.714844
1260.206055	57851.058594
1259.104492	58142.839844
1258.002930	57580.796875
1256.901367	57310.089844
1255.798828	57065.945313
1254.697266	57240.792969
1253.594727	56743.238281
1252.492188	56944.527344
1251.389648	56881.308594
1250.286133	57126.554688
1249.183594	56464.164063
1248.080078	56372.425781
1246.976563	56434.859375
1245.872070	56710.824219
1244.768555	56462.800781
1243.664063	56582.398438
1242.560547	57071.617188
1241.455078	56975.457031
1240.350586	56980.507813
1239.246094	57150.496094
1238.140625	56992.800781
1237.035156	56839.554688
1235.929688	56980.894531
1234.824219	57308.976563
1233.717773	56925.042969
1232.612305	56622.531250
1231.505859	56559.531250
1230.399414	56547.062500
1229.291992	56528.007813
1228.185547	56785.550781
1227.078125	56531.613281
1225.970703	56258.011719
1224.863281	56096.402344
1223.755859	56092.789063
1222.647461	55812.832031
1221.539063	56201.781250
1220.430664	56049.058594
1219.322266	55876.660156
1218.213867	55636.386719
1217.104492	56110.531250
1215.995117	55557.007813
1214.885742	55822.898438
1213.776367	55733.910156
1212.666992	55837.636719
1211.556641	55788.078125
1210.446289	55749.476563
1209.335938	55868.457031
1208.225586	55906.433594
1207.115234	56115.027344
1206.003906	55969.214844
1204.892578	56265.191406
1203.781250	56845.292969
1202.669922	56452.394531
1201.557617	56621.347656
1200.446289	56718.125000
1199.333984	56974.355469
1198.221680	57195.542969
1197.108398	57065.011719
1195.996094	57255.523438
1194.882813	57371.730469
1193.769531	57603.585938
1192.656250	57492.710938
1191.542969	57689.539063
1190.428711	57223.070313
1189.314453	56990.164063
1188.200195	56776.964844
1187.085938	56858.207031
1185.971680	56366.058594
1184.856445	56652.230469
1183.741211	56596.148438
1182.625977	56594.558594
1181.510742	56706.246094
1180.395508	56654.535156
1179.279297	57014.425781
1178.163086	57014.925781
1177.046875	56571.335938
1175.930664	56182.316406
1174.813477	56650.828125
1173.697266	56316.324219
1172.580078	56591.031250
1171.462891	56482.847656
1170.344727	56372.523438
