#Wave		#Intensity
2001.248047	34925.937500
2000.278320	35550.062500
1999.308594	35583.957031
1998.338867	35294.605469
1997.369141	35210.781250
1996.398438	35412.531250
1995.428711	35351.253906
1994.458008	35565.421875
1993.487305	35454.066406
1992.516602	35560.511719
1991.545898	35922.183594
1990.574219	35638.171875
1989.603516	35634.449219
1988.631836	35663.242188
1987.660156	35339.406250
1986.688477	35230.718750
1985.715820	35234.562500
1984.744141	35595.839844
1983.771484	35579.625000
1982.798828	35540.925781
1981.826172	35344.851563
1980.853516	35778.285156
1979.880859	35577.242188
1978.907227	35456.167969
1977.933594	35637.207031
1976.959961	35655.937500
1975.986328	35959.164063
1975.012695	35965.355469
1974.039063	35732.046875
1973.064453	35880.449219
1972.089844	35814.324219
1971.115234	35523.812500
1970.140625	35849.167969
1969.166016	35449.078125
1968.190430	35898.937500
1967.215820	35902.628906
1966.240234	36003.472656
1965.264648	35845.238281
1964.289063	35843.953125
1963.312500	35733.105469
1962.336914	36179.945313
1961.360352	36066.589844
1960.383789	35910.960938
1959.407227	35854.917969
1958.430664	35856.109375
1957.454102	35979.175781
1956.476563	36045.003906
1955.499023	36073.507813
1954.521484	36231.273438
1953.543945	35867.007813
1952.566406	35987.476563
1951.587891	36286.800781
1950.610352	35950.039063
1949.631836	35889.105469
1948.653320	36138.613281
1947.674805	36231.609375
1946.696289	36081.281250
1945.716797	36328.140625
1944.737305	36023.980469
1943.758789	36439.484375
1942.779297	36098.195313
1941.798828	36558.187500
1940.819336	36269.074219
1939.838867	36064.363281
1938.859375	35996.070313
1937.878906	36222.757813
1936.898438	36501.410156
1935.916992	36172.906250
1934.936523	36109.593750
1933.955078	36323.710938
1932.974609	36391.644531
1931.993164	35939.585938
1931.010742	37010.175781
1930.029297	36478.957031
1929.047852	36358.726563
1928.065430	36495.867188
1927.083008	36170.343750
1926.100586	36136.800781
1925.118164	36365.402344
1924.135742	36242.820313
1923.152344	36441.656250
1922.168945	36296.855469
1921.185547	36181.757813
1920.202148	36382.964844
1919.218750	36791.617188
1918.235352	36451.722656
1917.250977	36553.992188
1916.266602	36273.511719
1915.282227	36291.839844
1914.297852	36623.625000
1913.313477	36501.218750
1912.328125	36275.222656
1911.343750	36429.214844
1910.358398	36398.160156
1909.373047	36357.253906
1908.387695	36920.437500
1907.401367	36862.195313
1906.416016	36727.562500
1905.429688	36723.582031
1904.443359	36547.132813
1903.457031	36784.605469
1902.470703	36901.304688
1901.483398	36343.207031
1900.497070	36592.898438
1899.509766	36352.609375
1898.522461	37092.011719
1897.535156	36652.386719
1896.546875	36842.792969
1895.559570	36804.347656
1894.571289	36810.183594
1893.583008	36899.632813
1892.594727	36843.980469
1891.606445	36869.472656
1890.618164	36681.117188
1889.628906	37392.250000
1888.639648	36339.003906
1887.650391	36654.433594
1886.661133	36729.050781
1885.671875	36862.578125
1884.682617	36632.675781
1883.692383	36393.035156
1882.702148	36936.429688
1881.711914	36679.640625
1880.721680	36859.667969
1879.731445	37027.363281
1878.740234	36672.578125
1877.749023	36521.457031
1876.757813	36735.703125
1875.766602	36773.375000
1874.775391	36423.781250
1873.784180	36917.292969
1872.791992	36611.894531
1871.799805	36531.968750
1870.807617	36804.765625
1869.815430	37146.027344
1868.823242	37085.636719
1867.830078	36875.941406
1866.837891	36683.449219
1865.844727	36963.308594
1864.851563	36832.035156
1863.858398	37070.183594
1862.864258	36858.218750
1861.871094	36854.187500
1860.876953	36789.027344
1859.882813	37176.125000
1858.888672	36663.664063
1857.894531	37360.992188
1856.899414	37100.328125
1855.905273	37059.605469
1854.910156	36940.738281
1853.915039	37241.925781
1852.919922	37193.871094
1851.923828	37199.535156
1850.928711	37241.804688
1849.932617	37528.078125
1848.936523	37572.714844
1847.940430	37207.519531
1846.944336	37230.242188
1845.947266	37657.742188
1844.951172	37478.015625
1843.954102	37422.667969
1842.957031	37720.734375
1841.959961	37711.660156
1840.962891	37839.023438
1839.964844	37734.925781
1838.966797	38013.238281
1837.969727	37996.808594
1836.970703	37985.250000
1835.972656	37990.734375
1834.974609	38210.390625
1833.975586	38227.996094
1832.976563	38072.859375
1831.978516	38418.867188
1830.978516	38492.363281
1829.979492	38621.757813
1828.980469	38148.164063
1827.980469	38241.109375
1826.980469	38392.347656
1825.980469	38847.273438
1824.980469	38551.320313
1823.979492	38887.027344
1822.979492	38277.875000
1821.978516	39019.023438
1820.977539	38932.031250
1819.976563	39201.894531
1818.975586	38869.777344
1817.973633	39105.582031
1816.972656	38814.839844
1815.970703	39467.777344
1814.968750	39371.089844
1813.966797	38910.714844
1812.963867	38983.863281
1811.961914	39662.964844
1810.958984	39331.226563
1809.956055	39169.214844
1808.953125	39016.953125
1807.950195	39504.210938
1806.946289	39397.953125
1805.943359	39499.968750
1804.939453	39703.628906
1803.935547	39892.691406
1802.930664	40163.968750
1801.926758	39798.773438
1800.922852	40173.996094
1799.917969	39905.679688
1798.913086	39920.406250
1797.908203	39937.546875
1796.903320	39688.750000
1795.897461	40128.914063
1794.891602	40566.503906
1793.886719	40315.308594
1792.880859	40426.570313
1791.874023	40231.039063
1790.868164	40093.531250
1789.862305	40204.769531
1788.855469	40364.250000
1787.848633	40680.562500
1786.841797	40610.640625
1785.833984	40531.089844
1784.827148	40634.906250
1783.819336	40798.988281
1782.812500	40608.507813
1781.804688	41254.757813
1780.795898	40977.476563
1779.788086	40975.062500
1778.779297	40917.222656
1777.771484	40950.957031
1776.762695	41468.894531
1775.753906	41695.207031
1774.744141	41389.230469
1773.735352	41521.574219
1772.725586	41182.031250
1771.715820	41733.156250
1770.706055	41831.671875
1769.696289	41294.953125
1768.686523	41525.816406
1767.675781	42033.191406
1766.666016	42196.503906
1765.655273	41734.628906
1764.644531	42530.164063
1763.632813	42202.988281
1762.622070	42039.332031
1761.610352	43096.273438
1760.598633	42882.066406
1759.586914	42876.890625
1758.575195	42809.281250
1757.563477	42760.898438
1756.550781	43139.824219
1755.538086	43161.000000
1754.525391	43491.726563
1753.512695	43666.382813
1752.500000	43574.703125
1751.486328	43876.394531
1750.473633	43731.953125
1749.459961	44115.023438
1748.446289	43786.007813
1747.432617	44353.472656
1746.417969	44271.347656
1745.404297	44198.828125
1744.389648	44131.125000
1743.375000	44374.796875
1742.360352	44575.277344
1741.344727	44445.289063
1740.330078	44540.359375
1739.314453	44860.367188
1738.298828	44895.500000
1737.283203	45308.632813
1736.267578	45530.253906
1735.251953	45388.265625
1734.235352	45719.785156
1733.218750	45776.246094
1732.202148	46344.222656
1731.185547	46840.296875
1730.168945	46605.003906
1729.151367	46357.847656
1728.133789	46817.820313
1727.117188	46776.097656
1726.098633	47493.714844
1725.081055	47867.289063
1724.063477	47682.179688
1723.044922	48131.953125
1722.026367	48300.003906
1721.007813	48346.324219
1719.989258	48669.316406
1718.970703	48703.625000
1717.951172	49167.121094
1716.931641	49201.324219
1715.912109	49805.195313
1714.892578	49279.226563
1713.873047	49356.273438
1712.853516	49771.585938
1711.833008	49429.300781
1710.812500	49408.636719
1709.791992	49804.664063
1708.771484	49607.769531
1707.750000	49894.128906
1706.729492	49290.335938
1705.708008	49974.000000
1704.686523	49658.261719
1703.665039	49570.968750
1702.642578	49517.000000
1701.621094	49833.964844
1700.598633	50243.531250
1699.576172	50020.707031
1698.553711	49683.894531
1697.531250	49917.437500
1696.507813	49808.816406
1695.485352	49650.347656
1694.461914	50263.726563
1693.438477	49632.742188
1692.415039	50542.640625
1691.390625	50244.113281
1690.367188	50586.414063
1689.342773	50475.417969
1688.318359	50333.621094
1687.293945	50891.554688
1686.269531	50365.566406
1685.244141	51056.062500
1684.218750	50269.472656
1683.194336	50374.320313
1682.168945	51220.839844
1681.142578	50569.679688
1680.117188	50859.179688
1679.090820	51212.523438
1678.064453	51582.320313
1677.038086	50957.589844
1676.011719	50820.718750
1674.985352	51673.195313
1673.958008	51240.453125
1672.931641	51318.894531
1671.904297	51569.988281
1670.876953	51565.562500
1669.848633	51781.050781
1668.821289	51641.824219
1667.792969	52027.410156
1666.764648	52226.152344
1665.736328	52167.253906
1664.708008	52446.222656
1663.679688	52332.976563
1662.650391	52522.062500
1661.621094	52574.128906
1660.591797	52807.960938
1659.562500	52911.882813
1658.533203	52841.121094
1657.502930	53577.371094
1656.472656	53329.574219
1655.442383	53964.046875
1654.412109	53926.160156
1653.381836	54093.421875
1652.351563	54189.898438
1651.320313	54491.406250
1650.289063	54797.515625
1649.257813	54472.039063
1648.226563	54785.105469
1647.194336	55069.796875
1646.163086	54864.542969
1645.130859	55801.335938
1644.098633	55318.226563
1643.066406	55183.644531
1642.033203	55185.597656
1641.000977	55947.542969
1639.967773	56198.722656
1638.934570	56049.957031
1637.901367	56505.617188
1636.868164	56624.886719
1635.833984	57012.105469
1634.800781	56698.761719
1633.766602	56721.578125
1632.732422	57357.617188
1631.697266	57828.992188
1630.663086	57976.066406
1629.627930	57653.429688
1628.593750	58225.449219
1627.558594	58067.199219
1626.522461	58420.660156
1625.487305	58691.863281
1624.451172	58392.832031
1623.416016	59111.984375
1622.379883	58944.324219
1621.343750	59789.750000
1620.306641	60444.960938
1619.270508	61341.382813
1618.233398	62574.976563
1617.196289	64304.910156
1616.159180	64970.558594
1615.122070	67102.351563
1614.083984	68071.718750
1613.046875	69841.585938
1612.008789	70262.273438
1610.970703	71382.710938
1609.932617	71096.171875
1608.893555	71163.070313
1607.855469	69706.890625
1606.816406	68959.984375
1605.777344	67507.054688
1604.738281	66082.695313
1603.698242	65156.812500
1602.659180	63515.988281
1601.619141	63074.656250
1600.579102	62107.734375
1599.539063	61108.445313
1598.499023	60735.507813
1597.458008	60341.683594
1596.417969	59588.410156
1595.376953	59547.441406
1594.335938	58841.253906
1593.294922	58602.062500
1592.252930	59104.941406
1591.210938	58560.175781
1590.169922	58078.574219
1589.127930	58744.519531
1588.084961	58349.324219
1587.042969	58735.230469
1586.000000	58093.105469
1584.958008	58371.714844
1583.915039	58233.160156
1582.872070	58362.546875
1581.828125	57949.195313
1580.785156	57955.160156
1579.741211	58459.382813
1578.697266	58192.886719
1577.653320	58187.160156
1576.609375	58116.273438
1575.564453	58743.410156
1574.520508	57967.597656
1573.475586	58431.722656
1572.430664	58358.511719
1571.384766	58757.296875
1570.339844	58711.941406
1569.293945	58761.890625
1568.249023	58804.851563
1567.202148	57906.839844
1566.156250	58381.996094
1565.110352	58234.546875
1564.063477	58082.503906
1563.017578	57329.199219
1561.970703	57822.675781
1560.922852	57420.128906
1559.875977	57252.085938
1558.829102	57019.140625
1557.781250	57528.550781
1556.733398	57207.507813
1555.685547	57514.964844
1554.636719	57488.460938
1553.588867	57220.902344
1552.540039	57335.828125
1551.491211	57668.519531
1550.442383	57275.960938
1549.393555	57203.191406
1548.344727	57570.457031
1547.294922	57229.062500
1546.245117	57397.093750
1545.195313	56514.218750
1544.145508	57314.101563
1543.094727	56827.210938
1542.044922	57048.394531
1540.994141	57553.996094
1539.943359	56891.562500
1538.892578	56809.718750
1537.840820	57074.660156
1536.790039	57177.710938
1535.738281	56760.769531
1534.686523	56709.031250
1533.634766	56400.890625
1532.583008	56681.824219
1531.530273	56750.207031
1530.477539	56278.285156
1529.424805	55949.656250
1528.372070	56410.488281
1527.319336	55802.726563
1526.265625	56120.367188
1525.212891	55711.257813
1524.159180	55687.453125
1523.105469	55815.847656
1522.051758	55234.085938
1520.997070	55498.515625
1519.942383	56020.976563
1518.888672	55137.617188
1517.833984	55855.785156
1516.778320	55804.328125
1515.723633	56100.648438
1514.667969	55786.656250
1513.612305	55742.136719
1512.556641	55895.589844
1511.500977	55701.472656
1510.445313	55935.410156
1509.388672	56323.398438
1508.332031	55871.679688
1507.275391	55560.406250
1506.218750	56380.527344
1505.162109	56669.296875
1504.104492	55813.285156
1503.047852	56403.101563
1501.990234	56075.917969
1500.931641	56780.335938
1499.874023	56078.800781
1498.816406	55770.210938
1497.757813	56306.687500
1496.699219	56177.226563
1495.640625	55912.390625
1494.582031	56565.582031
1493.522461	55956.601563
1492.462891	56779.304688
1491.403320	56388.390625
1490.343750	56807.113281
1489.284180	56732.734375
1488.224609	56452.066406
1487.164063	56721.570313
1486.103516	56500.582031
1485.042969	56710.402344
1483.982422	56645.257813
1482.920898	56220.554688
1481.860352	56574.574219
1480.798828	56543.824219
1479.737305	56529.109375
1478.675781	56569.324219
1477.613281	56742.242188
1476.550781	57091.257813
1475.489258	56779.078125
1474.426758	56659.117188
1473.363281	57101.707031
1472.300781	56878.847656
1471.237305	57417.238281
1470.174805	57057.273438
1469.111328	57289.246094
1468.046875	57619.367188
1466.983398	57672.988281
1465.919922	57740.289063
1464.855469	57832.679688
1463.791016	58107.667969
1462.726563	57777.683594
1461.661133	58529.542969
1460.596680	58211.007813
1459.531250	58107.027344
1458.465820	58940.527344
1457.400391	58409.996094
1456.334961	58698.203125
1455.268555	59098.003906
1454.202148	58770.578125
1453.135742	59015.253906
1452.069336	58820.105469
1451.002930	59246.925781
1449.935547	59498.210938
1448.869141	59022.976563
1447.801758	59242.332031
1446.734375	59472.988281
1445.666016	59332.574219
1444.598633	59895.363281
1443.530273	59966.507813
1442.461914	60258.277344
1441.393555	60308.859375
1440.325195	60757.359375
1439.256836	60985.164063
1438.187500	60858.277344
1437.118164	61585.972656
1436.048828	62170.250000
1434.979492	62020.492188
1433.909180	62804.363281
1432.839844	63104.214844
1431.769531	63063.351563
1430.699219	63919.257813
1429.627930	63553.667969
1428.557617	63832.734375
1427.486328	64529.195313
1426.416016	64460.878906
1425.343750	64297.316406
1424.272461	64768.800781
1423.201172	64693.664063
1422.128906	64069.941406
1421.056641	64527.601563
1419.984375	64552.257813
1418.912109	64062.566406
1417.839844	64259.457031
1416.766602	64338.496094
1415.693359	63923.832031
1414.620117	64849.687500
1413.546875	64774.636719
1412.473633	64903.308594
1411.399414	64475.250000
1410.325195	65174.078125
1409.250977	65194.019531
1408.176758	65960.312500
1407.102539	65717.789063
1406.027344	65767.007813
1404.952148	66119.101563
1403.876953	66098.164063
1402.801758	66784.500000
1401.726563	66440.367188
1400.650391	67110.578125
1399.574219	66897.492188
1398.498047	67059.320313
1397.421875	67092.390625
1396.345703	67186.398438
1395.268555	67257.804688
1394.191406	67746.617188
1393.114258	67842.703125
1392.037109	68337.992188
1390.959961	68934.585938
1389.881836	69028.140625
1388.804688	69933.242188
1387.726563	70157.312500
1386.647461	70279.882813
1385.569336	71105.398438
1384.491211	71540.882813
1383.412109	72088.828125
1382.333008	72201.945313
1381.253906	72339.789063
1380.173828	73296.992188
1379.094727	73072.210938
1378.014648	73353.835938
1376.934570	74080.835938
1375.854492	73437.617188
1374.773438	73210.710938
1373.693359	73669.734375
1372.612305	73249.515625
1371.531250	73054.226563
1370.450195	72420.742188
1369.369141	72902.046875
1368.287109	72603.570313
1367.205078	72046.875000
1366.123047	71919.343750
1365.041016	71780.625000
1363.958984	71922.585938
1362.875977	71707.593750
1361.793945	71815.843750
1360.710938	71239.687500
1359.626953	70751.226563
1358.543945	71436.039063
1357.460938	70745.875000
1356.376953	70892.304688
1355.292969	70884.000000
1354.208984	70761.375000
1353.124023	70788.945313
1352.040039	70975.578125
1350.955078	70752.187500
1349.870117	70932.039063
1348.785156	70903.554688
1347.700195	70335.484375
1346.614258	70821.992188
1345.528320	70578.671875
1344.442383	70424.945313
1343.356445	70548.710938
1342.270508	70931.914063
1341.183594	71053.296875
1340.096680	70620.062500
1339.009766	71094.703125
1337.922852	71110.921875
1336.835938	71288.046875
1335.748047	71442.757813
1334.661133	71695.710938
1333.573242	71271.757813
1332.484375	71415.210938
1331.396484	71980.632813
1330.307617	72023.437500
1329.219727	72197.921875
1328.130859	72483.921875
1327.041992	72595.773438
1325.952148	72100.781250
1324.863281	72814.890625
1323.773438	72890.937500
1322.683594	72949.109375
1321.593750	72906.937500
1320.502930	72889.296875
1319.413086	72856.062500
1318.322266	72305.921875
1317.231445	73386.640625
1316.140625	73333.281250
1315.048828	73326.695313
1313.958008	73217.695313
1312.866211	73413.703125
1311.774414	73649.703125
1310.682617	74301.734375
1309.589844	74392.859375
1308.498047	74557.359375
1307.405273	74368.171875
1306.312500	74783.882813
1305.218750	74828.156250
1304.125977	75201.390625
1303.032227	75390.023438
1301.939453	75323.054688
1300.845703	75627.117188
1299.750977	75793.351563
1298.657227	76099.429688
1297.562500	76853.929688
1296.467773	76142.921875
1295.373047	77036.968750
1294.278320	77089.601563
1293.183594	77350.781250
1292.087891	77935.750000
1290.992188	77970.437500
1289.896484	78014.273438
1288.800781	78058.117188
1287.704102	78101.992188
1286.608398	78145.835938
1285.511719	78189.710938
1284.415039	78233.593750
1283.317383	78897.281250
1282.220703	78632.718750
1281.123047	77588.765625
1280.025391	77977.656250
1278.927734	77086.937500
1277.830078	77548.812500
1276.731445	77034.664063
1275.633789	77443.273438
1274.535156	76500.195313
1273.436523	76534.984375
1272.336914	76010.320313
1271.238281	76073.921875
1270.138672	75803.726563
1269.039063	75798.820313
1267.939453	74715.632813
1266.839844	75451.007813
1265.739258	74874.078125
1264.638672	74836.210938
1263.538086	74880.046875
1262.437500	74168.867188
1261.336914	74473.250000
1260.235352	74042.656250
1259.134766	74201.328125
1258.033203	73693.726563
1256.930664	73254.671875
1255.829102	73627.296875
1254.726563	73373.617188
1253.625000	73155.296875
1252.522461	73073.695313
1251.418945	73152.992188
1250.316406	72914.984375
1249.212891	73507.523438
1248.110352	72685.906250
1247.006836	72527.382813
1245.902344	72150.953125
1244.798828	72624.320313
1243.694336	72329.437500
1242.589844	72886.210938
1241.485352	71676.171875
1240.380859	72364.835938
1239.276367	72131.773438
1238.170898	72057.109375
1237.065430	72602.421875
1235.959961	72178.210938
1234.854492	71888.203125
1233.748047	72046.531250
1232.642578	72354.179688
1231.536133	72268.554688
1230.429688	72374.007813
1229.322266	72139.101563
1228.215820	71752.812500
1227.108398	72503.570313
1226.000977	71924.242188
1224.893555	71748.812500
1223.786133	72145.984375
1222.677734	71773.179688
1221.569336	71924.601563
1220.460938	72043.070313
1219.352539	71968.601563
1218.244141	71736.359375
1217.134766	71583.078125
1216.025391	71673.031250
1214.916016	71364.296875
1213.806641	71590.039063
1212.697266	71940.500000
1211.586914	71550.867188
1210.476563	71758.929688
1209.366211	71730.562500
1208.255859	72544.593750
1207.145508	71910.109375
1206.034180	72347.601563
1204.922852	72327.882813
1203.811523	72878.835938
1202.700195	71975.851563
1201.587891	72141.976563
1200.476563	72710.132813
1199.364258	72753.710938
1198.251953	73221.054688
1197.138672	73306.015625
1196.026367	73397.492188
1194.913086	73543.507813
1193.799805	73984.164063
1192.686523	74188.945313
1191.573242	74784.242188
1190.458984	74521.914063
1189.344727	73941.210938
1188.230469	74359.570313
1187.116211	74254.453125
1186.001953	74598.468750
1184.886719	74151.125000
1183.772461	73377.046875
1182.657227	74132.835938
1181.541016	73598.671875
1180.425781	73796.539063
1179.309570	73796.164063
1178.193359	73667.328125
1177.077148	73497.171875
1175.960938	73407.601563
1174.844727	72641.289063
1173.727539	73252.484375
1172.610352	72495.179688
1171.493164	72257.945313
1170.375977	72427.445313
