#Wave		#Intensity
2001.242188	33289.140625
2000.272461	33126.218750
1999.302734	33052.769531
1998.333008	33325.128906
1997.363281	33472.128906
1996.392578	33401.160156
1995.422852	32899.468750
1994.452148	33389.496094
1993.481445	33068.230469
1992.510742	33530.523438
1991.540039	32994.117188
1990.568359	33123.472656
1989.596680	33332.835938
1988.625977	33256.976563
1987.654297	33231.160156
1986.681641	33010.320313
1985.709961	33679.546875
1984.738281	33491.199219
1983.765625	33310.410156
1982.792969	33124.687500
1981.820313	33581.070313
1980.847656	33080.640625
1979.874023	33649.250000
1978.901367	33568.464844
1977.927734	33477.718750
1976.954102	33152.375000
1975.980469	33568.335938
1975.006836	33507.578125
1974.032227	33509.203125
1973.058594	33593.140625
1972.083984	33799.246094
1971.109375	33616.304688
1970.134766	33533.148438
1969.160156	33185.804688
1968.184570	33494.011719
1967.209961	33727.355469
1966.234375	33218.226563
1965.258789	33640.835938
1964.283203	33572.695313
1963.306641	33960.234375
1962.331055	33446.437500
1961.354492	33682.027344
1960.377930	33810.519531
1959.401367	33660.292969
1958.424805	33549.917969
1957.447266	33591.308594
1956.470703	33776.921875
1955.493164	33589.500000
1954.515625	33876.972656
1953.538086	33707.000000
1952.560547	33725.953125
1951.582031	33707.628906
1950.604492	33935.250000
1949.625977	33685.894531
1948.647461	33843.906250
1947.668945	33294.210938
1946.689453	33846.953125
1945.710938	33751.675781
1944.731445	33827.660156
1943.751953	33906.101563
1942.772461	33694.257813
1941.792969	34122.425781
1940.813477	33826.296875
1939.833008	34093.121094
1938.852539	33554.152344
1937.873047	33838.277344
1936.891602	34013.257813
1935.911133	33985.003906
1934.930664	34003.824219
1933.949219	33680.828125
1932.967773	34078.589844
1931.986328	33919.109375
1931.004883	33732.449219
1930.023438	34253.746094
1929.041016	33901.285156
1928.059570	34207.105469
1927.077148	33750.871094
1926.094727	34162.964844
1925.112305	33961.613281
1924.128906	33691.097656
1923.146484	33724.750000
1922.163086	34232.953125
1921.179688	33922.988281
1920.196289	34097.410156
1919.212891	34271.773438
1918.228516	34107.691406
1917.245117	33748.566406
1916.260742	34078.449219
1915.276367	34079.882813
1914.291992	34098.589844
1913.307617	33937.140625
1912.322266	34148.316406
1911.336914	33999.246094
1910.352539	33877.359375
1909.367188	34320.242188
1908.380859	34301.894531
1907.395508	33938.425781
1906.409180	34026.136719
1905.423828	34372.566406
1904.437500	34169.425781
1903.451172	34338.339844
1902.463867	33970.246094
1901.477539	34587.328125
1900.490234	34411.371094
1899.503906	34380.714844
1898.516602	34172.855469
1897.528320	34474.468750
1896.541016	34461.039063
1895.553711	34026.949219
1894.565430	34584.222656
1893.577148	34637.171875
1892.588867	34072.960938
1891.600586	34551.265625
1890.611328	34532.910156
1889.623047	34421.179688
1888.633789	34486.390625
1887.644531	34492.617188
1886.655273	34221.300781
1885.666016	34534.535156
1884.675781	34398.339844
1883.686523	34588.687500
1882.696289	34288.085938
1881.706055	34878.378906
1880.715820	34339.835938
1879.724609	34456.460938
1878.734375	34840.386719
1877.743164	34951.972656
1876.751953	34582.964844
1875.760742	34326.847656
1874.769531	34732.578125
1873.778320	35037.695313
1872.786133	34850.230469
1871.793945	34760.820313
1870.801758	34916.363281
1869.809570	35164.902344
1868.817383	35249.312500
1867.824219	34885.718750
1866.832031	34913.851563
1865.838867	34964.000000
1864.845703	34908.921875
1863.851563	35387.136719
1862.858398	34808.601563
1861.865234	34809.816406
1860.871094	35275.570313
1859.876953	34883.136719
1858.882813	34994.320313
1857.887695	35049.257813
1856.893555	35426.683594
1855.898438	35347.167969
1854.904297	35013.675781
1853.909180	35241.945313
1852.913086	35160.058594
1851.917969	35495.625000
1850.922852	35421.046875
1849.926758	35448.976563
1848.930664	35752.593750
1847.934570	35587.746094
1846.938477	35857.085938
1845.941406	35272.851563
1844.945313	35788.394531
1843.948242	36206.246094
1842.951172	36002.460938
1841.954102	35913.273438
1840.956055	35916.699219
1839.958984	35888.457031
1838.960938	36016.093750
1837.962891	36231.343750
1836.964844	36646.160156
1835.966797	36174.777344
1834.968750	36243.855469
1833.969727	36266.675781
1832.970703	36530.343750
1831.971680	36351.207031
1830.972656	36361.832031
1829.973633	36370.019531
1828.973633	36470.585938
1827.974609	36439.855469
1826.974609	36440.730469
1825.974609	36276.367188
1824.974609	36614.968750
1823.973633	36423.910156
1822.973633	36708.929688
1821.972656	36942.859375
1820.971680	37004.328125
1819.970703	36900.714844
1818.968750	36644.238281
1817.967773	36550.429688
1816.965820	36789.023438
1815.964844	36797.093750
1814.961914	36802.738281
1813.959961	37225.441406
1812.958008	37138.875000
1811.955078	37316.550781
1810.953125	37397.218750
1809.950195	37073.203125
1808.947266	37333.160156
1807.943359	37508.250000
1806.940430	37077.820313
1805.936523	37412.699219
1804.932617	37224.531250
1803.928711	37249.433594
1802.924805	37521.179688
1801.920898	37277.433594
1800.916016	37527.300781
1799.911133	37525.519531
1798.907227	37545.503906
1797.901367	37497.777344
1796.896484	37413.804688
1795.891602	37595.738281
1794.885742	37702.691406
1793.879883	37580.058594
1792.874023	37602.421875
1791.868164	37692.402344
1790.862305	37830.652344
1789.855469	37782.929688
1788.848633	37957.320313
1787.842773	38283.714844
1786.834961	38219.039063
1785.828125	38120.609375
1784.821289	38495.042969
1783.813477	38401.417969
1782.805664	38117.308594
1781.797852	38573.519531
1780.790039	38805.371094
1779.782227	38571.953125
1778.773438	38071.121094
1777.764648	38780.003906
1776.755859	38467.214844
1775.747070	38915.644531
1774.738281	38463.261719
1773.729492	38718.914063
1772.719727	38649.488281
1771.709961	38791.886719
1770.700195	38958.304688
1769.690430	38951.421875
1768.680664	38898.835938
1767.669922	38752.464844
1766.659180	39481.476563
1765.648438	39399.968750
1764.637695	39496.375000
1763.626953	39460.554688
1762.615234	39434.359375
1761.604492	39528.300781
1760.592773	39480.480469
1759.581055	39929.843750
1758.569336	39874.757813
1757.556641	39973.355469
1756.544922	40071.910156
1755.532227	40535.250000
1754.519531	40000.156250
1753.506836	40185.023438
1752.494141	40360.230469
1751.480469	40480.210938
1750.466797	40674.484375
1749.454102	40557.003906
1748.440430	40851.871094
1747.425781	40736.796875
1746.412109	40923.691406
1745.397461	41206.355469
1744.383789	41369.144531
1743.369141	40657.691406
1742.353516	41270.699219
1741.338867	40820.480469
1740.324219	41447.601563
1739.308594	41346.929688
1738.292969	41365.937500
1737.277344	41691.171875
1736.261719	41925.390625
1735.245117	42025.597656
1734.229492	42250.105469
1733.212891	42142.218750
1732.196289	42720.398438
1731.179688	42956.609375
1730.162109	43075.652344
1729.145508	43122.976563
1728.127930	43483.195313
1727.110352	43673.722656
1726.092773	43584.808594
1725.075195	44434.164063
1724.056641	44409.589844
1723.039063	44537.761719
1722.020508	45083.457031
1721.001953	45118.414063
1719.983398	45258.312500
1718.963867	45534.097656
1717.945313	45681.023438
1716.925781	45768.292969
1715.906250	46320.332031
1714.886719	45804.511719
1713.867188	46587.468750
1712.846680	46345.750000
1711.826172	46549.527344
1710.806641	46186.441406
1709.786133	46030.632813
1708.764648	46448.609375
1707.744141	46985.449219
1706.722656	46253.667969
1705.701172	46740.378906
1704.679688	46879.593750
1703.658203	47178.113281
1702.636719	47017.554688
1701.614258	46838.027344
1700.592773	47112.621094
1699.570313	46895.105469
1698.547852	47012.742188
1697.524414	47199.242188
1696.501953	47164.742188
1695.478516	46916.488281
1694.456055	47200.261719
1693.432617	47206.136719
1692.408203	47781.746094
1691.384766	47709.187500
1690.360352	47356.636719
1689.336914	47417.042969
1688.312500	47690.925781
1687.288086	48367.914063
1686.262695	47764.121094
1685.238281	48170.562500
1684.212891	48448.851563
1683.187500	48101.332031
1682.162109	48313.175781
1681.136719	49093.570313
1680.110352	48603.984375
1679.084961	49099.832031
1678.058594	49408.433594
1677.032227	49030.320313
1676.005859	49469.015625
1674.978516	49753.710938
1673.952148	49751.976563
1672.924805	49627.218750
1671.897461	49351.109375
1670.870117	49829.550781
1669.842773	49541.675781
1668.814453	50100.292969
1667.787109	50117.402344
1666.758789	50460.644531
1665.730469	49865.671875
1664.701172	50334.050781
1663.672852	50088.898438
1662.643555	50294.917969
1661.615234	50378.074219
1660.585938	50435.230469
1659.555664	51021.105469
1658.526367	50596.675781
1657.497070	50767.019531
1656.466797	51387.902344
1655.436523	51642.957031
1654.406250	50956.933594
1653.375977	51237.906250
1652.344727	51799.320313
1651.313477	51653.402344
1650.282227	51601.800781
1649.250977	51691.593750
1648.219727	51503.363281
1647.188477	51687.351563
1646.156250	52007.867188
1645.124023	51972.718750
1644.091797	51883.441406
1643.059570	52413.222656
1642.027344	52394.492188
1640.994141	52368.707031
1639.961914	52594.644531
1638.928711	52684.078125
1637.895508	52782.886719
1636.861328	53297.824219
1635.828125	53067.367188
1634.793945	53553.863281
1633.759766	53875.687500
1632.725586	53715.730469
1631.691406	54711.609375
1630.656250	54826.359375
1629.622070	55103.101563
1628.586914	54952.421875
1627.551758	55508.386719
1626.516602	55667.500000
1625.480469	56253.640625
1624.445313	56909.957031
1623.409180	57451.093750
1622.373047	57846.621094
1621.336914	58764.929688
1620.300781	59314.820313
1619.263672	60588.847656
1618.227539	61466.332031
1617.190430	62931.667969
1616.153320	63967.734375
1615.115234	65333.714844
1614.078125	66155.851563
1613.040039	67947.125000
1612.001953	68517.992188
1610.963867	68910.750000
1609.925781	68818.906250
1608.887695	68942.367188
1607.848633	67315.796875
1606.809570	66735.398438
1605.770508	65731.898438
1604.731445	64370.988281
1603.692383	63728.296875
1602.652344	62478.085938
1601.613281	61307.777344
1600.573242	60796.816406
1599.533203	60519.656250
1598.492188	59333.964844
1597.452148	58797.929688
1596.411133	58894.859375
1595.370117	58387.101563
1594.329102	58351.019531
1593.288086	57820.203125
1592.247070	57504.234375
1591.205078	57263.027344
1590.163086	57486.066406
1589.121094	56951.105469
1588.079102	57190.437500
1587.036133	57187.234375
1585.994141	57477.710938
1584.951172	56873.210938
1583.908203	57072.765625
1582.865234	57078.894531
1581.822266	57313.277344
1580.778320	57177.300781
1579.734375	57977.355469
1578.691406	57720.257813
1577.646484	58112.617188
1576.602539	58309.359375
1575.558594	58394.347656
1574.513672	58504.894531
1573.468750	58773.554688
1572.423828	58439.835938
1571.378906	58926.957031
1570.333008	59495.261719
1569.288086	58575.894531
1568.242188	58212.230469
1567.196289	57920.718750
1566.150391	57773.328125
1565.103516	57361.222656
1564.057617	56946.937500
1563.010742	56360.996094
1561.963867	56346.292969
1560.916992	55983.460938
1559.869141	55346.949219
1558.822266	55729.148438
1557.774414	55568.425781
1556.726563	55669.820313
1555.678711	55567.128906
1554.630859	55381.007813
1553.582031	54717.457031
1552.534180	54902.355469
1551.485352	54686.324219
1550.436523	55288.167969
1549.386719	55162.476563
1548.337891	54881.660156
1547.288086	54725.980469
1546.238281	54331.906250
1545.188477	54590.695313
1544.138672	54703.593750
1543.088867	54244.937500
1542.038086	54464.269531
1540.987305	54540.117188
1539.936523	54403.175781
1538.885742	54252.410156
1537.834961	54069.332031
1536.783203	53969.527344
1535.731445	53657.148438
1534.679688	54687.281250
1533.627930	53746.535156
1532.576172	53951.726563
1531.523438	54108.347656
1530.471680	54015.550781
1529.418945	53502.652344
1528.366211	53698.496094
1527.312500	53356.597656
1526.259766	52857.929688
1525.206055	52945.359375
1524.152344	53173.445313
1523.098633	53479.847656
1522.044922	52651.812500
1520.990234	53075.757813
1519.936523	52794.300781
1518.881836	52969.199219
1517.827148	52609.531250
1516.772461	53051.597656
1515.716797	52848.644531
1514.662109	52634.250000
1513.606445	52659.363281
1512.550781	52470.394531
1511.495117	52194.039063
1510.438477	52520.640625
1509.382813	52948.355469
1508.326172	52032.601563
1507.269531	52998.390625
1506.212891	52903.824219
1505.155273	52602.382813
1504.098633	52900.968750
1503.041016	52808.761719
1501.983398	52606.296875
1500.925781	53035.660156
1499.867188	52729.863281
1498.809570	53025.851563
1497.750977	52630.613281
1496.692383	52848.453125
1495.633789	52912.433594
1494.575195	53029.171875
1493.515625	52861.355469
1492.457031	52881.703125
1491.397461	52959.386719
1490.337891	52681.593750
1489.277344	52734.054688
1488.217773	52662.710938
1487.157227	52472.207031
1486.096680	52508.632813
1485.036133	52515.257813
1483.975586	52966.281250
1482.915039	53126.269531
1481.853516	53059.500000
1480.791992	53223.988281
1479.730469	52806.988281
1478.668945	53630.597656
1477.606445	53030.609375
1476.544922	52808.328125
1475.482422	52878.917969
1474.419922	53127.867188
1473.357422	53472.765625
1472.293945	53248.273438
1471.231445	52845.562500
1470.167969	53647.398438
1469.104492	53208.195313
1468.041016	53242.058594
1466.976563	53333.007813
1465.913086	53704.824219
1464.848633	53807.074219
1463.784180	53637.613281
1462.719727	53988.625000
1461.655273	53691.390625
1460.589844	54108.433594
1459.524414	54146.628906
1458.458984	54805.210938
1457.393555	54453.300781
1456.328125	54051.351563
1455.261719	54153.351563
1454.196289	54471.843750
1453.129883	54473.457031
1452.063477	54743.921875
1450.996094	54474.398438
1449.929688	54967.968750
1448.862305	55354.332031
1447.794922	55141.753906
1446.727539	55225.183594
1445.660156	55121.949219
1444.591797	55446.554688
1443.524414	55798.347656
1442.456055	56482.121094
1441.387695	56105.804688
1440.318359	56455.007813
1439.250000	56999.605469
1438.180664	57048.464844
1437.111328	57092.757813
1436.041992	57514.234375
1434.972656	57465.277344
1433.903320	57802.484375
1432.833008	58219.058594
1431.762695	57656.820313
1430.692383	58357.046875
1429.622070	58734.703125
1428.550781	58601.593750
1427.480469	59335.300781
1426.409180	59882.714844
1425.337891	59828.851563
1424.266602	60065.285156
1423.194336	60308.433594
1422.122070	60614.968750
1421.050781	60778.593750
1419.978516	61019.207031
1418.905273	61318.644531
1417.833008	61033.503906
1416.759766	60680.515625
1415.687500	60508.816406
1414.614258	60106.234375
1413.540039	59574.761719
1412.466797	59428.242188
1411.392578	59442.441406
1410.319336	58558.414063
1409.245117	58923.386719
1408.169922	58539.601563
1407.095703	58872.781250
1406.020508	58688.097656
1404.946289	59260.734375
1403.871094	59139.324219
1402.794922	60082.257813
1401.719727	60453.257813
1400.643555	60236.816406
1399.568359	60402.128906
1398.492188	60560.605469
1397.415039	60007.871094
1396.338867	60355.960938
1395.261719	60469.218750
1394.185547	60954.738281
1393.108398	60632.429688
1392.031250	61223.753906
1390.953125	61882.519531
1389.875977	61833.039063
1388.797852	61914.332031
1387.719727	62216.480469
1386.641602	62230.058594
1385.562500	61811.023438
1384.484375	62392.359375
1383.405273	61698.656250
1382.326172	62318.082031
1381.247070	61969.117188
1380.166992	61757.597656
1379.087891	61393.105469
1378.007813	61460.796875
1376.927734	61616.214844
1375.847656	61467.886719
1374.767578	61373.585938
1373.686523	60973.496094
1372.605469	60766.902344
1371.524414	60432.250000
1370.443359	59953.875000
1369.362305	60363.265625
1368.280273	60356.875000
1367.199219	60197.734375
1366.117188	60519.265625
1365.034180	60640.828125
1363.952148	61406.679688
1362.870117	60924.226563
1361.787109	61263.335938
1360.704102	62304.644531
1359.621094	61808.820313
1358.537109	61497.101563
1357.454102	62335.960938
1356.370117	61705.859375
1355.286133	61114.093750
1354.202148	60704.093750
1353.118164	60184.429688
1352.033203	60113.070313
1350.948242	59304.707031
1349.863281	58962.511719
1348.778320	58642.832031
1347.693359	58117.281250
1346.607422	58395.562500
1345.521484	57928.433594
1344.435547	57870.980469
1343.349609	57556.246094
1342.263672	57659.937500
1341.176758	58076.707031
1340.090820	57999.132813
1339.003906	58379.914063
1337.916016	57859.710938
1336.829102	58148.738281
1335.741211	57492.453125
1334.654297	57964.640625
1333.566406	57907.257813
1332.478516	58280.929688
1331.389648	58808.531250
1330.301758	58605.910156
1329.212891	58695.761719
1328.124023	58901.632813
1327.035156	58888.753906
1325.945313	59647.773438
1324.856445	59632.531250
1323.766602	59996.410156
1322.676758	60328.937500
1321.586914	61401.468750
1320.496094	61428.257813
1319.406250	62678.476563
1318.315430	63529.410156
1317.224609	64460.234375
1316.133789	64784.894531
1315.041992	65897.750000
1313.951172	66197.539063
1312.859375	67340.898438
1311.767578	67504.546875
1310.675781	66844.781250
1309.583008	66543.460938
1308.491211	65990.875000
1307.398438	65616.414063
1306.305664	64775.117188
1305.212891	64336.535156
1304.119141	63958.121094
1303.026367	63728.746094
1301.932617	63768.320313
1300.838867	63832.316406
1299.744141	64245.019531
1298.650391	64859.667969
1297.555664	65474.093750
1296.461914	65733.085938
1295.366211	66247.242188
1294.271484	66692.406250
1293.176758	66518.359375
1292.081055	66446.414063
1290.985352	66181.531250
1289.889648	65209.312500
1288.793945	65006.820313
1287.697266	64915.242188
1286.601563	63974.804688
1285.504883	64127.203125
1284.408203	63235.984375
1283.311523	63428.328125
1282.213867	62635.007813
1281.116211	62129.847656
1280.018555	61815.269531
1278.920898	60936.332031
1277.823242	61837.136719
1276.725586	61029.316406
1275.626953	60400.996094
1274.528320	60144.515625
1273.429688	60268.523438
1272.330078	59481.464844
1271.231445	59755.878906
1270.131836	59440.011719
1269.032227	59455.753906
1267.932617	58843.964844
1266.833008	58886.316406
1265.732422	58586.285156
1264.632813	58584.496094
1263.532227	58209.550781
1262.430664	57823.703125
1261.330078	58192.855469
1260.228516	57425.367188
1259.127930	57849.613281
1258.026367	57620.726563
1256.924805	57352.218750
1255.822266	57513.820313
1254.720703	57371.097656
1253.618164	56818.406250
1252.515625	56927.113281
1251.413086	56930.003906
1250.309570	57104.742188
1249.207031	56651.617188
1248.103516	57125.863281
1247.000000	56179.644531
1245.895508	56763.878906
1244.791992	57028.726563
1243.687500	56824.703125
1242.583008	56642.757813
1241.478516	56630.273438
1240.374023	56809.160156
1239.269531	57225.488281
1238.164063	57265.671875
1237.058594	57224.496094
1235.953125	57161.351563
1234.847656	56726.832031
1233.741211	56914.277344
1232.635742	57237.855469
1231.529297	56937.531250
1230.422852	57072.125000
1229.315430	57226.429688
1228.208984	57027.242188
1227.101563	57385.609375
1225.994141	57206.214844
1224.886719	57783.816406
1223.779297	57856.671875
1222.670898	57446.992188
1221.562500	57767.667969
1220.454102	57193.718750
1219.345703	56639.699219
1218.237305	56888.015625
1217.127930	57164.726563
1216.018555	56968.113281
1214.909180	57117.660156
1213.799805	56518.156250
1212.690430	55973.609375
1211.580078	56550.144531
1210.469727	56366.945313
1209.359375	56726.539063
1208.249023	56700.906250
1207.138672	56659.968750
1206.027344	57325.519531
1204.916016	57032.992188
1203.804688	57516.753906
1202.693359	57324.847656
1201.581055	57480.527344
1200.469727	57124.800781
1199.357422	57769.863281
1198.245117	57560.566406
1197.131836	58480.503906
1196.019531	58135.761719
1194.906250	58463.585938
1193.792969	58747.632813
1192.679688	59116.691406
1191.566406	58641.148438
1190.452148	58375.218750
1189.337891	58990.617188
1188.223633	58310.347656
1187.109375	58247.398438
1185.995117	57375.656250
1184.879883	57086.207031
1183.764648	57197.855469
1182.649414	56745.121094
1181.534180	56756.570313
1180.418945	56436.941406
1179.302734	57056.023438
1178.186523	56172.527344
1177.070313	56353.863281
1175.954102	56067.179688
1174.837891	56191.882813
1173.720703	56375.285156
1172.603516	55899.492188
1171.486328	55758.808594
1170.369141	55855.203125
